05/20/2022	16:07:26	Ver.	4.1	UNKNOWN
Optical Delay	639.982744	Delta X		0.078125	Sweeps	1	Scan Rate	0/0
Coordinates	Axis 1	NaN	Axis 2	NaN	Axis 3	NaN	Axis 4	NaN	Axis 5	NaN	Axis 6	0.000000
TX Power	0.000000	RX Power	0.000000

639.983	0.0148922
640.061	0.0149731
640.139	0.0148803
640.217	0.0148466
640.295	0.0148544
640.373	0.0148611
640.451	0.0148416
640.530	0.0148819
640.608	0.0148338
640.686	0.0147770
640.764	0.0148587
640.842	0.0149722
640.920	0.0148794
640.998	0.0147498
641.076	0.0148589
641.155	0.0148602
641.233	0.0148542
641.311	0.0148289
641.389	0.0148867
641.467	0.0147920
641.545	0.0147905
641.623	0.0149071
641.701	0.0147579
641.780	0.0149339
641.858	0.0148959
641.936	0.0148561
642.014	0.0147533
642.092	0.0148081
642.170	0.0148213
642.248	0.0148682
642.326	0.0148522
642.405	0.0149395
642.483	0.0148419
642.561	0.0148750
642.639	0.0147611
642.717	0.0148367
642.795	0.0148386
642.873	0.0148176
642.951	0.0148813
643.030	0.0148582
643.108	0.0149110
643.186	0.0148270
643.264	0.0149016
643.342	0.0147822
643.420	0.0148055
643.498	0.0147961
643.576	0.0148535
643.655	0.0150442
643.733	0.0149239
643.811	0.0147768
643.889	0.0149673
643.967	0.0149210
644.045	0.0149242
644.123	0.0148853
644.201	0.0148737
644.280	0.0149567
644.358	0.0149861
644.436	0.0148379
644.514	0.0149488
644.592	0.0149482
644.670	0.0148310
644.748	0.0148020
644.826	0.0147157
644.905	0.0147987
644.983	0.0149541
645.061	0.0149123
645.139	0.0148885
645.217	0.0149836
645.295	0.0148751
645.373	0.0148594
645.451	0.0148439
645.530	0.0148802
645.608	0.0149709
645.686	0.0148763
645.764	0.0149413
645.842	0.0147750
645.920	0.0149176
645.998	0.0147987
646.076	0.0147925
646.155	0.0149734
646.233	0.0148901
646.311	0.0147879
646.389	0.0149107
646.467	0.0149641
646.545	0.0149361
646.623	0.0149445
646.701	0.0148640
646.780	0.0150661
646.858	0.0148576
646.936	0.0148679
647.014	0.0148749
647.092	0.0148529
647.170	0.0149033
647.248	0.0148488
647.326	0.0148740
647.405	0.0148038
647.483	0.0147850
647.561	0.0148391
647.639	0.0148718
647.717	0.0147995
647.795	0.0149127
647.873	0.0148782
647.951	0.0149027
648.030	0.0149009
648.108	0.0149627
648.186	0.0148788
648.264	0.0149345
648.342	0.0148660
648.420	0.0148815
648.498	0.0149010
648.576	0.0150006
648.655	0.0148221
648.733	0.0149347
648.811	0.0148575
648.889	0.0150027
648.967	0.0150132
649.045	0.0149174
649.123	0.0147617
649.201	0.0149294
649.280	0.0149815
649.358	0.0148106
649.436	0.0148940
649.514	0.0149902
649.592	0.0147954
649.670	0.0147650
649.748	0.0150146
649.826	0.0148638
649.905	0.0148744
649.983	0.0147411
650.061	0.0149148
650.139	0.0149680
650.217	0.0148403
650.295	0.0147997
650.373	0.0148962
650.451	0.0147870
650.530	0.0148430
650.608	0.0147739
650.686	0.0148151
650.764	0.0149281
650.842	0.0148962
650.920	0.0148598
650.998	0.0148570
651.076	0.0149289
651.155	0.0150237
651.233	0.0149061
651.311	0.0148030
651.389	0.0148438
651.467	0.0149374
651.545	0.0150061
651.623	0.0149532
651.701	0.0148454
651.780	0.0148915
651.858	0.0147484
651.936	0.0149254
652.014	0.0150354
652.092	0.0149152
652.170	0.0149343
652.248	0.0150541
652.326	0.0149355
652.405	0.0149414
652.483	0.0148984
652.561	0.0148860
652.639	0.0148242
652.717	0.0147224
652.795	0.0148283
652.873	0.0148885
652.951	0.0147653
653.030	0.0148184
653.108	0.0149488
653.186	0.0149138
653.264	0.0149010
653.342	0.0149146
653.420	0.0149322
653.498	0.0148393
653.576	0.0149721
653.655	0.0149274
653.733	0.0148573
653.811	0.0148669
653.889	0.0148740
653.967	0.0148647
654.045	0.0148496
654.123	0.0149326
654.201	0.0148249
654.280	0.0148766
654.358	0.0148478
654.436	0.0148789
654.514	0.0148744
654.592	0.0148698
654.670	0.0148730
654.748	0.0149632
654.826	0.0148884
654.905	0.0148847
654.983	0.0148743
655.061	0.0148854
655.139	0.0148840
655.217	0.0149478
655.295	0.0148183
655.373	0.0149111
655.451	0.0148777
655.530	0.0148281
655.608	0.0149485
655.686	0.0149864
655.764	0.0149390
655.842	0.0149341
655.920	0.0150157
655.998	0.0148867
656.076	0.0148315
656.155	0.0149023
656.233	0.0149015
656.311	0.0148829
656.389	0.0149178
656.467	0.0148474
656.545	0.0148907
656.623	0.0148690
656.701	0.0148990
656.780	0.0148998
656.858	0.0149527
656.936	0.0148949
657.014	0.0150040
657.092	0.0149008
657.170	0.0148421
657.248	0.0148577
657.326	0.0149184
657.405	0.0149374
657.483	0.0149603
657.561	0.0149767
657.639	0.0148164
657.717	0.0149166
657.795	0.0148681
657.873	0.0149043
657.951	0.0148887
658.030	0.0147569
658.108	0.0148327
658.186	0.0149364
658.264	0.0148428
658.342	0.0149531
658.420	0.0149646
658.498	0.0148371
658.576	0.0150003
658.655	0.0148482
658.733	0.0147832
658.811	0.0148783
658.889	0.0149188
658.967	0.0149142
659.045	0.0149621
659.123	0.0148775
659.201	0.0148118
659.280	0.0148880
659.358	0.0148735
659.436	0.0149059
659.514	0.0149078
659.592	0.0148711
659.670	0.0148348
659.748	0.0150521
659.826	0.0148940
659.905	0.0148650
659.983	0.0148759
660.061	0.0149183
660.139	0.0148845
660.217	0.0147676
660.295	0.0148968
660.373	0.0148308
660.451	0.0148801
660.530	0.0149404
660.608	0.0149878
660.686	0.0149807
660.764	0.0148597
660.842	0.0147198
660.920	0.0150637
660.998	0.0148947
661.076	0.0149598
661.155	0.0149017
661.233	0.0149440
661.311	0.0148553
661.389	0.0148485
661.467	0.0149805
661.545	0.0148782
661.623	0.0148463
661.701	0.0149957
661.780	0.0150368
661.858	0.0148305
661.936	0.0149005
662.014	0.0147663
662.092	0.0148391
662.170	0.0149467
662.248	0.0148768
662.326	0.0149306
662.405	0.0149368
662.483	0.0148785
662.561	0.0149304
662.639	0.0148780
662.717	0.0148037
662.795	0.0149287
662.873	0.0149689
662.951	0.0149168
663.030	0.0149270
663.108	0.0149294
663.186	0.0149148
663.264	0.0148729
663.342	0.0148916
663.420	0.0149350
663.498	0.0149055
663.576	0.0148820
663.655	0.0149902
663.733	0.0149226
663.811	0.0147335
663.889	0.0148022
663.967	0.0149254
664.045	0.0148724
664.123	0.0148524
664.201	0.0148526
664.280	0.0149010
664.358	0.0147897
664.436	0.0148664
664.514	0.0148222
664.592	0.0148583
664.670	0.0149329
664.748	0.0149644
664.826	0.0148755
664.905	0.0148322
664.983	0.0148118
665.061	0.0149390
665.139	0.0149335
665.217	0.0148829
665.295	0.0149223
665.373	0.0148511
665.451	0.0149645
665.530	0.0147097
665.608	0.0148277
665.686	0.0147523
665.764	0.0149272
665.842	0.0148713
665.920	0.0147946
665.998	0.0148572
666.076	0.0149591
666.155	0.0149060
666.233	0.0149451
666.311	0.0148571
666.389	0.0149376
666.467	0.0146714
666.545	0.0148888
666.623	0.0149616
666.701	0.0148482
666.780	0.0147298
666.858	0.0148365
666.936	0.0150110
667.014	0.0149601
667.092	0.0149397
667.170	0.0148559
667.248	0.0148229
667.326	0.0148634
667.405	0.0149305
667.483	0.0149663
667.561	0.0148183
667.639	0.0148326
667.717	0.0147124
667.795	0.0148236
667.873	0.0148636
667.951	0.0148341
668.030	0.0148679
668.108	0.0147456
668.186	0.0148401
668.264	0.0148901
668.342	0.0148643
668.420	0.0148772
668.498	0.0148225
668.576	0.0147816
668.655	0.0148804
668.733	0.0148460
668.811	0.0149467
668.889	0.0148208
668.967	0.0148732
669.045	0.0148953
669.123	0.0148808
669.201	0.0148225
669.280	0.0148371
669.358	0.0149062
669.436	0.0148611
669.514	0.0148153
669.592	0.0147019
669.670	0.0148689
669.748	0.0147691
669.826	0.0149397
669.905	0.0150056
669.983	0.0149602
670.061	0.0149747
670.139	0.0149482
670.217	0.0146725
670.295	0.0148737
670.373	0.0148561
670.451	0.0149525
670.530	0.0149696
670.608	0.0149029
670.686	0.0149049
670.764	0.0150995
670.842	0.0149088
670.920	0.0149392
670.998	0.0147233
671.076	0.0147977
671.155	0.0149715
671.233	0.0149207
671.311	0.0148016
671.389	0.0150348
671.467	0.0150327
671.545	0.0149275
671.623	0.0149315
671.701	0.0150336
671.780	0.0150688
671.858	0.0148272
671.936	0.0148544
672.014	0.0148467
672.092	0.0148992
672.170	0.0150067
672.248	0.0149475
672.326	0.0149029
672.405	0.0149100
672.483	0.0150050
672.561	0.0149103
672.639	0.0150517
672.717	0.0149731
672.795	0.0148646
672.873	0.0149203
672.951	0.0150380
673.030	0.0149134
673.108	0.0152133
673.186	0.0149990
673.264	0.0149852
673.342	0.0148804
673.420	0.0149859
673.498	0.0150553
673.576	0.0150401
673.655	0.0150576
673.733	0.0149960
673.811	0.0150144
673.889	0.0150059
673.967	0.0150086
674.045	0.0148961
674.123	0.0150359
674.201	0.0149184
674.280	0.0151103
674.358	0.0151616
674.436	0.0149385
674.514	0.0148864
674.592	0.0150850
674.670	0.0151030
674.748	0.0149854
674.826	0.0149160
674.905	0.0149927
674.983	0.0150196
675.061	0.0149250
675.139	0.0148887
675.217	0.0150723
675.295	0.0149357
675.373	0.0149811
675.451	0.0148392
675.530	0.0150489
675.608	0.0150150
675.686	0.0150343
675.764	0.0149184
675.842	0.0149682
675.920	0.0150245
675.998	0.0149167
676.076	0.0150110
676.155	0.0150163
676.233	0.0149931
676.311	0.0149294
676.389	0.0149812
676.467	0.0148959
676.545	0.0149922
676.623	0.0149022
676.701	0.0149669
676.780	0.0149654
676.858	0.0148633
676.936	0.0149123
677.014	0.0148322
677.092	0.0149831
677.170	0.0149432
677.248	0.0148151
677.326	0.0148985
677.405	0.0149379
677.483	0.0148233
677.561	0.0147802
677.639	0.0148786
677.717	0.0149541
677.795	0.0149338
677.873	0.0147126
677.951	0.0149278
678.030	0.0148499
678.108	0.0147696
678.186	0.0148521
678.264	0.0148077
678.342	0.0149052
678.420	0.0148211
678.498	0.0148331
678.576	0.0149437
678.655	0.0149158
678.733	0.0147897
678.811	0.0148779
678.889	0.0147264
678.967	0.0147839
679.045	0.0149656
679.123	0.0147979
679.201	0.0147417
679.280	0.0148795
679.358	0.0148878
679.436	0.0148417
679.514	0.0146972
679.592	0.0148702
679.670	0.0148634
679.748	0.0148687
679.826	0.0146825
679.905	0.0148248
679.983	0.0147932
680.061	0.0147706
680.139	0.0148196
680.217	0.0148717
680.295	0.0147672
680.373	0.0148376
680.451	0.0148000
680.530	0.0148765
680.608	0.0148454
680.686	0.0148257
680.764	0.0147179
680.842	0.0147695
680.920	0.0147818
680.998	0.0147303
681.076	0.0148412
681.155	0.0147960
681.233	0.0147174
681.311	0.0147395
681.389	0.0146053
681.467	0.0148331
681.545	0.0148800
681.623	0.0147861
681.701	0.0147379
681.780	0.0147716
681.858	0.0148353
681.936	0.0149945
682.014	0.0148238
682.092	0.0147791
682.170	0.0148786
682.248	0.0148164
682.326	0.0149452
682.405	0.0148605
682.483	0.0148134
682.561	0.0148923
682.639	0.0150263
682.717	0.0147631
682.795	0.0148044
682.873	0.0148302
682.951	0.0147829
683.030	0.0148251
683.108	0.0148258
683.186	0.0148432
683.264	0.0148707
683.342	0.0148835
683.420	0.0147895
683.498	0.0147594
683.576	0.0148388
683.655	0.0149607
683.733	0.0149102
683.811	0.0147773
683.889	0.0148362
683.967	0.0148626
684.045	0.0148080
684.123	0.0148355
684.201	0.0148255
684.280	0.0149978
684.358	0.0149883
684.436	0.0149593
684.514	0.0149211
684.592	0.0149132
684.670	0.0147221
684.748	0.0149988
684.826	0.0149728
684.905	0.0149343
684.983	0.0147740
685.061	0.0150164
685.139	0.0149889
685.217	0.0150117
685.295	0.0149854
685.373	0.0148354
685.451	0.0148675
685.530	0.0150144
685.608	0.0149409
685.686	0.0149539
685.764	0.0149552
685.842	0.0148523
685.920	0.0149723
685.998	0.0148874
686.076	0.0149905
686.155	0.0149327
686.233	0.0147305
686.311	0.0148967
686.389	0.0147453
686.467	0.0147910
686.545	0.0148969
686.623	0.0150603
686.701	0.0147417
686.780	0.0148587
686.858	0.0149083
686.936	0.0148736
687.014	0.0147645
687.092	0.0149288
687.170	0.0149369
687.248	0.0148324
687.326	0.0149113
687.405	0.0149512
687.483	0.0149506
687.561	0.0149741
687.639	0.0149879
687.717	0.0148660
687.795	0.0148266
687.873	0.0149175
687.951	0.0147952
688.030	0.0145808
688.108	0.0145850
688.186	0.0146579
688.264	0.0145387
688.342	0.0144872
688.420	0.0144874
688.498	0.0145329
688.576	0.0146645
688.655	0.0148972
688.733	0.0149343
688.811	0.0151144
688.889	0.0154250
688.967	0.0158670
689.045	0.0159929
689.123	0.0162623
689.201	0.0163671
689.280	0.0164544
689.358	0.0162714
689.436	0.0159688
689.514	0.0156637
689.592	0.0153114
689.670	0.0148366
689.748	0.0142297
689.826	0.0136680
689.905	0.0131250
689.983	0.0123927
690.061	0.0121317
690.139	0.0117505
690.217	0.0116505
690.295	0.0117624
690.373	0.0120259
690.451	0.0123510
690.530	0.0129138
690.608	0.0138342
690.686	0.0146709
690.764	0.0157671
690.842	0.0166744
690.920	0.0176566
690.998	0.0185324
691.076	0.0191584
691.155	0.0198394
691.233	0.0202632
691.311	0.0203697
691.389	0.0200896
691.467	0.0196414
691.545	0.0190218
691.623	0.0184056
691.701	0.0173464
691.780	0.0163922
691.858	0.0152528
691.936	0.0140445
692.014	0.0129774
692.092	0.0118037
692.170	0.0107568
692.248	0.00979401
692.326	0.00894295
692.405	0.00809929
692.483	0.00741814
692.561	0.00714462
692.639	0.00698654
692.717	0.00699814
692.795	0.00731018
692.873	0.00807434
692.951	0.00910072
693.030	0.0103316
693.108	0.0119698
693.186	0.0135506
693.264	0.0155214
693.342	0.0175834
693.420	0.0195843
693.498	0.0214462
693.576	0.0232533
693.655	0.0246993
693.733	0.0257318
693.811	0.0263328
693.889	0.0265235
693.967	0.0261384
694.045	0.0255565
694.123	0.0246816
694.201	0.0232207
694.280	0.0216100
694.358	0.0199113
694.436	0.0180974
694.514	0.0162883
694.592	0.0143095
694.670	0.0125292
694.748	0.0106974
694.826	0.00906296
694.905	0.00748047
694.983	0.00627922
695.061	0.00496315
695.139	0.00430267
695.217	0.00350296
695.295	0.00307755
695.373	0.00291725
695.451	0.00302483
695.530	0.00330269
695.608	0.00390556
695.686	0.00482445
695.764	0.00609695
695.842	0.00767891
695.920	0.00957870
695.998	0.0115990
696.076	0.0136107
696.155	0.0157801
696.233	0.0180375
696.311	0.0203313
696.389	0.0222792
696.467	0.0244093
696.545	0.0261315
696.623	0.0276015
696.701	0.0288765
696.780	0.0296532
696.858	0.0299361
696.936	0.0297462
697.014	0.0290726
697.092	0.0280318
697.170	0.0266567
697.248	0.0248600
697.326	0.0227058
697.405	0.0203295
697.483	0.0180301
697.561	0.0157526
697.639	0.0130040
697.717	0.0105865
697.795	0.00845001
697.873	0.00661804
697.951	0.00518593
698.030	0.00417656
698.108	0.00336548
698.186	0.00290176
698.264	0.00306824
698.342	0.00330872
698.420	0.00386505
698.498	0.00470848
698.576	0.00578560
698.655	0.00691887
698.733	0.00794098
698.811	0.00913933
698.889	0.0104159
698.967	0.0117382
699.045	0.0128819
699.123	0.0139297
699.201	0.0150344
699.280	0.0162526
699.358	0.0174435
699.436	0.0183276
699.514	0.0191794
699.592	0.0199188
699.670	0.0207377
699.748	0.0214934
699.826	0.0217911
699.905	0.0221645
699.983	0.0224406
700.061	0.0223154
700.139	0.0220752
700.217	0.0218538
700.295	0.0213058
700.373	0.0208636
700.451	0.0200726
700.530	0.0192503
700.608	0.0184464
700.686	0.0174168
700.764	0.0162919
700.842	0.0154552
700.920	0.0144772
700.998	0.0135737
701.076	0.0128415
701.155	0.0122692
701.233	0.0116057
701.311	0.0113116
701.389	0.0111448
701.467	0.0110207
701.545	0.0110218
701.623	0.0112643
701.701	0.0115218
701.780	0.0119318
701.858	0.0122821
701.936	0.0126843
702.014	0.0131271
702.092	0.0134052
702.170	0.0137335
702.248	0.0140806
702.326	0.0142600
702.405	0.0141836
702.483	0.0142502
702.561	0.0142589
702.639	0.0142753
702.717	0.0143829
702.795	0.0142849
702.873	0.0142084
702.951	0.0140851
703.030	0.0140874
703.108	0.0141138
703.186	0.0141753
703.264	0.0143816
703.342	0.0144067
703.420	0.0143787
703.498	0.0146365
703.576	0.0148215
703.655	0.0149281
703.733	0.0150878
703.811	0.0149892
703.889	0.0153281
703.967	0.0154992
704.045	0.0159248
704.123	0.0158273
704.201	0.0159607
704.280	0.0161488
704.358	0.0163784
704.436	0.0166331
704.514	0.0167354
704.592	0.0169215
704.670	0.0168523
704.748	0.0168218
704.826	0.0169163
704.905	0.0169027
704.983	0.0167894
705.061	0.0166422
705.139	0.0165595
705.217	0.0163154
705.295	0.0160640
705.373	0.0158586
705.451	0.0153745
705.530	0.0149482
705.608	0.0147416
705.686	0.0145981
705.764	0.0141214
705.842	0.0136272
705.920	0.0134608
705.998	0.0133019
706.076	0.0128528
706.155	0.0127981
706.233	0.0128158
706.311	0.0127088
706.389	0.0127283
706.467	0.0128302
706.545	0.0129089
706.623	0.0131337
706.701	0.0133556
706.780	0.0136005
706.858	0.0137990
706.936	0.0140075
707.014	0.0142963
707.092	0.0144394
707.170	0.0147775
707.248	0.0151193
707.326	0.0152516
707.405	0.0154179
707.483	0.0156337
707.561	0.0159282
707.639	0.0162197
707.717	0.0160866
707.795	0.0162867
707.873	0.0163963
707.951	0.0163888
708.030	0.0164307
708.108	0.0161260
708.186	0.0160430
708.264	0.0157943
708.342	0.0156031
708.420	0.0154733
708.498	0.0151566
708.576	0.0149094
708.655	0.0146542
708.733	0.0146689
708.811	0.0145104
708.889	0.0143835
708.967	0.0143854
709.045	0.0143142
709.123	0.0143323
709.201	0.0143425
709.280	0.0144002
709.358	0.0144452
709.436	0.0143922
709.514	0.0144135
709.592	0.0144073
709.670	0.0143565
709.748	0.0144078
709.826	0.0144124
709.905	0.0143964
709.983	0.0142329
710.061	0.0141652
710.139	0.0143399
710.217	0.0141765
710.295	0.0141972
710.373	0.0141478
710.451	0.0142036
710.530	0.0144321
710.608	0.0146455
710.686	0.0146918
710.764	0.0148732
710.842	0.0150136
710.920	0.0154076
710.998	0.0156017
711.076	0.0159543
711.155	0.0160287
711.233	0.0159840
711.311	0.0161073
711.389	0.0163213
711.467	0.0163073
711.545	0.0160897
711.623	0.0161137
711.701	0.0161777
711.780	0.0158420
711.858	0.0158108
711.936	0.0157235
712.014	0.0155428
712.092	0.0153322
712.170	0.0152895
712.248	0.0150676
712.326	0.0149246
712.405	0.0147390
712.483	0.0146529
712.561	0.0144360
712.639	0.0142845
712.717	0.0141277
712.795	0.0139970
712.873	0.0139343
712.951	0.0139442
713.030	0.0138381
713.108	0.0136499
713.186	0.0136754
713.264	0.0137025
713.342	0.0136436
713.420	0.0135867
713.498	0.0137247
713.576	0.0137894
713.655	0.0140511
713.733	0.0141628
713.811	0.0142442
713.889	0.0142706
713.967	0.0146285
714.045	0.0146912
714.123	0.0148972
714.201	0.0150294
714.280	0.0151159
714.358	0.0151289
714.436	0.0152418
714.514	0.0153070
714.592	0.0153350
714.670	0.0153498
714.748	0.0154124
714.826	0.0154579
714.905	0.0153815
714.983	0.0154964
715.061	0.0154158
715.139	0.0153458
715.217	0.0152920
715.295	0.0153117
715.373	0.0154343
715.451	0.0153117
715.530	0.0153462
715.608	0.0153836
715.686	0.0152124
715.764	0.0153202
715.842	0.0151356
715.920	0.0151284
715.998	0.0150925
716.076	0.0151081
716.155	0.0149259
716.233	0.0149325
716.311	0.0148893
716.389	0.0147159
716.467	0.0147671
716.545	0.0145885
716.623	0.0146499
716.701	0.0146057
716.780	0.0145654
716.858	0.0144955
716.936	0.0145388
717.014	0.0145264
717.092	0.0144867
717.170	0.0147152
717.248	0.0147180
717.326	0.0147758
717.405	0.0146763
717.483	0.0147549
717.561	0.0148711
717.639	0.0148475
717.717	0.0149556
717.795	0.0149529
717.873	0.0150774
717.951	0.0149880
718.030	0.0149922
718.108	0.0151402
718.186	0.0149579
718.264	0.0150779
718.342	0.0150716
718.420	0.0149792
718.498	0.0149805
718.576	0.0150471
718.655	0.0150000
718.733	0.0151536
718.811	0.0150985
718.889	0.0151141
718.967	0.0151031
719.045	0.0151523
719.123	0.0152122
719.201	0.0153724
719.280	0.0153295
719.358	0.0152438
719.436	0.0151427
719.514	0.0149506
719.592	0.0148065
719.670	0.0146688
719.748	0.0144817
719.826	0.0143744
719.905	0.0143420
719.983	0.0141451
720.061	0.0141666
720.139	0.0140100
720.217	0.0139679
720.295	0.0139706
720.373	0.0140157
720.451	0.0141862
720.530	0.0141405
720.608	0.0143256
720.686	0.0144342
720.764	0.0144336
720.842	0.0145245
720.920	0.0144996
720.998	0.0146857
721.076	0.0149101
721.155	0.0148587
721.233	0.0150803
721.311	0.0153141
721.389	0.0151986
721.467	0.0153863
721.545	0.0155180
721.623	0.0156965
721.701	0.0156667
721.780	0.0157910
721.858	0.0157545
721.936	0.0158834
722.014	0.0157063
722.092	0.0156298
722.170	0.0156306
722.248	0.0154137
722.326	0.0153237
722.405	0.0152205
722.483	0.0151392
722.561	0.0150490
722.639	0.0148798
722.717	0.0150050
722.795	0.0147956
722.873	0.0148006
722.951	0.0147005
723.030	0.0146087
723.108	0.0145841
723.186	0.0145023
723.264	0.0143745
723.342	0.0142298
723.420	0.0143310
723.498	0.0143018
723.576	0.0142461
723.655	0.0142082
723.733	0.0143655
723.811	0.0145364
723.889	0.0144270
723.967	0.0145065
724.045	0.0147138
724.123	0.0148764
724.201	0.0149150
724.280	0.0151012
724.358	0.0151792
724.436	0.0153392
724.514	0.0153967
724.592	0.0154118
724.670	0.0156629
724.748	0.0157016
724.826	0.0155311
724.905	0.0154704
724.983	0.0153371
725.061	0.0152457
725.139	0.0153146
725.217	0.0151868
725.295	0.0149913
725.373	0.0147860
725.451	0.0147497
725.530	0.0145786
725.608	0.0144353
725.686	0.0143707
725.764	0.0143514
725.842	0.0142048
725.920	0.0142214
725.998	0.0142123
726.076	0.0142634
726.155	0.0142646
726.233	0.0142307
726.311	0.0144331
726.389	0.0143323
726.467	0.0145210
726.545	0.0145737
726.623	0.0145713
726.701	0.0148021
726.780	0.0147140
726.858	0.0146951
726.936	0.0149251
727.014	0.0146909
727.092	0.0148043
727.170	0.0148838
727.248	0.0149725
727.326	0.0150349
727.405	0.0150821
727.483	0.0151618
727.561	0.0149786
727.639	0.0152565
727.717	0.0154346
727.795	0.0155616
727.873	0.0154111
727.951	0.0154839
728.030	0.0154771
728.108	0.0155282
728.186	0.0156514
728.264	0.0153555
728.342	0.0153546
728.420	0.0152153
728.498	0.0150445
728.576	0.0150880
728.655	0.0150703
728.733	0.0149799
728.811	0.0148797
728.889	0.0148716
728.967	0.0148492
729.045	0.0147276
729.123	0.0147567
729.201	0.0149924
729.280	0.0148840
729.358	0.0147784
729.436	0.0149085
729.514	0.0149725
729.592	0.0149429
729.670	0.0149248
729.748	0.0149100
729.826	0.0149447
729.905	0.0149995
729.983	0.0150861
730.061	0.0148243
730.139	0.0147955
730.217	0.0147459
730.295	0.0146557
730.373	0.0148084
730.451	0.0146902
730.530	0.0143948
730.608	0.0143723
730.686	0.0143736
730.764	0.0144872
730.842	0.0143295
730.920	0.0142268
730.998	0.0144023
731.076	0.0143800
731.155	0.0145408
731.233	0.0146655
731.311	0.0147570
731.389	0.0147362
731.467	0.0150252
731.545	0.0150271
731.623	0.0150556
731.701	0.0151302
731.780	0.0152080
731.858	0.0153230
731.936	0.0152151
732.014	0.0152971
732.092	0.0152839
732.170	0.0152202
732.248	0.0152063
732.326	0.0152934
732.405	0.0150488
732.483	0.0150891
732.561	0.0152271
732.639	0.0150452
732.717	0.0150409
732.795	0.0149538
732.873	0.0147523
732.951	0.0148213
733.030	0.0148266
733.108	0.0146410
733.186	0.0146445
733.264	0.0146973
733.342	0.0147051
733.420	0.0146756
733.498	0.0146274
733.576	0.0145715
733.655	0.0147404
733.733	0.0147207
733.811	0.0148127
733.889	0.0147723
733.967	0.0148408
734.045	0.0149166
734.123	0.0149860
734.201	0.0148639
734.280	0.0149674
734.358	0.0149765
734.436	0.0149852
734.514	0.0150140
734.592	0.0151091
734.670	0.0152324
734.748	0.0151860
734.826	0.0152199
734.905	0.0152816
734.983	0.0153211
735.061	0.0153126
735.139	0.0153755
735.217	0.0153400
735.295	0.0152798
735.373	0.0153205
735.451	0.0152858
735.530	0.0151976
735.608	0.0152710
735.686	0.0152171
735.764	0.0150711
735.842	0.0149181
735.920	0.0148066
735.998	0.0147412
736.076	0.0147118
736.155	0.0146024
736.233	0.0144019
736.311	0.0142732
736.389	0.0142247
736.467	0.0141293
736.545	0.0141554
736.623	0.0140829
736.701	0.0142608
736.780	0.0143895
736.858	0.0142236
736.936	0.0143400
737.014	0.0145518
737.092	0.0147457
737.170	0.0148131
737.248	0.0151419
737.326	0.0150296
737.405	0.0152869
737.483	0.0152913
737.561	0.0153797
737.639	0.0154702
737.717	0.0152076
737.795	0.0151006
737.873	0.0151250
737.951	0.0151342
738.030	0.0150385
738.108	0.0148554
738.186	0.0149948
738.264	0.0150510
738.342	0.0150784
738.420	0.0148878
738.498	0.0149342
738.576	0.0151269
738.655	0.0149584
738.733	0.0149430
738.811	0.0150208
738.889	0.0149435
738.967	0.0148196
739.045	0.0147655
739.123	0.0146926
739.201	0.0145605
739.280	0.0143669
739.358	0.0144695
739.436	0.0144110
739.514	0.0144089
739.592	0.0142783
739.670	0.0143445
739.748	0.0143588
739.826	0.0143626
739.905	0.0144184
739.983	0.0144125
740.061	0.0144455
740.139	0.0145966
740.217	0.0147945
740.295	0.0148721
740.373	0.0150927
740.451	0.0151776
740.530	0.0152879
740.608	0.0151968
740.686	0.0153094
740.764	0.0155105
740.842	0.0153882
740.920	0.0154253
740.998	0.0152824
741.076	0.0153023
741.155	0.0153447
741.233	0.0151923
741.311	0.0151169
741.389	0.0150237
741.467	0.0148726
741.545	0.0148362
741.623	0.0149146
741.701	0.0146949
741.780	0.0145396
741.858	0.0146077
741.936	0.0146885
742.014	0.0145893
742.092	0.0144779
742.170	0.0146712
742.248	0.0147229
742.326	0.0148524
742.405	0.0149177
742.483	0.0148307
742.561	0.0148473
742.639	0.0149435
742.717	0.0149327
742.795	0.0150259
742.873	0.0149047
742.951	0.0149070
743.030	0.0148699
743.108	0.0147933
743.186	0.0149486
743.264	0.0148406
743.342	0.0146608
743.420	0.0147403
743.498	0.0146351
743.576	0.0145862
743.655	0.0145730
743.733	0.0146835
743.811	0.0144890
743.889	0.0146467
743.967	0.0146469
744.045	0.0147617
744.123	0.0147294
744.201	0.0146585
744.280	0.0147535
744.358	0.0147932
744.436	0.0147110
744.514	0.0147472
744.592	0.0148471
744.670	0.0149452
744.748	0.0148784
744.826	0.0149774
744.905	0.0148456
744.983	0.0148869
745.061	0.0149414
745.139	0.0148580
745.217	0.0149510
745.295	0.0150239
745.373	0.0149303
745.451	0.0149739
745.530	0.0149692
745.608	0.0148713
745.686	0.0149616
745.764	0.0150345
745.842	0.0150233
745.920	0.0149793
745.998	0.0149332
746.076	0.0150236
746.155	0.0150960
746.233	0.0150024
746.311	0.0150204
746.389	0.0150053
746.467	0.0149165
746.545	0.0149168
746.623	0.0146828
746.701	0.0145931
746.780	0.0145935
746.858	0.0146519
746.936	0.0144236
747.014	0.0143698
747.092	0.0144188
747.170	0.0144019
747.248	0.0144286
747.326	0.0146051
747.405	0.0146178
747.483	0.0145887
747.561	0.0148678
747.639	0.0148553
747.717	0.0149348
747.795	0.0150925
747.873	0.0150946
747.951	0.0150896
748.030	0.0151855
748.108	0.0151437
748.186	0.0153769
748.264	0.0153007
748.342	0.0153325
748.420	0.0152457
748.498	0.0152962
748.576	0.0151644
748.655	0.0150935
748.733	0.0150797
748.811	0.0150810
748.889	0.0149375
748.967	0.0150014
749.045	0.0149824
749.123	0.0149767
749.201	0.0149291
749.280	0.0147918
749.358	0.0148285
749.436	0.0148853
749.514	0.0148881
749.592	0.0149200
749.670	0.0148453
749.748	0.0148258
749.826	0.0149165
749.905	0.0148977
749.983	0.0148978
750.061	0.0149988
750.139	0.0148798
750.217	0.0148411
750.295	0.0149191
750.373	0.0149467
750.451	0.0147673
750.530	0.0148068
750.608	0.0148392
750.686	0.0148574
750.764	0.0145908
750.842	0.0146761
750.920	0.0148043
750.998	0.0148470
751.076	0.0149097
751.155	0.0150127
751.233	0.0148824
751.311	0.0150320
751.389	0.0150084
751.467	0.0149421
751.545	0.0149552
751.623	0.0148346
751.701	0.0147823
751.780	0.0149699
751.858	0.0148194
751.936	0.0147386
752.014	0.0146498
752.092	0.0145807
752.170	0.0146645
752.248	0.0145493
752.326	0.0144731
752.405	0.0147116
752.483	0.0146490
752.561	0.0145692
752.639	0.0147179
752.717	0.0146734
752.795	0.0147636
752.873	0.0147394
752.951	0.0148365
753.030	0.0147199
753.108	0.0148109
753.186	0.0148389
753.264	0.0149986
753.342	0.0149313
753.420	0.0149993
753.498	0.0150298
753.576	0.0150427
753.655	0.0149549
753.733	0.0150796
753.811	0.0148335
753.889	0.0148255
753.967	0.0148412
754.045	0.0148724
754.123	0.0147884
754.201	0.0148738
754.280	0.0147765
754.358	0.0147441
754.436	0.0148971
754.514	0.0147363
754.592	0.0148241
754.670	0.0147526
754.748	0.0147399
754.826	0.0148175
754.905	0.0146418
754.983	0.0147881
755.061	0.0147749
755.139	0.0148385
755.217	0.0148475
755.295	0.0148374
755.373	0.0149737
755.451	0.0148853
755.530	0.0150616
755.608	0.0150279
755.686	0.0149001
755.764	0.0150459
755.842	0.0149371
755.920	0.0150333
755.998	0.0150066
756.076	0.0151588
756.155	0.0150250
756.233	0.0150099
756.311	0.0149263
756.389	0.0149793
756.467	0.0151307
756.545	0.0150513
756.623	0.0149779
756.701	0.0151371
756.780	0.0150460
756.858	0.0149408
756.936	0.0150511
757.014	0.0150488
757.092	0.0149998
757.170	0.0148716
757.248	0.0149423
757.326	0.0148094
757.405	0.0150657
757.483	0.0149424
757.561	0.0146495
757.639	0.0146034
757.717	0.0146912
757.795	0.0146366
757.873	0.0146192
757.951	0.0145701
758.030	0.0146936
758.108	0.0147485
758.186	0.0146982
758.264	0.0146129
758.342	0.0146854
758.420	0.0146161
758.498	0.0147924
758.576	0.0147372
758.655	0.0150072
758.733	0.0148476
758.811	0.0148817
758.889	0.0148743
758.967	0.0149974
759.045	0.0149842
759.123	0.0148350
759.201	0.0148653
759.280	0.0147947
759.358	0.0147435
759.436	0.0148144
759.514	0.0147569
759.592	0.0149043
759.670	0.0147190
759.748	0.0146516
759.826	0.0146813
759.905	0.0148586
759.983	0.0147309
760.061	0.0146513
760.139	0.0148847
760.217	0.0148969
760.295	0.0148296
760.373	0.0148551
760.451	0.0149820
760.530	0.0149973
760.608	0.0150249
760.686	0.0150127
760.764	0.0151610
760.842	0.0151237
760.920	0.0150745
760.998	0.0150459
761.076	0.0150140
761.155	0.0151633
761.233	0.0150161
761.311	0.0150063
761.389	0.0151168
761.467	0.0151901
761.545	0.0150838
761.623	0.0150774
761.701	0.0152620
761.780	0.0150584
761.858	0.0152764
761.936	0.0152349
762.014	0.0152191
762.092	0.0151468
762.170	0.0153619
762.248	0.0152152
762.326	0.0151640
762.405	0.0152264
762.483	0.0150805
762.561	0.0149909
762.639	0.0147551
762.717	0.0150137
762.795	0.0147858
762.873	0.0146068
762.951	0.0146869
763.030	0.0146164
763.108	0.0146365
763.186	0.0144917
763.264	0.0145174
763.342	0.0145248
763.420	0.0146301
763.498	0.0146865
763.576	0.0145731
763.655	0.0146260
763.733	0.0146508
763.811	0.0147327
763.889	0.0148331
763.967	0.0149107
764.045	0.0148733
764.123	0.0147505
764.201	0.0148750
764.280	0.0148031
764.358	0.0147845
764.436	0.0148660
764.514	0.0148911
764.592	0.0146989
764.670	0.0150160
764.748	0.0150755
764.826	0.0149081
764.905	0.0149776
764.983	0.0147963
765.061	0.0148381
765.139	0.0149347
765.217	0.0147732
765.295	0.0147935
765.373	0.0148123
765.451	0.0148551
765.530	0.0149368
765.608	0.0148063
765.686	0.0149144
765.764	0.0148714
765.842	0.0148647
765.920	0.0149650
765.998	0.0148017
766.076	0.0149352
766.155	0.0149445
766.233	0.0149469
766.311	0.0148785
766.389	0.0149496
766.467	0.0149268
766.545	0.0149941
766.623	0.0148014
766.701	0.0147917
766.780	0.0149028
766.858	0.0150127
766.936	0.0150153
767.014	0.0149903
767.092	0.0151032
767.170	0.0151258
767.248	0.0150069
767.326	0.0150834
767.405	0.0151141
767.483	0.0151277
767.561	0.0151147
767.639	0.0151017
767.717	0.0152203
767.795	0.0150437
767.873	0.0149377
767.951	0.0150161
768.030	0.0148883
768.108	0.0148499
768.186	0.0149744
768.264	0.0148518
768.342	0.0148319
768.420	0.0149228
768.498	0.0147634
768.576	0.0146825
768.655	0.0145395
768.733	0.0147321
768.811	0.0146037
768.889	0.0146928
768.967	0.0147160
769.045	0.0148051
769.123	0.0147125
769.201	0.0147982
769.280	0.0147256
769.358	0.0147525
769.436	0.0147377
769.514	0.0146874
769.592	0.0148608
769.670	0.0149702
769.748	0.0148907
769.826	0.0149345
769.905	0.0150269
769.983	0.0149856
770.061	0.0149600
770.139	0.0149689
770.217	0.0148870
770.295	0.0151570
770.373	0.0148826
770.451	0.0149180
770.530	0.0148447
770.608	0.0148985
770.686	0.0147997
770.764	0.0148006
770.842	0.0149667
770.920	0.0150514
770.998	0.0148547
771.076	0.0148926
771.155	0.0149665
771.233	0.0148855
771.311	0.0149368
771.389	0.0149957
771.467	0.0150703
771.545	0.0149102
771.623	0.0149597
771.701	0.0149835
771.780	0.0149627
771.858	0.0148601
771.936	0.0149773
772.014	0.0149043
772.092	0.0148824
772.170	0.0149146
772.248	0.0150191
772.326	0.0148605
772.405	0.0149216
772.483	0.0149541
772.561	0.0149852
772.639	0.0149690
772.717	0.0150292
772.795	0.0151099
772.873	0.0150276
772.951	0.0151324
773.030	0.0151771
773.108	0.0151229
773.186	0.0150780
773.264	0.0150886
773.342	0.0149458
773.420	0.0148798
773.498	0.0149554
773.576	0.0149654
773.655	0.0148222
773.733	0.0148963
773.811	0.0148164
773.889	0.0147514
773.967	0.0147437
774.045	0.0147216
774.123	0.0146843
774.201	0.0146965
774.280	0.0146941
774.358	0.0146520
774.436	0.0147035
774.514	0.0147849
774.592	0.0146966
774.670	0.0145443
774.748	0.0146726
774.826	0.0146983
774.905	0.0146361
774.983	0.0146654
775.061	0.0149059
775.139	0.0148071
775.217	0.0147948
775.295	0.0149177
775.373	0.0147375
775.451	0.0147733
775.530	0.0147212
775.608	0.0147350
775.686	0.0149282
775.764	0.0149706
775.842	0.0147129
775.920	0.0149245
775.998	0.0149226
776.076	0.0148436
776.155	0.0148965
776.233	0.0150098
776.311	0.0149168
776.389	0.0150050
776.467	0.0149658
776.545	0.0150192
776.623	0.0151163
776.701	0.0150681
776.780	0.0149731
776.858	0.0149424
776.936	0.0148645
777.014	0.0148115
777.092	0.0147801
777.170	0.0147617
777.248	0.0146682
777.326	0.0147430
777.405	0.0147101
777.483	0.0146571
777.561	0.0146217
777.639	0.0146911
777.717	0.0147099
777.795	0.0148246
777.873	0.0146808
777.951	0.0148225
778.030	0.0149886
778.108	0.0149014
778.186	0.0148916
778.264	0.0148359
778.342	0.0147977
778.420	0.0149620
778.498	0.0149055
778.576	0.0148856
778.655	0.0151192
778.733	0.0149297
778.811	0.0148565
778.889	0.0149664
778.967	0.0148064
779.045	0.0148804
779.123	0.0148586
779.201	0.0148490
779.280	0.0149596
779.358	0.0148315
779.436	0.0147821
779.514	0.0148560
779.592	0.0148207
779.670	0.0150842
779.748	0.0150262
779.826	0.0149520
779.905	0.0149542
779.983	0.0148997
780.061	0.0149524
780.139	0.0148620
780.217	0.0148647
780.295	0.0148337
780.373	0.0148830
780.451	0.0148332
780.530	0.0147651
780.608	0.0146922
780.686	0.0147656
780.764	0.0148859
780.842	0.0147248
780.920	0.0146332
780.998	0.0147951
781.076	0.0148364
781.155	0.0149995
781.233	0.0148363
781.311	0.0148483
781.389	0.0148720
781.467	0.0148457
781.545	0.0149989
781.623	0.0149758
781.701	0.0149197
781.780	0.0149220
781.858	0.0147671
781.936	0.0148735
782.014	0.0147959
782.092	0.0148237
782.170	0.0149259
782.248	0.0147836
782.326	0.0147506
782.405	0.0148164
782.483	0.0146550
782.561	0.0147131
782.639	0.0147950
782.717	0.0147041
782.795	0.0146964
782.873	0.0147765
782.951	0.0147415
783.030	0.0147417
783.108	0.0146758
783.186	0.0149181
783.264	0.0149013
783.342	0.0148192
783.420	0.0148263
783.498	0.0148785
783.576	0.0149956
783.655	0.0148313
783.733	0.0151037
783.811	0.0149348
783.889	0.0147549
783.967	0.0150224
784.045	0.0149507
784.123	0.0151147
784.201	0.0151097
784.280	0.0151395
784.358	0.0150267
784.436	0.0150486
784.514	0.0151117
784.592	0.0150898
784.670	0.0151144
784.748	0.0152064
784.826	0.0150790
784.905	0.0150981
784.983	0.0148897
785.061	0.0150164
785.139	0.0149673
785.217	0.0147875
785.295	0.0148740
785.373	0.0148910
785.451	0.0149001
785.530	0.0150744
785.608	0.0150926
785.686	0.0148629
785.764	0.0148129
785.842	0.0146743
785.920	0.0148450
785.998	0.0146637
786.076	0.0147089
786.155	0.0147817
786.233	0.0147380
786.311	0.0144440
786.389	0.0145554
786.467	0.0144614
786.545	0.0145438
786.623	0.0144276
786.701	0.0145400
786.780	0.0146906
786.858	0.0146660
786.936	0.0145253
787.014	0.0147162
787.092	0.0148215
787.170	0.0147926
787.248	0.0149766
787.326	0.0150193
787.405	0.0150652
787.483	0.0151993
787.561	0.0152361
787.639	0.0153448
787.717	0.0155309
787.795	0.0156071
787.873	0.0153049
787.951	0.0154865
788.030	0.0154665
788.108	0.0153149
788.186	0.0152753
788.264	0.0151172
788.342	0.0149566
788.420	0.0148023
788.498	0.0145860
788.576	0.0144891
788.655	0.0143320
788.733	0.0142950
788.811	0.0142631
788.889	0.0142902
788.967	0.0140422
789.045	0.0140173
789.123	0.0140824
789.201	0.0140115
789.280	0.0141287
789.358	0.0141634
789.436	0.0144395
789.514	0.0146710
789.592	0.0145830
789.670	0.0149124
789.748	0.0149343
789.826	0.0151814
789.905	0.0155553
789.983	0.0156049
790.061	0.0157127
790.139	0.0159224
790.217	0.0159100
790.295	0.0160683
790.373	0.0160988
790.451	0.0159283
790.530	0.0159042
790.608	0.0158393
790.686	0.0158033
790.764	0.0156484
790.842	0.0154707
790.920	0.0152792
790.998	0.0151797
791.076	0.0149081
791.155	0.0147502
791.233	0.0144223
791.311	0.0142194
791.389	0.0141260
791.467	0.0139293
791.545	0.0138190
791.623	0.0136313
791.701	0.0135486
791.780	0.0134377
791.858	0.0133076
791.936	0.0134158
792.014	0.0135370
792.092	0.0135475
792.170	0.0137196
792.248	0.0138232
792.326	0.0139655
792.405	0.0142574
792.483	0.0143688
792.561	0.0147026
792.639	0.0151553
792.717	0.0152634
792.795	0.0155912
792.873	0.0155802
792.951	0.0159054
793.030	0.0160918
793.108	0.0161984
793.186	0.0162788
793.264	0.0163138
793.342	0.0163299
793.420	0.0163603
793.498	0.0163595
793.576	0.0162016
793.655	0.0160107
793.733	0.0158691
793.811	0.0158649
793.889	0.0155839
793.967	0.0153311
794.045	0.0152206
794.123	0.0150368
794.201	0.0147324
794.280	0.0146611
794.358	0.0144431
794.436	0.0143349
794.514	0.0142442
794.592	0.0143085
794.670	0.0140302
794.748	0.0139776
794.826	0.0139487
794.905	0.0140232
794.983	0.0139079
795.061	0.0138580
795.139	0.0139269
795.217	0.0139516
795.295	0.0139442
795.373	0.0140479
795.451	0.0140436
795.530	0.0141293
795.608	0.0142389
795.686	0.0144643
795.764	0.0144483
795.842	0.0147532
795.920	0.0148310
795.998	0.0149785
796.076	0.0150155
796.155	0.0150884
796.233	0.0153481
796.311	0.0153912
796.389	0.0152778
796.467	0.0154204
796.545	0.0156337
796.623	0.0154723
796.701	0.0153951
796.780	0.0155920
796.858	0.0156284
796.936	0.0155681
797.014	0.0155547
797.092	0.0154949
797.170	0.0155775
797.248	0.0153378
797.326	0.0152942
797.405	0.0153151
797.483	0.0153531
797.561	0.0153931
797.639	0.0151794
797.717	0.0152048
797.795	0.0150300
797.873	0.0148219
797.951	0.0148325
798.030	0.0147087
798.108	0.0147025
798.186	0.0146721
798.264	0.0144822
798.342	0.0143768
798.420	0.0144241
798.498	0.0142843
798.576	0.0141424
798.655	0.0141264
798.733	0.0140600
798.811	0.0141535
798.889	0.0141109
798.967	0.0142040
799.045	0.0141560
799.123	0.0142457
799.201	0.0141705
799.280	0.0143932
799.358	0.0145875
799.436	0.0146596
799.514	0.0146864
799.592	0.0148729
799.670	0.0149821
799.748	0.0150578
799.826	0.0149857
799.905	0.0149972
799.983	0.0151163
800.061	0.0151928
800.139	0.0152774
800.217	0.0153726
800.295	0.0152965
800.373	0.0152967
800.451	0.0153149
800.530	0.0151810
800.608	0.0152809
800.686	0.0153155
800.764	0.0151808
800.842	0.0150909
800.920	0.0150977
800.998	0.0149848
801.076	0.0150436
801.155	0.0150523
801.233	0.0151757
801.311	0.0149141
801.389	0.0149451
801.467	0.0147776
801.545	0.0149113
801.623	0.0148233
801.701	0.0148089
801.780	0.0146350
801.858	0.0145866
801.936	0.0144704
802.014	0.0146446
802.092	0.0146481
802.170	0.0145535
802.248	0.0144093
802.326	0.0144042
802.405	0.0146572
802.483	0.0146676
802.561	0.0145011
802.639	0.0144873
802.717	0.0147024
802.795	0.0146826
802.873	0.0145449
802.951	0.0148154
803.030	0.0148636
803.108	0.0147266
803.186	0.0148007
803.264	0.0149291
803.342	0.0149284
803.420	0.0148684
803.498	0.0149223
803.576	0.0149736
803.655	0.0148940
803.733	0.0149034
803.811	0.0148663
803.889	0.0147764
803.967	0.0149406
804.045	0.0148689
804.123	0.0148940
804.201	0.0147716
804.280	0.0148774
804.358	0.0149165
804.436	0.0148831
804.514	0.0148250
804.592	0.0147713
804.670	0.0148061
804.748	0.0147232
804.826	0.0146781
804.905	0.0146763
804.983	0.0146524
805.061	0.0146066
805.139	0.0146964
805.217	0.0147959
805.295	0.0148499
805.373	0.0148283
805.451	0.0146352
805.530	0.0148467
805.608	0.0149412
805.686	0.0148523
805.764	0.0149519
805.842	0.0150571
805.920	0.0150072
805.998	0.0149580
806.076	0.0148856
806.155	0.0149734
806.233	0.0151379
806.311	0.0149350
806.389	0.0149401
806.467	0.0150275
806.545	0.0150339
806.623	0.0149314
806.701	0.0148991
806.780	0.0148701
806.858	0.0148768
806.936	0.0148844
807.014	0.0148532
807.092	0.0147871
807.170	0.0148992
807.248	0.0149381
807.326	0.0148450
807.405	0.0148045
807.483	0.0148667
807.561	0.0149084
807.639	0.0148608
807.717	0.0148499
807.795	0.0150242
807.873	0.0149087
807.951	0.0150094
808.030	0.0150046
808.108	0.0149724
808.186	0.0149832
808.264	0.0150521
808.342	0.0149470
808.420	0.0150949
808.498	0.0151108
808.576	0.0150802
808.655	0.0150934
808.733	0.0150506
808.811	0.0149310
808.889	0.0149438
808.967	0.0151184
809.045	0.0149486
809.123	0.0148001
809.201	0.0149356
809.280	0.0148642
809.358	0.0149925
809.436	0.0148928
809.514	0.0146632
809.592	0.0148081
809.670	0.0146361
809.748	0.0146479
809.826	0.0146672
809.905	0.0146950
809.983	0.0145546
810.061	0.0145580
810.139	0.0146159
810.217	0.0146351
810.295	0.0144386
810.373	0.0146461
810.451	0.0145735
810.530	0.0145413
810.608	0.0145605
810.686	0.0145205
810.764	0.0145069
810.842	0.0146809
810.920	0.0147334
810.998	0.0146950
811.076	0.0147475
811.155	0.0147379
811.233	0.0148560
811.311	0.0148489
811.389	0.0148751
811.467	0.0148345
811.545	0.0146431
811.623	0.0148501
811.701	0.0148258
811.780	0.0148610
811.858	0.0148598
811.936	0.0149800
812.014	0.0151304
812.092	0.0149698
812.170	0.0149729
812.248	0.0151582
812.326	0.0151237
812.405	0.0151099
812.483	0.0151625
812.561	0.0151589
812.639	0.0151028
812.717	0.0150977
812.795	0.0150658
812.873	0.0150772
812.951	0.0150708
813.030	0.0151709
813.108	0.0151030
813.186	0.0149818
813.264	0.0148238
813.342	0.0148025
813.420	0.0148961
813.498	0.0147908
813.576	0.0147386
813.655	0.0149531
813.733	0.0148660
813.811	0.0147406
813.889	0.0147410
813.967	0.0147559
814.045	0.0147351
814.123	0.0147375
814.201	0.0148007
814.280	0.0147354
814.358	0.0147617
814.436	0.0147777
814.514	0.0148285
814.592	0.0147225
814.670	0.0147054
814.748	0.0146589
814.826	0.0147815
814.905	0.0146147
814.983	0.0145816
815.061	0.0146729
815.139	0.0147520
815.217	0.0146832
815.295	0.0146273
815.373	0.0147447
815.451	0.0147075
815.530	0.0147789
815.608	0.0147636
815.686	0.0147652
815.764	0.0148233
815.842	0.0146913
815.920	0.0146355
815.998	0.0146635
816.076	0.0147878
816.155	0.0146773
816.233	0.0147837
816.311	0.0147025
816.389	0.0146705
816.467	0.0145884
816.545	0.0144925
816.623	0.0147508
816.701	0.0146690
816.780	0.0145813
816.858	0.0146043
816.936	0.0145370
817.014	0.0146329
817.092	0.0147845
817.170	0.0147746
817.248	0.0147195
817.326	0.0147464
817.405	0.0148783
817.483	0.0149006
817.561	0.0148962
817.639	0.0150300
817.717	0.0151754
817.795	0.0152005
817.873	0.0152589
817.951	0.0153094
818.030	0.0152478
818.108	0.0152491
818.186	0.0153629
818.264	0.0152535
818.342	0.0151717
818.420	0.0151078
818.498	0.0152174
818.576	0.0149691
818.655	0.0150256
818.733	0.0149674
818.811	0.0149332
818.889	0.0148856
818.967	0.0148135
819.045	0.0147952
819.123	0.0146081
819.201	0.0146326
819.280	0.0145896
819.358	0.0144577
819.436	0.0145880
819.514	0.0145955
819.592	0.0145345
819.670	0.0146469
819.748	0.0145103
819.826	0.0145345
819.905	0.0147302
819.983	0.0146970
820.061	0.0145821
820.139	0.0147223
820.217	0.0146403
820.295	0.0147601
820.373	0.0148473
820.451	0.0148003
820.530	0.0148548
820.608	0.0150546
820.686	0.0149280
820.764	0.0150745
820.842	0.0150795
820.920	0.0149878
820.998	0.0150260
821.076	0.0150382
821.155	0.0151487
821.233	0.0149990
821.311	0.0150019
821.389	0.0149377
821.467	0.0148148
821.545	0.0148902
821.623	0.0146751
821.701	0.0147131
821.780	0.0147073
821.858	0.0145643
821.936	0.0144377
822.014	0.0145140
822.092	0.0144768
822.170	0.0143965
822.248	0.0144298
822.326	0.0144978
822.405	0.0144116
822.483	0.0145544
822.561	0.0145022
822.639	0.0146561
822.717	0.0147063
822.795	0.0147147
822.873	0.0149196
822.951	0.0148215
823.030	0.0149119
823.108	0.0150789
823.186	0.0150487
823.264	0.0151061
823.342	0.0152538
823.420	0.0153111
823.498	0.0151849
823.576	0.0152007
823.655	0.0153656
823.733	0.0152402
823.811	0.0152564
823.889	0.0154256
823.967	0.0153461
824.045	0.0152612
824.123	0.0151424
824.201	0.0150758
824.280	0.0152044
824.358	0.0151061
824.436	0.0151525
824.514	0.0150519
824.592	0.0150077
824.670	0.0150543
824.748	0.0149959
824.826	0.0146821
824.905	0.0146918
824.983	0.0148630
825.061	0.0147845
825.139	0.0147881
825.217	0.0148438
825.295	0.0148802
825.373	0.0146545
825.451	0.0146936
825.530	0.0148428
825.608	0.0146731
825.686	0.0148302
825.764	0.0148563
825.842	0.0148561
825.920	0.0148877
825.998	0.0149641
826.076	0.0149413
826.155	0.0148000
826.233	0.0149629
826.311	0.0150056
826.389	0.0148705
826.467	0.0148008
826.545	0.0148615
826.623	0.0149396
826.701	0.0147773
826.780	0.0147124
826.858	0.0147807
826.936	0.0148799
827.014	0.0146487
827.092	0.0146582
827.170	0.0146291
827.248	0.0146532
827.326	0.0146606
827.405	0.0146365
827.483	0.0145974
827.561	0.0146223
827.639	0.0144453
827.717	0.0145385
827.795	0.0144340
827.873	0.0144495
827.951	0.0145418
828.030	0.0144881
828.108	0.0146140
828.186	0.0145673
828.264	0.0145795
828.342	0.0146256
828.420	0.0146138
828.498	0.0146202
828.576	0.0148603
828.655	0.0148100
828.733	0.0147781
828.811	0.0148403
828.889	0.0148473
828.967	0.0150337
829.045	0.0150889
829.123	0.0149915
829.201	0.0149946
829.280	0.0151556
829.358	0.0151275
829.436	0.0153777
829.514	0.0153416
829.592	0.0152547
829.670	0.0153037
829.748	0.0152961
829.826	0.0152365
829.905	0.0153371
829.983	0.0152783
830.061	0.0151575
830.139	0.0151564
830.217	0.0151676
830.295	0.0153027
830.373	0.0150668
830.451	0.0150848
830.530	0.0149833
830.608	0.0149324
830.686	0.0149777
830.764	0.0148289
830.842	0.0150340
830.920	0.0149529
830.998	0.0146947
831.076	0.0149014
831.155	0.0148502
831.233	0.0149616
831.311	0.0147187
831.389	0.0148702
831.467	0.0148664
831.545	0.0148927
831.623	0.0148985
831.701	0.0148123
831.780	0.0149506
831.858	0.0150161
831.936	0.0149451
832.014	0.0148219
832.092	0.0148865
832.170	0.0148433
832.248	0.0148594
832.326	0.0149408
832.405	0.0148135
832.483	0.0147088
832.561	0.0146987
832.639	0.0147470
832.717	0.0147082
832.795	0.0147135
832.873	0.0146638
832.951	0.0145969
833.030	0.0145277
833.108	0.0145203
833.186	0.0146683
833.264	0.0145116
833.342	0.0146678
833.420	0.0146484
833.498	0.0145425
833.576	0.0146883
833.655	0.0147383
833.733	0.0146684
833.811	0.0148483
833.889	0.0146587
833.967	0.0147694
834.045	0.0147967
834.123	0.0148671
834.201	0.0147753
834.280	0.0148112
834.358	0.0149502
834.436	0.0148854
834.514	0.0150325
834.592	0.0150371
834.670	0.0149379
834.748	0.0150851
834.826	0.0151195
834.905	0.0149946
834.983	0.0150891
835.061	0.0149837
835.139	0.0149155
835.217	0.0150034
835.295	0.0150499
835.373	0.0149986
835.451	0.0148894
835.530	0.0149788
835.608	0.0148633
835.686	0.0149928
835.764	0.0148616
835.842	0.0148260
835.920	0.0149315
835.998	0.0150002
836.076	0.0148181
836.155	0.0148908
836.233	0.0150247
836.311	0.0148668
836.389	0.0149785
836.467	0.0148637
836.545	0.0148917
836.623	0.0151172
836.701	0.0149376
836.780	0.0149342
836.858	0.0148134
836.936	0.0148779
837.014	0.0148141
837.092	0.0149908
837.170	0.0147869
837.248	0.0148117
837.326	0.0150156
837.405	0.0147157
837.483	0.0149062
837.561	0.0149233
837.639	0.0149690
837.717	0.0148502
837.795	0.0147738
837.873	0.0149200
837.951	0.0149125
838.030	0.0148154
838.108	0.0148362
838.186	0.0149251
838.264	0.0150272
838.342	0.0147426
838.420	0.0148178
838.498	0.0149337
838.576	0.0149041
838.655	0.0150060
838.733	0.0148101
838.811	0.0148860
838.889	0.0147961
838.967	0.0148787
839.045	0.0147785
839.123	0.0147806
839.201	0.0147554
839.280	0.0148412
839.358	0.0147473
839.436	0.0148354
839.514	0.0149428
839.592	0.0147936
839.670	0.0148076
839.748	0.0148218
839.826	0.0149642
839.905	0.0147190
839.983	0.0148137
840.061	0.0149111
840.139	0.0148890
840.217	0.0147731
840.295	0.0148494
840.373	0.0147331
840.451	0.0147489
840.530	0.0147808
840.608	0.0147240
840.686	0.0147163
840.764	0.0147725
840.842	0.0147323
840.920	0.0147404
840.998	0.0148323
841.076	0.0147185
841.155	0.0148001
841.233	0.0148692
841.311	0.0150515
841.389	0.0149018
841.467	0.0147601
841.545	0.0149078
841.623	0.0149575
841.701	0.0148824
841.780	0.0150011
841.858	0.0148653
841.936	0.0148877
842.014	0.0149992
842.092	0.0149865
842.170	0.0150585
842.248	0.0150581
842.326	0.0150830
842.405	0.0150849
842.483	0.0151286
842.561	0.0150441
842.639	0.0149405
842.717	0.0149767
842.795	0.0149483
842.873	0.0150557
842.951	0.0150356
843.030	0.0149812
843.108	0.0150442
843.186	0.0149722
843.264	0.0149772
843.342	0.0149899
843.420	0.0149168
843.498	0.0149770
843.576	0.0148872
843.655	0.0150118
843.733	0.0149425
843.811	0.0148563
843.889	0.0149512
843.967	0.0149543
844.045	0.0147748
844.123	0.0147679
844.201	0.0150556
844.280	0.0149100
844.358	0.0148737
844.436	0.0148410
844.514	0.0150423
844.592	0.0148822
844.670	0.0148186
844.748	0.0148448
844.826	0.0149052
844.905	0.0149451
844.983	0.0148561
845.061	0.0147453
845.139	0.0149160
845.217	0.0149424
845.295	0.0148931
845.373	0.0147913
845.451	0.0148163
845.530	0.0147298
845.608	0.0146925
845.686	0.0147578
845.764	0.0148140
845.842	0.0147934
845.920	0.0146141
845.998	0.0148346
846.076	0.0147813
846.155	0.0147064
846.233	0.0148643
846.311	0.0147464
846.389	0.0148048
846.467	0.0148661
846.545	0.0147295
846.623	0.0147351
846.701	0.0147364
846.780	0.0148680
846.858	0.0148138
846.936	0.0149293
847.014	0.0148779
847.092	0.0149508
847.170	0.0150414
847.248	0.0149332
847.326	0.0149605
847.405	0.0150476
847.483	0.0149469
847.561	0.0149476
847.639	0.0150414
847.717	0.0150416
847.795	0.0150648
847.873	0.0149979
847.951	0.0149963
848.030	0.0150756
848.108	0.0149736
848.186	0.0149588
848.264	0.0150281
848.342	0.0149010
848.420	0.0149165
848.498	0.0149416
848.576	0.0148559
848.655	0.0147377
848.733	0.0147319
848.811	0.0148886
848.889	0.0146680
848.967	0.0145356
849.045	0.0147280
849.123	0.0147391
849.201	0.0146114
849.280	0.0147100
849.358	0.0148385
849.436	0.0147406
849.514	0.0147131
849.592	0.0148170
849.670	0.0147591
849.748	0.0146557
849.826	0.0148174
849.905	0.0148267
849.983	0.0147177
850.061	0.0149143
850.139	0.0149532
850.217	0.0149714
850.295	0.0150670
850.373	0.0150180
850.451	0.0149628
850.530	0.0150659
850.608	0.0150072
850.686	0.0150554
850.764	0.0151190
850.842	0.0150138
850.920	0.0150107
850.998	0.0152414
851.076	0.0151759
851.155	0.0151044
851.233	0.0151531
851.311	0.0151997
851.389	0.0149259
851.467	0.0149886
851.545	0.0150781
851.623	0.0150455
851.701	0.0149451
851.780	0.0149907
851.858	0.0149674
851.936	0.0150132
852.014	0.0150272
852.092	0.0149017
852.170	0.0149395
852.248	0.0149430
852.326	0.0148109
852.405	0.0148902
852.483	0.0147601
852.561	0.0148885
852.639	0.0149291
852.717	0.0149986
852.795	0.0148479
852.873	0.0146811
852.951	0.0147886
853.030	0.0148309
853.108	0.0149008
853.186	0.0146614
853.264	0.0147463
853.342	0.0148334
853.420	0.0147277
853.498	0.0148342
853.576	0.0148001
853.655	0.0148388
853.733	0.0147882
853.811	0.0147500
853.889	0.0147976
853.967	0.0148092
854.045	0.0148164
854.123	0.0148325
854.201	0.0148283
854.280	0.0148328
854.358	0.0148421
854.436	0.0147818
854.514	0.0148347
854.592	0.0149187
854.670	0.0148849
854.748	0.0148938
854.826	0.0150304
854.905	0.0149010
854.983	0.0148639
855.061	0.0149318
855.139	0.0148772
855.217	0.0148396
855.295	0.0148177
855.373	0.0147963
855.451	0.0148698
855.530	0.0149081
855.608	0.0148219
855.686	0.0147762
855.764	0.0148225
855.842	0.0147094
855.920	0.0149805
855.998	0.0148716
856.076	0.0149579
856.155	0.0148973
856.233	0.0149467
856.311	0.0149361
856.389	0.0148560
856.467	0.0149148
856.545	0.0148582
856.623	0.0149988
856.701	0.0149792
856.780	0.0151041
856.858	0.0150619
856.936	0.0151219
857.014	0.0150920
857.092	0.0150804
857.170	0.0151114
857.248	0.0152049
857.326	0.0151421
857.405	0.0151446
857.483	0.0150391
857.561	0.0151366
857.639	0.0150260
857.717	0.0150654
857.795	0.0150776
857.873	0.0151646
857.951	0.0149756
858.030	0.0149177
858.108	0.0149460
858.186	0.0148911
858.264	0.0147733
858.342	0.0147657
858.420	0.0149158
858.498	0.0147839
858.576	0.0147500
858.655	0.0147364
858.733	0.0148302
858.811	0.0147342
858.889	0.0147559
858.967	0.0146893
859.045	0.0147648
859.123	0.0147706
859.201	0.0147128
859.280	0.0147010
859.358	0.0146715
859.436	0.0146918
859.514	0.0147030
859.592	0.0145615
859.670	0.0145985
859.748	0.0144019
859.826	0.0146747
859.905	0.0147658
859.983	0.0146908
860.061	0.0146950
860.139	0.0146671
860.217	0.0147766
860.295	0.0145615
860.373	0.0146352
860.451	0.0147387
860.530	0.0145994
860.608	0.0147797
860.686	0.0146231
860.764	0.0147038
860.842	0.0147213
860.920	0.0147560
860.998	0.0147862
861.076	0.0148489
861.155	0.0149574
861.233	0.0149754
861.311	0.0149837
861.389	0.0149932
861.467	0.0149427
861.545	0.0150480
861.623	0.0150582
861.701	0.0150832
861.780	0.0150906
861.858	0.0151480
861.936	0.0152065
862.014	0.0151211
862.092	0.0149619
862.170	0.0150863
862.248	0.0151753
862.326	0.0149464
862.405	0.0149911
862.483	0.0151765
862.561	0.0152071
862.639	0.0149163
862.717	0.0150392
862.795	0.0148533
862.873	0.0150021
862.951	0.0149857
863.030	0.0149031
863.108	0.0147646
863.186	0.0150077
863.264	0.0149349
863.342	0.0148264
863.420	0.0148817
863.498	0.0149029
863.576	0.0148055
863.655	0.0147377
863.733	0.0149554
863.811	0.0148949
863.889	0.0148764
863.967	0.0150054
864.045	0.0150416
864.123	0.0149318
864.201	0.0148987
864.280	0.0149982
864.358	0.0150359
864.436	0.0149133
864.514	0.0147482
864.592	0.0148836
864.670	0.0148618
864.748	0.0147894
864.826	0.0148974
864.905	0.0146042
864.983	0.0147689
865.061	0.0148034
865.139	0.0148956
865.217	0.0146584
865.295	0.0147109
865.373	0.0146632
865.451	0.0146681
865.530	0.0148308
865.608	0.0145930
865.686	0.0147482
865.764	0.0146958
865.842	0.0147279
865.920	0.0147654
865.998	0.0146801
866.076	0.0146622
866.155	0.0146706
866.233	0.0146249
866.311	0.0147629
866.389	0.0146033
866.467	0.0148032
866.545	0.0146783
866.623	0.0147665
866.701	0.0148584
866.780	0.0147867
866.858	0.0148361
866.936	0.0149731
867.014	0.0149854
867.092	0.0149390
867.170	0.0150568
867.248	0.0151024
867.326	0.0150969
867.405	0.0152382
867.483	0.0150194
867.561	0.0150961
867.639	0.0151203
867.717	0.0149924
867.795	0.0149528
867.873	0.0149800
867.951	0.0148673
868.030	0.0148498
868.108	0.0148443
868.186	0.0149649
868.264	0.0148637
868.342	0.0148670
868.420	0.0147983
868.498	0.0146757
868.576	0.0148615
868.655	0.0149326
868.733	0.0149750
868.811	0.0149468
868.889	0.0149095
868.967	0.0149224
869.045	0.0149142
869.123	0.0149967
869.201	0.0149274
869.280	0.0149498
869.358	0.0150053
869.436	0.0150650
869.514	0.0149487
869.592	0.0149917
869.670	0.0150437
869.748	0.0149152
869.826	0.0147717
869.905	0.0149473
869.983	0.0149232
870.061	0.0148125
870.139	0.0149601
870.217	0.0147115
870.295	0.0147436
870.373	0.0148569
870.451	0.0148022
870.530	0.0147975
870.608	0.0148346
870.686	0.0147919
870.764	0.0147994
870.842	0.0147421
870.920	0.0148440
870.998	0.0147504
871.076	0.0146242
871.155	0.0147380
871.233	0.0147604
871.311	0.0147228
871.389	0.0148103
871.467	0.0146840
871.545	0.0146437
871.623	0.0147042
871.701	0.0145902
871.780	0.0147163
871.858	0.0148217
871.936	0.0145811
872.014	0.0146646
872.092	0.0146223
872.170	0.0147008
872.248	0.0146726
872.326	0.0149433
872.405	0.0149648
872.483	0.0147683
872.561	0.0149772
872.639	0.0149229
872.717	0.0148696
872.795	0.0149225
872.873	0.0149389
872.951	0.0149678
873.030	0.0149663
873.108	0.0150156
873.186	0.0148988
873.264	0.0148309
873.342	0.0147146
873.420	0.0148338
873.498	0.0148572
873.576	0.0147570
873.655	0.0148264
873.733	0.0147794
873.811	0.0147821
873.889	0.0149147
873.967	0.0148779
874.045	0.0146920
874.123	0.0147683
874.201	0.0149891
874.280	0.0148470
874.358	0.0147064
874.436	0.0146920
874.514	0.0148420
874.592	0.0149350
874.670	0.0146611
874.748	0.0147756
874.826	0.0146779
874.905	0.0146244
874.983	0.0147972
875.061	0.0147255
875.139	0.0147807
875.217	0.0147816
875.295	0.0147555
875.373	0.0148184
875.451	0.0149100
875.530	0.0148969
875.608	0.0150431
875.686	0.0149014
875.764	0.0150050
875.842	0.0149264
875.920	0.0150536
875.998	0.0149223
876.076	0.0149686
876.155	0.0148814
876.233	0.0149238
876.311	0.0149725
876.389	0.0150185
876.467	0.0150422
876.545	0.0150469
876.623	0.0149299
876.701	0.0148959
876.780	0.0148675
876.858	0.0149152
876.936	0.0147964
877.014	0.0147198
877.092	0.0148209
877.170	0.0149368
877.248	0.0147836
877.326	0.0147084
877.405	0.0147910
877.483	0.0147479
877.561	0.0148238
877.639	0.0148171
877.717	0.0147251
877.795	0.0145915
877.873	0.0146735
877.951	0.0147380
878.030	0.0145977
878.108	0.0146655
878.186	0.0146744
878.264	0.0148074
878.342	0.0148185
878.420	0.0146864
878.498	0.0146819
878.576	0.0147543
878.655	0.0147916
878.733	0.0148138
878.811	0.0148343
878.889	0.0147678
878.967	0.0148644
879.045	0.0148888
879.123	0.0149012
879.201	0.0150419
879.280	0.0148306
879.358	0.0148245
879.436	0.0149738
879.514	0.0149272
879.592	0.0148123
879.670	0.0148228
879.748	0.0148383
879.826	0.0147495
879.905	0.0146960
879.983	0.0147640
880.061	0.0148271
880.139	0.0147385
880.217	0.0146945
880.295	0.0148038
880.373	0.0148013
880.451	0.0148071
880.530	0.0147616
880.608	0.0148961
880.686	0.0149768
880.764	0.0150051
880.842	0.0150843
880.920	0.0150729
880.998	0.0150049
881.076	0.0151383
881.155	0.0151324
881.233	0.0149617
881.311	0.0148827
881.389	0.0147927
881.467	0.0145670
881.545	0.0147263
881.623	0.0146696
881.701	0.0146597
881.780	0.0145111
881.858	0.0146217
881.936	0.0145000
882.014	0.0145131
882.092	0.0147108
882.170	0.0147758
882.248	0.0148436
882.326	0.0148431
882.405	0.0149257
882.483	0.0149992
882.561	0.0150578
882.639	0.0152823
882.717	0.0153297
882.795	0.0154292
882.873	0.0153672
882.951	0.0153542
883.030	0.0153243
883.108	0.0153806
883.186	0.0152119
883.264	0.0151290
883.342	0.0148362
883.420	0.0148805
883.498	0.0147141
883.576	0.0146855
883.655	0.0144501
883.733	0.0144153
883.811	0.0143388
883.889	0.0143513
883.967	0.0141724
884.045	0.0141621
884.123	0.0142883
884.201	0.0142538
884.280	0.0142819
884.358	0.0143197
884.436	0.0145193
884.514	0.0145589
884.592	0.0144765
884.670	0.0147684
884.748	0.0149017
884.826	0.0148348
884.905	0.0150156
884.983	0.0151455
885.061	0.0152103
885.139	0.0154108
885.217	0.0156286
885.295	0.0155555
885.373	0.0157037
885.451	0.0156683
885.530	0.0155930
885.608	0.0154639
885.686	0.0154221
885.764	0.0152885
885.842	0.0150897
885.920	0.0148272
885.998	0.0145666
886.076	0.0143400
886.155	0.0143631
886.233	0.0142363
886.311	0.0139673
886.389	0.0139341
886.467	0.0138960
886.545	0.0139290
886.623	0.0138552
886.701	0.0138705
886.780	0.0138162
886.858	0.0139487
886.936	0.0141123
887.014	0.0141787
887.092	0.0144559
887.170	0.0145090
887.248	0.0145702
887.326	0.0147773
887.405	0.0149473
887.483	0.0150216
887.561	0.0152533
887.639	0.0154953
887.717	0.0157142
887.795	0.0158335
887.873	0.0157327
887.951	0.0159042
888.030	0.0161044
888.108	0.0159945
888.186	0.0161335
888.264	0.0160560
888.342	0.0159994
888.420	0.0159657
888.498	0.0159382
888.576	0.0156939
888.655	0.0155266
888.733	0.0153258
888.811	0.0150209
888.889	0.0148241
888.967	0.0144913
889.045	0.0143845
889.123	0.0140665
889.201	0.0138882
889.280	0.0138096
889.358	0.0137576
889.436	0.0135650
889.514	0.0134457
889.592	0.0134922
889.670	0.0136375
889.748	0.0137178
889.826	0.0138712
889.905	0.0139595
889.983	0.0141679
890.061	0.0144269
890.139	0.0145193
890.217	0.0148193
890.295	0.0147649
890.373	0.0150172
890.451	0.0151624
890.530	0.0152061
890.608	0.0153210
890.686	0.0154510
890.764	0.0153503
890.842	0.0153752
890.920	0.0154530
890.998	0.0154946
891.076	0.0154910
891.155	0.0154767
891.233	0.0153262
891.311	0.0151517
891.389	0.0151567
891.467	0.0151989
891.545	0.0151756
891.623	0.0149492
891.701	0.0150641
891.780	0.0149270
891.858	0.0149364
891.936	0.0147945
892.014	0.0147057
892.092	0.0147865
892.170	0.0147525
892.248	0.0148912
892.326	0.0146162
892.405	0.0147063
892.483	0.0145489
892.561	0.0145798
892.639	0.0146019
892.717	0.0146334
892.795	0.0145545
892.873	0.0145458
892.951	0.0146556
893.030	0.0145895
893.108	0.0146770
893.186	0.0146748
893.264	0.0147463
893.342	0.0147713
893.420	0.0148369
893.498	0.0149231
893.576	0.0149261
893.655	0.0148051
893.733	0.0147868
893.811	0.0149091
893.889	0.0147621
893.967	0.0148917
894.045	0.0149922
894.123	0.0148540
894.201	0.0147453
894.280	0.0147764
894.358	0.0148967
894.436	0.0148792
894.514	0.0148712
894.592	0.0147603
894.670	0.0148009
894.748	0.0149187
894.826	0.0147218
894.905	0.0147398
894.983	0.0147071
895.061	0.0147972
895.139	0.0148160
895.217	0.0148315
895.295	0.0147887
895.373	0.0149789
895.451	0.0148202
895.530	0.0148660
895.608	0.0148895
895.686	0.0147464
895.764	0.0147664
895.842	0.0149525
895.920	0.0148830
895.998	0.0149281
896.076	0.0148222
896.155	0.0149625
896.233	0.0149408
896.311	0.0148846
896.389	0.0148667
896.467	0.0149302
896.545	0.0150401
896.623	0.0149465
896.701	0.0148323
896.780	0.0149285
896.858	0.0148833
896.936	0.0148112
897.014	0.0148821
897.092	0.0146874
897.170	0.0147617
897.248	0.0147340
897.326	0.0146928
897.405	0.0147477
897.483	0.0147720
897.561	0.0147537
897.639	0.0148236
897.717	0.0146943
897.795	0.0148116
897.873	0.0148371
897.951	0.0147778
898.030	0.0148166
898.108	0.0148403
898.186	0.0148366
898.264	0.0148904
898.342	0.0148823
898.420	0.0149307
898.498	0.0148556
898.576	0.0148883
898.655	0.0148746
898.733	0.0146848
898.811	0.0148314
898.889	0.0148711
898.967	0.0149072
899.045	0.0147594
899.123	0.0147726
899.201	0.0146416
899.280	0.0145943
899.358	0.0147796
899.436	0.0147369
899.514	0.0147601
899.592	0.0147305
899.670	0.0148952
899.748	0.0148102
899.826	0.0148468
899.905	0.0149760
899.983	0.0148183
900.061	0.0149152
900.139	0.0149098
900.217	0.0149622
900.295	0.0151468
900.373	0.0149148
900.451	0.0149215
900.530	0.0151711
900.608	0.0149545
900.686	0.0150829
900.764	0.0150005
900.842	0.0149643
900.920	0.0150459
900.998	0.0149881
901.076	0.0148962
901.155	0.0149222
901.233	0.0148811
901.311	0.0148363
901.389	0.0149947
901.467	0.0148486
901.545	0.0148254
901.623	0.0148749
901.701	0.0147878
901.780	0.0148522
901.858	0.0147012
901.936	0.0146621
902.014	0.0147622
902.092	0.0144946
902.170	0.0145251
902.248	0.0144611
902.326	0.0145155
902.405	0.0145398
902.483	0.0145966
902.561	0.0144233
902.639	0.0144643
902.717	0.0146210
902.795	0.0146130
902.873	0.0146035
902.951	0.0147547
903.030	0.0148401
903.108	0.0148996
903.186	0.0148944
903.264	0.0149249
903.342	0.0151081
903.420	0.0150876
903.498	0.0152496
903.576	0.0152264
903.655	0.0153050
903.733	0.0152454
903.811	0.0152537
903.889	0.0152873
903.967	0.0152267
904.045	0.0152804
904.123	0.0151475
904.201	0.0151491
904.280	0.0149400
904.358	0.0151379
904.436	0.0151695
904.514	0.0149235
904.592	0.0148289
904.670	0.0148430
904.748	0.0148949
904.826	0.0148045
904.905	0.0147072
904.983	0.0146490
905.061	0.0146288
905.139	0.0146750
905.217	0.0146647
905.295	0.0146765
905.373	0.0145781
905.451	0.0145558
905.530	0.0145411
905.608	0.0146745
905.686	0.0145543
905.764	0.0145023
905.842	0.0146614
905.920	0.0147378
905.998	0.0149053
906.076	0.0148542
906.155	0.0149034
906.233	0.0148489
906.311	0.0148454
906.389	0.0149801
906.467	0.0149503
906.545	0.0150661
906.623	0.0149082
906.701	0.0149245
906.780	0.0150270
906.858	0.0151755
906.936	0.0148161
907.014	0.0148322
907.092	0.0148720
907.170	0.0149608
907.248	0.0149015
907.326	0.0149400
907.405	0.0148312
907.483	0.0148255
907.561	0.0148139
907.639	0.0149452
907.717	0.0147958
907.795	0.0146554
907.873	0.0147840
907.951	0.0148956
908.030	0.0148579
908.108	0.0149848
908.186	0.0149181
908.264	0.0148443
908.342	0.0149606
908.420	0.0150301
908.498	0.0149398
908.576	0.0150211
908.655	0.0150788
908.733	0.0149924
908.811	0.0150689
908.889	0.0149866
908.967	0.0150758
909.045	0.0149603
909.123	0.0149634
909.201	0.0150892
909.280	0.0151321
909.358	0.0149664
909.436	0.0148027
909.514	0.0148898
909.592	0.0149232
909.670	0.0149921
909.748	0.0148364
909.826	0.0147948
909.905	0.0148685
909.983	0.0148019
910.061	0.0147447
910.139	0.0147218
910.217	0.0146777
910.295	0.0146202
910.373	0.0147054
910.451	0.0146420
910.530	0.0146188
910.608	0.0146256
910.686	0.0144193
910.764	0.0147004
910.842	0.0146955
910.920	0.0146735
910.998	0.0148372
911.076	0.0147251
911.155	0.0147354
911.233	0.0148983
911.311	0.0148254
911.389	0.0148943
911.467	0.0149478
911.545	0.0151546
911.623	0.0150861
911.701	0.0150603
911.780	0.0151989
911.858	0.0150168
911.936	0.0150024
912.014	0.0151057
912.092	0.0151904
912.170	0.0150753
912.248	0.0150220
912.326	0.0149547
912.405	0.0149258
912.483	0.0148941
912.561	0.0148212
912.639	0.0148855
912.717	0.0149796
912.795	0.0147121
912.873	0.0146605
912.951	0.0148023
913.030	0.0146355
913.108	0.0146644
913.186	0.0148019
913.264	0.0145748
913.342	0.0145219
913.420	0.0146590
913.498	0.0145502
913.576	0.0144585
913.655	0.0145813
913.733	0.0145433
913.811	0.0144976
913.889	0.0146130
913.967	0.0145586
914.045	0.0146770
914.123	0.0147717
914.201	0.0147215
914.280	0.0147578
914.358	0.0148357
914.436	0.0150710
914.514	0.0147749
914.592	0.0149404
914.670	0.0150420
914.748	0.0150533
914.826	0.0150755
914.905	0.0151008
914.983	0.0151257
915.061	0.0149957
915.139	0.0151015
915.217	0.0150406
915.295	0.0149805
915.373	0.0150286
915.451	0.0149393
915.530	0.0148668
915.608	0.0148750
915.686	0.0147934
915.764	0.0149284
915.842	0.0148856
915.920	0.0149254
915.998	0.0147350
916.076	0.0147466
916.155	0.0147291
916.233	0.0146558
916.311	0.0147474
916.389	0.0148765
916.467	0.0146804
916.545	0.0147294
916.623	0.0147536
916.701	0.0148717
916.780	0.0148653
916.858	0.0147961
916.936	0.0147304
917.014	0.0147495
917.092	0.0147710
917.170	0.0147993
917.248	0.0150234
917.326	0.0149485
917.405	0.0148277
917.483	0.0147948
917.561	0.0149317
917.639	0.0148508
917.717	0.0149223
917.795	0.0149957
917.873	0.0149847
917.951	0.0149464
918.030	0.0149995
918.108	0.0148647
918.186	0.0149817
918.264	0.0150027
918.342	0.0147401
918.420	0.0148846
918.498	0.0149003
918.576	0.0148349
918.655	0.0147297
918.733	0.0148497
918.811	0.0148121
918.889	0.0146991
918.967	0.0148742
919.045	0.0145996
919.123	0.0147498
919.201	0.0147638
919.280	0.0148083
919.358	0.0147023
919.436	0.0147822
919.514	0.0148352
919.592	0.0148082
919.670	0.0148426
919.748	0.0149397
919.826	0.0148751
919.905	0.0149039
919.983	0.0149091
920.061	0.0147939
920.139	0.0148507
920.217	0.0149092
920.295	0.0149806
920.373	0.0149101
920.451	0.0149474
920.530	0.0150027
920.608	0.0149106
920.686	0.0149220
920.764	0.0150173
920.842	0.0149889
920.920	0.0148949
920.998	0.0149296
921.076	0.0150726
921.155	0.0150063
921.233	0.0150291
921.311	0.0150179
921.389	0.0149839
921.467	0.0149093
921.545	0.0149241
921.623	0.0149964
921.701	0.0149649
921.780	0.0150030
921.858	0.0150808
921.936	0.0149080
922.014	0.0149146
922.092	0.0149538
922.170	0.0150984
922.248	0.0147980
922.326	0.0149514
922.405	0.0149031
922.483	0.0151196
922.561	0.0149352
922.639	0.0147855
922.717	0.0149480
922.795	0.0150756
922.873	0.0149754
922.951	0.0150121
923.030	0.0150082
923.108	0.0150616
923.186	0.0149033
923.264	0.0148785
923.342	0.0149452
923.420	0.0148849
923.498	0.0151311
923.576	0.0147777
923.655	0.0149345
923.733	0.0148441
923.811	0.0149222
923.889	0.0148554
923.967	0.0148067
924.045	0.0147583
924.123	0.0147633
924.201	0.0147616
924.280	0.0146843
924.358	0.0147880
924.436	0.0148320
924.514	0.0147420
924.592	0.0147636
924.670	0.0146766
924.748	0.0148057
924.826	0.0148414
924.905	0.0150140
924.983	0.0148169
925.061	0.0148355
925.139	0.0149928
925.217	0.0150121
925.295	0.0149574
925.373	0.0151071
925.451	0.0150473
925.530	0.0152074
925.608	0.0151777
925.686	0.0150520
925.764	0.0153049
925.842	0.0152079
925.920	0.0152065
925.998	0.0152771
926.076	0.0151643
926.155	0.0150529
926.233	0.0151203
926.311	0.0151202
926.389	0.0149993
926.467	0.0149376
926.545	0.0150643
926.623	0.0149874
926.701	0.0149837
926.780	0.0147749
926.858	0.0147604
926.936	0.0149049
927.014	0.0148640
927.092	0.0149257
927.170	0.0147743
927.248	0.0147366
927.326	0.0148284
927.405	0.0147337
927.483	0.0148238
927.561	0.0146951
927.639	0.0146594
927.717	0.0147099
927.795	0.0147705
927.873	0.0147343
927.951	0.0147044
928.030	0.0147201
928.108	0.0146895
928.186	0.0147656
928.264	0.0148611
928.342	0.0148450
928.420	0.0146861
928.498	0.0147925
928.576	0.0149192
928.655	0.0149171
928.733	0.0150320
928.811	0.0148836
928.889	0.0149797
928.967	0.0150395
929.045	0.0150197
929.123	0.0150486
929.201	0.0151580
929.280	0.0149387
929.358	0.0151738
929.436	0.0150067
929.514	0.0151199
929.592	0.0150126
929.670	0.0150224
929.748	0.0150301
929.826	0.0150629
929.905	0.0151331
929.983	0.0150008
930.061	0.0149700
930.139	0.0149204
930.217	0.0149345
930.295	0.0151323
930.373	0.0149731
930.451	0.0149857
930.530	0.0150455
930.608	0.0148581
930.686	0.0150690
930.764	0.0149511
930.842	0.0148528
930.920	0.0149825
930.998	0.0147892
931.076	0.0147601
931.155	0.0147379
931.233	0.0146193
931.311	0.0146444
931.389	0.0147839
931.467	0.0146111
931.545	0.0146211
931.623	0.0147092
931.701	0.0148185
931.780	0.0147683
931.858	0.0147692
931.936	0.0149556
932.014	0.0148092
932.092	0.0149317
932.170	0.0149657
932.248	0.0149726
932.326	0.0148609
932.405	0.0151066
932.483	0.0151244
932.561	0.0150353
932.639	0.0150066
932.717	0.0151241
932.795	0.0151517
932.873	0.0150173
932.951	0.0150638
933.030	0.0151086
933.108	0.0150341
933.186	0.0149065
933.264	0.0150092
933.342	0.0149934
933.420	0.0149958
933.498	0.0148381
933.576	0.0148763
933.655	0.0149457
933.733	0.0147674
933.811	0.0147382
933.889	0.0148163
933.967	0.0148291
934.045	0.0146367
934.123	0.0147028
934.201	0.0147845
934.280	0.0148409
934.358	0.0148418
934.436	0.0148398
934.514	0.0147749
934.592	0.0149071
934.670	0.0148724
934.748	0.0148586
934.826	0.0148663
934.905	0.0150063
934.983	0.0148680
935.061	0.0150005
935.139	0.0150492
935.217	0.0150802
935.295	0.0151685
935.373	0.0149606
935.451	0.0151426
935.530	0.0149944
935.608	0.0150070
935.686	0.0149841
935.764	0.0149292
935.842	0.0148991
935.920	0.0148153
935.998	0.0148956
936.076	0.0148554
936.155	0.0147844
936.233	0.0147551
936.311	0.0147437
936.389	0.0147171
936.467	0.0147684
936.545	0.0147863
936.623	0.0148813
936.701	0.0147444
936.780	0.0146570
936.858	0.0145850
936.936	0.0147453
937.014	0.0147633
937.092	0.0147726
937.170	0.0147926
937.248	0.0149382
937.326	0.0148505
937.405	0.0148163
937.483	0.0147186
937.561	0.0148259
937.639	0.0148190
937.717	0.0149246
937.795	0.0149281
937.873	0.0149590
937.951	0.0149100
938.030	0.0151111
938.108	0.0150365
938.186	0.0150412
938.264	0.0149965
938.342	0.0149550
938.420	0.0149986
938.498	0.0152062
938.576	0.0150040
938.655	0.0150003
938.733	0.0149143
938.811	0.0150669
938.889	0.0149992
938.967	0.0149757
939.045	0.0147546
939.123	0.0147596
939.201	0.0147487
939.280	0.0146837
939.358	0.0147513
939.436	0.0147981
939.514	0.0147324
939.592	0.0147510
939.670	0.0146997
939.748	0.0148490
939.826	0.0148907
939.905	0.0148399
939.983	0.0148125
940.061	0.0149841
940.139	0.0150581
940.217	0.0150491
940.295	0.0151604
940.373	0.0150041
940.451	0.0150975
940.530	0.0152338
940.608	0.0152549
940.686	0.0150826
940.764	0.0152090
940.842	0.0151956
940.920	0.0153196
940.998	0.0152767
941.076	0.0151304
941.155	0.0151335
941.233	0.0151342
941.311	0.0150494
941.389	0.0149831
941.467	0.0149134
941.545	0.0148408
941.623	0.0147545
941.701	0.0147298
941.780	0.0148387
941.858	0.0146791
941.936	0.0145679
942.014	0.0146374
942.092	0.0145010
942.170	0.0144387
942.248	0.0144470
942.326	0.0144141
942.405	0.0143654
942.483	0.0143664
942.561	0.0144389
942.639	0.0144858
942.717	0.0144743
942.795	0.0145618
942.873	0.0148190
942.951	0.0148389
943.030	0.0149495
943.108	0.0149207
943.186	0.0150381
943.264	0.0150485
943.342	0.0151402
943.420	0.0153033
943.498	0.0154023
943.576	0.0152246
943.655	0.0152801
943.733	0.0152673
943.811	0.0153841
943.889	0.0152890
943.967	0.0154488
944.045	0.0153548
944.123	0.0152091
944.201	0.0152801
944.280	0.0153093
944.358	0.0151955
944.436	0.0150420
944.514	0.0151280
944.592	0.0150378
944.670	0.0149576
944.748	0.0149803
944.826	0.0148159
944.905	0.0147154
944.983	0.0148355
945.061	0.0147444
945.139	0.0147186
945.217	0.0145359
945.295	0.0148391
945.373	0.0147433
945.451	0.0146208
945.530	0.0146784
945.608	0.0147329
945.686	0.0146026
945.764	0.0147611
945.842	0.0147701
945.920	0.0147694
945.998	0.0148113
946.076	0.0147508
946.155	0.0149406
946.233	0.0149381
946.311	0.0149683
946.389	0.0151191
946.467	0.0149953
946.545	0.0150214
946.623	0.0149767
946.701	0.0150207
946.780	0.0150917
946.858	0.0150692
946.936	0.0149670
947.014	0.0149060
947.092	0.0150689
947.170	0.0151141
947.248	0.0149065
947.326	0.0150191
947.405	0.0150315
947.483	0.0150603
947.561	0.0150015
947.639	0.0149498
947.717	0.0149247
947.795	0.0148528
947.873	0.0147973
947.951	0.0149200
948.030	0.0148540
948.108	0.0147287
948.186	0.0147808
948.264	0.0148803
948.342	0.0148901
948.420	0.0148557
948.498	0.0148225
948.576	0.0149430
948.655	0.0149523
948.733	0.0149535
948.811	0.0148560
948.889	0.0148711
948.967	0.0150385
949.045	0.0149898
949.123	0.0150166
949.201	0.0149857
949.280	0.0149644
949.358	0.0151328
949.436	0.0150831
949.514	0.0150449
949.592	0.0150146
949.670	0.0149682
949.748	0.0149648
949.826	0.0149354
949.905	0.0149982
949.983	0.0149457
950.061	0.0148335
950.139	0.0148364
950.217	0.0149062
950.295	0.0147772
950.373	0.0147625
950.451	0.0147944
950.530	0.0147916
950.608	0.0148389
950.686	0.0148931
950.764	0.0148543
950.842	0.0146794
950.920	0.0146793
950.998	0.0146407
951.076	0.0146808
951.155	0.0147226
951.233	0.0147459
951.311	0.0148513
951.389	0.0147250
951.467	0.0147681
951.545	0.0147932
951.623	0.0147967
951.701	0.0149096
951.780	0.0148682
951.858	0.0150676
951.936	0.0149744
952.014	0.0148288
952.092	0.0150416
952.170	0.0149107
952.248	0.0149740
952.326	0.0149266
952.405	0.0150041
952.483	0.0149660
952.561	0.0148892
952.639	0.0149420
952.717	0.0150583
952.795	0.0149319
952.873	0.0149446
952.951	0.0147404
953.030	0.0150258
953.108	0.0149950
953.186	0.0147945
953.264	0.0148592
953.342	0.0148029
953.420	0.0148749
953.498	0.0148850
953.576	0.0147680
953.655	0.0148116
953.733	0.0148759
953.811	0.0148592
953.889	0.0147647
953.967	0.0146559
954.045	0.0147695
954.123	0.0148408
954.201	0.0146529
954.280	0.0147573
954.358	0.0147159
954.436	0.0149434
954.514	0.0148544
954.592	0.0148079
954.670	0.0149181
954.748	0.0148270
954.826	0.0146700
954.905	0.0148894
954.983	0.0150104
955.061	0.0149415
955.139	0.0149805
955.217	0.0149445
955.295	0.0149212
955.373	0.0149287
955.451	0.0149413
955.530	0.0149834
955.608	0.0149653
955.686	0.0149586
955.764	0.0149786
955.842	0.0149410
955.920	0.0148669
955.998	0.0149104
956.076	0.0148536
956.155	0.0148417
956.233	0.0148222
956.311	0.0148839
956.389	0.0149217
956.467	0.0148880
956.545	0.0148842
956.623	0.0148426
956.701	0.0148525
956.780	0.0149651
956.858	0.0147833
956.936	0.0148579
957.014	0.0148870
957.092	0.0149200
957.170	0.0148450
957.248	0.0148369
957.326	0.0150227
957.405	0.0148576
957.483	0.0148526
957.561	0.0148154
957.639	0.0150475
957.717	0.0150172
957.795	0.0149935
957.873	0.0150895
957.951	0.0149656
958.030	0.0149226
958.108	0.0150016
958.186	0.0148690
958.264	0.0150233
958.342	0.0150335
958.420	0.0149084
958.498	0.0148997
958.576	0.0149239
958.655	0.0149290
958.733	0.0149450
958.811	0.0149032
958.889	0.0147425
958.967	0.0148360
959.045	0.0147849
959.123	0.0146609
959.201	0.0147772
959.280	0.0148418
959.358	0.0146570
959.436	0.0146760
959.514	0.0147850
959.592	0.0146304
959.670	0.0146033
959.748	0.0146035
959.826	0.0147450
959.905	0.0147175
