05/20/2022	16:16:41	Ver.	4.1	UNKNOWN
Optical Delay	639.982744	Delta X		0.078125	Sweeps	1	Scan Rate	0/0
Coordinates	Axis 1	NaN	Axis 2	NaN	Axis 3	NaN	Axis 4	NaN	Axis 5	NaN	Axis 6	0.000000
TX Power	0.000000	RX Power	0.000000

639.983	0.0140243
640.061	0.0140380
640.139	0.0140654
640.217	0.0139458
640.295	0.0139407
640.373	0.0138999
640.451	0.0141847
640.530	0.0140084
640.608	0.0139825
640.686	0.0140656
640.764	0.0140310
640.842	0.0139566
640.920	0.0140318
640.998	0.0140556
641.076	0.0140676
641.155	0.0140099
641.233	0.0139868
641.311	0.0139543
641.389	0.0139295
641.467	0.0139480
641.545	0.0140275
641.623	0.0140405
641.701	0.0140122
641.780	0.0139472
641.858	0.0140336
641.936	0.0140715
642.014	0.0140176
642.092	0.0139655
642.170	0.0139249
642.248	0.0139405
642.326	0.0139151
642.405	0.0140166
642.483	0.0140231
642.561	0.0139392
642.639	0.0140498
642.717	0.0140327
642.795	0.0139649
642.873	0.0139702
642.951	0.0141231
643.030	0.0140276
643.108	0.0139442
643.186	0.0139876
643.264	0.0139857
643.342	0.0139834
643.420	0.0139558
643.498	0.0139137
643.576	0.0139750
643.655	0.0140197
643.733	0.0140451
643.811	0.0139084
643.889	0.0139379
643.967	0.0139800
644.045	0.0140479
644.123	0.0139542
644.201	0.0139111
644.280	0.0139645
644.358	0.0140566
644.436	0.0139852
644.514	0.0140041
644.592	0.0139827
644.670	0.0139510
644.748	0.0140388
644.826	0.0139330
644.905	0.0139704
644.983	0.0139895
645.061	0.0141564
645.139	0.0139804
645.217	0.0140051
645.295	0.0139927
645.373	0.0139832
645.451	0.0140099
645.530	0.0139240
645.608	0.0139120
645.686	0.0140160
645.764	0.0140868
645.842	0.0140724
645.920	0.0139116
645.998	0.0139748
646.076	0.0140997
646.155	0.0140154
646.233	0.0139838
646.311	0.0139672
646.389	0.0141171
646.467	0.0139757
646.545	0.0140436
646.623	0.0140602
646.701	0.0139159
646.780	0.0140779
646.858	0.0138943
646.936	0.0140286
647.014	0.0139359
647.092	0.0140936
647.170	0.0140655
647.248	0.0140667
647.326	0.0140529
647.405	0.0139010
647.483	0.0139844
647.561	0.0141114
647.639	0.0141306
647.717	0.0139870
647.795	0.0140914
647.873	0.0140427
647.951	0.0140953
648.030	0.0140662
648.108	0.0139449
648.186	0.0140865
648.264	0.0140613
648.342	0.0140897
648.420	0.0141004
648.498	0.0140723
648.576	0.0139998
648.655	0.0140031
648.733	0.0140668
648.811	0.0139685
648.889	0.0139620
648.967	0.0140657
649.045	0.0140068
649.123	0.0140335
649.201	0.0139900
649.280	0.0138543
649.358	0.0139108
649.436	0.0140435
649.514	0.0140731
649.592	0.0138035
649.670	0.0138733
649.748	0.0139848
649.826	0.0140862
649.905	0.0139461
649.983	0.0139262
650.061	0.0140670
650.139	0.0138430
650.217	0.0138653
650.295	0.0139957
650.373	0.0139251
650.451	0.0139469
650.530	0.0141058
650.608	0.0140271
650.686	0.0138730
650.764	0.0138762
650.842	0.0139969
650.920	0.0139825
650.998	0.0140813
651.076	0.0139731
651.155	0.0140075
651.233	0.0138638
651.311	0.0139422
651.389	0.0140885
651.467	0.0140465
651.545	0.0139473
651.623	0.0140245
651.701	0.0140337
651.780	0.0140060
651.858	0.0140143
651.936	0.0139349
652.014	0.0139530
652.092	0.0140246
652.170	0.0139589
652.248	0.0139450
652.326	0.0139818
652.405	0.0139284
652.483	0.0140528
652.561	0.0139919
652.639	0.0140708
652.717	0.0141283
652.795	0.0139267
652.873	0.0140252
652.951	0.0140003
653.030	0.0140055
653.108	0.0139568
653.186	0.0140620
653.264	0.0138565
653.342	0.0139236
653.420	0.0139421
653.498	0.0139729
653.576	0.0138869
653.655	0.0139436
653.733	0.0140331
653.811	0.0140263
653.889	0.0140722
653.967	0.0141273
654.045	0.0139893
654.123	0.0139919
654.201	0.0140111
654.280	0.0140323
654.358	0.0140680
654.436	0.0140292
654.514	0.0140298
654.592	0.0140038
654.670	0.0140085
654.748	0.0140201
654.826	0.0138777
654.905	0.0138062
654.983	0.0140174
655.061	0.0141079
655.139	0.0140095
655.217	0.0139593
655.295	0.0139670
655.373	0.0138010
655.451	0.0140545
655.530	0.0139761
655.608	0.0140482
655.686	0.0137949
655.764	0.0139667
655.842	0.0140018
655.920	0.0139777
655.998	0.0140176
656.076	0.0139554
656.155	0.0140385
656.233	0.0140453
656.311	0.0139440
656.389	0.0138472
656.467	0.0139890
656.545	0.0139474
656.623	0.0140593
656.701	0.0140410
656.780	0.0141351
656.858	0.0140952
656.936	0.0140498
657.014	0.0139240
657.092	0.0142133
657.170	0.0139523
657.248	0.0138999
657.326	0.0139375
657.405	0.0140943
657.483	0.0140722
657.561	0.0140654
657.639	0.0139348
657.717	0.0140079
657.795	0.0139780
657.873	0.0140159
657.951	0.0138268
658.030	0.0140350
658.108	0.0140659
658.186	0.0141414
658.264	0.0139581
658.342	0.0138158
658.420	0.0140882
658.498	0.0138956
658.576	0.0139483
658.655	0.0139658
658.733	0.0140457
658.811	0.0138797
658.889	0.0140174
658.967	0.0140526
659.045	0.0139965
659.123	0.0139956
659.201	0.0139922
659.280	0.0139043
659.358	0.0140141
659.436	0.0140244
659.514	0.0140067
659.592	0.0140981
659.670	0.0138177
659.748	0.0139420
659.826	0.0140126
659.905	0.0140035
659.983	0.0139883
660.061	0.0141286
660.139	0.0139618
660.217	0.0139333
660.295	0.0139712
660.373	0.0138265
660.451	0.0138848
660.530	0.0139252
660.608	0.0141188
660.686	0.0139529
660.764	0.0138272
660.842	0.0139452
660.920	0.0140987
660.998	0.0138297
661.076	0.0139892
661.155	0.0139596
661.233	0.0138711
661.311	0.0140252
661.389	0.0140842
661.467	0.0140053
661.545	0.0139725
661.623	0.0141450
661.701	0.0140080
661.780	0.0139307
661.858	0.0141263
661.936	0.0139446
662.014	0.0138468
662.092	0.0139815
662.170	0.0139885
662.248	0.0140722
662.326	0.0140430
662.405	0.0139498
662.483	0.0139059
662.561	0.0138336
662.639	0.0138399
662.717	0.0139286
662.795	0.0140142
662.873	0.0139414
662.951	0.0139423
663.030	0.0139996
663.108	0.0140387
663.186	0.0139941
663.264	0.0138673
663.342	0.0140183
663.420	0.0139807
663.498	0.0139609
663.576	0.0140870
663.655	0.0139855
663.733	0.0139529
663.811	0.0140310
663.889	0.0140412
663.967	0.0140156
664.045	0.0139433
664.123	0.0138409
664.201	0.0140183
664.280	0.0140022
664.358	0.0139467
664.436	0.0139820
664.514	0.0139689
664.592	0.0139817
664.670	0.0139737
664.748	0.0140303
664.826	0.0140302
664.905	0.0139654
664.983	0.0139394
665.061	0.0138637
665.139	0.0139394
665.217	0.0140984
665.295	0.0138821
665.373	0.0140569
665.451	0.0139969
665.530	0.0139111
665.608	0.0139510
665.686	0.0140111
665.764	0.0140285
665.842	0.0141425
665.920	0.0139392
665.998	0.0140523
666.076	0.0140910
666.155	0.0140099
666.233	0.0139245
666.311	0.0140586
666.389	0.0139053
666.467	0.0141293
666.545	0.0140421
666.623	0.0139127
666.701	0.0140327
666.780	0.0140989
666.858	0.0141080
666.936	0.0138652
667.014	0.0140383
667.092	0.0139858
667.170	0.0139746
667.248	0.0139904
667.326	0.0139958
667.405	0.0139379
667.483	0.0141348
667.561	0.0140094
667.639	0.0139951
667.717	0.0141444
667.795	0.0141454
667.873	0.0141014
667.951	0.0139950
668.030	0.0140915
668.108	0.0140637
668.186	0.0139801
668.264	0.0140095
668.342	0.0141685
668.420	0.0140818
668.498	0.0141343
668.576	0.0140951
668.655	0.0140252
668.733	0.0139719
668.811	0.0140053
668.889	0.0140310
668.967	0.0141077
669.045	0.0139734
669.123	0.0140163
669.201	0.0139627
669.280	0.0140432
669.358	0.0141778
669.436	0.0139357
669.514	0.0139439
669.592	0.0140193
669.670	0.0141484
669.748	0.0140652
669.826	0.0139294
669.905	0.0140531
669.983	0.0139990
670.061	0.0140257
670.139	0.0141010
670.217	0.0140808
670.295	0.0140418
670.373	0.0140653
670.451	0.0141537
670.530	0.0141529
670.608	0.0140995
670.686	0.0141058
670.764	0.0141142
670.842	0.0140529
670.920	0.0140779
670.998	0.0141219
671.076	0.0140289
671.155	0.0139449
671.233	0.0138994
671.311	0.0140883
671.389	0.0141527
671.467	0.0139511
671.545	0.0141389
671.623	0.0141415
671.701	0.0140422
671.780	0.0140862
671.858	0.0140501
671.936	0.0140911
672.014	0.0140700
672.092	0.0141055
672.170	0.0139347
672.248	0.0142032
672.326	0.0141681
672.405	0.0139128
672.483	0.0139109
672.561	0.0140170
672.639	0.0140793
672.717	0.0140976
672.795	0.0140189
672.873	0.0140591
672.951	0.0139990
673.030	0.0139995
673.108	0.0141786
673.186	0.0140910
673.264	0.0140289
673.342	0.0140163
673.420	0.0140205
673.498	0.0139723
673.576	0.0140466
673.655	0.0139862
673.733	0.0141331
673.811	0.0139393
673.889	0.0139779
673.967	0.0139838
674.045	0.0140139
674.123	0.0140780
674.201	0.0139899
674.280	0.0140461
674.358	0.0141214
674.436	0.0140111
674.514	0.0139097
674.592	0.0140208
674.670	0.0140137
674.748	0.0141681
674.826	0.0140228
674.905	0.0139601
674.983	0.0140398
675.061	0.0139008
675.139	0.0140046
675.217	0.0140289
675.295	0.0139868
675.373	0.0139697
675.451	0.0139809
675.530	0.0139425
675.608	0.0139201
675.686	0.0138607
675.764	0.0139496
675.842	0.0140427
675.920	0.0139259
675.998	0.0140649
676.076	0.0139257
676.155	0.0139664
676.233	0.0141577
676.311	0.0138364
676.389	0.0139919
676.467	0.0140274
676.545	0.0140785
676.623	0.0140052
676.701	0.0139056
676.780	0.0139540
676.858	0.0140033
676.936	0.0139758
677.014	0.0140799
677.092	0.0139256
677.170	0.0140797
677.248	0.0140720
677.326	0.0140472
677.405	0.0140900
677.483	0.0138694
677.561	0.0139890
677.639	0.0139849
677.717	0.0140110
677.795	0.0139326
677.873	0.0139999
677.951	0.0138704
678.030	0.0140234
678.108	0.0138516
678.186	0.0138598
678.264	0.0138167
678.342	0.0140212
678.420	0.0138351
678.498	0.0138912
678.576	0.0139855
678.655	0.0138371
678.733	0.0137566
678.811	0.0137256
678.889	0.0139408
678.967	0.0138572
679.045	0.0140529
679.123	0.0140576
679.201	0.0141740
679.280	0.0140158
679.358	0.0140945
679.436	0.0141138
679.514	0.0139811
679.592	0.0139561
679.670	0.0140160
679.748	0.0141095
679.826	0.0139822
679.905	0.0138738
679.983	0.0141454
680.061	0.0138779
680.139	0.0139083
680.217	0.0139103
680.295	0.0139785
680.373	0.0139766
680.451	0.0139182
680.530	0.0139169
680.608	0.0138042
680.686	0.0138207
680.764	0.0137614
680.842	0.0136938
680.920	0.0138376
680.998	0.0137234
681.076	0.0139861
681.155	0.0139522
681.233	0.0140533
681.311	0.0140020
681.389	0.0141344
681.467	0.0139543
681.545	0.0139254
681.623	0.0139706
681.701	0.0141560
681.780	0.0140269
681.858	0.0139389
681.936	0.0140769
682.014	0.0140504
682.092	0.0140595
682.170	0.0140636
682.248	0.0139620
682.326	0.0139438
682.405	0.0140369
682.483	0.0141486
682.561	0.0139949
682.639	0.0139991
682.717	0.0140325
682.795	0.0139622
682.873	0.0139893
682.951	0.0139616
683.030	0.0138499
683.108	0.0138831
683.186	0.0140105
683.264	0.0140565
683.342	0.0139944
683.420	0.0139854
683.498	0.0139123
683.576	0.0139085
683.655	0.0139532
683.733	0.0139299
683.811	0.0140057
683.889	0.0138460
683.967	0.0138139
684.045	0.0138107
684.123	0.0138464
684.201	0.0139740
684.280	0.0139532
684.358	0.0139499
684.436	0.0139983
684.514	0.0140418
684.592	0.0140949
684.670	0.0141251
684.748	0.0141300
684.826	0.0145262
684.905	0.0144560
684.983	0.0142238
685.061	0.0143413
685.139	0.0142754
685.217	0.0142516
685.295	0.0142847
685.373	0.0140706
685.451	0.0139939
685.530	0.0138218
685.608	0.0136609
685.686	0.0135651
685.764	0.0135493
685.842	0.0135365
685.920	0.0133188
685.998	0.0133949
686.076	0.0132851
686.155	0.0134777
686.233	0.0135464
686.311	0.0137160
686.389	0.0137352
686.467	0.0137706
686.545	0.0139342
686.623	0.0140932
686.701	0.0141785
686.780	0.0141930
686.858	0.0142323
686.936	0.0142413
687.014	0.0141202
687.092	0.0142044
687.170	0.0143784
687.248	0.0143915
687.326	0.0141061
687.405	0.0140804
687.483	0.0139562
687.561	0.0140939
687.639	0.0141091
687.717	0.0140172
687.795	0.0141116
687.873	0.0142504
687.951	0.0143158
688.030	0.0142200
688.108	0.0141602
688.186	0.0141859
688.264	0.0139780
688.342	0.0138789
688.420	0.0138824
688.498	0.0138480
688.576	0.0137991
688.655	0.0136784
688.733	0.0135821
688.811	0.0135207
688.889	0.0136031
688.967	0.0138889
689.045	0.0139786
689.123	0.0139632
689.201	0.0142030
689.280	0.0143215
689.358	0.0144079
689.436	0.0144442
689.514	0.0145490
689.592	0.0144750
689.670	0.0144355
689.748	0.0143168
689.826	0.0142851
689.905	0.0139658
689.983	0.0139291
690.061	0.0136745
690.139	0.0136947
690.217	0.0134480
690.295	0.0136562
690.373	0.0136647
690.451	0.0135079
690.530	0.0134479
690.608	0.0135863
690.686	0.0136440
690.764	0.0134612
690.842	0.0135732
690.920	0.0135995
690.998	0.0135473
691.076	0.0135750
691.155	0.0135571
691.233	0.0135671
691.311	0.0136055
691.389	0.0137438
691.467	0.0137105
691.545	0.0137789
691.623	0.0141210
691.701	0.0142092
691.780	0.0144128
691.858	0.0146494
691.936	0.0149442
692.014	0.0151375
692.092	0.0153481
692.170	0.0153479
692.248	0.0154623
692.326	0.0155008
692.405	0.0153519
692.483	0.0153925
692.561	0.0152218
692.639	0.0149383
692.717	0.0145117
692.795	0.0145879
692.873	0.0142029
692.951	0.0141312
693.030	0.0139403
693.108	0.0136327
693.186	0.0136188
693.264	0.0136273
693.342	0.0135931
693.420	0.0134597
693.498	0.0134349
693.576	0.0134019
693.655	0.0134503
693.733	0.0134673
693.811	0.0133872
693.889	0.0135359
693.967	0.0134737
694.045	0.0135564
694.123	0.0135324
694.201	0.0135511
694.280	0.0137511
694.358	0.0139602
694.436	0.0138730
694.514	0.0137209
694.592	0.0137860
694.670	0.0139410
694.748	0.0138754
694.826	0.0137754
694.905	0.0137029
694.983	0.0136279
695.061	0.0137148
695.139	0.0135601
695.217	0.0136265
695.295	0.0137900
695.373	0.0138882
695.451	0.0141122
695.530	0.0143793
695.608	0.0145914
695.686	0.0147129
695.764	0.0147353
695.842	0.0147355
695.920	0.0146790
695.998	0.0144846
696.076	0.0143014
696.155	0.0143111
696.233	0.0138799
696.311	0.0139845
696.389	0.0139202
696.467	0.0137814
696.545	0.0138005
696.623	0.0139046
696.701	0.0139958
696.780	0.0139705
696.858	0.0141758
696.936	0.0141840
697.014	0.0144305
697.092	0.0143001
697.170	0.0145581
697.248	0.0146877
697.326	0.0144878
697.405	0.0143415
697.483	0.0144462
697.561	0.0143771
697.639	0.0143623
697.717	0.0143941
697.795	0.0143355
697.873	0.0144280
697.951	0.0145695
698.030	0.0145788
698.108	0.0146059
698.186	0.0145135
698.264	0.0144571
698.342	0.0145174
698.420	0.0144138
698.498	0.0142741
698.576	0.0143799
698.655	0.0143278
698.733	0.0143045
698.811	0.0144193
698.889	0.0143105
698.967	0.0142819
699.045	0.0142417
699.123	0.0144043
699.201	0.0142706
699.280	0.0142201
699.358	0.0142705
699.436	0.0142059
699.514	0.0139532
699.592	0.0139541
699.670	0.0136989
699.748	0.0134294
699.826	0.0131308
699.905	0.0128854
699.983	0.0126664
700.061	0.0123756
700.139	0.0121538
700.217	0.0116409
700.295	0.0117319
700.373	0.0115062
700.451	0.0112730
700.530	0.0112748
700.608	0.0114021
700.686	0.0114962
700.764	0.0115363
700.842	0.0115594
700.920	0.0119730
700.998	0.0122500
701.076	0.0123708
701.155	0.0126302
701.233	0.0130104
701.311	0.0134078
701.389	0.0134840
701.467	0.0140630
701.545	0.0143141
701.623	0.0145740
701.701	0.0151314
701.780	0.0154351
701.858	0.0158311
701.936	0.0162545
702.014	0.0166557
702.092	0.0170807
702.170	0.0171490
702.248	0.0173072
702.326	0.0175403
702.405	0.0175450
702.483	0.0173125
702.561	0.0175046
702.639	0.0173815
702.717	0.0174032
702.795	0.0170884
702.873	0.0170443
702.951	0.0169317
703.030	0.0166639
703.108	0.0163548
703.186	0.0161591
703.264	0.0158833
703.342	0.0154774
703.420	0.0150184
703.498	0.0145413
703.576	0.0139855
703.655	0.0134105
703.733	0.0129458
703.811	0.0124847
703.889	0.0119085
703.967	0.0113882
704.045	0.0109689
704.123	0.0107230
704.201	0.0104676
704.280	0.0103082
704.358	0.0102943
704.436	0.0100135
704.514	0.0100654
704.592	0.0101574
704.670	0.0102037
704.748	0.0104495
704.826	0.0105119
704.905	0.0104977
704.983	0.0109550
705.061	0.0112308
705.139	0.0114996
705.217	0.0115801
705.295	0.0119147
705.373	0.0123673
705.451	0.0124524
705.530	0.0127535
705.608	0.0130202
705.686	0.0132487
705.764	0.0134905
705.842	0.0136830
705.920	0.0138982
705.998	0.0140189
706.076	0.0141205
706.155	0.0144804
706.233	0.0145687
706.311	0.0145810
706.389	0.0147768
706.467	0.0150990
706.545	0.0151959
706.623	0.0154578
706.701	0.0156472
706.780	0.0158406
706.858	0.0161243
706.936	0.0163507
707.014	0.0165799
707.092	0.0167734
707.170	0.0170713
707.248	0.0172404
707.326	0.0173802
707.405	0.0174120
707.483	0.0174152
707.561	0.0175127
707.639	0.0173862
707.717	0.0173378
707.795	0.0171773
707.873	0.0169010
707.951	0.0165240
708.030	0.0163224
708.108	0.0157175
708.186	0.0153706
708.264	0.0149402
708.342	0.0145912
708.420	0.0143454
708.498	0.0139561
708.576	0.0138819
708.655	0.0134399
708.733	0.0133054
708.811	0.0131668
708.889	0.0128214
708.967	0.0128060
709.045	0.0125893
709.123	0.0123678
709.201	0.0121594
709.280	0.0119106
709.358	0.0117342
709.436	0.0114206
709.514	0.0111505
709.592	0.0109317
709.670	0.0106437
709.748	0.0105415
709.826	0.0104594
709.905	0.0105022
709.983	0.0105120
710.061	0.0105795
710.139	0.0106490
710.217	0.0108868
710.295	0.0112710
710.373	0.0114079
710.451	0.0120466
710.530	0.0125008
710.608	0.0128510
710.686	0.0135763
710.764	0.0139423
710.842	0.0143835
710.920	0.0147459
710.998	0.0154628
711.076	0.0156779
711.155	0.0158921
711.233	0.0161620
711.311	0.0163093
711.389	0.0165053
711.467	0.0163002
711.545	0.0160354
711.623	0.0159123
711.701	0.0154290
711.780	0.0150114
711.858	0.0145753
711.936	0.0140205
712.014	0.0136118
712.092	0.0131524
712.170	0.0129736
712.248	0.0126407
712.326	0.0125218
712.405	0.0124467
712.483	0.0125443
712.561	0.0127472
712.639	0.0131716
712.717	0.0135532
712.795	0.0140319
712.873	0.0143493
712.951	0.0147702
713.030	0.0151541
713.108	0.0156025
713.186	0.0161412
713.264	0.0163985
713.342	0.0163971
713.420	0.0167778
713.498	0.0170313
713.576	0.0171455
713.655	0.0170223
713.733	0.0171410
713.811	0.0169298
713.889	0.0168682
713.967	0.0166959
714.045	0.0164214
714.123	0.0161362
714.201	0.0158367
714.280	0.0156010
714.358	0.0152715
714.436	0.0149695
714.514	0.0146895
714.592	0.0145381
714.670	0.0142698
714.748	0.0142078
714.826	0.0139448
714.905	0.0137400
714.983	0.0135770
715.061	0.0133936
715.139	0.0131300
715.217	0.0129036
715.295	0.0126234
715.373	0.0122694
715.451	0.0119285
715.530	0.0117335
715.608	0.0113104
715.686	0.0110857
715.764	0.0109535
715.842	0.0107729
715.920	0.0105042
715.998	0.0104895
716.076	0.0105473
716.155	0.0105746
716.233	0.0108461
716.311	0.0110638
716.389	0.0114716
716.467	0.0118689
716.545	0.0122268
716.623	0.0123661
716.701	0.0128084
716.780	0.0131819
716.858	0.0135316
716.936	0.0138629
717.014	0.0142161
717.092	0.0144485
717.170	0.0147767
717.248	0.0148887
717.326	0.0151196
717.405	0.0152442
717.483	0.0153242
717.561	0.0153590
717.639	0.0152802
717.717	0.0152578
717.795	0.0150270
717.873	0.0148122
717.951	0.0146739
718.030	0.0141332
718.108	0.0137745
718.186	0.0137211
718.264	0.0133280
718.342	0.0130169
718.420	0.0131346
718.498	0.0131181
718.576	0.0132491
718.655	0.0134288
718.733	0.0136181
718.811	0.0139384
718.889	0.0143909
718.967	0.0147285
719.045	0.0150963
719.123	0.0156577
719.201	0.0160458
719.280	0.0162757
719.358	0.0167004
719.436	0.0170711
719.514	0.0173182
719.592	0.0175758
719.670	0.0176677
719.748	0.0175166
719.826	0.0176128
719.905	0.0173843
719.983	0.0172345
720.061	0.0168307
720.139	0.0165162
720.217	0.0161395
720.295	0.0158165
720.373	0.0155108
720.451	0.0151294
720.530	0.0148994
720.608	0.0144812
720.686	0.0141019
720.764	0.0140979
720.842	0.0138314
720.920	0.0137573
720.998	0.0135801
721.076	0.0136781
721.155	0.0134267
721.233	0.0133590
721.311	0.0131923
721.389	0.0130055
721.467	0.0127308
721.545	0.0122694
721.623	0.0118998
721.701	0.0116099
721.780	0.0110503
721.858	0.0108095
721.936	0.0104042
722.014	0.0101569
722.092	0.00980789
722.170	0.00954712
722.248	0.00942635
722.326	0.00960289
722.405	0.00970955
722.483	0.00971970
722.561	0.0102615
722.639	0.0104811
722.717	0.0111014
722.795	0.0115060
722.873	0.0121427
722.951	0.0126746
723.030	0.0133201
723.108	0.0138958
723.186	0.0143797
723.264	0.0148234
723.342	0.0151083
723.420	0.0154310
723.498	0.0155974
723.576	0.0159386
723.655	0.0159551
723.733	0.0160014
723.811	0.0161546
723.889	0.0161080
723.967	0.0160674
724.045	0.0158981
724.123	0.0158560
724.201	0.0157421
724.280	0.0154895
724.358	0.0152119
724.436	0.0148915
724.514	0.0144968
724.592	0.0142538
724.670	0.0140694
724.748	0.0137478
724.826	0.0136328
724.905	0.0135397
724.983	0.0134520
725.061	0.0135162
725.139	0.0135943
725.217	0.0137596
725.295	0.0140242
725.373	0.0144187
725.451	0.0145702
725.530	0.0149389
725.608	0.0151697
725.686	0.0154599
725.764	0.0155257
725.842	0.0156738
725.920	0.0156567
725.998	0.0159963
726.076	0.0159752
726.155	0.0159245
726.233	0.0160956
726.311	0.0160659
726.389	0.0159565
726.467	0.0157759
726.545	0.0158436
726.623	0.0156483
726.701	0.0155186
726.780	0.0151460
726.858	0.0149852
726.936	0.0147031
727.014	0.0143278
727.092	0.0142050
727.170	0.0139816
727.248	0.0138058
727.326	0.0136625
727.405	0.0134184
727.483	0.0132627
727.561	0.0132368
727.639	0.0130808
727.717	0.0130344
727.795	0.0129713
727.873	0.0127397
727.951	0.0126793
728.030	0.0124630
728.108	0.0122604
728.186	0.0118575
728.264	0.0116558
728.342	0.0114612
728.420	0.0112817
728.498	0.0111464
728.576	0.0108595
728.655	0.0106628
728.733	0.0105926
728.811	0.0106362
728.889	0.0105572
728.967	0.0105692
729.045	0.0108279
729.123	0.0108725
729.201	0.0111647
729.280	0.0112880
729.358	0.0117456
729.436	0.0122506
729.514	0.0126694
729.592	0.0130527
729.670	0.0137166
729.748	0.0142721
729.826	0.0147707
729.905	0.0153635
729.983	0.0156801
730.061	0.0161918
730.139	0.0165889
730.217	0.0167261
730.295	0.0168489
730.373	0.0170252
730.451	0.0170403
730.530	0.0166190
730.608	0.0165937
730.686	0.0162486
730.764	0.0158533
730.842	0.0154404
730.920	0.0150873
730.998	0.0147802
731.076	0.0145737
731.155	0.0143701
731.233	0.0138753
731.311	0.0136513
731.389	0.0134177
731.467	0.0131847
731.545	0.0132330
731.623	0.0132473
731.701	0.0132171
731.780	0.0132835
731.858	0.0134575
731.936	0.0136964
732.014	0.0139047
732.092	0.0141656
732.170	0.0144318
732.248	0.0146402
732.326	0.0149685
732.405	0.0152450
732.483	0.0153259
732.561	0.0156463
732.639	0.0157200
732.717	0.0157564
732.795	0.0157753
732.873	0.0156199
732.951	0.0156561
733.030	0.0153623
733.108	0.0151840
733.186	0.0148931
733.264	0.0148121
733.342	0.0145428
733.420	0.0143258
733.498	0.0140897
733.576	0.0138727
733.655	0.0136290
733.733	0.0134558
733.811	0.0130430
733.889	0.0130037
733.967	0.0129729
734.045	0.0127630
734.123	0.0127155
734.201	0.0128950
734.280	0.0129245
734.358	0.0129771
734.436	0.0131687
734.514	0.0133708
734.592	0.0134133
734.670	0.0136197
734.748	0.0136204
734.826	0.0134940
734.905	0.0132927
734.983	0.0132663
735.061	0.0131007
735.139	0.0128578
735.217	0.0124661
735.295	0.0122234
735.373	0.0120645
735.451	0.0116152
735.530	0.0114262
735.608	0.0115041
735.686	0.0114230
735.764	0.0113677
735.842	0.0116405
735.920	0.0118898
735.998	0.0122270
736.076	0.0126028
736.155	0.0128616
736.233	0.0132536
736.311	0.0139492
736.389	0.0142078
736.467	0.0145947
736.545	0.0151360
736.623	0.0152691
736.701	0.0155700
736.780	0.0159414
736.858	0.0160546
736.936	0.0162193
737.014	0.0160687
737.092	0.0160326
737.170	0.0158472
737.248	0.0158790
737.326	0.0156533
737.405	0.0155112
737.483	0.0153173
737.561	0.0150096
737.639	0.0145018
737.717	0.0143824
737.795	0.0140676
737.873	0.0139201
737.951	0.0137070
738.030	0.0134232
738.108	0.0131947
738.186	0.0131477
738.264	0.0130096
738.342	0.0130701
738.420	0.0130527
738.498	0.0131956
738.576	0.0133497
738.655	0.0133485
738.733	0.0137830
738.811	0.0139796
738.889	0.0142624
738.967	0.0145628
739.045	0.0147039
739.123	0.0149581
739.201	0.0152120
739.280	0.0152798
739.358	0.0153813
739.436	0.0154276
739.514	0.0155315
739.592	0.0156622
739.670	0.0155548
739.748	0.0154702
739.826	0.0154523
739.905	0.0152976
739.983	0.0151054
740.061	0.0149978
740.139	0.0147111
740.217	0.0144764
740.295	0.0144738
740.373	0.0140740
740.451	0.0140847
740.530	0.0138437
740.608	0.0136290
740.686	0.0134607
740.764	0.0131770
740.842	0.0130799
740.920	0.0130678
740.998	0.0131565
741.076	0.0130262
741.155	0.0131853
741.233	0.0133462
741.311	0.0134679
741.389	0.0135693
741.467	0.0136985
741.545	0.0138100
741.623	0.0138844
741.701	0.0138286
741.780	0.0135939
741.858	0.0138042
741.936	0.0135036
742.014	0.0133207
742.092	0.0131884
742.170	0.0128976
742.248	0.0127026
742.326	0.0124564
742.405	0.0124162
742.483	0.0123161
742.561	0.0122528
742.639	0.0123811
742.717	0.0125259
742.795	0.0125471
742.873	0.0127580
742.951	0.0129759
743.030	0.0131094
743.108	0.0134016
743.186	0.0136992
743.264	0.0140347
743.342	0.0142966
743.420	0.0146141
743.498	0.0148518
743.576	0.0151234
743.655	0.0152874
743.733	0.0154702
743.811	0.0157138
743.889	0.0157556
743.967	0.0159785
744.045	0.0158429
744.123	0.0156630
744.201	0.0155161
744.280	0.0152166
744.358	0.0150137
744.436	0.0146945
744.514	0.0144185
744.592	0.0142467
744.670	0.0139301
744.748	0.0136678
744.826	0.0134937
744.905	0.0134362
744.983	0.0132481
745.061	0.0131606
745.139	0.0131744
745.217	0.0132580
745.295	0.0130155
745.373	0.0133116
745.451	0.0134376
745.530	0.0134072
745.608	0.0135548
745.686	0.0139674
745.764	0.0140757
745.842	0.0141105
745.920	0.0144810
745.998	0.0145624
746.076	0.0146195
746.155	0.0150510
746.233	0.0152132
746.311	0.0152719
746.389	0.0155152
746.467	0.0154510
746.545	0.0155250
746.623	0.0154179
746.701	0.0153425
746.780	0.0152329
746.858	0.0150835
746.936	0.0147375
747.014	0.0145528
747.092	0.0143613
747.170	0.0141560
747.248	0.0140133
747.326	0.0136990
747.405	0.0135780
747.483	0.0134703
747.561	0.0132390
747.639	0.0132156
747.717	0.0131666
747.795	0.0131444
747.873	0.0130812
747.951	0.0131442
748.030	0.0131758
748.108	0.0133242
748.186	0.0134120
748.264	0.0136201
748.342	0.0136627
748.420	0.0138083
748.498	0.0138712
748.576	0.0138570
748.655	0.0139480
748.733	0.0139628
748.811	0.0137329
748.889	0.0136355
748.967	0.0137257
749.045	0.0132276
749.123	0.0132114
749.201	0.0133424
749.280	0.0131895
749.358	0.0129374
749.436	0.0129784
749.514	0.0129806
749.592	0.0128657
749.670	0.0129256
749.748	0.0130303
749.826	0.0133134
749.905	0.0133835
749.983	0.0134052
750.061	0.0136106
750.139	0.0139664
750.217	0.0139482
750.295	0.0141878
750.373	0.0144534
750.451	0.0146176
750.530	0.0146581
750.608	0.0149168
750.686	0.0149727
750.764	0.0149641
750.842	0.0150630
750.920	0.0151313
750.998	0.0152466
751.076	0.0151120
751.155	0.0151894
751.233	0.0149178
751.311	0.0148835
751.389	0.0146945
751.467	0.0144453
751.545	0.0142496
751.623	0.0140604
751.701	0.0138449
751.780	0.0136106
751.858	0.0134932
751.936	0.0132801
752.014	0.0132920
752.092	0.0132974
752.170	0.0130991
752.248	0.0130827
752.326	0.0130595
752.405	0.0131629
752.483	0.0132487
752.561	0.0132624
752.639	0.0134816
752.717	0.0135358
752.795	0.0138479
752.873	0.0138540
752.951	0.0142513
753.030	0.0143711
753.108	0.0144892
753.186	0.0148036
753.264	0.0146953
753.342	0.0147988
753.420	0.0149278
753.498	0.0148821
753.576	0.0150381
753.655	0.0150345
753.733	0.0147421
753.811	0.0147082
753.889	0.0145850
753.967	0.0144249
754.045	0.0143611
754.123	0.0141939
754.201	0.0140211
754.280	0.0138943
754.358	0.0137502
754.436	0.0135168
754.514	0.0135141
754.592	0.0134138
754.670	0.0132291
754.748	0.0133054
754.826	0.0130823
754.905	0.0133012
754.983	0.0135027
755.061	0.0133344
755.139	0.0135843
755.217	0.0136583
755.295	0.0138549
755.373	0.0139928
755.451	0.0139808
755.530	0.0140984
755.608	0.0141487
755.686	0.0142700
755.764	0.0141116
755.842	0.0141209
755.920	0.0140900
755.998	0.0140934
756.076	0.0138670
756.155	0.0138792
756.233	0.0137961
756.311	0.0136690
756.389	0.0135780
756.467	0.0135158
756.545	0.0133195
756.623	0.0133453
756.701	0.0135510
756.780	0.0133022
756.858	0.0133272
756.936	0.0134309
757.014	0.0134004
757.092	0.0135484
757.170	0.0136695
757.248	0.0137458
757.326	0.0136505
757.405	0.0140150
757.483	0.0140225
757.561	0.0139732
757.639	0.0141270
757.717	0.0143931
757.795	0.0143679
757.873	0.0142192
757.951	0.0143753
758.030	0.0143635
758.108	0.0144411
758.186	0.0144820
758.264	0.0143633
758.342	0.0144041
758.420	0.0145074
758.498	0.0142764
758.576	0.0142765
758.655	0.0141429
758.733	0.0140267
758.811	0.0139808
758.889	0.0139643
758.967	0.0138131
759.045	0.0137238
759.123	0.0136453
759.201	0.0136235
759.280	0.0136253
759.358	0.0135665
759.436	0.0135616
759.514	0.0136993
759.592	0.0135434
759.670	0.0134443
759.748	0.0135300
759.826	0.0136610
759.905	0.0137267
759.983	0.0137322
760.061	0.0139802
760.139	0.0140295
760.217	0.0141745
760.295	0.0142406
760.373	0.0143569
760.451	0.0142239
760.530	0.0143657
760.608	0.0145336
760.686	0.0145520
760.764	0.0145363
760.842	0.0145959
760.920	0.0145187
760.998	0.0145393
761.076	0.0144578
761.155	0.0142046
761.233	0.0142615
761.311	0.0142333
761.389	0.0141975
761.467	0.0140238
761.545	0.0138703
761.623	0.0138897
761.701	0.0139162
761.780	0.0136602
761.858	0.0137426
761.936	0.0137856
762.014	0.0139104
762.092	0.0139326
762.170	0.0138889
762.248	0.0140536
762.326	0.0141708
762.405	0.0141714
762.483	0.0141236
762.561	0.0142206
762.639	0.0139799
762.717	0.0141528
762.795	0.0141070
762.873	0.0141048
762.951	0.0140530
763.030	0.0140935
763.108	0.0139977
763.186	0.0139709
763.264	0.0138511
763.342	0.0137397
763.420	0.0137881
763.498	0.0138158
763.576	0.0138035
763.655	0.0138739
763.733	0.0138085
763.811	0.0138054
763.889	0.0137403
763.967	0.0138396
764.045	0.0138077
764.123	0.0137297
764.201	0.0138203
764.280	0.0137465
764.358	0.0137052
764.436	0.0137643
764.514	0.0137595
764.592	0.0137225
764.670	0.0137786
764.748	0.0138053
764.826	0.0138309
764.905	0.0139206
764.983	0.0140314
765.061	0.0141351
765.139	0.0138570
765.217	0.0139335
765.295	0.0140434
765.373	0.0140968
765.451	0.0141279
765.530	0.0140522
765.608	0.0140807
765.686	0.0140241
765.764	0.0140692
765.842	0.0141830
765.920	0.0141672
765.998	0.0140824
766.076	0.0140791
766.155	0.0139050
766.233	0.0139011
766.311	0.0139820
766.389	0.0139832
766.467	0.0140471
766.545	0.0139436
766.623	0.0139051
766.701	0.0138664
766.780	0.0138093
766.858	0.0138444
766.936	0.0138142
767.014	0.0140218
767.092	0.0140295
767.170	0.0139854
767.248	0.0140059
767.326	0.0140442
767.405	0.0141016
767.483	0.0141568
767.561	0.0141586
767.639	0.0140631
767.717	0.0141063
767.795	0.0141025
767.873	0.0140652
767.951	0.0139996
768.030	0.0141634
768.108	0.0140423
768.186	0.0139755
768.264	0.0141658
768.342	0.0141995
768.420	0.0140355
768.498	0.0140075
768.576	0.0142712
768.655	0.0140915
768.733	0.0140822
768.811	0.0142403
768.889	0.0142962
768.967	0.0141667
769.045	0.0142443
769.123	0.0142239
769.201	0.0142507
769.280	0.0141863
769.358	0.0141323
769.436	0.0142934
769.514	0.0142839
769.592	0.0140781
769.670	0.0140535
769.748	0.0142910
769.826	0.0141998
769.905	0.0143660
769.983	0.0142512
770.061	0.0141050
770.139	0.0141586
770.217	0.0139697
770.295	0.0141576
770.373	0.0141003
770.451	0.0139311
770.530	0.0139761
770.608	0.0137733
770.686	0.0136542
770.764	0.0137125
770.842	0.0136423
770.920	0.0137196
770.998	0.0137912
771.076	0.0136067
771.155	0.0136703
771.233	0.0138642
771.311	0.0138268
771.389	0.0139509
771.467	0.0138319
771.545	0.0138905
771.623	0.0139200
771.701	0.0139357
771.780	0.0137492
771.858	0.0138956
771.936	0.0140607
772.014	0.0141895
772.092	0.0141204
772.170	0.0139193
772.248	0.0140205
772.326	0.0140663
772.405	0.0139635
772.483	0.0140156
772.561	0.0139447
772.639	0.0141031
772.717	0.0139951
772.795	0.0141014
772.873	0.0140382
772.951	0.0139754
773.030	0.0138702
773.108	0.0140789
773.186	0.0139782
773.264	0.0139319
773.342	0.0141029
773.420	0.0139037
773.498	0.0140086
773.576	0.0139664
773.655	0.0139078
773.733	0.0139900
773.811	0.0138491
773.889	0.0139312
773.967	0.0138936
774.045	0.0140385
774.123	0.0140758
774.201	0.0139590
774.280	0.0140251
774.358	0.0139973
774.436	0.0138509
774.514	0.0140056
774.592	0.0142058
774.670	0.0142020
774.748	0.0140457
774.826	0.0142073
774.905	0.0140289
774.983	0.0141156
775.061	0.0141517
775.139	0.0139993
775.217	0.0139902
775.295	0.0142722
775.373	0.0141045
775.451	0.0141399
775.530	0.0141282
775.608	0.0139492
775.686	0.0141494
775.764	0.0140539
775.842	0.0140038
775.920	0.0141082
775.998	0.0141708
776.076	0.0141033
776.155	0.0142308
776.233	0.0142879
776.311	0.0141946
776.389	0.0141985
776.467	0.0142564
776.545	0.0142309
776.623	0.0142948
776.701	0.0142217
776.780	0.0142999
776.858	0.0142958
776.936	0.0142583
777.014	0.0142484
777.092	0.0142683
777.170	0.0142396
777.248	0.0140839
777.326	0.0142167
777.405	0.0142091
777.483	0.0141776
777.561	0.0140272
777.639	0.0139822
777.717	0.0139034
777.795	0.0138415
777.873	0.0138164
777.951	0.0138280
778.030	0.0136176
778.108	0.0135316
778.186	0.0136063
778.264	0.0136197
778.342	0.0136839
778.420	0.0135664
778.498	0.0135246
778.576	0.0134293
778.655	0.0136425
778.733	0.0135514
778.811	0.0136542
778.889	0.0137774
778.967	0.0138107
779.045	0.0139673
779.123	0.0139395
779.201	0.0140045
779.280	0.0140585
779.358	0.0142211
779.436	0.0140937
779.514	0.0143616
779.592	0.0143044
779.670	0.0142001
779.748	0.0143211
779.826	0.0142635
779.905	0.0144000
779.983	0.0141605
780.061	0.0143468
780.139	0.0141265
780.217	0.0138908
780.295	0.0139814
780.373	0.0138143
780.451	0.0137320
780.530	0.0138124
780.608	0.0138619
780.686	0.0136878
780.764	0.0136565
780.842	0.0138046
780.920	0.0137063
780.998	0.0136566
781.076	0.0138384
781.155	0.0138859
781.233	0.0138518
781.311	0.0137778
781.389	0.0137952
781.467	0.0139700
781.545	0.0139208
781.623	0.0138396
781.701	0.0140493
781.780	0.0140491
781.858	0.0141003
781.936	0.0140556
782.014	0.0140898
782.092	0.0140311
782.170	0.0140280
782.248	0.0141324
782.326	0.0140405
782.405	0.0139178
782.483	0.0140440
782.561	0.0140552
782.639	0.0140332
782.717	0.0139875
782.795	0.0140100
782.873	0.0140151
782.951	0.0139702
783.030	0.0139747
783.108	0.0138861
783.186	0.0139322
783.264	0.0139898
783.342	0.0139856
783.420	0.0138539
783.498	0.0139188
783.576	0.0139819
783.655	0.0139355
783.733	0.0139661
783.811	0.0141447
783.889	0.0141660
783.967	0.0141155
784.045	0.0140816
784.123	0.0140577
784.201	0.0142352
784.280	0.0141869
784.358	0.0140965
784.436	0.0141302
784.514	0.0141328
784.592	0.0140836
784.670	0.0139576
784.748	0.0140658
784.826	0.0139823
784.905	0.0140842
784.983	0.0140759
785.061	0.0139993
785.139	0.0139596
785.217	0.0140897
785.295	0.0140562
785.373	0.0140299
785.451	0.0140324
785.530	0.0139503
785.608	0.0138753
785.686	0.0138242
785.764	0.0138649
785.842	0.0138438
785.920	0.0138165
785.998	0.0138822
786.076	0.0138336
786.155	0.0139373
786.233	0.0139369
786.311	0.0139879
786.389	0.0140425
786.467	0.0138770
786.545	0.0139994
786.623	0.0140772
786.701	0.0141787
786.780	0.0140622
786.858	0.0140752
786.936	0.0141148
787.014	0.0140324
787.092	0.0141930
787.170	0.0141521
787.248	0.0141236
787.326	0.0141033
787.405	0.0140995
787.483	0.0140617
787.561	0.0139516
787.639	0.0138969
787.717	0.0140018
787.795	0.0139824
787.873	0.0138379
787.951	0.0138168
788.030	0.0138492
788.108	0.0137965
788.186	0.0138922
788.264	0.0137144
788.342	0.0137812
788.420	0.0136690
788.498	0.0138883
788.576	0.0138515
788.655	0.0138728
788.733	0.0138754
788.811	0.0138174
788.889	0.0140128
788.967	0.0139470
789.045	0.0137631
789.123	0.0140891
789.201	0.0141064
789.280	0.0140710
789.358	0.0141843
789.436	0.0141826
789.514	0.0141364
789.592	0.0142348
789.670	0.0142284
789.748	0.0141704
789.826	0.0142682
789.905	0.0142497
789.983	0.0142274
790.061	0.0141068
790.139	0.0142171
790.217	0.0140669
790.295	0.0140148
790.373	0.0141681
790.451	0.0140586
790.530	0.0138417
790.608	0.0140263
790.686	0.0138171
790.764	0.0138553
790.842	0.0138213
790.920	0.0138103
790.998	0.0137415
791.076	0.0137176
791.155	0.0137631
791.233	0.0138338
791.311	0.0138451
791.389	0.0138604
791.467	0.0137957
791.545	0.0138042
791.623	0.0137617
791.701	0.0140042
791.780	0.0140108
791.858	0.0140800
791.936	0.0141283
792.014	0.0143385
792.092	0.0143661
792.170	0.0142809
792.248	0.0143571
792.326	0.0143639
792.405	0.0142860
792.483	0.0142483
792.561	0.0144828
792.639	0.0143002
792.717	0.0141160
792.795	0.0141513
792.873	0.0141125
792.951	0.0141360
793.030	0.0141306
793.108	0.0142204
793.186	0.0139632
793.264	0.0140217
793.342	0.0139268
793.420	0.0140071
793.498	0.0139888
793.576	0.0140087
793.655	0.0139886
793.733	0.0139896
793.811	0.0138879
793.889	0.0139871
793.967	0.0138757
794.045	0.0139596
794.123	0.0139354
794.201	0.0139429
794.280	0.0140002
794.358	0.0140587
794.436	0.0141593
794.514	0.0141525
794.592	0.0139635
794.670	0.0139007
794.748	0.0140945
794.826	0.0141247
794.905	0.0140679
794.983	0.0139904
795.061	0.0139417
795.139	0.0140485
795.217	0.0139239
795.295	0.0140494
795.373	0.0140231
795.451	0.0141006
795.530	0.0141498
795.608	0.0140436
795.686	0.0140984
795.764	0.0140308
795.842	0.0140357
795.920	0.0139048
795.998	0.0139853
796.076	0.0138944
796.155	0.0140070
796.233	0.0139758
796.311	0.0137889
796.389	0.0138153
796.467	0.0137585
796.545	0.0136253
796.623	0.0136062
796.701	0.0136465
796.780	0.0136896
796.858	0.0135271
796.936	0.0136243
797.014	0.0135201
797.092	0.0136604
797.170	0.0136738
797.248	0.0137498
797.326	0.0138068
797.405	0.0137617
797.483	0.0137357
797.561	0.0139320
797.639	0.0139531
797.717	0.0137795
797.795	0.0140259
797.873	0.0141699
797.951	0.0139816
798.030	0.0141013
798.108	0.0141620
798.186	0.0140734
798.264	0.0141929
798.342	0.0141422
798.420	0.0142523
798.498	0.0143736
798.576	0.0144113
798.655	0.0143530
798.733	0.0144572
798.811	0.0143497
798.889	0.0143877
798.967	0.0142941
799.045	0.0144362
799.123	0.0144949
799.201	0.0145664
799.280	0.0144132
799.358	0.0143326
799.436	0.0143408
799.514	0.0144377
799.592	0.0143813
799.670	0.0142942
799.748	0.0142487
799.826	0.0142384
799.905	0.0142184
799.983	0.0142989
800.061	0.0141458
800.139	0.0140734
800.217	0.0139764
800.295	0.0138914
800.373	0.0138866
800.451	0.0139289
800.530	0.0138059
800.608	0.0137437
800.686	0.0137656
800.764	0.0134675
800.842	0.0135790
800.920	0.0134291
800.998	0.0133622
801.076	0.0134327
801.155	0.0133710
801.233	0.0133410
801.311	0.0132758
801.389	0.0134118
801.467	0.0134333
801.545	0.0132078
801.623	0.0134324
801.701	0.0135403
801.780	0.0136903
801.858	0.0137885
801.936	0.0138338
802.014	0.0137444
802.092	0.0138159
802.170	0.0139009
802.248	0.0138447
802.326	0.0139201
802.405	0.0139222
802.483	0.0139468
802.561	0.0141155
802.639	0.0140202
802.717	0.0140594
802.795	0.0141280
802.873	0.0141048
802.951	0.0142955
803.030	0.0143028
803.108	0.0141570
803.186	0.0142700
803.264	0.0142759
803.342	0.0144231
803.420	0.0143668
803.498	0.0142094
803.576	0.0143155
803.655	0.0143016
803.733	0.0143269
803.811	0.0142727
803.889	0.0144733
803.967	0.0143396
804.045	0.0142577
804.123	0.0143993
804.201	0.0143373
804.280	0.0142822
804.358	0.0143094
804.436	0.0140781
804.514	0.0141258
804.592	0.0141223
804.670	0.0141691
804.748	0.0141392
804.826	0.0139772
804.905	0.0139346
804.983	0.0139878
805.061	0.0140229
805.139	0.0137907
805.217	0.0138663
805.295	0.0138754
805.373	0.0139124
805.451	0.0136958
805.530	0.0137771
805.608	0.0136921
805.686	0.0137600
805.764	0.0137261
805.842	0.0136853
805.920	0.0136092
805.998	0.0136620
806.076	0.0135872
806.155	0.0136212
806.233	0.0134455
806.311	0.0135687
806.389	0.0135123
806.467	0.0134660
806.545	0.0134538
806.623	0.0135332
806.701	0.0135281
806.780	0.0135047
806.858	0.0135800
806.936	0.0136195
807.014	0.0136890
807.092	0.0135491
807.170	0.0135651
807.248	0.0137880
807.326	0.0138869
807.405	0.0138369
807.483	0.0139176
807.561	0.0139333
807.639	0.0140401
807.717	0.0140723
807.795	0.0141485
807.873	0.0140752
807.951	0.0141331
808.030	0.0142001
808.108	0.0142013
808.186	0.0142666
808.264	0.0140517
808.342	0.0142695
808.420	0.0144241
808.498	0.0142860
808.576	0.0142740
808.655	0.0141537
808.733	0.0140591
808.811	0.0141924
808.889	0.0141493
808.967	0.0140900
809.045	0.0139584
809.123	0.0140095
809.201	0.0140946
809.280	0.0141569
809.358	0.0141460
809.436	0.0139954
809.514	0.0141047
809.592	0.0140728
809.670	0.0140484
809.748	0.0140848
809.826	0.0141228
809.905	0.0142994
809.983	0.0141379
810.061	0.0141977
810.139	0.0142261
810.217	0.0142065
810.295	0.0142662
810.373	0.0142867
810.451	0.0142132
810.530	0.0142387
810.608	0.0144125
810.686	0.0142481
810.764	0.0143813
810.842	0.0141415
810.920	0.0141667
810.998	0.0141653
811.076	0.0143137
811.155	0.0140755
811.233	0.0139063
811.311	0.0140242
811.389	0.0138718
811.467	0.0139489
811.545	0.0139378
811.623	0.0136943
811.701	0.0135676
811.780	0.0136638
811.858	0.0133577
811.936	0.0135452
812.014	0.0135150
812.092	0.0133171
812.170	0.0133755
812.248	0.0132467
812.326	0.0132403
812.405	0.0133014
812.483	0.0134337
812.561	0.0132623
812.639	0.0133215
812.717	0.0134238
812.795	0.0134627
812.873	0.0134348
812.951	0.0135622
813.030	0.0135247
813.108	0.0135834
813.186	0.0136124
813.264	0.0136591
813.342	0.0138355
813.420	0.0139247
813.498	0.0139390
813.576	0.0138448
813.655	0.0137973
813.733	0.0138217
813.811	0.0141145
813.889	0.0140803
813.967	0.0140939
814.045	0.0141986
814.123	0.0142257
814.201	0.0142852
814.280	0.0141300
814.358	0.0142301
814.436	0.0142910
814.514	0.0142423
814.592	0.0142442
814.670	0.0142776
814.748	0.0141988
814.826	0.0141309
814.905	0.0142159
814.983	0.0141683
815.061	0.0142157
815.139	0.0142779
815.217	0.0142341
815.295	0.0142780
815.373	0.0143466
815.451	0.0142514
815.530	0.0143208
815.608	0.0143240
815.686	0.0143259
815.764	0.0143031
815.842	0.0143260
815.920	0.0143736
815.998	0.0145019
816.076	0.0143791
816.155	0.0144529
816.233	0.0143628
816.311	0.0143853
816.389	0.0145219
816.467	0.0144746
816.545	0.0143561
816.623	0.0143467
816.701	0.0144321
816.780	0.0144225
816.858	0.0143024
816.936	0.0143170
817.014	0.0142487
817.092	0.0142397
817.170	0.0142974
817.248	0.0140932
817.326	0.0139922
817.405	0.0139854
817.483	0.0138253
817.561	0.0138074
817.639	0.0137282
817.717	0.0135830
817.795	0.0136543
817.873	0.0136758
817.951	0.0134758
818.030	0.0132957
818.108	0.0133092
818.186	0.0133871
818.264	0.0133154
818.342	0.0134512
818.420	0.0134483
818.498	0.0133116
818.576	0.0133960
818.655	0.0132839
818.733	0.0132541
818.811	0.0133511
818.889	0.0134699
818.967	0.0134466
819.045	0.0134534
819.123	0.0134102
819.201	0.0135767
819.280	0.0135900
819.358	0.0136916
819.436	0.0139036
819.514	0.0138252
819.592	0.0139230
819.670	0.0139132
819.748	0.0140378
819.826	0.0139816
819.905	0.0140483
819.983	0.0142583
820.061	0.0143126
820.139	0.0141831
820.217	0.0143212
820.295	0.0142944
820.373	0.0144656
820.451	0.0143814
820.530	0.0142747
820.608	0.0143639
820.686	0.0144243
820.764	0.0144064
820.842	0.0143133
820.920	0.0142663
820.998	0.0141612
821.076	0.0141299
821.155	0.0141068
821.233	0.0141280
821.311	0.0142594
821.389	0.0142281
821.467	0.0141875
821.545	0.0141067
821.623	0.0141154
821.701	0.0140210
821.780	0.0141636
821.858	0.0140869
821.936	0.0140374
822.014	0.0140063
822.092	0.0140503
822.170	0.0140187
822.248	0.0141457
822.326	0.0140595
822.405	0.0141610
822.483	0.0140513
822.561	0.0140223
822.639	0.0141802
822.717	0.0142210
822.795	0.0142892
822.873	0.0142406
822.951	0.0142509
823.030	0.0140407
823.108	0.0140252
823.186	0.0140682
823.264	0.0139353
823.342	0.0140662
823.420	0.0141821
823.498	0.0140660
823.576	0.0141442
823.655	0.0138554
823.733	0.0139671
823.811	0.0139600
823.889	0.0140022
823.967	0.0140168
824.045	0.0140874
824.123	0.0139124
824.201	0.0137711
824.280	0.0137735
824.358	0.0136968
824.436	0.0136561
824.514	0.0135776
824.592	0.0135413
824.670	0.0133829
824.748	0.0134489
824.826	0.0134099
824.905	0.0133985
824.983	0.0134954
825.061	0.0132892
825.139	0.0133445
825.217	0.0135135
825.295	0.0133524
825.373	0.0132963
825.451	0.0134199
825.530	0.0135905
825.608	0.0136304
825.686	0.0135512
825.764	0.0137348
825.842	0.0137691
825.920	0.0136850
825.998	0.0139381
826.076	0.0139877
826.155	0.0140112
826.233	0.0141019
826.311	0.0142478
826.389	0.0141560
826.467	0.0141498
826.545	0.0143382
826.623	0.0143770
826.701	0.0143002
826.780	0.0144794
826.858	0.0144471
826.936	0.0144835
827.014	0.0145271
827.092	0.0143783
827.170	0.0143433
827.248	0.0143067
827.326	0.0142181
827.405	0.0142302
827.483	0.0140477
827.561	0.0141580
827.639	0.0140919
827.717	0.0141438
827.795	0.0140239
827.873	0.0139252
827.951	0.0140057
828.030	0.0140257
828.108	0.0139449
828.186	0.0138565
828.264	0.0139821
828.342	0.0137877
828.420	0.0139841
828.498	0.0140123
828.576	0.0140121
828.655	0.0139889
828.733	0.0138140
828.811	0.0140154
828.889	0.0141083
828.967	0.0139646
829.045	0.0140302
829.123	0.0140067
829.201	0.0139908
829.280	0.0140100
829.358	0.0141519
829.436	0.0141653
829.514	0.0139754
829.592	0.0140444
829.670	0.0139265
829.748	0.0139905
829.826	0.0139310
829.905	0.0138132
829.983	0.0139324
830.061	0.0139067
830.139	0.0138516
830.217	0.0138682
830.295	0.0138483
830.373	0.0138113
830.451	0.0137762
830.530	0.0137709
830.608	0.0137462
830.686	0.0136808
830.764	0.0138248
830.842	0.0136591
830.920	0.0136210
830.998	0.0138307
831.076	0.0136758
831.155	0.0135390
831.233	0.0136647
831.311	0.0135141
831.389	0.0137892
831.467	0.0137992
831.545	0.0138420
831.623	0.0136784
831.701	0.0136469
831.780	0.0137702
831.858	0.0138399
831.936	0.0138641
832.014	0.0137045
832.092	0.0136984
832.170	0.0137901
832.248	0.0139383
832.326	0.0140414
832.405	0.0139293
832.483	0.0140467
832.561	0.0139319
832.639	0.0139599
832.717	0.0141860
832.795	0.0141383
832.873	0.0141277
832.951	0.0141016
833.030	0.0142898
833.108	0.0142638
833.186	0.0142213
833.264	0.0143169
833.342	0.0142562
833.420	0.0143122
833.498	0.0141531
833.576	0.0142123
833.655	0.0143937
833.733	0.0143354
833.811	0.0143292
833.889	0.0144316
833.967	0.0142487
834.045	0.0141483
834.123	0.0141944
834.201	0.0140283
834.280	0.0141222
834.358	0.0141026
834.436	0.0140882
834.514	0.0140149
834.592	0.0139190
834.670	0.0139243
834.748	0.0138164
834.826	0.0138024
834.905	0.0137229
834.983	0.0138096
835.061	0.0137961
835.139	0.0137994
835.217	0.0139165
835.295	0.0138872
835.373	0.0138409
835.451	0.0137752
835.530	0.0139158
835.608	0.0140121
835.686	0.0138979
835.764	0.0138634
835.842	0.0138901
835.920	0.0141026
835.998	0.0140433
836.076	0.0142155
836.155	0.0141110
836.233	0.0141084
836.311	0.0140717
836.389	0.0140812
836.467	0.0140910
836.545	0.0140255
836.623	0.0140327
836.701	0.0140401
836.780	0.0140450
836.858	0.0141186
836.936	0.0141084
837.014	0.0139501
837.092	0.0140466
837.170	0.0138319
837.248	0.0138802
837.326	0.0138827
837.405	0.0138726
837.483	0.0139664
837.561	0.0139511
837.639	0.0139434
837.717	0.0139435
837.795	0.0139075
837.873	0.0140161
837.951	0.0138327
838.030	0.0138905
838.108	0.0138570
838.186	0.0138599
838.264	0.0139291
838.342	0.0138966
838.420	0.0140180
838.498	0.0139063
838.576	0.0139381
838.655	0.0138762
838.733	0.0138779
838.811	0.0139704
838.889	0.0139988
838.967	0.0139655
839.045	0.0140153
839.123	0.0139902
839.201	0.0139392
839.280	0.0140662
839.358	0.0142068
839.436	0.0140822
839.514	0.0141109
839.592	0.0141102
839.670	0.0142075
839.748	0.0141660
839.826	0.0141923
839.905	0.0143414
839.983	0.0142778
840.061	0.0142999
840.139	0.0143107
840.217	0.0143138
840.295	0.0142577
840.373	0.0143550
840.451	0.0142999
840.530	0.0143119
840.608	0.0141844
840.686	0.0140839
840.764	0.0142487
840.842	0.0141096
840.920	0.0140084
840.998	0.0139751
841.076	0.0139771
841.155	0.0139948
841.233	0.0139354
841.311	0.0138827
841.389	0.0137035
841.467	0.0136632
841.545	0.0136430
841.623	0.0136707
841.701	0.0136405
841.780	0.0138950
841.858	0.0138985
841.936	0.0136723
842.014	0.0137572
842.092	0.0136641
842.170	0.0137834
842.248	0.0138492
842.326	0.0139498
842.405	0.0140516
842.483	0.0140789
842.561	0.0139481
842.639	0.0141872
842.717	0.0140913
842.795	0.0140090
842.873	0.0139925
842.951	0.0141139
843.030	0.0140035
843.108	0.0139938
843.186	0.0141769
843.264	0.0141768
843.342	0.0140165
843.420	0.0141289
843.498	0.0141759
843.576	0.0141156
843.655	0.0140216
843.733	0.0139977
843.811	0.0139394
843.889	0.0141489
843.967	0.0140083
844.045	0.0138312
844.123	0.0139779
844.201	0.0139564
844.280	0.0139961
844.358	0.0140673
844.436	0.0140344
844.514	0.0140993
844.592	0.0140094
844.670	0.0140217
844.748	0.0141664
844.826	0.0141264
844.905	0.0140903
844.983	0.0142520
845.061	0.0140740
845.139	0.0141708
845.217	0.0141426
845.295	0.0139565
845.373	0.0140412
845.451	0.0139927
845.530	0.0140692
845.608	0.0140067
845.686	0.0138378
845.764	0.0138778
845.842	0.0139329
845.920	0.0138884
845.998	0.0138058
846.076	0.0139320
846.155	0.0140257
846.233	0.0140363
846.311	0.0138785
846.389	0.0138476
846.467	0.0139597
846.545	0.0140194
846.623	0.0139386
846.701	0.0139437
846.780	0.0140932
846.858	0.0141004
846.936	0.0139975
847.014	0.0140195
847.092	0.0140390
847.170	0.0140328
847.248	0.0140321
847.326	0.0140818
847.405	0.0139607
847.483	0.0139433
847.561	0.0139980
847.639	0.0140300
847.717	0.0140200
847.795	0.0139858
847.873	0.0138682
847.951	0.0139337
848.030	0.0139694
848.108	0.0140257
848.186	0.0139022
848.264	0.0139433
848.342	0.0139778
848.420	0.0139118
848.498	0.0139159
848.576	0.0138906
848.655	0.0139186
848.733	0.0139542
848.811	0.0139149
848.889	0.0140118
848.967	0.0140544
849.045	0.0139394
849.123	0.0139746
849.201	0.0140765
849.280	0.0140133
849.358	0.0141579
849.436	0.0141344
849.514	0.0141816
849.592	0.0141479
849.670	0.0142850
849.748	0.0142032
849.826	0.0141795
849.905	0.0141513
849.983	0.0141392
850.061	0.0142217
850.139	0.0141714
850.217	0.0141949
850.295	0.0142374
850.373	0.0142945
850.451	0.0140981
850.530	0.0140724
850.608	0.0141691
850.686	0.0140851
850.764	0.0140697
850.842	0.0141249
850.920	0.0142331
850.998	0.0141142
851.076	0.0141035
851.155	0.0140855
851.233	0.0139862
851.311	0.0140200
851.389	0.0139705
851.467	0.0139363
851.545	0.0139993
851.623	0.0140129
851.701	0.0139560
851.780	0.0138953
851.858	0.0138902
851.936	0.0139102
852.014	0.0138856
852.092	0.0139970
852.170	0.0139347
852.248	0.0138445
852.326	0.0137797
852.405	0.0138387
852.483	0.0138821
852.561	0.0138985
852.639	0.0138412
852.717	0.0137901
852.795	0.0137209
852.873	0.0138553
852.951	0.0139162
853.030	0.0138614
853.108	0.0138400
853.186	0.0139920
853.264	0.0140216
853.342	0.0139285
853.420	0.0139362
853.498	0.0139436
853.576	0.0139910
853.655	0.0140793
853.733	0.0140652
853.811	0.0139911
853.889	0.0139704
853.967	0.0139069
854.045	0.0140733
854.123	0.0141362
854.201	0.0139515
854.280	0.0139542
854.358	0.0139196
854.436	0.0138830
854.514	0.0137718
854.592	0.0137985
854.670	0.0138844
854.748	0.0138103
854.826	0.0138048
854.905	0.0138738
854.983	0.0139068
855.061	0.0140051
855.139	0.0138679
855.217	0.0138994
855.295	0.0140614
855.373	0.0139251
855.451	0.0141595
855.530	0.0141241
855.608	0.0139841
855.686	0.0140304
855.764	0.0139976
855.842	0.0141066
855.920	0.0141557
855.998	0.0141994
856.076	0.0140445
856.155	0.0141606
856.233	0.0142670
856.311	0.0140648
856.389	0.0140294
856.467	0.0140334
856.545	0.0142175
856.623	0.0141036
856.701	0.0141351
856.780	0.0142045
856.858	0.0140051
856.936	0.0141270
857.014	0.0141322
857.092	0.0139846
857.170	0.0140628
857.248	0.0140359
857.326	0.0139964
857.405	0.0139322
857.483	0.0141547
857.561	0.0139864
857.639	0.0140400
857.717	0.0139742
857.795	0.0140548
857.873	0.0141248
857.951	0.0139728
858.030	0.0140462
858.108	0.0139590
858.186	0.0139070
858.264	0.0139210
858.342	0.0140879
858.420	0.0139454
858.498	0.0138499
858.576	0.0139355
858.655	0.0138808
858.733	0.0138298
858.811	0.0138467
858.889	0.0138396
858.967	0.0139117
859.045	0.0138035
859.123	0.0138324
859.201	0.0138964
859.280	0.0139967
859.358	0.0138634
859.436	0.0138637
859.514	0.0139771
859.592	0.0139096
859.670	0.0138190
859.748	0.0138255
859.826	0.0138368
859.905	0.0139841
859.983	0.0139708
860.061	0.0138882
860.139	0.0139781
860.217	0.0139648
860.295	0.0140025
860.373	0.0139357
860.451	0.0138540
860.530	0.0138750
860.608	0.0139590
860.686	0.0139382
860.764	0.0138873
860.842	0.0139537
860.920	0.0139849
860.998	0.0139751
861.076	0.0140265
861.155	0.0138326
861.233	0.0139583
861.311	0.0139787
861.389	0.0138864
861.467	0.0138898
861.545	0.0138647
861.623	0.0139868
861.701	0.0139148
861.780	0.0139739
861.858	0.0140431
861.936	0.0139946
862.014	0.0140498
862.092	0.0142481
862.170	0.0141078
862.248	0.0141763
862.326	0.0142444
862.405	0.0142386
862.483	0.0141984
862.561	0.0141553
862.639	0.0141952
862.717	0.0142353
862.795	0.0140458
862.873	0.0141077
862.951	0.0140903
863.030	0.0140475
863.108	0.0141110
863.186	0.0140985
863.264	0.0140620
863.342	0.0140620
863.420	0.0141283
863.498	0.0140861
863.576	0.0140934
863.655	0.0141041
863.733	0.0140200
863.811	0.0139773
863.889	0.0140056
863.967	0.0139841
864.045	0.0139097
864.123	0.0139692
864.201	0.0139632
864.280	0.0140516
864.358	0.0139500
864.436	0.0141367
864.514	0.0140906
864.592	0.0140475
864.670	0.0140485
864.748	0.0138743
864.826	0.0138805
864.905	0.0139530
864.983	0.0138688
865.061	0.0139085
865.139	0.0140327
865.217	0.0139118
865.295	0.0138764
865.373	0.0138413
865.451	0.0138725
865.530	0.0138081
865.608	0.0138929
865.686	0.0138657
865.764	0.0138422
865.842	0.0137356
865.920	0.0139854
865.998	0.0138737
866.076	0.0139671
866.155	0.0138757
866.233	0.0140443
866.311	0.0139919
866.389	0.0140140
866.467	0.0139915
866.545	0.0140895
866.623	0.0139747
866.701	0.0139402
866.780	0.0140006
866.858	0.0139819
866.936	0.0138650
867.014	0.0139689
867.092	0.0140799
867.170	0.0139358
867.248	0.0138990
867.326	0.0139395
867.405	0.0139298
867.483	0.0138776
867.561	0.0139917
867.639	0.0139143
867.717	0.0140112
867.795	0.0138981
867.873	0.0139886
867.951	0.0140156
868.030	0.0139970
868.108	0.0140501
868.186	0.0139625
868.264	0.0140403
868.342	0.0140393
868.420	0.0141309
868.498	0.0142311
868.576	0.0140980
868.655	0.0139719
868.733	0.0141068
868.811	0.0142143
868.889	0.0142353
868.967	0.0143469
869.045	0.0141225
869.123	0.0141024
869.201	0.0140408
869.280	0.0142209
869.358	0.0141572
869.436	0.0140985
869.514	0.0141109
869.592	0.0140736
869.670	0.0139983
869.748	0.0138560
869.826	0.0140695
869.905	0.0140926
869.983	0.0138801
870.061	0.0139739
870.139	0.0139236
870.217	0.0138131
870.295	0.0139365
870.373	0.0138528
870.451	0.0137571
870.530	0.0139233
870.608	0.0140829
870.686	0.0139060
870.764	0.0138531
870.842	0.0138763
870.920	0.0139745
870.998	0.0139459
871.076	0.0138764
871.155	0.0139903
871.233	0.0139233
871.311	0.0139190
871.389	0.0139716
871.467	0.0139278
871.545	0.0138931
871.623	0.0138914
871.701	0.0139165
871.780	0.0138073
871.858	0.0139043
871.936	0.0140302
872.014	0.0139102
872.092	0.0137810
872.170	0.0140050
872.248	0.0138284
872.326	0.0138441
872.405	0.0140768
872.483	0.0139513
872.561	0.0139537
872.639	0.0139585
872.717	0.0139025
872.795	0.0140961
872.873	0.0141640
872.951	0.0140218
873.030	0.0139785
873.108	0.0141922
873.186	0.0141188
873.264	0.0141036
873.342	0.0141257
873.420	0.0141076
873.498	0.0140807
873.576	0.0141245
873.655	0.0141438
873.733	0.0141913
873.811	0.0142419
873.889	0.0142024
873.967	0.0141196
874.045	0.0138583
874.123	0.0139873
874.201	0.0140551
874.280	0.0140083
874.358	0.0140366
874.436	0.0141283
874.514	0.0139419
874.592	0.0140008
874.670	0.0140685
874.748	0.0140617
874.826	0.0141009
874.905	0.0140102
874.983	0.0141427
875.061	0.0141184
875.139	0.0141032
875.217	0.0141637
875.295	0.0139846
875.373	0.0140672
875.451	0.0140298
875.530	0.0140228
875.608	0.0138875
875.686	0.0139754
875.764	0.0141475
875.842	0.0139174
875.920	0.0140186
875.998	0.0139444
876.076	0.0139465
876.155	0.0138945
876.233	0.0138840
876.311	0.0139207
876.389	0.0137725
876.467	0.0139308
876.545	0.0139883
876.623	0.0140041
876.701	0.0139514
876.780	0.0138948
876.858	0.0137920
876.936	0.0138181
877.014	0.0139632
877.092	0.0138853
877.170	0.0140362
877.248	0.0140083
877.326	0.0138141
877.405	0.0137664
877.483	0.0138304
877.561	0.0139633
877.639	0.0138568
877.717	0.0139362
877.795	0.0139922
877.873	0.0141219
877.951	0.0140843
878.030	0.0141020
878.108	0.0140634
878.186	0.0140923
878.264	0.0141903
878.342	0.0140753
878.420	0.0140228
878.498	0.0140932
878.576	0.0140671
878.655	0.0140543
878.733	0.0140395
878.811	0.0141725
878.889	0.0140662
878.967	0.0139729
879.045	0.0139339
879.123	0.0139725
879.201	0.0139391
879.280	0.0140227
879.358	0.0140649
879.436	0.0139039
879.514	0.0139205
879.592	0.0139821
879.670	0.0139668
879.748	0.0141001
879.826	0.0139540
879.905	0.0139037
879.983	0.0141459
880.061	0.0141267
880.139	0.0139840
880.217	0.0139747
880.295	0.0140345
880.373	0.0141898
880.451	0.0140042
880.530	0.0139011
880.608	0.0140357
880.686	0.0140454
880.764	0.0140923
880.842	0.0140591
880.920	0.0139521
880.998	0.0139938
881.076	0.0140170
881.155	0.0140951
881.233	0.0141114
881.311	0.0140348
881.389	0.0139082
881.467	0.0141106
881.545	0.0141643
881.623	0.0140645
881.701	0.0140460
881.780	0.0139804
881.858	0.0140588
881.936	0.0139492
882.014	0.0139297
882.092	0.0140208
882.170	0.0139833
882.248	0.0140496
882.326	0.0141014
882.405	0.0140000
882.483	0.0141008
882.561	0.0140034
882.639	0.0140686
882.717	0.0140910
882.795	0.0139526
882.873	0.0139689
882.951	0.0139240
883.030	0.0139305
883.108	0.0140099
883.186	0.0139386
883.264	0.0138994
883.342	0.0139349
883.420	0.0138608
883.498	0.0139403
883.576	0.0140128
883.655	0.0139429
883.733	0.0140525
883.811	0.0139128
883.889	0.0139320
883.967	0.0140236
884.045	0.0139745
884.123	0.0140734
884.201	0.0139930
884.280	0.0140222
884.358	0.0139704
884.436	0.0139276
884.514	0.0139932
884.592	0.0139494
884.670	0.0139807
884.748	0.0139907
884.826	0.0140266
884.905	0.0139411
884.983	0.0138782
885.061	0.0138595
885.139	0.0139141
885.217	0.0137821
885.295	0.0137308
885.373	0.0140733
885.451	0.0140051
885.530	0.0139989
885.608	0.0139805
885.686	0.0139659
885.764	0.0138589
885.842	0.0138556
885.920	0.0139516
885.998	0.0139736
886.076	0.0140113
886.155	0.0139738
886.233	0.0140006
886.311	0.0139946
886.389	0.0139428
886.467	0.0140780
886.545	0.0140706
886.623	0.0141651
886.701	0.0140009
886.780	0.0140333
886.858	0.0139786
886.936	0.0141132
887.014	0.0139335
887.092	0.0140984
887.170	0.0141879
887.248	0.0139897
887.326	0.0140737
887.405	0.0139742
887.483	0.0138435
887.561	0.0140202
887.639	0.0139090
887.717	0.0138233
887.795	0.0138815
887.873	0.0138338
887.951	0.0137350
888.030	0.0138569
888.108	0.0138376
888.186	0.0138843
888.264	0.0138821
888.342	0.0138507
888.420	0.0138274
888.498	0.0139026
888.576	0.0140056
888.655	0.0139432
888.733	0.0139012
888.811	0.0139825
888.889	0.0140389
888.967	0.0140735
889.045	0.0140151
889.123	0.0140469
889.201	0.0140130
889.280	0.0139614
889.358	0.0140424
889.436	0.0139727
889.514	0.0139840
889.592	0.0141148
889.670	0.0139571
889.748	0.0139334
889.826	0.0139811
889.905	0.0141564
889.983	0.0140491
890.061	0.0140919
890.139	0.0140630
890.217	0.0138941
890.295	0.0138422
890.373	0.0137370
890.451	0.0139767
890.530	0.0139052
890.608	0.0138551
890.686	0.0138346
890.764	0.0137447
890.842	0.0139368
890.920	0.0138490
890.998	0.0139536
891.076	0.0139985
891.155	0.0138982
891.233	0.0139481
891.311	0.0139175
891.389	0.0139834
891.467	0.0139764
891.545	0.0138205
891.623	0.0136693
891.701	0.0138505
891.780	0.0137838
891.858	0.0137724
891.936	0.0139021
892.014	0.0137244
892.092	0.0138442
892.170	0.0137814
892.248	0.0137513
892.326	0.0137923
892.405	0.0138245
892.483	0.0137813
892.561	0.0138844
892.639	0.0139281
892.717	0.0139459
892.795	0.0140057
892.873	0.0139343
892.951	0.0139536
893.030	0.0139670
893.108	0.0140902
893.186	0.0141880
893.264	0.0140388
893.342	0.0140369
893.420	0.0140688
893.498	0.0140967
893.576	0.0140707
893.655	0.0141580
893.733	0.0142625
893.811	0.0142510
893.889	0.0140437
893.967	0.0141795
894.045	0.0141040
894.123	0.0141180
894.201	0.0141038
894.280	0.0140356
894.358	0.0139919
894.436	0.0139819
894.514	0.0138133
894.592	0.0139767
894.670	0.0139552
894.748	0.0138834
894.826	0.0139156
894.905	0.0139818
894.983	0.0139439
895.061	0.0138780
895.139	0.0140173
895.217	0.0140604
895.295	0.0138697
895.373	0.0139005
895.451	0.0137427
895.530	0.0138229
895.608	0.0138223
895.686	0.0137934
895.764	0.0137854
895.842	0.0139175
895.920	0.0137383
895.998	0.0137296
896.076	0.0140554
896.155	0.0138970
896.233	0.0138482
896.311	0.0139857
896.389	0.0139410
896.467	0.0139442
896.545	0.0141319
896.623	0.0140641
896.701	0.0140885
896.780	0.0140720
896.858	0.0140475
896.936	0.0141264
897.014	0.0142022
897.092	0.0140517
897.170	0.0141280
897.248	0.0141296
897.326	0.0142078
897.405	0.0140772
897.483	0.0139738
897.561	0.0140436
897.639	0.0139001
897.717	0.0139429
897.795	0.0138715
897.873	0.0138956
897.951	0.0139631
898.030	0.0138999
898.108	0.0138825
898.186	0.0138062
898.264	0.0139386
898.342	0.0137785
898.420	0.0139152
898.498	0.0139240
898.576	0.0139162
898.655	0.0138949
898.733	0.0139832
898.811	0.0138617
898.889	0.0139721
898.967	0.0140056
899.045	0.0138837
899.123	0.0140197
899.201	0.0139717
899.280	0.0141259
899.358	0.0139685
899.436	0.0140622
899.514	0.0141309
899.592	0.0140335
899.670	0.0140589
899.748	0.0140649
899.826	0.0138834
899.905	0.0139371
899.983	0.0139134
900.061	0.0141182
900.139	0.0140107
900.217	0.0141032
900.295	0.0140725
900.373	0.0140236
900.451	0.0139503
900.530	0.0138750
900.608	0.0141131
900.686	0.0140528
900.764	0.0139857
900.842	0.0139205
900.920	0.0140504
900.998	0.0139903
901.076	0.0138259
901.155	0.0139065
901.233	0.0139262
901.311	0.0139101
901.389	0.0138285
901.467	0.0138837
901.545	0.0138368
901.623	0.0139490
901.701	0.0140469
901.780	0.0140329
901.858	0.0139340
901.936	0.0140376
902.014	0.0140715
902.092	0.0141917
902.170	0.0142194
902.248	0.0141502
902.326	0.0140614
902.405	0.0143308
902.483	0.0141746
902.561	0.0141952
902.639	0.0141794
902.717	0.0141772
902.795	0.0141853
902.873	0.0141242
902.951	0.0140085
903.030	0.0139551
903.108	0.0140176
903.186	0.0140553
903.264	0.0139630
903.342	0.0138352
903.420	0.0138312
903.498	0.0137077
903.576	0.0136324
903.655	0.0137915
903.733	0.0135780
903.811	0.0134886
903.889	0.0136104
903.967	0.0136678
904.045	0.0136504
904.123	0.0135293
904.201	0.0137547
904.280	0.0138162
904.358	0.0138914
904.436	0.0138209
904.514	0.0138260
904.592	0.0138362
904.670	0.0139493
904.748	0.0140147
904.826	0.0141167
904.905	0.0140638
904.983	0.0141866
905.061	0.0140662
905.139	0.0140366
905.217	0.0143230
905.295	0.0142073
905.373	0.0142123
905.451	0.0141685
905.530	0.0142777
905.608	0.0142731
905.686	0.0140471
905.764	0.0141508
905.842	0.0143098
905.920	0.0141788
905.998	0.0140620
906.076	0.0140077
906.155	0.0140646
906.233	0.0141268
906.311	0.0139203
906.389	0.0139246
906.467	0.0140198
906.545	0.0140282
906.623	0.0140578
906.701	0.0140356
906.780	0.0139513
906.858	0.0138766
906.936	0.0140366
907.014	0.0139343
907.092	0.0138403
907.170	0.0138560
907.248	0.0139816
907.326	0.0140100
907.405	0.0137988
907.483	0.0139264
907.561	0.0140054
907.639	0.0138897
907.717	0.0138754
907.795	0.0137802
907.873	0.0138357
907.951	0.0137981
908.030	0.0138677
908.108	0.0138792
908.186	0.0138744
908.264	0.0139632
908.342	0.0139664
908.420	0.0140083
908.498	0.0140955
908.576	0.0140371
908.655	0.0140972
908.733	0.0139897
908.811	0.0138414
908.889	0.0140034
908.967	0.0138630
909.045	0.0138245
909.123	0.0138808
909.201	0.0137940
909.280	0.0139752
909.358	0.0138901
909.436	0.0139910
909.514	0.0138796
909.592	0.0139687
909.670	0.0140721
909.748	0.0138856
909.826	0.0138163
909.905	0.0139011
909.983	0.0138786
910.061	0.0138121
910.139	0.0140044
910.217	0.0138750
910.295	0.0139251
910.373	0.0139574
910.451	0.0139063
910.530	0.0140597
910.608	0.0140863
910.686	0.0139622
910.764	0.0140786
910.842	0.0142130
910.920	0.0141756
910.998	0.0142764
911.076	0.0142046
911.155	0.0142013
911.233	0.0142344
911.311	0.0140089
911.389	0.0140691
911.467	0.0143055
911.545	0.0141543
911.623	0.0141453
911.701	0.0141680
911.780	0.0140667
911.858	0.0141561
911.936	0.0139875
912.014	0.0139140
912.092	0.0139069
912.170	0.0140251
912.248	0.0139301
912.326	0.0140069
912.405	0.0138286
912.483	0.0139297
912.561	0.0138497
912.639	0.0138789
912.717	0.0137865
912.795	0.0139583
912.873	0.0138124
912.951	0.0137640
913.030	0.0139654
913.108	0.0136623
913.186	0.0138745
913.264	0.0139771
913.342	0.0137490
913.420	0.0138322
913.498	0.0137006
913.576	0.0138271
913.655	0.0138737
913.733	0.0138710
913.811	0.0137655
913.889	0.0137682
913.967	0.0139462
914.045	0.0139691
914.123	0.0140448
914.201	0.0140281
914.280	0.0142549
914.358	0.0142477
914.436	0.0144239
914.514	0.0142673
914.592	0.0143328
914.670	0.0143826
914.748	0.0144744
914.826	0.0142260
914.905	0.0143307
914.983	0.0144125
915.061	0.0143319
915.139	0.0141571
915.217	0.0141944
915.295	0.0140589
915.373	0.0139666
915.451	0.0140488
915.530	0.0139193
915.608	0.0138361
915.686	0.0139237
915.764	0.0138203
915.842	0.0137279
915.920	0.0137589
915.998	0.0137798
916.076	0.0138261
916.155	0.0137981
916.233	0.0136657
916.311	0.0138197
916.389	0.0137747
916.467	0.0136761
916.545	0.0138441
916.623	0.0137629
916.701	0.0138326
916.780	0.0138129
916.858	0.0138178
916.936	0.0139371
917.014	0.0140110
917.092	0.0139461
917.170	0.0139115
917.248	0.0139581
917.326	0.0140795
917.405	0.0142340
917.483	0.0140987
917.561	0.0142987
917.639	0.0141894
917.717	0.0140875
917.795	0.0142465
917.873	0.0143092
917.951	0.0142940
918.030	0.0142842
918.108	0.0141802
918.186	0.0141923
918.264	0.0141774
918.342	0.0141479
918.420	0.0142556
918.498	0.0142981
918.576	0.0142644
918.655	0.0142100
918.733	0.0140674
918.811	0.0139358
918.889	0.0140198
918.967	0.0140190
919.045	0.0139721
919.123	0.0139307
919.201	0.0138747
919.280	0.0138953
919.358	0.0137792
919.436	0.0140497
919.514	0.0139178
919.592	0.0139544
919.670	0.0139951
919.748	0.0139307
919.826	0.0139109
919.905	0.0139674
919.983	0.0139146
920.061	0.0138607
920.139	0.0139555
920.217	0.0138939
920.295	0.0139627
920.373	0.0139697
920.451	0.0140092
920.530	0.0138779
920.608	0.0138650
920.686	0.0140257
920.764	0.0139823
920.842	0.0140182
920.920	0.0141722
920.998	0.0141573
921.076	0.0142130
921.155	0.0141457
921.233	0.0140437
921.311	0.0141621
921.389	0.0141615
921.467	0.0141511
921.545	0.0140812
921.623	0.0141874
921.701	0.0140654
921.780	0.0140884
921.858	0.0140379
921.936	0.0140620
922.014	0.0140772
922.092	0.0140318
922.170	0.0138442
922.248	0.0138560
922.326	0.0138297
922.405	0.0139324
922.483	0.0137772
922.561	0.0136723
922.639	0.0137524
922.717	0.0135069
922.795	0.0135931
922.873	0.0135339
922.951	0.0134953
923.030	0.0135418
923.108	0.0135110
923.186	0.0135932
923.264	0.0137595
923.342	0.0138358
923.420	0.0138100
923.498	0.0138147
923.576	0.0139176
923.655	0.0141391
923.733	0.0141006
923.811	0.0140564
923.889	0.0142904
923.967	0.0142007
924.045	0.0142028
924.123	0.0142273
924.201	0.0144426
924.280	0.0144985
924.358	0.0143823
924.436	0.0143473
924.514	0.0142767
924.592	0.0143448
924.670	0.0142555
924.748	0.0142293
924.826	0.0140469
924.905	0.0139662
924.983	0.0139767
925.061	0.0140196
925.139	0.0138879
925.217	0.0138657
925.295	0.0138939
925.373	0.0136414
925.451	0.0136907
925.530	0.0136755
925.608	0.0136111
925.686	0.0136124
925.764	0.0134723
925.842	0.0138174
925.920	0.0136413
925.998	0.0138300
926.076	0.0138018
926.155	0.0138599
926.233	0.0138986
926.311	0.0138853
926.389	0.0139191
926.467	0.0140485
926.545	0.0140560
926.623	0.0140316
926.701	0.0140287
926.780	0.0140454
926.858	0.0138654
926.936	0.0139178
927.014	0.0140237
927.092	0.0139860
927.170	0.0139187
927.248	0.0140475
927.326	0.0140425
927.405	0.0138865
927.483	0.0138692
927.561	0.0139314
927.639	0.0140022
927.717	0.0140408
927.795	0.0141631
927.873	0.0140827
927.951	0.0141257
928.030	0.0141414
928.108	0.0142617
928.186	0.0140701
928.264	0.0141065
928.342	0.0142583
928.420	0.0141243
928.498	0.0141483
928.576	0.0139726
928.655	0.0140332
928.733	0.0139501
928.811	0.0138869
928.889	0.0138854
928.967	0.0138998
929.045	0.0136861
929.123	0.0136850
929.201	0.0137579
929.280	0.0136616
929.358	0.0138778
929.436	0.0136478
929.514	0.0136990
929.592	0.0136919
929.670	0.0137578
929.748	0.0138756
929.826	0.0137898
929.905	0.0137559
929.983	0.0139272
930.061	0.0138560
930.139	0.0138627
930.217	0.0138430
930.295	0.0140282
930.373	0.0138457
930.451	0.0140197
930.530	0.0141115
930.608	0.0140404
930.686	0.0141567
930.764	0.0141570
930.842	0.0142207
930.920	0.0141660
930.998	0.0143018
931.076	0.0143085
931.155	0.0143462
931.233	0.0144022
931.311	0.0142688
931.389	0.0143065
931.467	0.0142196
931.545	0.0143191
931.623	0.0143306
931.701	0.0142281
931.780	0.0141032
931.858	0.0140656
931.936	0.0139126
932.014	0.0138562
932.092	0.0139807
932.170	0.0138932
932.248	0.0139079
932.326	0.0139921
932.405	0.0137710
932.483	0.0138186
932.561	0.0137377
932.639	0.0137526
932.717	0.0137354
932.795	0.0137035
932.873	0.0138536
932.951	0.0139288
933.030	0.0139954
933.108	0.0139631
933.186	0.0138095
933.264	0.0138744
933.342	0.0139392
933.420	0.0141508
933.498	0.0141165
933.576	0.0140674
933.655	0.0140630
933.733	0.0142196
933.811	0.0142133
933.889	0.0142075
933.967	0.0141615
934.045	0.0140131
934.123	0.0139696
934.201	0.0140628
934.280	0.0140278
934.358	0.0139571
934.436	0.0139364
934.514	0.0139728
934.592	0.0139786
934.670	0.0139121
934.748	0.0140869
934.826	0.0139580
934.905	0.0139922
934.983	0.0140918
935.061	0.0139997
935.139	0.0139571
935.217	0.0141558
935.295	0.0140754
935.373	0.0142362
935.451	0.0141198
935.530	0.0140112
935.608	0.0140286
935.686	0.0140028
935.764	0.0140144
935.842	0.0140369
935.920	0.0139281
935.998	0.0138853
936.076	0.0139944
936.155	0.0139465
936.233	0.0138850
936.311	0.0138168
936.389	0.0139030
936.467	0.0137780
936.545	0.0138638
936.623	0.0138739
936.701	0.0139532
936.780	0.0137408
936.858	0.0137845
936.936	0.0139240
937.014	0.0139686
937.092	0.0139883
937.170	0.0140522
937.248	0.0141814
937.326	0.0139745
937.405	0.0139978
937.483	0.0141219
937.561	0.0140784
937.639	0.0140639
937.717	0.0141624
937.795	0.0141428
937.873	0.0142956
937.951	0.0141908
938.030	0.0142568
938.108	0.0140851
938.186	0.0141483
938.264	0.0141952
938.342	0.0141478
938.420	0.0141239
938.498	0.0140077
938.576	0.0141445
938.655	0.0140324
938.733	0.0140611
938.811	0.0138927
938.889	0.0137084
938.967	0.0137758
939.045	0.0137691
939.123	0.0138589
939.201	0.0138745
939.280	0.0137375
939.358	0.0137974
939.436	0.0137448
939.514	0.0138422
939.592	0.0137933
939.670	0.0137537
939.748	0.0138511
939.826	0.0138300
939.905	0.0139594
939.983	0.0141026
940.061	0.0140579
940.139	0.0140831
940.217	0.0141087
940.295	0.0140800
940.373	0.0141850
940.451	0.0140984
940.530	0.0141862
940.608	0.0143182
940.686	0.0143204
940.764	0.0141631
940.842	0.0141229
940.920	0.0143090
940.998	0.0141580
941.076	0.0141288
941.155	0.0140871
941.233	0.0140955
941.311	0.0141518
941.389	0.0141679
941.467	0.0142284
941.545	0.0141373
941.623	0.0142486
941.701	0.0142200
941.780	0.0141270
941.858	0.0141000
941.936	0.0141312
942.014	0.0142447
942.092	0.0141913
942.170	0.0140804
942.248	0.0140791
942.326	0.0140125
942.405	0.0140639
942.483	0.0141140
942.561	0.0139524
942.639	0.0140394
942.717	0.0140807
942.795	0.0141541
942.873	0.0139419
942.951	0.0137643
943.030	0.0138570
943.108	0.0139210
943.186	0.0139024
943.264	0.0138562
943.342	0.0135880
943.420	0.0138959
943.498	0.0139196
943.576	0.0138243
943.655	0.0138615
943.733	0.0139002
943.811	0.0138961
943.889	0.0138152
943.967	0.0139043
944.045	0.0137989
944.123	0.0138329
944.201	0.0138890
944.280	0.0140163
944.358	0.0138193
944.436	0.0138431
944.514	0.0139732
944.592	0.0139475
944.670	0.0139864
944.748	0.0141033
944.826	0.0140035
944.905	0.0140418
944.983	0.0140595
945.061	0.0140832
945.139	0.0140720
945.217	0.0140878
945.295	0.0140441
945.373	0.0139402
945.451	0.0139506
945.530	0.0139965
945.608	0.0140079
945.686	0.0139061
945.764	0.0140872
945.842	0.0140810
945.920	0.0140160
945.998	0.0138200
946.076	0.0139029
946.155	0.0138866
946.233	0.0140691
946.311	0.0140253
946.389	0.0140020
946.467	0.0140208
946.545	0.0140578
946.623	0.0139613
946.701	0.0140720
946.780	0.0140838
946.858	0.0141750
946.936	0.0141360
947.014	0.0141512
947.092	0.0143159
947.170	0.0142818
947.248	0.0141376
947.326	0.0142658
947.405	0.0142995
947.483	0.0144145
947.561	0.0142690
947.639	0.0142501
947.717	0.0141939
947.795	0.0142334
947.873	0.0141610
947.951	0.0141476
948.030	0.0140346
948.108	0.0140697
948.186	0.0140571
948.264	0.0140229
948.342	0.0139067
948.420	0.0137788
948.498	0.0138219
948.576	0.0138700
948.655	0.0138963
948.733	0.0138450
948.811	0.0137894
948.889	0.0137945
948.967	0.0138477
949.045	0.0138652
949.123	0.0139388
949.201	0.0138036
949.280	0.0137752
949.358	0.0138291
949.436	0.0138475
949.514	0.0138947
949.592	0.0138173
949.670	0.0138896
949.748	0.0138814
949.826	0.0137503
949.905	0.0136746
949.983	0.0139125
950.061	0.0136790
950.139	0.0137560
950.217	0.0138151
950.295	0.0140587
950.373	0.0139304
950.451	0.0137988
950.530	0.0138477
950.608	0.0137978
950.686	0.0140052
950.764	0.0139162
950.842	0.0137567
950.920	0.0137183
950.998	0.0138916
951.076	0.0137866
951.155	0.0137098
951.233	0.0139526
951.311	0.0139141
951.389	0.0138745
951.467	0.0140192
951.545	0.0140714
951.623	0.0140518
951.701	0.0139358
951.780	0.0140221
951.858	0.0141017
951.936	0.0142375
952.014	0.0142655
952.092	0.0140771
952.170	0.0142503
952.248	0.0141716
952.326	0.0143212
952.405	0.0142892
952.483	0.0143090
952.561	0.0142784
952.639	0.0140750
952.717	0.0141740
952.795	0.0141903
952.873	0.0142259
952.951	0.0141848
953.030	0.0141108
953.108	0.0142296
953.186	0.0141883
953.264	0.0140526
953.342	0.0141603
953.420	0.0141277
953.498	0.0140297
953.576	0.0140224
953.655	0.0138625
953.733	0.0140991
953.811	0.0141270
953.889	0.0142319
953.967	0.0142142
954.045	0.0142308
954.123	0.0141211
954.201	0.0141618
954.280	0.0140461
954.358	0.0140854
954.436	0.0140291
954.514	0.0140637
954.592	0.0139840
954.670	0.0140439
954.748	0.0141431
954.826	0.0140092
954.905	0.0140115
954.983	0.0139803
955.061	0.0139630
955.139	0.0138922
955.217	0.0138837
955.295	0.0139798
955.373	0.0138906
955.451	0.0139101
955.530	0.0139023
955.608	0.0137889
955.686	0.0138371
955.764	0.0138784
955.842	0.0139501
955.920	0.0139261
955.998	0.0137627
956.076	0.0138347
956.155	0.0136358
956.233	0.0137170
956.311	0.0137177
956.389	0.0137582
956.467	0.0137962
956.545	0.0137407
956.623	0.0137640
956.701	0.0138381
956.780	0.0138688
956.858	0.0138988
956.936	0.0139294
957.014	0.0139414
957.092	0.0140431
957.170	0.0138952
957.248	0.0139359
957.326	0.0139690
957.405	0.0141056
957.483	0.0141326
957.561	0.0140549
957.639	0.0141782
957.717	0.0140795
957.795	0.0141589
957.873	0.0141856
957.951	0.0140659
958.030	0.0140516
958.108	0.0139986
958.186	0.0139812
958.264	0.0140265
958.342	0.0143436
958.420	0.0140667
958.498	0.0139980
958.576	0.0141881
958.655	0.0141888
958.733	0.0140624
958.811	0.0141639
958.889	0.0140993
958.967	0.0140554
959.045	0.0141087
959.123	0.0141942
959.201	0.0141448
959.280	0.0141378
959.358	0.0140926
959.436	0.0142633
959.514	0.0140220
959.592	0.0140598
959.670	0.0141582
959.748	0.0141602
959.826	0.0142249
959.905	0.0140705
