05/20/2022	16:29:37	Ver.	4.1	UNKNOWN
Optical Delay	639.982744	Delta X		0.078125	Sweeps	1	Scan Rate	0/0
Coordinates	Axis 1	NaN	Axis 2	NaN	Axis 3	NaN	Axis 4	NaN	Axis 5	NaN	Axis 6	0.000000
TX Power	0.000000	RX Power	0.000000

639.983	0.0147990
640.061	0.0146609
640.139	0.0146584
640.217	0.0148286
640.295	0.0147523
640.373	0.0147400
640.451	0.0147614
640.530	0.0148731
640.608	0.0148599
640.686	0.0147341
640.764	0.0148289
640.842	0.0149492
640.920	0.0149456
640.998	0.0148587
641.076	0.0149443
641.155	0.0149284
641.233	0.0148371
641.311	0.0149501
641.389	0.0149195
641.467	0.0148810
641.545	0.0149095
641.623	0.0150031
641.701	0.0149488
641.780	0.0148751
641.858	0.0148891
641.936	0.0149191
642.014	0.0150002
642.092	0.0147731
642.170	0.0150739
642.248	0.0149339
642.326	0.0149951
642.405	0.0149046
642.483	0.0148879
642.561	0.0149104
642.639	0.0148946
642.717	0.0149507
642.795	0.0149449
642.873	0.0149403
642.951	0.0150456
643.030	0.0150048
643.108	0.0149593
643.186	0.0149102
643.264	0.0147884
643.342	0.0147768
643.420	0.0148611
643.498	0.0149377
643.576	0.0148238
643.655	0.0149480
643.733	0.0148697
643.811	0.0148396
643.889	0.0148461
643.967	0.0149099
644.045	0.0149089
644.123	0.0151023
644.201	0.0149317
644.280	0.0148425
644.358	0.0149155
644.436	0.0149384
644.514	0.0148344
644.592	0.0148623
644.670	0.0149355
644.748	0.0149122
644.826	0.0148653
644.905	0.0148579
644.983	0.0149699
645.061	0.0149126
645.139	0.0148862
645.217	0.0149891
645.295	0.0149798
645.373	0.0149595
645.451	0.0150075
645.530	0.0150344
645.608	0.0148031
645.686	0.0149905
645.764	0.0149841
645.842	0.0148286
645.920	0.0150028
645.998	0.0148858
646.076	0.0149251
646.155	0.0148747
646.233	0.0148906
646.311	0.0148420
646.389	0.0150377
646.467	0.0149322
646.545	0.0150098
646.623	0.0149042
646.701	0.0148960
646.780	0.0150413
646.858	0.0149842
646.936	0.0150448
647.014	0.0150482
647.092	0.0150132
647.170	0.0149451
647.248	0.0150562
647.326	0.0149649
647.405	0.0149889
647.483	0.0149731
647.561	0.0151212
647.639	0.0149568
647.717	0.0149575
647.795	0.0149204
647.873	0.0151185
647.951	0.0149998
648.030	0.0148653
648.108	0.0148977
648.186	0.0149083
648.264	0.0148150
648.342	0.0148344
648.420	0.0148378
648.498	0.0148714
648.576	0.0147950
648.655	0.0147133
648.733	0.0147948
648.811	0.0148238
648.889	0.0149735
648.967	0.0149628
649.045	0.0148127
649.123	0.0149404
649.201	0.0150453
649.280	0.0149564
649.358	0.0149899
649.436	0.0148667
649.514	0.0149899
649.592	0.0149221
649.670	0.0148673
649.748	0.0150243
649.826	0.0150885
649.905	0.0149431
649.983	0.0151182
650.061	0.0149615
650.139	0.0148662
650.217	0.0148785
650.295	0.0148340
650.373	0.0147635
650.451	0.0149040
650.530	0.0148559
650.608	0.0148568
650.686	0.0149255
650.764	0.0147746
650.842	0.0149590
650.920	0.0149527
650.998	0.0147950
651.076	0.0149144
651.155	0.0149065
651.233	0.0148924
651.311	0.0147505
651.389	0.0148775
651.467	0.0148364
651.545	0.0150523
651.623	0.0149657
651.701	0.0149042
651.780	0.0149271
651.858	0.0149413
651.936	0.0149433
652.014	0.0149023
652.092	0.0150557
652.170	0.0149904
652.248	0.0149364
652.326	0.0148674
652.405	0.0149472
652.483	0.0148480
652.561	0.0149615
652.639	0.0149151
652.717	0.0147699
652.795	0.0147607
652.873	0.0149408
652.951	0.0149902
653.030	0.0147520
653.108	0.0147809
653.186	0.0146584
653.264	0.0148058
653.342	0.0148502
653.420	0.0147340
653.498	0.0146649
653.576	0.0148342
653.655	0.0149503
653.733	0.0148109
653.811	0.0148729
653.889	0.0147505
653.967	0.0149841
654.045	0.0150163
654.123	0.0148931
654.201	0.0149664
654.280	0.0149885
654.358	0.0148912
654.436	0.0148644
654.514	0.0149683
654.592	0.0149046
654.670	0.0148771
654.748	0.0147919
654.826	0.0147810
654.905	0.0148446
654.983	0.0149007
655.061	0.0148566
655.139	0.0148617
655.217	0.0147912
655.295	0.0147683
655.373	0.0146922
655.451	0.0148386
655.530	0.0147150
655.608	0.0147282
655.686	0.0147813
655.764	0.0147807
655.842	0.0147809
655.920	0.0147777
655.998	0.0149334
656.076	0.0149687
656.155	0.0148743
656.233	0.0148775
656.311	0.0149183
656.389	0.0148857
656.467	0.0148993
656.545	0.0148173
656.623	0.0148648
656.701	0.0149485
656.780	0.0148689
656.858	0.0149544
656.936	0.0148227
657.014	0.0148503
657.092	0.0148648
657.170	0.0147882
657.248	0.0148894
657.326	0.0148923
657.405	0.0147147
657.483	0.0146555
657.561	0.0147189
657.639	0.0147906
657.717	0.0147466
657.795	0.0147014
657.873	0.0147057
657.951	0.0148622
658.030	0.0148072
658.108	0.0147620
658.186	0.0147469
658.264	0.0148451
658.342	0.0148264
658.420	0.0148717
658.498	0.0148793
658.576	0.0149473
658.655	0.0149595
658.733	0.0150061
658.811	0.0149386
658.889	0.0149646
658.967	0.0149860
659.045	0.0149297
659.123	0.0147918
659.201	0.0148904
659.280	0.0149007
659.358	0.0149314
659.436	0.0148802
659.514	0.0147656
659.592	0.0147095
659.670	0.0147085
659.748	0.0145959
659.826	0.0147020
659.905	0.0145764
659.983	0.0147261
660.061	0.0146550
660.139	0.0146296
660.217	0.0147307
660.295	0.0146445
660.373	0.0147114
660.451	0.0147526
660.530	0.0146518
660.608	0.0147285
660.686	0.0146743
660.764	0.0147143
660.842	0.0148230
660.920	0.0147439
660.998	0.0148956
661.076	0.0148040
661.155	0.0148040
661.233	0.0149178
661.311	0.0147084
661.389	0.0149363
661.467	0.0147764
661.545	0.0147941
661.623	0.0146436
661.701	0.0148415
661.780	0.0149175
661.858	0.0148705
661.936	0.0147423
662.014	0.0149980
662.092	0.0150581
662.170	0.0150424
662.248	0.0148385
662.326	0.0148328
662.405	0.0146983
662.483	0.0147706
662.561	0.0148093
662.639	0.0147829
662.717	0.0147586
662.795	0.0147149
662.873	0.0147276
662.951	0.0148386
663.030	0.0147704
663.108	0.0147880
663.186	0.0146090
663.264	0.0148094
663.342	0.0147755
663.420	0.0148385
663.498	0.0148199
663.576	0.0148563
663.655	0.0148051
663.733	0.0147988
663.811	0.0147034
663.889	0.0149101
663.967	0.0148779
664.045	0.0148467
664.123	0.0147514
664.201	0.0147150
664.280	0.0148817
664.358	0.0149532
664.436	0.0147221
664.514	0.0148808
664.592	0.0148551
664.670	0.0147926
664.748	0.0147392
664.826	0.0149164
664.905	0.0148164
664.983	0.0149079
665.061	0.0149277
665.139	0.0149898
665.217	0.0149836
665.295	0.0148753
665.373	0.0149100
665.451	0.0148552
665.530	0.0149063
665.608	0.0149932
665.686	0.0149419
665.764	0.0147575
665.842	0.0148728
665.920	0.0149369
665.998	0.0148911
666.076	0.0148969
666.155	0.0149629
666.233	0.0150542
666.311	0.0148482
666.389	0.0149564
666.467	0.0148542
666.545	0.0150502
666.623	0.0149072
666.701	0.0150002
666.780	0.0149434
666.858	0.0149001
666.936	0.0149299
667.014	0.0149371
667.092	0.0147514
667.170	0.0147990
667.248	0.0148144
667.326	0.0148502
667.405	0.0148332
667.483	0.0148238
667.561	0.0147658
667.639	0.0148126
667.717	0.0147370
667.795	0.0147755
667.873	0.0150047
667.951	0.0148535
668.030	0.0148924
668.108	0.0147675
668.186	0.0147621
668.264	0.0149577
668.342	0.0148640
668.420	0.0150314
668.498	0.0149192
668.576	0.0150853
668.655	0.0149986
668.733	0.0149763
668.811	0.0151215
668.889	0.0149738
668.967	0.0150889
669.045	0.0151197
669.123	0.0149492
669.201	0.0150435
669.280	0.0149862
669.358	0.0148861
669.436	0.0148676
669.514	0.0147768
669.592	0.0149027
669.670	0.0148470
669.748	0.0148122
669.826	0.0147392
669.905	0.0146771
669.983	0.0148802
670.061	0.0149962
670.139	0.0148264
670.217	0.0150030
670.295	0.0147717
670.373	0.0148832
670.451	0.0149705
670.530	0.0149174
670.608	0.0149684
670.686	0.0151241
670.764	0.0150385
670.842	0.0151393
670.920	0.0150945
670.998	0.0149187
671.076	0.0149745
671.155	0.0150002
671.233	0.0149087
671.311	0.0147597
671.389	0.0148633
671.467	0.0147967
671.545	0.0148029
671.623	0.0147687
671.701	0.0148544
671.780	0.0148608
671.858	0.0148282
671.936	0.0148370
672.014	0.0147122
672.092	0.0148172
672.170	0.0147769
672.248	0.0146828
672.326	0.0148614
672.405	0.0146494
672.483	0.0146672
672.561	0.0148105
672.639	0.0148633
672.717	0.0149015
672.795	0.0150245
672.873	0.0150803
672.951	0.0151089
673.030	0.0151343
673.108	0.0151472
673.186	0.0150510
673.264	0.0151236
673.342	0.0150861
673.420	0.0151987
673.498	0.0151895
673.576	0.0150237
673.655	0.0150358
673.733	0.0150992
673.811	0.0149467
673.889	0.0149648
673.967	0.0148579
674.045	0.0147641
674.123	0.0148037
674.201	0.0148208
674.280	0.0147305
674.358	0.0146541
674.436	0.0147712
674.514	0.0147162
674.592	0.0148381
674.670	0.0149097
674.748	0.0149618
674.826	0.0150024
674.905	0.0150187
674.983	0.0151629
675.061	0.0153485
675.139	0.0152895
675.217	0.0152345
675.295	0.0153823
675.373	0.0154177
675.451	0.0154202
675.530	0.0153204
675.608	0.0153069
675.686	0.0152520
675.764	0.0151841
675.842	0.0149548
675.920	0.0149495
675.998	0.0149913
676.076	0.0146955
676.155	0.0145538
676.233	0.0144945
676.311	0.0144098
676.389	0.0143575
676.467	0.0142269
676.545	0.0142492
676.623	0.0139368
676.701	0.0139462
676.780	0.0140857
676.858	0.0142271
676.936	0.0143983
677.014	0.0144765
677.092	0.0144966
677.170	0.0147195
677.248	0.0149351
677.326	0.0149442
677.405	0.0151009
677.483	0.0153061
677.561	0.0154903
677.639	0.0155859
677.717	0.0156988
677.795	0.0156861
677.873	0.0156541
677.951	0.0156836
678.030	0.0155756
678.108	0.0157242
678.186	0.0156401
678.264	0.0154813
678.342	0.0152161
678.420	0.0150932
678.498	0.0148524
678.576	0.0147305
678.655	0.0147473
678.733	0.0145207
678.811	0.0143507
678.889	0.0144059
678.967	0.0142379
679.045	0.0141257
679.123	0.0140115
679.201	0.0140677
679.280	0.0141079
679.358	0.0141797
679.436	0.0140694
679.514	0.0142051
679.592	0.0142686
679.670	0.0144100
679.748	0.0145156
679.826	0.0147272
679.905	0.0146904
679.983	0.0147912
680.061	0.0147916
680.139	0.0147575
680.217	0.0149661
680.295	0.0149242
680.373	0.0151243
680.451	0.0150186
680.530	0.0151746
680.608	0.0151141
680.686	0.0153164
680.764	0.0152180
680.842	0.0152235
680.920	0.0153348
680.998	0.0154138
681.076	0.0152564
681.155	0.0154067
681.233	0.0154108
681.311	0.0153944
681.389	0.0153642
681.467	0.0153467
681.545	0.0153725
681.623	0.0153019
681.701	0.0151997
681.780	0.0150378
681.858	0.0149719
681.936	0.0149656
682.014	0.0148335
682.092	0.0146304
682.170	0.0144490
682.248	0.0143947
682.326	0.0143738
682.405	0.0141747
682.483	0.0141575
682.561	0.0141670
682.639	0.0140437
682.717	0.0141067
682.795	0.0142164
682.873	0.0142065
682.951	0.0142802
683.030	0.0144415
683.108	0.0145422
683.186	0.0147540
683.264	0.0147686
683.342	0.0149738
683.420	0.0149915
683.498	0.0151016
683.576	0.0153522
683.655	0.0155637
683.733	0.0154911
683.811	0.0156266
683.889	0.0154885
683.967	0.0155147
684.045	0.0154778
684.123	0.0153622
684.201	0.0153400
684.280	0.0150842
684.358	0.0150325
684.436	0.0149290
684.514	0.0147531
684.592	0.0145548
684.670	0.0144481
684.748	0.0142375
684.826	0.0142298
684.905	0.0139951
684.983	0.0139085
685.061	0.0139295
685.139	0.0138717
685.217	0.0139632
685.295	0.0140698
685.373	0.0142199
685.451	0.0141045
685.530	0.0145289
685.608	0.0146496
685.686	0.0148710
685.764	0.0150077
685.842	0.0154282
685.920	0.0156682
685.998	0.0158144
686.076	0.0159169
686.155	0.0161950
686.233	0.0162598
686.311	0.0164205
686.389	0.0163535
686.467	0.0164335
686.545	0.0162606
686.623	0.0163021
686.701	0.0162055
686.780	0.0160438
686.858	0.0158958
686.936	0.0157812
687.014	0.0155635
687.092	0.0153082
687.170	0.0152436
687.248	0.0151229
687.326	0.0149359
687.405	0.0147681
687.483	0.0145240
687.561	0.0144643
687.639	0.0142907
687.717	0.0142661
687.795	0.0140567
687.873	0.0140672
687.951	0.0139336
688.030	0.0139307
688.108	0.0140089
688.186	0.0139028
688.264	0.0138174
688.342	0.0139307
688.420	0.0138466
688.498	0.0139561
688.576	0.0138804
688.655	0.0139513
688.733	0.0138580
688.811	0.0140108
688.889	0.0141386
688.967	0.0142277
689.045	0.0142833
689.123	0.0143672
689.201	0.0145306
689.280	0.0146790
689.358	0.0147651
689.436	0.0147557
689.514	0.0149458
689.592	0.0150634
689.670	0.0151536
689.748	0.0153527
689.826	0.0154536
689.905	0.0155189
689.983	0.0156143
690.061	0.0156586
690.139	0.0158282
690.217	0.0158847
690.295	0.0159272
690.373	0.0162458
690.451	0.0161272
690.530	0.0162503
690.608	0.0161161
690.686	0.0161959
690.764	0.0162007
690.842	0.0161071
690.920	0.0160954
690.998	0.0161436
691.076	0.0160756
691.155	0.0158851
691.233	0.0156579
691.311	0.0157092
691.389	0.0157192
691.467	0.0157946
691.545	0.0156936
691.623	0.0155181
691.701	0.0154601
691.780	0.0154539
691.858	0.0152859
691.936	0.0150722
692.014	0.0149559
692.092	0.0149076
692.170	0.0147067
692.248	0.0143633
692.326	0.0142188
692.405	0.0138314
692.483	0.0134983
692.561	0.0133398
692.639	0.0131359
692.717	0.0131329
692.795	0.0128445
692.873	0.0128559
692.951	0.0127378
693.030	0.0127833
693.108	0.0128490
693.186	0.0128710
693.264	0.0130765
693.342	0.0132280
693.420	0.0135363
693.498	0.0137190
693.576	0.0139251
693.655	0.0140569
693.733	0.0142225
693.811	0.0143871
693.889	0.0146815
693.967	0.0148714
694.045	0.0152032
694.123	0.0151881
694.201	0.0154608
694.280	0.0157260
694.358	0.0161302
694.436	0.0161215
694.514	0.0164450
694.592	0.0167576
694.670	0.0167471
694.748	0.0169710
694.826	0.0168832
694.905	0.0169215
694.983	0.0169812
695.061	0.0170950
695.139	0.0168572
695.217	0.0166557
695.295	0.0164935
695.373	0.0162109
695.451	0.0161017
695.530	0.0156245
695.608	0.0155514
695.686	0.0151855
695.764	0.0147540
695.842	0.0143491
695.920	0.0143398
695.998	0.0140751
696.076	0.0136268
696.155	0.0136041
696.233	0.0134299
696.311	0.0133902
696.389	0.0133397
696.467	0.0133218
696.545	0.0132029
696.623	0.0134480
696.701	0.0134389
696.780	0.0135668
696.858	0.0136408
696.936	0.0137273
697.014	0.0138318
697.092	0.0139991
697.170	0.0142235
697.248	0.0142465
697.326	0.0145092
697.405	0.0146342
697.483	0.0148265
697.561	0.0147401
697.639	0.0149484
697.717	0.0148815
697.795	0.0150203
697.873	0.0151018
697.951	0.0151179
698.030	0.0152947
698.108	0.0153152
698.186	0.0154296
698.264	0.0153000
698.342	0.0155428
698.420	0.0154775
698.498	0.0155471
698.576	0.0156445
698.655	0.0156446
698.733	0.0157800
698.811	0.0155985
698.889	0.0156327
698.967	0.0157377
699.045	0.0157502
699.123	0.0156894
699.201	0.0157738
699.280	0.0157224
699.358	0.0155804
699.436	0.0157136
699.514	0.0155946
699.592	0.0156661
699.670	0.0156539
699.748	0.0152404
699.826	0.0151606
699.905	0.0150876
699.983	0.0149039
700.061	0.0145422
700.139	0.0141908
700.217	0.0139396
700.295	0.0137901
700.373	0.0135871
700.451	0.0135380
700.530	0.0133694
700.608	0.0134092
700.686	0.0134090
700.764	0.0133726
700.842	0.0134835
700.920	0.0135951
700.998	0.0137217
701.076	0.0138109
701.155	0.0139828
701.233	0.0141798
701.311	0.0143889
701.389	0.0143674
701.467	0.0145818
701.545	0.0147076
701.623	0.0148135
701.701	0.0148031
701.780	0.0148399
701.858	0.0147599
701.936	0.0151505
702.014	0.0151360
702.092	0.0151438
702.170	0.0154855
702.248	0.0154459
702.326	0.0155884
702.405	0.0157740
702.483	0.0159746
702.561	0.0162143
702.639	0.0162336
702.717	0.0164986
702.795	0.0166179
702.873	0.0166701
702.951	0.0167027
703.030	0.0166034
703.108	0.0165031
703.186	0.0165479
703.264	0.0164102
703.342	0.0162179
703.420	0.0161121
703.498	0.0158405
703.576	0.0158211
703.655	0.0154977
703.733	0.0152550
703.811	0.0151566
703.889	0.0148498
703.967	0.0146722
704.045	0.0144043
704.123	0.0142007
704.201	0.0140656
704.280	0.0138741
704.358	0.0136628
704.436	0.0135711
704.514	0.0135661
704.592	0.0134613
704.670	0.0133251
704.748	0.0134634
704.826	0.0134933
704.905	0.0134991
704.983	0.0135515
705.061	0.0135750
705.139	0.0137886
705.217	0.0139980
705.295	0.0142670
705.373	0.0145758
705.451	0.0147952
705.530	0.0148491
705.608	0.0148730
705.686	0.0152998
705.764	0.0154170
705.842	0.0157214
705.920	0.0158105
705.998	0.0159608
706.076	0.0159544
706.155	0.0161355
706.233	0.0157908
706.311	0.0157898
706.389	0.0156699
706.467	0.0153085
706.545	0.0152982
706.623	0.0150472
706.701	0.0150230
706.780	0.0147330
706.858	0.0143951
706.936	0.0145252
707.014	0.0144275
707.092	0.0143379
707.170	0.0144873
707.248	0.0145763
707.326	0.0145564
707.405	0.0146277
707.483	0.0147210
707.561	0.0147930
707.639	0.0148527
707.717	0.0149853
707.795	0.0150814
707.873	0.0151050
707.951	0.0152142
708.030	0.0152510
708.108	0.0152189
708.186	0.0153043
708.264	0.0153537
708.342	0.0154354
708.420	0.0154687
708.498	0.0153757
708.576	0.0154488
708.655	0.0155331
708.733	0.0153835
708.811	0.0155814
708.889	0.0155759
708.967	0.0156459
709.045	0.0154804
709.123	0.0154880
709.201	0.0156081
709.280	0.0156490
709.358	0.0155430
709.436	0.0154391
709.514	0.0152858
709.592	0.0152977
709.670	0.0152636
709.748	0.0149715
709.826	0.0149406
709.905	0.0146894
709.983	0.0144173
710.061	0.0141953
710.139	0.0140306
710.217	0.0137479
710.295	0.0136043
710.373	0.0135792
710.451	0.0136393
710.530	0.0135779
710.608	0.0135339
710.686	0.0135999
710.764	0.0138193
710.842	0.0138616
710.920	0.0141045
710.998	0.0142857
711.076	0.0144804
711.155	0.0145294
711.233	0.0147603
711.311	0.0151328
711.389	0.0150670
711.467	0.0151675
711.545	0.0154082
711.623	0.0155679
711.701	0.0156540
711.780	0.0157549
711.858	0.0158676
711.936	0.0158919
712.014	0.0159669
712.092	0.0160441
712.170	0.0158224
712.248	0.0159492
712.326	0.0159637
712.405	0.0159413
712.483	0.0157689
712.561	0.0158154
712.639	0.0158008
712.717	0.0157142
712.795	0.0155977
712.873	0.0154127
712.951	0.0155096
713.030	0.0153823
713.108	0.0153142
713.186	0.0152732
713.264	0.0150758
713.342	0.0151440
713.420	0.0149786
713.498	0.0148450
713.576	0.0148170
713.655	0.0147559
713.733	0.0145409
713.811	0.0143618
713.889	0.0142246
713.967	0.0143571
714.045	0.0142247
714.123	0.0140384
714.201	0.0138876
714.280	0.0136844
714.358	0.0137602
714.436	0.0136552
714.514	0.0135456
714.592	0.0135406
714.670	0.0134462
714.748	0.0135368
714.826	0.0137125
714.905	0.0139359
714.983	0.0140511
715.061	0.0143921
715.139	0.0144493
715.217	0.0148658
715.295	0.0152325
715.373	0.0153146
715.451	0.0153389
715.530	0.0156585
715.608	0.0157812
715.686	0.0158339
715.764	0.0159449
715.842	0.0160881
715.920	0.0160767
715.998	0.0159440
716.076	0.0158482
716.155	0.0157583
716.233	0.0157745
716.311	0.0157813
716.389	0.0155775
716.467	0.0154711
716.545	0.0155341
716.623	0.0154572
716.701	0.0153561
716.780	0.0154356
716.858	0.0153009
716.936	0.0152275
717.014	0.0151173
717.092	0.0150981
717.170	0.0150484
717.248	0.0147726
717.326	0.0145992
717.405	0.0146268
717.483	0.0144900
717.561	0.0142588
717.639	0.0140740
717.717	0.0141736
717.795	0.0142184
717.873	0.0141203
717.951	0.0139342
718.030	0.0141309
718.108	0.0141349
718.186	0.0143218
718.264	0.0143405
718.342	0.0142813
718.420	0.0144968
718.498	0.0145773
718.576	0.0145055
718.655	0.0145900
718.733	0.0145387
718.811	0.0145071
718.889	0.0145246
718.967	0.0144717
719.045	0.0146592
719.123	0.0146516
719.201	0.0144886
719.280	0.0147446
719.358	0.0147187
719.436	0.0149235
719.514	0.0149997
719.592	0.0152001
719.670	0.0151356
719.748	0.0150509
719.826	0.0151447
719.905	0.0150700
719.983	0.0150180
720.061	0.0151725
720.139	0.0148796
720.217	0.0148635
720.295	0.0148337
720.373	0.0149618
720.451	0.0149880
720.530	0.0150396
720.608	0.0149509
720.686	0.0151756
720.764	0.0151065
720.842	0.0150663
720.920	0.0152602
720.998	0.0152859
721.076	0.0153262
721.155	0.0154611
721.233	0.0153564
721.311	0.0154677
721.389	0.0155183
721.467	0.0154303
721.545	0.0151996
721.623	0.0154004
721.701	0.0153990
721.780	0.0152711
721.858	0.0153108
721.936	0.0151448
722.014	0.0151623
722.092	0.0151281
722.170	0.0153286
722.248	0.0150257
722.326	0.0149796
722.405	0.0150245
722.483	0.0149622
722.561	0.0147422
722.639	0.0148062
722.717	0.0146172
722.795	0.0144849
722.873	0.0145189
722.951	0.0143764
723.030	0.0141759
723.108	0.0141418
723.186	0.0141040
723.264	0.0141087
723.342	0.0140804
723.420	0.0140661
723.498	0.0141082
723.576	0.0141846
723.655	0.0141804
723.733	0.0140974
723.811	0.0141712
723.889	0.0142735
723.967	0.0142736
724.045	0.0143214
724.123	0.0146279
724.201	0.0144693
724.280	0.0145862
724.358	0.0145525
724.436	0.0148630
724.514	0.0149405
724.592	0.0150510
724.670	0.0149730
724.748	0.0151121
724.826	0.0152357
724.905	0.0152340
724.983	0.0152566
725.061	0.0152302
725.139	0.0151070
725.217	0.0152468
725.295	0.0153026
725.373	0.0150471
725.451	0.0149329
725.530	0.0151147
725.608	0.0151646
725.686	0.0150842
725.764	0.0150822
725.842	0.0150266
725.920	0.0152731
725.998	0.0151889
726.076	0.0153339
726.155	0.0153728
726.233	0.0153820
726.311	0.0154157
726.389	0.0154193
726.467	0.0155989
726.545	0.0154820
726.623	0.0155945
726.701	0.0156004
726.780	0.0153989
726.858	0.0153689
726.936	0.0153192
727.014	0.0152544
727.092	0.0150618
727.170	0.0149808
727.248	0.0149710
727.326	0.0146822
727.405	0.0147129
727.483	0.0145095
727.561	0.0143369
727.639	0.0143271
727.717	0.0143076
727.795	0.0141438
727.873	0.0141439
727.951	0.0141847
728.030	0.0142266
728.108	0.0143781
728.186	0.0142964
728.264	0.0144470
728.342	0.0144783
728.420	0.0145576
728.498	0.0146991
728.576	0.0147082
728.655	0.0148669
728.733	0.0149243
728.811	0.0149952
728.889	0.0148820
728.967	0.0149825
729.045	0.0148270
729.123	0.0147604
729.201	0.0149174
729.280	0.0148643
729.358	0.0148952
729.436	0.0149237
729.514	0.0148430
729.592	0.0149738
729.670	0.0150240
729.748	0.0148918
729.826	0.0149452
729.905	0.0148981
729.983	0.0148640
730.061	0.0149344
730.139	0.0149376
730.217	0.0149923
730.295	0.0148842
730.373	0.0149494
730.451	0.0149912
730.530	0.0149038
730.608	0.0148318
730.686	0.0148122
730.764	0.0148373
730.842	0.0148743
730.920	0.0149651
730.998	0.0148333
731.076	0.0147832
731.155	0.0147854
731.233	0.0147735
731.311	0.0147782
731.389	0.0148096
731.467	0.0148428
731.545	0.0150495
731.623	0.0150381
731.701	0.0151943
731.780	0.0151473
731.858	0.0151443
731.936	0.0152991
732.014	0.0153257
732.092	0.0153747
732.170	0.0153582
732.248	0.0155120
732.326	0.0154134
732.405	0.0153214
732.483	0.0151537
732.561	0.0152754
732.639	0.0152151
732.717	0.0153056
732.795	0.0152193
732.873	0.0151739
732.951	0.0151064
733.030	0.0151263
733.108	0.0152141
733.186	0.0152029
733.264	0.0150506
733.342	0.0151149
733.420	0.0151988
733.498	0.0151627
733.576	0.0151722
733.655	0.0151940
733.733	0.0149713
733.811	0.0151687
733.889	0.0150607
733.967	0.0150639
734.045	0.0151180
734.123	0.0150580
734.201	0.0149664
734.280	0.0150616
734.358	0.0150852
734.436	0.0150602
734.514	0.0149209
734.592	0.0148615
734.670	0.0148883
734.748	0.0148362
734.826	0.0147846
734.905	0.0146824
734.983	0.0145982
735.061	0.0144739
735.139	0.0142943
735.217	0.0144523
735.295	0.0143719
735.373	0.0143079
735.451	0.0142181
735.530	0.0142653
735.608	0.0143843
735.686	0.0144065
735.764	0.0144630
735.842	0.0145450
735.920	0.0145676
735.998	0.0146514
736.076	0.0147646
736.155	0.0149589
736.233	0.0150693
736.311	0.0150941
736.389	0.0152085
736.467	0.0153011
736.545	0.0152668
736.623	0.0153261
736.701	0.0153724
736.780	0.0154680
736.858	0.0153069
736.936	0.0153519
737.014	0.0152782
737.092	0.0151105
737.170	0.0150584
737.248	0.0150939
737.326	0.0150292
737.405	0.0149558
737.483	0.0148848
737.561	0.0149111
737.639	0.0149618
737.717	0.0149662
737.795	0.0148423
737.873	0.0148273
737.951	0.0148102
738.030	0.0147651
738.108	0.0147176
738.186	0.0147006
738.264	0.0145402
738.342	0.0145081
738.420	0.0146922
738.498	0.0146909
738.576	0.0146757
738.655	0.0144732
738.733	0.0146124
738.811	0.0147569
738.889	0.0148131
738.967	0.0149920
739.045	0.0150805
739.123	0.0151112
739.201	0.0152010
739.280	0.0153670
739.358	0.0154334
739.436	0.0154443
739.514	0.0153474
739.592	0.0154547
739.670	0.0153785
739.748	0.0152116
739.826	0.0152489
739.905	0.0149969
739.983	0.0148542
740.061	0.0148112
740.139	0.0145698
740.217	0.0144644
740.295	0.0145855
740.373	0.0144524
740.451	0.0143398
740.530	0.0143584
740.608	0.0143239
740.686	0.0144110
740.764	0.0143306
740.842	0.0145477
740.920	0.0146324
740.998	0.0146403
741.076	0.0146478
741.155	0.0146596
741.233	0.0146488
741.311	0.0148927
741.389	0.0149672
741.467	0.0149654
741.545	0.0149254
741.623	0.0150513
741.701	0.0150533
741.780	0.0149471
741.858	0.0148498
741.936	0.0149293
742.014	0.0147989
742.092	0.0149406
742.170	0.0149710
742.248	0.0148735
742.326	0.0147838
742.405	0.0147793
742.483	0.0148703
742.561	0.0147929
742.639	0.0149395
742.717	0.0149590
742.795	0.0148778
742.873	0.0150144
742.951	0.0150357
743.030	0.0150986
743.108	0.0151809
743.186	0.0151624
743.264	0.0151533
743.342	0.0151284
743.420	0.0151838
743.498	0.0152825
743.576	0.0153114
743.655	0.0151617
743.733	0.0149601
743.811	0.0150671
743.889	0.0150849
743.967	0.0150548
744.045	0.0149399
744.123	0.0148229
744.201	0.0147684
744.280	0.0147122
744.358	0.0147036
744.436	0.0145930
744.514	0.0145900
744.592	0.0146183
744.670	0.0144492
744.748	0.0145056
744.826	0.0143238
744.905	0.0144141
744.983	0.0144415
745.061	0.0144487
745.139	0.0145611
745.217	0.0146679
745.295	0.0147731
745.373	0.0147016
745.451	0.0148914
745.530	0.0149441
745.608	0.0150578
745.686	0.0151245
745.764	0.0152882
745.842	0.0152031
745.920	0.0151363
745.998	0.0151826
746.076	0.0151736
746.155	0.0152399
746.233	0.0151846
746.311	0.0151754
746.389	0.0150733
746.467	0.0150337
746.545	0.0149303
746.623	0.0148814
746.701	0.0149170
746.780	0.0149004
746.858	0.0147839
746.936	0.0147649
747.014	0.0149943
747.092	0.0148337
747.170	0.0147866
747.248	0.0147906
747.326	0.0147502
747.405	0.0146745
747.483	0.0147559
747.561	0.0147987
747.639	0.0146923
747.717	0.0148270
747.795	0.0148036
747.873	0.0147961
747.951	0.0148411
748.030	0.0147295
748.108	0.0148205
748.186	0.0147733
748.264	0.0148582
748.342	0.0147211
748.420	0.0145827
748.498	0.0147320
748.576	0.0145374
748.655	0.0145677
748.733	0.0145341
748.811	0.0144743
748.889	0.0143893
748.967	0.0143852
749.045	0.0144102
749.123	0.0143358
749.201	0.0144697
749.280	0.0144977
749.358	0.0146131
749.436	0.0145974
749.514	0.0145586
749.592	0.0146391
749.670	0.0146842
749.748	0.0149113
749.826	0.0149253
749.905	0.0150751
749.983	0.0151504
750.061	0.0150718
750.139	0.0152293
750.217	0.0151544
750.295	0.0152251
750.373	0.0152571
750.451	0.0153222
750.530	0.0152587
750.608	0.0151481
750.686	0.0151340
750.764	0.0151226
750.842	0.0150615
750.920	0.0150417
750.998	0.0150198
751.076	0.0149786
751.155	0.0148425
751.233	0.0147086
751.311	0.0147089
751.389	0.0145334
751.467	0.0146010
751.545	0.0147630
751.623	0.0147421
751.701	0.0146008
751.780	0.0146182
751.858	0.0146141
751.936	0.0144093
752.014	0.0145592
752.092	0.0145603
752.170	0.0146521
752.248	0.0145559
752.326	0.0147295
752.405	0.0146235
752.483	0.0145113
752.561	0.0146992
752.639	0.0147594
752.717	0.0148191
752.795	0.0145336
752.873	0.0145581
752.951	0.0146210
753.030	0.0145710
753.108	0.0147453
753.186	0.0147900
753.264	0.0146981
753.342	0.0147217
753.420	0.0147816
753.498	0.0146870
753.576	0.0148676
753.655	0.0148643
753.733	0.0148380
753.811	0.0148135
753.889	0.0148719
753.967	0.0148972
754.045	0.0149686
754.123	0.0150855
754.201	0.0149735
754.280	0.0148951
754.358	0.0149775
754.436	0.0151696
754.514	0.0152653
754.592	0.0151373
754.670	0.0151348
754.748	0.0151136
754.826	0.0151606
754.905	0.0150928
754.983	0.0150468
755.061	0.0151367
755.139	0.0148892
755.217	0.0150146
755.295	0.0150205
755.373	0.0150349
755.451	0.0149845
755.530	0.0148975
755.608	0.0148306
755.686	0.0148465
755.764	0.0149123
755.842	0.0148546
755.920	0.0147498
755.998	0.0147995
756.076	0.0148328
756.155	0.0147351
756.233	0.0149438
756.311	0.0149362
756.389	0.0148898
756.467	0.0149648
756.545	0.0150467
756.623	0.0149304
756.701	0.0148412
756.780	0.0147935
756.858	0.0148333
756.936	0.0148873
757.014	0.0149783
757.092	0.0148281
757.170	0.0148813
757.248	0.0149194
757.326	0.0148915
757.405	0.0148840
757.483	0.0148843
757.561	0.0147928
757.639	0.0149059
757.717	0.0148955
757.795	0.0149058
757.873	0.0148885
757.951	0.0148144
758.030	0.0149099
758.108	0.0149657
758.186	0.0149081
758.264	0.0149362
758.342	0.0150077
758.420	0.0147884
758.498	0.0149031
758.576	0.0148877
758.655	0.0147533
758.733	0.0149292
758.811	0.0148675
758.889	0.0147530
758.967	0.0147891
759.045	0.0147662
759.123	0.0147383
759.201	0.0145738
759.280	0.0147245
759.358	0.0145848
759.436	0.0146750
759.514	0.0148155
759.592	0.0146740
759.670	0.0147482
759.748	0.0147430
759.826	0.0147599
759.905	0.0148621
759.983	0.0148771
760.061	0.0148991
760.139	0.0150573
760.217	0.0150916
760.295	0.0151781
760.373	0.0151003
760.451	0.0152220
760.530	0.0150704
760.608	0.0153753
760.686	0.0154121
760.764	0.0153093
760.842	0.0153091
760.920	0.0152795
760.998	0.0153188
761.076	0.0153899
761.155	0.0152241
761.233	0.0152638
761.311	0.0152034
761.389	0.0151170
761.467	0.0150245
761.545	0.0150514
761.623	0.0149127
761.701	0.0149653
761.780	0.0149490
761.858	0.0149237
761.936	0.0150150
762.014	0.0148794
762.092	0.0148052
762.170	0.0148579
762.248	0.0148750
762.326	0.0147544
762.405	0.0148357
762.483	0.0148351
762.561	0.0147937
762.639	0.0149216
762.717	0.0149010
762.795	0.0147429
762.873	0.0149451
762.951	0.0149911
763.030	0.0148466
763.108	0.0148922
763.186	0.0149876
763.264	0.0150351
763.342	0.0148972
763.420	0.0148888
763.498	0.0148747
763.576	0.0148714
763.655	0.0146954
763.733	0.0147624
763.811	0.0148629
763.889	0.0147551
763.967	0.0149599
764.045	0.0149755
764.123	0.0150457
764.201	0.0151392
764.280	0.0150520
764.358	0.0151518
764.436	0.0151626
764.514	0.0151610
764.592	0.0150558
764.670	0.0152841
764.748	0.0152837
764.826	0.0151412
764.905	0.0150801
764.983	0.0151188
765.061	0.0150130
765.139	0.0149952
765.217	0.0149136
765.295	0.0149948
765.373	0.0150591
765.451	0.0151138
765.530	0.0148898
765.608	0.0151701
765.686	0.0149897
765.764	0.0149514
765.842	0.0150015
765.920	0.0149028
765.998	0.0149987
766.076	0.0150532
766.155	0.0149677
766.233	0.0150425
766.311	0.0149687
766.389	0.0150048
766.467	0.0149220
766.545	0.0147737
766.623	0.0148221
766.701	0.0149083
766.780	0.0148070
766.858	0.0147664
766.936	0.0146867
767.014	0.0146877
767.092	0.0146645
767.170	0.0147318
767.248	0.0147004
767.326	0.0146741
767.405	0.0146341
767.483	0.0146132
767.561	0.0145789
767.639	0.0147350
767.717	0.0149075
767.795	0.0148089
767.873	0.0146925
767.951	0.0147363
768.030	0.0148023
768.108	0.0149174
768.186	0.0150017
768.264	0.0148928
768.342	0.0149973
768.420	0.0152007
768.498	0.0150726
768.576	0.0151425
768.655	0.0152023
768.733	0.0151562
768.811	0.0151629
768.889	0.0151815
768.967	0.0152090
769.045	0.0152476
769.123	0.0151688
769.201	0.0151405
769.280	0.0153022
769.358	0.0150880
769.436	0.0150072
769.514	0.0148537
769.592	0.0150053
769.670	0.0149694
769.748	0.0148594
769.826	0.0147706
769.905	0.0147929
769.983	0.0147987
770.061	0.0147551
770.139	0.0147816
770.217	0.0147993
770.295	0.0147861
770.373	0.0147939
770.451	0.0147509
770.530	0.0147926
770.608	0.0147694
770.686	0.0148455
770.764	0.0150297
770.842	0.0150088
770.920	0.0149366
770.998	0.0149509
771.076	0.0149072
771.155	0.0149408
771.233	0.0149458
771.311	0.0149234
771.389	0.0149372
771.467	0.0147720
771.545	0.0147334
771.623	0.0148283
771.701	0.0146937
771.780	0.0146002
771.858	0.0146077
771.936	0.0144624
772.014	0.0146980
772.092	0.0145250
772.170	0.0146032
772.248	0.0145086
772.326	0.0145539
772.405	0.0143178
772.483	0.0144151
772.561	0.0144280
772.639	0.0143819
772.717	0.0143813
772.795	0.0144596
772.873	0.0145415
772.951	0.0145924
773.030	0.0145718
773.108	0.0145457
773.186	0.0145936
773.264	0.0146754
773.342	0.0149016
773.420	0.0147487
773.498	0.0148613
773.576	0.0150463
773.655	0.0148922
773.733	0.0148742
773.811	0.0149586
773.889	0.0151151
773.967	0.0150502
774.045	0.0150382
774.123	0.0150677
774.201	0.0149231
774.280	0.0148206
774.358	0.0148418
774.436	0.0148675
774.514	0.0149010
774.592	0.0148506
774.670	0.0148010
774.748	0.0148891
774.826	0.0148879
774.905	0.0147436
774.983	0.0147861
775.061	0.0148911
775.139	0.0148563
775.217	0.0149425
775.295	0.0148868
775.373	0.0149387
775.451	0.0148575
775.530	0.0147647
775.608	0.0148503
775.686	0.0149688
775.764	0.0150082
775.842	0.0150333
775.920	0.0151479
775.998	0.0149129
776.076	0.0149480
776.155	0.0149980
776.233	0.0150085
776.311	0.0150215
776.389	0.0150568
776.467	0.0148923
776.545	0.0150179
776.623	0.0148454
776.701	0.0149326
776.780	0.0150595
776.858	0.0148437
776.936	0.0148144
777.014	0.0149725
777.092	0.0149469
777.170	0.0150861
777.248	0.0149329
777.326	0.0149995
777.405	0.0148839
777.483	0.0148985
777.561	0.0147746
777.639	0.0148566
777.717	0.0148154
777.795	0.0147626
777.873	0.0147345
777.951	0.0147997
778.030	0.0148111
778.108	0.0147788
778.186	0.0147189
778.264	0.0147604
778.342	0.0147622
778.420	0.0146509
778.498	0.0147928
778.576	0.0147904
778.655	0.0147360
778.733	0.0149470
778.811	0.0147648
778.889	0.0148228
778.967	0.0149681
779.045	0.0149427
779.123	0.0148074
779.201	0.0148734
779.280	0.0148660
779.358	0.0148828
779.436	0.0147646
779.514	0.0147519
779.592	0.0147262
779.670	0.0147632
779.748	0.0147836
779.826	0.0148416
779.905	0.0148908
779.983	0.0148688
780.061	0.0148100
780.139	0.0147112
780.217	0.0148336
780.295	0.0148558
780.373	0.0148776
780.451	0.0148047
780.530	0.0146813
780.608	0.0150043
780.686	0.0148988
780.764	0.0149361
780.842	0.0149568
780.920	0.0147766
780.998	0.0147646
781.076	0.0148864
781.155	0.0148257
781.233	0.0147923
781.311	0.0147995
781.389	0.0147903
781.467	0.0148308
781.545	0.0148884
781.623	0.0148695
781.701	0.0148659
781.780	0.0148721
781.858	0.0148489
781.936	0.0147572
782.014	0.0150031
782.092	0.0149701
782.170	0.0151247
782.248	0.0150318
782.326	0.0148867
782.405	0.0149488
782.483	0.0149866
782.561	0.0151174
782.639	0.0149558
782.717	0.0150635
782.795	0.0150417
782.873	0.0149566
782.951	0.0149751
783.030	0.0150258
783.108	0.0150560
783.186	0.0149547
783.264	0.0150469
783.342	0.0150457
783.420	0.0149924
783.498	0.0151491
783.576	0.0150381
783.655	0.0149544
783.733	0.0150365
783.811	0.0148512
783.889	0.0148860
783.967	0.0148992
784.045	0.0148841
784.123	0.0148200
784.201	0.0148386
784.280	0.0149089
784.358	0.0147971
784.436	0.0150340
784.514	0.0149212
784.592	0.0150040
784.670	0.0148354
784.748	0.0148825
784.826	0.0151018
784.905	0.0149596
784.983	0.0149751
785.061	0.0150975
785.139	0.0149719
785.217	0.0150736
785.295	0.0150372
785.373	0.0149591
785.451	0.0150027
785.530	0.0149837
785.608	0.0150248
785.686	0.0150401
785.764	0.0149203
785.842	0.0148636
785.920	0.0150111
785.998	0.0148076
786.076	0.0149198
786.155	0.0148665
786.233	0.0149466
786.311	0.0149852
786.389	0.0149052
786.467	0.0151159
786.545	0.0149548
786.623	0.0149709
786.701	0.0151361
786.780	0.0151183
786.858	0.0150626
786.936	0.0150885
787.014	0.0151671
787.092	0.0151557
787.170	0.0151668
787.248	0.0151405
787.326	0.0151896
787.405	0.0152817
787.483	0.0150559
787.561	0.0150977
787.639	0.0151511
787.717	0.0150237
787.795	0.0151732
787.873	0.0150061
787.951	0.0151362
788.030	0.0149505
788.108	0.0149364
788.186	0.0149211
788.264	0.0149024
788.342	0.0148342
788.420	0.0148952
788.498	0.0148728
788.576	0.0150184
788.655	0.0147900
788.733	0.0149099
788.811	0.0147618
788.889	0.0147375
788.967	0.0147249
789.045	0.0146386
789.123	0.0147314
789.201	0.0147005
789.280	0.0147181
789.358	0.0146562
789.436	0.0145803
789.514	0.0147758
789.592	0.0147034
789.670	0.0145676
789.748	0.0145947
789.826	0.0149152
789.905	0.0148592
789.983	0.0147982
790.061	0.0147792
790.139	0.0149136
790.217	0.0147865
790.295	0.0149023
790.373	0.0148982
790.451	0.0149023
790.530	0.0150368
790.608	0.0149609
790.686	0.0150534
790.764	0.0150243
790.842	0.0150738
790.920	0.0150330
790.998	0.0152126
791.076	0.0151135
791.155	0.0150948
791.233	0.0151309
791.311	0.0151729
791.389	0.0150630
791.467	0.0152396
791.545	0.0151738
791.623	0.0153015
791.701	0.0151952
791.780	0.0152281
791.858	0.0152845
791.936	0.0152251
792.014	0.0151363
792.092	0.0150690
792.170	0.0150676
792.248	0.0149980
792.326	0.0148518
792.405	0.0147941
792.483	0.0148124
792.561	0.0148330
792.639	0.0148415
792.717	0.0147584
792.795	0.0146705
792.873	0.0145220
792.951	0.0147001
793.030	0.0147279
793.108	0.0145255
793.186	0.0145065
793.264	0.0145329
793.342	0.0145910
793.420	0.0145271
793.498	0.0145436
793.576	0.0145443
793.655	0.0144418
793.733	0.0144973
793.811	0.0145469
793.889	0.0145145
793.967	0.0146225
794.045	0.0145199
794.123	0.0146558
794.201	0.0147122
794.280	0.0146480
794.358	0.0146383
794.436	0.0146980
794.514	0.0149550
794.592	0.0147465
794.670	0.0147195
794.748	0.0147914
794.826	0.0148231
794.905	0.0149676
794.983	0.0148240
795.061	0.0149199
795.139	0.0149361
795.217	0.0149322
795.295	0.0150684
795.373	0.0150133
795.451	0.0150055
795.530	0.0150447
795.608	0.0149952
795.686	0.0148367
795.764	0.0148927
795.842	0.0147819
795.920	0.0148959
795.998	0.0148189
796.076	0.0147148
796.155	0.0148189
796.233	0.0147337
796.311	0.0146491
796.389	0.0147166
796.467	0.0148861
796.545	0.0147470
796.623	0.0146649
796.701	0.0147269
796.780	0.0146007
796.858	0.0146880
796.936	0.0145193
797.014	0.0146243
797.092	0.0146552
797.170	0.0145730
797.248	0.0147057
797.326	0.0145330
797.405	0.0145878
797.483	0.0144839
797.561	0.0146598
797.639	0.0147462
797.717	0.0146488
797.795	0.0148055
797.873	0.0147665
797.951	0.0147514
798.030	0.0147427
798.108	0.0147488
798.186	0.0148457
798.264	0.0147956
798.342	0.0148518
798.420	0.0149049
798.498	0.0148592
798.576	0.0148130
798.655	0.0148448
798.733	0.0148909
798.811	0.0148563
798.889	0.0148949
798.967	0.0148933
799.045	0.0148846
799.123	0.0150174
799.201	0.0148638
799.280	0.0147810
799.358	0.0149119
799.436	0.0150044
799.514	0.0150052
799.592	0.0150366
799.670	0.0149451
799.748	0.0150668
799.826	0.0150416
799.905	0.0151295
799.983	0.0151529
800.061	0.0151440
800.139	0.0150775
800.217	0.0150016
800.295	0.0151283
800.373	0.0149296
800.451	0.0149003
800.530	0.0149919
800.608	0.0150404
800.686	0.0149409
800.764	0.0147984
800.842	0.0146935
800.920	0.0147952
800.998	0.0146864
801.076	0.0147180
801.155	0.0146281
801.233	0.0146288
801.311	0.0148392
801.389	0.0146027
801.467	0.0146377
801.545	0.0148164
801.623	0.0148354
801.701	0.0148183
801.780	0.0147826
801.858	0.0147910
801.936	0.0149411
802.014	0.0148657
802.092	0.0149742
802.170	0.0150562
802.248	0.0149313
802.326	0.0149902
802.405	0.0150770
802.483	0.0151349
802.561	0.0151644
802.639	0.0150578
802.717	0.0150224
802.795	0.0149874
802.873	0.0150446
802.951	0.0149908
803.030	0.0148969
803.108	0.0150709
803.186	0.0151631
803.264	0.0149950
803.342	0.0148799
803.420	0.0149352
803.498	0.0148486
803.576	0.0147925
803.655	0.0148297
803.733	0.0148823
803.811	0.0148648
803.889	0.0147563
803.967	0.0148083
804.045	0.0148170
804.123	0.0149253
804.201	0.0147705
804.280	0.0148273
804.358	0.0149105
804.436	0.0148716
804.514	0.0148461
804.592	0.0148558
804.670	0.0148633
804.748	0.0149162
804.826	0.0150686
804.905	0.0149740
804.983	0.0149832
805.061	0.0147957
805.139	0.0149377
805.217	0.0149038
805.295	0.0149587
805.373	0.0150455
805.451	0.0150095
805.530	0.0149066
805.608	0.0149358
805.686	0.0148215
805.764	0.0147961
805.842	0.0149924
805.920	0.0149978
805.998	0.0148762
806.076	0.0149038
806.155	0.0150130
806.233	0.0148751
806.311	0.0148574
806.389	0.0148183
806.467	0.0148317
806.545	0.0148476
806.623	0.0147860
806.701	0.0148296
806.780	0.0148679
806.858	0.0148299
806.936	0.0148550
807.014	0.0150285
807.092	0.0149325
807.170	0.0148041
807.248	0.0148827
807.326	0.0148852
807.405	0.0150500
807.483	0.0150847
807.561	0.0150053
807.639	0.0151783
807.717	0.0151213
807.795	0.0150868
807.873	0.0152048
807.951	0.0151373
808.030	0.0152918
808.108	0.0152329
808.186	0.0150489
808.264	0.0151263
808.342	0.0152834
808.420	0.0149787
808.498	0.0150977
808.576	0.0151357
808.655	0.0151189
808.733	0.0149731
808.811	0.0150525
808.889	0.0150983
808.967	0.0148965
809.045	0.0148202
809.123	0.0149849
809.201	0.0149632
809.280	0.0148830
809.358	0.0149124
809.436	0.0149232
809.514	0.0149345
809.592	0.0151054
809.670	0.0150084
809.748	0.0149328
809.826	0.0148634
809.905	0.0149329
809.983	0.0149396
810.061	0.0148726
810.139	0.0148992
810.217	0.0149635
810.295	0.0149243
810.373	0.0149039
810.451	0.0148892
810.530	0.0148837
810.608	0.0147805
810.686	0.0148514
810.764	0.0148061
810.842	0.0146808
810.920	0.0147205
810.998	0.0148043
811.076	0.0146513
811.155	0.0147150
811.233	0.0148450
811.311	0.0149104
811.389	0.0148441
811.467	0.0146732
811.545	0.0147746
811.623	0.0148096
811.701	0.0149144
811.780	0.0147881
811.858	0.0148830
811.936	0.0148615
812.014	0.0149790
812.092	0.0149091
812.170	0.0148226
812.248	0.0149141
812.326	0.0148167
812.405	0.0149671
812.483	0.0151772
812.561	0.0151514
812.639	0.0149995
812.717	0.0150394
812.795	0.0149402
812.873	0.0149815
812.951	0.0148973
813.030	0.0148649
813.108	0.0149223
813.186	0.0149226
813.264	0.0150536
813.342	0.0149420
813.420	0.0147784
813.498	0.0148070
813.576	0.0148631
813.655	0.0148910
813.733	0.0148673
813.811	0.0148713
813.889	0.0148377
813.967	0.0147026
814.045	0.0148620
814.123	0.0147882
814.201	0.0147423
814.280	0.0146347
814.358	0.0148790
814.436	0.0148216
814.514	0.0147385
814.592	0.0145982
814.670	0.0146413
814.748	0.0147362
814.826	0.0146121
814.905	0.0146805
814.983	0.0147862
815.061	0.0145955
815.139	0.0146281
815.217	0.0147521
815.295	0.0147124
815.373	0.0146669
815.451	0.0148616
815.530	0.0147119
815.608	0.0147283
815.686	0.0149053
815.764	0.0148120
815.842	0.0147179
815.920	0.0147953
815.998	0.0148586
816.076	0.0147798
816.155	0.0147791
816.233	0.0149636
816.311	0.0148824
816.389	0.0149413
816.467	0.0147797
816.545	0.0148167
816.623	0.0148759
816.701	0.0147913
816.780	0.0148907
816.858	0.0149050
816.936	0.0148845
817.014	0.0148092
817.092	0.0149412
817.170	0.0148843
817.248	0.0148410
817.326	0.0150031
817.405	0.0149973
817.483	0.0149783
817.561	0.0148751
817.639	0.0149262
817.717	0.0148569
817.795	0.0148425
817.873	0.0149530
817.951	0.0149281
818.030	0.0148575
818.108	0.0150026
818.186	0.0150337
818.264	0.0150132
818.342	0.0148844
818.420	0.0148994
818.498	0.0149607
818.576	0.0148674
818.655	0.0148598
818.733	0.0149266
818.811	0.0148378
818.889	0.0148660
818.967	0.0146067
819.045	0.0146468
819.123	0.0147367
819.201	0.0146561
819.280	0.0146508
819.358	0.0146111
819.436	0.0145512
819.514	0.0148607
819.592	0.0145594
819.670	0.0146430
819.748	0.0146447
819.826	0.0145290
819.905	0.0146299
819.983	0.0145990
820.061	0.0145571
820.139	0.0146237
820.217	0.0146389
820.295	0.0145955
820.373	0.0145143
820.451	0.0144635
820.530	0.0146405
820.608	0.0147224
820.686	0.0146476
820.764	0.0147396
820.842	0.0148350
820.920	0.0146770
820.998	0.0148102
821.076	0.0146644
821.155	0.0147128
821.233	0.0148282
821.311	0.0147341
821.389	0.0147866
821.467	0.0148582
821.545	0.0148463
821.623	0.0146602
821.701	0.0148129
821.780	0.0149660
821.858	0.0148973
821.936	0.0147815
822.014	0.0148016
822.092	0.0148228
822.170	0.0148730
822.248	0.0149065
822.326	0.0149257
822.405	0.0148672
822.483	0.0149744
822.561	0.0150138
822.639	0.0148650
822.717	0.0148515
822.795	0.0149708
822.873	0.0151351
822.951	0.0150913
823.030	0.0149644
823.108	0.0150996
823.186	0.0149425
823.264	0.0150146
823.342	0.0149401
823.420	0.0150421
823.498	0.0150380
823.576	0.0148794
823.655	0.0149545
823.733	0.0149342
823.811	0.0148287
823.889	0.0149671
823.967	0.0148121
824.045	0.0148599
824.123	0.0148909
824.201	0.0147942
824.280	0.0148519
824.358	0.0150539
824.436	0.0149172
824.514	0.0149836
824.592	0.0148370
824.670	0.0147617
824.748	0.0148039
824.826	0.0148515
824.905	0.0148076
824.983	0.0149523
825.061	0.0147012
825.139	0.0145842
825.217	0.0146737
825.295	0.0146023
825.373	0.0146534
825.451	0.0146272
825.530	0.0145615
825.608	0.0145283
825.686	0.0146506
825.764	0.0147038
825.842	0.0145597
825.920	0.0146183
825.998	0.0147352
826.076	0.0147519
826.155	0.0147548
826.233	0.0147309
826.311	0.0147549
826.389	0.0148851
826.467	0.0146812
826.545	0.0147453
826.623	0.0147698
826.701	0.0148554
826.780	0.0149022
826.858	0.0150636
826.936	0.0149556
827.014	0.0149225
827.092	0.0149586
827.170	0.0149276
827.248	0.0148918
827.326	0.0149500
827.405	0.0150154
827.483	0.0149564
827.561	0.0149599
827.639	0.0149327
827.717	0.0150117
827.795	0.0149653
827.873	0.0149810
827.951	0.0149110
828.030	0.0150162
828.108	0.0150486
828.186	0.0149107
828.264	0.0148544
828.342	0.0148927
828.420	0.0151139
828.498	0.0149309
828.576	0.0149463
828.655	0.0149293
828.733	0.0150407
828.811	0.0150927
828.889	0.0150661
828.967	0.0151051
829.045	0.0149646
829.123	0.0150420
829.201	0.0150748
829.280	0.0150424
829.358	0.0149770
829.436	0.0149427
829.514	0.0149577
829.592	0.0150243
829.670	0.0149756
829.748	0.0149885
829.826	0.0150763
829.905	0.0150271
829.983	0.0150523
830.061	0.0149314
830.139	0.0150912
830.217	0.0148404
830.295	0.0150287
830.373	0.0148793
830.451	0.0148936
830.530	0.0149355
830.608	0.0149039
830.686	0.0149072
830.764	0.0148553
830.842	0.0149100
830.920	0.0147363
830.998	0.0148536
831.076	0.0148201
831.155	0.0149442
831.233	0.0149559
831.311	0.0149989
831.389	0.0148859
831.467	0.0151115
831.545	0.0150002
831.623	0.0151675
831.701	0.0152613
831.780	0.0150340
831.858	0.0150500
831.936	0.0149154
832.014	0.0151773
832.092	0.0151273
832.170	0.0152510
832.248	0.0152457
832.326	0.0151550
832.405	0.0150491
832.483	0.0152026
832.561	0.0153349
832.639	0.0152098
832.717	0.0152786
832.795	0.0152721
832.873	0.0152661
832.951	0.0152212
833.030	0.0153447
833.108	0.0152930
833.186	0.0152696
833.264	0.0152655
833.342	0.0152821
833.420	0.0152050
833.498	0.0152048
833.576	0.0151851
833.655	0.0151537
833.733	0.0150858
833.811	0.0152576
833.889	0.0150465
833.967	0.0150819
834.045	0.0150664
834.123	0.0150639
834.201	0.0149882
834.280	0.0150828
834.358	0.0149367
834.436	0.0148831
834.514	0.0150072
834.592	0.0149454
834.670	0.0148710
834.748	0.0149200
834.826	0.0149991
834.905	0.0150024
834.983	0.0148456
835.061	0.0149094
835.139	0.0149814
835.217	0.0149138
835.295	0.0148871
835.373	0.0148658
835.451	0.0148386
835.530	0.0149651
835.608	0.0148375
835.686	0.0148404
835.764	0.0149657
835.842	0.0148311
835.920	0.0148150
835.998	0.0148392
836.076	0.0147246
836.155	0.0148118
836.233	0.0146928
836.311	0.0146379
836.389	0.0146959
836.467	0.0147097
836.545	0.0146607
836.623	0.0146701
836.701	0.0147562
836.780	0.0147149
836.858	0.0145993
836.936	0.0146030
837.014	0.0147036
837.092	0.0147637
837.170	0.0146491
837.248	0.0146684
837.326	0.0146194
837.405	0.0147607
837.483	0.0148023
837.561	0.0147351
837.639	0.0147726
837.717	0.0147482
837.795	0.0146987
837.873	0.0148734
837.951	0.0148909
838.030	0.0147594
838.108	0.0147966
838.186	0.0148305
838.264	0.0147522
838.342	0.0148689
838.420	0.0147807
838.498	0.0148116
838.576	0.0148487
838.655	0.0147686
838.733	0.0148113
838.811	0.0148100
838.889	0.0146706
838.967	0.0147532
839.045	0.0147504
839.123	0.0147447
839.201	0.0148670
839.280	0.0148163
839.358	0.0147458
839.436	0.0148860
839.514	0.0147704
839.592	0.0149699
839.670	0.0148642
839.748	0.0149541
839.826	0.0149329
839.905	0.0149308
839.983	0.0147644
840.061	0.0148994
840.139	0.0149210
840.217	0.0148197
840.295	0.0149106
840.373	0.0148561
840.451	0.0147138
840.530	0.0148782
840.608	0.0148691
840.686	0.0148038
840.764	0.0147111
840.842	0.0147337
840.920	0.0148368
840.998	0.0147221
841.076	0.0148290
841.155	0.0149342
841.233	0.0147215
841.311	0.0147509
841.389	0.0147832
841.467	0.0148782
841.545	0.0148172
841.623	0.0148492
841.701	0.0148693
841.780	0.0147736
841.858	0.0147687
841.936	0.0148573
842.014	0.0148920
842.092	0.0148893
842.170	0.0147103
842.248	0.0147695
842.326	0.0148672
842.405	0.0147861
842.483	0.0147139
842.561	0.0147871
842.639	0.0146329
842.717	0.0148049
842.795	0.0146854
842.873	0.0147093
842.951	0.0147906
843.030	0.0146268
843.108	0.0146412
843.186	0.0146983
843.264	0.0147884
843.342	0.0146774
843.420	0.0145638
843.498	0.0146145
843.576	0.0148065
843.655	0.0145181
843.733	0.0149337
843.811	0.0147656
843.889	0.0148290
843.967	0.0147558
844.045	0.0147529
844.123	0.0146408
844.201	0.0147964
844.280	0.0145820
844.358	0.0147033
844.436	0.0147990
844.514	0.0147215
844.592	0.0147686
844.670	0.0148434
844.748	0.0147451
844.826	0.0146707
844.905	0.0148378
844.983	0.0147295
845.061	0.0147440
845.139	0.0148132
845.217	0.0149584
845.295	0.0147995
845.373	0.0147949
845.451	0.0149572
845.530	0.0148578
845.608	0.0150018
845.686	0.0149765
845.764	0.0147708
845.842	0.0149421
845.920	0.0149893
845.998	0.0150341
846.076	0.0148721
846.155	0.0150028
846.233	0.0149601
846.311	0.0149343
846.389	0.0149110
846.467	0.0148687
846.545	0.0148055
846.623	0.0149310
846.701	0.0149216
846.780	0.0148318
846.858	0.0149026
846.936	0.0149364
847.014	0.0148518
847.092	0.0147137
847.170	0.0148029
847.248	0.0148692
847.326	0.0147579
847.405	0.0148566
847.483	0.0149003
847.561	0.0148569
847.639	0.0149245
847.717	0.0149097
847.795	0.0148209
847.873	0.0149257
847.951	0.0148584
848.030	0.0149075
848.108	0.0149830
848.186	0.0149219
848.264	0.0148608
848.342	0.0149557
848.420	0.0149408
848.498	0.0148421
848.576	0.0148080
848.655	0.0147500
848.733	0.0148059
848.811	0.0149539
848.889	0.0148264
848.967	0.0148117
849.045	0.0148558
849.123	0.0148979
849.201	0.0148535
849.280	0.0149406
849.358	0.0147869
849.436	0.0149883
849.514	0.0149464
849.592	0.0149171
849.670	0.0149339
849.748	0.0148798
849.826	0.0148631
849.905	0.0150638
849.983	0.0148328
850.061	0.0147889
850.139	0.0150424
850.217	0.0148775
850.295	0.0149545
850.373	0.0148209
850.451	0.0150468
850.530	0.0149324
850.608	0.0148734
850.686	0.0149708
850.764	0.0149150
850.842	0.0147272
850.920	0.0148191
850.998	0.0149079
851.076	0.0148681
851.155	0.0147964
851.233	0.0148091
851.311	0.0147608
851.389	0.0149476
851.467	0.0149017
851.545	0.0147384
851.623	0.0147797
851.701	0.0149603
851.780	0.0147349
851.858	0.0149281
851.936	0.0150161
852.014	0.0148236
852.092	0.0149979
852.170	0.0150034
852.248	0.0149452
852.326	0.0147878
852.405	0.0148476
852.483	0.0149135
852.561	0.0149590
852.639	0.0148264
852.717	0.0149192
852.795	0.0149442
852.873	0.0148535
852.951	0.0148355
853.030	0.0150100
853.108	0.0149238
853.186	0.0149196
853.264	0.0149841
853.342	0.0148335
853.420	0.0149590
853.498	0.0150576
853.576	0.0150493
853.655	0.0149226
853.733	0.0148841
853.811	0.0150087
853.889	0.0149705
853.967	0.0150175
854.045	0.0149605
854.123	0.0150096
854.201	0.0149696
854.280	0.0149870
854.358	0.0149911
854.436	0.0149936
854.514	0.0150230
854.592	0.0150394
854.670	0.0150021
854.748	0.0150412
854.826	0.0150713
854.905	0.0150300
854.983	0.0149464
855.061	0.0150504
855.139	0.0149860
855.217	0.0150404
855.295	0.0149768
855.373	0.0150504
855.451	0.0148497
855.530	0.0148360
855.608	0.0150188
855.686	0.0150691
855.764	0.0149230
855.842	0.0147934
855.920	0.0149115
855.998	0.0148520
856.076	0.0149347
856.155	0.0148759
856.233	0.0149602
856.311	0.0150652
856.389	0.0149923
856.467	0.0148885
856.545	0.0151605
856.623	0.0149290
856.701	0.0149690
856.780	0.0151881
856.858	0.0151240
856.936	0.0149256
857.014	0.0150510
857.092	0.0150523
857.170	0.0150085
857.248	0.0148946
857.326	0.0148723
857.405	0.0149165
857.483	0.0150264
857.561	0.0149505
857.639	0.0149300
857.717	0.0149818
857.795	0.0149717
857.873	0.0148200
857.951	0.0150015
858.030	0.0149349
858.108	0.0148861
858.186	0.0150172
858.264	0.0151249
858.342	0.0149962
858.420	0.0151633
858.498	0.0151620
858.576	0.0149870
858.655	0.0149619
858.733	0.0150059
858.811	0.0151331
858.889	0.0150786
858.967	0.0150244
859.045	0.0150454
859.123	0.0149515
859.201	0.0149678
859.280	0.0149715
859.358	0.0149088
859.436	0.0148647
859.514	0.0149870
859.592	0.0150296
859.670	0.0149090
859.748	0.0149007
859.826	0.0148531
859.905	0.0149179
859.983	0.0148717
860.061	0.0150620
860.139	0.0149614
860.217	0.0149340
860.295	0.0149335
860.373	0.0149879
860.451	0.0151007
860.530	0.0149546
860.608	0.0149920
860.686	0.0148579
860.764	0.0150900
860.842	0.0149947
860.920	0.0149633
860.998	0.0149640
861.076	0.0148889
861.155	0.0149194
861.233	0.0149411
861.311	0.0149958
861.389	0.0150385
861.467	0.0150377
861.545	0.0149371
861.623	0.0148950
861.701	0.0149075
861.780	0.0150504
861.858	0.0150001
861.936	0.0149361
862.014	0.0149005
862.092	0.0148083
862.170	0.0149680
862.248	0.0150639
862.326	0.0149765
862.405	0.0149532
862.483	0.0150419
862.561	0.0150988
862.639	0.0150719
862.717	0.0149897
862.795	0.0149214
862.873	0.0149079
862.951	0.0149563
863.030	0.0150272
863.108	0.0150098
863.186	0.0148692
863.264	0.0149837
863.342	0.0150591
863.420	0.0149467
863.498	0.0149018
863.576	0.0150303
863.655	0.0149840
863.733	0.0149935
863.811	0.0149353
863.889	0.0148957
863.967	0.0149973
864.045	0.0148949
864.123	0.0149062
864.201	0.0150140
864.280	0.0150634
864.358	0.0150209
864.436	0.0149342
864.514	0.0151607
864.592	0.0149902
864.670	0.0150211
864.748	0.0149979
864.826	0.0150846
864.905	0.0151022
864.983	0.0151419
865.061	0.0150873
865.139	0.0149607
865.217	0.0150625
865.295	0.0149754
865.373	0.0148947
865.451	0.0149631
865.530	0.0150240
865.608	0.0149976
865.686	0.0148338
865.764	0.0148306
865.842	0.0148969
865.920	0.0148168
865.998	0.0148791
866.076	0.0150389
866.155	0.0149755
866.233	0.0148296
866.311	0.0148676
866.389	0.0148503
866.467	0.0149911
866.545	0.0149827
866.623	0.0149156
866.701	0.0150626
866.780	0.0148956
866.858	0.0148965
866.936	0.0149879
867.014	0.0149452
867.092	0.0148955
867.170	0.0148059
867.248	0.0147774
867.326	0.0148698
867.405	0.0149673
867.483	0.0149084
867.561	0.0148882
867.639	0.0148769
867.717	0.0149976
867.795	0.0147974
867.873	0.0148026
867.951	0.0149489
868.030	0.0148471
868.108	0.0149146
868.186	0.0147895
868.264	0.0147544
868.342	0.0146715
868.420	0.0148413
868.498	0.0148385
868.576	0.0148374
868.655	0.0149030
868.733	0.0149746
868.811	0.0150153
868.889	0.0150990
868.967	0.0149766
869.045	0.0148889
869.123	0.0150921
869.201	0.0149743
869.280	0.0150359
869.358	0.0149019
869.436	0.0151128
869.514	0.0149927
869.592	0.0148415
869.670	0.0149310
869.748	0.0150154
869.826	0.0148463
869.905	0.0147839
869.983	0.0149191
870.061	0.0149349
870.139	0.0148143
870.217	0.0148900
870.295	0.0148532
870.373	0.0148311
870.451	0.0149256
870.530	0.0148313
870.608	0.0148136
870.686	0.0147076
870.764	0.0148851
870.842	0.0148784
870.920	0.0148433
870.998	0.0148848
871.076	0.0150439
871.155	0.0149529
871.233	0.0148836
871.311	0.0148186
871.389	0.0150476
871.467	0.0149850
871.545	0.0149310
871.623	0.0148921
871.701	0.0148358
871.780	0.0148382
871.858	0.0149130
871.936	0.0148746
872.014	0.0149087
872.092	0.0147491
872.170	0.0147701
872.248	0.0147295
872.326	0.0147788
872.405	0.0148215
872.483	0.0148643
872.561	0.0147073
872.639	0.0147651
872.717	0.0148645
872.795	0.0147834
872.873	0.0147401
872.951	0.0148930
873.030	0.0147527
873.108	0.0149762
873.186	0.0149056
873.264	0.0147813
873.342	0.0149089
873.420	0.0149395
873.498	0.0148187
873.576	0.0149189
873.655	0.0148833
873.733	0.0148457
873.811	0.0148676
873.889	0.0147960
873.967	0.0148244
874.045	0.0148320
874.123	0.0146744
874.201	0.0147217
874.280	0.0147557
874.358	0.0147434
874.436	0.0147899
874.514	0.0148283
874.592	0.0147730
874.670	0.0148129
874.748	0.0148019
874.826	0.0148727
874.905	0.0148584
874.983	0.0148905
875.061	0.0148321
875.139	0.0148569
875.217	0.0148528
875.295	0.0148234
875.373	0.0149326
875.451	0.0149538
875.530	0.0148784
875.608	0.0148592
875.686	0.0148756
875.764	0.0147611
875.842	0.0150399
875.920	0.0149378
875.998	0.0149001
876.076	0.0148717
876.155	0.0149711
876.233	0.0147821
876.311	0.0148616
876.389	0.0147407
876.467	0.0150068
876.545	0.0147623
876.623	0.0148764
876.701	0.0148570
876.780	0.0147667
876.858	0.0148488
876.936	0.0147784
877.014	0.0148667
877.092	0.0149880
877.170	0.0149142
877.248	0.0148839
877.326	0.0148750
877.405	0.0151080
877.483	0.0149134
877.561	0.0149644
877.639	0.0150188
877.717	0.0150566
877.795	0.0150613
877.873	0.0150516
877.951	0.0149452
878.030	0.0150397
878.108	0.0150720
878.186	0.0149661
878.264	0.0148555
878.342	0.0149146
878.420	0.0149763
878.498	0.0149688
878.576	0.0148980
878.655	0.0149228
878.733	0.0149230
878.811	0.0150507
878.889	0.0149018
878.967	0.0148113
879.045	0.0150493
879.123	0.0149756
879.201	0.0149241
879.280	0.0149166
879.358	0.0149650
879.436	0.0149002
879.514	0.0148898
879.592	0.0149550
879.670	0.0148248
879.748	0.0147856
879.826	0.0149379
879.905	0.0148235
879.983	0.0149278
880.061	0.0149359
880.139	0.0149977
880.217	0.0150973
880.295	0.0150562
880.373	0.0150008
880.451	0.0150812
880.530	0.0151122
880.608	0.0151118
880.686	0.0149604
880.764	0.0150354
880.842	0.0151096
880.920	0.0152248
880.998	0.0150708
881.076	0.0150998
881.155	0.0151797
881.233	0.0150937
881.311	0.0152356
881.389	0.0151628
881.467	0.0152207
881.545	0.0152007
881.623	0.0151031
881.701	0.0150620
881.780	0.0151351
881.858	0.0151600
881.936	0.0151303
882.014	0.0150605
882.092	0.0149685
882.170	0.0152054
882.248	0.0149248
882.326	0.0151046
882.405	0.0149251
882.483	0.0150047
882.561	0.0150462
882.639	0.0148754
882.717	0.0148268
882.795	0.0149350
882.873	0.0149671
882.951	0.0148696
883.030	0.0149544
883.108	0.0150034
883.186	0.0149284
883.264	0.0150152
883.342	0.0150932
883.420	0.0150388
883.498	0.0149525
883.576	0.0150130
883.655	0.0150029
883.733	0.0150427
883.811	0.0149303
883.889	0.0148827
883.967	0.0149361
884.045	0.0149947
884.123	0.0148537
884.201	0.0150215
884.280	0.0148390
884.358	0.0147733
884.436	0.0148060
884.514	0.0148705
884.592	0.0149680
884.670	0.0149883
884.748	0.0148637
884.826	0.0149017
884.905	0.0149264
884.983	0.0150723
885.061	0.0150035
885.139	0.0149545
885.217	0.0150157
885.295	0.0150629
885.373	0.0150024
885.451	0.0150828
885.530	0.0149872
885.608	0.0150351
885.686	0.0150019
885.764	0.0151945
885.842	0.0150620
885.920	0.0148507
885.998	0.0151212
886.076	0.0151020
886.155	0.0149741
886.233	0.0151208
886.311	0.0152431
886.389	0.0150607
886.467	0.0150518
886.545	0.0150918
886.623	0.0151122
886.701	0.0148795
886.780	0.0148414
886.858	0.0149759
886.936	0.0148768
887.014	0.0150534
887.092	0.0149627
887.170	0.0147639
887.248	0.0149143
887.326	0.0147688
887.405	0.0146210
887.483	0.0150069
887.561	0.0148827
887.639	0.0147317
887.717	0.0149538
887.795	0.0150835
887.873	0.0149670
887.951	0.0149539
888.030	0.0150359
888.108	0.0149863
888.186	0.0149860
888.264	0.0149946
888.342	0.0149728
888.420	0.0150681
888.498	0.0151179
888.576	0.0150697
888.655	0.0150244
888.733	0.0151247
888.811	0.0150412
888.889	0.0149567
888.967	0.0150094
889.045	0.0152106
889.123	0.0151057
889.201	0.0150689
889.280	0.0150126
889.358	0.0150717
889.436	0.0149287
889.514	0.0149761
889.592	0.0148491
889.670	0.0149674
889.748	0.0150316
889.826	0.0148286
889.905	0.0148233
889.983	0.0148358
890.061	0.0148602
890.139	0.0149113
890.217	0.0147765
890.295	0.0150797
890.373	0.0148658
890.451	0.0148699
890.530	0.0149399
890.608	0.0150063
890.686	0.0150035
890.764	0.0149387
890.842	0.0150494
890.920	0.0150397
890.998	0.0148840
891.076	0.0149940
891.155	0.0149543
891.233	0.0149297
891.311	0.0149050
891.389	0.0150122
891.467	0.0150967
891.545	0.0148362
891.623	0.0148720
891.701	0.0148952
891.780	0.0149001
891.858	0.0149550
891.936	0.0148335
892.014	0.0148717
892.092	0.0148441
892.170	0.0149557
892.248	0.0148531
892.326	0.0148272
892.405	0.0149297
892.483	0.0148451
892.561	0.0147997
892.639	0.0148775
892.717	0.0148605
892.795	0.0148337
892.873	0.0148864
892.951	0.0148404
893.030	0.0149238
893.108	0.0149660
893.186	0.0149901
893.264	0.0148385
893.342	0.0149385
893.420	0.0147732
893.498	0.0148463
893.576	0.0149091
893.655	0.0148520
893.733	0.0148399
893.811	0.0149780
893.889	0.0149802
893.967	0.0150375
894.045	0.0150201
894.123	0.0149047
894.201	0.0149260
894.280	0.0148280
894.358	0.0148742
894.436	0.0148682
894.514	0.0149610
894.592	0.0150150
894.670	0.0147898
894.748	0.0148139
894.826	0.0148881
894.905	0.0147787
894.983	0.0148264
895.061	0.0147429
895.139	0.0148853
895.217	0.0148621
895.295	0.0148030
895.373	0.0148339
895.451	0.0147979
895.530	0.0148744
895.608	0.0148351
895.686	0.0147433
895.764	0.0147350
895.842	0.0149657
895.920	0.0148656
895.998	0.0148412
896.076	0.0147484
896.155	0.0147578
896.233	0.0148681
896.311	0.0149152
896.389	0.0147971
896.467	0.0147123
896.545	0.0146866
896.623	0.0148575
896.701	0.0146783
896.780	0.0147797
896.858	0.0147782
896.936	0.0148853
897.014	0.0148478
897.092	0.0148152
897.170	0.0147502
897.248	0.0148832
897.326	0.0147784
897.405	0.0149113
897.483	0.0149252
897.561	0.0149140
897.639	0.0148198
897.717	0.0147541
897.795	0.0147557
897.873	0.0149749
897.951	0.0149082
898.030	0.0149487
898.108	0.0148119
898.186	0.0147334
898.264	0.0148543
898.342	0.0146587
898.420	0.0147304
898.498	0.0146777
898.576	0.0147927
898.655	0.0146729
898.733	0.0147741
898.811	0.0148088
898.889	0.0146179
898.967	0.0146720
899.045	0.0147800
899.123	0.0148186
899.201	0.0148141
899.280	0.0147479
899.358	0.0147904
899.436	0.0149355
899.514	0.0147664
899.592	0.0148520
899.670	0.0147514
899.748	0.0147993
899.826	0.0148495
899.905	0.0148866
899.983	0.0149269
900.061	0.0148699
900.139	0.0148913
900.217	0.0148449
900.295	0.0148129
900.373	0.0150259
900.451	0.0148567
900.530	0.0147094
900.608	0.0148275
900.686	0.0149079
900.764	0.0148078
900.842	0.0148563
900.920	0.0149459
900.998	0.0148512
901.076	0.0148895
901.155	0.0148242
901.233	0.0148525
901.311	0.0148694
901.389	0.0148339
901.467	0.0148724
901.545	0.0147832
901.623	0.0148540
901.701	0.0146736
901.780	0.0148249
901.858	0.0148631
901.936	0.0147229
902.014	0.0146846
902.092	0.0146796
902.170	0.0147573
902.248	0.0149265
902.326	0.0148909
902.405	0.0147950
902.483	0.0149461
902.561	0.0148786
902.639	0.0149004
902.717	0.0148793
902.795	0.0150153
902.873	0.0148480
902.951	0.0148370
903.030	0.0149895
903.108	0.0150300
903.186	0.0150179
903.264	0.0148665
903.342	0.0148889
903.420	0.0148571
903.498	0.0149451
903.576	0.0149229
903.655	0.0149759
903.733	0.0149025
903.811	0.0148421
903.889	0.0148473
903.967	0.0148715
904.045	0.0149299
904.123	0.0148318
904.201	0.0150128
904.280	0.0149184
904.358	0.0147855
904.436	0.0148039
904.514	0.0148667
904.592	0.0149978
904.670	0.0149487
904.748	0.0149075
904.826	0.0147536
904.905	0.0148515
904.983	0.0147725
905.061	0.0149049
905.139	0.0147775
905.217	0.0148257
905.295	0.0148360
905.373	0.0147290
905.451	0.0147137
905.530	0.0147942
905.608	0.0148410
905.686	0.0147176
905.764	0.0149875
905.842	0.0148301
905.920	0.0149656
905.998	0.0148433
906.076	0.0149389
906.155	0.0149046
906.233	0.0148818
906.311	0.0149641
906.389	0.0148289
906.467	0.0148866
906.545	0.0150919
906.623	0.0150260
906.701	0.0150322
906.780	0.0150768
906.858	0.0149789
906.936	0.0149077
907.014	0.0151221
907.092	0.0149790
907.170	0.0151267
907.248	0.0151304
907.326	0.0150803
907.405	0.0151174
907.483	0.0149138
907.561	0.0150418
907.639	0.0151260
907.717	0.0150539
907.795	0.0150214
907.873	0.0148240
907.951	0.0148711
908.030	0.0149336
908.108	0.0149277
908.186	0.0149587
908.264	0.0149623
908.342	0.0148845
908.420	0.0148906
908.498	0.0149329
908.576	0.0150069
908.655	0.0148736
908.733	0.0148895
908.811	0.0148332
908.889	0.0149704
908.967	0.0149117
909.045	0.0150858
909.123	0.0148299
909.201	0.0147833
909.280	0.0149914
909.358	0.0150094
909.436	0.0149632
909.514	0.0150050
909.592	0.0149330
909.670	0.0149493
909.748	0.0150529
909.826	0.0150081
909.905	0.0148834
909.983	0.0150752
910.061	0.0150212
910.139	0.0149970
910.217	0.0150933
910.295	0.0149682
910.373	0.0149689
910.451	0.0150142
910.530	0.0149485
910.608	0.0148625
910.686	0.0150141
910.764	0.0149960
910.842	0.0149334
910.920	0.0148502
910.998	0.0148623
911.076	0.0149500
911.155	0.0151139
911.233	0.0150165
911.311	0.0150760
911.389	0.0151257
911.467	0.0150542
911.545	0.0151165
911.623	0.0150468
911.701	0.0150744
911.780	0.0149382
911.858	0.0149895
911.936	0.0150536
912.014	0.0149226
912.092	0.0150852
912.170	0.0150607
912.248	0.0151379
912.326	0.0149321
912.405	0.0149600
912.483	0.0150048
912.561	0.0150482
912.639	0.0150716
912.717	0.0150174
912.795	0.0151430
912.873	0.0150474
912.951	0.0148893
913.030	0.0149780
913.108	0.0149960
913.186	0.0149951
913.264	0.0150264
913.342	0.0149430
913.420	0.0149429
913.498	0.0147928
913.576	0.0149075
913.655	0.0147430
913.733	0.0147716
913.811	0.0148817
913.889	0.0146926
913.967	0.0148611
914.045	0.0148603
914.123	0.0148257
914.201	0.0148894
914.280	0.0149604
914.358	0.0147308
914.436	0.0146448
914.514	0.0148005
914.592	0.0148007
914.670	0.0149178
914.748	0.0148714
914.826	0.0147285
914.905	0.0148495
914.983	0.0149745
915.061	0.0150076
915.139	0.0149126
915.217	0.0148248
915.295	0.0148925
915.373	0.0150167
915.451	0.0149040
915.530	0.0150123
915.608	0.0150780
915.686	0.0149924
915.764	0.0147626
915.842	0.0148867
915.920	0.0149114
915.998	0.0149290
916.076	0.0149292
916.155	0.0148330
916.233	0.0147555
916.311	0.0149749
916.389	0.0149271
916.467	0.0147821
916.545	0.0149260
916.623	0.0148504
916.701	0.0149986
916.780	0.0149127
916.858	0.0147192
916.936	0.0146550
917.014	0.0147237
917.092	0.0149217
917.170	0.0147075
917.248	0.0148032
917.326	0.0148454
917.405	0.0146275
917.483	0.0149282
917.561	0.0149442
917.639	0.0148583
917.717	0.0148566
917.795	0.0149239
917.873	0.0148539
917.951	0.0149049
918.030	0.0150553
918.108	0.0149629
918.186	0.0149634
918.264	0.0149052
918.342	0.0149915
918.420	0.0149748
918.498	0.0148993
918.576	0.0148848
918.655	0.0148119
918.733	0.0148523
918.811	0.0149705
918.889	0.0147800
918.967	0.0148064
919.045	0.0148715
919.123	0.0148829
919.201	0.0148404
919.280	0.0148718
919.358	0.0147363
919.436	0.0149161
919.514	0.0148322
919.592	0.0147770
919.670	0.0147609
919.748	0.0148882
919.826	0.0148323
919.905	0.0148006
919.983	0.0148271
920.061	0.0148187
920.139	0.0148331
920.217	0.0148920
920.295	0.0148709
920.373	0.0148551
920.451	0.0149189
920.530	0.0148948
920.608	0.0148649
920.686	0.0147604
920.764	0.0147755
920.842	0.0149257
920.920	0.0148715
920.998	0.0148426
921.076	0.0147221
921.155	0.0148057
921.233	0.0148125
921.311	0.0148582
921.389	0.0148163
921.467	0.0147312
921.545	0.0148675
921.623	0.0148520
921.701	0.0148667
921.780	0.0148094
921.858	0.0148193
921.936	0.0147743
922.014	0.0148275
922.092	0.0147697
922.170	0.0148370
922.248	0.0147412
922.326	0.0146961
922.405	0.0148209
922.483	0.0147688
922.561	0.0147212
922.639	0.0146458
922.717	0.0148744
922.795	0.0147527
922.873	0.0148157
922.951	0.0149419
923.030	0.0148546
923.108	0.0147876
923.186	0.0148430
923.264	0.0148693
923.342	0.0148621
923.420	0.0150203
923.498	0.0149995
923.576	0.0149282
923.655	0.0149304
923.733	0.0149224
923.811	0.0150041
923.889	0.0149316
923.967	0.0148113
924.045	0.0149086
924.123	0.0148526
924.201	0.0149019
924.280	0.0150442
924.358	0.0149902
924.436	0.0149200
924.514	0.0148639
924.592	0.0148724
924.670	0.0148489
924.748	0.0148370
924.826	0.0148361
924.905	0.0147842
924.983	0.0148526
925.061	0.0148122
925.139	0.0146990
925.217	0.0148072
925.295	0.0147469
925.373	0.0147974
925.451	0.0148230
925.530	0.0147483
925.608	0.0149276
925.686	0.0149270
925.764	0.0147776
925.842	0.0149107
925.920	0.0147671
925.998	0.0147353
926.076	0.0149422
926.155	0.0149253
926.233	0.0147601
926.311	0.0148388
926.389	0.0147893
926.467	0.0148525
926.545	0.0148467
926.623	0.0148836
926.701	0.0148270
926.780	0.0147621
926.858	0.0148817
926.936	0.0148350
927.014	0.0146094
927.092	0.0149261
927.170	0.0147729
927.248	0.0148661
927.326	0.0150253
927.405	0.0149192
927.483	0.0149570
927.561	0.0150635
927.639	0.0149859
927.717	0.0149692
927.795	0.0149684
927.873	0.0150014
927.951	0.0149699
928.030	0.0149992
928.108	0.0150499
928.186	0.0149505
928.264	0.0149893
928.342	0.0149574
928.420	0.0150410
928.498	0.0151782
928.576	0.0151130
928.655	0.0149173
928.733	0.0149407
928.811	0.0150809
928.889	0.0149062
928.967	0.0148762
929.045	0.0148766
929.123	0.0149189
929.201	0.0148787
929.280	0.0148270
929.358	0.0149601
929.436	0.0148689
929.514	0.0148707
929.592	0.0148544
929.670	0.0149011
929.748	0.0147940
929.826	0.0148727
929.905	0.0147665
929.983	0.0147357
930.061	0.0147881
930.139	0.0147722
930.217	0.0149300
930.295	0.0149095
930.373	0.0148402
930.451	0.0148244
930.530	0.0148631
930.608	0.0148917
930.686	0.0148744
930.764	0.0148367
930.842	0.0150553
930.920	0.0149409
930.998	0.0148622
931.076	0.0148561
931.155	0.0150103
931.233	0.0148997
931.311	0.0148675
931.389	0.0149151
931.467	0.0148293
931.545	0.0149258
931.623	0.0148730
931.701	0.0149758
931.780	0.0148524
931.858	0.0148048
931.936	0.0149634
932.014	0.0148215
932.092	0.0149239
932.170	0.0149631
932.248	0.0148801
932.326	0.0148395
932.405	0.0149137
932.483	0.0149059
932.561	0.0149137
932.639	0.0148932
932.717	0.0150041
932.795	0.0149358
932.873	0.0148565
932.951	0.0149167
933.030	0.0149226
933.108	0.0147502
933.186	0.0149293
933.264	0.0149693
933.342	0.0149883
933.420	0.0148186
933.498	0.0148997
933.576	0.0148540
933.655	0.0148101
933.733	0.0148495
933.811	0.0149789
933.889	0.0148943
933.967	0.0149339
934.045	0.0149577
934.123	0.0148320
934.201	0.0149100
934.280	0.0148315
934.358	0.0149525
934.436	0.0148936
934.514	0.0148640
934.592	0.0149113
934.670	0.0147654
934.748	0.0148920
934.826	0.0147576
934.905	0.0147352
934.983	0.0148798
935.061	0.0148943
935.139	0.0148521
935.217	0.0149326
935.295	0.0147932
935.373	0.0146810
935.451	0.0148616
935.530	0.0148219
935.608	0.0147983
935.686	0.0148290
935.764	0.0147752
935.842	0.0148417
935.920	0.0148898
935.998	0.0149423
936.076	0.0148377
936.155	0.0149925
936.233	0.0148483
936.311	0.0149574
936.389	0.0149974
936.467	0.0148819
936.545	0.0150507
936.623	0.0149186
936.701	0.0150214
936.780	0.0149191
936.858	0.0149755
936.936	0.0150239
937.014	0.0149887
937.092	0.0149487
937.170	0.0149510
937.248	0.0149209
937.326	0.0149508
937.405	0.0150478
937.483	0.0148541
937.561	0.0149776
937.639	0.0150117
937.717	0.0149387
937.795	0.0150249
937.873	0.0150034
937.951	0.0149776
938.030	0.0149660
938.108	0.0148882
938.186	0.0149692
938.264	0.0149863
938.342	0.0148225
938.420	0.0148883
938.498	0.0148032
938.576	0.0150079
938.655	0.0149718
938.733	0.0148408
938.811	0.0148849
938.889	0.0148699
938.967	0.0148799
939.045	0.0148786
939.123	0.0148165
939.201	0.0150102
939.280	0.0148947
939.358	0.0148623
939.436	0.0149608
939.514	0.0149477
939.592	0.0150972
939.670	0.0149205
939.748	0.0147989
939.826	0.0149384
939.905	0.0149176
939.983	0.0148144
940.061	0.0149771
940.139	0.0148850
940.217	0.0148737
940.295	0.0150771
940.373	0.0148778
940.451	0.0148828
940.530	0.0148740
940.608	0.0149519
940.686	0.0150654
940.764	0.0150609
940.842	0.0148434
940.920	0.0150352
940.998	0.0149750
941.076	0.0149606
941.155	0.0150330
941.233	0.0150114
941.311	0.0149030
941.389	0.0150591
941.467	0.0150301
941.545	0.0150842
941.623	0.0149728
941.701	0.0150662
941.780	0.0150948
941.858	0.0150746
941.936	0.0150717
942.014	0.0150845
942.092	0.0152205
942.170	0.0150595
942.248	0.0150967
942.326	0.0150842
942.405	0.0151357
942.483	0.0150190
942.561	0.0149957
942.639	0.0148673
942.717	0.0149480
942.795	0.0149763
942.873	0.0148327
942.951	0.0148924
943.030	0.0148645
943.108	0.0148640
943.186	0.0148389
943.264	0.0148804
943.342	0.0148524
943.420	0.0148455
943.498	0.0148901
943.576	0.0148859
943.655	0.0148794
943.733	0.0148244
943.811	0.0148215
943.889	0.0147810
943.967	0.0148923
944.045	0.0149329
944.123	0.0149290
944.201	0.0148838
944.280	0.0148788
944.358	0.0148505
944.436	0.0149101
944.514	0.0148725
944.592	0.0148837
944.670	0.0149195
944.748	0.0148921
944.826	0.0147723
944.905	0.0148925
944.983	0.0148586
945.061	0.0148770
945.139	0.0148480
945.217	0.0148927
945.295	0.0149141
945.373	0.0149814
945.451	0.0150184
945.530	0.0148192
945.608	0.0147896
945.686	0.0148787
945.764	0.0148621
945.842	0.0147233
945.920	0.0148277
945.998	0.0148849
946.076	0.0147838
946.155	0.0147845
946.233	0.0147554
946.311	0.0149062
946.389	0.0148629
946.467	0.0148203
946.545	0.0149137
946.623	0.0148519
946.701	0.0149134
946.780	0.0147306
946.858	0.0148893
946.936	0.0150090
947.014	0.0148585
947.092	0.0148793
947.170	0.0149368
947.248	0.0148929
947.326	0.0148278
947.405	0.0150116
947.483	0.0149220
947.561	0.0148781
947.639	0.0148927
947.717	0.0149937
947.795	0.0150272
947.873	0.0150819
947.951	0.0150570
948.030	0.0148673
948.108	0.0148484
948.186	0.0148711
948.264	0.0149920
948.342	0.0148319
948.420	0.0148327
948.498	0.0149308
948.576	0.0149516
948.655	0.0149442
948.733	0.0147432
948.811	0.0149752
948.889	0.0149734
948.967	0.0147580
949.045	0.0148662
949.123	0.0150275
949.201	0.0148098
949.280	0.0148714
949.358	0.0148972
949.436	0.0149804
949.514	0.0148096
949.592	0.0148678
949.670	0.0149758
949.748	0.0149696
949.826	0.0147102
949.905	0.0149847
949.983	0.0148521
950.061	0.0148920
950.139	0.0149377
950.217	0.0149206
950.295	0.0149145
950.373	0.0149471
950.451	0.0149019
950.530	0.0148905
950.608	0.0148172
950.686	0.0147780
950.764	0.0149973
950.842	0.0149586
950.920	0.0149821
950.998	0.0149437
951.076	0.0149061
951.155	0.0149392
951.233	0.0148290
951.311	0.0148646
951.389	0.0147977
951.467	0.0147991
951.545	0.0148698
951.623	0.0148448
951.701	0.0149230
951.780	0.0148749
951.858	0.0148137
951.936	0.0145816
952.014	0.0147855
952.092	0.0149200
952.170	0.0148093
952.248	0.0146941
952.326	0.0147948
952.405	0.0148055
952.483	0.0148756
952.561	0.0149259
952.639	0.0149725
952.717	0.0149207
952.795	0.0147958
952.873	0.0149179
952.951	0.0149712
953.030	0.0149390
953.108	0.0149161
953.186	0.0148515
953.264	0.0149207
953.342	0.0149690
953.420	0.0150102
953.498	0.0148678
953.576	0.0149844
953.655	0.0150035
953.733	0.0150597
953.811	0.0149640
953.889	0.0148572
953.967	0.0149920
954.045	0.0148969
954.123	0.0149266
954.201	0.0149007
954.280	0.0148984
954.358	0.0148689
954.436	0.0148577
954.514	0.0148731
954.592	0.0149352
954.670	0.0147482
954.748	0.0148096
954.826	0.0148692
954.905	0.0150689
954.983	0.0148534
955.061	0.0149751
955.139	0.0149368
955.217	0.0150781
955.295	0.0150867
955.373	0.0150011
955.451	0.0150943
955.530	0.0150915
955.608	0.0150809
955.686	0.0150463
955.764	0.0150710
955.842	0.0150864
955.920	0.0151024
955.998	0.0150221
956.076	0.0150333
956.155	0.0150391
956.233	0.0149518
956.311	0.0150786
956.389	0.0149716
956.467	0.0149548
956.545	0.0149802
956.623	0.0148901
956.701	0.0149728
956.780	0.0148672
956.858	0.0149742
956.936	0.0149904
957.014	0.0149235
957.092	0.0149097
957.170	0.0148684
957.248	0.0149891
957.326	0.0149610
957.405	0.0149483
957.483	0.0150090
957.561	0.0150468
957.639	0.0149454
957.717	0.0149046
957.795	0.0150559
957.873	0.0149693
957.951	0.0149828
958.030	0.0148656
958.108	0.0149317
958.186	0.0150017
958.264	0.0150034
958.342	0.0148833
958.420	0.0149160
958.498	0.0149529
958.576	0.0149722
958.655	0.0149428
958.733	0.0149398
958.811	0.0149896
958.889	0.0148862
958.967	0.0150926
959.045	0.0149942
959.123	0.0148309
959.201	0.0149369
959.280	0.0149385
959.358	0.0148576
959.436	0.0150104
959.514	0.0150582
959.592	0.0150552
959.670	0.0149742
959.748	0.0150465
959.826	0.0151965
959.905	0.0151328
