05/20/2022	16:31:32	Ver.	4.1	UNKNOWN
Optical Delay	639.982744	Delta X		0.078125	Sweeps	1	Scan Rate	0/0
Coordinates	Axis 1	NaN	Axis 2	NaN	Axis 3	NaN	Axis 4	NaN	Axis 5	NaN	Axis 6	0.000000
TX Power	0.000000	RX Power	0.000000

639.983	0.0148393
640.061	0.0148952
640.139	0.0148996
640.217	0.0147590
640.295	0.0147570
640.373	0.0147738
640.451	0.0149001
640.530	0.0147701
640.608	0.0149126
640.686	0.0148753
640.764	0.0147575
640.842	0.0148768
640.920	0.0147429
640.998	0.0148196
641.076	0.0147428
641.155	0.0148162
641.233	0.0148383
641.311	0.0148043
641.389	0.0149964
641.467	0.0149104
641.545	0.0147953
641.623	0.0149090
641.701	0.0149118
641.780	0.0149564
641.858	0.0149448
641.936	0.0149062
642.014	0.0148010
642.092	0.0149086
642.170	0.0149504
642.248	0.0148948
642.326	0.0149818
642.405	0.0150217
642.483	0.0148949
642.561	0.0149802
642.639	0.0149242
642.717	0.0150386
642.795	0.0151198
642.873	0.0149998
642.951	0.0149750
643.030	0.0149799
643.108	0.0151186
643.186	0.0150517
643.264	0.0148621
643.342	0.0149342
643.420	0.0149833
643.498	0.0149181
643.576	0.0149403
643.655	0.0150181
643.733	0.0147583
643.811	0.0148640
643.889	0.0149064
643.967	0.0148287
644.045	0.0148483
644.123	0.0148193
644.201	0.0148280
644.280	0.0147910
644.358	0.0148364
644.436	0.0149438
644.514	0.0147506
644.592	0.0149238
644.670	0.0148708
644.748	0.0148501
644.826	0.0147687
644.905	0.0148912
644.983	0.0149185
645.061	0.0150124
645.139	0.0149471
645.217	0.0150046
645.295	0.0149284
645.373	0.0149918
645.451	0.0149569
645.530	0.0149469
645.608	0.0151297
645.686	0.0148869
645.764	0.0149647
645.842	0.0150257
645.920	0.0149712
645.998	0.0149226
646.076	0.0148901
646.155	0.0150021
646.233	0.0149260
646.311	0.0148779
646.389	0.0148386
646.467	0.0149768
646.545	0.0148285
646.623	0.0149625
646.701	0.0148193
646.780	0.0148548
646.858	0.0148838
646.936	0.0150124
647.014	0.0149410
647.092	0.0148399
647.170	0.0149268
647.248	0.0149872
647.326	0.0148602
647.405	0.0148834
647.483	0.0150201
647.561	0.0148808
647.639	0.0149306
647.717	0.0149094
647.795	0.0150696
647.873	0.0149103
647.951	0.0149786
648.030	0.0149279
648.108	0.0149032
648.186	0.0148987
648.264	0.0148679
648.342	0.0149641
648.420	0.0149286
648.498	0.0148314
648.576	0.0148303
648.655	0.0148936
648.733	0.0148856
648.811	0.0149850
648.889	0.0149435
648.967	0.0149426
649.045	0.0149163
649.123	0.0148627
649.201	0.0149289
649.280	0.0147926
649.358	0.0148809
649.436	0.0149459
649.514	0.0149993
649.592	0.0148305
649.670	0.0149817
649.748	0.0149330
649.826	0.0149332
649.905	0.0147795
649.983	0.0149728
650.061	0.0150156
650.139	0.0150044
650.217	0.0149789
650.295	0.0149945
650.373	0.0149157
650.451	0.0149359
650.530	0.0150105
650.608	0.0148499
650.686	0.0148406
650.764	0.0148335
650.842	0.0149229
650.920	0.0148725
650.998	0.0148228
651.076	0.0149683
651.155	0.0149352
651.233	0.0148995
651.311	0.0147951
651.389	0.0148478
651.467	0.0147472
651.545	0.0148756
651.623	0.0148485
651.701	0.0147896
651.780	0.0147469
651.858	0.0148262
651.936	0.0148605
652.014	0.0149148
652.092	0.0147920
652.170	0.0147966
652.248	0.0149601
652.326	0.0148503
652.405	0.0148428
652.483	0.0149608
652.561	0.0149230
652.639	0.0149099
652.717	0.0149546
652.795	0.0149946
652.873	0.0148828
652.951	0.0149187
653.030	0.0148943
653.108	0.0150121
653.186	0.0149660
653.264	0.0148154
653.342	0.0150031
653.420	0.0148625
653.498	0.0148553
653.576	0.0148273
653.655	0.0147337
653.733	0.0148933
653.811	0.0148276
653.889	0.0148730
653.967	0.0146739
654.045	0.0147400
654.123	0.0148958
654.201	0.0149168
654.280	0.0150875
654.358	0.0148625
654.436	0.0147958
654.514	0.0150182
654.592	0.0149168
654.670	0.0148891
654.748	0.0149995
654.826	0.0149858
654.905	0.0148584
654.983	0.0148849
655.061	0.0149665
655.139	0.0148479
655.217	0.0148415
655.295	0.0147787
655.373	0.0149200
655.451	0.0149186
655.530	0.0147658
655.608	0.0148416
655.686	0.0148659
655.764	0.0147415
655.842	0.0148904
655.920	0.0149625
655.998	0.0148054
656.076	0.0148580
656.155	0.0148262
656.233	0.0148666
656.311	0.0149717
656.389	0.0147970
656.467	0.0149226
656.545	0.0148561
656.623	0.0147990
656.701	0.0147018
656.780	0.0148244
656.858	0.0148251
656.936	0.0147686
657.014	0.0148493
657.092	0.0148427
657.170	0.0147592
657.248	0.0148135
657.326	0.0149001
657.405	0.0149399
657.483	0.0148613
657.561	0.0147560
657.639	0.0148901
657.717	0.0148228
657.795	0.0148470
657.873	0.0148090
657.951	0.0146735
658.030	0.0148763
658.108	0.0148441
658.186	0.0146642
658.264	0.0148403
658.342	0.0147487
658.420	0.0147247
658.498	0.0149078
658.576	0.0148060
658.655	0.0147546
658.733	0.0148267
658.811	0.0148934
658.889	0.0148283
658.967	0.0150359
659.045	0.0149401
659.123	0.0150456
659.201	0.0148783
659.280	0.0148260
659.358	0.0149646
659.436	0.0149051
659.514	0.0148502
659.592	0.0147264
659.670	0.0148582
659.748	0.0148293
659.826	0.0148512
659.905	0.0147766
659.983	0.0147020
660.061	0.0148457
660.139	0.0148498
660.217	0.0149448
660.295	0.0148512
660.373	0.0148559
660.451	0.0150120
660.530	0.0150314
660.608	0.0148926
660.686	0.0149638
660.764	0.0149308
660.842	0.0150258
660.920	0.0149497
660.998	0.0150458
661.076	0.0149467
661.155	0.0149435
661.233	0.0149760
661.311	0.0149898
661.389	0.0149702
661.467	0.0149761
661.545	0.0149901
661.623	0.0149971
661.701	0.0148567
661.780	0.0148987
661.858	0.0148542
661.936	0.0149905
662.014	0.0149387
662.092	0.0148109
662.170	0.0149191
662.248	0.0149416
662.326	0.0150174
662.405	0.0149617
662.483	0.0149959
662.561	0.0150727
662.639	0.0151313
662.717	0.0151850
662.795	0.0151955
662.873	0.0151283
662.951	0.0151117
663.030	0.0150624
663.108	0.0148925
663.186	0.0150029
663.264	0.0150342
663.342	0.0149059
663.420	0.0149447
663.498	0.0149590
663.576	0.0147878
663.655	0.0147881
663.733	0.0148275
663.811	0.0149519
663.889	0.0149842
663.967	0.0147874
664.045	0.0148598
664.123	0.0149491
664.201	0.0149134
664.280	0.0149666
664.358	0.0149744
664.436	0.0150303
664.514	0.0149712
664.592	0.0149986
664.670	0.0150076
664.748	0.0149580
664.826	0.0149258
664.905	0.0149671
664.983	0.0150294
665.061	0.0150049
665.139	0.0149258
665.217	0.0150832
665.295	0.0149387
665.373	0.0149244
665.451	0.0150767
665.530	0.0149999
665.608	0.0149923
665.686	0.0150394
665.764	0.0149297
665.842	0.0148753
665.920	0.0149030
665.998	0.0149949
666.076	0.0150699
666.155	0.0149187
666.233	0.0149857
666.311	0.0149440
666.389	0.0149049
666.467	0.0147630
666.545	0.0148955
666.623	0.0150214
666.701	0.0149530
666.780	0.0150187
666.858	0.0148674
666.936	0.0148467
667.014	0.0149943
667.092	0.0149102
667.170	0.0150852
667.248	0.0150204
667.326	0.0149359
667.405	0.0151336
667.483	0.0151509
667.561	0.0149896
667.639	0.0150738
667.717	0.0151218
667.795	0.0149902
667.873	0.0149871
667.951	0.0150292
668.030	0.0150255
668.108	0.0149608
668.186	0.0149332
668.264	0.0149839
668.342	0.0148873
668.420	0.0148615
668.498	0.0149053
668.576	0.0147769
668.655	0.0147978
668.733	0.0148638
668.811	0.0148180
668.889	0.0146957
668.967	0.0147443
669.045	0.0147083
669.123	0.0148029
669.201	0.0147587
669.280	0.0148742
669.358	0.0148190
669.436	0.0148548
669.514	0.0148154
669.592	0.0149318
669.670	0.0149804
669.748	0.0149724
669.826	0.0149660
669.905	0.0149211
669.983	0.0148640
670.061	0.0150716
670.139	0.0149498
670.217	0.0149252
670.295	0.0149720
670.373	0.0149563
670.451	0.0150146
670.530	0.0149185
670.608	0.0149071
670.686	0.0149564
670.764	0.0147857
670.842	0.0149403
670.920	0.0149495
670.998	0.0149751
671.076	0.0149861
671.155	0.0148174
671.233	0.0148856
671.311	0.0149689
671.389	0.0148851
671.467	0.0148167
671.545	0.0149027
671.623	0.0149196
671.701	0.0147293
671.780	0.0147762
671.858	0.0147182
671.936	0.0147983
672.014	0.0147768
672.092	0.0147259
672.170	0.0148598
672.248	0.0147189
672.326	0.0147275
672.405	0.0147800
672.483	0.0148768
672.561	0.0148235
672.639	0.0148299
672.717	0.0150196
672.795	0.0150217
672.873	0.0150861
672.951	0.0151695
673.030	0.0151201
673.108	0.0150449
673.186	0.0151402
673.264	0.0151968
673.342	0.0151424
673.420	0.0150604
673.498	0.0151418
673.576	0.0150045
673.655	0.0150757
673.733	0.0147913
673.811	0.0148904
673.889	0.0148892
673.967	0.0146926
674.045	0.0145172
674.123	0.0146197
674.201	0.0146770
674.280	0.0144881
674.358	0.0144061
674.436	0.0142681
674.514	0.0142573
674.592	0.0143858
674.670	0.0143428
674.748	0.0142908
674.826	0.0145489
674.905	0.0144897
674.983	0.0145467
675.061	0.0147510
675.139	0.0147591
675.217	0.0151646
675.295	0.0150013
675.373	0.0151994
675.451	0.0153473
675.530	0.0154263
675.608	0.0156008
675.686	0.0157426
675.764	0.0156741
675.842	0.0156911
675.920	0.0156747
675.998	0.0157104
676.076	0.0156377
676.155	0.0155738
676.233	0.0155392
676.311	0.0154583
676.389	0.0151652
676.467	0.0151283
676.545	0.0149819
676.623	0.0149181
676.701	0.0147411
676.780	0.0145258
676.858	0.0144167
676.936	0.0144519
677.014	0.0143385
677.092	0.0141946
677.170	0.0142512
677.248	0.0142493
677.326	0.0141708
677.405	0.0142382
677.483	0.0143614
677.561	0.0142339
677.639	0.0143946
677.717	0.0144044
677.795	0.0144016
677.873	0.0148167
677.951	0.0147760
678.030	0.0148425
678.108	0.0150468
678.186	0.0152374
678.264	0.0152052
678.342	0.0152964
678.420	0.0154702
678.498	0.0155933
678.576	0.0156506
678.655	0.0157386
678.733	0.0157529
678.811	0.0157902
678.889	0.0156709
678.967	0.0156563
679.045	0.0157797
679.123	0.0158142
679.201	0.0156828
679.280	0.0155719
679.358	0.0153532
679.436	0.0153694
679.514	0.0153081
679.592	0.0151762
679.670	0.0151674
679.748	0.0151906
679.826	0.0147123
679.905	0.0148903
679.983	0.0147990
680.061	0.0146096
680.139	0.0146262
680.217	0.0145509
680.295	0.0143817
680.373	0.0143913
680.451	0.0143305
680.530	0.0143192
680.608	0.0144036
680.686	0.0144077
680.764	0.0143331
680.842	0.0142893
680.920	0.0141949
680.998	0.0144495
681.076	0.0146721
681.155	0.0146750
681.233	0.0146112
681.311	0.0149466
681.389	0.0148642
681.467	0.0149836
681.545	0.0152509
681.623	0.0152802
681.701	0.0152546
681.780	0.0153262
681.858	0.0153458
681.936	0.0153309
682.014	0.0155482
682.092	0.0155000
682.170	0.0153701
682.248	0.0154742
682.326	0.0153768
682.405	0.0153169
682.483	0.0153981
682.561	0.0153234
682.639	0.0153710
682.717	0.0153123
682.795	0.0152036
682.873	0.0151384
682.951	0.0151691
683.030	0.0149903
683.108	0.0150066
683.186	0.0149104
683.264	0.0147821
683.342	0.0148420
683.420	0.0147667
683.498	0.0147697
683.576	0.0145444
683.655	0.0147817
683.733	0.0147151
683.811	0.0146529
683.889	0.0145956
683.967	0.0145525
684.045	0.0145697
684.123	0.0144631
684.201	0.0145686
684.280	0.0145222
684.358	0.0147264
684.436	0.0146468
684.514	0.0146785
684.592	0.0145142
684.670	0.0147295
684.748	0.0146983
684.826	0.0148399
684.905	0.0149252
684.983	0.0150327
685.061	0.0152905
685.139	0.0152483
685.217	0.0153164
685.295	0.0155680
685.373	0.0155385
685.451	0.0154789
685.530	0.0154757
685.608	0.0155324
685.686	0.0154894
685.764	0.0154680
685.842	0.0154564
685.920	0.0153306
685.998	0.0152094
686.076	0.0150896
686.155	0.0150539
686.233	0.0149628
686.311	0.0148111
686.389	0.0145019
686.467	0.0145153
686.545	0.0143939
686.623	0.0142989
686.701	0.0140406
686.780	0.0139474
686.858	0.0139231
686.936	0.0140308
687.014	0.0140014
687.092	0.0138663
687.170	0.0139023
687.248	0.0141669
687.326	0.0143568
687.405	0.0144686
687.483	0.0148262
687.561	0.0149629
687.639	0.0151292
687.717	0.0153738
687.795	0.0152739
687.873	0.0155168
687.951	0.0158692
688.030	0.0155643
688.108	0.0155842
688.186	0.0156877
688.264	0.0156318
688.342	0.0157000
688.420	0.0157108
688.498	0.0154538
688.576	0.0153947
688.655	0.0154669
688.733	0.0154154
688.811	0.0153685
688.889	0.0155930
688.967	0.0156264
689.045	0.0155154
689.123	0.0156924
689.201	0.0155897
689.280	0.0157543
689.358	0.0156275
689.436	0.0156548
689.514	0.0155836
689.592	0.0157005
689.670	0.0154191
689.748	0.0153325
689.826	0.0152990
689.905	0.0151631
689.983	0.0151475
690.061	0.0149171
690.139	0.0149580
690.217	0.0148345
690.295	0.0147031
690.373	0.0146571
690.451	0.0146232
690.530	0.0146686
690.608	0.0146528
690.686	0.0146720
690.764	0.0145963
690.842	0.0145682
690.920	0.0146507
690.998	0.0145801
691.076	0.0146662
691.155	0.0145031
691.233	0.0143677
691.311	0.0140919
691.389	0.0140052
691.467	0.0140575
691.545	0.0140202
691.623	0.0137408
691.701	0.0138486
691.780	0.0137775
691.858	0.0137003
691.936	0.0135144
692.014	0.0135347
692.092	0.0134579
692.170	0.0135403
692.248	0.0135310
692.326	0.0137186
692.405	0.0138798
692.483	0.0138557
692.561	0.0141584
692.639	0.0141405
692.717	0.0145236
692.795	0.0147259
692.873	0.0148236
692.951	0.0152330
693.030	0.0154344
693.108	0.0158684
693.186	0.0161363
693.264	0.0164209
693.342	0.0165842
693.420	0.0170306
693.498	0.0172045
693.576	0.0173631
693.655	0.0175299
693.733	0.0175328
693.811	0.0175726
693.889	0.0175852
693.967	0.0175905
694.045	0.0173661
694.123	0.0172868
694.201	0.0170503
694.280	0.0166978
694.358	0.0166115
694.436	0.0162289
694.514	0.0158211
694.592	0.0155167
694.670	0.0152341
694.748	0.0149001
694.826	0.0145888
694.905	0.0142713
694.983	0.0137595
695.061	0.0135102
695.139	0.0132544
695.217	0.0129183
695.295	0.0126088
695.373	0.0122424
695.451	0.0120771
695.530	0.0117992
695.608	0.0115244
695.686	0.0115059
695.764	0.0116255
695.842	0.0115504
695.920	0.0117255
695.998	0.0121321
696.076	0.0123010
696.155	0.0126329
696.233	0.0130664
696.311	0.0134957
696.389	0.0141124
696.467	0.0146105
696.545	0.0151855
696.623	0.0158192
696.701	0.0161881
696.780	0.0167716
696.858	0.0171817
696.936	0.0173911
697.014	0.0177635
697.092	0.0178654
697.170	0.0181139
697.248	0.0180002
697.326	0.0179381
697.405	0.0176814
697.483	0.0175193
697.561	0.0171535
697.639	0.0166746
697.717	0.0162858
697.795	0.0159151
697.873	0.0153776
697.951	0.0149564
698.030	0.0146288
698.108	0.0141560
698.186	0.0138029
698.264	0.0137285
698.342	0.0135162
698.420	0.0134266
698.498	0.0134973
698.576	0.0134898
698.655	0.0136152
698.733	0.0137197
698.811	0.0139399
698.889	0.0141707
698.967	0.0142887
699.045	0.0143630
699.123	0.0145220
699.201	0.0147893
699.280	0.0148153
699.358	0.0148320
699.436	0.0150393
699.514	0.0149651
699.592	0.0149622
699.670	0.0151382
699.748	0.0151248
699.826	0.0150957
699.905	0.0151655
699.983	0.0151726
700.061	0.0152022
700.139	0.0153641
700.217	0.0151105
700.295	0.0152254
700.373	0.0154296
700.451	0.0151702
700.530	0.0150307
700.608	0.0151892
700.686	0.0151356
700.764	0.0150636
700.842	0.0149639
700.920	0.0149018
700.998	0.0149052
701.076	0.0147720
701.155	0.0147094
701.233	0.0148105
701.311	0.0146707
701.389	0.0147415
701.467	0.0148735
701.545	0.0146651
701.623	0.0147992
701.701	0.0148400
701.780	0.0149023
701.858	0.0148486
701.936	0.0147311
702.014	0.0147406
702.092	0.0147586
702.170	0.0146506
702.248	0.0148104
702.326	0.0148650
702.405	0.0147646
702.483	0.0148334
702.561	0.0149726
702.639	0.0150037
702.717	0.0150993
702.795	0.0150570
702.873	0.0151857
702.951	0.0152295
703.030	0.0152394
703.108	0.0152507
703.186	0.0152493
703.264	0.0150381
703.342	0.0151038
703.420	0.0151357
703.498	0.0149278
703.576	0.0149080
703.655	0.0148310
703.733	0.0145329
703.811	0.0145798
703.889	0.0144333
703.967	0.0142115
704.045	0.0142632
704.123	0.0140578
704.201	0.0140578
704.280	0.0141092
704.358	0.0139574
704.436	0.0141177
704.514	0.0141750
704.592	0.0141780
704.670	0.0143803
704.748	0.0144882
704.826	0.0146835
704.905	0.0145860
704.983	0.0147636
705.061	0.0149345
705.139	0.0150196
705.217	0.0151621
705.295	0.0153502
705.373	0.0152266
705.451	0.0152882
705.530	0.0153899
705.608	0.0153232
705.686	0.0153748
705.764	0.0153182
705.842	0.0153857
705.920	0.0154360
705.998	0.0156049
706.076	0.0155024
706.155	0.0155627
706.233	0.0155090
706.311	0.0156341
706.389	0.0154642
706.467	0.0155344
706.545	0.0155659
706.623	0.0153777
706.701	0.0154326
706.780	0.0153234
706.858	0.0153859
706.936	0.0154461
707.014	0.0153938
707.092	0.0154221
707.170	0.0152596
707.248	0.0153375
707.326	0.0154634
707.405	0.0152055
707.483	0.0152261
707.561	0.0150697
707.639	0.0148316
707.717	0.0147760
707.795	0.0146220
707.873	0.0143695
707.951	0.0140375
708.030	0.0139252
708.108	0.0138467
708.186	0.0137406
708.264	0.0135769
708.342	0.0134785
708.420	0.0135781
708.498	0.0136282
708.576	0.0135448
708.655	0.0137476
708.733	0.0136723
708.811	0.0139371
708.889	0.0141110
708.967	0.0142541
709.045	0.0143868
709.123	0.0145634
709.201	0.0148046
709.280	0.0149034
709.358	0.0151076
709.436	0.0152654
709.514	0.0153444
709.592	0.0155337
709.670	0.0155249
709.748	0.0158549
709.826	0.0158437
709.905	0.0158491
709.983	0.0158989
710.061	0.0158765
710.139	0.0159678
710.217	0.0159285
710.295	0.0157464
710.373	0.0158009
710.451	0.0157853
710.530	0.0155947
710.608	0.0156197
710.686	0.0152914
710.764	0.0152079
710.842	0.0151077
710.920	0.0149850
710.998	0.0149788
711.076	0.0149897
711.155	0.0148241
711.233	0.0148148
711.311	0.0148579
711.389	0.0147263
711.467	0.0148489
711.545	0.0147491
711.623	0.0148308
711.701	0.0148862
711.780	0.0148218
711.858	0.0149003
711.936	0.0147520
712.014	0.0147871
712.092	0.0148207
712.170	0.0147530
712.248	0.0146188
712.326	0.0145596
712.405	0.0145697
712.483	0.0145351
712.561	0.0145358
712.639	0.0145567
712.717	0.0145506
712.795	0.0146794
712.873	0.0146754
712.951	0.0145622
713.030	0.0145834
713.108	0.0145027
713.186	0.0146666
713.264	0.0146142
713.342	0.0145572
713.420	0.0146793
713.498	0.0147607
713.576	0.0148656
713.655	0.0147134
713.733	0.0148196
713.811	0.0148428
713.889	0.0148611
713.967	0.0150214
714.045	0.0151133
714.123	0.0150831
714.201	0.0150432
714.280	0.0150851
714.358	0.0150934
714.436	0.0150569
714.514	0.0150642
714.592	0.0151344
714.670	0.0149758
714.748	0.0149409
714.826	0.0150024
714.905	0.0148318
714.983	0.0148600
715.061	0.0150606
715.139	0.0148372
715.217	0.0149271
715.295	0.0149484
715.373	0.0149408
715.451	0.0149781
715.530	0.0150503
715.608	0.0150195
715.686	0.0149290
715.764	0.0150619
715.842	0.0149364
715.920	0.0149439
715.998	0.0148904
716.076	0.0148944
716.155	0.0148359
716.233	0.0148969
716.311	0.0148925
716.389	0.0149271
716.467	0.0150678
716.545	0.0150182
716.623	0.0150409
716.701	0.0151943
716.780	0.0153321
716.858	0.0153151
716.936	0.0152811
717.014	0.0154135
717.092	0.0155331
717.170	0.0154494
717.248	0.0154177
717.326	0.0153379
717.405	0.0154034
717.483	0.0153087
717.561	0.0150833
717.639	0.0150529
717.717	0.0149379
717.795	0.0147943
717.873	0.0146492
717.951	0.0146069
718.030	0.0145134
718.108	0.0143051
718.186	0.0143685
718.264	0.0141666
718.342	0.0141690
718.420	0.0141789
718.498	0.0143095
718.576	0.0140453
718.655	0.0141738
718.733	0.0142698
718.811	0.0141888
718.889	0.0142458
718.967	0.0142054
719.045	0.0143044
719.123	0.0143285
719.201	0.0145139
719.280	0.0144453
719.358	0.0145864
719.436	0.0147563
719.514	0.0147231
719.592	0.0150490
719.670	0.0152251
719.748	0.0152583
719.826	0.0154530
719.905	0.0154768
719.983	0.0156078
720.061	0.0154530
720.139	0.0154170
720.217	0.0157570
720.295	0.0157138
720.373	0.0157200
720.451	0.0156576
720.530	0.0155598
720.608	0.0156129
720.686	0.0156202
720.764	0.0155472
720.842	0.0154787
720.920	0.0153301
720.998	0.0151878
721.076	0.0152338
721.155	0.0151746
721.233	0.0151904
721.311	0.0151254
721.389	0.0150690
721.467	0.0150795
721.545	0.0149799
721.623	0.0150140
721.701	0.0148717
721.780	0.0149791
721.858	0.0151093
721.936	0.0150660
722.014	0.0150413
722.092	0.0149464
722.170	0.0150087
722.248	0.0149438
722.326	0.0147156
722.405	0.0148491
722.483	0.0147954
722.561	0.0149039
722.639	0.0147373
722.717	0.0144583
722.795	0.0143589
722.873	0.0145001
722.951	0.0145126
723.030	0.0143446
723.108	0.0143016
723.186	0.0142268
723.264	0.0142670
723.342	0.0142766
723.420	0.0142229
723.498	0.0141885
723.576	0.0141488
723.655	0.0144112
723.733	0.0143204
723.811	0.0144118
723.889	0.0144260
723.967	0.0146198
724.045	0.0146200
724.123	0.0146459
724.201	0.0148280
724.280	0.0148735
724.358	0.0149684
724.436	0.0151523
724.514	0.0151224
724.592	0.0151791
724.670	0.0153930
724.748	0.0153461
724.826	0.0154360
724.905	0.0153542
724.983	0.0152142
725.061	0.0154018
725.139	0.0151507
725.217	0.0151820
725.295	0.0151640
725.373	0.0149673
725.451	0.0150077
725.530	0.0149174
725.608	0.0147611
725.686	0.0150163
725.764	0.0148100
725.842	0.0149086
725.920	0.0149040
725.998	0.0148863
726.076	0.0149582
726.155	0.0150320
726.233	0.0151093
726.311	0.0151537
726.389	0.0151183
726.467	0.0153166
726.545	0.0153671
726.623	0.0152193
726.701	0.0153139
726.780	0.0152885
726.858	0.0152751
726.936	0.0149606
727.014	0.0150694
727.092	0.0148232
727.170	0.0148068
727.248	0.0147136
727.326	0.0145907
727.405	0.0145017
727.483	0.0144982
727.561	0.0144685
727.639	0.0145665
727.717	0.0146005
727.795	0.0145186
727.873	0.0144839
727.951	0.0145470
728.030	0.0146667
728.108	0.0146230
728.186	0.0144373
728.264	0.0143717
728.342	0.0144843
728.420	0.0144617
728.498	0.0143098
728.576	0.0142007
728.655	0.0142030
728.733	0.0141494
728.811	0.0140960
728.889	0.0142101
728.967	0.0142728
729.045	0.0143866
729.123	0.0145177
729.201	0.0145698
729.280	0.0147390
729.358	0.0149664
729.436	0.0150502
729.514	0.0154307
729.592	0.0152503
729.670	0.0154259
729.748	0.0155614
729.826	0.0153646
729.905	0.0153857
729.983	0.0151432
730.061	0.0153067
730.139	0.0151960
730.217	0.0152141
730.295	0.0150002
730.373	0.0148159
730.451	0.0149194
730.530	0.0148110
730.608	0.0147736
730.686	0.0147724
730.764	0.0146603
730.842	0.0147270
730.920	0.0148067
730.998	0.0146689
731.076	0.0147324
731.155	0.0147398
731.233	0.0146558
731.311	0.0147317
731.389	0.0148495
731.467	0.0148672
731.545	0.0147219
731.623	0.0146447
731.701	0.0148327
731.780	0.0149229
731.858	0.0149695
731.936	0.0150095
732.014	0.0149376
732.092	0.0149379
732.170	0.0150516
732.248	0.0150327
732.326	0.0149132
732.405	0.0151083
732.483	0.0150780
732.561	0.0149656
732.639	0.0149428
732.717	0.0149361
732.795	0.0148656
732.873	0.0148145
732.951	0.0147610
733.030	0.0147773
733.108	0.0146619
733.186	0.0147018
733.264	0.0146695
733.342	0.0148047
733.420	0.0148179
733.498	0.0148343
733.576	0.0150938
733.655	0.0149855
733.733	0.0150871
733.811	0.0151472
733.889	0.0151663
733.967	0.0150897
734.045	0.0151894
734.123	0.0151297
734.201	0.0151803
734.280	0.0151014
734.358	0.0150814
734.436	0.0151056
734.514	0.0149181
734.592	0.0150149
734.670	0.0149378
734.748	0.0149396
734.826	0.0147498
734.905	0.0146988
734.983	0.0147154
735.061	0.0145731
735.139	0.0145797
735.217	0.0147231
735.295	0.0146307
735.373	0.0143585
735.451	0.0144402
735.530	0.0145547
735.608	0.0144611
735.686	0.0145338
735.764	0.0145263
735.842	0.0145428
735.920	0.0144264
735.998	0.0144727
736.076	0.0144496
736.155	0.0145415
736.233	0.0147033
736.311	0.0147531
736.389	0.0148689
736.467	0.0148672
736.545	0.0147868
736.623	0.0150269
736.701	0.0151263
736.780	0.0152163
736.858	0.0151702
736.936	0.0152710
737.014	0.0153564
737.092	0.0155174
737.170	0.0154359
737.248	0.0155798
737.326	0.0153735
737.405	0.0153349
737.483	0.0152609
737.561	0.0152992
737.639	0.0152800
737.717	0.0153021
737.795	0.0151640
737.873	0.0151539
737.951	0.0152715
738.030	0.0153182
738.108	0.0151015
738.186	0.0152074
738.264	0.0153407
738.342	0.0152180
738.420	0.0152006
738.498	0.0152606
738.576	0.0153099
738.655	0.0152747
738.733	0.0151465
738.811	0.0151408
738.889	0.0150924
738.967	0.0149104
739.045	0.0148620
739.123	0.0147800
739.201	0.0146515
739.280	0.0146939
739.358	0.0146933
739.436	0.0146451
739.514	0.0145044
739.592	0.0145393
739.670	0.0144245
739.748	0.0144521
739.826	0.0146122
739.905	0.0144337
739.983	0.0144239
740.061	0.0144321
740.139	0.0144563
740.217	0.0144540
740.295	0.0147528
740.373	0.0146790
740.451	0.0146558
740.530	0.0147990
740.608	0.0149605
740.686	0.0148179
740.764	0.0148666
740.842	0.0150784
740.920	0.0150568
740.998	0.0151194
741.076	0.0153175
741.155	0.0153328
741.233	0.0152024
741.311	0.0152548
741.389	0.0153376
741.467	0.0152596
741.545	0.0151997
741.623	0.0153037
741.701	0.0153155
741.780	0.0150664
741.858	0.0149382
741.936	0.0150945
742.014	0.0150031
742.092	0.0149162
742.170	0.0149062
742.248	0.0149038
742.326	0.0148254
742.405	0.0147028
742.483	0.0148745
742.561	0.0148478
742.639	0.0149687
742.717	0.0149506
742.795	0.0148974
742.873	0.0150518
742.951	0.0150932
743.030	0.0150234
743.108	0.0151337
743.186	0.0151347
743.264	0.0152043
743.342	0.0151714
743.420	0.0151355
743.498	0.0151476
743.576	0.0152100
743.655	0.0151502
743.733	0.0152129
743.811	0.0150079
743.889	0.0150268
743.967	0.0150215
744.045	0.0149725
744.123	0.0149686
744.201	0.0150842
744.280	0.0148280
744.358	0.0148546
744.436	0.0149300
744.514	0.0149971
744.592	0.0148023
744.670	0.0149448
744.748	0.0148627
744.826	0.0149865
744.905	0.0149707
744.983	0.0150875
745.061	0.0149822
745.139	0.0151770
745.217	0.0151154
745.295	0.0149438
745.373	0.0152363
745.451	0.0151580
745.530	0.0152070
745.608	0.0151400
745.686	0.0149956
745.764	0.0151176
745.842	0.0148975
745.920	0.0149755
745.998	0.0148217
746.076	0.0146826
746.155	0.0147018
746.233	0.0147591
746.311	0.0145683
746.389	0.0146124
746.467	0.0145319
746.545	0.0145290
746.623	0.0143909
746.701	0.0144407
746.780	0.0145306
746.858	0.0144764
746.936	0.0145842
747.014	0.0144881
747.092	0.0144885
747.170	0.0146247
747.248	0.0143157
747.326	0.0144933
747.405	0.0144222
747.483	0.0144465
747.561	0.0144196
747.639	0.0145550
747.717	0.0145673
747.795	0.0144926
747.873	0.0144949
747.951	0.0145668
748.030	0.0146111
748.108	0.0146067
748.186	0.0146539
748.264	0.0147646
748.342	0.0148402
748.420	0.0146814
748.498	0.0147658
748.576	0.0148082
748.655	0.0148185
748.733	0.0149093
748.811	0.0147874
748.889	0.0147746
748.967	0.0148526
749.045	0.0147291
749.123	0.0146770
749.201	0.0147767
749.280	0.0148420
749.358	0.0147366
749.436	0.0147147
749.514	0.0148875
749.592	0.0149963
749.670	0.0148094
749.748	0.0147382
749.826	0.0150261
749.905	0.0151247
749.983	0.0151765
750.061	0.0151334
750.139	0.0151396
750.217	0.0151915
750.295	0.0153153
750.373	0.0152190
750.451	0.0151912
750.530	0.0151971
750.608	0.0153126
750.686	0.0151076
750.764	0.0153096
750.842	0.0150488
750.920	0.0151387
750.998	0.0150893
751.076	0.0149419
751.155	0.0149516
751.233	0.0146890
751.311	0.0149859
751.389	0.0147547
751.467	0.0148252
751.545	0.0148213
751.623	0.0147420
751.701	0.0147290
751.780	0.0146704
751.858	0.0147941
751.936	0.0148204
752.014	0.0148161
752.092	0.0147276
752.170	0.0147911
752.248	0.0148284
752.326	0.0149109
752.405	0.0150217
752.483	0.0149585
752.561	0.0148689
752.639	0.0149068
752.717	0.0150264
752.795	0.0150553
752.873	0.0149857
752.951	0.0149876
753.030	0.0149660
753.108	0.0147886
753.186	0.0147745
753.264	0.0148039
753.342	0.0147221
753.420	0.0149177
753.498	0.0148450
753.576	0.0147488
753.655	0.0146069
753.733	0.0146951
753.811	0.0146653
753.889	0.0147086
753.967	0.0146236
754.045	0.0146070
754.123	0.0145706
754.201	0.0147067
754.280	0.0146310
754.358	0.0147701
754.436	0.0146444
754.514	0.0146800
754.592	0.0147407
754.670	0.0148304
754.748	0.0147096
754.826	0.0147630
754.905	0.0149062
754.983	0.0148944
755.061	0.0148648
755.139	0.0149260
755.217	0.0148518
755.295	0.0149400
755.373	0.0149597
755.451	0.0149931
755.530	0.0150815
755.608	0.0150365
755.686	0.0148837
755.764	0.0149833
755.842	0.0150771
755.920	0.0151118
755.998	0.0151354
756.076	0.0151989
756.155	0.0152000
756.233	0.0151764
756.311	0.0152824
756.389	0.0152654
756.467	0.0152513
756.545	0.0152041
756.623	0.0151659
756.701	0.0151566
756.780	0.0151523
756.858	0.0152029
756.936	0.0150981
757.014	0.0152386
757.092	0.0152088
757.170	0.0150852
757.248	0.0151185
757.326	0.0152214
757.405	0.0150178
757.483	0.0150278
757.561	0.0149700
757.639	0.0148821
757.717	0.0148433
757.795	0.0146326
757.873	0.0148876
757.951	0.0148506
758.030	0.0147190
758.108	0.0147144
758.186	0.0147215
758.264	0.0147151
758.342	0.0147565
758.420	0.0146948
758.498	0.0147447
758.576	0.0148476
758.655	0.0148637
758.733	0.0149902
758.811	0.0148930
758.889	0.0149248
758.967	0.0148807
759.045	0.0149672
759.123	0.0151129
759.201	0.0151078
759.280	0.0150888
759.358	0.0151823
759.436	0.0151218
759.514	0.0151851
759.592	0.0150171
759.670	0.0150377
759.748	0.0150584
759.826	0.0150903
759.905	0.0152657
759.983	0.0151693
760.061	0.0150514
760.139	0.0149915
760.217	0.0151175
760.295	0.0150599
760.373	0.0149632
760.451	0.0150146
760.530	0.0149300
760.608	0.0149390
760.686	0.0148002
760.764	0.0149561
760.842	0.0150267
760.920	0.0148918
760.998	0.0150268
761.076	0.0149876
761.155	0.0149129
761.233	0.0150737
761.311	0.0150981
761.389	0.0151686
761.467	0.0151145
761.545	0.0151486
761.623	0.0151098
761.701	0.0150864
761.780	0.0149711
761.858	0.0150323
761.936	0.0151989
762.014	0.0149207
762.092	0.0149560
762.170	0.0150002
762.248	0.0149074
762.326	0.0150440
762.405	0.0152760
762.483	0.0150901
762.561	0.0151518
762.639	0.0150562
762.717	0.0150681
762.795	0.0151267
762.873	0.0150296
762.951	0.0149731
763.030	0.0149129
763.108	0.0148789
763.186	0.0148576
763.264	0.0149562
763.342	0.0148933
763.420	0.0148710
763.498	0.0148771
763.576	0.0149898
763.655	0.0147729
763.733	0.0147756
763.811	0.0148024
763.889	0.0147860
763.967	0.0147804
764.045	0.0147985
764.123	0.0148736
764.201	0.0149953
764.280	0.0148608
764.358	0.0150407
764.436	0.0149856
764.514	0.0149883
764.592	0.0150357
764.670	0.0152119
764.748	0.0152602
764.826	0.0151524
764.905	0.0150762
764.983	0.0150731
765.061	0.0150809
765.139	0.0150261
765.217	0.0150140
765.295	0.0152272
765.373	0.0150323
765.451	0.0149333
765.530	0.0148855
765.608	0.0146738
765.686	0.0147821
765.764	0.0149768
765.842	0.0146796
765.920	0.0148475
765.998	0.0148955
766.076	0.0148460
766.155	0.0148107
766.233	0.0149104
766.311	0.0149272
766.389	0.0151554
766.467	0.0151294
766.545	0.0150024
766.623	0.0149778
766.701	0.0150468
766.780	0.0152455
766.858	0.0151323
766.936	0.0151723
767.014	0.0151015
767.092	0.0149776
767.170	0.0152743
767.248	0.0150233
767.326	0.0150101
767.405	0.0150507
767.483	0.0150008
767.561	0.0150172
767.639	0.0149155
767.717	0.0149306
767.795	0.0149060
767.873	0.0150212
767.951	0.0150333
768.030	0.0150976
768.108	0.0149174
768.186	0.0146981
768.264	0.0147668
768.342	0.0147018
768.420	0.0147176
768.498	0.0147797
768.576	0.0147195
768.655	0.0147834
768.733	0.0146492
768.811	0.0146617
768.889	0.0146889
768.967	0.0146913
769.045	0.0149090
769.123	0.0148562
769.201	0.0148238
769.280	0.0147330
769.358	0.0149777
769.436	0.0149284
769.514	0.0149547
769.592	0.0149201
769.670	0.0149852
769.748	0.0149953
769.826	0.0150597
769.905	0.0149710
769.983	0.0149786
770.061	0.0148954
770.139	0.0149243
770.217	0.0146425
770.295	0.0146848
770.373	0.0147583
770.451	0.0145708
770.530	0.0145506
770.608	0.0145863
770.686	0.0144790
770.764	0.0145245
770.842	0.0144225
770.920	0.0145670
770.998	0.0145771
771.076	0.0146373
771.155	0.0146479
771.233	0.0144825
771.311	0.0146970
771.389	0.0146928
771.467	0.0148315
771.545	0.0148960
771.623	0.0148969
771.701	0.0149232
771.780	0.0149330
771.858	0.0148388
771.936	0.0149773
772.014	0.0151567
772.092	0.0151262
772.170	0.0150083
772.248	0.0150610
772.326	0.0150871
772.405	0.0151969
772.483	0.0150942
772.561	0.0151060
772.639	0.0150328
772.717	0.0149831
772.795	0.0150520
772.873	0.0150149
772.951	0.0148207
773.030	0.0148387
773.108	0.0147681
773.186	0.0148946
773.264	0.0148250
773.342	0.0147366
773.420	0.0147147
773.498	0.0148290
773.576	0.0148274
773.655	0.0147411
773.733	0.0146997
773.811	0.0146059
773.889	0.0148010
773.967	0.0148788
774.045	0.0147398
774.123	0.0146874
774.201	0.0147955
774.280	0.0148320
774.358	0.0147569
774.436	0.0149252
774.514	0.0148039
774.592	0.0147684
774.670	0.0147829
774.748	0.0148855
774.826	0.0148620
774.905	0.0148367
774.983	0.0148177
775.061	0.0148486
775.139	0.0147993
775.217	0.0148353
775.295	0.0149970
775.373	0.0149841
775.451	0.0149135
775.530	0.0149200
775.608	0.0150687
775.686	0.0147679
775.764	0.0149949
775.842	0.0149938
775.920	0.0150621
775.998	0.0149577
776.076	0.0150674
776.155	0.0150417
776.233	0.0151900
776.311	0.0151366
776.389	0.0151115
776.467	0.0150385
776.545	0.0150534
776.623	0.0149469
776.701	0.0149430
776.780	0.0149836
776.858	0.0148624
776.936	0.0149141
777.014	0.0149861
777.092	0.0148526
777.170	0.0147709
777.248	0.0147893
777.326	0.0148174
777.405	0.0148075
777.483	0.0147661
777.561	0.0148591
777.639	0.0147570
777.717	0.0146751
777.795	0.0148199
777.873	0.0148344
777.951	0.0147691
778.030	0.0147939
778.108	0.0148078
778.186	0.0149681
778.264	0.0149516
778.342	0.0150064
778.420	0.0148329
778.498	0.0148628
778.576	0.0150180
778.655	0.0147357
778.733	0.0150164
778.811	0.0149875
778.889	0.0149495
778.967	0.0149294
779.045	0.0150217
779.123	0.0150407
779.201	0.0151685
779.280	0.0149855
779.358	0.0148756
779.436	0.0149265
779.514	0.0150470
779.592	0.0149462
779.670	0.0150557
779.748	0.0149815
779.826	0.0149282
779.905	0.0149878
779.983	0.0149901
780.061	0.0149648
780.139	0.0151221
780.217	0.0150289
780.295	0.0149545
780.373	0.0149844
780.451	0.0149397
780.530	0.0150066
780.608	0.0149145
780.686	0.0149776
780.764	0.0149942
780.842	0.0148090
780.920	0.0148797
780.998	0.0149066
781.076	0.0147951
781.155	0.0147565
781.233	0.0148325
781.311	0.0148528
781.389	0.0148087
781.467	0.0150126
781.545	0.0148964
781.623	0.0148463
781.701	0.0149487
781.780	0.0150186
781.858	0.0149792
781.936	0.0150027
782.014	0.0151412
782.092	0.0151224
782.170	0.0151321
782.248	0.0151168
782.326	0.0151331
782.405	0.0152136
782.483	0.0152086
782.561	0.0151329
782.639	0.0151173
782.717	0.0152871
782.795	0.0152258
782.873	0.0151492
782.951	0.0151327
783.030	0.0150568
783.108	0.0151649
783.186	0.0151417
783.264	0.0150013
783.342	0.0150539
783.420	0.0150255
783.498	0.0150014
783.576	0.0150388
783.655	0.0149934
783.733	0.0150722
783.811	0.0148257
783.889	0.0148970
783.967	0.0149442
784.045	0.0148427
784.123	0.0148429
784.201	0.0149819
784.280	0.0148741
784.358	0.0149426
784.436	0.0149815
784.514	0.0149430
784.592	0.0150761
784.670	0.0150496
784.748	0.0150047
784.826	0.0151173
784.905	0.0150822
784.983	0.0151345
785.061	0.0150034
785.139	0.0150325
785.217	0.0149915
785.295	0.0149535
785.373	0.0150301
785.451	0.0150083
785.530	0.0150157
785.608	0.0148918
785.686	0.0150700
785.764	0.0150766
785.842	0.0150163
785.920	0.0150928
785.998	0.0149758
786.076	0.0150861
786.155	0.0150785
786.233	0.0151738
786.311	0.0149477
786.389	0.0149589
786.467	0.0150364
786.545	0.0150813
786.623	0.0150813
786.701	0.0148870
786.780	0.0149829
786.858	0.0149668
786.936	0.0151466
787.014	0.0150422
787.092	0.0148771
787.170	0.0148648
787.248	0.0151170
787.326	0.0149138
787.405	0.0150485
787.483	0.0150632
787.561	0.0147824
787.639	0.0148115
787.717	0.0148675
787.795	0.0149174
787.873	0.0147773
787.951	0.0147382
788.030	0.0148549
788.108	0.0148021
788.186	0.0148064
788.264	0.0148430
788.342	0.0147581
788.420	0.0147215
788.498	0.0147078
788.576	0.0146670
788.655	0.0147457
788.733	0.0146117
788.811	0.0147332
788.889	0.0146738
788.967	0.0146436
789.045	0.0145760
789.123	0.0147454
789.201	0.0147300
789.280	0.0148352
789.358	0.0147987
789.436	0.0147543
789.514	0.0148277
789.592	0.0149841
789.670	0.0147225
789.748	0.0150043
789.826	0.0149848
789.905	0.0149394
789.983	0.0150513
790.061	0.0151131
790.139	0.0150107
790.217	0.0151105
790.295	0.0152444
790.373	0.0152575
790.451	0.0150672
790.530	0.0149973
790.608	0.0151656
790.686	0.0151109
790.764	0.0151131
790.842	0.0151173
790.920	0.0149777
790.998	0.0151152
791.076	0.0150486
791.155	0.0149354
791.233	0.0149389
791.311	0.0147569
791.389	0.0147783
791.467	0.0147345
791.545	0.0146423
791.623	0.0146378
791.701	0.0144938
791.780	0.0144479
791.858	0.0145741
791.936	0.0144127
792.014	0.0144569
792.092	0.0143762
792.170	0.0143916
792.248	0.0144136
792.326	0.0143639
792.405	0.0145660
792.483	0.0145924
792.561	0.0146065
792.639	0.0146795
792.717	0.0147176
792.795	0.0147917
792.873	0.0148536
792.951	0.0149662
793.030	0.0148599
793.108	0.0149107
793.186	0.0148241
793.264	0.0150204
793.342	0.0150852
793.420	0.0149283
793.498	0.0150352
793.576	0.0150926
793.655	0.0150894
793.733	0.0150774
793.811	0.0151432
793.889	0.0151122
793.967	0.0150004
794.045	0.0149263
794.123	0.0149975
794.201	0.0149184
794.280	0.0149723
794.358	0.0150209
794.436	0.0149382
794.514	0.0149808
794.592	0.0149375
794.670	0.0148509
794.748	0.0147894
794.826	0.0146958
794.905	0.0147417
794.983	0.0144780
795.061	0.0146896
795.139	0.0145469
795.217	0.0146255
795.295	0.0145796
795.373	0.0145860
795.451	0.0144331
795.530	0.0145215
795.608	0.0145715
795.686	0.0146097
795.764	0.0144353
795.842	0.0146738
795.920	0.0147821
795.998	0.0146412
796.076	0.0147512
796.155	0.0149188
796.233	0.0149631
796.311	0.0149018
796.389	0.0149596
796.467	0.0148692
796.545	0.0150068
796.623	0.0150888
796.701	0.0148083
796.780	0.0149303
796.858	0.0149039
796.936	0.0149120
797.014	0.0149461
797.092	0.0149996
797.170	0.0147358
797.248	0.0147696
797.326	0.0147906
797.405	0.0146203
797.483	0.0147366
797.561	0.0147710
797.639	0.0147404
797.717	0.0148299
797.795	0.0148109
797.873	0.0147469
797.951	0.0147048
798.030	0.0147252
798.108	0.0147359
798.186	0.0149474
798.264	0.0150389
798.342	0.0149915
798.420	0.0150094
798.498	0.0149607
798.576	0.0150053
798.655	0.0149842
798.733	0.0148836
798.811	0.0149416
798.889	0.0148675
798.967	0.0149732
799.045	0.0149492
799.123	0.0149090
799.201	0.0149938
799.280	0.0149997
799.358	0.0148796
799.436	0.0148873
799.514	0.0150963
799.592	0.0149673
799.670	0.0149262
799.748	0.0149986
799.826	0.0149493
799.905	0.0149852
799.983	0.0149693
800.061	0.0148430
800.139	0.0148315
800.217	0.0149014
800.295	0.0149786
800.373	0.0148937
800.451	0.0149863
800.530	0.0149480
800.608	0.0149644
800.686	0.0148804
800.764	0.0149954
800.842	0.0149445
800.920	0.0150143
800.998	0.0151096
801.076	0.0149770
801.155	0.0150526
801.233	0.0149604
801.311	0.0149764
801.389	0.0149704
801.467	0.0148649
801.545	0.0148811
801.623	0.0148716
801.701	0.0149655
801.780	0.0149554
801.858	0.0148405
801.936	0.0149094
802.014	0.0150202
802.092	0.0148272
802.170	0.0148500
802.248	0.0149319
802.326	0.0148595
802.405	0.0149865
802.483	0.0150307
802.561	0.0150390
802.639	0.0150786
802.717	0.0148942
802.795	0.0149578
802.873	0.0151027
802.951	0.0150035
803.030	0.0149898
803.108	0.0150593
803.186	0.0150452
803.264	0.0150108
803.342	0.0149540
803.420	0.0149796
803.498	0.0149889
803.576	0.0149701
803.655	0.0149961
803.733	0.0149783
803.811	0.0148653
803.889	0.0148278
803.967	0.0147586
804.045	0.0148196
804.123	0.0147488
804.201	0.0147052
804.280	0.0148731
804.358	0.0147162
804.436	0.0148000
804.514	0.0147044
804.592	0.0147878
804.670	0.0148640
804.748	0.0147623
804.826	0.0148396
804.905	0.0149111
804.983	0.0147279
805.061	0.0146913
805.139	0.0147937
805.217	0.0147785
805.295	0.0148714
805.373	0.0147650
805.451	0.0147044
805.530	0.0148396
805.608	0.0147923
805.686	0.0148220
805.764	0.0148896
805.842	0.0149878
805.920	0.0149434
805.998	0.0149860
806.076	0.0150490
806.155	0.0149561
806.233	0.0150873
806.311	0.0151464
806.389	0.0152525
806.467	0.0151268
806.545	0.0152130
806.623	0.0150798
806.701	0.0152767
806.780	0.0153229
806.858	0.0150544
806.936	0.0152261
807.014	0.0150724
807.092	0.0151320
807.170	0.0151075
807.248	0.0151196
807.326	0.0151810
807.405	0.0151295
807.483	0.0149452
807.561	0.0150971
807.639	0.0150130
807.717	0.0150550
807.795	0.0149023
807.873	0.0150916
807.951	0.0149310
808.030	0.0150981
808.108	0.0149765
808.186	0.0149611
808.264	0.0149333
808.342	0.0148994
808.420	0.0148947
808.498	0.0149950
808.576	0.0149728
808.655	0.0149654
808.733	0.0150594
808.811	0.0150375
808.889	0.0150844
808.967	0.0151339
809.045	0.0150694
809.123	0.0150642
809.201	0.0149683
809.280	0.0150850
809.358	0.0150722
809.436	0.0149683
809.514	0.0150677
809.592	0.0149378
809.670	0.0150241
809.748	0.0148831
809.826	0.0148371
809.905	0.0148380
809.983	0.0149778
810.061	0.0149799
810.139	0.0147665
810.217	0.0147206
810.295	0.0147690
810.373	0.0147796
810.451	0.0147616
810.530	0.0148148
810.608	0.0149467
810.686	0.0146423
810.764	0.0147095
810.842	0.0146441
810.920	0.0149458
810.998	0.0148956
811.076	0.0147492
811.155	0.0148903
811.233	0.0149815
811.311	0.0149300
811.389	0.0149596
811.467	0.0150751
811.545	0.0149482
811.623	0.0149593
811.701	0.0150040
811.780	0.0149002
811.858	0.0149404
811.936	0.0149235
812.014	0.0149669
812.092	0.0149030
812.170	0.0149017
812.248	0.0148362
812.326	0.0147885
812.405	0.0148107
812.483	0.0148095
812.561	0.0149052
812.639	0.0147478
812.717	0.0147392
812.795	0.0148316
812.873	0.0147188
812.951	0.0147549
813.030	0.0147970
813.108	0.0146999
813.186	0.0147918
813.264	0.0148173
813.342	0.0148427
813.420	0.0147693
813.498	0.0148076
813.576	0.0147991
813.655	0.0148531
813.733	0.0148656
813.811	0.0149026
813.889	0.0150019
813.967	0.0147971
814.045	0.0149089
814.123	0.0148437
814.201	0.0149146
814.280	0.0149228
814.358	0.0148504
814.436	0.0149748
814.514	0.0149641
814.592	0.0148473
814.670	0.0149699
814.748	0.0149576
814.826	0.0149018
814.905	0.0148652
814.983	0.0148798
815.061	0.0148906
815.139	0.0149050
815.217	0.0148694
815.295	0.0147637
815.373	0.0147514
815.451	0.0146322
815.530	0.0147568
815.608	0.0147256
815.686	0.0146804
815.764	0.0147738
815.842	0.0147160
815.920	0.0146870
815.998	0.0147263
816.076	0.0149098
816.155	0.0148370
816.233	0.0148666
816.311	0.0146873
816.389	0.0147133
816.467	0.0149268
816.545	0.0149830
816.623	0.0148652
816.701	0.0148619
816.780	0.0149405
816.858	0.0149284
816.936	0.0148370
817.014	0.0147462
817.092	0.0149597
817.170	0.0149977
817.248	0.0148299
817.326	0.0149261
817.405	0.0148860
817.483	0.0148138
817.561	0.0148388
817.639	0.0147596
817.717	0.0147321
817.795	0.0146657
817.873	0.0147100
817.951	0.0146596
818.030	0.0146768
818.108	0.0146770
818.186	0.0147844
818.264	0.0148483
818.342	0.0148402
818.420	0.0146139
818.498	0.0146929
818.576	0.0147449
818.655	0.0146638
818.733	0.0147105
818.811	0.0147173
818.889	0.0146736
818.967	0.0146847
819.045	0.0148243
819.123	0.0146556
819.201	0.0147552
819.280	0.0146585
819.358	0.0147445
819.436	0.0145743
819.514	0.0147237
819.592	0.0148023
819.670	0.0147050
819.748	0.0146813
819.826	0.0147670
819.905	0.0148385
819.983	0.0148831
820.061	0.0148378
820.139	0.0148261
820.217	0.0147758
820.295	0.0148504
820.373	0.0149567
820.451	0.0148014
820.530	0.0147906
820.608	0.0147337
820.686	0.0149004
820.764	0.0147902
820.842	0.0147344
820.920	0.0148302
820.998	0.0147548
821.076	0.0148460
821.155	0.0148555
821.233	0.0148048
821.311	0.0147918
821.389	0.0149312
821.467	0.0148128
821.545	0.0148493
821.623	0.0150641
821.701	0.0149433
821.780	0.0149829
821.858	0.0149934
821.936	0.0149274
822.014	0.0148705
822.092	0.0149433
822.170	0.0149937
822.248	0.0149409
822.326	0.0151441
822.405	0.0149912
822.483	0.0149866
822.561	0.0149904
822.639	0.0150529
822.717	0.0151119
822.795	0.0150055
822.873	0.0150633
822.951	0.0150119
823.030	0.0148917
823.108	0.0149677
823.186	0.0149766
823.264	0.0150734
823.342	0.0149466
823.420	0.0149792
823.498	0.0148703
823.576	0.0148517
823.655	0.0150337
823.733	0.0149779
823.811	0.0150132
823.889	0.0148753
823.967	0.0149177
824.045	0.0148790
824.123	0.0148681
824.201	0.0148959
824.280	0.0148221
824.358	0.0148309
824.436	0.0147525
824.514	0.0146358
824.592	0.0147554
824.670	0.0149250
824.748	0.0147501
824.826	0.0147427
824.905	0.0146133
824.983	0.0148133
825.061	0.0147084
825.139	0.0150771
825.217	0.0147363
825.295	0.0147461
825.373	0.0148880
825.451	0.0147854
825.530	0.0147338
825.608	0.0149606
825.686	0.0150138
825.764	0.0149516
825.842	0.0148306
825.920	0.0147587
825.998	0.0150337
826.076	0.0149564
826.155	0.0148640
826.233	0.0149324
826.311	0.0149518
826.389	0.0148263
826.467	0.0149077
826.545	0.0148984
826.623	0.0148933
826.701	0.0148695
826.780	0.0148595
826.858	0.0147385
826.936	0.0150154
827.014	0.0150158
827.092	0.0148800
827.170	0.0149567
827.248	0.0147932
827.326	0.0147623
827.405	0.0147200
827.483	0.0148882
827.561	0.0148375
827.639	0.0148767
827.717	0.0149362
827.795	0.0148671
827.873	0.0148008
827.951	0.0147289
828.030	0.0148470
828.108	0.0147775
828.186	0.0147813
828.264	0.0149413
828.342	0.0147739
828.420	0.0147549
828.498	0.0147277
828.576	0.0147531
828.655	0.0148174
828.733	0.0147085
828.811	0.0147975
828.889	0.0148187
828.967	0.0146571
829.045	0.0148664
829.123	0.0148705
829.201	0.0147112
829.280	0.0148289
829.358	0.0147713
829.436	0.0148921
829.514	0.0147971
829.592	0.0148878
829.670	0.0149783
829.748	0.0149577
829.826	0.0149490
829.905	0.0150775
829.983	0.0149844
830.061	0.0149881
830.139	0.0150215
830.217	0.0152399
830.295	0.0150924
830.373	0.0151662
830.451	0.0150571
830.530	0.0150398
830.608	0.0151043
830.686	0.0151288
830.764	0.0151587
830.842	0.0150185
830.920	0.0150442
830.998	0.0150463
831.076	0.0150138
831.155	0.0151259
831.233	0.0150684
831.311	0.0148876
831.389	0.0148978
831.467	0.0148767
831.545	0.0149078
831.623	0.0148177
831.701	0.0149427
831.780	0.0149533
831.858	0.0148843
831.936	0.0149529
832.014	0.0150282
832.092	0.0150070
832.170	0.0149375
832.248	0.0148498
832.326	0.0149654
832.405	0.0150386
832.483	0.0149456
832.561	0.0149641
832.639	0.0149480
832.717	0.0149583
832.795	0.0149071
832.873	0.0150298
832.951	0.0150262
833.030	0.0150941
833.108	0.0151124
833.186	0.0149503
833.264	0.0151250
833.342	0.0150399
833.420	0.0151004
833.498	0.0150588
833.576	0.0149616
833.655	0.0150595
833.733	0.0150910
833.811	0.0149657
833.889	0.0150607
833.967	0.0150385
834.045	0.0150469
834.123	0.0149296
834.201	0.0149120
834.280	0.0150645
834.358	0.0151192
834.436	0.0148943
834.514	0.0149467
834.592	0.0149145
834.670	0.0148930
834.748	0.0151159
834.826	0.0150633
834.905	0.0150227
834.983	0.0149188
835.061	0.0148886
835.139	0.0152139
835.217	0.0151741
835.295	0.0150143
835.373	0.0149966
835.451	0.0149747
835.530	0.0150475
835.608	0.0149753
835.686	0.0150525
835.764	0.0150002
835.842	0.0150446
835.920	0.0151211
835.998	0.0152522
836.076	0.0150734
836.155	0.0149773
836.233	0.0150306
836.311	0.0149564
836.389	0.0149072
836.467	0.0149203
836.545	0.0149506
836.623	0.0149581
836.701	0.0150400
836.780	0.0149104
836.858	0.0149622
836.936	0.0148923
837.014	0.0149117
837.092	0.0150977
837.170	0.0149635
837.248	0.0150700
837.326	0.0149129
837.405	0.0148656
837.483	0.0148463
837.561	0.0148938
837.639	0.0150586
837.717	0.0150227
837.795	0.0150112
837.873	0.0148699
837.951	0.0149673
838.030	0.0151115
838.108	0.0149061
838.186	0.0149458
838.264	0.0150093
838.342	0.0149211
838.420	0.0149982
838.498	0.0150763
838.576	0.0150660
838.655	0.0149258
838.733	0.0151536
838.811	0.0150340
838.889	0.0150382
838.967	0.0149638
839.045	0.0150883
839.123	0.0150463
839.201	0.0150762
839.280	0.0151540
839.358	0.0150555
839.436	0.0149043
839.514	0.0150891
839.592	0.0150652
839.670	0.0149261
839.748	0.0149747
839.826	0.0150244
839.905	0.0149873
839.983	0.0149821
840.061	0.0151051
840.139	0.0149746
840.217	0.0150238
840.295	0.0149272
840.373	0.0149617
840.451	0.0148936
840.530	0.0148057
840.608	0.0149262
840.686	0.0148531
840.764	0.0149478
840.842	0.0148445
840.920	0.0149183
840.998	0.0149716
841.076	0.0148823
841.155	0.0148206
841.233	0.0150404
841.311	0.0150334
841.389	0.0148979
841.467	0.0149283
841.545	0.0150878
841.623	0.0149921
841.701	0.0149807
841.780	0.0149308
841.858	0.0149403
841.936	0.0149693
842.014	0.0150587
842.092	0.0150877
842.170	0.0149129
842.248	0.0149745
842.326	0.0150617
842.405	0.0149268
842.483	0.0148993
842.561	0.0149300
842.639	0.0150150
842.717	0.0148884
842.795	0.0149155
842.873	0.0148613
842.951	0.0148538
843.030	0.0148513
843.108	0.0149380
843.186	0.0148257
843.264	0.0150146
843.342	0.0148287
843.420	0.0149789
843.498	0.0148681
843.576	0.0148237
843.655	0.0149026
843.733	0.0150134
843.811	0.0151665
843.889	0.0150340
843.967	0.0148490
844.045	0.0148827
844.123	0.0150109
844.201	0.0149222
844.280	0.0150248
844.358	0.0149441
844.436	0.0148875
844.514	0.0149561
844.592	0.0149546
844.670	0.0149699
844.748	0.0148781
844.826	0.0148726
844.905	0.0149521
844.983	0.0148627
845.061	0.0147978
845.139	0.0148055
845.217	0.0146788
845.295	0.0148189
845.373	0.0149261
845.451	0.0148828
845.530	0.0149110
845.608	0.0149494
845.686	0.0148795
845.764	0.0147968
845.842	0.0148694
845.920	0.0150980
845.998	0.0147375
846.076	0.0147240
846.155	0.0150290
846.233	0.0149250
846.311	0.0148289
846.389	0.0147977
846.467	0.0148352
846.545	0.0147063
846.623	0.0147658
846.701	0.0148561
846.780	0.0147283
846.858	0.0147794
846.936	0.0148164
847.014	0.0148302
847.092	0.0147337
847.170	0.0147708
847.248	0.0147092
847.326	0.0147964
847.405	0.0147527
847.483	0.0146159
847.561	0.0147307
847.639	0.0147508
847.717	0.0147413
847.795	0.0146692
847.873	0.0147704
847.951	0.0147461
848.030	0.0146831
848.108	0.0148450
848.186	0.0147862
848.264	0.0147921
848.342	0.0147266
848.420	0.0146725
848.498	0.0148513
848.576	0.0148186
848.655	0.0148641
848.733	0.0149577
848.811	0.0148059
848.889	0.0148023
848.967	0.0149060
849.045	0.0149625
849.123	0.0149351
849.201	0.0149944
849.280	0.0148631
849.358	0.0147078
849.436	0.0146855
849.514	0.0149180
849.592	0.0149297
849.670	0.0149207
849.748	0.0147839
849.826	0.0148733
849.905	0.0149387
849.983	0.0149104
850.061	0.0149015
850.139	0.0149625
850.217	0.0148481
850.295	0.0149973
850.373	0.0149351
850.451	0.0149729
850.530	0.0148026
850.608	0.0147601
850.686	0.0148783
850.764	0.0149603
850.842	0.0149211
850.920	0.0148509
850.998	0.0148027
851.076	0.0148516
851.155	0.0149680
851.233	0.0149357
851.311	0.0149649
851.389	0.0148701
851.467	0.0148136
851.545	0.0149462
851.623	0.0149555
851.701	0.0148837
851.780	0.0150413
851.858	0.0151331
851.936	0.0150238
852.014	0.0149756
852.092	0.0150936
852.170	0.0150456
852.248	0.0151146
852.326	0.0151369
852.405	0.0150403
852.483	0.0150106
852.561	0.0148602
852.639	0.0149538
852.717	0.0149747
852.795	0.0150372
852.873	0.0149660
852.951	0.0150761
853.030	0.0149055
853.108	0.0148492
853.186	0.0149178
853.264	0.0150172
853.342	0.0149270
853.420	0.0148689
853.498	0.0149163
853.576	0.0147926
853.655	0.0148936
853.733	0.0150010
853.811	0.0149844
853.889	0.0150345
853.967	0.0149109
854.045	0.0149973
854.123	0.0150385
854.201	0.0150232
854.280	0.0150525
854.358	0.0149554
854.436	0.0150676
854.514	0.0149804
854.592	0.0148344
854.670	0.0150100
854.748	0.0150623
854.826	0.0147953
854.905	0.0148292
854.983	0.0149919
855.061	0.0150197
855.139	0.0149709
855.217	0.0149642
855.295	0.0149655
855.373	0.0149457
855.451	0.0148624
855.530	0.0148731
855.608	0.0150128
855.686	0.0149252
855.764	0.0149982
855.842	0.0151315
855.920	0.0150519
855.998	0.0150066
856.076	0.0149956
856.155	0.0151962
856.233	0.0150420
856.311	0.0150217
856.389	0.0150691
856.467	0.0150230
856.545	0.0151623
856.623	0.0151864
856.701	0.0151237
856.780	0.0151573
856.858	0.0150694
856.936	0.0151785
857.014	0.0151328
857.092	0.0150733
857.170	0.0150999
857.248	0.0150875
857.326	0.0151397
857.405	0.0150191
857.483	0.0151400
857.561	0.0151116
857.639	0.0152477
857.717	0.0151316
857.795	0.0150056
857.873	0.0153247
857.951	0.0151914
858.030	0.0152232
858.108	0.0151025
858.186	0.0151225
858.264	0.0151522
858.342	0.0151085
858.420	0.0151669
858.498	0.0152109
858.576	0.0151294
858.655	0.0149738
858.733	0.0149815
858.811	0.0151476
858.889	0.0152403
858.967	0.0150560
859.045	0.0150911
859.123	0.0150526
859.201	0.0150858
859.280	0.0150800
859.358	0.0150592
859.436	0.0151051
859.514	0.0149923
859.592	0.0149723
859.670	0.0149701
859.748	0.0148598
859.826	0.0149154
859.905	0.0149483
859.983	0.0149801
860.061	0.0151316
860.139	0.0148940
860.217	0.0149024
860.295	0.0150735
860.373	0.0150549
860.451	0.0149332
860.530	0.0150504
860.608	0.0149995
860.686	0.0150489
860.764	0.0150705
860.842	0.0149937
860.920	0.0150915
860.998	0.0151455
861.076	0.0150784
861.155	0.0150319
861.233	0.0150741
861.311	0.0151241
861.389	0.0151898
861.467	0.0150900
861.545	0.0150871
861.623	0.0150946
861.701	0.0150483
861.780	0.0149919
861.858	0.0150890
861.936	0.0150309
862.014	0.0148138
862.092	0.0149648
862.170	0.0149204
862.248	0.0149436
862.326	0.0149119
862.405	0.0149950
862.483	0.0151113
862.561	0.0150150
862.639	0.0150668
862.717	0.0149594
862.795	0.0148782
862.873	0.0150256
862.951	0.0149968
863.030	0.0149812
863.108	0.0150297
863.186	0.0151843
863.264	0.0149998
863.342	0.0150240
863.420	0.0150324
863.498	0.0150005
863.576	0.0150964
863.655	0.0148581
863.733	0.0148528
863.811	0.0149501
863.889	0.0150265
863.967	0.0149707
864.045	0.0150299
864.123	0.0149705
864.201	0.0151138
864.280	0.0150918
864.358	0.0150091
864.436	0.0150518
864.514	0.0150504
864.592	0.0150226
864.670	0.0150919
864.748	0.0150820
864.826	0.0150991
864.905	0.0149399
864.983	0.0151597
865.061	0.0149725
865.139	0.0150972
865.217	0.0149983
865.295	0.0150157
865.373	0.0150829
865.451	0.0151389
865.530	0.0149835
865.608	0.0150156
865.686	0.0150479
865.764	0.0150163
865.842	0.0150824
865.920	0.0150058
865.998	0.0149725
866.076	0.0149612
866.155	0.0149885
866.233	0.0150520
866.311	0.0149923
866.389	0.0150494
866.467	0.0149490
866.545	0.0149242
866.623	0.0149769
866.701	0.0148863
866.780	0.0148232
866.858	0.0149875
866.936	0.0149870
867.014	0.0147718
867.092	0.0149711
867.170	0.0149300
867.248	0.0148885
867.326	0.0151362
867.405	0.0151416
867.483	0.0148577
867.561	0.0149496
867.639	0.0150038
867.717	0.0150165
867.795	0.0148176
867.873	0.0149747
867.951	0.0150110
868.030	0.0149191
868.108	0.0149157
868.186	0.0148687
868.264	0.0148061
868.342	0.0149694
868.420	0.0150955
868.498	0.0148495
868.576	0.0149609
868.655	0.0149552
868.733	0.0149138
868.811	0.0150651
868.889	0.0149580
868.967	0.0150156
869.045	0.0150803
869.123	0.0150835
869.201	0.0149860
869.280	0.0149915
869.358	0.0149318
869.436	0.0150182
869.514	0.0149595
869.592	0.0149999
869.670	0.0150209
869.748	0.0150298
869.826	0.0148626
869.905	0.0149102
869.983	0.0149505
870.061	0.0150904
870.139	0.0149147
870.217	0.0149731
870.295	0.0149037
870.373	0.0148083
870.451	0.0147927
870.530	0.0149476
870.608	0.0149577
870.686	0.0148389
870.764	0.0149815
870.842	0.0149806
870.920	0.0149547
870.998	0.0149322
871.076	0.0148555
871.155	0.0148713
871.233	0.0147591
871.311	0.0148969
871.389	0.0147679
871.467	0.0147989
871.545	0.0149467
871.623	0.0148225
871.701	0.0149561
871.780	0.0149961
871.858	0.0148341
871.936	0.0148656
872.014	0.0148878
872.092	0.0148868
872.170	0.0148633
872.248	0.0147813
872.326	0.0148369
872.405	0.0146757
872.483	0.0148780
872.561	0.0149056
872.639	0.0149641
872.717	0.0148624
872.795	0.0147631
872.873	0.0147628
872.951	0.0148663
873.030	0.0149248
873.108	0.0148424
873.186	0.0147765
873.264	0.0148394
873.342	0.0147543
873.420	0.0147737
873.498	0.0148508
873.576	0.0148613
873.655	0.0149336
873.733	0.0147692
873.811	0.0147857
873.889	0.0147763
873.967	0.0146519
874.045	0.0147332
874.123	0.0149532
874.201	0.0148605
874.280	0.0147988
874.358	0.0147958
874.436	0.0147914
874.514	0.0149024
874.592	0.0148573
874.670	0.0148766
874.748	0.0148591
874.826	0.0147517
874.905	0.0148138
874.983	0.0147939
875.061	0.0147340
875.139	0.0148866
875.217	0.0148931
875.295	0.0147920
875.373	0.0149064
875.451	0.0148375
875.530	0.0148466
875.608	0.0147928
875.686	0.0147273
875.764	0.0147809
875.842	0.0149997
875.920	0.0148273
875.998	0.0147916
876.076	0.0149566
876.155	0.0150107
876.233	0.0148045
876.311	0.0148914
876.389	0.0150388
876.467	0.0149105
876.545	0.0148864
876.623	0.0149342
876.701	0.0149329
876.780	0.0149934
876.858	0.0150209
876.936	0.0149597
877.014	0.0149440
877.092	0.0150806
877.170	0.0150024
877.248	0.0148640
877.326	0.0150395
877.405	0.0150132
877.483	0.0148046
877.561	0.0148763
877.639	0.0149567
877.717	0.0148258
877.795	0.0147349
877.873	0.0148199
877.951	0.0149794
878.030	0.0147780
878.108	0.0148775
878.186	0.0147369
878.264	0.0148096
878.342	0.0147824
878.420	0.0147270
878.498	0.0149375
878.576	0.0147038
878.655	0.0148377
878.733	0.0149606
878.811	0.0147989
878.889	0.0149506
878.967	0.0149160
879.045	0.0149650
879.123	0.0148318
879.201	0.0148840
879.280	0.0150485
879.358	0.0149738
879.436	0.0149755
879.514	0.0150529
879.592	0.0150826
879.670	0.0151270
879.748	0.0150612
879.826	0.0149807
879.905	0.0150947
879.983	0.0150700
880.061	0.0150696
880.139	0.0149748
880.217	0.0148896
880.295	0.0149840
880.373	0.0150873
880.451	0.0150861
880.530	0.0150086
880.608	0.0149245
880.686	0.0150269
880.764	0.0149976
880.842	0.0150336
880.920	0.0151029
880.998	0.0150507
881.076	0.0149241
881.155	0.0150552
881.233	0.0150364
881.311	0.0149853
881.389	0.0149952
881.467	0.0150617
881.545	0.0148698
881.623	0.0148985
881.701	0.0151321
881.780	0.0149356
881.858	0.0148857
881.936	0.0149815
882.014	0.0150832
882.092	0.0148785
882.170	0.0149932
882.248	0.0150423
882.326	0.0150753
882.405	0.0149326
882.483	0.0150045
882.561	0.0149494
882.639	0.0151440
882.717	0.0150257
882.795	0.0150520
882.873	0.0150394
882.951	0.0150789
883.030	0.0150461
883.108	0.0149679
883.186	0.0150122
883.264	0.0149927
883.342	0.0148952
883.420	0.0148772
883.498	0.0150098
883.576	0.0148991
883.655	0.0149775
883.733	0.0148528
883.811	0.0150550
883.889	0.0149461
883.967	0.0149554
884.045	0.0149288
884.123	0.0149403
884.201	0.0150423
884.280	0.0149976
884.358	0.0149699
884.436	0.0150214
884.514	0.0151012
884.592	0.0150494
884.670	0.0150974
884.748	0.0151401
884.826	0.0151820
884.905	0.0151562
884.983	0.0150591
885.061	0.0151655
885.139	0.0151548
885.217	0.0151613
885.295	0.0151906
885.373	0.0151531
885.451	0.0151810
885.530	0.0151958
885.608	0.0150262
885.686	0.0150211
885.764	0.0150864
885.842	0.0149355
885.920	0.0149984
885.998	0.0152031
886.076	0.0150204
886.155	0.0149263
886.233	0.0150343
886.311	0.0149525
886.389	0.0147477
886.467	0.0149699
886.545	0.0149560
886.623	0.0149538
886.701	0.0150271
886.780	0.0149611
886.858	0.0149268
886.936	0.0148300
887.014	0.0148081
887.092	0.0147929
887.170	0.0148713
887.248	0.0149847
887.326	0.0149736
887.405	0.0148576
887.483	0.0147965
887.561	0.0149186
887.639	0.0149227
887.717	0.0149052
887.795	0.0149770
887.873	0.0149736
887.951	0.0151115
888.030	0.0150842
888.108	0.0150629
888.186	0.0151139
888.264	0.0150610
888.342	0.0151170
888.420	0.0152320
888.498	0.0151905
888.576	0.0150692
888.655	0.0151023
888.733	0.0152209
888.811	0.0151404
888.889	0.0150778
888.967	0.0149142
889.045	0.0149393
889.123	0.0148452
889.201	0.0148111
889.280	0.0147924
889.358	0.0147638
889.436	0.0147687
889.514	0.0148904
889.592	0.0147755
889.670	0.0146951
889.748	0.0146635
889.826	0.0147081
889.905	0.0145383
889.983	0.0145879
890.061	0.0147189
890.139	0.0146995
890.217	0.0147736
890.295	0.0147575
890.373	0.0148641
890.451	0.0149009
890.530	0.0148623
890.608	0.0149966
890.686	0.0150248
890.764	0.0149080
890.842	0.0149323
890.920	0.0149847
890.998	0.0150812
891.076	0.0151136
891.155	0.0148267
891.233	0.0148564
891.311	0.0150373
891.389	0.0149194
891.467	0.0150027
891.545	0.0149501
891.623	0.0149686
891.701	0.0150761
891.780	0.0150495
891.858	0.0149798
891.936	0.0150442
892.014	0.0150839
892.092	0.0148385
892.170	0.0149644
892.248	0.0150159
892.326	0.0148990
892.405	0.0151406
892.483	0.0150632
892.561	0.0150333
892.639	0.0148952
892.717	0.0149632
892.795	0.0149338
892.873	0.0149406
892.951	0.0150257
893.030	0.0149518
893.108	0.0149909
893.186	0.0149565
893.264	0.0149273
893.342	0.0148952
893.420	0.0150008
893.498	0.0150089
893.576	0.0148797
893.655	0.0148662
893.733	0.0149554
893.811	0.0148555
893.889	0.0148428
893.967	0.0150328
894.045	0.0149918
894.123	0.0149362
894.201	0.0150123
894.280	0.0150394
894.358	0.0150079
894.436	0.0148691
894.514	0.0148951
894.592	0.0150796
894.670	0.0149375
894.748	0.0148221
894.826	0.0148351
894.905	0.0148940
894.983	0.0149152
895.061	0.0148512
895.139	0.0147033
895.217	0.0149197
895.295	0.0147062
895.373	0.0147073
895.451	0.0147099
895.530	0.0148204
895.608	0.0148875
895.686	0.0147576
895.764	0.0146288
895.842	0.0147435
895.920	0.0148002
895.998	0.0147998
896.076	0.0148869
896.155	0.0147752
896.233	0.0146144
896.311	0.0147124
896.389	0.0148180
896.467	0.0148760
896.545	0.0149118
896.623	0.0148075
896.701	0.0149283
896.780	0.0148729
896.858	0.0148236
896.936	0.0149773
897.014	0.0149417
897.092	0.0150343
897.170	0.0149528
897.248	0.0149299
897.326	0.0149836
897.405	0.0149175
897.483	0.0150728
897.561	0.0150933
897.639	0.0149854
897.717	0.0148808
897.795	0.0150029
897.873	0.0150380
897.951	0.0149648
898.030	0.0150804
898.108	0.0150274
898.186	0.0150306
898.264	0.0151292
898.342	0.0148505
898.420	0.0150657
898.498	0.0150596
898.576	0.0150474
898.655	0.0148724
898.733	0.0149889
898.811	0.0149466
898.889	0.0149488
898.967	0.0148560
899.045	0.0148521
899.123	0.0149795
899.201	0.0149427
899.280	0.0149461
899.358	0.0147966
899.436	0.0147298
899.514	0.0148960
899.592	0.0147979
899.670	0.0148333
899.748	0.0148740
899.826	0.0147681
899.905	0.0148531
899.983	0.0147985
900.061	0.0147688
900.139	0.0148550
900.217	0.0148228
900.295	0.0148614
900.373	0.0149526
900.451	0.0149508
900.530	0.0149139
900.608	0.0150428
900.686	0.0149397
900.764	0.0148603
900.842	0.0149446
900.920	0.0149803
900.998	0.0149151
901.076	0.0150011
901.155	0.0150360
901.233	0.0151232
901.311	0.0149476
901.389	0.0149619
901.467	0.0151048
901.545	0.0149565
901.623	0.0149711
901.701	0.0149271
901.780	0.0149603
901.858	0.0149725
901.936	0.0149398
902.014	0.0149704
902.092	0.0151685
902.170	0.0150709
902.248	0.0149923
902.326	0.0148289
902.405	0.0148417
902.483	0.0148856
902.561	0.0147668
902.639	0.0149348
902.717	0.0149320
902.795	0.0148295
902.873	0.0148821
902.951	0.0149194
903.030	0.0148634
903.108	0.0147674
903.186	0.0150076
903.264	0.0148264
903.342	0.0146897
903.420	0.0147147
903.498	0.0150495
903.576	0.0148597
903.655	0.0149066
903.733	0.0150513
903.811	0.0149414
903.889	0.0148646
903.967	0.0149162
904.045	0.0150121
904.123	0.0149655
904.201	0.0150536
904.280	0.0150283
904.358	0.0149165
904.436	0.0150130
904.514	0.0148989
904.592	0.0148354
904.670	0.0149555
904.748	0.0150384
904.826	0.0150227
904.905	0.0148921
904.983	0.0148277
905.061	0.0148689
905.139	0.0150190
905.217	0.0148421
905.295	0.0148200
905.373	0.0148879
905.451	0.0149750
905.530	0.0150001
905.608	0.0149188
905.686	0.0148709
905.764	0.0149197
905.842	0.0148103
905.920	0.0147683
905.998	0.0149757
906.076	0.0149667
906.155	0.0148722
906.233	0.0148954
906.311	0.0149915
906.389	0.0148533
906.467	0.0148673
906.545	0.0149370
906.623	0.0150443
906.701	0.0149683
906.780	0.0149557
906.858	0.0148905
906.936	0.0150012
907.014	0.0149085
907.092	0.0149274
907.170	0.0150172
907.248	0.0149628
907.326	0.0147474
907.405	0.0149088
907.483	0.0149245
907.561	0.0148953
907.639	0.0147620
907.717	0.0147797
907.795	0.0148516
907.873	0.0147633
907.951	0.0147940
908.030	0.0146653
908.108	0.0147617
908.186	0.0148635
908.264	0.0147253
908.342	0.0148060
908.420	0.0146982
908.498	0.0147883
908.576	0.0149238
908.655	0.0149293
908.733	0.0148348
908.811	0.0149566
908.889	0.0150292
908.967	0.0150614
909.045	0.0149043
909.123	0.0148860
909.201	0.0150092
909.280	0.0149290
909.358	0.0148009
909.436	0.0150222
909.514	0.0149354
909.592	0.0149312
909.670	0.0147849
909.748	0.0149903
909.826	0.0148898
909.905	0.0147490
909.983	0.0148190
910.061	0.0148114
910.139	0.0149603
910.217	0.0149446
910.295	0.0147452
910.373	0.0149415
910.451	0.0148480
910.530	0.0148873
910.608	0.0148844
910.686	0.0150270
910.764	0.0148639
910.842	0.0149008
910.920	0.0149990
910.998	0.0148648
911.076	0.0148684
911.155	0.0149929
911.233	0.0151006
911.311	0.0149881
911.389	0.0150491
911.467	0.0150441
911.545	0.0149402
911.623	0.0149722
911.701	0.0150765
911.780	0.0150621
911.858	0.0150471
911.936	0.0149103
912.014	0.0149406
912.092	0.0148891
912.170	0.0148854
912.248	0.0149738
912.326	0.0149726
912.405	0.0148725
912.483	0.0149348
912.561	0.0150628
912.639	0.0149281
912.717	0.0149025
912.795	0.0148296
912.873	0.0148962
912.951	0.0149810
913.030	0.0149710
913.108	0.0148713
913.186	0.0149598
913.264	0.0151087
913.342	0.0149416
913.420	0.0149850
913.498	0.0149591
913.576	0.0151476
913.655	0.0150643
913.733	0.0151120
913.811	0.0149823
913.889	0.0150560
913.967	0.0150119
914.045	0.0151154
914.123	0.0149266
914.201	0.0148943
914.280	0.0150997
914.358	0.0150434
914.436	0.0149388
914.514	0.0151137
914.592	0.0149084
914.670	0.0149731
914.748	0.0151374
914.826	0.0150681
914.905	0.0151283
914.983	0.0148373
915.061	0.0149285
915.139	0.0149352
915.217	0.0148102
915.295	0.0150706
915.373	0.0150436
915.451	0.0150519
915.530	0.0148576
915.608	0.0149706
915.686	0.0148696
915.764	0.0149641
915.842	0.0150955
915.920	0.0147855
915.998	0.0148849
916.076	0.0149090
916.155	0.0148565
916.233	0.0147207
916.311	0.0147144
916.389	0.0148999
916.467	0.0149938
916.545	0.0148390
916.623	0.0147530
916.701	0.0149245
916.780	0.0149967
916.858	0.0149008
916.936	0.0147939
917.014	0.0148327
917.092	0.0147659
917.170	0.0148648
917.248	0.0149554
917.326	0.0149353
917.405	0.0149728
917.483	0.0150546
917.561	0.0150779
917.639	0.0149622
917.717	0.0150195
917.795	0.0149876
917.873	0.0151936
917.951	0.0151859
918.030	0.0150240
918.108	0.0150871
918.186	0.0150884
918.264	0.0151174
918.342	0.0149139
918.420	0.0151228
918.498	0.0150443
918.576	0.0149707
918.655	0.0148876
918.733	0.0150244
918.811	0.0148788
918.889	0.0148676
918.967	0.0148418
919.045	0.0148759
919.123	0.0149400
919.201	0.0149284
919.280	0.0148951
919.358	0.0149348
919.436	0.0150101
919.514	0.0150171
919.592	0.0150642
919.670	0.0150105
919.748	0.0149444
919.826	0.0149736
919.905	0.0149131
919.983	0.0149759
920.061	0.0149704
920.139	0.0150011
920.217	0.0149133
920.295	0.0149663
920.373	0.0149773
920.451	0.0148374
920.530	0.0148335
920.608	0.0150031
920.686	0.0150232
920.764	0.0149513
920.842	0.0149194
920.920	0.0150645
920.998	0.0149235
921.076	0.0150805
921.155	0.0150533
921.233	0.0151083
921.311	0.0150629
921.389	0.0151160
921.467	0.0151263
921.545	0.0150077
921.623	0.0151697
921.701	0.0149219
921.780	0.0150635
921.858	0.0149686
921.936	0.0148507
922.014	0.0148394
922.092	0.0150282
922.170	0.0149645
922.248	0.0149433
922.326	0.0149049
922.405	0.0149627
922.483	0.0149503
922.561	0.0149558
922.639	0.0150559
922.717	0.0149913
922.795	0.0149586
922.873	0.0149048
922.951	0.0149348
923.030	0.0150110
923.108	0.0149218
923.186	0.0149113
923.264	0.0150591
923.342	0.0151871
923.420	0.0149435
923.498	0.0149882
923.576	0.0150172
923.655	0.0149281
923.733	0.0149751
923.811	0.0150217
923.889	0.0150314
923.967	0.0149771
924.045	0.0150468
924.123	0.0150133
924.201	0.0151466
924.280	0.0151324
924.358	0.0149555
924.436	0.0148803
924.514	0.0150168
924.592	0.0149838
924.670	0.0147971
924.748	0.0148853
924.826	0.0150639
924.905	0.0148372
924.983	0.0147826
925.061	0.0147957
925.139	0.0147142
925.217	0.0147929
925.295	0.0148093
925.373	0.0149166
925.451	0.0148655
925.530	0.0147549
925.608	0.0149204
925.686	0.0148158
925.764	0.0148707
925.842	0.0147740
925.920	0.0147504
925.998	0.0148053
926.076	0.0147392
926.155	0.0149159
926.233	0.0148949
926.311	0.0148248
926.389	0.0146510
926.467	0.0147678
926.545	0.0150048
926.623	0.0148949
926.701	0.0147750
926.780	0.0149554
926.858	0.0148338
926.936	0.0148029
927.014	0.0148191
927.092	0.0149725
927.170	0.0150234
927.248	0.0149260
927.326	0.0148119
927.405	0.0149068
927.483	0.0148870
927.561	0.0149181
927.639	0.0149265
927.717	0.0149922
927.795	0.0149081
927.873	0.0147903
927.951	0.0148740
928.030	0.0149306
928.108	0.0149142
928.186	0.0148739
928.264	0.0149660
928.342	0.0149085
928.420	0.0150603
928.498	0.0149590
928.576	0.0148857
928.655	0.0147785
928.733	0.0148823
928.811	0.0148203
928.889	0.0148916
928.967	0.0149451
929.045	0.0148735
929.123	0.0148907
929.201	0.0147917
929.280	0.0148542
929.358	0.0148549
929.436	0.0149268
929.514	0.0148942
929.592	0.0149514
929.670	0.0148513
929.748	0.0147046
929.826	0.0149491
929.905	0.0147631
929.983	0.0148995
930.061	0.0149265
930.139	0.0148902
930.217	0.0148932
930.295	0.0148343
930.373	0.0147631
930.451	0.0149636
930.530	0.0149019
930.608	0.0148623
930.686	0.0148887
930.764	0.0148813
930.842	0.0148262
930.920	0.0147586
930.998	0.0147556
931.076	0.0149385
931.155	0.0149487
931.233	0.0147977
931.311	0.0148293
931.389	0.0146631
931.467	0.0146680
931.545	0.0148822
931.623	0.0149639
931.701	0.0148252
931.780	0.0148034
931.858	0.0148454
931.936	0.0149345
932.014	0.0148637
932.092	0.0149895
932.170	0.0149155
932.248	0.0149368
932.326	0.0150430
932.405	0.0149597
932.483	0.0149075
932.561	0.0149277
932.639	0.0149956
932.717	0.0149545
932.795	0.0148746
932.873	0.0149695
932.951	0.0149731
933.030	0.0149545
933.108	0.0149061
933.186	0.0148014
933.264	0.0149077
933.342	0.0149361
933.420	0.0148603
933.498	0.0148623
933.576	0.0149202
933.655	0.0149251
933.733	0.0147792
933.811	0.0147802
933.889	0.0148895
933.967	0.0149260
934.045	0.0148752
934.123	0.0148294
934.201	0.0147778
934.280	0.0148658
934.358	0.0148360
934.436	0.0147526
934.514	0.0147984
934.592	0.0149477
934.670	0.0149517
934.748	0.0149922
934.826	0.0150376
934.905	0.0150106
934.983	0.0148683
935.061	0.0149471
935.139	0.0149725
935.217	0.0149129
935.295	0.0150501
935.373	0.0148026
935.451	0.0149175
935.530	0.0149070
935.608	0.0148500
935.686	0.0148769
935.764	0.0148300
935.842	0.0149715
935.920	0.0148579
935.998	0.0148479
936.076	0.0148671
936.155	0.0150739
936.233	0.0149073
936.311	0.0149299
936.389	0.0150298
936.467	0.0149818
936.545	0.0149544
936.623	0.0148666
936.701	0.0150542
936.780	0.0149551
936.858	0.0150335
936.936	0.0149162
937.014	0.0149304
937.092	0.0150818
937.170	0.0149888
937.248	0.0150170
937.326	0.0151366
937.405	0.0149772
937.483	0.0150381
937.561	0.0149753
937.639	0.0149477
937.717	0.0150317
937.795	0.0150977
937.873	0.0150705
937.951	0.0148723
938.030	0.0149932
938.108	0.0150307
938.186	0.0150290
938.264	0.0148616
938.342	0.0149227
938.420	0.0149210
938.498	0.0150050
938.576	0.0149152
938.655	0.0149685
938.733	0.0150033
938.811	0.0149969
938.889	0.0150107
938.967	0.0150709
939.045	0.0149323
939.123	0.0150071
939.201	0.0149611
939.280	0.0150849
939.358	0.0150554
939.436	0.0150166
939.514	0.0150285
939.592	0.0149433
939.670	0.0150432
939.748	0.0150941
939.826	0.0151031
939.905	0.0151192
939.983	0.0152187
940.061	0.0151108
940.139	0.0150130
940.217	0.0151411
940.295	0.0151154
940.373	0.0151270
940.451	0.0150994
940.530	0.0149272
940.608	0.0150170
940.686	0.0150608
940.764	0.0151241
940.842	0.0149905
940.920	0.0150665
940.998	0.0149435
941.076	0.0150365
941.155	0.0150327
941.233	0.0150147
941.311	0.0151398
941.389	0.0150397
941.467	0.0150826
941.545	0.0149773
941.623	0.0149612
941.701	0.0150636
941.780	0.0150195
941.858	0.0149240
941.936	0.0149781
942.014	0.0150001
942.092	0.0149421
942.170	0.0148970
942.248	0.0148045
942.326	0.0148294
942.405	0.0149381
942.483	0.0148544
942.561	0.0148068
942.639	0.0148620
942.717	0.0149615
942.795	0.0149191
942.873	0.0148272
942.951	0.0148693
943.030	0.0148812
943.108	0.0148743
943.186	0.0148553
943.264	0.0149940
943.342	0.0150669
943.420	0.0149822
943.498	0.0151346
943.576	0.0149207
943.655	0.0149259
943.733	0.0151099
943.811	0.0150048
943.889	0.0150550
943.967	0.0150838
944.045	0.0151499
944.123	0.0151821
944.201	0.0151711
944.280	0.0151962
944.358	0.0150287
944.436	0.0150977
944.514	0.0150149
944.592	0.0152619
944.670	0.0150427
944.748	0.0149884
944.826	0.0151269
944.905	0.0151254
944.983	0.0150139
945.061	0.0150672
945.139	0.0150089
945.217	0.0150204
945.295	0.0150879
945.373	0.0151244
945.451	0.0149564
945.530	0.0149773
945.608	0.0150617
945.686	0.0149850
945.764	0.0147985
945.842	0.0149318
945.920	0.0149184
945.998	0.0150005
946.076	0.0148823
946.155	0.0149331
946.233	0.0149669
946.311	0.0150112
946.389	0.0148819
946.467	0.0149095
946.545	0.0148628
946.623	0.0148977
946.701	0.0149676
946.780	0.0149287
946.858	0.0148411
946.936	0.0149122
947.014	0.0149136
947.092	0.0149677
947.170	0.0151686
947.248	0.0151549
947.326	0.0149324
947.405	0.0149138
947.483	0.0148431
947.561	0.0150426
947.639	0.0151581
947.717	0.0149041
947.795	0.0149509
947.873	0.0149418
947.951	0.0149093
948.030	0.0147552
948.108	0.0148634
948.186	0.0147657
948.264	0.0148249
948.342	0.0146114
948.420	0.0148047
948.498	0.0148183
948.576	0.0149148
948.655	0.0147403
948.733	0.0148319
948.811	0.0147640
948.889	0.0147772
948.967	0.0149380
949.045	0.0147694
949.123	0.0148695
949.201	0.0148253
949.280	0.0148550
949.358	0.0149488
949.436	0.0148524
949.514	0.0148388
949.592	0.0150167
949.670	0.0149739
949.748	0.0149656
949.826	0.0149483
949.905	0.0148300
949.983	0.0149861
950.061	0.0150462
950.139	0.0149738
950.217	0.0148952
950.295	0.0150175
950.373	0.0149524
950.451	0.0149295
950.530	0.0149935
950.608	0.0150251
950.686	0.0150405
950.764	0.0150130
950.842	0.0149964
950.920	0.0150811
950.998	0.0148318
951.076	0.0148354
951.155	0.0150629
951.233	0.0150387
951.311	0.0149951
951.389	0.0149649
951.467	0.0150255
951.545	0.0151334
951.623	0.0151545
951.701	0.0149742
951.780	0.0150083
951.858	0.0148710
951.936	0.0150284
952.014	0.0151029
952.092	0.0150655
952.170	0.0149679
952.248	0.0150003
952.326	0.0150346
952.405	0.0149791
952.483	0.0150156
952.561	0.0150927
952.639	0.0151058
952.717	0.0149226
952.795	0.0150900
952.873	0.0150037
952.951	0.0150363
953.030	0.0150265
953.108	0.0150420
953.186	0.0149426
953.264	0.0150399
953.342	0.0151200
953.420	0.0150493
953.498	0.0149837
953.576	0.0150181
953.655	0.0150626
953.733	0.0151518
953.811	0.0151359
953.889	0.0150270
953.967	0.0151058
954.045	0.0151116
954.123	0.0151505
954.201	0.0150449
954.280	0.0150354
954.358	0.0149602
954.436	0.0150380
954.514	0.0150182
954.592	0.0150979
954.670	0.0151362
954.748	0.0151108
954.826	0.0150122
954.905	0.0151756
954.983	0.0150237
955.061	0.0150494
955.139	0.0149616
955.217	0.0150735
955.295	0.0150090
955.373	0.0150613
955.451	0.0149341
955.530	0.0149597
955.608	0.0148331
955.686	0.0149622
955.764	0.0149753
955.842	0.0150225
955.920	0.0149161
955.998	0.0149954
956.076	0.0150127
956.155	0.0149718
956.233	0.0150285
956.311	0.0149517
956.389	0.0148994
956.467	0.0149629
956.545	0.0150193
956.623	0.0149226
956.701	0.0149459
956.780	0.0148665
956.858	0.0148718
956.936	0.0149522
957.014	0.0149699
957.092	0.0148299
957.170	0.0149709
957.248	0.0149569
957.326	0.0149709
957.405	0.0148916
957.483	0.0148546
957.561	0.0147921
957.639	0.0149612
957.717	0.0149089
957.795	0.0149126
957.873	0.0148562
957.951	0.0149419
958.030	0.0149954
958.108	0.0149269
958.186	0.0148738
958.264	0.0149505
958.342	0.0149448
958.420	0.0148934
958.498	0.0148406
958.576	0.0150020
958.655	0.0149672
958.733	0.0149986
958.811	0.0149852
958.889	0.0150003
958.967	0.0149747
959.045	0.0149791
959.123	0.0150012
959.201	0.0150176
959.280	0.0149230
959.358	0.0151131
959.436	0.0149692
959.514	0.0150977
959.592	0.0150985
959.670	0.0151409
959.748	0.0150417
959.826	0.0150729
959.905	0.0150784
