05/20/2022	16:44:58	Ver.	4.1	UNKNOWN
Optical Delay	639.982744	Delta X		0.078125	Sweeps	1	Scan Rate	0/0
Coordinates	Axis 1	NaN	Axis 2	NaN	Axis 3	NaN	Axis 4	NaN	Axis 5	NaN	Axis 6	0.000000
TX Power	0.000000	RX Power	0.000000

639.983	0.0150190
640.061	0.0148730
640.139	0.0147620
640.217	0.0148107
640.295	0.0149050
640.373	0.0146687
640.451	0.0147100
640.530	0.0149377
640.608	0.0147646
640.686	0.0147462
640.764	0.0148295
640.842	0.0147491
640.920	0.0147484
640.998	0.0146385
641.076	0.0147065
641.155	0.0147398
641.233	0.0148513
641.311	0.0147316
641.389	0.0146086
641.467	0.0147398
641.545	0.0147670
641.623	0.0148943
641.701	0.0147990
641.780	0.0146512
641.858	0.0148194
641.936	0.0147337
642.014	0.0148045
642.092	0.0147279
642.170	0.0147178
642.248	0.0146906
642.326	0.0148264
642.405	0.0147246
642.483	0.0146577
642.561	0.0146171
642.639	0.0145737
642.717	0.0146645
642.795	0.0148097
642.873	0.0148440
642.951	0.0147999
643.030	0.0146337
643.108	0.0146642
643.186	0.0147238
643.264	0.0147860
643.342	0.0147878
643.420	0.0147865
643.498	0.0147488
643.576	0.0148971
643.655	0.0149261
643.733	0.0146669
643.811	0.0147047
643.889	0.0147868
643.967	0.0147778
644.045	0.0149237
644.123	0.0146619
644.201	0.0147305
644.280	0.0148103
644.358	0.0147589
644.436	0.0147936
644.514	0.0146265
644.592	0.0147511
644.670	0.0145834
644.748	0.0146657
644.826	0.0148206
644.905	0.0147713
644.983	0.0147671
645.061	0.0148378
645.139	0.0146493
645.217	0.0148717
645.295	0.0147933
645.373	0.0148270
645.451	0.0146844
645.530	0.0148145
645.608	0.0148647
645.686	0.0147687
645.764	0.0148477
645.842	0.0147995
645.920	0.0149198
645.998	0.0149349
646.076	0.0147392
646.155	0.0147858
646.233	0.0147364
646.311	0.0148910
646.389	0.0148015
646.467	0.0146576
646.545	0.0147554
646.623	0.0148032
646.701	0.0147279
646.780	0.0148701
646.858	0.0148126
646.936	0.0147961
647.014	0.0146984
647.092	0.0147568
647.170	0.0148212
647.248	0.0147939
647.326	0.0147508
647.405	0.0146587
647.483	0.0148154
647.561	0.0146978
647.639	0.0148087
647.717	0.0148405
647.795	0.0148140
647.873	0.0147470
647.951	0.0148431
648.030	0.0147727
648.108	0.0147949
648.186	0.0147199
648.264	0.0148405
648.342	0.0148265
648.420	0.0147857
648.498	0.0149180
648.576	0.0147762
648.655	0.0147858
648.733	0.0148803
648.811	0.0148267
648.889	0.0149379
648.967	0.0148632
649.045	0.0146439
649.123	0.0146905
649.201	0.0148663
649.280	0.0147356
649.358	0.0147737
649.436	0.0147378
649.514	0.0146620
649.592	0.0148150
649.670	0.0147039
649.748	0.0146847
649.826	0.0146889
649.905	0.0147524
649.983	0.0147804
650.061	0.0147305
650.139	0.0147249
650.217	0.0146482
650.295	0.0146674
650.373	0.0148009
650.451	0.0148946
650.530	0.0147317
650.608	0.0148409
650.686	0.0147550
650.764	0.0148133
650.842	0.0148117
650.920	0.0148991
650.998	0.0149072
651.076	0.0148411
651.155	0.0147226
651.233	0.0148385
651.311	0.0148315
651.389	0.0147791
651.467	0.0147497
651.545	0.0146932
651.623	0.0148004
651.701	0.0148769
651.780	0.0147311
651.858	0.0148280
651.936	0.0148111
652.014	0.0147230
652.092	0.0147736
652.170	0.0148820
652.248	0.0147913
652.326	0.0148067
652.405	0.0147568
652.483	0.0149117
652.561	0.0148309
652.639	0.0147495
652.717	0.0147793
652.795	0.0148563
652.873	0.0147719
652.951	0.0147120
653.030	0.0147565
653.108	0.0148050
653.186	0.0149084
653.264	0.0148420
653.342	0.0146272
653.420	0.0148139
653.498	0.0148251
653.576	0.0147446
653.655	0.0147420
653.733	0.0147427
653.811	0.0148132
653.889	0.0147824
653.967	0.0148758
654.045	0.0147187
654.123	0.0147599
654.201	0.0147830
654.280	0.0147422
654.358	0.0147334
654.436	0.0148406
654.514	0.0147997
654.592	0.0148756
654.670	0.0147395
654.748	0.0148171
654.826	0.0146981
654.905	0.0148356
654.983	0.0149139
655.061	0.0148851
655.139	0.0149495
655.217	0.0148215
655.295	0.0148508
655.373	0.0149281
655.451	0.0148557
655.530	0.0149551
655.608	0.0149522
655.686	0.0150044
655.764	0.0149487
655.842	0.0150182
655.920	0.0149863
655.998	0.0150816
656.076	0.0149008
656.155	0.0149133
656.233	0.0149942
656.311	0.0150517
656.389	0.0149739
656.467	0.0150385
656.545	0.0150307
656.623	0.0149783
656.701	0.0149020
656.780	0.0150348
656.858	0.0149190
656.936	0.0149011
657.014	0.0149767
657.092	0.0150049
657.170	0.0148920
657.248	0.0149809
657.326	0.0149647
657.405	0.0150690
657.483	0.0149140
657.561	0.0150613
657.639	0.0150982
657.717	0.0150124
657.795	0.0150432
657.873	0.0150616
657.951	0.0151289
658.030	0.0150318
658.108	0.0151311
658.186	0.0150935
658.264	0.0150865
658.342	0.0151496
658.420	0.0151596
658.498	0.0151709
658.576	0.0151138
658.655	0.0150816
658.733	0.0150237
658.811	0.0149920
658.889	0.0152174
658.967	0.0150665
659.045	0.0150810
659.123	0.0149732
659.201	0.0149194
659.280	0.0150654
659.358	0.0150579
659.436	0.0150635
659.514	0.0149210
659.592	0.0149179
659.670	0.0149599
659.748	0.0150352
659.826	0.0149462
659.905	0.0151115
659.983	0.0148935
660.061	0.0150944
660.139	0.0149845
660.217	0.0148317
660.295	0.0149483
660.373	0.0151376
660.451	0.0150590
660.530	0.0150316
660.608	0.0151019
660.686	0.0149422
660.764	0.0149460
660.842	0.0150070
660.920	0.0150437
660.998	0.0150103
661.076	0.0150391
661.155	0.0148943
661.233	0.0149770
661.311	0.0149560
661.389	0.0149536
661.467	0.0148412
661.545	0.0149512
661.623	0.0148793
661.701	0.0148986
661.780	0.0149741
661.858	0.0149796
661.936	0.0148900
662.014	0.0148554
662.092	0.0148834
662.170	0.0149080
662.248	0.0150598
662.326	0.0149324
662.405	0.0148691
662.483	0.0151128
662.561	0.0148901
662.639	0.0149108
662.717	0.0150887
662.795	0.0150520
662.873	0.0150123
662.951	0.0149763
663.030	0.0151436
663.108	0.0150288
663.186	0.0150335
663.264	0.0151503
663.342	0.0150045
663.420	0.0150144
663.498	0.0150056
663.576	0.0149797
663.655	0.0150201
663.733	0.0149953
663.811	0.0147463
663.889	0.0147926
663.967	0.0148538
664.045	0.0148820
664.123	0.0149825
664.201	0.0148060
664.280	0.0148331
664.358	0.0147614
664.436	0.0148112
664.514	0.0147471
664.592	0.0148823
664.670	0.0149374
664.748	0.0148375
664.826	0.0148660
664.905	0.0149509
664.983	0.0147779
665.061	0.0148219
665.139	0.0149336
665.217	0.0148045
665.295	0.0148160
665.373	0.0145872
665.451	0.0147511
665.530	0.0147348
665.608	0.0146690
665.686	0.0148429
665.764	0.0146355
665.842	0.0146432
665.920	0.0146195
665.998	0.0146120
666.076	0.0147187
666.155	0.0147907
666.233	0.0148058
666.311	0.0148267
666.389	0.0149059
666.467	0.0147803
666.545	0.0149850
666.623	0.0148672
666.701	0.0149477
666.780	0.0150167
666.858	0.0149964
666.936	0.0148291
667.014	0.0149850
667.092	0.0149651
667.170	0.0148456
667.248	0.0148226
667.326	0.0149171
667.405	0.0150111
667.483	0.0149027
667.561	0.0148622
667.639	0.0148247
667.717	0.0147416
667.795	0.0148000
667.873	0.0148094
667.951	0.0148737
668.030	0.0148492
668.108	0.0147910
668.186	0.0147763
668.264	0.0146735
668.342	0.0145132
668.420	0.0145453
668.498	0.0145564
668.576	0.0145493
668.655	0.0144078
668.733	0.0141975
668.811	0.0143077
668.889	0.0144143
668.967	0.0143165
669.045	0.0143204
669.123	0.0144129
669.201	0.0143517
669.280	0.0143156
669.358	0.0144715
669.436	0.0144849
669.514	0.0145693
669.592	0.0146814
669.670	0.0146797
669.748	0.0148647
669.826	0.0149091
669.905	0.0148767
669.983	0.0148621
670.061	0.0149660
670.139	0.0149593
670.217	0.0150768
670.295	0.0152052
670.373	0.0151091
670.451	0.0153214
670.530	0.0152562
670.608	0.0152882
670.686	0.0152150
670.764	0.0153092
670.842	0.0152272
670.920	0.0153994
670.998	0.0153220
671.076	0.0153479
671.155	0.0153145
671.233	0.0150774
671.311	0.0150796
671.389	0.0150687
671.467	0.0149767
671.545	0.0147289
671.623	0.0147038
671.701	0.0145446
671.780	0.0145183
671.858	0.0144292
671.936	0.0142382
672.014	0.0140963
672.092	0.0141036
672.170	0.0140808
672.248	0.0140233
672.326	0.0139761
672.405	0.0139803
672.483	0.0139467
672.561	0.0141016
672.639	0.0140238
672.717	0.0140555
672.795	0.0140521
672.873	0.0143454
672.951	0.0144085
673.030	0.0144377
673.108	0.0144860
673.186	0.0146198
673.264	0.0146157
673.342	0.0150069
673.420	0.0149929
673.498	0.0152200
673.576	0.0151865
673.655	0.0154514
673.733	0.0156630
673.811	0.0156223
673.889	0.0156182
673.967	0.0158033
674.045	0.0156902
674.123	0.0156703
674.201	0.0154600
674.280	0.0155386
674.358	0.0156392
674.436	0.0154760
674.514	0.0152861
674.592	0.0152533
674.670	0.0151775
674.748	0.0150035
674.826	0.0148484
674.905	0.0145515
674.983	0.0144502
675.061	0.0144509
675.139	0.0143573
675.217	0.0141705
675.295	0.0140323
675.373	0.0138667
675.451	0.0139459
675.530	0.0138607
675.608	0.0138287
675.686	0.0139174
675.764	0.0139644
675.842	0.0137497
675.920	0.0138079
675.998	0.0139935
676.076	0.0140311
676.155	0.0140837
676.233	0.0143125
676.311	0.0145709
676.389	0.0146199
676.467	0.0148087
676.545	0.0149935
676.623	0.0153050
676.701	0.0154227
676.780	0.0154375
676.858	0.0157645
676.936	0.0159033
677.014	0.0157899
677.092	0.0160071
677.170	0.0160738
677.248	0.0161021
677.326	0.0162518
677.405	0.0161302
677.483	0.0162247
677.561	0.0161619
677.639	0.0160571
677.717	0.0158550
677.795	0.0158081
677.873	0.0158649
677.951	0.0158028
678.030	0.0155782
678.108	0.0155218
678.186	0.0153651
678.264	0.0154449
678.342	0.0151424
678.420	0.0148035
678.498	0.0147849
678.576	0.0147975
678.655	0.0147643
678.733	0.0146597
678.811	0.0146456
678.889	0.0146748
678.967	0.0147696
679.045	0.0148466
679.123	0.0147435
679.201	0.0147281
679.280	0.0145019
679.358	0.0147200
679.436	0.0146849
679.514	0.0146786
679.592	0.0146287
679.670	0.0145377
679.748	0.0145325
679.826	0.0146133
679.905	0.0145833
679.983	0.0147533
680.061	0.0148488
680.139	0.0146297
680.217	0.0148919
680.295	0.0149039
680.373	0.0150596
680.451	0.0148994
680.530	0.0150555
680.608	0.0147868
680.686	0.0149780
680.764	0.0148691
680.842	0.0149733
680.920	0.0149267
680.998	0.0148201
681.076	0.0148574
681.155	0.0148721
681.233	0.0148102
681.311	0.0149510
681.389	0.0150635
681.467	0.0151241
681.545	0.0153825
681.623	0.0152911
681.701	0.0153776
681.780	0.0155869
681.858	0.0157935
681.936	0.0158121
682.014	0.0157882
682.092	0.0159142
682.170	0.0158307
682.248	0.0159298
682.326	0.0158694
682.405	0.0157765
682.483	0.0157159
682.561	0.0156631
682.639	0.0155871
682.717	0.0155398
682.795	0.0154894
682.873	0.0153674
682.951	0.0151327
683.030	0.0150860
683.108	0.0149435
683.186	0.0149428
683.264	0.0147901
683.342	0.0144640
683.420	0.0144212
683.498	0.0141434
683.576	0.0140398
683.655	0.0137881
683.733	0.0136678
683.811	0.0135882
683.889	0.0133982
683.967	0.0131849
684.045	0.0132191
684.123	0.0131123
684.201	0.0130703
684.280	0.0132431
684.358	0.0131641
684.436	0.0134454
684.514	0.0134868
684.592	0.0136020
684.670	0.0139197
684.748	0.0139904
684.826	0.0142431
684.905	0.0144808
684.983	0.0147876
685.061	0.0148752
685.139	0.0150854
685.217	0.0152653
685.295	0.0154468
685.373	0.0156165
685.451	0.0157214
685.530	0.0160854
685.608	0.0160201
685.686	0.0160185
685.764	0.0163402
685.842	0.0162315
685.920	0.0162782
685.998	0.0162345
686.076	0.0162949
686.155	0.0161133
686.233	0.0161509
686.311	0.0158826
686.389	0.0157573
686.467	0.0154670
686.545	0.0154176
686.623	0.0151203
686.701	0.0149847
686.780	0.0148486
686.858	0.0144936
686.936	0.0144602
687.014	0.0142835
687.092	0.0140984
687.170	0.0138701
687.248	0.0137338
687.326	0.0134328
687.405	0.0134934
687.483	0.0134212
687.561	0.0133168
687.639	0.0131556
687.717	0.0130653
687.795	0.0130869
687.873	0.0130521
687.951	0.0132825
688.030	0.0134134
688.108	0.0134987
688.186	0.0137132
688.264	0.0139178
688.342	0.0142272
688.420	0.0143885
688.498	0.0147191
688.576	0.0149948
688.655	0.0152026
688.733	0.0153699
688.811	0.0156782
688.889	0.0157591
688.967	0.0159015
689.045	0.0162173
689.123	0.0162090
689.201	0.0162540
689.280	0.0162300
689.358	0.0162962
689.436	0.0162428
689.514	0.0162949
689.592	0.0162972
689.670	0.0161552
689.748	0.0160596
689.826	0.0160497
689.905	0.0159431
689.983	0.0157938
690.061	0.0155721
690.139	0.0153389
690.217	0.0151661
690.295	0.0150055
690.373	0.0148857
690.451	0.0147460
690.530	0.0145442
690.608	0.0144125
690.686	0.0141981
690.764	0.0142204
690.842	0.0140453
690.920	0.0139654
690.998	0.0140816
691.076	0.0140862
691.155	0.0140679
691.233	0.0138519
691.311	0.0140668
691.389	0.0141733
691.467	0.0141867
691.545	0.0142090
691.623	0.0143687
691.701	0.0143854
691.780	0.0144974
691.858	0.0144115
691.936	0.0144928
692.014	0.0146165
692.092	0.0146659
692.170	0.0146487
692.248	0.0148522
692.326	0.0151080
692.405	0.0151431
692.483	0.0153207
692.561	0.0153146
692.639	0.0152312
692.717	0.0154714
692.795	0.0155241
692.873	0.0155561
692.951	0.0153993
693.030	0.0154677
693.108	0.0153622
693.186	0.0154155
693.264	0.0153829
693.342	0.0154111
693.420	0.0152972
693.498	0.0151976
693.576	0.0151999
693.655	0.0154793
693.733	0.0153971
693.811	0.0153655
693.889	0.0153776
693.967	0.0155012
694.045	0.0154478
694.123	0.0153720
694.201	0.0154226
694.280	0.0154250
694.358	0.0154125
694.436	0.0153586
694.514	0.0153256
694.592	0.0152093
694.670	0.0153786
694.748	0.0153298
694.826	0.0151475
694.905	0.0152229
694.983	0.0152222
695.061	0.0150355
695.139	0.0149942
695.217	0.0149722
695.295	0.0148029
695.373	0.0146198
695.451	0.0146122
695.530	0.0145698
695.608	0.0145380
695.686	0.0144233
695.764	0.0144912
695.842	0.0145114
695.920	0.0145249
695.998	0.0146065
696.076	0.0144209
696.155	0.0145338
696.233	0.0147457
696.311	0.0148383
696.389	0.0147147
696.467	0.0147613
696.545	0.0148798
696.623	0.0149008
696.701	0.0148584
696.780	0.0148470
696.858	0.0149880
696.936	0.0150198
697.014	0.0150159
697.092	0.0150774
697.170	0.0151143
697.248	0.0150861
697.326	0.0152822
697.405	0.0153136
697.483	0.0153661
697.561	0.0154450
697.639	0.0154267
697.717	0.0156020
697.795	0.0154563
697.873	0.0153922
697.951	0.0155677
698.030	0.0154762
698.108	0.0152977
698.186	0.0153599
698.264	0.0151528
698.342	0.0151378
698.420	0.0150480
698.498	0.0147961
698.576	0.0146834
698.655	0.0147553
698.733	0.0145602
698.811	0.0144630
698.889	0.0143024
698.967	0.0140575
699.045	0.0140044
699.123	0.0138788
699.201	0.0138444
699.280	0.0139220
699.358	0.0139022
699.436	0.0138411
699.514	0.0137443
699.592	0.0137674
699.670	0.0139559
699.748	0.0141174
699.826	0.0142612
699.905	0.0143863
699.983	0.0146132
700.061	0.0148527
700.139	0.0150513
700.217	0.0153643
700.295	0.0155482
700.373	0.0158359
700.451	0.0161524
700.530	0.0162375
700.608	0.0164785
700.686	0.0166366
700.764	0.0168591
700.842	0.0170788
700.920	0.0170708
700.998	0.0171383
701.076	0.0173338
701.155	0.0173037
701.233	0.0173164
701.311	0.0170396
701.389	0.0168185
701.467	0.0167751
701.545	0.0166648
701.623	0.0163088
701.701	0.0160513
701.780	0.0157523
701.858	0.0153529
701.936	0.0150822
702.014	0.0148739
702.092	0.0145509
702.170	0.0143591
702.248	0.0141661
702.326	0.0137341
702.405	0.0134193
702.483	0.0131934
702.561	0.0128352
702.639	0.0126518
702.717	0.0125781
702.795	0.0123930
702.873	0.0120569
702.951	0.0121710
703.030	0.0121916
703.108	0.0122770
703.186	0.0123521
703.264	0.0125365
703.342	0.0127402
703.420	0.0129286
703.498	0.0130988
703.576	0.0135046
703.655	0.0137601
703.733	0.0139944
703.811	0.0141602
703.889	0.0145090
703.967	0.0145498
704.045	0.0148663
704.123	0.0150993
704.201	0.0153545
704.280	0.0155181
704.358	0.0156078
704.436	0.0158306
704.514	0.0159949
704.592	0.0161221
704.670	0.0161571
704.748	0.0162489
704.826	0.0162613
704.905	0.0162397
704.983	0.0163517
705.061	0.0163168
705.139	0.0162760
705.217	0.0162222
705.295	0.0160270
705.373	0.0159766
705.451	0.0158539
705.530	0.0157449
705.608	0.0156939
705.686	0.0154788
705.764	0.0154530
705.842	0.0153035
705.920	0.0150268
705.998	0.0150924
706.076	0.0150323
706.155	0.0147411
706.233	0.0145521
706.311	0.0145261
706.389	0.0145775
706.467	0.0143822
706.545	0.0144022
706.623	0.0142700
706.701	0.0143642
706.780	0.0144020
706.858	0.0142433
706.936	0.0142789
707.014	0.0143305
707.092	0.0145188
707.170	0.0144542
707.248	0.0146507
707.326	0.0147221
707.405	0.0146544
707.483	0.0148402
707.561	0.0147707
707.639	0.0148744
707.717	0.0151247
707.795	0.0152158
707.873	0.0153388
707.951	0.0151585
708.030	0.0151513
708.108	0.0152768
708.186	0.0153547
708.264	0.0153218
708.342	0.0152277
708.420	0.0152458
708.498	0.0151933
708.576	0.0152658
708.655	0.0151533
708.733	0.0150428
708.811	0.0151424
708.889	0.0152019
708.967	0.0149102
709.045	0.0148589
709.123	0.0149555
709.201	0.0148740
709.280	0.0146432
709.358	0.0147710
709.436	0.0147715
709.514	0.0145908
709.592	0.0144739
709.670	0.0144707
709.748	0.0145419
709.826	0.0147514
709.905	0.0145930
709.983	0.0147297
710.061	0.0147509
710.139	0.0147443
710.217	0.0146334
710.295	0.0147675
710.373	0.0148243
710.451	0.0147374
710.530	0.0147895
710.608	0.0146705
710.686	0.0146057
710.764	0.0147159
710.842	0.0147003
710.920	0.0145596
710.998	0.0146083
711.076	0.0146688
711.155	0.0146339
711.233	0.0144802
711.311	0.0146245
711.389	0.0146515
711.467	0.0145470
711.545	0.0145665
711.623	0.0147655
711.701	0.0147017
711.780	0.0147274
711.858	0.0149200
711.936	0.0149305
712.014	0.0149363
712.092	0.0150518
712.170	0.0149896
712.248	0.0151320
712.326	0.0151092
712.405	0.0152837
712.483	0.0152676
712.561	0.0153326
712.639	0.0153744
712.717	0.0156189
712.795	0.0156012
712.873	0.0158401
712.951	0.0159869
713.030	0.0158877
713.108	0.0161119
713.186	0.0162408
713.264	0.0161813
713.342	0.0161023
713.420	0.0162846
713.498	0.0160720
713.576	0.0161050
713.655	0.0159381
713.733	0.0158789
713.811	0.0157233
713.889	0.0157038
713.967	0.0154935
714.045	0.0154919
714.123	0.0152151
714.201	0.0149839
714.280	0.0147824
714.358	0.0147276
714.436	0.0146138
714.514	0.0145466
714.592	0.0141909
714.670	0.0141665
714.748	0.0138266
714.826	0.0138176
714.905	0.0138258
714.983	0.0135336
715.061	0.0135107
715.139	0.0134277
715.217	0.0133952
715.295	0.0135462
715.373	0.0136180
715.451	0.0136057
715.530	0.0136982
715.608	0.0137959
715.686	0.0138562
715.764	0.0140141
715.842	0.0140009
715.920	0.0142544
715.998	0.0140921
716.076	0.0142040
716.155	0.0143344
716.233	0.0142846
716.311	0.0144618
716.389	0.0144971
716.467	0.0146880
716.545	0.0147600
716.623	0.0147440
716.701	0.0148795
716.780	0.0151057
716.858	0.0151311
716.936	0.0149981
717.014	0.0152979
717.092	0.0154469
717.170	0.0154901
717.248	0.0154878
717.326	0.0155664
717.405	0.0156162
717.483	0.0158543
717.561	0.0158962
717.639	0.0156854
717.717	0.0157788
717.795	0.0157728
717.873	0.0158784
717.951	0.0158098
718.030	0.0157462
718.108	0.0158296
718.186	0.0156709
718.264	0.0155817
718.342	0.0155767
718.420	0.0155430
718.498	0.0153304
718.576	0.0152765
718.655	0.0153204
718.733	0.0151961
718.811	0.0149074
718.889	0.0150440
718.967	0.0149635
719.045	0.0145991
719.123	0.0145428
719.201	0.0145189
719.280	0.0142902
719.358	0.0142838
719.436	0.0142970
719.514	0.0141193
719.592	0.0140662
719.670	0.0140823
719.748	0.0142387
719.826	0.0141784
719.905	0.0143319
719.983	0.0143880
720.061	0.0146087
720.139	0.0148135
720.217	0.0149944
720.295	0.0151122
720.373	0.0151899
720.451	0.0152677
720.530	0.0153471
720.608	0.0153258
720.686	0.0154701
720.764	0.0154800
720.842	0.0154966
720.920	0.0155469
720.998	0.0153706
721.076	0.0153199
721.155	0.0154758
721.233	0.0154935
721.311	0.0153860
721.389	0.0153758
721.467	0.0154454
721.545	0.0152805
721.623	0.0152567
721.701	0.0151203
721.780	0.0150122
721.858	0.0149484
721.936	0.0148961
722.014	0.0148634
722.092	0.0148875
722.170	0.0147237
722.248	0.0145335
722.326	0.0146693
722.405	0.0144788
722.483	0.0143182
722.561	0.0143452
722.639	0.0144463
722.717	0.0145046
722.795	0.0144726
722.873	0.0145019
722.951	0.0145462
723.030	0.0145147
723.108	0.0146402
723.186	0.0144942
723.264	0.0144811
723.342	0.0144187
723.420	0.0144746
723.498	0.0145732
723.576	0.0146169
723.655	0.0145538
723.733	0.0146200
723.811	0.0146214
723.889	0.0145783
723.967	0.0146552
724.045	0.0147186
724.123	0.0148955
724.201	0.0147606
724.280	0.0149371
724.358	0.0150887
724.436	0.0151118
724.514	0.0150982
724.592	0.0152984
724.670	0.0155441
724.748	0.0152971
724.826	0.0152639
724.905	0.0153970
724.983	0.0154704
725.061	0.0153365
725.139	0.0153107
725.217	0.0152953
725.295	0.0152062
725.373	0.0152131
725.451	0.0151457
725.530	0.0150822
725.608	0.0149480
725.686	0.0150053
725.764	0.0148521
725.842	0.0148035
725.920	0.0147752
725.998	0.0147231
726.076	0.0148308
726.155	0.0147410
726.233	0.0146839
726.311	0.0146739
726.389	0.0147931
726.467	0.0145772
726.545	0.0146194
726.623	0.0149199
726.701	0.0149338
726.780	0.0149107
726.858	0.0150047
726.936	0.0148986
727.014	0.0150105
727.092	0.0151111
727.170	0.0150112
727.248	0.0149550
727.326	0.0150008
727.405	0.0148132
727.483	0.0149050
727.561	0.0148814
727.639	0.0147012
727.717	0.0146956
727.795	0.0148532
727.873	0.0146989
727.951	0.0146406
728.030	0.0144904
728.108	0.0146038
728.186	0.0145377
728.264	0.0144317
728.342	0.0144865
728.420	0.0143664
728.498	0.0144250
728.576	0.0144361
728.655	0.0142882
728.733	0.0143291
728.811	0.0141322
728.889	0.0142204
728.967	0.0141933
729.045	0.0142879
729.123	0.0141518
729.201	0.0141639
729.280	0.0141716
729.358	0.0143581
729.436	0.0142573
729.514	0.0144064
729.592	0.0145493
729.670	0.0146474
729.748	0.0149117
729.826	0.0149315
729.905	0.0149832
729.983	0.0150799
730.061	0.0150292
730.139	0.0152168
730.217	0.0154092
730.295	0.0152934
730.373	0.0154217
730.451	0.0155555
730.530	0.0154691
730.608	0.0153602
730.686	0.0154198
730.764	0.0155173
730.842	0.0154528
730.920	0.0154031
730.998	0.0153663
731.076	0.0154337
731.155	0.0152505
731.233	0.0152386
731.311	0.0151147
731.389	0.0149911
731.467	0.0149491
731.545	0.0149818
731.623	0.0148890
731.701	0.0148103
731.780	0.0146967
731.858	0.0146655
731.936	0.0146631
732.014	0.0146003
732.092	0.0147169
732.170	0.0145672
732.248	0.0144906
732.326	0.0146238
732.405	0.0147343
732.483	0.0146957
732.561	0.0146808
732.639	0.0146400
732.717	0.0146780
732.795	0.0147619
732.873	0.0148663
732.951	0.0147009
733.030	0.0146824
733.108	0.0146176
733.186	0.0146857
733.264	0.0146884
733.342	0.0147868
733.420	0.0146608
733.498	0.0148427
733.576	0.0147971
733.655	0.0148866
733.733	0.0148740
733.811	0.0149940
733.889	0.0150596
733.967	0.0150770
734.045	0.0150593
734.123	0.0150972
734.201	0.0151698
734.280	0.0152980
734.358	0.0153162
734.436	0.0153944
734.514	0.0155560
734.592	0.0155049
734.670	0.0154282
734.748	0.0153518
734.826	0.0152126
734.905	0.0152306
734.983	0.0152931
735.061	0.0151189
735.139	0.0151629
735.217	0.0152073
735.295	0.0151164
735.373	0.0150475
735.451	0.0150468
735.530	0.0152649
735.608	0.0149879
735.686	0.0151189
735.764	0.0150536
735.842	0.0150887
735.920	0.0149091
735.998	0.0150366
736.076	0.0149562
736.155	0.0150619
736.233	0.0151545
736.311	0.0150220
736.389	0.0150461
736.467	0.0150312
736.545	0.0150539
736.623	0.0149990
736.701	0.0150217
736.780	0.0151494
736.858	0.0151810
736.936	0.0150622
737.014	0.0148962
737.092	0.0150376
737.170	0.0149758
737.248	0.0149725
737.326	0.0148886
737.405	0.0148248
737.483	0.0147201
737.561	0.0148305
737.639	0.0146967
737.717	0.0146883
737.795	0.0147565
737.873	0.0146380
737.951	0.0146817
738.030	0.0146097
738.108	0.0145252
738.186	0.0145874
738.264	0.0146791
738.342	0.0146693
738.420	0.0147138
738.498	0.0147401
738.576	0.0148064
738.655	0.0146908
738.733	0.0147729
738.811	0.0148022
738.889	0.0148061
738.967	0.0146210
739.045	0.0147474
739.123	0.0148448
739.201	0.0148611
739.280	0.0147456
739.358	0.0146925
739.436	0.0148200
739.514	0.0148638
739.592	0.0147794
739.670	0.0148701
739.748	0.0148701
739.826	0.0147905
739.905	0.0148999
739.983	0.0149298
740.061	0.0150082
740.139	0.0149821
740.217	0.0150286
740.295	0.0149641
740.373	0.0149330
740.451	0.0149973
740.530	0.0148441
740.608	0.0148974
740.686	0.0147626
740.764	0.0147643
740.842	0.0146516
740.920	0.0146993
740.998	0.0147850
741.076	0.0146616
741.155	0.0146819
741.233	0.0146994
741.311	0.0146889
741.389	0.0147106
741.467	0.0148166
741.545	0.0147486
741.623	0.0148363
741.701	0.0149929
741.780	0.0150639
741.858	0.0149193
741.936	0.0149610
742.014	0.0151591
742.092	0.0150856
742.170	0.0150909
742.248	0.0149906
742.326	0.0149924
742.405	0.0149165
742.483	0.0149247
742.561	0.0148745
742.639	0.0147692
742.717	0.0145863
742.795	0.0146049
742.873	0.0146473
742.951	0.0144160
743.030	0.0143774
743.108	0.0144582
743.186	0.0144144
743.264	0.0142952
743.342	0.0144235
743.420	0.0143347
743.498	0.0144734
743.576	0.0144008
743.655	0.0145274
743.733	0.0147432
743.811	0.0146806
743.889	0.0147053
743.967	0.0147526
744.045	0.0148531
744.123	0.0148643
744.201	0.0147688
744.280	0.0149442
744.358	0.0149969
744.436	0.0149748
744.514	0.0150504
744.592	0.0149973
744.670	0.0149165
744.748	0.0148466
744.826	0.0149207
744.905	0.0148280
744.983	0.0150620
745.061	0.0150032
745.139	0.0148655
745.217	0.0147590
745.295	0.0148960
745.373	0.0149059
745.451	0.0147828
745.530	0.0147734
745.608	0.0147238
745.686	0.0147112
745.764	0.0148753
745.842	0.0149725
745.920	0.0149624
745.998	0.0149294
746.076	0.0150315
746.155	0.0150391
746.233	0.0150175
746.311	0.0149893
746.389	0.0149007
746.467	0.0150041
746.545	0.0149522
746.623	0.0148086
746.701	0.0148190
746.780	0.0147409
746.858	0.0146779
746.936	0.0146259
747.014	0.0145242
747.092	0.0144914
747.170	0.0145850
747.248	0.0144823
747.326	0.0145265
747.405	0.0145141
747.483	0.0145113
747.561	0.0143994
747.639	0.0145686
747.717	0.0145943
747.795	0.0146690
747.873	0.0146518
747.951	0.0146891
748.030	0.0146717
748.108	0.0149128
748.186	0.0148594
748.264	0.0149569
748.342	0.0149690
748.420	0.0149424
748.498	0.0149291
748.576	0.0150852
748.655	0.0149737
748.733	0.0150517
748.811	0.0150792
748.889	0.0151855
748.967	0.0151157
749.045	0.0152973
749.123	0.0151411
749.201	0.0151462
749.280	0.0153775
749.358	0.0152397
749.436	0.0152523
749.514	0.0153301
749.592	0.0153299
749.670	0.0151501
749.748	0.0151522
749.826	0.0151657
749.905	0.0151124
749.983	0.0149934
750.061	0.0150375
750.139	0.0150760
750.217	0.0147841
750.295	0.0148531
750.373	0.0148042
750.451	0.0147705
750.530	0.0147038
750.608	0.0148731
750.686	0.0147224
750.764	0.0146940
750.842	0.0145062
750.920	0.0146488
750.998	0.0146973
751.076	0.0146329
751.155	0.0146075
751.233	0.0145574
751.311	0.0146377
751.389	0.0147319
751.467	0.0146454
751.545	0.0147054
751.623	0.0147633
751.701	0.0145912
751.780	0.0145692
751.858	0.0146155
751.936	0.0146747
752.014	0.0145312
752.092	0.0146991
752.170	0.0146804
752.248	0.0146983
752.326	0.0146473
752.405	0.0147197
752.483	0.0149416
752.561	0.0147005
752.639	0.0147821
752.717	0.0148759
752.795	0.0147630
752.873	0.0147443
752.951	0.0146773
753.030	0.0150810
753.108	0.0149304
753.186	0.0149592
753.264	0.0149607
753.342	0.0149043
753.420	0.0150938
753.498	0.0151453
753.576	0.0151570
753.655	0.0150083
753.733	0.0151360
753.811	0.0150896
753.889	0.0152508
753.967	0.0153021
754.045	0.0154456
754.123	0.0152576
754.201	0.0153069
754.280	0.0153113
754.358	0.0153075
754.436	0.0153391
754.514	0.0151850
754.592	0.0152394
754.670	0.0151557
754.748	0.0151842
754.826	0.0151660
754.905	0.0148998
754.983	0.0149805
755.061	0.0150156
755.139	0.0149171
755.217	0.0149327
755.295	0.0149319
755.373	0.0148891
755.451	0.0149175
755.530	0.0148201
755.608	0.0147395
755.686	0.0147665
755.764	0.0148291
755.842	0.0148138
755.920	0.0150499
755.998	0.0148923
756.076	0.0150296
756.155	0.0149892
756.233	0.0149178
756.311	0.0149660
756.389	0.0150056
756.467	0.0149231
756.545	0.0151016
756.623	0.0150245
756.701	0.0149908
756.780	0.0149301
756.858	0.0150150
756.936	0.0148676
757.014	0.0150179
757.092	0.0149801
757.170	0.0149883
757.248	0.0148550
757.326	0.0149011
757.405	0.0149197
757.483	0.0149387
757.561	0.0149900
757.639	0.0148611
757.717	0.0147739
757.795	0.0148785
757.873	0.0149020
757.951	0.0148998
758.030	0.0148529
758.108	0.0148835
758.186	0.0148582
758.264	0.0149540
758.342	0.0149344
758.420	0.0149718
758.498	0.0150787
758.576	0.0151727
758.655	0.0149924
758.733	0.0150822
758.811	0.0150087
758.889	0.0150415
758.967	0.0150671
759.045	0.0150748
759.123	0.0149992
759.201	0.0150166
759.280	0.0149200
759.358	0.0148181
759.436	0.0148497
759.514	0.0148681
759.592	0.0147253
759.670	0.0145776
759.748	0.0147073
759.826	0.0147912
759.905	0.0145682
759.983	0.0148098
760.061	0.0146872
760.139	0.0147158
760.217	0.0149429
760.295	0.0148986
760.373	0.0149531
760.451	0.0149823
760.530	0.0151411
760.608	0.0151527
760.686	0.0151575
760.764	0.0151029
760.842	0.0153161
760.920	0.0153129
760.998	0.0153841
761.076	0.0154160
761.155	0.0153005
761.233	0.0152849
761.311	0.0152916
761.389	0.0151997
761.467	0.0150667
761.545	0.0149783
761.623	0.0149316
761.701	0.0149047
761.780	0.0148814
761.858	0.0147602
761.936	0.0146535
762.014	0.0146820
762.092	0.0146136
762.170	0.0144073
762.248	0.0145068
762.326	0.0146745
762.405	0.0145602
762.483	0.0144979
762.561	0.0146250
762.639	0.0147117
762.717	0.0146273
762.795	0.0147892
762.873	0.0147530
762.951	0.0147887
763.030	0.0148350
763.108	0.0148063
763.186	0.0148616
763.264	0.0150287
763.342	0.0149520
763.420	0.0149146
763.498	0.0150424
763.576	0.0149602
763.655	0.0149634
763.733	0.0150719
763.811	0.0150529
763.889	0.0149342
763.967	0.0147729
764.045	0.0149870
764.123	0.0148574
764.201	0.0147694
764.280	0.0148491
764.358	0.0148563
764.436	0.0147627
764.514	0.0148691
764.592	0.0147407
764.670	0.0148096
764.748	0.0148085
764.826	0.0149148
764.905	0.0148887
764.983	0.0148230
765.061	0.0149603
765.139	0.0149701
765.217	0.0149651
765.295	0.0148625
765.373	0.0149295
765.451	0.0150523
765.530	0.0151083
765.608	0.0149093
765.686	0.0148581
765.764	0.0149416
765.842	0.0149632
765.920	0.0149477
765.998	0.0150018
766.076	0.0151077
766.155	0.0149511
766.233	0.0149229
766.311	0.0151004
766.389	0.0151199
766.467	0.0149709
766.545	0.0149194
766.623	0.0148775
766.701	0.0149603
766.780	0.0149206
766.858	0.0150198
766.936	0.0149706
767.014	0.0148500
767.092	0.0147707
767.170	0.0148613
767.248	0.0148295
767.326	0.0146713
767.405	0.0146098
767.483	0.0145644
767.561	0.0146402
767.639	0.0146497
767.717	0.0146537
767.795	0.0144776
767.873	0.0147141
767.951	0.0145497
768.030	0.0145570
768.108	0.0146671
768.186	0.0147820
768.264	0.0148346
768.342	0.0147011
768.420	0.0148211
768.498	0.0148925
768.576	0.0150098
768.655	0.0150265
768.733	0.0149641
768.811	0.0150406
768.889	0.0149654
768.967	0.0150353
769.045	0.0149149
769.123	0.0149730
769.201	0.0149796
769.280	0.0149487
769.358	0.0147282
769.436	0.0148920
769.514	0.0149364
769.592	0.0147327
769.670	0.0147556
769.748	0.0149427
769.826	0.0145732
769.905	0.0146394
769.983	0.0145415
770.061	0.0146296
770.139	0.0146044
770.217	0.0145981
770.295	0.0144723
770.373	0.0147841
770.451	0.0148184
770.530	0.0146949
770.608	0.0147563
770.686	0.0149209
770.764	0.0147892
770.842	0.0148132
770.920	0.0149819
770.998	0.0149803
771.076	0.0149190
771.155	0.0149073
771.233	0.0149732
771.311	0.0151441
771.389	0.0149636
771.467	0.0148803
771.545	0.0149890
771.623	0.0148847
771.701	0.0148642
771.780	0.0148503
771.858	0.0148306
771.936	0.0147774
772.014	0.0148202
772.092	0.0148350
772.170	0.0146669
772.248	0.0148370
772.326	0.0148077
772.405	0.0147491
772.483	0.0145950
772.561	0.0148705
772.639	0.0147487
772.717	0.0145899
772.795	0.0147701
772.873	0.0148510
772.951	0.0148600
773.030	0.0149121
773.108	0.0148748
773.186	0.0149099
773.264	0.0150560
773.342	0.0152127
773.420	0.0152349
773.498	0.0150523
773.576	0.0151407
773.655	0.0151860
773.733	0.0152612
773.811	0.0152356
773.889	0.0150982
773.967	0.0153342
774.045	0.0152079
774.123	0.0151888
774.201	0.0152462
774.280	0.0152641
774.358	0.0150921
774.436	0.0148846
774.514	0.0151781
774.592	0.0152473
774.670	0.0151173
774.748	0.0150076
774.826	0.0149394
774.905	0.0151201
774.983	0.0149892
775.061	0.0150443
775.139	0.0149030
775.217	0.0149664
775.295	0.0149399
775.373	0.0148027
775.451	0.0149802
775.530	0.0148415
775.608	0.0149420
775.686	0.0150127
775.764	0.0148779
775.842	0.0148278
775.920	0.0149562
775.998	0.0148762
776.076	0.0149828
776.155	0.0151067
776.233	0.0150692
776.311	0.0150871
776.389	0.0150790
776.467	0.0151631
776.545	0.0151206
776.623	0.0150224
776.701	0.0151086
776.780	0.0151364
776.858	0.0151746
776.936	0.0150768
777.014	0.0151484
777.092	0.0149824
777.170	0.0152727
777.248	0.0152077
777.326	0.0150988
777.405	0.0150783
777.483	0.0151249
777.561	0.0150313
777.639	0.0149717
777.717	0.0149574
777.795	0.0150191
777.873	0.0150288
777.951	0.0149226
778.030	0.0149549
778.108	0.0148076
778.186	0.0147269
778.264	0.0148119
778.342	0.0149782
778.420	0.0147750
778.498	0.0147725
778.576	0.0147238
778.655	0.0148894
778.733	0.0148116
778.811	0.0149256
778.889	0.0147626
778.967	0.0148741
779.045	0.0149574
779.123	0.0148193
779.201	0.0147723
779.280	0.0149844
779.358	0.0151104
779.436	0.0150595
779.514	0.0150098
779.592	0.0150271
779.670	0.0148497
779.748	0.0149119
779.826	0.0149796
779.905	0.0149020
779.983	0.0147120
780.061	0.0149005
780.139	0.0149092
780.217	0.0149082
780.295	0.0148769
780.373	0.0148085
780.451	0.0147157
780.530	0.0147533
780.608	0.0148307
780.686	0.0148347
780.764	0.0147148
780.842	0.0147124
780.920	0.0148280
780.998	0.0148623
781.076	0.0149512
781.155	0.0148450
781.233	0.0147798
781.311	0.0148244
781.389	0.0149668
781.467	0.0149371
781.545	0.0148325
781.623	0.0148708
781.701	0.0148749
781.780	0.0147659
781.858	0.0148739
781.936	0.0148615
782.014	0.0148027
782.092	0.0148180
782.170	0.0148082
782.248	0.0148100
782.326	0.0146689
782.405	0.0147226
782.483	0.0147808
782.561	0.0147773
782.639	0.0148705
782.717	0.0148947
782.795	0.0146696
782.873	0.0148181
782.951	0.0147437
783.030	0.0147440
783.108	0.0148682
783.186	0.0148658
783.264	0.0149419
783.342	0.0148676
783.420	0.0148305
783.498	0.0148722
783.576	0.0148892
783.655	0.0146949
783.733	0.0147900
783.811	0.0147956
783.889	0.0146220
783.967	0.0147853
784.045	0.0148247
784.123	0.0148285
784.201	0.0147508
784.280	0.0146301
784.358	0.0146819
784.436	0.0147354
784.514	0.0146149
784.592	0.0146344
784.670	0.0147161
784.748	0.0147621
784.826	0.0146783
784.905	0.0148054
784.983	0.0146268
785.061	0.0148074
785.139	0.0148154
785.217	0.0148676
785.295	0.0149743
785.373	0.0149060
785.451	0.0150002
785.530	0.0150162
785.608	0.0148924
785.686	0.0149012
785.764	0.0150311
785.842	0.0148978
785.920	0.0148626
785.998	0.0148746
786.076	0.0149175
786.155	0.0149751
786.233	0.0150155
786.311	0.0148582
786.389	0.0148959
786.467	0.0149531
786.545	0.0147698
786.623	0.0148670
786.701	0.0148393
786.780	0.0148559
786.858	0.0149037
786.936	0.0148934
787.014	0.0148075
787.092	0.0148491
787.170	0.0148326
787.248	0.0148746
787.326	0.0147746
787.405	0.0149453
787.483	0.0148817
787.561	0.0149679
787.639	0.0150033
787.717	0.0148871
787.795	0.0149838
787.873	0.0148802
787.951	0.0150446
788.030	0.0149426
788.108	0.0147958
788.186	0.0148682
788.264	0.0149079
788.342	0.0147633
788.420	0.0149057
788.498	0.0146893
788.576	0.0147366
788.655	0.0147835
788.733	0.0148089
788.811	0.0148599
788.889	0.0148804
788.967	0.0147679
789.045	0.0148383
789.123	0.0148078
789.201	0.0148048
789.280	0.0148630
789.358	0.0150305
789.436	0.0149352
789.514	0.0149365
789.592	0.0150310
789.670	0.0151308
789.748	0.0150369
789.826	0.0150904
789.905	0.0150904
789.983	0.0151197
790.061	0.0151607
790.139	0.0150573
790.217	0.0152164
790.295	0.0151992
790.373	0.0150783
790.451	0.0150134
790.530	0.0149474
790.608	0.0148585
790.686	0.0149915
790.764	0.0150333
790.842	0.0150237
790.920	0.0150078
790.998	0.0149793
791.076	0.0149454
791.155	0.0149239
791.233	0.0149462
791.311	0.0148594
791.389	0.0148747
791.467	0.0150095
791.545	0.0149932
791.623	0.0147639
791.701	0.0148150
791.780	0.0147940
791.858	0.0149056
791.936	0.0148121
792.014	0.0147219
792.092	0.0147064
792.170	0.0147630
792.248	0.0149095
792.326	0.0147833
792.405	0.0147623
792.483	0.0148318
792.561	0.0147661
792.639	0.0146555
792.717	0.0148045
792.795	0.0148943
792.873	0.0148888
792.951	0.0147945
793.030	0.0148171
793.108	0.0147931
793.186	0.0147686
793.264	0.0148194
793.342	0.0148508
793.420	0.0148579
793.498	0.0148626
793.576	0.0148035
793.655	0.0149239
793.733	0.0149605
793.811	0.0149101
793.889	0.0148733
793.967	0.0147701
794.045	0.0149995
794.123	0.0149756
794.201	0.0149709
794.280	0.0149406
794.358	0.0150600
794.436	0.0150076
794.514	0.0150733
794.592	0.0150774
794.670	0.0149379
794.748	0.0149789
794.826	0.0151517
794.905	0.0150256
794.983	0.0150581
795.061	0.0150964
795.139	0.0149237
795.217	0.0150257
795.295	0.0150538
795.373	0.0149533
795.451	0.0150195
795.530	0.0148013
795.608	0.0149741
795.686	0.0149755
795.764	0.0149075
795.842	0.0149819
795.920	0.0148896
795.998	0.0149333
796.076	0.0148758
796.155	0.0148534
796.233	0.0148921
796.311	0.0148763
796.389	0.0148354
796.467	0.0149135
796.545	0.0150533
796.623	0.0149699
796.701	0.0149098
796.780	0.0149615
796.858	0.0147919
796.936	0.0148981
797.014	0.0149891
797.092	0.0149544
797.170	0.0148566
797.248	0.0148504
797.326	0.0149892
797.405	0.0151079
797.483	0.0150989
797.561	0.0150278
797.639	0.0152618
797.717	0.0152721
797.795	0.0152245
797.873	0.0152041
797.951	0.0152426
798.030	0.0151082
798.108	0.0151725
798.186	0.0151649
798.264	0.0151334
798.342	0.0149825
798.420	0.0149860
798.498	0.0149715
798.576	0.0149348
798.655	0.0148879
798.733	0.0147230
798.811	0.0148389
798.889	0.0146914
798.967	0.0146742
799.045	0.0147038
799.123	0.0145490
799.201	0.0147732
799.280	0.0146524
799.358	0.0145951
799.436	0.0145230
799.514	0.0147337
799.592	0.0148145
799.670	0.0148463
799.748	0.0147704
799.826	0.0147584
799.905	0.0147972
799.983	0.0147717
800.061	0.0148895
800.139	0.0148231
800.217	0.0149716
800.295	0.0150174
800.373	0.0148228
800.451	0.0148357
800.530	0.0149958
800.608	0.0148787
800.686	0.0149730
800.764	0.0150577
800.842	0.0149062
800.920	0.0149449
800.998	0.0150037
801.076	0.0150594
801.155	0.0150742
801.233	0.0150964
801.311	0.0148987
801.389	0.0150439
801.467	0.0149374
801.545	0.0149449
801.623	0.0149895
801.701	0.0151355
801.780	0.0150116
801.858	0.0147440
801.936	0.0150461
802.014	0.0150040
802.092	0.0150287
802.170	0.0149212
802.248	0.0149452
802.326	0.0148526
802.405	0.0148923
802.483	0.0149587
802.561	0.0149063
802.639	0.0148006
802.717	0.0147488
802.795	0.0149239
802.873	0.0147820
802.951	0.0148036
803.030	0.0146717
803.108	0.0148033
803.186	0.0146818
803.264	0.0147186
803.342	0.0148009
803.420	0.0148383
803.498	0.0147659
803.576	0.0148325
803.655	0.0148022
803.733	0.0148596
803.811	0.0149107
803.889	0.0150456
803.967	0.0148429
804.045	0.0150038
804.123	0.0149726
804.201	0.0149991
804.280	0.0149285
804.358	0.0149615
804.436	0.0150642
804.514	0.0150003
804.592	0.0147975
804.670	0.0148429
804.748	0.0148875
804.826	0.0148732
804.905	0.0148358
804.983	0.0148855
805.061	0.0149798
805.139	0.0148980
805.217	0.0147985
805.295	0.0149205
805.373	0.0147430
805.451	0.0147799
805.530	0.0147072
805.608	0.0148313
805.686	0.0148157
805.764	0.0147640
805.842	0.0147052
805.920	0.0148809
805.998	0.0149368
806.076	0.0148497
806.155	0.0150094
806.233	0.0148254
806.311	0.0148184
806.389	0.0150192
806.467	0.0149065
806.545	0.0146181
806.623	0.0148983
806.701	0.0147765
806.780	0.0147068
806.858	0.0147079
806.936	0.0147810
807.014	0.0147152
807.092	0.0145629
807.170	0.0146159
807.248	0.0146446
807.326	0.0148569
807.405	0.0146796
807.483	0.0146342
807.561	0.0146680
807.639	0.0147017
807.717	0.0146161
807.795	0.0145916
807.873	0.0147425
807.951	0.0148524
808.030	0.0147832
808.108	0.0146903
808.186	0.0147898
808.264	0.0149654
808.342	0.0148743
808.420	0.0149995
808.498	0.0148914
808.576	0.0149073
808.655	0.0150525
808.733	0.0148762
808.811	0.0148353
808.889	0.0148170
808.967	0.0149091
809.045	0.0149683
809.123	0.0149698
809.201	0.0150110
809.280	0.0149776
809.358	0.0148247
809.436	0.0148792
809.514	0.0149380
809.592	0.0150033
809.670	0.0150504
809.748	0.0148387
809.826	0.0148581
809.905	0.0149276
809.983	0.0149720
810.061	0.0148513
810.139	0.0148949
810.217	0.0149290
810.295	0.0149698
810.373	0.0148941
810.451	0.0147787
810.530	0.0148783
810.608	0.0148450
810.686	0.0149332
810.764	0.0149057
810.842	0.0147133
810.920	0.0147784
810.998	0.0148970
811.076	0.0147887
811.155	0.0148074
811.233	0.0148702
811.311	0.0149255
811.389	0.0147541
811.467	0.0147643
811.545	0.0149096
811.623	0.0148302
811.701	0.0146532
811.780	0.0146106
811.858	0.0147442
811.936	0.0146301
812.014	0.0146305
812.092	0.0147913
812.170	0.0145686
812.248	0.0146838
812.326	0.0148116
812.405	0.0149123
812.483	0.0147140
812.561	0.0147727
812.639	0.0148117
812.717	0.0148734
812.795	0.0148687
812.873	0.0149674
812.951	0.0149258
813.030	0.0150050
813.108	0.0150056
813.186	0.0150688
813.264	0.0151382
813.342	0.0151950
813.420	0.0150977
813.498	0.0150970
813.576	0.0151967
813.655	0.0151642
813.733	0.0150710
813.811	0.0151630
813.889	0.0150916
813.967	0.0151685
814.045	0.0152441
814.123	0.0150484
814.201	0.0151952
814.280	0.0151711
814.358	0.0151617
814.436	0.0150272
814.514	0.0151761
814.592	0.0150779
814.670	0.0150806
814.748	0.0150608
814.826	0.0147783
814.905	0.0150047
814.983	0.0150374
815.061	0.0148568
815.139	0.0148212
815.217	0.0148428
815.295	0.0147131
815.373	0.0146746
815.451	0.0145595
815.530	0.0148554
815.608	0.0146937
815.686	0.0147224
815.764	0.0146358
815.842	0.0148100
815.920	0.0147305
815.998	0.0146513
816.076	0.0146964
816.155	0.0148123
816.233	0.0148431
816.311	0.0147442
816.389	0.0148692
816.467	0.0147785
816.545	0.0148777
816.623	0.0147457
816.701	0.0148907
816.780	0.0150629
816.858	0.0149635
816.936	0.0148786
817.014	0.0148721
817.092	0.0148464
817.170	0.0149012
817.248	0.0148622
817.326	0.0149773
817.405	0.0148875
817.483	0.0148727
817.561	0.0149823
817.639	0.0149308
817.717	0.0149563
817.795	0.0149882
817.873	0.0149229
817.951	0.0149416
818.030	0.0148340
818.108	0.0148576
818.186	0.0149261
818.264	0.0148917
818.342	0.0149427
818.420	0.0149256
818.498	0.0148210
818.576	0.0148706
818.655	0.0149107
818.733	0.0148825
818.811	0.0149972
818.889	0.0148714
818.967	0.0149184
819.045	0.0149726
819.123	0.0147832
819.201	0.0149680
819.280	0.0149713
819.358	0.0150647
819.436	0.0148418
819.514	0.0148814
819.592	0.0148637
819.670	0.0148561
819.748	0.0149527
819.826	0.0149561
819.905	0.0149383
819.983	0.0147935
820.061	0.0147765
820.139	0.0148701
820.217	0.0147646
820.295	0.0148586
820.373	0.0147430
820.451	0.0146571
820.530	0.0148096
820.608	0.0148879
820.686	0.0149611
820.764	0.0148637
820.842	0.0148981
820.920	0.0148830
820.998	0.0148524
821.076	0.0147192
821.155	0.0149506
821.233	0.0150264
821.311	0.0149731
821.389	0.0148208
821.467	0.0148901
821.545	0.0149625
821.623	0.0150941
821.701	0.0150608
821.780	0.0151018
821.858	0.0149913
821.936	0.0149858
822.014	0.0150094
822.092	0.0149858
822.170	0.0149992
822.248	0.0148199
822.326	0.0148370
822.405	0.0150121
822.483	0.0149413
822.561	0.0148409
822.639	0.0148987
822.717	0.0149897
822.795	0.0147893
822.873	0.0149004
822.951	0.0150729
823.030	0.0149243
823.108	0.0149255
823.186	0.0149586
823.264	0.0148605
823.342	0.0148563
823.420	0.0149354
823.498	0.0149924
823.576	0.0148612
823.655	0.0148714
823.733	0.0148821
823.811	0.0148247
823.889	0.0147250
823.967	0.0148311
824.045	0.0149280
824.123	0.0147906
824.201	0.0149818
824.280	0.0147772
824.358	0.0148612
824.436	0.0149525
824.514	0.0149277
824.592	0.0148679
824.670	0.0147414
824.748	0.0149342
824.826	0.0148481
824.905	0.0148459
824.983	0.0148108
825.061	0.0147067
825.139	0.0147830
825.217	0.0147668
825.295	0.0147616
825.373	0.0149050
825.451	0.0148195
825.530	0.0148062
825.608	0.0147897
825.686	0.0148377
825.764	0.0147398
825.842	0.0146745
825.920	0.0148833
825.998	0.0148695
826.076	0.0148946
826.155	0.0148433
826.233	0.0147542
826.311	0.0148965
826.389	0.0148360
826.467	0.0149651
826.545	0.0148629
826.623	0.0149448
826.701	0.0150515
826.780	0.0149120
826.858	0.0149180
826.936	0.0149850
827.014	0.0149010
827.092	0.0148508
827.170	0.0148947
827.248	0.0150516
827.326	0.0150385
827.405	0.0149179
827.483	0.0150272
827.561	0.0148906
827.639	0.0149108
827.717	0.0149173
827.795	0.0150022
827.873	0.0149476
827.951	0.0147743
828.030	0.0147802
828.108	0.0148270
828.186	0.0148641
828.264	0.0147322
828.342	0.0146869
828.420	0.0148671
828.498	0.0147428
828.576	0.0147911
828.655	0.0147881
828.733	0.0147038
828.811	0.0147145
828.889	0.0146767
828.967	0.0147199
829.045	0.0147655
829.123	0.0147936
829.201	0.0147066
829.280	0.0148305
829.358	0.0146799
829.436	0.0147159
829.514	0.0148900
829.592	0.0147786
829.670	0.0149585
829.748	0.0150488
829.826	0.0149870
829.905	0.0151225
829.983	0.0150694
830.061	0.0149435
830.139	0.0150665
830.217	0.0150142
830.295	0.0149186
830.373	0.0150023
830.451	0.0149751
830.530	0.0149896
830.608	0.0149269
830.686	0.0150854
830.764	0.0149521
830.842	0.0148388
830.920	0.0149298
830.998	0.0148717
831.076	0.0148943
831.155	0.0149132
831.233	0.0149498
831.311	0.0149025
831.389	0.0149225
831.467	0.0147980
831.545	0.0149676
831.623	0.0148201
831.701	0.0148489
831.780	0.0149255
831.858	0.0150182
831.936	0.0151019
832.014	0.0149639
832.092	0.0149668
832.170	0.0149277
832.248	0.0149028
832.326	0.0148771
832.405	0.0149699
832.483	0.0149598
832.561	0.0149704
832.639	0.0149098
832.717	0.0149403
832.795	0.0149026
832.873	0.0149649
832.951	0.0150452
833.030	0.0148872
833.108	0.0149828
833.186	0.0149819
833.264	0.0149303
833.342	0.0149856
833.420	0.0148239
833.498	0.0149429
833.576	0.0149709
833.655	0.0149596
833.733	0.0150655
833.811	0.0149022
833.889	0.0149580
833.967	0.0150180
834.045	0.0149844
834.123	0.0150529
834.201	0.0150378
834.280	0.0150784
834.358	0.0151263
834.436	0.0152824
834.514	0.0151338
834.592	0.0152888
834.670	0.0153122
834.748	0.0152006
834.826	0.0152417
834.905	0.0152673
834.983	0.0151356
835.061	0.0152727
835.139	0.0152660
835.217	0.0152119
835.295	0.0151424
835.373	0.0151994
835.451	0.0151605
835.530	0.0150351
835.608	0.0149973
835.686	0.0151523
835.764	0.0151131
835.842	0.0151770
835.920	0.0151080
835.998	0.0150625
836.076	0.0150487
836.155	0.0150473
836.233	0.0150016
836.311	0.0150142
836.389	0.0149799
836.467	0.0148756
836.545	0.0149253
836.623	0.0150338
836.701	0.0148161
836.780	0.0147888
836.858	0.0148040
836.936	0.0149634
837.014	0.0147852
837.092	0.0148412
837.170	0.0147477
837.248	0.0148504
837.326	0.0148824
837.405	0.0147624
837.483	0.0147329
837.561	0.0148847
837.639	0.0149222
837.717	0.0147629
837.795	0.0147480
837.873	0.0148104
837.951	0.0146655
838.030	0.0146698
838.108	0.0146382
838.186	0.0147113
838.264	0.0146741
838.342	0.0147360
838.420	0.0148292
838.498	0.0147426
838.576	0.0148332
838.655	0.0147671
838.733	0.0147692
838.811	0.0147541
838.889	0.0147656
838.967	0.0148304
839.045	0.0147959
839.123	0.0147298
839.201	0.0147472
839.280	0.0148026
839.358	0.0147355
839.436	0.0147557
839.514	0.0148784
839.592	0.0148355
839.670	0.0147893
839.748	0.0148750
839.826	0.0148306
839.905	0.0148596
839.983	0.0148795
840.061	0.0148526
840.139	0.0150423
840.217	0.0149772
840.295	0.0149020
840.373	0.0150061
840.451	0.0149778
840.530	0.0150430
840.608	0.0150523
840.686	0.0149238
840.764	0.0150125
840.842	0.0150198
840.920	0.0149014
840.998	0.0149915
841.076	0.0149016
841.155	0.0148877
841.233	0.0149039
841.311	0.0148431
841.389	0.0149338
841.467	0.0148875
841.545	0.0148158
841.623	0.0147646
841.701	0.0147784
841.780	0.0147675
841.858	0.0147011
841.936	0.0147490
842.014	0.0148219
842.092	0.0147881
842.170	0.0147462
842.248	0.0148438
842.326	0.0148563
842.405	0.0148006
842.483	0.0148228
842.561	0.0148090
842.639	0.0146992
842.717	0.0147961
842.795	0.0148900
842.873	0.0148450
842.951	0.0148661
843.030	0.0149744
843.108	0.0147678
843.186	0.0148851
843.264	0.0148998
843.342	0.0149055
843.420	0.0149814
843.498	0.0148473
843.576	0.0148949
843.655	0.0150493
843.733	0.0149817
843.811	0.0149989
843.889	0.0150551
843.967	0.0150039
844.045	0.0150397
844.123	0.0150063
844.201	0.0149154
844.280	0.0149915
844.358	0.0149648
844.436	0.0148744
844.514	0.0149303
844.592	0.0149463
844.670	0.0149451
844.748	0.0150500
844.826	0.0149436
844.905	0.0149339
844.983	0.0148469
845.061	0.0149081
845.139	0.0149634
845.217	0.0149506
845.295	0.0148934
845.373	0.0148336
845.451	0.0148725
845.530	0.0149629
845.608	0.0148651
845.686	0.0148699
845.764	0.0147926
845.842	0.0148621
845.920	0.0148358
845.998	0.0149106
846.076	0.0147807
846.155	0.0149045
846.233	0.0148055
846.311	0.0147305
846.389	0.0149094
846.467	0.0148671
846.545	0.0147076
846.623	0.0148840
846.701	0.0148464
846.780	0.0148986
846.858	0.0148621
846.936	0.0147735
847.014	0.0147563
847.092	0.0148112
847.170	0.0147802
847.248	0.0148025
847.326	0.0148774
847.405	0.0148655
847.483	0.0148395
847.561	0.0147883
847.639	0.0147678
847.717	0.0147697
847.795	0.0147784
847.873	0.0148301
847.951	0.0148296
848.030	0.0147762
848.108	0.0149079
848.186	0.0147847
848.264	0.0148855
848.342	0.0148135
848.420	0.0150220
848.498	0.0150002
848.576	0.0148068
848.655	0.0150142
848.733	0.0149889
848.811	0.0149118
848.889	0.0149355
848.967	0.0149039
849.045	0.0149725
849.123	0.0149117
849.201	0.0148218
849.280	0.0147979
849.358	0.0150528
849.436	0.0149504
849.514	0.0149242
849.592	0.0149150
849.670	0.0147945
849.748	0.0148651
849.826	0.0148782
849.905	0.0148120
849.983	0.0147912
850.061	0.0149521
850.139	0.0148769
850.217	0.0148443
850.295	0.0147651
850.373	0.0148115
850.451	0.0149732
850.530	0.0148573
850.608	0.0149191
850.686	0.0149686
850.764	0.0150857
850.842	0.0148529
850.920	0.0148306
850.998	0.0150531
851.076	0.0150540
851.155	0.0149572
851.233	0.0151245
851.311	0.0150758
851.389	0.0150504
851.467	0.0149484
851.545	0.0150025
851.623	0.0151080
851.701	0.0148486
851.780	0.0148974
851.858	0.0150575
851.936	0.0151123
852.014	0.0150351
852.092	0.0150826
852.170	0.0149555
852.248	0.0149583
852.326	0.0150570
852.405	0.0149621
852.483	0.0150111
852.561	0.0149657
852.639	0.0150684
852.717	0.0149314
852.795	0.0149790
852.873	0.0148956
852.951	0.0149565
853.030	0.0149170
853.108	0.0149155
853.186	0.0149934
853.264	0.0149371
853.342	0.0148672
853.420	0.0147843
853.498	0.0150065
853.576	0.0148634
853.655	0.0148345
853.733	0.0150459
853.811	0.0149633
853.889	0.0147579
853.967	0.0148010
854.045	0.0148971
854.123	0.0148293
854.201	0.0148227
854.280	0.0148422
854.358	0.0149132
854.436	0.0147818
854.514	0.0148239
854.592	0.0148839
854.670	0.0147611
854.748	0.0149099
854.826	0.0149575
854.905	0.0148914
854.983	0.0148682
855.061	0.0147954
855.139	0.0148923
855.217	0.0149296
855.295	0.0150603
855.373	0.0151006
855.451	0.0151165
855.530	0.0150352
855.608	0.0149280
855.686	0.0151075
855.764	0.0151337
855.842	0.0149617
855.920	0.0149776
855.998	0.0151133
856.076	0.0149883
856.155	0.0149051
856.233	0.0148997
856.311	0.0149648
856.389	0.0148616
856.467	0.0148813
856.545	0.0148607
856.623	0.0148322
856.701	0.0148952
856.780	0.0149561
856.858	0.0149898
856.936	0.0149401
857.014	0.0148692
857.092	0.0149342
857.170	0.0147618
857.248	0.0148225
857.326	0.0148929
857.405	0.0148764
857.483	0.0148102
857.561	0.0148486
857.639	0.0148794
857.717	0.0147686
857.795	0.0148390
857.873	0.0147951
857.951	0.0147952
858.030	0.0148402
858.108	0.0147778
858.186	0.0147015
858.264	0.0147983
858.342	0.0147270
858.420	0.0147002
858.498	0.0146824
858.576	0.0147984
858.655	0.0147820
858.733	0.0148270
858.811	0.0147447
858.889	0.0148107
858.967	0.0148408
859.045	0.0148753
859.123	0.0147523
859.201	0.0147315
859.280	0.0149273
859.358	0.0148035
859.436	0.0148294
859.514	0.0150165
859.592	0.0149356
859.670	0.0150407
859.748	0.0149356
859.826	0.0149666
859.905	0.0148577
859.983	0.0148849
860.061	0.0149859
860.139	0.0149957
860.217	0.0148894
860.295	0.0149271
860.373	0.0147956
860.451	0.0148685
860.530	0.0149683
860.608	0.0147668
860.686	0.0149071
860.764	0.0148946
860.842	0.0148707
860.920	0.0149498
860.998	0.0148763
861.076	0.0150337
861.155	0.0149738
861.233	0.0149487
861.311	0.0149369
861.389	0.0149688
861.467	0.0149960
861.545	0.0148633
861.623	0.0151083
861.701	0.0150911
861.780	0.0149332
861.858	0.0150498
861.936	0.0149785
862.014	0.0149892
862.092	0.0150233
862.170	0.0149551
862.248	0.0150713
862.326	0.0149865
862.405	0.0150876
862.483	0.0150291
862.561	0.0150563
862.639	0.0150498
862.717	0.0149738
862.795	0.0150456
862.873	0.0150511
862.951	0.0149622
863.030	0.0149760
863.108	0.0149857
863.186	0.0148813
863.264	0.0149788
863.342	0.0150155
863.420	0.0149060
863.498	0.0149423
863.576	0.0149829
863.655	0.0149120
863.733	0.0149158
863.811	0.0149773
863.889	0.0150714
863.967	0.0150850
864.045	0.0150108
864.123	0.0150424
864.201	0.0149595
864.280	0.0149905
864.358	0.0149934
864.436	0.0150484
864.514	0.0149535
864.592	0.0151151
864.670	0.0150198
864.748	0.0149527
864.826	0.0149928
864.905	0.0151244
864.983	0.0150353
865.061	0.0151718
865.139	0.0152088
865.217	0.0151392
865.295	0.0151256
865.373	0.0150397
865.451	0.0151048
865.530	0.0151211
865.608	0.0151286
865.686	0.0150809
865.764	0.0149119
865.842	0.0150749
865.920	0.0149998
865.998	0.0150127
866.076	0.0149456
866.155	0.0149440
866.233	0.0149527
866.311	0.0151810
866.389	0.0150291
866.467	0.0148045
866.545	0.0148266
866.623	0.0149234
866.701	0.0149866
866.780	0.0148609
866.858	0.0148053
866.936	0.0149066
867.014	0.0150150
867.092	0.0149377
867.170	0.0150149
867.248	0.0148582
867.326	0.0147945
867.405	0.0148002
867.483	0.0148725
867.561	0.0149833
867.639	0.0148936
867.717	0.0148997
867.795	0.0149507
867.873	0.0148286
867.951	0.0151254
868.030	0.0149555
868.108	0.0148015
868.186	0.0148910
868.264	0.0148944
868.342	0.0148403
868.420	0.0148203
868.498	0.0149193
868.576	0.0148834
868.655	0.0148682
868.733	0.0148000
868.811	0.0147914
868.889	0.0147541
868.967	0.0149454
869.045	0.0147547
869.123	0.0146764
869.201	0.0147279
869.280	0.0147800
869.358	0.0147413
869.436	0.0148147
869.514	0.0148442
869.592	0.0149223
869.670	0.0148306
869.748	0.0147839
869.826	0.0149284
869.905	0.0148358
869.983	0.0147851
870.061	0.0148416
870.139	0.0150038
870.217	0.0148552
870.295	0.0148082
870.373	0.0148628
870.451	0.0147821
870.530	0.0148672
870.608	0.0148418
870.686	0.0147639
870.764	0.0148303
870.842	0.0148447
870.920	0.0148248
870.998	0.0147606
871.076	0.0148412
871.155	0.0149619
871.233	0.0147988
871.311	0.0146913
871.389	0.0148808
871.467	0.0149964
871.545	0.0148920
871.623	0.0148708
871.701	0.0147766
871.780	0.0147687
871.858	0.0148702
871.936	0.0148569
872.014	0.0149129
872.092	0.0150234
872.170	0.0149268
872.248	0.0148164
872.326	0.0147623
872.405	0.0147331
872.483	0.0147033
872.561	0.0149378
872.639	0.0148786
872.717	0.0147919
872.795	0.0147610
872.873	0.0147871
872.951	0.0149491
873.030	0.0148398
873.108	0.0149419
873.186	0.0149669
873.264	0.0149982
873.342	0.0149529
873.420	0.0149367
873.498	0.0149821
873.576	0.0149689
873.655	0.0150945
873.733	0.0148960
873.811	0.0150780
873.889	0.0150604
873.967	0.0148944
874.045	0.0149448
874.123	0.0150592
874.201	0.0150713
874.280	0.0149318
874.358	0.0151058
874.436	0.0149483
874.514	0.0149770
874.592	0.0150738
874.670	0.0150761
874.748	0.0149197
874.826	0.0149107
874.905	0.0149883
874.983	0.0148950
875.061	0.0148534
875.139	0.0149355
875.217	0.0148341
875.295	0.0149535
875.373	0.0148758
875.451	0.0148835
875.530	0.0148312
875.608	0.0149841
875.686	0.0149183
875.764	0.0149431
875.842	0.0148430
875.920	0.0147590
875.998	0.0150029
876.076	0.0149266
876.155	0.0149442
876.233	0.0150581
876.311	0.0149787
876.389	0.0149411
876.467	0.0151351
876.545	0.0151131
876.623	0.0151595
876.701	0.0152093
876.780	0.0150707
876.858	0.0148613
876.936	0.0150355
877.014	0.0149695
877.092	0.0149890
877.170	0.0151001
877.248	0.0150180
877.326	0.0151452
877.405	0.0150469
877.483	0.0149522
877.561	0.0150887
877.639	0.0151324
877.717	0.0151572
877.795	0.0151390
877.873	0.0150964
877.951	0.0151088
878.030	0.0150543
878.108	0.0152311
878.186	0.0150865
878.264	0.0150031
878.342	0.0150642
878.420	0.0150364
878.498	0.0150421
878.576	0.0150695
878.655	0.0148438
878.733	0.0149424
878.811	0.0149324
878.889	0.0150022
878.967	0.0148557
879.045	0.0150397
879.123	0.0148611
879.201	0.0149076
879.280	0.0148405
879.358	0.0150513
879.436	0.0150866
879.514	0.0149622
879.592	0.0149820
879.670	0.0149315
879.748	0.0149281
879.826	0.0150377
879.905	0.0149091
879.983	0.0151502
880.061	0.0151569
880.139	0.0150269
880.217	0.0149313
880.295	0.0151681
880.373	0.0149500
880.451	0.0150481
880.530	0.0150617
880.608	0.0151339
880.686	0.0151408
880.764	0.0148823
880.842	0.0150086
880.920	0.0150719
880.998	0.0149454
881.076	0.0149259
881.155	0.0149192
881.233	0.0150004
881.311	0.0149303
881.389	0.0149146
881.467	0.0148911
881.545	0.0149600
881.623	0.0149502
881.701	0.0148434
881.780	0.0147411
881.858	0.0149158
881.936	0.0148700
882.014	0.0148831
882.092	0.0149208
882.170	0.0147790
882.248	0.0148277
882.326	0.0147915
882.405	0.0148862
882.483	0.0148290
882.561	0.0148344
882.639	0.0147792
882.717	0.0148814
882.795	0.0147611
882.873	0.0147321
882.951	0.0148398
883.030	0.0148627
883.108	0.0149633
883.186	0.0149102
883.264	0.0148972
883.342	0.0148798
883.420	0.0149308
883.498	0.0150370
883.576	0.0149741
883.655	0.0147529
883.733	0.0148735
883.811	0.0148656
883.889	0.0148373
883.967	0.0148228
884.045	0.0147865
884.123	0.0147263
884.201	0.0148608
884.280	0.0149493
884.358	0.0150907
884.436	0.0148518
884.514	0.0148837
884.592	0.0148901
884.670	0.0148905
884.748	0.0147846
884.826	0.0148743
884.905	0.0148715
884.983	0.0147979
885.061	0.0148101
885.139	0.0147260
885.217	0.0147994
885.295	0.0147967
885.373	0.0148397
885.451	0.0148985
885.530	0.0148372
885.608	0.0148074
885.686	0.0146738
885.764	0.0147656
885.842	0.0147035
885.920	0.0148078
885.998	0.0149541
886.076	0.0148795
886.155	0.0149039
886.233	0.0149577
886.311	0.0148952
886.389	0.0147841
886.467	0.0150242
886.545	0.0149475
886.623	0.0149016
886.701	0.0149900
886.780	0.0149950
886.858	0.0150697
886.936	0.0150702
887.014	0.0150584
887.092	0.0148699
887.170	0.0150557
887.248	0.0150615
887.326	0.0148852
887.405	0.0147982
887.483	0.0149605
887.561	0.0147825
887.639	0.0148771
887.717	0.0148848
887.795	0.0148920
887.873	0.0147825
887.951	0.0147741
888.030	0.0149015
888.108	0.0149194
888.186	0.0149493
888.264	0.0150043
888.342	0.0150034
888.420	0.0150277
888.498	0.0149992
888.576	0.0150046
888.655	0.0150112
888.733	0.0151881
888.811	0.0151465
888.889	0.0150582
888.967	0.0149765
889.045	0.0150201
889.123	0.0150526
889.201	0.0153316
889.280	0.0149776
889.358	0.0150781
889.436	0.0151199
889.514	0.0151467
889.592	0.0152700
889.670	0.0150552
889.748	0.0150027
889.826	0.0150645
889.905	0.0152470
889.983	0.0152554
890.061	0.0150433
890.139	0.0151468
890.217	0.0151473
890.295	0.0151236
890.373	0.0151110
890.451	0.0151617
890.530	0.0151610
890.608	0.0150443
890.686	0.0150397
890.764	0.0150093
890.842	0.0151028
890.920	0.0151926
890.998	0.0150677
891.076	0.0150263
891.155	0.0149944
891.233	0.0149228
891.311	0.0150826
891.389	0.0150690
891.467	0.0149604
891.545	0.0150967
891.623	0.0150609
891.701	0.0150195
891.780	0.0151034
891.858	0.0150618
891.936	0.0150832
892.014	0.0150632
892.092	0.0149452
892.170	0.0150606
892.248	0.0150003
892.326	0.0149841
892.405	0.0149397
892.483	0.0150490
892.561	0.0149522
892.639	0.0149294
892.717	0.0150571
892.795	0.0150701
892.873	0.0148656
892.951	0.0148789
893.030	0.0147903
893.108	0.0148341
893.186	0.0148132
893.264	0.0149454
893.342	0.0148884
893.420	0.0146165
893.498	0.0147237
893.576	0.0148325
893.655	0.0148638
893.733	0.0148049
893.811	0.0146899
893.889	0.0147991
893.967	0.0147066
894.045	0.0147117
894.123	0.0147454
894.201	0.0148345
894.280	0.0147183
894.358	0.0148047
894.436	0.0147063
894.514	0.0147992
894.592	0.0148101
894.670	0.0148540
894.748	0.0148763
894.826	0.0148052
894.905	0.0148936
894.983	0.0150085
895.061	0.0148759
895.139	0.0150292
895.217	0.0150444
895.295	0.0150939
895.373	0.0150935
895.451	0.0150710
895.530	0.0151109
895.608	0.0151532
895.686	0.0149882
895.764	0.0150408
895.842	0.0151551
895.920	0.0148901
895.998	0.0149702
896.076	0.0150864
896.155	0.0148990
896.233	0.0147507
896.311	0.0147626
896.389	0.0147951
896.467	0.0149835
896.545	0.0150114
896.623	0.0147974
896.701	0.0148420
896.780	0.0148571
896.858	0.0147282
896.936	0.0147348
897.014	0.0146965
897.092	0.0148380
897.170	0.0147266
897.248	0.0147362
897.326	0.0147447
897.405	0.0147724
897.483	0.0148178
897.561	0.0148783
897.639	0.0148214
897.717	0.0146977
897.795	0.0149245
897.873	0.0146178
897.951	0.0146705
898.030	0.0147678
898.108	0.0149222
898.186	0.0146971
898.264	0.0147040
898.342	0.0148541
898.420	0.0147295
898.498	0.0149600
898.576	0.0148819
898.655	0.0148498
898.733	0.0147598
898.811	0.0148286
898.889	0.0149380
898.967	0.0149123
899.045	0.0149388
899.123	0.0147643
899.201	0.0149788
899.280	0.0148174
899.358	0.0148241
899.436	0.0147971
899.514	0.0149161
899.592	0.0148614
899.670	0.0149299
899.748	0.0147276
899.826	0.0148428
899.905	0.0148540
899.983	0.0149480
900.061	0.0148785
900.139	0.0148686
900.217	0.0147787
900.295	0.0147920
900.373	0.0147975
900.451	0.0147033
900.530	0.0148619
900.608	0.0147304
900.686	0.0148879
900.764	0.0148496
900.842	0.0149805
900.920	0.0148180
900.998	0.0147570
901.076	0.0147491
901.155	0.0149332
901.233	0.0148083
901.311	0.0148047
901.389	0.0148545
901.467	0.0148871
901.545	0.0150496
901.623	0.0149154
901.701	0.0148588
901.780	0.0150043
901.858	0.0149476
901.936	0.0149776
902.014	0.0149809
902.092	0.0148552
902.170	0.0149274
902.248	0.0149701
902.326	0.0150612
902.405	0.0148843
902.483	0.0149039
902.561	0.0150345
902.639	0.0149006
902.717	0.0149519
902.795	0.0150722
902.873	0.0151101
902.951	0.0150270
903.030	0.0149010
903.108	0.0149041
903.186	0.0149687
903.264	0.0150168
903.342	0.0150471
903.420	0.0150240
903.498	0.0148743
903.576	0.0149298
903.655	0.0150066
903.733	0.0149006
903.811	0.0149424
903.889	0.0148587
903.967	0.0148971
904.045	0.0149065
904.123	0.0148660
904.201	0.0147964
904.280	0.0148554
904.358	0.0148828
904.436	0.0149150
904.514	0.0149093
904.592	0.0149028
904.670	0.0148190
904.748	0.0149593
904.826	0.0148814
904.905	0.0148833
904.983	0.0148335
905.061	0.0147482
905.139	0.0150142
905.217	0.0149169
905.295	0.0147372
905.373	0.0148421
905.451	0.0149429
905.530	0.0148392
905.608	0.0147638
905.686	0.0148090
905.764	0.0148196
905.842	0.0149077
905.920	0.0148551
905.998	0.0147734
906.076	0.0147111
906.155	0.0148823
906.233	0.0148389
906.311	0.0147881
906.389	0.0146685
906.467	0.0147783
906.545	0.0148654
906.623	0.0149312
906.701	0.0146709
906.780	0.0148573
906.858	0.0147485
906.936	0.0149321
907.014	0.0149226
907.092	0.0148933
907.170	0.0148466
907.248	0.0149258
907.326	0.0151651
907.405	0.0149986
907.483	0.0148932
907.561	0.0149609
907.639	0.0150319
907.717	0.0148821
907.795	0.0149635
907.873	0.0149385
907.951	0.0149511
908.030	0.0149277
908.108	0.0148940
908.186	0.0149075
908.264	0.0148428
908.342	0.0148206
908.420	0.0147470
908.498	0.0147446
908.576	0.0149061
908.655	0.0147803
908.733	0.0148802
908.811	0.0147379
908.889	0.0148654
908.967	0.0148095
909.045	0.0149582
909.123	0.0147497
909.201	0.0147578
909.280	0.0147578
909.358	0.0147819
909.436	0.0148910
909.514	0.0147301
909.592	0.0147309
909.670	0.0147326
909.748	0.0147182
909.826	0.0147569
909.905	0.0147946
909.983	0.0147725
910.061	0.0147147
910.139	0.0148289
910.217	0.0148195
910.295	0.0149171
910.373	0.0148121
910.451	0.0146935
910.530	0.0146619
910.608	0.0147467
910.686	0.0148074
910.764	0.0147861
910.842	0.0147665
910.920	0.0148819
910.998	0.0147848
911.076	0.0148232
911.155	0.0147997
911.233	0.0147680
911.311	0.0148724
911.389	0.0145960
911.467	0.0147762
911.545	0.0148142
911.623	0.0148474
911.701	0.0148243
911.780	0.0147562
911.858	0.0146769
911.936	0.0147678
912.014	0.0146982
912.092	0.0148537
912.170	0.0149265
912.248	0.0146924
912.326	0.0149426
912.405	0.0149333
912.483	0.0147237
912.561	0.0147104
912.639	0.0148178
912.717	0.0149106
912.795	0.0147987
912.873	0.0148096
912.951	0.0148769
913.030	0.0149613
913.108	0.0148586
913.186	0.0146780
913.264	0.0148164
913.342	0.0149100
913.420	0.0148687
913.498	0.0148782
913.576	0.0148185
913.655	0.0147921
913.733	0.0148624
913.811	0.0148446
913.889	0.0147713
913.967	0.0149035
914.045	0.0148125
914.123	0.0149053
914.201	0.0148045
914.280	0.0147729
914.358	0.0150362
914.436	0.0149861
914.514	0.0149113
914.592	0.0148395
914.670	0.0147833
914.748	0.0149567
914.826	0.0148792
914.905	0.0148431
914.983	0.0147939
915.061	0.0148392
915.139	0.0148727
915.217	0.0145966
915.295	0.0148693
915.373	0.0148359
915.451	0.0147500
915.530	0.0148892
915.608	0.0148122
915.686	0.0150047
915.764	0.0147262
915.842	0.0148567
915.920	0.0148505
915.998	0.0147248
916.076	0.0148469
916.155	0.0147649
916.233	0.0147212
916.311	0.0147263
916.389	0.0148124
916.467	0.0147560
916.545	0.0148187
916.623	0.0146612
916.701	0.0146417
916.780	0.0145870
916.858	0.0147057
916.936	0.0147260
917.014	0.0146097
917.092	0.0146986
917.170	0.0146683
917.248	0.0147193
917.326	0.0147654
917.405	0.0147618
917.483	0.0147248
917.561	0.0146404
917.639	0.0147747
917.717	0.0147652
917.795	0.0149239
917.873	0.0147667
917.951	0.0148295
918.030	0.0148782
918.108	0.0147589
918.186	0.0147352
918.264	0.0149158
918.342	0.0149140
918.420	0.0149493
918.498	0.0148599
918.576	0.0148415
918.655	0.0149092
918.733	0.0147568
918.811	0.0148503
918.889	0.0148487
918.967	0.0149716
919.045	0.0148056
919.123	0.0148769
919.201	0.0148010
919.280	0.0148212
919.358	0.0147631
919.436	0.0147984
919.514	0.0148027
919.592	0.0148705
919.670	0.0149047
919.748	0.0149711
919.826	0.0148882
919.905	0.0149218
919.983	0.0147778
920.061	0.0149438
920.139	0.0149465
920.217	0.0149010
920.295	0.0149593
920.373	0.0149427
920.451	0.0148423
920.530	0.0150052
920.608	0.0150900
920.686	0.0149767
920.764	0.0150263
920.842	0.0149937
920.920	0.0149737
920.998	0.0148820
921.076	0.0151213
921.155	0.0150687
921.233	0.0150446
921.311	0.0149239
921.389	0.0150048
921.467	0.0149767
921.545	0.0150079
921.623	0.0149944
921.701	0.0149751
921.780	0.0150480
921.858	0.0149706
921.936	0.0150173
922.014	0.0150116
922.092	0.0149779
922.170	0.0150276
922.248	0.0149118
922.326	0.0150023
922.405	0.0151001
922.483	0.0149025
922.561	0.0148651
922.639	0.0149598
922.717	0.0149388
922.795	0.0149249
922.873	0.0149674
922.951	0.0149551
923.030	0.0149318
923.108	0.0149612
923.186	0.0149322
923.264	0.0149422
923.342	0.0149287
923.420	0.0148696
923.498	0.0149123
923.576	0.0148629
923.655	0.0150500
923.733	0.0150642
923.811	0.0150315
923.889	0.0150097
923.967	0.0148601
924.045	0.0150878
924.123	0.0150640
924.201	0.0151543
924.280	0.0151341
924.358	0.0150517
924.436	0.0151104
924.514	0.0150768
924.592	0.0151833
924.670	0.0150196
924.748	0.0149588
924.826	0.0151018
924.905	0.0149737
924.983	0.0149761
925.061	0.0148865
925.139	0.0150909
925.217	0.0147991
925.295	0.0149676
925.373	0.0150330
925.451	0.0148775
925.530	0.0148779
925.608	0.0148913
925.686	0.0149171
925.764	0.0149021
925.842	0.0147743
925.920	0.0150366
925.998	0.0148921
926.076	0.0148043
926.155	0.0149744
926.233	0.0148652
926.311	0.0148265
926.389	0.0150954
926.467	0.0150348
926.545	0.0148975
926.623	0.0149467
926.701	0.0148441
926.780	0.0148318
926.858	0.0149586
926.936	0.0150400
927.014	0.0149008
927.092	0.0149738
927.170	0.0149229
927.248	0.0148763
927.326	0.0148434
927.405	0.0148705
927.483	0.0150258
927.561	0.0149577
927.639	0.0148320
927.717	0.0148518
927.795	0.0149274
927.873	0.0148892
927.951	0.0148933
928.030	0.0148438
928.108	0.0148393
928.186	0.0147295
928.264	0.0148788
928.342	0.0148383
928.420	0.0147649
928.498	0.0146243
928.576	0.0146117
928.655	0.0148067
928.733	0.0147233
928.811	0.0147423
928.889	0.0147180
928.967	0.0146545
929.045	0.0147429
929.123	0.0147263
929.201	0.0146398
929.280	0.0147496
929.358	0.0146155
929.436	0.0146053
929.514	0.0147377
929.592	0.0147501
929.670	0.0145589
929.748	0.0146649
929.826	0.0146458
929.905	0.0147273
929.983	0.0148522
930.061	0.0148280
930.139	0.0149536
930.217	0.0146619
930.295	0.0147694
930.373	0.0148309
930.451	0.0148572
930.530	0.0147403
930.608	0.0148138
930.686	0.0147720
930.764	0.0148443
930.842	0.0147253
930.920	0.0147401
930.998	0.0148534
931.076	0.0148862
931.155	0.0147683
931.233	0.0148099
931.311	0.0148335
931.389	0.0148769
931.467	0.0147836
931.545	0.0149014
931.623	0.0148392
931.701	0.0148970
931.780	0.0149213
931.858	0.0148495
931.936	0.0148111
932.014	0.0149080
932.092	0.0148395
932.170	0.0148099
932.248	0.0148074
932.326	0.0148832
932.405	0.0148927
932.483	0.0148017
932.561	0.0147384
932.639	0.0147540
932.717	0.0148413
932.795	0.0149040
932.873	0.0149592
932.951	0.0149738
933.030	0.0147865
933.108	0.0149035
933.186	0.0150677
933.264	0.0148382
933.342	0.0149232
933.420	0.0148737
933.498	0.0149347
933.576	0.0148355
933.655	0.0148012
933.733	0.0149313
933.811	0.0149516
933.889	0.0148201
933.967	0.0149278
934.045	0.0148152
934.123	0.0149777
934.201	0.0148709
934.280	0.0149075
934.358	0.0149034
934.436	0.0149326
934.514	0.0150314
934.592	0.0149375
934.670	0.0149242
934.748	0.0150044
934.826	0.0150739
934.905	0.0150110
934.983	0.0149577
935.061	0.0151089
935.139	0.0152032
935.217	0.0150462
935.295	0.0149981
935.373	0.0150316
935.451	0.0149197
935.530	0.0150787
935.608	0.0151013
935.686	0.0149268
935.764	0.0150095
935.842	0.0150880
935.920	0.0150697
935.998	0.0151119
936.076	0.0149725
936.155	0.0151199
936.233	0.0149944
936.311	0.0149171
936.389	0.0151330
936.467	0.0149890
936.545	0.0149430
936.623	0.0150225
936.701	0.0149532
936.780	0.0149065
936.858	0.0149911
936.936	0.0148749
937.014	0.0150248
937.092	0.0150171
937.170	0.0149603
937.248	0.0148960
937.326	0.0149157
937.405	0.0149031
937.483	0.0148702
937.561	0.0148662
937.639	0.0148643
937.717	0.0148877
937.795	0.0148587
937.873	0.0149047
937.951	0.0148471
938.030	0.0147565
938.108	0.0148508
938.186	0.0147784
938.264	0.0147956
938.342	0.0148655
938.420	0.0149186
938.498	0.0148363
938.576	0.0148515
938.655	0.0148660
938.733	0.0148804
938.811	0.0149291
938.889	0.0148684
938.967	0.0149876
939.045	0.0150450
939.123	0.0149776
939.201	0.0149716
939.280	0.0150106
939.358	0.0149254
939.436	0.0150873
939.514	0.0150874
939.592	0.0149728
939.670	0.0151070
939.748	0.0150862
939.826	0.0150595
939.905	0.0150641
939.983	0.0149691
940.061	0.0149081
940.139	0.0149572
940.217	0.0149554
940.295	0.0148737
940.373	0.0148855
940.451	0.0149157
940.530	0.0148277
940.608	0.0148434
940.686	0.0148447
940.764	0.0149017
940.842	0.0147679
940.920	0.0147566
940.998	0.0148609
941.076	0.0148148
941.155	0.0147515
941.233	0.0147169
941.311	0.0148014
941.389	0.0147719
941.467	0.0147596
941.545	0.0147049
941.623	0.0147126
941.701	0.0146304
941.780	0.0148410
941.858	0.0148417
941.936	0.0147950
942.014	0.0146982
942.092	0.0146557
942.170	0.0148185
942.248	0.0148335
942.326	0.0148226
942.405	0.0147249
942.483	0.0147713
942.561	0.0148186
942.639	0.0148007
942.717	0.0149438
942.795	0.0148637
942.873	0.0149591
942.951	0.0149065
943.030	0.0148987
943.108	0.0148282
943.186	0.0150043
943.264	0.0149073
943.342	0.0150053
943.420	0.0150385
943.498	0.0150313
943.576	0.0150521
943.655	0.0150400
943.733	0.0149579
943.811	0.0149983
943.889	0.0151033
943.967	0.0151228
944.045	0.0150327
944.123	0.0149212
944.201	0.0150375
944.280	0.0149949
944.358	0.0149824
944.436	0.0150773
944.514	0.0151035
944.592	0.0149902
944.670	0.0149837
944.748	0.0150800
944.826	0.0149909
944.905	0.0150210
944.983	0.0150478
945.061	0.0152637
945.139	0.0150522
945.217	0.0149979
945.295	0.0150255
945.373	0.0150629
945.451	0.0150937
945.530	0.0150493
945.608	0.0151199
945.686	0.0149971
945.764	0.0151208
945.842	0.0150337
945.920	0.0150488
945.998	0.0150875
946.076	0.0150016
946.155	0.0151236
946.233	0.0150627
946.311	0.0150256
946.389	0.0151344
946.467	0.0151133
946.545	0.0151030
946.623	0.0150534
946.701	0.0150266
946.780	0.0150211
946.858	0.0150284
946.936	0.0149897
947.014	0.0150223
947.092	0.0150905
947.170	0.0150732
947.248	0.0150364
947.326	0.0148914
947.405	0.0149138
947.483	0.0150830
947.561	0.0149189
947.639	0.0148924
947.717	0.0150768
947.795	0.0149977
947.873	0.0150436
947.951	0.0150163
948.030	0.0148890
948.108	0.0149397
948.186	0.0149015
948.264	0.0148501
948.342	0.0148968
948.420	0.0149149
948.498	0.0148890
948.576	0.0150173
948.655	0.0149671
948.733	0.0149024
948.811	0.0148069
948.889	0.0148302
948.967	0.0148225
949.045	0.0146585
949.123	0.0147012
949.201	0.0148021
949.280	0.0147108
949.358	0.0146755
949.436	0.0146118
949.514	0.0147373
949.592	0.0147705
949.670	0.0146675
949.748	0.0150317
949.826	0.0149345
949.905	0.0147387
949.983	0.0148018
950.061	0.0149454
950.139	0.0150124
950.217	0.0148517
950.295	0.0148083
950.373	0.0148489
950.451	0.0148845
950.530	0.0148960
950.608	0.0148253
950.686	0.0149104
950.764	0.0149027
950.842	0.0149307
950.920	0.0149935
950.998	0.0148761
951.076	0.0148838
951.155	0.0148792
951.233	0.0148919
951.311	0.0149088
951.389	0.0148901
951.467	0.0148750
951.545	0.0149792
951.623	0.0149529
951.701	0.0149948
951.780	0.0149242
951.858	0.0149872
951.936	0.0149019
952.014	0.0149837
952.092	0.0148914
952.170	0.0150761
952.248	0.0150452
952.326	0.0150201
952.405	0.0149929
952.483	0.0151214
952.561	0.0148284
952.639	0.0148749
952.717	0.0149631
952.795	0.0150664
952.873	0.0149652
952.951	0.0149210
953.030	0.0150159
953.108	0.0149979
953.186	0.0149380
953.264	0.0149825
953.342	0.0150065
953.420	0.0149821
953.498	0.0148216
953.576	0.0149025
953.655	0.0148644
953.733	0.0148219
953.811	0.0148857
953.889	0.0149590
953.967	0.0148478
954.045	0.0149398
954.123	0.0150006
954.201	0.0150248
954.280	0.0149744
954.358	0.0149778
954.436	0.0150769
954.514	0.0149986
954.592	0.0148862
954.670	0.0150551
954.748	0.0151537
954.826	0.0151137
954.905	0.0150883
954.983	0.0150666
955.061	0.0150255
955.139	0.0150500
955.217	0.0149747
955.295	0.0150878
955.373	0.0150939
955.451	0.0150071
955.530	0.0149277
955.608	0.0149714
955.686	0.0149483
955.764	0.0149265
955.842	0.0149766
955.920	0.0149972
955.998	0.0147814
956.076	0.0148920
956.155	0.0148073
956.233	0.0148065
956.311	0.0149551
956.389	0.0148819
956.467	0.0149746
956.545	0.0148492
956.623	0.0149507
956.701	0.0148565
956.780	0.0147145
956.858	0.0149019
956.936	0.0149187
957.014	0.0148242
957.092	0.0148691
957.170	0.0149035
957.248	0.0146543
957.326	0.0148199
957.405	0.0147335
957.483	0.0147184
957.561	0.0149347
957.639	0.0149138
957.717	0.0148169
957.795	0.0149977
957.873	0.0149347
957.951	0.0150166
958.030	0.0147915
958.108	0.0149742
958.186	0.0150244
958.264	0.0151306
958.342	0.0150835
958.420	0.0149661
958.498	0.0150567
958.576	0.0150251
958.655	0.0149062
958.733	0.0150160
958.811	0.0150370
958.889	0.0148984
958.967	0.0150173
959.045	0.0149675
959.123	0.0150037
959.201	0.0151312
959.280	0.0150350
959.358	0.0150117
959.436	0.0151500
959.514	0.0150163
959.592	0.0150729
959.670	0.0150997
959.748	0.0150127
959.826	0.0150381
959.905	0.0150637
