05/20/2022	16:45:53	Ver.	4.1	UNKNOWN
Optical Delay	639.982744	Delta X		0.078125	Sweeps	1	Scan Rate	0/0
Coordinates	Axis 1	NaN	Axis 2	NaN	Axis 3	NaN	Axis 4	NaN	Axis 5	NaN	Axis 6	0.000000
TX Power	0.000000	RX Power	0.000000

639.983	0.0146928
640.061	0.0147572
640.139	0.0147333
640.217	0.0147271
640.295	0.0146567
640.373	0.0147400
640.451	0.0148032
640.530	0.0146622
640.608	0.0145596
640.686	0.0148001
640.764	0.0146677
640.842	0.0145872
640.920	0.0147731
640.998	0.0146944
641.076	0.0145887
641.155	0.0146387
641.233	0.0147375
641.311	0.0147487
641.389	0.0147291
641.467	0.0147701
641.545	0.0148129
641.623	0.0147062
641.701	0.0147211
641.780	0.0147948
641.858	0.0147622
641.936	0.0148267
642.014	0.0148770
642.092	0.0147394
642.170	0.0147803
642.248	0.0148593
642.326	0.0148031
642.405	0.0148225
642.483	0.0147878
642.561	0.0148193
642.639	0.0145945
642.717	0.0147633
642.795	0.0147170
642.873	0.0147150
642.951	0.0145768
643.030	0.0147721
643.108	0.0146388
643.186	0.0146808
643.264	0.0146284
643.342	0.0146548
643.420	0.0146884
643.498	0.0146455
643.576	0.0146816
643.655	0.0147085
643.733	0.0148012
643.811	0.0147649
643.889	0.0146428
643.967	0.0146720
644.045	0.0147638
644.123	0.0147262
644.201	0.0146265
644.280	0.0147002
644.358	0.0146191
644.436	0.0146720
644.514	0.0146956
644.592	0.0147446
644.670	0.0147135
644.748	0.0146853
644.826	0.0147605
644.905	0.0147382
644.983	0.0146468
645.061	0.0147042
645.139	0.0146256
645.217	0.0147108
645.295	0.0147004
645.373	0.0146457
645.451	0.0146208
645.530	0.0147333
645.608	0.0147204
645.686	0.0147291
645.764	0.0147082
645.842	0.0148004
645.920	0.0147228
645.998	0.0146376
646.076	0.0148142
646.155	0.0146989
646.233	0.0147342
646.311	0.0147179
646.389	0.0147236
646.467	0.0147499
646.545	0.0147325
646.623	0.0146957
646.701	0.0146463
646.780	0.0146812
646.858	0.0148632
646.936	0.0146632
647.014	0.0147134
647.092	0.0147627
647.170	0.0148259
647.248	0.0148306
647.326	0.0146707
647.405	0.0147206
647.483	0.0149486
647.561	0.0146990
647.639	0.0146606
647.717	0.0147825
647.795	0.0148468
647.873	0.0147260
647.951	0.0146482
648.030	0.0146786
648.108	0.0146918
648.186	0.0146510
648.264	0.0147346
648.342	0.0147956
648.420	0.0148582
648.498	0.0147836
648.576	0.0148580
648.655	0.0148376
648.733	0.0147907
648.811	0.0149394
648.889	0.0148851
648.967	0.0147401
649.045	0.0147134
649.123	0.0149289
649.201	0.0149370
649.280	0.0147207
649.358	0.0149117
649.436	0.0148691
649.514	0.0148284
649.592	0.0148377
649.670	0.0147098
649.748	0.0147997
649.826	0.0147564
649.905	0.0147327
649.983	0.0148418
650.061	0.0147704
650.139	0.0148114
650.217	0.0147553
650.295	0.0147756
650.373	0.0147493
650.451	0.0148528
650.530	0.0147871
650.608	0.0147272
650.686	0.0148571
650.764	0.0148293
650.842	0.0148965
650.920	0.0147922
650.998	0.0149095
651.076	0.0149319
651.155	0.0147690
651.233	0.0147805
651.311	0.0148589
651.389	0.0147653
651.467	0.0149535
651.545	0.0150410
651.623	0.0149004
651.701	0.0148801
651.780	0.0149838
651.858	0.0148801
651.936	0.0147771
652.014	0.0148850
652.092	0.0149507
652.170	0.0147872
652.248	0.0148223
652.326	0.0149152
652.405	0.0150557
652.483	0.0149628
652.561	0.0148690
652.639	0.0148627
652.717	0.0149494
652.795	0.0148650
652.873	0.0148436
652.951	0.0148167
653.030	0.0148775
653.108	0.0148953
653.186	0.0148685
653.264	0.0147961
653.342	0.0149639
653.420	0.0149722
653.498	0.0149208
653.576	0.0149303
653.655	0.0148399
653.733	0.0148101
653.811	0.0148168
653.889	0.0149516
653.967	0.0148028
654.045	0.0148871
654.123	0.0149567
654.201	0.0148445
654.280	0.0150025
654.358	0.0150330
654.436	0.0149461
654.514	0.0149867
654.592	0.0149352
654.670	0.0149823
654.748	0.0149847
654.826	0.0149552
654.905	0.0148435
654.983	0.0148215
655.061	0.0149857
655.139	0.0149174
655.217	0.0149457
655.295	0.0150887
655.373	0.0149780
655.451	0.0150082
655.530	0.0149878
655.608	0.0150778
655.686	0.0149919
655.764	0.0150264
655.842	0.0149262
655.920	0.0149808
655.998	0.0150719
656.076	0.0147896
656.155	0.0148491
656.233	0.0149875
656.311	0.0150407
656.389	0.0149787
656.467	0.0148370
656.545	0.0149695
656.623	0.0148686
656.701	0.0149451
656.780	0.0149294
656.858	0.0148858
656.936	0.0149227
657.014	0.0149596
657.092	0.0149603
657.170	0.0149078
657.248	0.0149109
657.326	0.0148107
657.405	0.0151417
657.483	0.0148824
657.561	0.0149065
657.639	0.0148368
657.717	0.0149078
657.795	0.0147424
657.873	0.0147951
657.951	0.0147115
658.030	0.0147609
658.108	0.0147548
658.186	0.0147943
658.264	0.0147964
658.342	0.0147911
658.420	0.0147897
658.498	0.0146978
658.576	0.0146981
658.655	0.0149431
658.733	0.0149454
658.811	0.0148031
658.889	0.0148933
658.967	0.0149229
659.045	0.0149348
659.123	0.0147746
659.201	0.0148471
659.280	0.0148222
659.358	0.0148640
659.436	0.0147492
659.514	0.0147740
659.592	0.0148923
659.670	0.0149699
659.748	0.0149858
659.826	0.0149438
659.905	0.0147218
659.983	0.0149811
660.061	0.0147521
660.139	0.0148572
660.217	0.0147428
660.295	0.0147411
660.373	0.0147517
660.451	0.0148563
660.530	0.0147923
660.608	0.0148612
660.686	0.0150278
660.764	0.0147534
660.842	0.0146622
660.920	0.0149068
660.998	0.0148700
661.076	0.0147020
661.155	0.0146668
661.233	0.0147188
661.311	0.0146659
661.389	0.0148249
661.467	0.0147971
661.545	0.0147824
661.623	0.0147215
661.701	0.0147572
661.780	0.0147108
661.858	0.0147937
661.936	0.0145876
662.014	0.0147112
662.092	0.0147620
662.170	0.0148122
662.248	0.0148138
662.326	0.0148413
662.405	0.0148524
662.483	0.0148466
662.561	0.0147614
662.639	0.0148355
662.717	0.0147166
662.795	0.0147895
662.873	0.0148084
662.951	0.0147802
663.030	0.0146906
663.108	0.0146849
663.186	0.0145815
663.264	0.0145704
663.342	0.0147292
663.420	0.0146002
663.498	0.0146961
663.576	0.0146126
663.655	0.0146384
663.733	0.0147612
663.811	0.0146278
663.889	0.0146590
663.967	0.0146951
664.045	0.0148418
664.123	0.0147633
664.201	0.0146870
664.280	0.0147425
664.358	0.0148134
664.436	0.0147559
664.514	0.0146795
664.592	0.0147735
664.670	0.0148182
664.748	0.0147178
664.826	0.0145979
664.905	0.0147410
664.983	0.0146299
665.061	0.0145626
665.139	0.0146252
665.217	0.0146107
665.295	0.0145683
665.373	0.0146661
665.451	0.0146460
665.530	0.0146766
665.608	0.0147357
665.686	0.0147973
665.764	0.0147094
665.842	0.0147530
665.920	0.0148769
665.998	0.0148476
666.076	0.0147951
666.155	0.0148556
666.233	0.0149046
666.311	0.0149918
666.389	0.0148787
666.467	0.0148881
666.545	0.0148093
666.623	0.0148470
666.701	0.0148970
666.780	0.0147962
666.858	0.0149499
666.936	0.0148790
667.014	0.0147731
667.092	0.0148399
667.170	0.0148483
667.248	0.0148091
667.326	0.0147411
667.405	0.0147233
667.483	0.0147182
667.561	0.0148396
667.639	0.0146730
667.717	0.0145542
667.795	0.0147482
667.873	0.0146686
667.951	0.0144958
668.030	0.0144954
668.108	0.0143919
668.186	0.0144032
668.264	0.0144930
668.342	0.0143420
668.420	0.0142247
668.498	0.0143947
668.576	0.0142941
668.655	0.0143746
668.733	0.0143048
668.811	0.0144517
668.889	0.0146738
668.967	0.0145701
669.045	0.0144964
669.123	0.0147912
669.201	0.0147722
669.280	0.0147893
669.358	0.0148347
669.436	0.0149956
669.514	0.0150542
669.592	0.0149924
669.670	0.0151563
669.748	0.0151533
669.826	0.0150877
669.905	0.0150885
669.983	0.0152531
670.061	0.0152080
670.139	0.0150945
670.217	0.0151694
670.295	0.0154962
670.373	0.0151886
670.451	0.0152265
670.530	0.0152244
670.608	0.0151887
670.686	0.0151481
670.764	0.0151539
670.842	0.0151131
670.920	0.0150536
670.998	0.0149921
671.076	0.0147784
671.155	0.0145466
671.233	0.0144888
671.311	0.0145170
671.389	0.0142354
671.467	0.0141332
671.545	0.0141506
671.623	0.0142017
671.701	0.0140518
671.780	0.0139836
671.858	0.0139668
671.936	0.0139792
672.014	0.0140601
672.092	0.0139240
672.170	0.0142194
672.248	0.0143030
672.326	0.0143951
672.405	0.0143448
672.483	0.0144158
672.561	0.0146087
672.639	0.0146812
672.717	0.0148164
672.795	0.0149065
672.873	0.0152172
672.951	0.0153643
673.030	0.0154436
673.108	0.0155241
673.186	0.0156125
673.264	0.0157335
673.342	0.0157087
673.420	0.0158768
673.498	0.0159295
673.576	0.0159593
673.655	0.0159755
673.733	0.0157581
673.811	0.0159248
673.889	0.0159665
673.967	0.0156609
674.045	0.0156244
674.123	0.0154650
674.201	0.0153522
674.280	0.0150518
674.358	0.0149874
674.436	0.0148805
674.514	0.0146313
674.592	0.0146434
674.670	0.0145191
674.748	0.0143287
674.826	0.0142803
674.905	0.0142887
674.983	0.0142131
675.061	0.0141286
675.139	0.0139800
675.217	0.0140048
675.295	0.0138126
675.373	0.0139834
675.451	0.0139806
675.530	0.0140238
675.608	0.0140530
675.686	0.0141285
675.764	0.0142430
675.842	0.0145128
675.920	0.0147335
675.998	0.0148532
676.076	0.0150258
676.155	0.0152217
676.233	0.0154906
676.311	0.0157053
676.389	0.0157924
676.467	0.0157921
676.545	0.0159239
676.623	0.0160975
676.701	0.0160922
676.780	0.0159966
676.858	0.0160966
676.936	0.0161634
677.014	0.0159525
677.092	0.0158662
677.170	0.0158142
677.248	0.0158424
677.326	0.0158089
677.405	0.0155671
677.483	0.0155114
677.561	0.0152987
677.639	0.0152702
677.717	0.0151150
677.795	0.0149150
677.873	0.0147540
677.951	0.0147827
678.030	0.0144894
678.108	0.0144626
678.186	0.0142848
678.264	0.0144032
678.342	0.0142005
678.420	0.0141785
678.498	0.0141560
678.576	0.0142145
678.655	0.0141174
678.733	0.0141994
678.811	0.0142969
678.889	0.0141225
678.967	0.0143649
679.045	0.0143555
679.123	0.0143837
679.201	0.0143767
679.280	0.0144817
679.358	0.0145070
679.436	0.0145401
679.514	0.0145836
679.592	0.0146716
679.670	0.0147115
679.748	0.0146541
679.826	0.0146575
679.905	0.0145702
679.983	0.0146928
680.061	0.0145038
680.139	0.0145897
680.217	0.0146717
680.295	0.0146561
680.373	0.0145371
680.451	0.0145596
680.530	0.0145047
680.608	0.0147095
680.686	0.0146719
680.764	0.0144692
680.842	0.0146214
680.920	0.0148177
680.998	0.0149207
681.076	0.0149958
681.155	0.0150170
681.233	0.0149819
681.311	0.0151453
681.389	0.0151008
681.467	0.0153880
681.545	0.0153836
681.623	0.0155079
681.701	0.0154434
681.780	0.0154284
681.858	0.0154938
681.936	0.0154463
682.014	0.0152882
682.092	0.0152465
682.170	0.0154081
682.248	0.0154253
682.326	0.0152646
682.405	0.0151367
682.483	0.0150771
682.561	0.0149633
682.639	0.0148658
682.717	0.0146774
682.795	0.0145583
682.873	0.0142460
682.951	0.0141782
683.030	0.0140475
683.108	0.0141120
683.186	0.0138326
683.264	0.0136699
683.342	0.0136781
683.420	0.0136046
683.498	0.0134721
683.576	0.0133479
683.655	0.0133639
683.733	0.0133686
683.811	0.0134058
683.889	0.0134114
683.967	0.0135910
684.045	0.0136716
684.123	0.0139155
684.201	0.0140414
684.280	0.0141024
684.358	0.0145521
684.436	0.0147485
684.514	0.0149174
684.592	0.0150777
684.670	0.0153114
684.748	0.0154279
684.826	0.0156715
684.905	0.0158714
684.983	0.0159753
685.061	0.0161530
685.139	0.0162646
685.217	0.0161811
685.295	0.0163078
685.373	0.0163927
685.451	0.0161926
685.530	0.0162930
685.608	0.0163565
685.686	0.0162373
685.764	0.0161060
685.842	0.0160081
685.920	0.0158106
685.998	0.0155902
686.076	0.0153714
686.155	0.0152116
686.233	0.0151652
686.311	0.0150687
686.389	0.0149649
686.467	0.0147040
686.545	0.0143696
686.623	0.0143584
686.701	0.0142361
686.780	0.0140065
686.858	0.0138121
686.936	0.0137714
687.014	0.0137404
687.092	0.0134908
687.170	0.0134189
687.248	0.0135095
687.326	0.0136087
687.405	0.0135020
687.483	0.0134421
687.561	0.0135239
687.639	0.0136832
687.717	0.0138428
687.795	0.0140449
687.873	0.0140921
687.951	0.0140837
688.030	0.0143446
688.108	0.0144437
688.186	0.0148107
688.264	0.0148447
688.342	0.0150578
688.420	0.0154033
688.498	0.0157233
688.576	0.0157415
688.655	0.0157719
688.733	0.0159095
688.811	0.0161362
688.889	0.0161916
688.967	0.0161151
689.045	0.0161808
689.123	0.0162090
689.201	0.0162105
689.280	0.0161271
689.358	0.0161847
689.436	0.0160176
689.514	0.0160081
689.592	0.0158373
689.670	0.0158142
689.748	0.0155759
689.826	0.0154591
689.905	0.0155404
689.983	0.0152808
690.061	0.0151334
690.139	0.0149955
690.217	0.0148672
690.295	0.0146837
690.373	0.0146335
690.451	0.0144507
690.530	0.0143842
690.608	0.0141794
690.686	0.0142120
690.764	0.0142751
690.842	0.0139402
690.920	0.0139770
690.998	0.0139941
691.076	0.0140647
691.155	0.0141356
691.233	0.0142674
691.311	0.0141985
691.389	0.0141634
691.467	0.0141518
691.545	0.0144625
691.623	0.0143721
691.701	0.0143811
691.780	0.0144071
691.858	0.0145871
691.936	0.0147652
692.014	0.0147392
692.092	0.0148286
692.170	0.0149046
692.248	0.0151124
692.326	0.0150925
692.405	0.0152291
692.483	0.0153738
692.561	0.0155153
692.639	0.0155919
692.717	0.0155824
692.795	0.0156984
692.873	0.0156738
692.951	0.0157224
693.030	0.0156802
693.108	0.0155275
693.186	0.0154075
693.264	0.0155302
693.342	0.0154175
693.420	0.0153410
693.498	0.0155261
693.576	0.0153719
693.655	0.0152555
693.733	0.0152650
693.811	0.0152624
693.889	0.0152831
693.967	0.0152574
694.045	0.0152685
694.123	0.0150768
694.201	0.0151072
694.280	0.0151855
694.358	0.0150725
694.436	0.0149718
694.514	0.0147702
694.592	0.0147627
694.670	0.0148458
694.748	0.0147267
694.826	0.0147114
694.905	0.0145419
694.983	0.0145399
695.061	0.0143860
695.139	0.0143436
695.217	0.0143876
695.295	0.0142879
695.373	0.0143944
695.451	0.0144363
695.530	0.0142573
695.608	0.0144398
695.686	0.0144301
695.764	0.0145823
695.842	0.0144431
695.920	0.0145991
695.998	0.0146392
696.076	0.0146051
696.155	0.0148486
696.233	0.0148198
696.311	0.0146873
696.389	0.0148431
696.467	0.0150400
696.545	0.0149481
696.623	0.0150562
696.701	0.0149026
696.780	0.0150934
696.858	0.0152213
696.936	0.0151827
697.014	0.0153183
697.092	0.0153462
697.170	0.0154425
697.248	0.0154990
697.326	0.0155161
697.405	0.0154781
697.483	0.0154971
697.561	0.0155676
697.639	0.0155200
697.717	0.0154786
697.795	0.0154527
697.873	0.0152466
697.951	0.0154065
698.030	0.0153505
698.108	0.0152120
698.186	0.0151936
698.264	0.0151162
698.342	0.0149816
698.420	0.0147568
698.498	0.0146202
698.576	0.0146188
698.655	0.0145678
698.733	0.0144191
698.811	0.0141988
698.889	0.0141556
698.967	0.0141396
699.045	0.0137930
699.123	0.0136282
699.201	0.0135445
699.280	0.0136279
699.358	0.0136291
699.436	0.0135850
699.514	0.0136379
699.592	0.0137154
699.670	0.0138244
699.748	0.0138149
699.826	0.0140491
699.905	0.0143279
699.983	0.0142369
700.061	0.0144895
700.139	0.0148154
700.217	0.0151489
700.295	0.0153033
700.373	0.0155414
700.451	0.0157001
700.530	0.0159470
700.608	0.0161463
700.686	0.0162245
700.764	0.0164214
700.842	0.0163791
700.920	0.0165608
700.998	0.0166039
701.076	0.0165496
701.155	0.0163159
701.233	0.0163225
701.311	0.0162027
701.389	0.0161185
701.467	0.0159108
701.545	0.0156992
701.623	0.0154819
701.701	0.0153449
701.780	0.0151965
701.858	0.0150307
701.936	0.0146552
702.014	0.0146057
702.092	0.0142872
702.170	0.0141073
702.248	0.0137449
702.326	0.0133878
702.405	0.0131694
702.483	0.0130406
702.561	0.0127969
702.639	0.0126035
702.717	0.0124168
702.795	0.0125715
702.873	0.0125775
702.951	0.0125735
703.030	0.0126115
703.108	0.0129649
703.186	0.0131010
703.264	0.0133882
703.342	0.0135865
703.420	0.0138836
703.498	0.0142226
703.576	0.0144825
703.655	0.0146224
703.733	0.0148080
703.811	0.0151363
703.889	0.0152284
703.967	0.0154474
704.045	0.0155621
704.123	0.0157787
704.201	0.0160931
704.280	0.0162571
704.358	0.0163926
704.436	0.0164748
704.514	0.0164590
704.592	0.0165220
704.670	0.0166737
704.748	0.0166356
704.826	0.0166820
704.905	0.0167773
704.983	0.0164452
705.061	0.0163762
705.139	0.0160733
705.217	0.0161774
705.295	0.0160323
705.373	0.0158761
705.451	0.0156403
705.530	0.0154320
705.608	0.0153329
705.686	0.0151225
705.764	0.0150703
705.842	0.0148209
705.920	0.0146381
705.998	0.0146014
706.076	0.0145252
706.155	0.0142889
706.233	0.0142837
706.311	0.0141282
706.389	0.0141118
706.467	0.0140321
706.545	0.0138167
706.623	0.0140578
706.701	0.0139880
706.780	0.0139780
706.858	0.0139941
706.936	0.0141024
707.014	0.0140672
707.092	0.0142689
707.170	0.0144904
707.248	0.0144961
707.326	0.0146046
707.405	0.0145981
707.483	0.0148315
707.561	0.0149355
707.639	0.0150143
707.717	0.0151215
707.795	0.0152441
707.873	0.0152131
707.951	0.0155798
708.030	0.0155518
708.108	0.0154150
708.186	0.0154741
708.264	0.0155335
708.342	0.0153653
708.420	0.0154239
708.498	0.0154242
708.576	0.0151945
708.655	0.0151614
708.733	0.0149607
708.811	0.0149738
708.889	0.0148172
708.967	0.0147289
709.045	0.0147691
709.123	0.0146870
709.201	0.0144940
709.280	0.0146263
709.358	0.0146719
709.436	0.0146526
709.514	0.0147466
709.592	0.0146408
709.670	0.0145160
709.748	0.0146896
709.826	0.0147526
709.905	0.0148338
709.983	0.0146946
710.061	0.0148922
710.139	0.0148564
710.217	0.0147625
710.295	0.0148011
710.373	0.0147469
710.451	0.0146902
710.530	0.0148270
710.608	0.0146305
710.686	0.0146041
710.764	0.0145459
710.842	0.0145226
710.920	0.0146244
710.998	0.0145408
711.076	0.0145426
711.155	0.0145329
711.233	0.0145358
711.311	0.0145633
711.389	0.0144856
711.467	0.0143555
711.545	0.0144174
711.623	0.0142818
711.701	0.0142054
711.780	0.0143797
711.858	0.0143295
711.936	0.0144048
712.014	0.0143889
712.092	0.0145715
712.170	0.0147105
712.248	0.0148660
712.326	0.0150179
712.405	0.0153089
712.483	0.0153591
712.561	0.0153282
712.639	0.0156200
712.717	0.0158531
712.795	0.0157976
712.873	0.0158087
712.951	0.0160753
713.030	0.0161350
713.108	0.0159489
713.186	0.0161920
713.264	0.0160551
713.342	0.0159016
713.420	0.0158320
713.498	0.0158854
713.576	0.0157883
713.655	0.0156442
713.733	0.0155161
713.811	0.0154665
713.889	0.0153809
713.967	0.0151249
714.045	0.0149299
714.123	0.0147530
714.201	0.0146384
714.280	0.0145657
714.358	0.0144531
714.436	0.0142607
714.514	0.0140704
714.592	0.0139916
714.670	0.0138128
714.748	0.0135989
714.826	0.0136460
714.905	0.0134964
714.983	0.0135039
715.061	0.0135429
715.139	0.0135737
715.217	0.0137218
715.295	0.0137679
715.373	0.0138011
715.451	0.0137663
715.530	0.0139100
715.608	0.0139851
715.686	0.0141628
715.764	0.0142187
715.842	0.0143186
715.920	0.0144714
715.998	0.0143704
716.076	0.0143489
716.155	0.0144643
716.233	0.0146030
716.311	0.0144689
716.389	0.0146552
716.467	0.0148177
716.545	0.0148942
716.623	0.0148075
716.701	0.0149319
716.780	0.0151630
716.858	0.0152559
716.936	0.0154917
717.014	0.0157380
717.092	0.0157916
717.170	0.0159615
717.248	0.0159112
717.326	0.0159856
717.405	0.0160772
717.483	0.0161598
717.561	0.0162255
717.639	0.0162283
717.717	0.0160468
717.795	0.0160938
717.873	0.0161444
717.951	0.0158388
718.030	0.0157581
718.108	0.0157430
718.186	0.0156673
718.264	0.0156234
718.342	0.0153688
718.420	0.0152927
718.498	0.0150764
718.576	0.0149804
718.655	0.0149489
718.733	0.0148041
718.811	0.0145586
718.889	0.0144999
718.967	0.0145642
719.045	0.0143815
719.123	0.0143354
719.201	0.0143064
719.280	0.0143136
719.358	0.0141206
719.436	0.0140878
719.514	0.0140671
719.592	0.0140416
719.670	0.0140546
719.748	0.0141089
719.826	0.0140708
719.905	0.0141579
719.983	0.0144608
720.061	0.0142941
720.139	0.0144209
720.217	0.0147521
720.295	0.0147315
720.373	0.0148448
720.451	0.0150319
720.530	0.0150214
720.608	0.0150693
720.686	0.0151409
720.764	0.0152966
720.842	0.0150977
720.920	0.0151297
720.998	0.0151311
721.076	0.0151534
721.155	0.0150487
721.233	0.0150618
721.311	0.0150982
721.389	0.0149615
721.467	0.0150636
721.545	0.0149503
721.623	0.0150566
721.701	0.0149887
721.780	0.0149106
721.858	0.0148525
721.936	0.0148547
722.014	0.0148984
722.092	0.0149461
722.170	0.0147469
722.248	0.0148415
722.326	0.0149057
722.405	0.0147389
722.483	0.0146281
722.561	0.0146832
722.639	0.0145788
722.717	0.0144611
722.795	0.0146184
722.873	0.0143958
722.951	0.0145026
723.030	0.0144420
723.108	0.0143024
723.186	0.0142946
723.264	0.0143633
723.342	0.0144390
723.420	0.0143576
723.498	0.0144760
723.576	0.0144354
723.655	0.0143994
723.733	0.0146088
723.811	0.0144997
723.889	0.0144830
723.967	0.0145206
724.045	0.0145728
724.123	0.0147178
724.201	0.0145747
724.280	0.0145955
724.358	0.0147363
724.436	0.0149183
724.514	0.0147521
724.592	0.0148128
724.670	0.0146864
724.748	0.0147095
724.826	0.0148444
724.905	0.0147781
724.983	0.0147877
725.061	0.0146107
725.139	0.0147601
725.217	0.0148272
725.295	0.0147330
725.373	0.0147369
725.451	0.0146454
725.530	0.0146980
725.608	0.0147063
725.686	0.0148180
725.764	0.0148469
725.842	0.0149418
725.920	0.0148766
725.998	0.0148393
726.076	0.0150115
726.155	0.0150898
726.233	0.0151081
726.311	0.0152268
726.389	0.0152716
726.467	0.0152119
726.545	0.0153436
726.623	0.0155101
726.701	0.0154811
726.780	0.0154935
726.858	0.0153697
726.936	0.0153857
727.014	0.0154009
727.092	0.0153913
727.170	0.0153359
727.248	0.0151590
727.326	0.0150828
727.405	0.0150700
727.483	0.0149012
727.561	0.0147830
727.639	0.0147875
727.717	0.0145404
727.795	0.0144903
727.873	0.0144835
727.951	0.0144733
728.030	0.0143292
728.108	0.0143859
728.186	0.0144994
728.264	0.0144260
728.342	0.0145843
728.420	0.0144826
728.498	0.0142733
728.576	0.0144405
728.655	0.0145255
728.733	0.0143825
728.811	0.0143501
728.889	0.0143447
728.967	0.0143463
729.045	0.0144575
729.123	0.0144550
729.201	0.0143442
729.280	0.0144334
729.358	0.0144625
729.436	0.0145116
729.514	0.0147475
729.592	0.0146957
729.670	0.0146328
729.748	0.0147427
729.826	0.0146805
729.905	0.0149716
729.983	0.0151468
730.061	0.0149751
730.139	0.0152524
730.217	0.0152543
730.295	0.0153281
730.373	0.0152188
730.451	0.0152732
730.530	0.0152525
730.608	0.0153859
730.686	0.0154756
730.764	0.0153886
730.842	0.0154301
730.920	0.0154878
730.998	0.0154572
731.076	0.0153921
731.155	0.0153286
731.233	0.0153516
731.311	0.0152602
731.389	0.0153101
731.467	0.0153135
731.545	0.0152401
731.623	0.0151936
731.701	0.0152060
731.780	0.0148720
731.858	0.0150514
731.936	0.0149317
732.014	0.0149688
732.092	0.0148353
732.170	0.0148280
732.248	0.0147601
732.326	0.0146471
732.405	0.0147050
732.483	0.0146436
732.561	0.0147008
732.639	0.0146519
732.717	0.0146253
732.795	0.0146093
732.873	0.0145353
732.951	0.0148071
733.030	0.0145744
733.108	0.0145667
733.186	0.0145583
733.264	0.0145032
733.342	0.0144622
733.420	0.0146175
733.498	0.0145268
733.576	0.0146332
733.655	0.0147216
733.733	0.0147290
733.811	0.0147704
733.889	0.0147920
733.967	0.0148489
734.045	0.0150433
734.123	0.0151085
734.201	0.0151115
734.280	0.0151765
734.358	0.0152101
734.436	0.0152083
734.514	0.0152972
734.592	0.0153732
734.670	0.0152045
734.748	0.0152110
734.826	0.0152434
734.905	0.0152613
734.983	0.0150872
735.061	0.0151647
735.139	0.0149026
735.217	0.0147512
735.295	0.0146876
735.373	0.0147470
735.451	0.0147812
735.530	0.0145261
735.608	0.0145478
735.686	0.0143519
735.764	0.0143591
735.842	0.0144936
735.920	0.0144729
735.998	0.0144574
736.076	0.0144777
736.155	0.0146323
736.233	0.0146550
736.311	0.0146531
736.389	0.0148943
736.467	0.0149090
736.545	0.0148138
736.623	0.0149779
736.701	0.0149762
736.780	0.0150262
736.858	0.0148995
736.936	0.0149699
737.014	0.0148894
737.092	0.0147024
737.170	0.0149031
737.248	0.0148490
737.326	0.0146762
737.405	0.0146673
737.483	0.0146178
737.561	0.0145184
737.639	0.0145023
737.717	0.0145762
737.795	0.0145538
737.873	0.0145800
737.951	0.0144942
738.030	0.0146144
738.108	0.0145247
738.186	0.0146388
738.264	0.0147128
738.342	0.0147131
738.420	0.0146877
738.498	0.0147460
738.576	0.0147330
738.655	0.0148519
738.733	0.0146895
738.811	0.0146899
738.889	0.0146746
738.967	0.0148002
739.045	0.0147425
739.123	0.0146475
739.201	0.0148365
739.280	0.0146438
739.358	0.0146157
739.436	0.0147417
739.514	0.0146491
739.592	0.0146961
739.670	0.0147882
739.748	0.0148061
739.826	0.0148253
739.905	0.0148139
739.983	0.0147033
740.061	0.0146889
740.139	0.0148801
740.217	0.0148104
740.295	0.0146133
740.373	0.0146317
740.451	0.0147268
740.530	0.0146203
740.608	0.0146531
740.686	0.0145934
740.764	0.0145797
740.842	0.0147292
740.920	0.0147200
740.998	0.0145749
741.076	0.0146114
741.155	0.0148856
741.233	0.0150624
741.311	0.0149653
741.389	0.0149149
741.467	0.0149769
741.545	0.0152122
741.623	0.0152203
741.701	0.0154115
741.780	0.0153667
741.858	0.0153812
741.936	0.0153893
742.014	0.0154577
742.092	0.0153463
742.170	0.0153863
742.248	0.0151562
742.326	0.0151876
742.405	0.0149824
742.483	0.0149756
742.561	0.0150163
742.639	0.0147702
742.717	0.0146450
742.795	0.0146885
742.873	0.0144971
742.951	0.0143712
743.030	0.0142827
743.108	0.0141759
743.186	0.0142386
743.264	0.0142018
743.342	0.0141205
743.420	0.0141379
743.498	0.0143665
743.576	0.0142693
743.655	0.0143402
743.733	0.0144628
743.811	0.0146556
743.889	0.0147357
743.967	0.0147568
744.045	0.0150489
744.123	0.0150583
744.201	0.0150309
744.280	0.0151509
744.358	0.0151952
744.436	0.0150736
744.514	0.0151508
744.592	0.0151579
744.670	0.0150016
744.748	0.0150504
744.826	0.0148890
744.905	0.0148994
744.983	0.0148743
745.061	0.0147683
745.139	0.0147551
745.217	0.0147222
745.295	0.0146943
745.373	0.0147432
745.451	0.0147882
745.530	0.0146574
745.608	0.0147290
745.686	0.0147998
745.764	0.0149500
745.842	0.0149210
745.920	0.0149612
745.998	0.0149221
746.076	0.0149914
746.155	0.0151179
746.233	0.0150227
746.311	0.0150817
746.389	0.0151518
746.467	0.0151567
746.545	0.0151242
746.623	0.0150089
746.701	0.0151148
746.780	0.0151044
746.858	0.0149294
746.936	0.0148440
747.014	0.0147256
747.092	0.0147207
747.170	0.0146784
747.248	0.0146645
747.326	0.0144995
747.405	0.0146402
747.483	0.0144645
747.561	0.0144118
747.639	0.0144472
747.717	0.0142750
747.795	0.0143608
747.873	0.0143602
747.951	0.0143424
748.030	0.0143584
748.108	0.0145210
748.186	0.0144851
748.264	0.0144350
748.342	0.0145370
748.420	0.0148000
748.498	0.0147688
748.576	0.0148835
748.655	0.0149036
748.733	0.0149577
748.811	0.0150762
748.889	0.0151232
748.967	0.0151968
749.045	0.0152361
749.123	0.0153176
749.201	0.0154568
749.280	0.0154269
749.358	0.0153716
749.436	0.0153766
749.514	0.0153900
749.592	0.0154045
749.670	0.0153745
749.748	0.0154902
749.826	0.0154606
749.905	0.0153387
749.983	0.0153137
750.061	0.0152504
750.139	0.0151124
750.217	0.0153411
750.295	0.0151952
750.373	0.0149067
750.451	0.0150380
750.530	0.0149898
750.608	0.0149305
750.686	0.0150198
750.764	0.0148265
750.842	0.0148357
750.920	0.0147706
750.998	0.0147092
751.076	0.0147249
751.155	0.0146841
751.233	0.0146242
751.311	0.0147584
751.389	0.0145948
751.467	0.0147694
751.545	0.0148224
751.623	0.0148549
751.701	0.0149409
751.780	0.0147940
751.858	0.0149084
751.936	0.0149578
752.014	0.0151031
752.092	0.0150203
752.170	0.0148759
752.248	0.0149335
752.326	0.0149854
752.405	0.0149101
752.483	0.0149277
752.561	0.0148922
752.639	0.0148788
752.717	0.0148430
752.795	0.0147227
752.873	0.0146763
752.951	0.0147848
753.030	0.0147369
753.108	0.0145432
753.186	0.0145112
753.264	0.0147435
753.342	0.0147078
753.420	0.0147435
753.498	0.0146998
753.576	0.0147509
753.655	0.0147711
753.733	0.0147314
753.811	0.0146972
753.889	0.0148678
753.967	0.0149696
754.045	0.0150600
754.123	0.0151420
754.201	0.0149982
754.280	0.0150818
754.358	0.0151939
754.436	0.0151134
754.514	0.0151495
754.592	0.0151978
754.670	0.0152280
754.748	0.0151095
754.826	0.0151883
754.905	0.0151825
754.983	0.0150828
755.061	0.0151032
755.139	0.0150565
755.217	0.0148985
755.295	0.0149620
755.373	0.0146945
755.451	0.0147831
755.530	0.0148828
755.608	0.0146854
755.686	0.0147089
755.764	0.0148640
755.842	0.0146661
755.920	0.0147239
755.998	0.0146798
756.076	0.0147543
756.155	0.0148145
756.233	0.0148006
756.311	0.0147436
756.389	0.0149119
756.467	0.0149107
756.545	0.0148646
756.623	0.0148677
756.701	0.0148505
756.780	0.0148795
756.858	0.0149018
756.936	0.0147321
757.014	0.0147352
757.092	0.0146989
757.170	0.0147195
757.248	0.0148011
757.326	0.0147569
757.405	0.0147781
757.483	0.0147038
757.561	0.0146723
757.639	0.0147291
757.717	0.0146654
757.795	0.0147691
757.873	0.0146790
757.951	0.0146336
758.030	0.0148536
758.108	0.0149174
758.186	0.0148257
758.264	0.0149724
758.342	0.0149631
758.420	0.0149390
758.498	0.0149292
758.576	0.0148653
758.655	0.0147733
758.733	0.0148120
758.811	0.0148087
758.889	0.0148618
758.967	0.0147144
759.045	0.0148569
759.123	0.0147776
759.201	0.0148229
759.280	0.0146600
759.358	0.0146574
759.436	0.0146629
759.514	0.0145891
759.592	0.0146976
759.670	0.0147330
759.748	0.0145556
759.826	0.0147341
759.905	0.0147890
759.983	0.0145990
760.061	0.0148721
760.139	0.0148595
760.217	0.0149096
760.295	0.0150378
760.373	0.0150768
760.451	0.0151149
760.530	0.0150569
760.608	0.0150384
760.686	0.0152055
760.764	0.0150563
760.842	0.0151840
760.920	0.0153122
760.998	0.0149911
761.076	0.0150752
761.155	0.0150008
761.233	0.0149954
761.311	0.0148772
761.389	0.0149325
761.467	0.0146832
761.545	0.0148166
761.623	0.0148537
761.701	0.0146776
761.780	0.0147603
761.858	0.0145412
761.936	0.0148305
762.014	0.0148547
762.092	0.0146632
762.170	0.0147232
762.248	0.0148206
762.326	0.0147817
762.405	0.0147898
762.483	0.0147781
762.561	0.0147837
762.639	0.0148641
762.717	0.0148256
762.795	0.0148407
762.873	0.0148920
762.951	0.0149083
763.030	0.0148619
763.108	0.0149487
763.186	0.0150052
763.264	0.0148842
763.342	0.0149337
763.420	0.0149522
763.498	0.0149544
763.576	0.0149686
763.655	0.0148058
763.733	0.0147916
763.811	0.0147494
763.889	0.0148019
763.967	0.0148853
764.045	0.0147267
764.123	0.0148531
764.201	0.0148849
764.280	0.0147682
764.358	0.0147545
764.436	0.0148105
764.514	0.0147994
764.592	0.0146552
764.670	0.0148167
764.748	0.0147639
764.826	0.0147503
764.905	0.0148232
764.983	0.0148165
765.061	0.0148000
765.139	0.0148375
765.217	0.0149236
765.295	0.0149637
765.373	0.0148769
765.451	0.0149365
765.530	0.0149500
765.608	0.0148799
765.686	0.0149174
765.764	0.0149997
765.842	0.0148933
765.920	0.0149278
765.998	0.0149664
766.076	0.0148327
766.155	0.0149297
766.233	0.0149332
766.311	0.0149161
766.389	0.0149608
766.467	0.0149417
766.545	0.0149384
766.623	0.0148360
766.701	0.0147542
766.780	0.0147722
766.858	0.0148349
766.936	0.0147842
767.014	0.0147736
767.092	0.0147131
767.170	0.0146057
767.248	0.0146768
767.326	0.0146999
767.405	0.0145621
767.483	0.0146035
767.561	0.0145922
767.639	0.0145990
767.717	0.0147275
767.795	0.0146870
767.873	0.0146925
767.951	0.0148556
768.030	0.0147166
768.108	0.0148445
768.186	0.0149371
768.264	0.0148474
768.342	0.0149155
768.420	0.0150084
768.498	0.0149503
768.576	0.0151093
768.655	0.0151191
768.733	0.0149897
768.811	0.0151369
768.889	0.0151332
768.967	0.0151093
769.045	0.0149058
769.123	0.0150798
769.201	0.0150213
769.280	0.0149106
769.358	0.0148586
769.436	0.0149390
769.514	0.0149426
769.592	0.0149481
769.670	0.0148682
769.748	0.0150103
769.826	0.0149036
769.905	0.0148383
769.983	0.0150573
770.061	0.0149875
770.139	0.0150477
770.217	0.0150356
770.295	0.0150601
770.373	0.0150776
770.451	0.0150893
770.530	0.0152253
770.608	0.0152370
770.686	0.0150831
770.764	0.0151075
770.842	0.0152061
770.920	0.0152113
770.998	0.0150803
771.076	0.0152905
771.155	0.0151353
771.233	0.0151241
771.311	0.0150427
771.389	0.0150176
771.467	0.0149354
771.545	0.0148650
771.623	0.0149260
771.701	0.0148797
771.780	0.0148974
771.858	0.0149152
771.936	0.0148186
772.014	0.0148659
772.092	0.0148180
772.170	0.0148207
772.248	0.0148650
772.326	0.0148522
772.405	0.0150187
772.483	0.0150402
772.561	0.0151057
772.639	0.0149609
772.717	0.0150978
772.795	0.0151036
772.873	0.0151273
772.951	0.0151042
773.030	0.0150906
773.108	0.0151962
773.186	0.0151799
773.264	0.0151421
773.342	0.0151057
773.420	0.0150505
773.498	0.0149611
773.576	0.0150293
773.655	0.0151507
773.733	0.0150075
773.811	0.0148925
773.889	0.0150840
773.967	0.0150273
774.045	0.0148973
774.123	0.0150049
774.201	0.0149438
774.280	0.0149998
774.358	0.0149414
774.436	0.0149639
774.514	0.0149914
774.592	0.0149754
774.670	0.0149084
774.748	0.0148328
774.826	0.0148341
774.905	0.0150332
774.983	0.0149144
775.061	0.0147880
775.139	0.0148863
775.217	0.0147553
775.295	0.0146333
775.373	0.0147257
775.451	0.0146088
775.530	0.0147444
775.608	0.0147145
775.686	0.0145396
775.764	0.0147202
775.842	0.0148872
775.920	0.0147263
775.998	0.0147724
776.076	0.0146943
776.155	0.0148581
776.233	0.0149099
776.311	0.0148639
776.389	0.0149561
776.467	0.0150256
776.545	0.0148203
776.623	0.0149094
776.701	0.0148722
776.780	0.0149026
776.858	0.0150580
776.936	0.0149028
777.014	0.0149074
777.092	0.0149270
777.170	0.0148802
777.248	0.0148208
777.326	0.0149572
777.405	0.0148167
777.483	0.0147565
777.561	0.0148606
777.639	0.0148196
777.717	0.0148354
777.795	0.0148302
777.873	0.0148349
777.951	0.0149746
778.030	0.0147154
778.108	0.0148611
778.186	0.0147839
778.264	0.0147327
778.342	0.0148228
778.420	0.0149017
778.498	0.0148827
778.576	0.0148209
778.655	0.0147541
778.733	0.0147807
778.811	0.0147741
778.889	0.0147707
778.967	0.0148241
779.045	0.0147484
779.123	0.0146496
779.201	0.0146984
779.280	0.0145499
779.358	0.0146650
779.436	0.0147127
779.514	0.0146026
779.592	0.0146532
779.670	0.0143584
779.748	0.0146709
779.826	0.0145786
779.905	0.0145555
779.983	0.0146403
780.061	0.0144889
780.139	0.0146838
780.217	0.0145717
780.295	0.0146370
780.373	0.0147968
780.451	0.0148032
780.530	0.0146938
780.608	0.0147742
780.686	0.0148120
780.764	0.0148534
780.842	0.0148712
780.920	0.0149181
780.998	0.0149691
781.076	0.0150240
781.155	0.0150060
781.233	0.0147615
781.311	0.0149142
781.389	0.0151368
781.467	0.0150166
781.545	0.0149707
781.623	0.0149326
781.701	0.0147871
781.780	0.0149423
781.858	0.0149326
781.936	0.0149625
782.014	0.0148479
782.092	0.0147617
782.170	0.0149863
782.248	0.0149551
782.326	0.0149353
782.405	0.0150195
782.483	0.0148890
782.561	0.0149961
782.639	0.0148466
782.717	0.0148556
782.795	0.0149033
782.873	0.0149506
782.951	0.0149982
783.030	0.0149627
783.108	0.0149551
783.186	0.0149277
783.264	0.0148174
783.342	0.0147515
783.420	0.0149132
783.498	0.0147260
783.576	0.0148377
783.655	0.0147714
783.733	0.0147213
783.811	0.0148144
783.889	0.0146911
783.967	0.0147516
784.045	0.0148232
784.123	0.0148232
784.201	0.0146798
784.280	0.0147549
784.358	0.0148547
784.436	0.0147899
784.514	0.0149095
784.592	0.0148116
784.670	0.0148798
784.748	0.0149213
784.826	0.0148176
784.905	0.0149975
784.983	0.0149863
785.061	0.0148316
785.139	0.0149138
785.217	0.0149501
785.295	0.0149634
785.373	0.0150626
785.451	0.0150312
785.530	0.0148830
785.608	0.0150514
785.686	0.0150457
785.764	0.0149736
785.842	0.0150235
785.920	0.0151559
785.998	0.0148975
786.076	0.0149202
786.155	0.0149490
786.233	0.0148460
786.311	0.0150026
786.389	0.0150069
786.467	0.0149339
786.545	0.0148940
786.623	0.0149805
786.701	0.0148752
786.780	0.0148436
786.858	0.0149442
786.936	0.0148571
787.014	0.0147279
787.092	0.0147634
787.170	0.0147935
787.248	0.0148583
787.326	0.0147767
787.405	0.0147235
787.483	0.0146915
787.561	0.0147623
787.639	0.0147345
787.717	0.0147848
787.795	0.0147798
787.873	0.0148045
787.951	0.0147556
788.030	0.0147280
788.108	0.0147142
788.186	0.0147360
788.264	0.0148180
788.342	0.0147139
788.420	0.0146777
788.498	0.0148309
788.576	0.0147989
788.655	0.0147964
788.733	0.0147771
788.811	0.0148070
788.889	0.0148649
788.967	0.0148841
789.045	0.0148872
789.123	0.0149557
789.201	0.0149496
789.280	0.0149342
789.358	0.0149507
789.436	0.0150811
789.514	0.0150043
789.592	0.0149888
789.670	0.0149810
789.748	0.0149340
789.826	0.0150617
789.905	0.0149665
789.983	0.0149487
790.061	0.0149734
790.139	0.0149716
790.217	0.0149231
790.295	0.0149958
790.373	0.0150323
790.451	0.0149164
790.530	0.0148399
790.608	0.0150076
790.686	0.0148106
790.764	0.0149245
790.842	0.0148525
790.920	0.0148920
790.998	0.0148512
791.076	0.0148463
791.155	0.0147797
791.233	0.0148598
791.311	0.0150094
791.389	0.0150375
791.467	0.0150088
791.545	0.0148576
791.623	0.0148319
791.701	0.0148584
791.780	0.0147990
791.858	0.0147124
791.936	0.0147474
792.014	0.0147931
792.092	0.0148080
792.170	0.0147752
792.248	0.0148128
792.326	0.0149255
792.405	0.0148475
792.483	0.0148204
792.561	0.0147797
792.639	0.0148576
792.717	0.0148328
792.795	0.0148667
792.873	0.0148315
792.951	0.0148675
793.030	0.0148685
793.108	0.0149355
793.186	0.0149270
793.264	0.0148040
793.342	0.0148658
793.420	0.0148283
793.498	0.0148360
793.576	0.0150107
793.655	0.0149843
793.733	0.0147735
793.811	0.0148402
793.889	0.0149745
793.967	0.0148518
794.045	0.0148082
794.123	0.0149206
794.201	0.0148814
794.280	0.0149751
794.358	0.0148689
794.436	0.0150056
794.514	0.0149619
794.592	0.0148496
794.670	0.0149528
794.748	0.0150202
794.826	0.0150246
794.905	0.0150562
794.983	0.0148549
795.061	0.0150022
795.139	0.0149768
795.217	0.0150131
795.295	0.0150343
795.373	0.0150844
795.451	0.0150412
795.530	0.0149371
795.608	0.0150399
795.686	0.0150485
795.764	0.0151018
795.842	0.0149711
795.920	0.0150652
795.998	0.0149414
796.076	0.0147633
796.155	0.0148521
796.233	0.0148656
796.311	0.0148689
796.389	0.0148454
796.467	0.0147774
796.545	0.0148738
796.623	0.0149757
796.701	0.0149294
796.780	0.0149455
796.858	0.0149595
796.936	0.0150394
797.014	0.0149643
797.092	0.0149480
797.170	0.0150452
797.248	0.0151000
797.326	0.0150816
797.405	0.0151046
797.483	0.0150584
797.561	0.0150476
797.639	0.0150761
797.717	0.0150507
797.795	0.0152179
797.873	0.0150314
797.951	0.0150607
798.030	0.0151157
798.108	0.0149340
798.186	0.0149551
798.264	0.0150574
798.342	0.0148431
798.420	0.0148927
798.498	0.0147805
798.576	0.0148248
798.655	0.0148399
798.733	0.0147041
798.811	0.0147446
798.889	0.0146525
798.967	0.0146471
799.045	0.0146503
799.123	0.0146648
799.201	0.0145113
799.280	0.0145863
799.358	0.0146871
799.436	0.0146281
799.514	0.0146885
799.592	0.0146430
799.670	0.0146261
799.748	0.0147458
799.826	0.0147292
799.905	0.0146306
799.983	0.0148162
800.061	0.0147920
800.139	0.0149364
800.217	0.0149185
800.295	0.0148012
800.373	0.0149739
800.451	0.0148899
800.530	0.0149162
800.608	0.0148795
800.686	0.0149936
800.764	0.0148893
800.842	0.0149607
800.920	0.0150890
800.998	0.0150663
801.076	0.0150541
801.155	0.0150381
801.233	0.0149271
801.311	0.0148933
801.389	0.0149782
801.467	0.0149361
801.545	0.0149113
801.623	0.0149673
801.701	0.0150475
801.780	0.0148802
801.858	0.0149047
801.936	0.0150150
802.014	0.0150327
802.092	0.0149273
802.170	0.0147939
802.248	0.0148920
802.326	0.0148660
802.405	0.0148898
802.483	0.0147372
802.561	0.0147454
802.639	0.0147833
802.717	0.0147011
802.795	0.0146764
802.873	0.0146053
802.951	0.0146086
803.030	0.0146496
803.108	0.0145079
803.186	0.0145495
803.264	0.0145882
803.342	0.0145718
803.420	0.0145544
803.498	0.0145605
803.576	0.0145427
803.655	0.0145956
803.733	0.0146043
803.811	0.0145988
803.889	0.0147070
803.967	0.0146589
804.045	0.0145701
804.123	0.0146799
804.201	0.0146957
804.280	0.0146706
804.358	0.0146758
804.436	0.0148465
804.514	0.0147124
804.592	0.0146654
804.670	0.0146591
804.748	0.0146320
804.826	0.0146979
804.905	0.0147852
804.983	0.0146668
805.061	0.0147318
805.139	0.0146867
805.217	0.0147762
805.295	0.0148335
805.373	0.0148046
805.451	0.0146556
805.530	0.0148090
805.608	0.0147588
805.686	0.0149236
805.764	0.0149938
805.842	0.0149942
805.920	0.0149402
805.998	0.0148470
806.076	0.0148641
806.155	0.0148045
806.233	0.0147852
806.311	0.0148381
806.389	0.0147881
806.467	0.0149114
806.545	0.0148133
806.623	0.0146874
806.701	0.0148025
806.780	0.0148202
806.858	0.0147604
806.936	0.0148193
807.014	0.0147881
807.092	0.0147910
807.170	0.0149016
807.248	0.0147845
807.326	0.0147268
807.405	0.0149139
807.483	0.0148831
807.561	0.0147419
807.639	0.0149171
807.717	0.0150255
807.795	0.0148892
807.873	0.0147795
807.951	0.0148000
808.030	0.0148212
808.108	0.0148576
808.186	0.0148569
808.264	0.0148766
808.342	0.0146753
808.420	0.0148312
808.498	0.0147746
808.576	0.0147272
808.655	0.0146525
808.733	0.0148401
808.811	0.0148056
808.889	0.0148694
808.967	0.0147440
809.045	0.0149747
809.123	0.0149178
809.201	0.0148479
809.280	0.0148892
809.358	0.0149847
809.436	0.0151389
809.514	0.0149296
809.592	0.0149270
809.670	0.0148701
809.748	0.0150001
809.826	0.0150507
809.905	0.0149720
809.983	0.0150349
810.061	0.0149753
810.139	0.0147978
810.217	0.0148917
810.295	0.0149423
810.373	0.0148315
810.451	0.0149799
810.530	0.0148344
810.608	0.0148565
810.686	0.0147808
810.764	0.0148335
810.842	0.0147707
810.920	0.0148224
810.998	0.0147332
811.076	0.0146810
811.155	0.0148390
811.233	0.0147955
811.311	0.0147519
811.389	0.0146980
811.467	0.0146116
811.545	0.0145674
811.623	0.0145397
811.701	0.0145538
811.780	0.0144086
811.858	0.0146436
811.936	0.0145688
812.014	0.0144712
812.092	0.0145643
812.170	0.0145425
812.248	0.0145865
812.326	0.0145965
812.405	0.0147526
812.483	0.0146432
812.561	0.0146502
812.639	0.0147423
812.717	0.0146909
812.795	0.0147359
812.873	0.0146825
812.951	0.0147920
813.030	0.0148967
813.108	0.0148554
813.186	0.0147391
813.264	0.0148940
813.342	0.0149564
813.420	0.0149242
813.498	0.0149047
813.576	0.0150157
813.655	0.0149412
813.733	0.0151006
813.811	0.0149985
813.889	0.0148800
813.967	0.0150044
814.045	0.0149543
814.123	0.0151002
814.201	0.0150037
814.280	0.0150672
814.358	0.0150302
814.436	0.0150977
814.514	0.0150697
814.592	0.0150786
814.670	0.0150036
814.748	0.0149454
814.826	0.0148383
814.905	0.0148602
814.983	0.0149210
815.061	0.0149272
815.139	0.0148637
815.217	0.0147668
815.295	0.0147848
815.373	0.0148055
815.451	0.0148469
815.530	0.0147515
815.608	0.0144902
815.686	0.0145895
815.764	0.0146749
815.842	0.0147269
815.920	0.0148195
815.998	0.0147318
816.076	0.0148798
816.155	0.0148770
816.233	0.0148270
816.311	0.0147256
816.389	0.0147119
816.467	0.0149355
816.545	0.0148811
816.623	0.0147582
816.701	0.0147021
816.780	0.0147450
816.858	0.0147849
816.936	0.0148439
817.014	0.0148860
817.092	0.0148830
817.170	0.0148399
817.248	0.0150014
817.326	0.0148366
817.405	0.0149254
817.483	0.0148676
817.561	0.0149631
817.639	0.0149145
817.717	0.0149857
817.795	0.0148192
817.873	0.0150118
817.951	0.0148572
818.030	0.0147900
818.108	0.0149554
818.186	0.0150700
818.264	0.0149817
818.342	0.0151164
818.420	0.0149918
818.498	0.0149603
818.576	0.0150605
818.655	0.0150103
818.733	0.0149506
818.811	0.0149798
818.889	0.0149644
818.967	0.0149403
819.045	0.0150781
819.123	0.0150221
819.201	0.0150047
819.280	0.0149637
819.358	0.0149867
819.436	0.0149620
819.514	0.0148769
819.592	0.0150128
819.670	0.0150533
819.748	0.0148664
819.826	0.0148055
819.905	0.0149831
819.983	0.0148672
820.061	0.0148121
820.139	0.0149406
820.217	0.0150070
820.295	0.0148087
820.373	0.0147171
820.451	0.0147568
820.530	0.0147917
820.608	0.0147179
820.686	0.0149065
820.764	0.0149159
820.842	0.0148818
820.920	0.0147720
820.998	0.0147757
821.076	0.0148943
821.155	0.0147253
821.233	0.0147526
821.311	0.0147895
821.389	0.0146521
821.467	0.0148008
821.545	0.0149635
821.623	0.0147694
821.701	0.0148272
821.780	0.0146854
821.858	0.0147681
821.936	0.0149897
822.014	0.0147459
822.092	0.0149983
822.170	0.0148210
822.248	0.0147541
822.326	0.0149639
822.405	0.0150122
822.483	0.0149860
822.561	0.0149014
822.639	0.0149194
822.717	0.0148431
822.795	0.0148730
822.873	0.0147884
822.951	0.0147622
823.030	0.0148086
823.108	0.0148549
823.186	0.0148406
823.264	0.0148312
823.342	0.0148873
823.420	0.0147912
823.498	0.0147904
823.576	0.0147586
823.655	0.0149780
823.733	0.0147427
823.811	0.0148392
823.889	0.0147776
823.967	0.0148366
824.045	0.0147607
824.123	0.0148274
824.201	0.0147052
824.280	0.0148395
824.358	0.0148138
824.436	0.0148349
824.514	0.0147213
824.592	0.0148264
824.670	0.0147238
824.748	0.0148546
824.826	0.0147797
824.905	0.0148510
824.983	0.0148817
825.061	0.0146511
825.139	0.0146395
825.217	0.0147198
825.295	0.0148631
825.373	0.0147756
825.451	0.0146146
825.530	0.0148074
825.608	0.0148875
825.686	0.0148158
825.764	0.0148760
825.842	0.0149190
825.920	0.0150179
825.998	0.0147488
826.076	0.0147961
826.155	0.0148958
826.233	0.0149154
826.311	0.0149084
826.389	0.0151392
826.467	0.0148256
826.545	0.0148877
826.623	0.0150401
826.701	0.0149683
826.780	0.0149641
826.858	0.0149609
826.936	0.0152130
827.014	0.0150989
827.092	0.0150839
827.170	0.0151504
827.248	0.0151468
827.326	0.0150851
827.405	0.0149914
827.483	0.0150870
827.561	0.0149371
827.639	0.0150666
827.717	0.0149911
827.795	0.0150500
827.873	0.0149377
827.951	0.0148550
828.030	0.0148715
828.108	0.0147947
828.186	0.0148873
828.264	0.0148167
828.342	0.0147659
828.420	0.0147881
828.498	0.0148161
828.576	0.0147289
828.655	0.0149155
828.733	0.0148608
828.811	0.0147668
828.889	0.0148627
828.967	0.0148734
829.045	0.0148640
829.123	0.0148221
829.201	0.0147495
829.280	0.0148305
829.358	0.0148801
829.436	0.0149090
829.514	0.0149538
829.592	0.0149596
829.670	0.0149518
829.748	0.0149302
829.826	0.0148566
829.905	0.0149197
829.983	0.0149886
830.061	0.0150877
830.139	0.0149195
830.217	0.0149902
830.295	0.0150661
830.373	0.0151389
830.451	0.0150668
830.530	0.0152344
830.608	0.0152197
830.686	0.0150973
830.764	0.0151836
830.842	0.0152325
830.920	0.0151714
830.998	0.0152077
831.076	0.0151246
831.155	0.0151447
831.233	0.0152065
831.311	0.0153086
831.389	0.0150822
831.467	0.0151640
831.545	0.0151733
831.623	0.0151863
831.701	0.0150907
831.780	0.0152258
831.858	0.0150713
831.936	0.0150725
832.014	0.0152241
832.092	0.0150602
832.170	0.0150267
832.248	0.0149844
832.326	0.0150528
832.405	0.0149802
832.483	0.0149483
832.561	0.0149770
832.639	0.0149216
832.717	0.0149994
832.795	0.0150220
832.873	0.0148532
832.951	0.0148062
833.030	0.0147935
833.108	0.0147374
833.186	0.0148425
833.264	0.0148112
833.342	0.0147881
833.420	0.0149085
833.498	0.0147018
833.576	0.0146572
833.655	0.0146378
833.733	0.0146722
833.811	0.0146686
833.889	0.0147737
833.967	0.0145893
834.045	0.0145359
834.123	0.0145911
834.201	0.0146365
834.280	0.0147220
834.358	0.0146988
834.436	0.0147318
834.514	0.0146161
834.592	0.0146353
834.670	0.0148540
834.748	0.0146509
834.826	0.0147197
834.905	0.0148055
834.983	0.0147878
835.061	0.0148673
835.139	0.0148787
835.217	0.0148250
835.295	0.0147966
835.373	0.0148444
835.451	0.0147173
835.530	0.0145742
835.608	0.0147573
835.686	0.0148683
835.764	0.0147501
835.842	0.0148460
835.920	0.0148707
835.998	0.0147958
836.076	0.0147938
836.155	0.0149815
836.233	0.0149206
836.311	0.0148534
836.389	0.0148948
836.467	0.0148972
836.545	0.0149124
836.623	0.0148885
836.701	0.0148549
836.780	0.0148614
836.858	0.0149583
836.936	0.0150076
837.014	0.0148861
837.092	0.0148471
837.170	0.0149604
837.248	0.0149048
837.326	0.0148356
837.405	0.0148485
837.483	0.0149667
837.561	0.0149454
837.639	0.0149609
837.717	0.0150337
837.795	0.0148701
837.873	0.0150290
837.951	0.0149242
838.030	0.0149541
838.108	0.0148276
838.186	0.0148113
838.264	0.0149860
838.342	0.0149729
838.420	0.0148241
838.498	0.0147822
838.576	0.0148046
838.655	0.0149016
838.733	0.0148409
838.811	0.0147134
838.889	0.0147745
838.967	0.0147039
839.045	0.0147028
839.123	0.0147447
839.201	0.0147739
839.280	0.0147802
839.358	0.0146624
839.436	0.0147137
839.514	0.0147511
839.592	0.0147415
839.670	0.0148420
839.748	0.0148616
839.826	0.0148836
839.905	0.0150430
839.983	0.0148746
840.061	0.0148802
840.139	0.0149538
840.217	0.0149722
840.295	0.0148972
840.373	0.0149323
840.451	0.0149802
840.530	0.0150385
840.608	0.0149809
840.686	0.0149097
840.764	0.0149098
840.842	0.0148602
840.920	0.0148848
840.998	0.0148434
841.076	0.0147299
841.155	0.0148180
841.233	0.0148806
841.311	0.0148191
841.389	0.0148817
841.467	0.0148457
841.545	0.0149654
841.623	0.0148756
841.701	0.0147435
841.780	0.0146865
841.858	0.0147141
841.936	0.0148228
842.014	0.0147605
842.092	0.0147126
842.170	0.0148376
842.248	0.0148811
842.326	0.0148676
842.405	0.0148238
842.483	0.0147635
842.561	0.0148790
842.639	0.0148049
842.717	0.0147588
842.795	0.0149189
842.873	0.0148076
842.951	0.0149052
843.030	0.0149084
843.108	0.0149794
843.186	0.0148778
843.264	0.0148128
843.342	0.0147248
843.420	0.0147233
843.498	0.0149256
843.576	0.0149159
843.655	0.0147642
843.733	0.0148026
843.811	0.0149048
843.889	0.0146883
843.967	0.0146822
844.045	0.0147080
844.123	0.0147520
844.201	0.0149252
844.280	0.0148979
844.358	0.0146304
844.436	0.0148157
844.514	0.0148627
844.592	0.0148140
844.670	0.0147269
844.748	0.0148920
844.826	0.0148605
844.905	0.0148805
844.983	0.0148473
845.061	0.0149393
845.139	0.0148920
845.217	0.0149509
845.295	0.0149049
845.373	0.0148647
845.451	0.0148315
845.530	0.0149522
845.608	0.0149123
845.686	0.0148254
845.764	0.0150111
845.842	0.0149613
845.920	0.0147586
845.998	0.0149883
846.076	0.0149600
846.155	0.0149401
846.233	0.0149483
846.311	0.0147649
846.389	0.0148429
846.467	0.0148601
846.545	0.0148786
846.623	0.0149113
846.701	0.0149543
846.780	0.0148834
846.858	0.0147287
846.936	0.0148151
847.014	0.0149952
847.092	0.0148147
847.170	0.0150579
847.248	0.0147118
847.326	0.0148969
847.405	0.0149519
847.483	0.0149022
847.561	0.0147246
847.639	0.0149570
847.717	0.0149584
847.795	0.0148930
847.873	0.0148586
847.951	0.0149593
848.030	0.0150012
848.108	0.0149741
848.186	0.0149274
848.264	0.0148401
848.342	0.0149646
848.420	0.0149168
848.498	0.0148650
848.576	0.0149285
848.655	0.0149393
848.733	0.0148383
848.811	0.0150809
848.889	0.0149848
848.967	0.0149213
849.045	0.0148640
849.123	0.0150145
849.201	0.0149256
849.280	0.0148031
849.358	0.0148271
849.436	0.0148082
849.514	0.0149221
849.592	0.0149845
849.670	0.0148973
849.748	0.0148787
849.826	0.0148609
849.905	0.0149056
849.983	0.0148418
850.061	0.0149407
850.139	0.0148956
850.217	0.0148679
850.295	0.0149822
850.373	0.0149966
850.451	0.0149067
850.530	0.0149399
850.608	0.0148848
850.686	0.0150427
850.764	0.0149393
850.842	0.0150710
850.920	0.0149429
850.998	0.0148363
851.076	0.0150464
851.155	0.0148180
851.233	0.0150409
851.311	0.0149715
851.389	0.0147817
851.467	0.0149586
851.545	0.0150197
851.623	0.0149168
851.701	0.0150146
851.780	0.0150489
851.858	0.0150443
851.936	0.0149798
852.014	0.0149225
852.092	0.0149030
852.170	0.0149456
852.248	0.0149749
852.326	0.0148769
852.405	0.0149048
852.483	0.0148998
852.561	0.0150129
852.639	0.0148100
852.717	0.0148191
852.795	0.0149882
852.873	0.0147126
852.951	0.0147109
853.030	0.0147020
853.108	0.0146762
853.186	0.0147803
853.264	0.0147666
853.342	0.0146935
853.420	0.0147407
853.498	0.0148885
853.576	0.0148228
853.655	0.0146382
853.733	0.0148055
853.811	0.0148040
853.889	0.0148045
853.967	0.0148618
854.045	0.0148792
854.123	0.0148242
854.201	0.0149364
854.280	0.0147424
854.358	0.0148665
854.436	0.0148972
854.514	0.0148644
854.592	0.0148192
854.670	0.0147781
854.748	0.0147974
854.826	0.0149194
854.905	0.0148606
854.983	0.0148260
855.061	0.0149235
855.139	0.0149319
855.217	0.0149632
855.295	0.0148833
855.373	0.0149092
855.451	0.0148586
855.530	0.0149812
855.608	0.0150540
855.686	0.0149583
855.764	0.0149988
855.842	0.0149998
855.920	0.0148886
855.998	0.0148286
856.076	0.0149264
856.155	0.0149286
856.233	0.0148665
856.311	0.0148591
856.389	0.0146365
856.467	0.0148199
856.545	0.0149831
856.623	0.0146911
856.701	0.0148514
856.780	0.0149182
856.858	0.0147335
856.936	0.0148009
857.014	0.0149196
857.092	0.0150600
857.170	0.0149329
857.248	0.0150228
857.326	0.0149655
857.405	0.0148262
857.483	0.0147861
857.561	0.0147865
857.639	0.0148811
857.717	0.0149371
857.795	0.0148436
857.873	0.0149109
857.951	0.0150169
858.030	0.0149640
858.108	0.0147812
858.186	0.0148827
858.264	0.0150011
858.342	0.0149858
858.420	0.0150864
858.498	0.0151441
858.576	0.0150663
858.655	0.0151170
858.733	0.0150466
858.811	0.0150433
858.889	0.0150745
858.967	0.0150809
859.045	0.0150336
859.123	0.0150671
859.201	0.0150542
859.280	0.0150427
859.358	0.0151180
859.436	0.0150443
859.514	0.0150320
859.592	0.0148547
859.670	0.0150175
859.748	0.0150697
859.826	0.0150247
859.905	0.0147547
859.983	0.0150472
860.061	0.0149708
860.139	0.0150017
860.217	0.0150921
860.295	0.0149944
860.373	0.0150199
860.451	0.0149007
860.530	0.0150840
860.608	0.0150105
860.686	0.0150820
860.764	0.0150105
860.842	0.0150515
860.920	0.0150045
860.998	0.0148395
861.076	0.0149596
861.155	0.0149612
861.233	0.0149060
861.311	0.0150509
861.389	0.0151131
861.467	0.0149559
861.545	0.0149537
861.623	0.0150037
861.701	0.0150122
861.780	0.0150760
861.858	0.0148793
861.936	0.0149973
862.014	0.0151320
862.092	0.0149242
862.170	0.0149937
862.248	0.0149398
862.326	0.0148907
862.405	0.0149758
862.483	0.0149765
862.561	0.0149296
862.639	0.0149193
862.717	0.0149877
862.795	0.0149019
862.873	0.0149495
862.951	0.0149781
863.030	0.0150015
863.108	0.0148740
863.186	0.0148096
863.264	0.0147301
863.342	0.0147985
863.420	0.0148591
863.498	0.0149636
863.576	0.0148840
863.655	0.0147486
863.733	0.0148444
863.811	0.0150657
863.889	0.0148740
863.967	0.0148647
864.045	0.0147730
864.123	0.0149463
864.201	0.0148051
864.280	0.0148682
864.358	0.0149020
864.436	0.0150252
864.514	0.0147964
864.592	0.0147898
864.670	0.0149297
864.748	0.0147456
864.826	0.0148323
864.905	0.0148558
864.983	0.0148194
865.061	0.0148701
865.139	0.0148304
865.217	0.0148075
865.295	0.0147385
865.373	0.0147455
865.451	0.0148688
865.530	0.0147996
865.608	0.0146852
865.686	0.0147388
865.764	0.0148109
865.842	0.0147017
865.920	0.0147572
865.998	0.0148238
866.076	0.0147992
866.155	0.0147650
866.233	0.0148498
866.311	0.0146758
866.389	0.0147016
866.467	0.0147826
866.545	0.0148108
866.623	0.0147099
866.701	0.0147836
866.780	0.0147419
866.858	0.0146655
866.936	0.0147113
867.014	0.0147212
867.092	0.0147398
867.170	0.0147114
867.248	0.0147287
867.326	0.0147292
867.405	0.0148614
867.483	0.0147256
867.561	0.0146642
867.639	0.0146673
867.717	0.0147626
867.795	0.0146583
867.873	0.0146953
867.951	0.0148677
868.030	0.0147239
868.108	0.0147074
868.186	0.0147863
868.264	0.0148168
868.342	0.0147105
868.420	0.0147160
868.498	0.0146870
868.576	0.0147887
868.655	0.0148955
868.733	0.0147708
868.811	0.0148989
868.889	0.0150717
868.967	0.0148483
869.045	0.0149118
869.123	0.0149930
869.201	0.0149442
869.280	0.0148994
869.358	0.0150214
869.436	0.0149904
869.514	0.0149207
869.592	0.0149052
869.670	0.0148434
869.748	0.0149709
869.826	0.0150053
869.905	0.0149580
869.983	0.0149390
870.061	0.0150111
870.139	0.0148585
870.217	0.0148998
870.295	0.0148902
870.373	0.0148746
870.451	0.0148313
870.530	0.0147921
870.608	0.0148237
870.686	0.0149590
870.764	0.0149722
870.842	0.0147939
870.920	0.0148174
870.998	0.0148801
871.076	0.0147487
871.155	0.0148041
871.233	0.0148593
871.311	0.0149082
871.389	0.0150101
871.467	0.0149130
871.545	0.0148325
871.623	0.0149429
871.701	0.0149838
871.780	0.0147233
871.858	0.0147934
871.936	0.0148412
872.014	0.0147852
872.092	0.0147975
872.170	0.0148254
872.248	0.0148865
872.326	0.0148469
872.405	0.0148953
872.483	0.0148788
872.561	0.0147813
872.639	0.0148245
872.717	0.0148877
872.795	0.0148933
872.873	0.0149069
872.951	0.0149421
873.030	0.0150152
873.108	0.0149028
873.186	0.0148821
873.264	0.0149718
873.342	0.0149676
873.420	0.0150972
873.498	0.0149798
873.576	0.0149390
873.655	0.0151128
873.733	0.0150453
873.811	0.0150833
873.889	0.0151252
873.967	0.0150446
874.045	0.0149813
874.123	0.0149715
874.201	0.0149799
874.280	0.0148771
874.358	0.0149804
874.436	0.0149186
874.514	0.0150093
874.592	0.0150050
874.670	0.0150130
874.748	0.0148616
874.826	0.0149591
874.905	0.0149829
874.983	0.0147350
875.061	0.0147721
875.139	0.0148583
875.217	0.0147935
875.295	0.0147294
875.373	0.0148626
875.451	0.0148537
875.530	0.0148460
875.608	0.0147820
875.686	0.0150316
875.764	0.0148709
875.842	0.0148619
875.920	0.0149779
875.998	0.0150025
876.076	0.0148868
876.155	0.0149553
876.233	0.0148712
876.311	0.0148934
876.389	0.0148258
876.467	0.0150935
876.545	0.0149667
876.623	0.0149689
876.701	0.0148703
876.780	0.0149058
876.858	0.0149003
876.936	0.0149117
877.014	0.0148022
877.092	0.0148219
877.170	0.0149459
877.248	0.0149558
877.326	0.0150523
877.405	0.0149506
877.483	0.0150379
877.561	0.0150201
877.639	0.0149498
877.717	0.0148714
877.795	0.0147958
877.873	0.0150082
877.951	0.0149122
878.030	0.0149200
878.108	0.0149425
878.186	0.0148323
878.264	0.0148743
878.342	0.0149065
878.420	0.0148109
878.498	0.0147670
878.576	0.0149933
878.655	0.0148842
878.733	0.0148579
878.811	0.0147976
878.889	0.0147252
878.967	0.0147498
879.045	0.0149019
879.123	0.0148428
879.201	0.0148279
879.280	0.0148470
879.358	0.0148493
879.436	0.0147581
879.514	0.0148524
879.592	0.0147636
879.670	0.0147593
879.748	0.0149376
879.826	0.0147305
879.905	0.0148452
879.983	0.0148662
880.061	0.0148538
880.139	0.0149604
880.217	0.0149511
880.295	0.0148933
880.373	0.0149302
880.451	0.0148745
880.530	0.0148774
880.608	0.0149750
880.686	0.0149863
880.764	0.0149181
880.842	0.0150143
880.920	0.0148878
880.998	0.0149752
881.076	0.0147643
881.155	0.0149624
881.233	0.0148059
881.311	0.0149541
881.389	0.0148683
881.467	0.0148009
881.545	0.0147752
881.623	0.0147817
881.701	0.0148390
881.780	0.0148578
881.858	0.0148250
881.936	0.0148872
882.014	0.0147295
882.092	0.0146576
882.170	0.0147975
882.248	0.0148505
882.326	0.0147237
882.405	0.0148159
882.483	0.0148420
882.561	0.0147167
882.639	0.0148742
882.717	0.0147918
882.795	0.0149995
882.873	0.0148197
882.951	0.0149139
883.030	0.0150312
883.108	0.0150414
883.186	0.0148149
883.264	0.0149129
883.342	0.0148562
883.420	0.0149038
883.498	0.0148102
883.576	0.0148956
883.655	0.0148998
883.733	0.0149039
883.811	0.0149012
883.889	0.0150994
883.967	0.0149705
884.045	0.0149405
884.123	0.0150298
884.201	0.0150702
884.280	0.0149171
884.358	0.0149236
884.436	0.0148072
884.514	0.0148748
884.592	0.0148908
884.670	0.0148960
884.748	0.0149061
884.826	0.0147537
884.905	0.0148127
884.983	0.0148125
885.061	0.0148212
885.139	0.0148701
885.217	0.0148804
885.295	0.0148413
885.373	0.0147998
885.451	0.0149342
885.530	0.0150708
885.608	0.0149435
885.686	0.0150620
885.764	0.0150069
885.842	0.0150166
885.920	0.0151192
885.998	0.0152133
886.076	0.0152005
886.155	0.0151460
886.233	0.0152500
886.311	0.0151810
886.389	0.0151965
886.467	0.0151597
886.545	0.0152430
886.623	0.0152406
886.701	0.0152634
886.780	0.0151585
886.858	0.0151083
886.936	0.0152266
887.014	0.0152038
887.092	0.0150882
887.170	0.0150660
887.248	0.0150902
887.326	0.0149614
887.405	0.0150272
887.483	0.0151216
887.561	0.0151183
887.639	0.0150017
887.717	0.0150175
887.795	0.0150102
887.873	0.0150143
887.951	0.0150199
888.030	0.0149336
888.108	0.0149246
888.186	0.0150153
888.264	0.0148621
888.342	0.0149237
888.420	0.0149536
888.498	0.0148655
888.576	0.0149439
888.655	0.0149283
888.733	0.0147933
888.811	0.0150347
888.889	0.0149493
888.967	0.0148912
889.045	0.0149419
889.123	0.0149336
889.201	0.0148746
889.280	0.0148727
889.358	0.0149634
889.436	0.0149039
889.514	0.0146706
889.592	0.0149655
889.670	0.0148896
889.748	0.0147327
889.826	0.0147302
889.905	0.0148029
889.983	0.0147470
890.061	0.0147523
890.139	0.0148750
890.217	0.0147672
890.295	0.0146963
890.373	0.0146777
890.451	0.0146010
890.530	0.0147427
890.608	0.0145304
890.686	0.0146626
890.764	0.0146755
890.842	0.0146976
890.920	0.0146353
890.998	0.0147133
891.076	0.0147017
891.155	0.0147981
891.233	0.0146451
891.311	0.0147073
891.389	0.0147535
891.467	0.0146495
891.545	0.0146747
891.623	0.0146669
891.701	0.0147594
891.780	0.0147870
891.858	0.0148110
891.936	0.0147430
892.014	0.0148940
892.092	0.0148155
892.170	0.0147849
892.248	0.0148225
892.326	0.0149180
892.405	0.0148859
892.483	0.0149547
892.561	0.0147307
892.639	0.0146134
892.717	0.0148629
892.795	0.0149102
892.873	0.0148259
892.951	0.0148522
893.030	0.0147847
893.108	0.0148294
893.186	0.0147849
893.264	0.0147267
893.342	0.0146798
893.420	0.0147082
893.498	0.0146464
893.576	0.0146120
893.655	0.0146990
893.733	0.0147293
893.811	0.0146236
893.889	0.0147182
893.967	0.0146477
894.045	0.0147371
894.123	0.0146604
894.201	0.0147511
894.280	0.0147269
894.358	0.0147002
894.436	0.0147556
894.514	0.0146303
894.592	0.0147694
894.670	0.0149370
894.748	0.0146768
894.826	0.0147688
894.905	0.0150387
894.983	0.0148685
895.061	0.0149040
895.139	0.0149461
895.217	0.0148951
895.295	0.0149321
895.373	0.0149808
895.451	0.0148798
895.530	0.0148712
895.608	0.0148670
895.686	0.0149378
895.764	0.0148902
895.842	0.0149388
895.920	0.0149451
895.998	0.0150117
896.076	0.0148281
896.155	0.0149024
896.233	0.0148793
896.311	0.0148785
896.389	0.0147466
896.467	0.0149012
896.545	0.0148164
896.623	0.0149390
896.701	0.0147826
896.780	0.0148707
896.858	0.0148167
896.936	0.0148287
897.014	0.0147239
897.092	0.0147497
897.170	0.0147787
897.248	0.0147122
897.326	0.0149426
897.405	0.0148582
897.483	0.0149452
897.561	0.0149188
897.639	0.0148362
897.717	0.0147872
897.795	0.0147307
897.873	0.0149361
897.951	0.0148767
898.030	0.0148440
898.108	0.0148426
898.186	0.0149505
898.264	0.0149576
898.342	0.0150043
898.420	0.0150951
898.498	0.0150119
898.576	0.0148753
898.655	0.0150213
898.733	0.0148476
898.811	0.0150056
898.889	0.0150137
898.967	0.0149190
899.045	0.0148649
899.123	0.0151218
899.201	0.0148059
899.280	0.0149988
899.358	0.0148203
899.436	0.0148483
899.514	0.0150343
899.592	0.0149431
899.670	0.0149114
899.748	0.0149210
899.826	0.0147868
899.905	0.0147996
899.983	0.0148536
900.061	0.0148396
900.139	0.0147098
900.217	0.0147195
900.295	0.0148828
900.373	0.0148188
900.451	0.0146045
900.530	0.0147308
900.608	0.0148306
900.686	0.0146516
900.764	0.0146864
900.842	0.0148084
900.920	0.0146536
900.998	0.0147061
901.076	0.0147285
901.155	0.0148393
901.233	0.0148125
901.311	0.0147399
901.389	0.0146124
901.467	0.0148238
901.545	0.0147634
901.623	0.0148222
901.701	0.0148980
901.780	0.0148768
901.858	0.0148421
901.936	0.0148709
902.014	0.0147265
902.092	0.0148780
902.170	0.0147649
902.248	0.0149676
902.326	0.0148764
902.405	0.0147446
902.483	0.0147506
902.561	0.0148767
902.639	0.0147961
902.717	0.0148682
902.795	0.0149212
902.873	0.0148006
902.951	0.0148964
903.030	0.0149658
903.108	0.0148888
903.186	0.0147877
903.264	0.0148467
903.342	0.0148792
903.420	0.0148720
903.498	0.0148241
903.576	0.0148133
903.655	0.0149467
903.733	0.0148746
903.811	0.0148978
903.889	0.0149055
903.967	0.0148423
904.045	0.0148304
904.123	0.0148420
904.201	0.0147867
904.280	0.0147954
904.358	0.0148087
904.436	0.0147416
904.514	0.0146680
904.592	0.0147682
904.670	0.0149027
904.748	0.0147504
904.826	0.0146929
904.905	0.0146065
904.983	0.0148328
905.061	0.0148516
905.139	0.0147219
905.217	0.0146812
905.295	0.0146906
905.373	0.0147924
905.451	0.0146021
905.530	0.0147133
905.608	0.0146233
905.686	0.0147976
905.764	0.0145834
905.842	0.0147346
905.920	0.0146812
905.998	0.0147124
906.076	0.0145868
906.155	0.0148515
906.233	0.0147839
906.311	0.0147796
906.389	0.0147750
906.467	0.0148362
906.545	0.0148715
906.623	0.0148257
906.701	0.0148428
906.780	0.0147356
906.858	0.0147212
906.936	0.0148308
907.014	0.0148076
907.092	0.0148917
907.170	0.0147646
907.248	0.0148508
907.326	0.0147697
907.405	0.0148850
907.483	0.0148650
907.561	0.0147817
907.639	0.0149007
907.717	0.0147914
907.795	0.0147834
907.873	0.0147851
907.951	0.0148107
908.030	0.0149129
908.108	0.0147778
908.186	0.0148521
908.264	0.0148497
908.342	0.0148048
908.420	0.0150208
908.498	0.0149727
908.576	0.0148682
908.655	0.0149728
908.733	0.0148741
908.811	0.0149071
908.889	0.0148646
908.967	0.0148541
909.045	0.0149027
909.123	0.0149156
909.201	0.0148964
909.280	0.0149363
909.358	0.0148949
909.436	0.0148224
909.514	0.0147460
909.592	0.0147215
909.670	0.0148506
909.748	0.0147890
909.826	0.0147582
909.905	0.0146920
909.983	0.0148473
910.061	0.0149590
910.139	0.0148349
910.217	0.0148128
910.295	0.0148721
910.373	0.0147633
910.451	0.0148362
910.530	0.0148808
910.608	0.0148488
910.686	0.0148177
910.764	0.0147162
910.842	0.0148010
910.920	0.0148193
910.998	0.0149403
911.076	0.0148370
911.155	0.0146863
911.233	0.0146172
911.311	0.0147871
911.389	0.0145629
911.467	0.0146043
911.545	0.0146006
911.623	0.0145987
911.701	0.0146943
911.780	0.0146518
911.858	0.0146044
911.936	0.0145946
912.014	0.0147379
912.092	0.0146693
912.170	0.0146851
912.248	0.0144576
912.326	0.0146947
912.405	0.0146912
912.483	0.0146073
912.561	0.0146548
912.639	0.0146326
912.717	0.0144819
912.795	0.0146342
912.873	0.0146120
912.951	0.0146097
913.030	0.0145184
913.108	0.0147016
913.186	0.0147095
913.264	0.0146701
913.342	0.0147327
913.420	0.0146870
913.498	0.0146339
913.576	0.0147538
913.655	0.0146552
913.733	0.0147453
913.811	0.0146820
913.889	0.0147832
913.967	0.0148182
914.045	0.0148555
914.123	0.0147373
914.201	0.0147544
914.280	0.0148328
914.358	0.0148373
914.436	0.0149345
914.514	0.0149711
914.592	0.0148738
914.670	0.0150002
914.748	0.0148729
914.826	0.0150084
914.905	0.0148367
914.983	0.0149117
915.061	0.0149564
915.139	0.0150146
915.217	0.0149079
915.295	0.0148644
915.373	0.0149661
915.451	0.0149726
915.530	0.0149606
915.608	0.0148093
915.686	0.0149749
915.764	0.0147791
915.842	0.0148340
915.920	0.0148581
915.998	0.0148090
916.076	0.0149438
916.155	0.0148829
916.233	0.0147990
916.311	0.0148025
916.389	0.0148876
916.467	0.0147455
916.545	0.0147574
916.623	0.0148788
916.701	0.0148364
916.780	0.0149139
916.858	0.0149137
916.936	0.0149113
917.014	0.0147895
917.092	0.0148239
917.170	0.0147801
917.248	0.0146390
917.326	0.0149366
917.405	0.0148285
917.483	0.0148643
917.561	0.0147107
917.639	0.0148683
917.717	0.0149717
917.795	0.0148911
917.873	0.0148311
917.951	0.0148864
918.030	0.0148669
918.108	0.0149051
918.186	0.0149216
918.264	0.0148228
918.342	0.0150700
918.420	0.0150666
918.498	0.0149114
918.576	0.0149504
918.655	0.0148737
918.733	0.0149636
918.811	0.0149420
918.889	0.0149300
918.967	0.0149319
919.045	0.0149415
919.123	0.0149764
919.201	0.0148017
919.280	0.0148483
919.358	0.0147443
919.436	0.0147422
919.514	0.0149030
919.592	0.0149188
919.670	0.0149092
919.748	0.0147486
919.826	0.0149223
919.905	0.0148376
919.983	0.0150763
920.061	0.0150864
920.139	0.0149216
920.217	0.0150969
920.295	0.0149850
920.373	0.0149307
920.451	0.0148496
920.530	0.0151162
920.608	0.0150839
920.686	0.0149874
920.764	0.0149674
920.842	0.0149449
920.920	0.0149296
920.998	0.0149275
921.076	0.0149024
921.155	0.0150117
921.233	0.0149290
921.311	0.0148867
921.389	0.0147364
921.467	0.0149401
921.545	0.0148541
921.623	0.0149693
921.701	0.0148803
921.780	0.0149048
921.858	0.0147039
921.936	0.0149664
922.014	0.0149188
922.092	0.0148300
922.170	0.0148702
922.248	0.0147937
922.326	0.0148856
922.405	0.0149396
922.483	0.0148477
922.561	0.0148575
922.639	0.0150211
922.717	0.0149092
922.795	0.0147527
922.873	0.0147211
922.951	0.0148853
923.030	0.0148938
923.108	0.0149095
923.186	0.0148187
923.264	0.0148866
923.342	0.0148506
923.420	0.0146608
923.498	0.0146616
923.576	0.0148726
923.655	0.0149178
923.733	0.0148653
923.811	0.0148640
923.889	0.0148689
923.967	0.0148158
924.045	0.0147380
924.123	0.0147461
924.201	0.0148358
924.280	0.0148035
924.358	0.0148254
924.436	0.0147824
924.514	0.0147040
924.592	0.0147561
924.670	0.0146751
924.748	0.0147413
924.826	0.0146080
924.905	0.0146225
924.983	0.0145811
925.061	0.0145500
925.139	0.0145825
925.217	0.0145638
925.295	0.0146620
925.373	0.0146444
925.451	0.0145937
925.530	0.0145335
925.608	0.0144108
925.686	0.0144382
925.764	0.0145684
925.842	0.0144628
925.920	0.0146013
925.998	0.0146552
926.076	0.0145263
926.155	0.0145667
926.233	0.0146706
926.311	0.0145537
926.389	0.0147292
926.467	0.0146002
926.545	0.0145718
926.623	0.0147570
926.701	0.0146042
926.780	0.0147660
926.858	0.0146219
926.936	0.0147125
927.014	0.0146909
927.092	0.0148923
927.170	0.0147070
927.248	0.0146511
927.326	0.0147401
927.405	0.0147200
927.483	0.0148108
927.561	0.0147436
927.639	0.0148174
927.717	0.0147938
927.795	0.0149072
927.873	0.0148132
927.951	0.0148262
928.030	0.0147159
928.108	0.0148720
928.186	0.0148148
928.264	0.0149211
928.342	0.0147192
928.420	0.0145906
928.498	0.0147530
928.576	0.0148697
928.655	0.0147359
928.733	0.0146861
928.811	0.0147210
928.889	0.0146759
928.967	0.0147896
929.045	0.0147527
929.123	0.0147986
929.201	0.0147681
929.280	0.0147829
929.358	0.0147408
929.436	0.0147644
929.514	0.0147230
929.592	0.0149033
929.670	0.0147146
929.748	0.0148511
929.826	0.0147146
929.905	0.0147103
929.983	0.0148099
930.061	0.0146803
930.139	0.0148210
930.217	0.0148103
930.295	0.0147858
930.373	0.0148858
930.451	0.0149494
930.530	0.0149982
930.608	0.0149020
930.686	0.0148513
930.764	0.0150034
930.842	0.0150088
930.920	0.0149596
930.998	0.0149942
931.076	0.0150784
931.155	0.0150352
931.233	0.0151402
931.311	0.0150730
931.389	0.0149110
931.467	0.0150361
931.545	0.0150419
931.623	0.0149963
931.701	0.0150123
931.780	0.0149416
931.858	0.0150235
931.936	0.0149406
932.014	0.0149695
932.092	0.0150480
932.170	0.0149871
932.248	0.0149186
932.326	0.0149443
932.405	0.0150147
932.483	0.0149044
932.561	0.0148859
932.639	0.0149425
932.717	0.0148409
932.795	0.0148148
932.873	0.0149165
932.951	0.0147551
933.030	0.0147192
933.108	0.0148022
933.186	0.0148128
933.264	0.0149072
933.342	0.0148339
933.420	0.0148114
933.498	0.0148351
933.576	0.0148452
933.655	0.0148399
933.733	0.0148092
933.811	0.0148007
933.889	0.0148318
933.967	0.0150162
934.045	0.0148472
934.123	0.0149793
934.201	0.0149936
934.280	0.0148664
934.358	0.0149052
934.436	0.0148357
934.514	0.0149712
934.592	0.0148759
934.670	0.0148109
934.748	0.0147792
934.826	0.0147816
934.905	0.0147930
934.983	0.0149229
935.061	0.0149306
935.139	0.0148547
935.217	0.0149144
935.295	0.0149207
935.373	0.0148158
935.451	0.0149709
935.530	0.0148185
935.608	0.0149520
935.686	0.0148347
935.764	0.0148038
935.842	0.0149469
935.920	0.0147615
935.998	0.0147665
936.076	0.0147445
936.155	0.0147127
936.233	0.0147026
936.311	0.0147344
936.389	0.0147749
936.467	0.0148429
936.545	0.0147688
936.623	0.0148045
936.701	0.0147697
936.780	0.0147350
936.858	0.0147656
936.936	0.0147569
937.014	0.0147856
937.092	0.0148042
937.170	0.0147639
937.248	0.0147481
937.326	0.0148022
937.405	0.0147607
937.483	0.0147306
937.561	0.0148506
937.639	0.0147242
937.717	0.0147923
937.795	0.0147881
937.873	0.0147974
937.951	0.0148252
938.030	0.0148002
938.108	0.0148241
938.186	0.0149567
938.264	0.0148277
938.342	0.0149192
938.420	0.0148113
938.498	0.0147796
938.576	0.0148949
938.655	0.0147782
938.733	0.0148415
938.811	0.0147831
938.889	0.0148448
938.967	0.0148571
939.045	0.0149891
939.123	0.0150276
939.201	0.0149565
939.280	0.0149780
939.358	0.0149326
939.436	0.0149783
939.514	0.0149354
939.592	0.0149406
939.670	0.0152091
939.748	0.0151900
939.826	0.0151272
939.905	0.0151174
939.983	0.0150031
940.061	0.0151208
940.139	0.0150351
940.217	0.0150983
940.295	0.0149775
940.373	0.0150043
940.451	0.0150450
940.530	0.0151299
940.608	0.0149403
940.686	0.0150401
940.764	0.0150181
940.842	0.0151365
940.920	0.0150317
940.998	0.0150345
941.076	0.0149414
941.155	0.0148769
941.233	0.0150815
941.311	0.0149787
941.389	0.0149597
941.467	0.0150665
941.545	0.0149154
941.623	0.0149021
941.701	0.0149206
941.780	0.0149228
941.858	0.0149955
941.936	0.0149400
942.014	0.0148905
942.092	0.0148544
942.170	0.0149216
942.248	0.0149278
942.326	0.0148900
942.405	0.0147926
942.483	0.0150043
942.561	0.0149247
942.639	0.0147587
942.717	0.0147659
942.795	0.0149379
942.873	0.0149853
942.951	0.0149750
943.030	0.0149202
943.108	0.0150171
943.186	0.0149078
943.264	0.0147878
943.342	0.0149065
943.420	0.0150002
943.498	0.0150043
943.576	0.0149285
943.655	0.0149094
943.733	0.0148116
943.811	0.0148552
943.889	0.0147293
943.967	0.0148219
944.045	0.0147769
944.123	0.0148689
944.201	0.0148077
944.280	0.0147103
944.358	0.0147556
944.436	0.0148093
944.514	0.0147540
944.592	0.0148373
944.670	0.0147459
944.748	0.0148613
944.826	0.0146397
944.905	0.0147422
944.983	0.0149049
945.061	0.0147598
945.139	0.0147468
945.217	0.0147913
945.295	0.0148106
945.373	0.0147118
945.451	0.0147648
945.530	0.0148707
945.608	0.0147165
945.686	0.0149186
945.764	0.0147880
945.842	0.0149165
945.920	0.0150531
945.998	0.0148934
946.076	0.0148756
946.155	0.0149238
946.233	0.0150558
946.311	0.0148817
946.389	0.0150246
946.467	0.0149905
946.545	0.0149969
946.623	0.0149738
946.701	0.0149101
946.780	0.0149421
946.858	0.0150175
946.936	0.0149664
947.014	0.0149572
947.092	0.0149628
947.170	0.0149165
947.248	0.0149866
947.326	0.0150320
947.405	0.0149036
947.483	0.0149110
947.561	0.0149229
947.639	0.0149138
947.717	0.0150730
947.795	0.0149178
947.873	0.0149130
947.951	0.0151821
948.030	0.0150013
948.108	0.0148927
948.186	0.0149719
948.264	0.0150631
948.342	0.0149828
948.420	0.0149410
948.498	0.0148469
948.576	0.0149947
948.655	0.0149973
948.733	0.0148989
948.811	0.0148208
948.889	0.0149563
948.967	0.0148723
949.045	0.0148261
949.123	0.0148006
949.201	0.0147842
949.280	0.0148415
949.358	0.0148449
949.436	0.0148381
949.514	0.0148301
949.592	0.0147465
949.670	0.0147343
949.748	0.0147848
949.826	0.0148182
949.905	0.0148531
949.983	0.0148603
950.061	0.0146840
950.139	0.0148218
950.217	0.0149225
950.295	0.0147794
950.373	0.0149075
950.451	0.0148640
950.530	0.0149386
950.608	0.0149762
950.686	0.0149197
950.764	0.0149603
950.842	0.0148701
950.920	0.0149240
950.998	0.0150494
951.076	0.0149866
951.155	0.0150494
951.233	0.0149812
951.311	0.0150372
951.389	0.0152000
951.467	0.0150014
951.545	0.0150863
951.623	0.0148763
951.701	0.0150275
951.780	0.0150337
951.858	0.0149306
951.936	0.0150681
952.014	0.0150101
952.092	0.0148898
952.170	0.0149795
952.248	0.0147997
952.326	0.0149020
952.405	0.0149924
952.483	0.0149076
952.561	0.0149225
952.639	0.0149714
952.717	0.0150520
952.795	0.0147804
952.873	0.0149526
952.951	0.0149502
953.030	0.0149265
953.108	0.0148151
953.186	0.0149708
953.264	0.0148412
953.342	0.0146965
953.420	0.0148062
953.498	0.0148848
953.576	0.0149844
953.655	0.0149071
953.733	0.0147799
953.811	0.0148148
953.889	0.0147855
953.967	0.0148563
954.045	0.0147880
954.123	0.0148386
954.201	0.0148878
954.280	0.0147541
954.358	0.0148026
954.436	0.0148321
954.514	0.0146561
954.592	0.0146107
954.670	0.0148753
954.748	0.0148967
954.826	0.0147771
954.905	0.0149107
954.983	0.0149175
955.061	0.0149709
955.139	0.0147798
955.217	0.0147862
955.295	0.0148130
955.373	0.0146927
955.451	0.0149223
955.530	0.0149171
955.608	0.0148391
955.686	0.0148494
955.764	0.0149243
955.842	0.0148642
955.920	0.0149495
955.998	0.0147610
956.076	0.0148683
956.155	0.0149725
956.233	0.0147969
956.311	0.0148635
956.389	0.0148124
956.467	0.0148674
956.545	0.0148823
956.623	0.0148732
956.701	0.0148724
956.780	0.0149619
956.858	0.0149193
956.936	0.0147865
957.014	0.0149210
957.092	0.0150225
957.170	0.0149940
957.248	0.0150741
957.326	0.0150771
957.405	0.0150425
957.483	0.0150271
957.561	0.0150328
957.639	0.0150223
957.717	0.0150656
957.795	0.0150669
957.873	0.0150116
957.951	0.0150791
958.030	0.0150256
958.108	0.0150882
958.186	0.0151175
958.264	0.0151394
958.342	0.0150140
958.420	0.0150637
958.498	0.0150090
958.576	0.0149887
958.655	0.0151073
958.733	0.0151006
958.811	0.0151376
958.889	0.0150926
958.967	0.0148766
959.045	0.0149590
959.123	0.0152026
959.201	0.0150941
959.280	0.0150945
959.358	0.0151192
959.436	0.0149771
959.514	0.0149829
959.592	0.0151446
959.670	0.0150381
959.748	0.0151170
959.826	0.0151688
959.905	0.0150337
