05/07/2022	17:02:16	Ver.	4.1	UNKNOWN
Optical Delay	639.989416	Delta X		0.078125	Sweeps	1	Scan Rate	0/0
Coordinates	Axis 1	NaN	Axis 2	NaN	Axis 3	NaN	Axis 4	NaN	Axis 5	NaN	Axis 6	0.000000
TX Power	0.000000	RX Power	0.000000

639.989	0.0128699
640.068	0.0128454
640.146	0.0129936
640.224	0.0126786
640.302	0.0129774
640.380	0.0127860
640.458	0.0128236
640.536	0.0128097
640.614	0.0128629
640.693	0.0129055
640.771	0.0127711
640.849	0.0128474
640.927	0.0127735
641.005	0.0129520
641.083	0.0129502
641.161	0.0128172
641.239	0.0128480
641.318	0.0129733
641.396	0.0128909
641.474	0.0129583
641.552	0.0128410
641.630	0.0128371
641.708	0.0128931
641.786	0.0129148
641.864	0.0129330
641.943	0.0129296
642.021	0.0129681
642.099	0.0128807
642.177	0.0128961
642.255	0.0128697
642.333	0.0127828
642.411	0.0127747
642.489	0.0128621
642.568	0.0128172
642.646	0.0127695
642.724	0.0128240
642.802	0.0128162
642.880	0.0130054
642.958	0.0127724
643.036	0.0127590
643.114	0.0129485
643.193	0.0129968
643.271	0.0126869
643.349	0.0128748
643.427	0.0128321
643.505	0.0129598
643.583	0.0129461
643.661	0.0128413
643.739	0.0129559
643.818	0.0128706
643.896	0.0127856
643.974	0.0128470
644.052	0.0128370
644.130	0.0129406
644.208	0.0130174
644.286	0.0127998
644.364	0.0127895
644.443	0.0128062
644.521	0.0130284
644.599	0.0128704
644.677	0.0128244
644.755	0.0128313
644.833	0.0128362
644.911	0.0128868
644.989	0.0127914
645.068	0.0128159
645.146	0.0129527
645.224	0.0129638
645.302	0.0128609
645.380	0.0126015
645.458	0.0127876
645.536	0.0128042
645.614	0.0129527
645.693	0.0128896
645.771	0.0128825
645.849	0.0127531
645.927	0.0127961
646.005	0.0129987
646.083	0.0128064
646.161	0.0128967
646.239	0.0129251
646.318	0.0128518
646.396	0.0127757
646.474	0.0129441
646.552	0.0129173
646.630	0.0128780
646.708	0.0129648
646.786	0.0128616
646.864	0.0128786
646.943	0.0128484
647.021	0.0128735
647.099	0.0129768
647.177	0.0128513
647.255	0.0127462
647.333	0.0129372
647.411	0.0129404
647.489	0.0128105
647.568	0.0127461
647.646	0.0128925
647.724	0.0129798
647.802	0.0127229
647.880	0.0128144
647.958	0.0128970
648.036	0.0128537
648.114	0.0127718
648.193	0.0128819
648.271	0.0129362
648.349	0.0129389
648.427	0.0128117
648.505	0.0129745
648.583	0.0128600
648.661	0.0128028
648.739	0.0127055
648.818	0.0129646
648.896	0.0129200
648.974	0.0129758
649.052	0.0130147
649.130	0.0128257
649.208	0.0128835
649.286	0.0128611
649.364	0.0129134
649.443	0.0130039
649.521	0.0128907
649.599	0.0127664
649.677	0.0130010
649.755	0.0129211
649.833	0.0128358
649.911	0.0128259
649.989	0.0128391
650.068	0.0129540
650.146	0.0130170
650.224	0.0127988
650.302	0.0127111
650.380	0.0129715
650.458	0.0129677
650.536	0.0128373
650.614	0.0129660
650.693	0.0130022
650.771	0.0128056
650.849	0.0128630
650.927	0.0128909
651.005	0.0128465
651.083	0.0128204
651.161	0.0128669
651.239	0.0128075
651.318	0.0128127
651.396	0.0128455
651.474	0.0128802
651.552	0.0130566
651.630	0.0128359
651.708	0.0128007
651.786	0.0129345
651.864	0.0128244
651.943	0.0128049
652.021	0.0128001
652.099	0.0128687
652.177	0.0128961
652.255	0.0128712
652.333	0.0129152
652.411	0.0128993
652.489	0.0129799
652.568	0.0128960
652.646	0.0127579
652.724	0.0128289
652.802	0.0129321
652.880	0.0130103
652.958	0.0128394
653.036	0.0128041
653.114	0.0129762
653.193	0.0127772
653.271	0.0128370
653.349	0.0129801
653.427	0.0128345
653.505	0.0128479
653.583	0.0128677
653.661	0.0127649
653.739	0.0129703
653.818	0.0128550
653.896	0.0128097
653.974	0.0128021
654.052	0.0129111
654.130	0.0128240
654.208	0.0127942
654.286	0.0129354
654.364	0.0128610
654.443	0.0129375
654.521	0.0128232
654.599	0.0129407
654.677	0.0128288
654.755	0.0128490
654.833	0.0127702
654.911	0.0129125
654.989	0.0128813
655.068	0.0128604
655.146	0.0128473
655.224	0.0127683
655.302	0.0127227
655.380	0.0128403
655.458	0.0129423
655.536	0.0127992
655.614	0.0128205
655.693	0.0127952
655.771	0.0129117
655.849	0.0128720
655.927	0.0128284
656.005	0.0129919
656.083	0.0128699
656.161	0.0128139
656.239	0.0128835
656.318	0.0129278
656.396	0.0128360
656.474	0.0129625
656.552	0.0129365
656.630	0.0129305
656.708	0.0128946
656.786	0.0127987
656.864	0.0126465
656.943	0.0128071
657.021	0.0130021
657.099	0.0128890
657.177	0.0128960
657.255	0.0130148
657.333	0.0127468
657.411	0.0129182
657.489	0.0127969
657.568	0.0128015
657.646	0.0128479
657.724	0.0129910
657.802	0.0128591
657.880	0.0129427
657.958	0.0128697
658.036	0.0129256
658.114	0.0128438
658.193	0.0127825
658.271	0.0129298
658.349	0.0127975
658.427	0.0129971
658.505	0.0128706
658.583	0.0128545
658.661	0.0128677
658.739	0.0127835
658.818	0.0129298
658.896	0.0130051
658.974	0.0128659
659.052	0.0127566
659.130	0.0129015
659.208	0.0129136
659.286	0.0128361
659.364	0.0130012
659.443	0.0129025
659.521	0.0127260
659.599	0.0128541
659.677	0.0128183
659.755	0.0128306
659.833	0.0130418
659.911	0.0128468
659.989	0.0127143
660.068	0.0128555
660.146	0.0128265
660.224	0.0127781
660.302	0.0129099
660.380	0.0128955
660.458	0.0129058
660.536	0.0130742
660.614	0.0129543
660.693	0.0128869
660.771	0.0129315
660.849	0.0129785
660.927	0.0130493
661.005	0.0128922
661.083	0.0128882
661.161	0.0129028
661.239	0.0128626
661.318	0.0129108
661.396	0.0128983
661.474	0.0128840
661.552	0.0129798
661.630	0.0128476
661.708	0.0129163
661.786	0.0128894
661.864	0.0129112
661.943	0.0129032
662.021	0.0130170
662.099	0.0129591
662.177	0.0129066
662.255	0.0128414
662.333	0.0130211
662.411	0.0129082
662.489	0.0128763
662.568	0.0130143
662.646	0.0129919
662.724	0.0128568
662.802	0.0127557
662.880	0.0129158
662.958	0.0129887
663.036	0.0130135
663.114	0.0128218
663.193	0.0128394
663.271	0.0128802
663.349	0.0129726
663.427	0.0128674
663.505	0.0128996
663.583	0.0130019
663.661	0.0128947
663.739	0.0128305
663.818	0.0128639
663.896	0.0127129
663.974	0.0128938
664.052	0.0128736
664.130	0.0127666
664.208	0.0127763
664.286	0.0130224
664.364	0.0129214
664.443	0.0128638
664.521	0.0128287
664.599	0.0127201
664.677	0.0128310
664.755	0.0129087
664.833	0.0130360
664.911	0.0127020
664.989	0.0128793
665.068	0.0128169
665.146	0.0127885
665.224	0.0128555
665.302	0.0129207
665.380	0.0127039
665.458	0.0128555
665.536	0.0127210
665.614	0.0128605
665.693	0.0129064
665.771	0.0128029
665.849	0.0127356
665.927	0.0129012
666.005	0.0129053
666.083	0.0127582
666.161	0.0128465
666.239	0.0128386
666.318	0.0128889
666.396	0.0128628
666.474	0.0127598
666.552	0.0128851
666.630	0.0129578
666.708	0.0130054
666.786	0.0128787
666.864	0.0127594
666.943	0.0127057
667.021	0.0128767
667.099	0.0129218
667.177	0.0127837
667.255	0.0127790
667.333	0.0128239
667.411	0.0129214
667.489	0.0128237
667.568	0.0128558
667.646	0.0128475
667.724	0.0128937
667.802	0.0128968
667.880	0.0128990
667.958	0.0128321
668.036	0.0129922
668.114	0.0128151
668.193	0.0126522
668.271	0.0127452
668.349	0.0127920
668.427	0.0128515
668.505	0.0127975
668.583	0.0125825
668.661	0.0128024
668.739	0.0129643
668.818	0.0129295
668.896	0.0127425
668.974	0.0128455
669.052	0.0127340
669.130	0.0126122
669.208	0.0127814
669.286	0.0129173
669.364	0.0129057
669.443	0.0128553
669.521	0.0129108
669.599	0.0127815
669.677	0.0128031
669.755	0.0127908
669.833	0.0128017
669.911	0.0129076
669.989	0.0128654
670.068	0.0127911
670.146	0.0127881
670.224	0.0127944
670.302	0.0128017
670.380	0.0127498
670.458	0.0127574
670.536	0.0129264
670.614	0.0129687
670.693	0.0127182
670.771	0.0128194
670.849	0.0127628
670.927	0.0128298
671.005	0.0127947
671.083	0.0129025
671.161	0.0129281
671.239	0.0128437
671.318	0.0129061
671.396	0.0129390
671.474	0.0128027
671.552	0.0127776
671.630	0.0128230
671.708	0.0127620
671.786	0.0128644
671.864	0.0128872
671.943	0.0128408
672.021	0.0128457
672.099	0.0129952
672.177	0.0129732
672.255	0.0129555
672.333	0.0128642
672.411	0.0128302
672.489	0.0129285
672.568	0.0129411
672.646	0.0129591
672.724	0.0127854
672.802	0.0128297
672.880	0.0126933
672.958	0.0128182
673.036	0.0129031
673.114	0.0128674
673.193	0.0129103
673.271	0.0129653
673.349	0.0128414
673.427	0.0130782
673.505	0.0129690
673.583	0.0129213
673.661	0.0129143
673.739	0.0128618
673.818	0.0129147
673.896	0.0128852
673.974	0.0129118
674.052	0.0128274
674.130	0.0128394
674.208	0.0128880
674.286	0.0129367
674.364	0.0129605
674.443	0.0127911
674.521	0.0129759
674.599	0.0130920
674.677	0.0128884
674.755	0.0127808
674.833	0.0129830
674.911	0.0129516
674.989	0.0127861
675.068	0.0129050
675.146	0.0129104
675.224	0.0131139
675.302	0.0129449
675.380	0.0129413
675.458	0.0130997
675.536	0.0129065
675.614	0.0128691
675.693	0.0129433
675.771	0.0129233
675.849	0.0130324
675.927	0.0130273
676.005	0.0128150
676.083	0.0128548
676.161	0.0128691
676.239	0.0129486
676.318	0.0129879
676.396	0.0129253
676.474	0.0128892
676.552	0.0128663
676.630	0.0129053
676.708	0.0129992
676.786	0.0129715
676.864	0.0129523
676.943	0.0128033
677.021	0.0128548
677.099	0.0130190
677.177	0.0129202
677.255	0.0129697
677.333	0.0128990
677.411	0.0128143
677.489	0.0128094
677.568	0.0128841
677.646	0.0129247
677.724	0.0129118
677.802	0.0129105
677.880	0.0129333
677.958	0.0127129
678.036	0.0128455
678.114	0.0128323
678.193	0.0129630
678.271	0.0128368
678.349	0.0128574
678.427	0.0128550
678.505	0.0129996
678.583	0.0128934
678.661	0.0129059
678.739	0.0128806
678.818	0.0128579
678.896	0.0127789
678.974	0.0128486
679.052	0.0129832
679.130	0.0129162
679.208	0.0128228
679.286	0.0129990
679.364	0.0129504
679.443	0.0129445
679.521	0.0129514
679.599	0.0129157
679.677	0.0128848
679.755	0.0128730
679.833	0.0128483
679.911	0.0128715
679.989	0.0128468
680.068	0.0128384
680.146	0.0128511
680.224	0.0129082
680.302	0.0127514
680.380	0.0130019
680.458	0.0128163
680.536	0.0128770
680.614	0.0128849
680.693	0.0128584
680.771	0.0128217
680.849	0.0129523
680.927	0.0129380
681.005	0.0129268
681.083	0.0129832
681.161	0.0129174
681.239	0.0128831
681.318	0.0128764
681.396	0.0128717
681.474	0.0128876
681.552	0.0129119
681.630	0.0128145
681.708	0.0129152
681.786	0.0129227
681.864	0.0129898
681.943	0.0128805
682.021	0.0128804
682.099	0.0130029
682.177	0.0129012
682.255	0.0128860
682.333	0.0131215
682.411	0.0128608
682.489	0.0129106
682.568	0.0128284
682.646	0.0131090
682.724	0.0130600
682.802	0.0129211
682.880	0.0129646
682.958	0.0129298
683.036	0.0129043
683.114	0.0129303
683.193	0.0130017
683.271	0.0129044
683.349	0.0129938
683.427	0.0129893
683.505	0.0129054
683.583	0.0129277
683.661	0.0129307
683.739	0.0129525
683.818	0.0129144
683.896	0.0130469
683.974	0.0129673
684.052	0.0130114
684.130	0.0129900
684.208	0.0128294
684.286	0.0129509
684.364	0.0129022
684.443	0.0128886
684.521	0.0128884
684.599	0.0128891
684.677	0.0129915
684.755	0.0128367
684.833	0.0129972
684.911	0.0129164
684.989	0.0129010
685.068	0.0128325
685.146	0.0128928
685.224	0.0129055
685.302	0.0128316
685.380	0.0128349
685.458	0.0129718
685.536	0.0130145
685.614	0.0131303
685.693	0.0129507
685.771	0.0130816
685.849	0.0130018
685.927	0.0129029
686.005	0.0127984
686.083	0.0127790
686.161	0.0128000
686.239	0.0127684
686.318	0.0127109
686.396	0.0128163
686.474	0.0128194
686.552	0.0128378
686.630	0.0129633
686.708	0.0129788
686.786	0.0131484
686.864	0.0131854
686.943	0.0130865
687.021	0.0130972
687.099	0.0132452
687.177	0.0132835
687.255	0.0132118
687.333	0.0131441
687.411	0.0130688
687.489	0.0129996
687.568	0.0126732
687.646	0.0126772
687.724	0.0124361
687.802	0.0124501
687.880	0.0123029
687.958	0.0123105
688.036	0.0122431
688.114	0.0123968
688.193	0.0124841
688.271	0.0124487
688.349	0.0126566
688.427	0.0128639
688.505	0.0130134
688.583	0.0131422
688.661	0.0134266
688.739	0.0136371
688.818	0.0137041
688.896	0.0136616
688.974	0.0136530
689.052	0.0135672
689.130	0.0133848
689.208	0.0131411
689.286	0.0129704
689.364	0.0128844
689.443	0.0125136
689.521	0.0124413
689.599	0.0122569
689.677	0.0121267
689.755	0.0120116
689.833	0.0119481
689.911	0.0120587
689.989	0.0120406
690.068	0.0121793
690.146	0.0120874
690.224	0.0123403
690.302	0.0123540
690.380	0.0126472
690.458	0.0128029
690.536	0.0129979
690.614	0.0131548
690.693	0.0131908
690.771	0.0134518
690.849	0.0133561
690.927	0.0135373
691.005	0.0134975
691.083	0.0134523
691.161	0.0135306
691.239	0.0133859
691.318	0.0134423
691.396	0.0134541
691.474	0.0132482
691.552	0.0130554
691.630	0.0130369
691.708	0.0128523
691.786	0.0127632
691.864	0.0126770
691.943	0.0126431
692.021	0.0126501
692.099	0.0124513
692.177	0.0124567
692.255	0.0124900
692.333	0.0123984
692.411	0.0123616
692.489	0.0123592
692.568	0.0125058
692.646	0.0126160
692.724	0.0125135
692.802	0.0125433
692.880	0.0125742
692.958	0.0123666
693.036	0.0124979
693.114	0.0126025
693.193	0.0126520
693.271	0.0125301
693.349	0.0125237
693.427	0.0127694
693.505	0.0128256
693.583	0.0129066
693.661	0.0130035
693.739	0.0132497
693.818	0.0132558
693.896	0.0133078
693.974	0.0134383
694.052	0.0134109
694.130	0.0134993
694.208	0.0135311
694.286	0.0136535
694.364	0.0134345
694.443	0.0133227
694.521	0.0131521
694.599	0.0130520
694.677	0.0131923
694.755	0.0127449
694.833	0.0126239
694.911	0.0125512
694.989	0.0125288
695.068	0.0125539
695.146	0.0123552
695.224	0.0123379
695.302	0.0120962
695.380	0.0122715
695.458	0.0123137
695.536	0.0122276
695.614	0.0122535
695.693	0.0122060
695.771	0.0123412
695.849	0.0125970
695.927	0.0124499
696.005	0.0126627
696.083	0.0129038
696.161	0.0129971
696.239	0.0130226
696.318	0.0130392
696.396	0.0128716
696.474	0.0128888
696.552	0.0130611
696.630	0.0130361
696.708	0.0130541
696.786	0.0129541
696.864	0.0128973
696.943	0.0130249
697.021	0.0129085
697.099	0.0128858
697.177	0.0128819
697.255	0.0127561
697.333	0.0128343
697.411	0.0128427
697.489	0.0127515
697.568	0.0127444
697.646	0.0128525
697.724	0.0129275
697.802	0.0130140
697.880	0.0129445
697.958	0.0129234
698.036	0.0130135
698.114	0.0130027
698.193	0.0130637
698.271	0.0130148
698.349	0.0131707
698.427	0.0130281
698.505	0.0130197
698.583	0.0131833
698.661	0.0131370
698.739	0.0130611
698.818	0.0130466
698.896	0.0129456
698.974	0.0130246
699.052	0.0131351
699.130	0.0130177
699.208	0.0131628
699.286	0.0130618
699.364	0.0129913
699.443	0.0130582
699.521	0.0129212
699.599	0.0129288
699.677	0.0128937
699.755	0.0126903
699.833	0.0126347
699.911	0.0125703
699.989	0.0125035
700.068	0.0125225
700.146	0.0123206
700.224	0.0123407
700.302	0.0122340
700.380	0.0122390
700.458	0.0120967
700.536	0.0122545
700.614	0.0121789
700.693	0.0122924
700.771	0.0123174
700.849	0.0123522
700.927	0.0123500
701.005	0.0124849
701.083	0.0124440
701.161	0.0126872
701.239	0.0127161
701.318	0.0127785
701.396	0.0130574
701.474	0.0132880
701.552	0.0133435
701.630	0.0134367
701.708	0.0135291
701.786	0.0137030
701.864	0.0137695
701.943	0.0138416
702.021	0.0137704
702.099	0.0138158
702.177	0.0137392
702.255	0.0136673
702.333	0.0137537
702.411	0.0137235
702.489	0.0135048
702.568	0.0134014
702.646	0.0132461
702.724	0.0130560
702.802	0.0129434
702.880	0.0128455
702.958	0.0128042
703.036	0.0128221
703.114	0.0124763
703.193	0.0124296
703.271	0.0125422
703.349	0.0124482
703.427	0.0123985
703.505	0.0123438
703.583	0.0123947
703.661	0.0124236
703.739	0.0123184
703.818	0.0122459
703.896	0.0122897
703.974	0.0122574
704.052	0.0123186
704.130	0.0121477
704.208	0.0123418
704.286	0.0124818
704.364	0.0124555
704.443	0.0124858
704.521	0.0124802
704.599	0.0126238
704.677	0.0128119
704.755	0.0127107
704.833	0.0127246
704.911	0.0127541
704.989	0.0129990
705.068	0.0130817
705.146	0.0130125
705.224	0.0130203
705.302	0.0131618
705.380	0.0132507
705.458	0.0132409
705.536	0.0133548
705.614	0.0132443
705.693	0.0134219
705.771	0.0133827
705.849	0.0133012
705.927	0.0135191
706.005	0.0134518
706.083	0.0134089
706.161	0.0133408
706.239	0.0133527
706.318	0.0134415
706.396	0.0133759
706.474	0.0132603
706.552	0.0132061
706.630	0.0132958
706.708	0.0130318
706.786	0.0128781
706.864	0.0130013
706.943	0.0127914
707.021	0.0128009
707.099	0.0127480
707.177	0.0126322
707.255	0.0126015
707.333	0.0126530
707.411	0.0127159
707.489	0.0126916
707.568	0.0124696
707.646	0.0124475
707.724	0.0126255
707.802	0.0125003
707.880	0.0126173
707.958	0.0124334
708.036	0.0124311
708.114	0.0123976
708.193	0.0124960
708.271	0.0125874
708.349	0.0125175
708.427	0.0125206
708.505	0.0125064
708.583	0.0125766
708.661	0.0124297
708.739	0.0124801
708.818	0.0126201
708.896	0.0127598
708.974	0.0126003
709.052	0.0127510
709.130	0.0129279
709.208	0.0130199
709.286	0.0130080
709.364	0.0130216
709.443	0.0130003
709.521	0.0131258
709.599	0.0132078
709.677	0.0132538
709.755	0.0133133
709.833	0.0133215
709.911	0.0132742
709.989	0.0133150
710.068	0.0133997
710.146	0.0132121
710.224	0.0133179
710.302	0.0134338
710.380	0.0133217
710.458	0.0132590
710.536	0.0132201
710.614	0.0133405
710.693	0.0133806
710.771	0.0134149
710.849	0.0133727
710.927	0.0133072
711.005	0.0132952
711.083	0.0133216
711.161	0.0132163
711.239	0.0130772
711.318	0.0131450
711.396	0.0130811
711.474	0.0130697
711.552	0.0130587
711.630	0.0131598
711.708	0.0128271
711.786	0.0127671
711.864	0.0127743
711.943	0.0127468
712.021	0.0127714
712.099	0.0127264
712.177	0.0127585
712.255	0.0128192
712.333	0.0126881
712.411	0.0127912
712.489	0.0128246
712.568	0.0129446
712.646	0.0126578
712.724	0.0127266
712.802	0.0128261
712.880	0.0128262
712.958	0.0126693
713.036	0.0126934
713.114	0.0127537
713.193	0.0126832
713.271	0.0126801
713.349	0.0126382
713.427	0.0126262
713.505	0.0125121
713.583	0.0126922
713.661	0.0126387
713.739	0.0126120
713.818	0.0125872
713.896	0.0126473
713.974	0.0127173
714.052	0.0127140
714.130	0.0127206
714.208	0.0129085
714.286	0.0128498
714.364	0.0128478
714.443	0.0130623
714.521	0.0130102
714.599	0.0129548
714.677	0.0131178
714.755	0.0131185
714.833	0.0131820
714.911	0.0131390
714.989	0.0131744
715.068	0.0132728
715.146	0.0132764
715.224	0.0131211
715.302	0.0132132
715.380	0.0131757
715.458	0.0132158
715.536	0.0132687
715.614	0.0131889
715.693	0.0133366
715.771	0.0131091
715.849	0.0131789
715.927	0.0131252
716.005	0.0131858
716.083	0.0132146
716.161	0.0130790
716.239	0.0131216
716.318	0.0129707
716.396	0.0130116
716.474	0.0130428
716.552	0.0130129
716.630	0.0128941
716.708	0.0128164
716.786	0.0129607
716.864	0.0128189
716.943	0.0128341
717.021	0.0127516
717.099	0.0126751
717.177	0.0127310
717.255	0.0126910
717.333	0.0125076
717.411	0.0126610
717.489	0.0125776
717.568	0.0125275
717.646	0.0126595
717.724	0.0126762
717.802	0.0125935
717.880	0.0125240
717.958	0.0125262
718.036	0.0127528
718.114	0.0127216
718.193	0.0127653
718.271	0.0125536
718.349	0.0125315
718.427	0.0125557
718.505	0.0125300
718.583	0.0126009
718.661	0.0126170
718.739	0.0124896
718.818	0.0126109
718.896	0.0125884
718.974	0.0127060
719.052	0.0127795
719.130	0.0125936
719.208	0.0127797
719.286	0.0129649
719.364	0.0127871
719.443	0.0130090
719.521	0.0130396
719.599	0.0131046
719.677	0.0131542
719.755	0.0133324
719.833	0.0133942
719.911	0.0134325
719.989	0.0134021
720.068	0.0135160
720.146	0.0135284
720.224	0.0134384
720.302	0.0136292
720.380	0.0135061
720.458	0.0134598
720.536	0.0133643
720.614	0.0133012
720.693	0.0131351
720.771	0.0131697
720.849	0.0130793
720.927	0.0128312
721.005	0.0127206
721.083	0.0126231
721.161	0.0126318
721.239	0.0126138
721.318	0.0123224
721.396	0.0123228
721.474	0.0123807
721.552	0.0123554
721.630	0.0122588
721.708	0.0123178
721.786	0.0124008
721.864	0.0125100
721.943	0.0124832
722.021	0.0125999
722.099	0.0128407
722.177	0.0128398
722.255	0.0128483
722.333	0.0129207
722.411	0.0131004
722.489	0.0131485
722.568	0.0131210
722.646	0.0132247
722.724	0.0132140
722.802	0.0133320
722.880	0.0131430
722.958	0.0131699
723.036	0.0132434
723.114	0.0132473
723.193	0.0129636
723.271	0.0129046
723.349	0.0130037
723.427	0.0128264
723.505	0.0126331
723.583	0.0126393
723.661	0.0124502
723.739	0.0126051
723.818	0.0124261
723.896	0.0123776
723.974	0.0123431
724.052	0.0123069
724.130	0.0124122
724.208	0.0123676
724.286	0.0123519
724.364	0.0123973
724.443	0.0124197
724.521	0.0125774
724.599	0.0126031
724.677	0.0126809
724.755	0.0127056
724.833	0.0128851
724.911	0.0131377
724.989	0.0130892
725.068	0.0131685
725.146	0.0132203
725.224	0.0134640
725.302	0.0133649
725.380	0.0134550
725.458	0.0133781
725.536	0.0134883
725.614	0.0134672
725.693	0.0133292
725.771	0.0135030
725.849	0.0133449
725.927	0.0131239
726.005	0.0131940
726.083	0.0130794
726.161	0.0130048
726.239	0.0130148
726.318	0.0129215
726.396	0.0128068
726.474	0.0126924
726.552	0.0125998
726.630	0.0125916
726.708	0.0125179
726.786	0.0124759
726.864	0.0125282
726.943	0.0125988
727.021	0.0124812
727.099	0.0126227
727.177	0.0127490
727.255	0.0125570
727.333	0.0126920
727.411	0.0128915
727.489	0.0128881
727.568	0.0129583
727.646	0.0130679
727.724	0.0129967
727.802	0.0131036
727.880	0.0131711
727.958	0.0131590
728.036	0.0131667
728.114	0.0131705
728.193	0.0131734
728.271	0.0130490
728.349	0.0129716
728.427	0.0130281
728.505	0.0129063
728.583	0.0128025
728.661	0.0126937
728.739	0.0127195
728.818	0.0126928
728.896	0.0125912
728.974	0.0124499
729.052	0.0124525
729.130	0.0125223
729.208	0.0123907
729.286	0.0124849
729.364	0.0124673
729.443	0.0125266
729.521	0.0124287
729.599	0.0124719
729.677	0.0126307
729.755	0.0126147
729.833	0.0126056
729.911	0.0128119
729.989	0.0126611
730.068	0.0128001
730.146	0.0130753
730.224	0.0130145
730.302	0.0130268
730.380	0.0130920
730.458	0.0132994
730.536	0.0133900
730.614	0.0132771
730.693	0.0133858
730.771	0.0133012
730.849	0.0133690
730.927	0.0133153
731.005	0.0133529
731.083	0.0133652
731.161	0.0132323
731.239	0.0129681
731.318	0.0130475
731.396	0.0131535
731.474	0.0128362
731.552	0.0127229
731.630	0.0127567
731.708	0.0127044
731.786	0.0125567
731.864	0.0125248
731.943	0.0122972
732.021	0.0125219
732.099	0.0124882
732.177	0.0122565
732.255	0.0124180
732.333	0.0123277
732.411	0.0124962
732.489	0.0125289
732.568	0.0124870
732.646	0.0125484
732.724	0.0126389
732.802	0.0128004
732.880	0.0128222
732.958	0.0129488
733.036	0.0130264
733.114	0.0131058
733.193	0.0130555
733.271	0.0132666
733.349	0.0132726
733.427	0.0133268
733.505	0.0134714
733.583	0.0134431
733.661	0.0134629
733.739	0.0135068
733.818	0.0134228
733.896	0.0132841
733.974	0.0132381
734.052	0.0131252
734.130	0.0131418
734.208	0.0131277
734.286	0.0130202
734.364	0.0128554
734.443	0.0129082
734.521	0.0128696
734.599	0.0126442
734.677	0.0126463
734.755	0.0127410
734.833	0.0124815
734.911	0.0125726
734.989	0.0126387
735.068	0.0126759
735.146	0.0126219
735.224	0.0125897
735.302	0.0126167
735.380	0.0125939
735.458	0.0127108
735.536	0.0127386
735.614	0.0126454
735.693	0.0127296
735.771	0.0129781
735.849	0.0129170
735.927	0.0130547
736.005	0.0128933
736.083	0.0130774
736.161	0.0130185
736.239	0.0131400
736.318	0.0131265
736.396	0.0132404
736.474	0.0133779
736.552	0.0131424
736.630	0.0131614
736.708	0.0132705
736.786	0.0133086
736.864	0.0131666
736.943	0.0132571
737.021	0.0131981
737.099	0.0130363
737.177	0.0131678
737.255	0.0130775
737.333	0.0129836
737.411	0.0129527
737.489	0.0131307
737.568	0.0130325
737.646	0.0130042
737.724	0.0129048
737.802	0.0128837
737.880	0.0128620
737.958	0.0129008
738.036	0.0128251
738.114	0.0128275
738.193	0.0129408
738.271	0.0128861
738.349	0.0127670
738.427	0.0127877
738.505	0.0128553
738.583	0.0128207
738.661	0.0128217
738.739	0.0129131
738.818	0.0128642
738.896	0.0128098
738.974	0.0127123
739.052	0.0128014
739.130	0.0129026
739.208	0.0128114
739.286	0.0129707
739.364	0.0130764
739.443	0.0129569
739.521	0.0129352
739.599	0.0131558
739.677	0.0131812
739.755	0.0129458
739.833	0.0131265
739.911	0.0130035
739.989	0.0129417
740.068	0.0131030
740.146	0.0129324
740.224	0.0129934
740.302	0.0129925
740.380	0.0127993
740.458	0.0126594
740.536	0.0127586
740.614	0.0126216
740.693	0.0126703
740.771	0.0126280
740.849	0.0125404
740.927	0.0127071
741.005	0.0127659
741.083	0.0127489
741.161	0.0127901
741.239	0.0126892
741.318	0.0127879
741.396	0.0128799
741.474	0.0129368
741.552	0.0128693
741.630	0.0129505
741.708	0.0130894
741.786	0.0129983
741.864	0.0129359
741.943	0.0130099
742.021	0.0130676
742.099	0.0129507
742.177	0.0131660
742.255	0.0130846
742.333	0.0130274
742.411	0.0129604
742.489	0.0130131
742.568	0.0131241
742.646	0.0132111
742.724	0.0130202
742.802	0.0129434
742.880	0.0128441
742.958	0.0129607
743.036	0.0129945
743.114	0.0130032
743.193	0.0127984
743.271	0.0127965
743.349	0.0128370
743.427	0.0127611
743.505	0.0128368
743.583	0.0127667
743.661	0.0128317
743.739	0.0129840
743.818	0.0126433
743.896	0.0127441
743.974	0.0129063
744.052	0.0127946
744.130	0.0127766
744.208	0.0128569
744.286	0.0128785
744.364	0.0129340
744.443	0.0128506
744.521	0.0128321
744.599	0.0128233
744.677	0.0129008
744.755	0.0129440
744.833	0.0129279
744.911	0.0129419
744.989	0.0130181
745.068	0.0129488
745.146	0.0130482
745.224	0.0129316
745.302	0.0130326
745.380	0.0130548
745.458	0.0130309
745.536	0.0130647
745.614	0.0131116
745.693	0.0130510
745.771	0.0130994
745.849	0.0131346
745.927	0.0131182
746.005	0.0129290
746.083	0.0129460
746.161	0.0129539
746.239	0.0129153
746.318	0.0129072
746.396	0.0128358
746.474	0.0129727
746.552	0.0128561
746.630	0.0128012
746.708	0.0127644
746.786	0.0127222
746.864	0.0127380
746.943	0.0127000
747.021	0.0126136
747.099	0.0126768
747.177	0.0126634
747.255	0.0126350
747.333	0.0126627
747.411	0.0126300
747.489	0.0125996
747.568	0.0125159
747.646	0.0127042
747.724	0.0127494
747.802	0.0127119
747.880	0.0128034
747.958	0.0128135
748.036	0.0127869
748.114	0.0128538
748.193	0.0128180
748.271	0.0128825
748.349	0.0129494
748.427	0.0129905
748.505	0.0130143
748.583	0.0131162
748.661	0.0130597
748.739	0.0132471
748.818	0.0132138
748.896	0.0131953
748.974	0.0131797
749.052	0.0132007
749.130	0.0132169
749.208	0.0131216
749.286	0.0132826
749.364	0.0131056
749.443	0.0130127
749.521	0.0131296
749.599	0.0129259
749.677	0.0128751
749.755	0.0128071
749.833	0.0128381
749.911	0.0125890
749.989	0.0128584
750.068	0.0128590
750.146	0.0127665
750.224	0.0128906
750.302	0.0127983
750.380	0.0126303
750.458	0.0127209
750.536	0.0127402
750.614	0.0127621
750.693	0.0127315
750.771	0.0128729
750.849	0.0128853
750.927	0.0128603
751.005	0.0128381
751.083	0.0129183
751.161	0.0129218
751.239	0.0128844
751.318	0.0129440
751.396	0.0128735
751.474	0.0129890
751.552	0.0130368
751.630	0.0130743
751.708	0.0131020
751.786	0.0129439
751.864	0.0130357
751.943	0.0129955
752.021	0.0130138
752.099	0.0130299
752.177	0.0130673
752.255	0.0129200
752.333	0.0129864
752.411	0.0130872
752.489	0.0129185
752.568	0.0128711
752.646	0.0129730
752.724	0.0128516
752.802	0.0128896
752.880	0.0126309
752.958	0.0128191
753.036	0.0127769
753.114	0.0126594
753.193	0.0127347
753.271	0.0127597
753.349	0.0127457
753.427	0.0126166
753.505	0.0126458
753.583	0.0126425
753.661	0.0128395
753.739	0.0127259
753.818	0.0124872
753.896	0.0127009
753.974	0.0127287
754.052	0.0126714
754.130	0.0127409
754.208	0.0127098
754.286	0.0127818
754.364	0.0128699
754.443	0.0128573
754.521	0.0129935
754.599	0.0130326
754.677	0.0129898
754.755	0.0129254
754.833	0.0130759
754.911	0.0130672
754.989	0.0130598
755.068	0.0131664
755.146	0.0131940
755.224	0.0129941
755.302	0.0130781
755.380	0.0130012
755.458	0.0129946
755.536	0.0131573
755.614	0.0129226
755.693	0.0129270
755.771	0.0126772
755.849	0.0127126
755.927	0.0128553
756.005	0.0126961
756.083	0.0126087
756.161	0.0125619
756.239	0.0126026
756.318	0.0126558
756.396	0.0126522
756.474	0.0126432
756.552	0.0128146
756.630	0.0125478
756.708	0.0125600
756.786	0.0127278
756.864	0.0128286
756.943	0.0128530
757.021	0.0128836
757.099	0.0128911
757.177	0.0130383
757.255	0.0129637
757.333	0.0129739
757.411	0.0131438
757.489	0.0131200
757.568	0.0131371
757.646	0.0130490
757.724	0.0131207
757.802	0.0132001
757.880	0.0131518
757.958	0.0130723
758.036	0.0130515
758.114	0.0131839
758.193	0.0131507
758.271	0.0131123
758.349	0.0130905
758.427	0.0128577
758.505	0.0129089
758.583	0.0129549
758.661	0.0129124
758.739	0.0126730
758.818	0.0126109
758.896	0.0126252
758.974	0.0125481
759.052	0.0126246
759.130	0.0124728
759.208	0.0123742
759.286	0.0124700
759.364	0.0124291
759.443	0.0123376
759.521	0.0125321
759.599	0.0124221
759.677	0.0125455
759.755	0.0124818
759.833	0.0125380
759.911	0.0125841
759.989	0.0127927
760.068	0.0126987
760.146	0.0127213
760.224	0.0127850
760.302	0.0128552
760.380	0.0128481
760.458	0.0128905
760.536	0.0130594
760.614	0.0129682
760.693	0.0128814
760.771	0.0131648
760.849	0.0130193
760.927	0.0131403
761.005	0.0131329
761.083	0.0130196
761.161	0.0130772
761.239	0.0129566
761.318	0.0130693
761.396	0.0130877
761.474	0.0131387
761.552	0.0129544
761.630	0.0131440
761.708	0.0129655
761.786	0.0129918
761.864	0.0130263
761.943	0.0130032
762.021	0.0131175
762.099	0.0129972
762.177	0.0129750
762.255	0.0130050
762.333	0.0129288
762.411	0.0130742
762.489	0.0130135
762.568	0.0129756
762.646	0.0130294
762.724	0.0131001
762.802	0.0129998
762.880	0.0130676
762.958	0.0131354
763.036	0.0129357
763.114	0.0129749
763.193	0.0131365
763.271	0.0131523
763.349	0.0130304
763.427	0.0131536
763.505	0.0128696
763.583	0.0129015
763.661	0.0130520
763.739	0.0129839
763.818	0.0130340
763.896	0.0128922
763.974	0.0130320
764.052	0.0130069
764.130	0.0128420
764.208	0.0127263
764.286	0.0129211
764.364	0.0128689
764.443	0.0129154
764.521	0.0128750
764.599	0.0126424
764.677	0.0128426
764.755	0.0128802
764.833	0.0129346
764.911	0.0129173
764.989	0.0130538
765.068	0.0128641
765.146	0.0127055
765.224	0.0129266
765.302	0.0129603
765.380	0.0128561
765.458	0.0130104
765.536	0.0128509
765.614	0.0127877
765.693	0.0128295
765.771	0.0128838
765.849	0.0126323
765.927	0.0127624
766.005	0.0127764
766.083	0.0127553
766.161	0.0127873
766.239	0.0126128
766.318	0.0125211
766.396	0.0126025
766.474	0.0125078
766.552	0.0127149
766.630	0.0125745
766.708	0.0125310
766.786	0.0125100
766.864	0.0126160
766.943	0.0127972
767.021	0.0128564
767.099	0.0127387
767.177	0.0128247
767.255	0.0128682
767.333	0.0129504
767.411	0.0130428
767.489	0.0131457
767.568	0.0132186
767.646	0.0132362
767.724	0.0133170
767.802	0.0133892
767.880	0.0131967
767.958	0.0132627
768.036	0.0132712
768.114	0.0133344
768.193	0.0132907
768.271	0.0131953
768.349	0.0130943
768.427	0.0132037
768.505	0.0132113
768.583	0.0132017
768.661	0.0130963
768.739	0.0127998
768.818	0.0128106
768.896	0.0127889
768.974	0.0128742
769.052	0.0126898
769.130	0.0126125
769.208	0.0124527
769.286	0.0124843
769.364	0.0125164
769.443	0.0126405
769.521	0.0124224
769.599	0.0124893
769.677	0.0127240
769.755	0.0125861
769.833	0.0126112
769.911	0.0125280
769.989	0.0125789
770.068	0.0126501
770.146	0.0126655
770.224	0.0125951
770.302	0.0127442
770.380	0.0127166
770.458	0.0128320
770.536	0.0129305
770.614	0.0128815
770.693	0.0130531
770.771	0.0129662
770.849	0.0130098
770.927	0.0129022
771.005	0.0130571
771.083	0.0130463
771.161	0.0129504
771.239	0.0129743
771.318	0.0130083
771.396	0.0130706
771.474	0.0129414
771.552	0.0129413
771.630	0.0129314
771.708	0.0127504
771.786	0.0129301
771.864	0.0128803
771.943	0.0128533
772.021	0.0128563
772.099	0.0129514
772.177	0.0128307
772.255	0.0127859
772.333	0.0130059
772.411	0.0129867
772.489	0.0129401
772.568	0.0128865
772.646	0.0129235
772.724	0.0129414
772.802	0.0130161
772.880	0.0129874
772.958	0.0130074
773.036	0.0131940
773.114	0.0131194
773.193	0.0131261
773.271	0.0131480
773.349	0.0131674
773.427	0.0132678
773.505	0.0133681
773.583	0.0132935
773.661	0.0131722
773.739	0.0131888
773.818	0.0129867
773.896	0.0131852
773.974	0.0131891
774.052	0.0131429
774.130	0.0131008
774.208	0.0131032
774.286	0.0130059
774.364	0.0129881
774.443	0.0127888
774.521	0.0128350
774.599	0.0128645
774.677	0.0126514
774.755	0.0127541
774.833	0.0126241
774.911	0.0125996
774.989	0.0126067
775.068	0.0126852
775.146	0.0126943
775.224	0.0127963
775.302	0.0127143
775.380	0.0125864
775.458	0.0128003
775.536	0.0128526
775.614	0.0127773
775.693	0.0127770
775.771	0.0128496
775.849	0.0128965
775.927	0.0128748
776.005	0.0129130
776.083	0.0129400
776.161	0.0129470
776.239	0.0129456
776.318	0.0129226
776.396	0.0129771
776.474	0.0130747
776.552	0.0130488
776.630	0.0130196
776.708	0.0130887
776.786	0.0131411
776.864	0.0131518
776.943	0.0131156
777.021	0.0130802
777.099	0.0129844
777.177	0.0130586
777.255	0.0130093
777.333	0.0129199
777.411	0.0129248
777.489	0.0128958
777.568	0.0127742
777.646	0.0130276
777.724	0.0129311
777.802	0.0127969
777.880	0.0126443
777.958	0.0128639
778.036	0.0127901
778.114	0.0127418
778.193	0.0126070
778.271	0.0127500
778.349	0.0127740
778.427	0.0127184
778.505	0.0128196
778.583	0.0126809
778.661	0.0128185
778.739	0.0128033
778.818	0.0128785
778.896	0.0129059
778.974	0.0129704
779.052	0.0128986
779.130	0.0129811
779.208	0.0129419
779.286	0.0131213
779.364	0.0130650
779.443	0.0129473
779.521	0.0129345
779.599	0.0129882
779.677	0.0129552
779.755	0.0129648
779.833	0.0129804
779.911	0.0129062
779.989	0.0129931
780.068	0.0129606
780.146	0.0127996
780.224	0.0128191
780.302	0.0128564
780.380	0.0129456
780.458	0.0128477
780.536	0.0128193
780.614	0.0127606
780.693	0.0127556
780.771	0.0128249
780.849	0.0128561
780.927	0.0127398
781.005	0.0129416
781.083	0.0129076
781.161	0.0129417
781.239	0.0128305
781.318	0.0129784
781.396	0.0127864
781.474	0.0128628
781.552	0.0130912
781.630	0.0128592
781.708	0.0128419
781.786	0.0129433
781.864	0.0128185
781.943	0.0129085
782.021	0.0130415
782.099	0.0129937
782.177	0.0129520
782.255	0.0128695
782.333	0.0129598
782.411	0.0128751
782.489	0.0129401
782.568	0.0130620
782.646	0.0130975
782.724	0.0130328
782.802	0.0129849
782.880	0.0129488
782.958	0.0129288
783.036	0.0130110
783.114	0.0130196
783.193	0.0130422
783.271	0.0129877
783.349	0.0130537
783.427	0.0129769
783.505	0.0129681
783.583	0.0129446
783.661	0.0128496
783.739	0.0129174
783.818	0.0128207
783.896	0.0127741
783.974	0.0128794
784.052	0.0128246
784.130	0.0128530
784.208	0.0129257
784.286	0.0127940
784.364	0.0128407
784.443	0.0129593
784.521	0.0128758
784.599	0.0129397
784.677	0.0128514
784.755	0.0128912
784.833	0.0128750
784.911	0.0128630
784.989	0.0128268
785.068	0.0127771
785.146	0.0129233
785.224	0.0128375
785.302	0.0128806
785.380	0.0129159
785.458	0.0128859
785.536	0.0128825
785.614	0.0128931
785.693	0.0128828
785.771	0.0129135
785.849	0.0130804
785.927	0.0130083
786.005	0.0129072
786.083	0.0127995
786.161	0.0128757
786.239	0.0129719
786.318	0.0128359
786.396	0.0130077
786.474	0.0129730
786.552	0.0128761
786.630	0.0128049
786.708	0.0129356
786.786	0.0128336
786.864	0.0129784
786.943	0.0127656
787.021	0.0128722
787.099	0.0129148
787.177	0.0127318
787.255	0.0127527
787.333	0.0129297
787.411	0.0127874
787.489	0.0127097
787.568	0.0129110
787.646	0.0128550
787.724	0.0128149
787.802	0.0127275
787.880	0.0126891
787.958	0.0127441
788.036	0.0127788
788.114	0.0128469
788.193	0.0128217
788.271	0.0126785
788.349	0.0127428
788.427	0.0127127
788.505	0.0127338
788.583	0.0128706
788.661	0.0128790
788.739	0.0128373
788.818	0.0127052
788.896	0.0128404
788.974	0.0129590
789.052	0.0128113
789.130	0.0128624
789.208	0.0128549
789.286	0.0127902
789.364	0.0127504
789.443	0.0128400
789.521	0.0130487
789.599	0.0129413
789.677	0.0128791
789.755	0.0130697
789.833	0.0129841
789.911	0.0129662
789.989	0.0129469
790.068	0.0130827
790.146	0.0129762
790.224	0.0129716
790.302	0.0130760
790.380	0.0130487
790.458	0.0129273
790.536	0.0129198
790.614	0.0128378
790.693	0.0128585
790.771	0.0128802
790.849	0.0129165
790.927	0.0128405
791.005	0.0128607
791.083	0.0128191
791.161	0.0128129
791.239	0.0128829
791.318	0.0127967
791.396	0.0128090
791.474	0.0127767
791.552	0.0126691
791.630	0.0129507
791.708	0.0128537
791.786	0.0127881
791.864	0.0127285
791.943	0.0128051
792.021	0.0127318
792.099	0.0127163
792.177	0.0126605
792.255	0.0127857
792.333	0.0127031
792.411	0.0128585
792.489	0.0127628
792.568	0.0126446
792.646	0.0128184
792.724	0.0128671
792.802	0.0127315
792.880	0.0128056
792.958	0.0127827
793.036	0.0126642
793.114	0.0128669
793.193	0.0128024
793.271	0.0129171
793.349	0.0129281
793.427	0.0129311
793.505	0.0128927
793.583	0.0130409
793.661	0.0130738
793.739	0.0129000
793.818	0.0131502
793.896	0.0131110
793.974	0.0129874
794.052	0.0132116
794.130	0.0131248
794.208	0.0131734
794.286	0.0132070
794.364	0.0132802
794.443	0.0131642
794.521	0.0130679
794.599	0.0130425
794.677	0.0130524
794.755	0.0130799
794.833	0.0129978
794.911	0.0129134
794.989	0.0129288
795.068	0.0129265
795.146	0.0128754
795.224	0.0130756
795.302	0.0129505
795.380	0.0129114
795.458	0.0129257
795.536	0.0128960
795.614	0.0130521
795.693	0.0130859
795.771	0.0130753
795.849	0.0129558
795.927	0.0129586
796.005	0.0131374
796.083	0.0131842
796.161	0.0130309
796.239	0.0129824
796.318	0.0129162
796.396	0.0128174
796.474	0.0129827
796.552	0.0129112
796.630	0.0127396
796.708	0.0129449
796.786	0.0126573
796.864	0.0125542
796.943	0.0126194
797.021	0.0126588
797.099	0.0125870
797.177	0.0125526
797.255	0.0125434
797.333	0.0124573
797.411	0.0125668
797.489	0.0126522
797.568	0.0126635
797.646	0.0126007
797.724	0.0127679
797.802	0.0127380
797.880	0.0127288
797.958	0.0128231
798.036	0.0128138
798.114	0.0129601
798.193	0.0128986
798.271	0.0129730
798.349	0.0129699
798.427	0.0128458
798.505	0.0129275
798.583	0.0129369
798.661	0.0128969
798.739	0.0128508
798.818	0.0127016
798.896	0.0126991
798.974	0.0128348
799.052	0.0127739
799.130	0.0125876
799.208	0.0126630
799.286	0.0126196
799.364	0.0127487
799.443	0.0126900
799.521	0.0127093
799.599	0.0129103
799.677	0.0127174
799.755	0.0127619
799.833	0.0127620
799.911	0.0128907
799.989	0.0128931
800.068	0.0129273
800.146	0.0129861
800.224	0.0128632
800.302	0.0129060
800.380	0.0130932
800.458	0.0131422
800.536	0.0130410
800.614	0.0129485
800.693	0.0130890
800.771	0.0130389
800.849	0.0130215
800.927	0.0129279
801.005	0.0129376
801.083	0.0129970
801.161	0.0129333
801.239	0.0129305
801.318	0.0127087
801.396	0.0128101
801.474	0.0129396
801.552	0.0129297
801.630	0.0129227
801.708	0.0128236
801.786	0.0128655
801.864	0.0128645
801.943	0.0129774
802.021	0.0128626
802.099	0.0130650
802.177	0.0130468
802.255	0.0130747
802.333	0.0129292
802.411	0.0130172
802.489	0.0130743
802.568	0.0131858
802.646	0.0131460
802.724	0.0129831
802.802	0.0130345
802.880	0.0131376
802.958	0.0130953
803.036	0.0130161
803.114	0.0129639
803.193	0.0129568
803.271	0.0129866
803.349	0.0129035
803.427	0.0128395
803.505	0.0128951
803.583	0.0127569
803.661	0.0128748
803.739	0.0128349
803.818	0.0128069
803.896	0.0128219
803.974	0.0128496
804.052	0.0127326
804.130	0.0129508
804.208	0.0128053
804.286	0.0128242
804.364	0.0128738
804.443	0.0129346
804.521	0.0127885
804.599	0.0128319
804.677	0.0128933
804.755	0.0128332
804.833	0.0127377
804.911	0.0126893
804.989	0.0125952
805.068	0.0127018
805.146	0.0127488
805.224	0.0125343
805.302	0.0126785
805.380	0.0125674
805.458	0.0126150
805.536	0.0125774
805.614	0.0126526
805.693	0.0125442
805.771	0.0124895
805.849	0.0126595
805.927	0.0127924
806.005	0.0126868
806.083	0.0128448
806.161	0.0128678
806.239	0.0127930
806.318	0.0129498
806.396	0.0129063
806.474	0.0129863
806.552	0.0130276
806.630	0.0130470
806.708	0.0130418
806.786	0.0130529
806.864	0.0131034
806.943	0.0131247
807.021	0.0132410
807.099	0.0131010
807.177	0.0130962
807.255	0.0131001
807.333	0.0131602
807.411	0.0131944
807.489	0.0131824
807.568	0.0131863
807.646	0.0132551
807.724	0.0131664
807.802	0.0130965
807.880	0.0129955
807.958	0.0129276
808.036	0.0129993
808.114	0.0129405
808.193	0.0129487
808.271	0.0130317
808.349	0.0128738
808.427	0.0127518
808.505	0.0128356
808.583	0.0129283
808.661	0.0127254
808.739	0.0128543
808.818	0.0127276
808.896	0.0128320
808.974	0.0128502
809.052	0.0127207
809.130	0.0127438
809.208	0.0128253
809.286	0.0127874
809.364	0.0128383
809.443	0.0127502
809.521	0.0127011
809.599	0.0128357
809.677	0.0128713
809.755	0.0128850
809.833	0.0127554
809.911	0.0127130
809.989	0.0126630
810.068	0.0127605
810.146	0.0126971
810.224	0.0127142
810.302	0.0125333
810.380	0.0127078
810.458	0.0125864
810.536	0.0127379
810.614	0.0126076
810.693	0.0126550
810.771	0.0128555
810.849	0.0126273
810.927	0.0126688
811.005	0.0126911
811.083	0.0127856
811.161	0.0127328
811.239	0.0128299
811.318	0.0127518
811.396	0.0128867
811.474	0.0129179
811.552	0.0130439
811.630	0.0130354
811.708	0.0130106
811.786	0.0130852
811.864	0.0130439
811.943	0.0131369
812.021	0.0131868
812.099	0.0130749
812.177	0.0131393
812.255	0.0131476
812.333	0.0131284
812.411	0.0130573
812.489	0.0129765
812.568	0.0131100
812.646	0.0130705
812.724	0.0130477
812.802	0.0129643
812.880	0.0130628
812.958	0.0131128
813.036	0.0130056
813.114	0.0130587
813.193	0.0129943
813.271	0.0129608
813.349	0.0128720
813.427	0.0128439
813.505	0.0129058
813.583	0.0128285
813.661	0.0129462
813.739	0.0129282
813.818	0.0127596
813.896	0.0128298
813.974	0.0128052
814.052	0.0127078
814.130	0.0127590
814.208	0.0127431
814.286	0.0126903
814.364	0.0127435
814.443	0.0128392
814.521	0.0127167
814.599	0.0127167
814.677	0.0127068
814.755	0.0126368
814.833	0.0125941
814.911	0.0125723
814.989	0.0125855
815.068	0.0125613
815.146	0.0124804
815.224	0.0127259
815.302	0.0126104
815.380	0.0126662
815.458	0.0124774
815.536	0.0125940
815.614	0.0126107
815.693	0.0126755
815.771	0.0125853
815.849	0.0127108
815.927	0.0128137
816.005	0.0127684
816.083	0.0126733
816.161	0.0129982
816.239	0.0129361
816.318	0.0127666
816.396	0.0128260
816.474	0.0130534
816.552	0.0129409
816.630	0.0129686
816.708	0.0129903
816.786	0.0130536
816.864	0.0130687
816.943	0.0130830
817.021	0.0130956
817.099	0.0131812
817.177	0.0131010
817.255	0.0132153
817.333	0.0130546
817.411	0.0130643
817.489	0.0131084
817.568	0.0131426
817.646	0.0129631
817.724	0.0128795
817.802	0.0130605
817.880	0.0129292
817.958	0.0128638
818.036	0.0128357
818.114	0.0128268
818.193	0.0127338
818.271	0.0126656
818.349	0.0126598
818.427	0.0127320
818.505	0.0126996
818.583	0.0126116
818.661	0.0125433
818.739	0.0127267
818.818	0.0126917
818.896	0.0125528
818.974	0.0125632
819.052	0.0124939
819.130	0.0126376
819.208	0.0126419
819.286	0.0127290
819.364	0.0127557
819.443	0.0127979
819.521	0.0127751
819.599	0.0126469
819.677	0.0128529
819.755	0.0127800
819.833	0.0128809
819.911	0.0130090
819.989	0.0128695
820.068	0.0129053
820.146	0.0130185
820.224	0.0129292
820.302	0.0128665
820.380	0.0130099
820.458	0.0130200
820.536	0.0129612
820.614	0.0129778
820.693	0.0130629
820.771	0.0130286
820.849	0.0129016
820.927	0.0130319
821.005	0.0130403
821.083	0.0130145
821.161	0.0130221
821.239	0.0130174
821.318	0.0130179
821.396	0.0129677
821.474	0.0129015
821.552	0.0130437
821.630	0.0130215
821.708	0.0129097
821.786	0.0127766
821.864	0.0128741
821.943	0.0127588
822.021	0.0128253
822.099	0.0128487
822.177	0.0128558
822.255	0.0127307
822.333	0.0127985
822.411	0.0127101
822.489	0.0127716
822.568	0.0127416
822.646	0.0127764
822.724	0.0127715
822.802	0.0128950
822.880	0.0128772
822.958	0.0128096
823.036	0.0128622
823.114	0.0128176
823.193	0.0127166
823.271	0.0127405
823.349	0.0127096
823.427	0.0128003
823.505	0.0127543
823.583	0.0127445
823.661	0.0127605
823.739	0.0127505
823.818	0.0127248
823.896	0.0126377
823.974	0.0127143
824.052	0.0126949
824.130	0.0125362
824.208	0.0127783
824.286	0.0126269
824.364	0.0126613
824.443	0.0126712
824.521	0.0126057
824.599	0.0126899
824.677	0.0128106
824.755	0.0126940
824.833	0.0127673
824.911	0.0128141
824.989	0.0128056
825.068	0.0128777
825.146	0.0128551
825.224	0.0127821
825.302	0.0129434
825.380	0.0128266
825.458	0.0129590
825.536	0.0130183
825.614	0.0129793
825.693	0.0129993
825.771	0.0129137
825.849	0.0129729
825.927	0.0130291
826.005	0.0130051
826.083	0.0129738
826.161	0.0131414
826.239	0.0128715
826.318	0.0129787
826.396	0.0130048
826.474	0.0129568
826.552	0.0130762
826.630	0.0130718
826.708	0.0131433
826.786	0.0131478
826.864	0.0130531
826.943	0.0131122
827.021	0.0132580
827.099	0.0132840
827.177	0.0131474
827.255	0.0131084
827.333	0.0130732
827.411	0.0129375
827.489	0.0129114
827.568	0.0129186
827.646	0.0132085
827.724	0.0131763
827.802	0.0129790
827.880	0.0128420
827.958	0.0128071
828.036	0.0127931
828.114	0.0126100
828.193	0.0127612
828.271	0.0126176
828.349	0.0126608
828.427	0.0125820
828.505	0.0124990
828.583	0.0124354
828.661	0.0124280
828.739	0.0123373
828.818	0.0122874
828.896	0.0123846
828.974	0.0123701
829.052	0.0122304
829.130	0.0123065
829.208	0.0123622
829.286	0.0123841
829.364	0.0123400
829.443	0.0123229
829.521	0.0121983
829.599	0.0123435
829.677	0.0124349
829.755	0.0124677
829.833	0.0124133
829.911	0.0124378
829.989	0.0125215
830.068	0.0125722
830.146	0.0125669
830.224	0.0127685
830.302	0.0128300
830.380	0.0128912
830.458	0.0130186
830.536	0.0130510
830.614	0.0131738
830.693	0.0130120
830.771	0.0131370
830.849	0.0132637
830.927	0.0133022
831.005	0.0134589
831.083	0.0134376
831.161	0.0134856
831.239	0.0134098
831.318	0.0134078
831.396	0.0135688
831.474	0.0134732
831.552	0.0135490
831.630	0.0135241
831.708	0.0134917
831.786	0.0133569
831.864	0.0134251
831.943	0.0133317
832.021	0.0134583
832.099	0.0132574
832.177	0.0132497
832.255	0.0132640
832.333	0.0129972
832.411	0.0130614
832.489	0.0131141
832.568	0.0130581
832.646	0.0128521
832.724	0.0129647
832.802	0.0129748
832.880	0.0128892
832.958	0.0127733
833.036	0.0127423
833.114	0.0127878
833.193	0.0127350
833.271	0.0126595
833.349	0.0126675
833.427	0.0125021
833.505	0.0127106
833.583	0.0126579
833.661	0.0126386
833.739	0.0125778
833.818	0.0125674
833.896	0.0126226
833.974	0.0125470
834.052	0.0125265
834.130	0.0125369
834.208	0.0126092
834.286	0.0126166
834.364	0.0126331
834.443	0.0126750
834.521	0.0126724
834.599	0.0127129
834.677	0.0127523
834.755	0.0128149
834.833	0.0127054
834.911	0.0127342
834.989	0.0128890
835.068	0.0128782
835.146	0.0129902
835.224	0.0129935
835.302	0.0128926
835.380	0.0130550
835.458	0.0130518
835.536	0.0131721
835.614	0.0131330
835.693	0.0131491
835.771	0.0132562
835.849	0.0131300
835.927	0.0131868
836.005	0.0131013
836.083	0.0132763
836.161	0.0133823
836.239	0.0135121
836.318	0.0132659
836.396	0.0132975
836.474	0.0133270
836.552	0.0132312
836.630	0.0133316
836.708	0.0132207
836.786	0.0132597
836.864	0.0131100
836.943	0.0130951
837.021	0.0131551
837.099	0.0129962
837.177	0.0129762
837.255	0.0129259
837.333	0.0128658
837.411	0.0129182
837.489	0.0128732
837.568	0.0127187
837.646	0.0127077
837.724	0.0126607
837.802	0.0126727
837.880	0.0127155
837.958	0.0126188
838.036	0.0127159
838.114	0.0126626
838.193	0.0125401
838.271	0.0126257
838.349	0.0126577
838.427	0.0125974
838.505	0.0126867
838.583	0.0126556
838.661	0.0125977
838.739	0.0126892
838.818	0.0125425
838.896	0.0127333
838.974	0.0126501
839.052	0.0125761
839.130	0.0127352
839.208	0.0126877
839.286	0.0126276
839.364	0.0127148
839.443	0.0127857
839.521	0.0127615
839.599	0.0126256
839.677	0.0129427
839.755	0.0127712
839.833	0.0128761
839.911	0.0127999
839.989	0.0129488
840.068	0.0129116
840.146	0.0128847
840.224	0.0129060
840.302	0.0128181
840.380	0.0130632
840.458	0.0130677
840.536	0.0130324
840.614	0.0131007
840.693	0.0130647
840.771	0.0130164
840.849	0.0131314
840.927	0.0132169
841.005	0.0132518
841.083	0.0133192
841.161	0.0131694
841.239	0.0132583
841.318	0.0133656
841.396	0.0132507
841.474	0.0132956
841.552	0.0132757
841.630	0.0133158
841.708	0.0132837
841.786	0.0132972
841.864	0.0133492
841.943	0.0132608
842.021	0.0132851
842.099	0.0131870
842.177	0.0131019
842.255	0.0132553
842.333	0.0131837
842.411	0.0130051
842.489	0.0130154
842.568	0.0129691
842.646	0.0129742
842.724	0.0128072
842.802	0.0128838
842.880	0.0128458
842.958	0.0127171
843.036	0.0126828
843.114	0.0125692
843.193	0.0127476
843.271	0.0128653
843.349	0.0127493
843.427	0.0126823
843.505	0.0126179
843.583	0.0126800
843.661	0.0126266
843.739	0.0126424
843.818	0.0127442
843.896	0.0127731
843.974	0.0127542
844.052	0.0127060
844.130	0.0128654
844.208	0.0128249
844.286	0.0127187
844.364	0.0127605
844.443	0.0128621
844.521	0.0127116
844.599	0.0129130
844.677	0.0129054
844.755	0.0128536
844.833	0.0128370
844.911	0.0130011
844.989	0.0129546
845.068	0.0128923
845.146	0.0128999
845.224	0.0128629
845.302	0.0130037
845.380	0.0130920
845.458	0.0130596
845.536	0.0130219
845.614	0.0130290
845.693	0.0129817
845.771	0.0128820
845.849	0.0129626
845.927	0.0130138
846.005	0.0128598
846.083	0.0128751
846.161	0.0128577
846.239	0.0127882
846.318	0.0127219
846.396	0.0127954
846.474	0.0128217
846.552	0.0127990
846.630	0.0128231
846.708	0.0128867
846.786	0.0129169
846.864	0.0128848
846.943	0.0129390
847.021	0.0129199
847.099	0.0128792
847.177	0.0129604
847.255	0.0129264
847.333	0.0129803
847.411	0.0129044
847.489	0.0129810
847.568	0.0128451
847.646	0.0130341
847.724	0.0129091
847.802	0.0130087
847.880	0.0129211
847.958	0.0129309
848.036	0.0128742
848.114	0.0128506
848.193	0.0129136
848.271	0.0129108
848.349	0.0128693
848.427	0.0128854
848.505	0.0129689
848.583	0.0128978
848.661	0.0129018
848.739	0.0129673
848.818	0.0130548
848.896	0.0130265
848.974	0.0129494
849.052	0.0129725
849.130	0.0130641
849.208	0.0130098
849.286	0.0129475
849.364	0.0130252
849.443	0.0129131
849.521	0.0128867
849.599	0.0130302
849.677	0.0130611
849.755	0.0127770
849.833	0.0129585
849.911	0.0129559
849.989	0.0129615
850.068	0.0128442
850.146	0.0127561
850.224	0.0129205
850.302	0.0129071
850.380	0.0129408
850.458	0.0129124
850.536	0.0127860
850.614	0.0127923
850.693	0.0127378
850.771	0.0127139
850.849	0.0127400
850.927	0.0127976
851.005	0.0128696
851.083	0.0127258
851.161	0.0125938
851.239	0.0127377
851.318	0.0126814
851.396	0.0127535
851.474	0.0127831
851.552	0.0127565
851.630	0.0126257
851.708	0.0127564
851.786	0.0127793
851.864	0.0128977
851.943	0.0128618
852.021	0.0128813
852.099	0.0128194
852.177	0.0129309
852.255	0.0128300
852.333	0.0127961
852.411	0.0128776
852.489	0.0128173
852.568	0.0129137
852.646	0.0128505
852.724	0.0129305
852.802	0.0128664
852.880	0.0128976
852.958	0.0129021
853.036	0.0131300
853.114	0.0130325
853.193	0.0130605
853.271	0.0129604
853.349	0.0130322
853.427	0.0130608
853.505	0.0130196
853.583	0.0131180
853.661	0.0131580
853.739	0.0130925
853.818	0.0131477
853.896	0.0132470
853.974	0.0132902
854.052	0.0132037
854.130	0.0131480
854.208	0.0132649
854.286	0.0131171
854.364	0.0131377
854.443	0.0131221
854.521	0.0130599
854.599	0.0132011
854.677	0.0130301
854.755	0.0128902
854.833	0.0130601
854.911	0.0129401
854.989	0.0130247
855.068	0.0128049
855.146	0.0128596
855.224	0.0129386
855.302	0.0126350
855.380	0.0127045
855.458	0.0127157
855.536	0.0127127
855.614	0.0127547
855.693	0.0126566
855.771	0.0126591
855.849	0.0126059
855.927	0.0127661
856.005	0.0128095
856.083	0.0127034
856.161	0.0128170
856.239	0.0127354
856.318	0.0127570
856.396	0.0127700
856.474	0.0127471
856.552	0.0128358
856.630	0.0127637
856.708	0.0129214
856.786	0.0128266
856.864	0.0129134
856.943	0.0129861
857.021	0.0129967
857.099	0.0128506
857.177	0.0129019
857.255	0.0129647
857.333	0.0129536
857.411	0.0131235
857.489	0.0129105
857.568	0.0130531
857.646	0.0131309
857.724	0.0130654
857.802	0.0130297
857.880	0.0131138
857.958	0.0131101
858.036	0.0130881
858.114	0.0129208
858.193	0.0131495
858.271	0.0131008
858.349	0.0130582
858.427	0.0130428
858.505	0.0129960
858.583	0.0129944
858.661	0.0131368
858.739	0.0130436
858.818	0.0130481
858.896	0.0130514
858.974	0.0129080
859.052	0.0128101
859.130	0.0129747
859.208	0.0130061
859.286	0.0128277
859.364	0.0128022
859.443	0.0127050
859.521	0.0127336
859.599	0.0127905
859.677	0.0126997
859.755	0.0125872
859.833	0.0126386
859.911	0.0126964
859.989	0.0127509
860.068	0.0126618
860.146	0.0126214
860.224	0.0126084
860.302	0.0126078
860.380	0.0127021
860.458	0.0128124
860.536	0.0125942
860.614	0.0127788
860.693	0.0128175
860.771	0.0127959
860.849	0.0128185
860.927	0.0128628
861.005	0.0129845
861.083	0.0129095
861.161	0.0130222
861.239	0.0132143
861.318	0.0131721
861.396	0.0131059
861.474	0.0131611
861.552	0.0131762
861.630	0.0131914
861.708	0.0131409
861.786	0.0132114
861.864	0.0133060
861.943	0.0132125
862.021	0.0130566
862.099	0.0132289
862.177	0.0132682
862.255	0.0130736
862.333	0.0131080
862.411	0.0131445
862.489	0.0130110
862.568	0.0130647
862.646	0.0129795
862.724	0.0129640
862.802	0.0129964
862.880	0.0129741
862.958	0.0128759
863.036	0.0127625
863.114	0.0128255
863.193	0.0126645
863.271	0.0128490
863.349	0.0128136
863.427	0.0127659
863.505	0.0127354
863.583	0.0126759
863.661	0.0128179
863.739	0.0127324
863.818	0.0127438
863.896	0.0128240
863.974	0.0128518
864.052	0.0127695
864.130	0.0128384
864.208	0.0127293
864.286	0.0127245
864.364	0.0128516
864.443	0.0128967
864.521	0.0129334
864.599	0.0127728
864.677	0.0127843
864.755	0.0127941
864.833	0.0128236
864.911	0.0128043
864.989	0.0128139
865.068	0.0126998
865.146	0.0128876
865.224	0.0127844
865.302	0.0128881
865.380	0.0128219
865.458	0.0127357
865.536	0.0129413
865.614	0.0129864
865.693	0.0129192
865.771	0.0129958
865.849	0.0129752
865.927	0.0128693
866.005	0.0131420
866.083	0.0130404
866.161	0.0130059
866.239	0.0130815
866.318	0.0130090
866.396	0.0129675
866.474	0.0130397
866.552	0.0131433
866.630	0.0131142
866.708	0.0130918
866.786	0.0130245
866.864	0.0131004
866.943	0.0130653
867.021	0.0131010
867.099	0.0130655
867.177	0.0130573
867.255	0.0129665
867.333	0.0130173
867.411	0.0129955
867.489	0.0129028
867.568	0.0127747
867.646	0.0130172
867.724	0.0130376
867.802	0.0130011
867.880	0.0129283
867.958	0.0128928
868.036	0.0129985
868.114	0.0128156
868.193	0.0129337
868.271	0.0128855
868.349	0.0128861
868.427	0.0128191
868.505	0.0128307
868.583	0.0128289
868.661	0.0127377
868.739	0.0129209
868.818	0.0128974
868.896	0.0128036
868.974	0.0128053
869.052	0.0127501
869.130	0.0129778
869.208	0.0127873
869.286	0.0126962
869.364	0.0126874
869.443	0.0128975
869.521	0.0129032
869.599	0.0128477
869.677	0.0127087
869.755	0.0127728
869.833	0.0128332
869.911	0.0128361
869.989	0.0127627
870.068	0.0126997
870.146	0.0128900
870.224	0.0129131
870.302	0.0127334
870.380	0.0126385
870.458	0.0127912
870.536	0.0127354
870.614	0.0128574
870.693	0.0128178
870.771	0.0127156
870.849	0.0128635
870.927	0.0128185
871.005	0.0129124
871.083	0.0129172
871.161	0.0128979
871.239	0.0128773
871.318	0.0129345
871.396	0.0127806
871.474	0.0128091
871.552	0.0130416
871.630	0.0130923
871.708	0.0129566
871.786	0.0129312
871.864	0.0128984
871.943	0.0128791
872.021	0.0129805
872.099	0.0130695
872.177	0.0128655
872.255	0.0130984
872.333	0.0130498
872.411	0.0130010
872.489	0.0129826
872.568	0.0130173
872.646	0.0130917
872.724	0.0129032
872.802	0.0129934
872.880	0.0129800
872.958	0.0129501
873.036	0.0130697
873.114	0.0131460
873.193	0.0129841
873.271	0.0129494
873.349	0.0130585
873.427	0.0131053
873.505	0.0130157
873.583	0.0129346
873.661	0.0130748
873.739	0.0129708
873.818	0.0130559
873.896	0.0129042
873.974	0.0129987
874.052	0.0129176
874.130	0.0129736
874.208	0.0128841
874.286	0.0129128
874.364	0.0127987
874.443	0.0128815
874.521	0.0128076
874.599	0.0127167
874.677	0.0126632
874.755	0.0126139
874.833	0.0128062
874.911	0.0127149
874.989	0.0127598
875.068	0.0126403
875.146	0.0127257
875.224	0.0126430
875.302	0.0125356
875.380	0.0126196
875.458	0.0126894
875.536	0.0126602
875.614	0.0125835
875.693	0.0125485
875.771	0.0126283
875.849	0.0125232
875.927	0.0126556
876.005	0.0125407
876.083	0.0125538
876.161	0.0125336
876.239	0.0126613
876.318	0.0127067
876.396	0.0127406
876.474	0.0127431
876.552	0.0126389
876.630	0.0128484
876.708	0.0129634
876.786	0.0127113
876.864	0.0128278
876.943	0.0129261
877.021	0.0128037
877.099	0.0128882
877.177	0.0129153
877.255	0.0128877
877.333	0.0128833
877.411	0.0128389
877.489	0.0129247
877.568	0.0128557
877.646	0.0128567
877.724	0.0128663
877.802	0.0129944
877.880	0.0129746
877.958	0.0129010
878.036	0.0129736
878.114	0.0129354
878.193	0.0129713
878.271	0.0130458
878.349	0.0131496
878.427	0.0131300
878.505	0.0131328
878.583	0.0131784
878.661	0.0131387
878.739	0.0132111
878.818	0.0132870
878.896	0.0132658
878.974	0.0132610
879.052	0.0131462
879.130	0.0131585
879.208	0.0131322
879.286	0.0129887
879.364	0.0130524
879.443	0.0131316
879.521	0.0128341
879.599	0.0128564
879.677	0.0128791
879.755	0.0129332
879.833	0.0128691
879.911	0.0127384
879.989	0.0128900
880.068	0.0128954
880.146	0.0128343
880.224	0.0129156
880.302	0.0127432
880.380	0.0129678
880.458	0.0129469
880.536	0.0129225
880.614	0.0128888
880.693	0.0127956
880.771	0.0127950
880.849	0.0128370
880.927	0.0127860
881.005	0.0127578
881.083	0.0128648
881.161	0.0126980
881.239	0.0127633
881.318	0.0127455
881.396	0.0127122
881.474	0.0127122
881.552	0.0127231
881.630	0.0126510
881.708	0.0126865
881.786	0.0127396
881.864	0.0127391
881.943	0.0126749
882.021	0.0126836
882.099	0.0127238
882.177	0.0127175
882.255	0.0128558
882.333	0.0129025
882.411	0.0128562
882.489	0.0126067
882.568	0.0128143
882.646	0.0129606
882.724	0.0128814
882.802	0.0128221
882.880	0.0128941
882.958	0.0129668
883.036	0.0129207
883.114	0.0130424
883.193	0.0128724
883.271	0.0130112
883.349	0.0129668
883.427	0.0129282
883.505	0.0129760
883.583	0.0128547
883.661	0.0129427
883.739	0.0129473
883.818	0.0128454
883.896	0.0128210
883.974	0.0129141
884.052	0.0130441
884.130	0.0128928
884.208	0.0129280
884.286	0.0129174
884.364	0.0128550
884.443	0.0130203
884.521	0.0130733
884.599	0.0129326
884.677	0.0129826
884.755	0.0130923
884.833	0.0129073
884.911	0.0129906
884.989	0.0132050
885.068	0.0130644
885.146	0.0129432
885.224	0.0131302
885.302	0.0130963
885.380	0.0129539
885.458	0.0129248
885.536	0.0130305
885.614	0.0130033
885.693	0.0129423
885.771	0.0128052
885.849	0.0129690
885.927	0.0129211
886.005	0.0128390
886.083	0.0127745
886.161	0.0128812
886.239	0.0127391
886.318	0.0128569
886.396	0.0129059
886.474	0.0128044
886.552	0.0127856
886.630	0.0127894
886.708	0.0127815
886.786	0.0127801
886.864	0.0127014
886.943	0.0128874
887.021	0.0128382
887.099	0.0127025
887.177	0.0127796
887.255	0.0127988
887.333	0.0127068
887.411	0.0128476
887.489	0.0128300
887.568	0.0127768
887.646	0.0126887
887.724	0.0126768
887.802	0.0127130
887.880	0.0127127
887.958	0.0127556
888.036	0.0126826
888.114	0.0127884
888.193	0.0128112
888.271	0.0128423
888.349	0.0127910
888.427	0.0127789
888.505	0.0128049
888.583	0.0127785
888.661	0.0129340
888.739	0.0127760
888.818	0.0127336
888.896	0.0128407
888.974	0.0129288
889.052	0.0128779
889.130	0.0127921
889.208	0.0129148
889.286	0.0129386
889.364	0.0128638
889.443	0.0128423
889.521	0.0128413
889.599	0.0128493
889.677	0.0128957
889.755	0.0129640
889.833	0.0128634
889.911	0.0128081
889.989	0.0129089
890.068	0.0129695
890.146	0.0129739
890.224	0.0128838
890.302	0.0129909
890.380	0.0129551
890.458	0.0128272
890.536	0.0130228
890.614	0.0128517
890.693	0.0129250
890.771	0.0128602
890.849	0.0128861
890.927	0.0128900
891.005	0.0128124
891.083	0.0127604
891.161	0.0130087
891.239	0.0129523
891.318	0.0130131
891.396	0.0127991
891.474	0.0128734
891.552	0.0127874
891.630	0.0128146
891.708	0.0126779
891.786	0.0126765
891.864	0.0127784
891.943	0.0127866
892.021	0.0126963
892.099	0.0126324
892.177	0.0127607
892.255	0.0128355
892.333	0.0129181
892.411	0.0127792
892.489	0.0127461
892.568	0.0128306
892.646	0.0127795
892.724	0.0126308
892.802	0.0128354
892.880	0.0126497
892.958	0.0128473
893.036	0.0128624
893.114	0.0127615
893.193	0.0128279
893.271	0.0129537
893.349	0.0128715
893.427	0.0128368
893.505	0.0129265
893.583	0.0129671
893.661	0.0128151
893.739	0.0128610
893.818	0.0128380
893.896	0.0128279
893.974	0.0127982
894.052	0.0129514
894.130	0.0128029
894.208	0.0128217
894.286	0.0126866
894.364	0.0125830
894.443	0.0126849
894.521	0.0128310
894.599	0.0127662
894.677	0.0126153
894.755	0.0126263
894.833	0.0126625
894.911	0.0128301
894.989	0.0128079
895.068	0.0127087
895.146	0.0126033
895.224	0.0126872
895.302	0.0125893
895.380	0.0126591
895.458	0.0127776
895.536	0.0127844
895.614	0.0126711
895.693	0.0128056
895.771	0.0129105
895.849	0.0131133
895.927	0.0130561
896.005	0.0130363
896.083	0.0129786
896.161	0.0130885
896.239	0.0131552
896.318	0.0130544
896.396	0.0130924
896.474	0.0131221
896.552	0.0130726
896.630	0.0129975
896.708	0.0130700
896.786	0.0130593
896.864	0.0130416
896.943	0.0130006
897.021	0.0130283
897.099	0.0130354
897.177	0.0129706
897.255	0.0129240
897.333	0.0129343
897.411	0.0131037
897.489	0.0130109
897.568	0.0129620
897.646	0.0130270
897.724	0.0129642
897.802	0.0128513
897.880	0.0130915
897.958	0.0131079
898.036	0.0130022
898.114	0.0130182
898.193	0.0127928
898.271	0.0129053
898.349	0.0129453
898.427	0.0129124
898.505	0.0129140
898.583	0.0127753
898.661	0.0124907
898.739	0.0127492
898.818	0.0126865
898.896	0.0126060
898.974	0.0127089
899.052	0.0125857
899.130	0.0124454
899.208	0.0124791
899.286	0.0124755
899.364	0.0125024
899.443	0.0126307
899.521	0.0125884
899.599	0.0125146
899.677	0.0124635
899.755	0.0126344
899.833	0.0126978
899.911	0.0125163
899.989	0.0126969
900.068	0.0126017
900.146	0.0127163
900.224	0.0125634
900.302	0.0128869
900.380	0.0127380
900.458	0.0127856
900.536	0.0128236
900.614	0.0128782
900.693	0.0128142
900.771	0.0128133
900.849	0.0128008
900.927	0.0128334
901.005	0.0128406
901.083	0.0129295
901.161	0.0128129
901.239	0.0128565
901.318	0.0128809
901.396	0.0128685
901.474	0.0129372
901.552	0.0128084
901.630	0.0128812
901.708	0.0129070
901.786	0.0129756
901.864	0.0128891
901.943	0.0129614
902.021	0.0129238
902.099	0.0127854
902.177	0.0128156
902.255	0.0128679
902.333	0.0127390
902.411	0.0128100
902.489	0.0128701
902.568	0.0127652
902.646	0.0128715
902.724	0.0127145
902.802	0.0128746
902.880	0.0127536
902.958	0.0127937
903.036	0.0127124
903.114	0.0127421
903.193	0.0128947
903.271	0.0127533
903.349	0.0128006
903.427	0.0127019
903.505	0.0128355
903.583	0.0127293
903.661	0.0127785
903.739	0.0128439
903.818	0.0128915
903.896	0.0128878
903.974	0.0130244
904.052	0.0128320
904.130	0.0128148
904.208	0.0129247
904.286	0.0129626
904.364	0.0128883
904.443	0.0129192
904.521	0.0129548
904.599	0.0129935
904.677	0.0129574
904.755	0.0130130
904.833	0.0129694
904.911	0.0130365
904.989	0.0128517
905.068	0.0128957
905.146	0.0128530
905.224	0.0129511
905.302	0.0128884
905.380	0.0130013
905.458	0.0129890
905.536	0.0128717
905.614	0.0128960
905.693	0.0127526
905.771	0.0128909
905.849	0.0129385
905.927	0.0129118
906.005	0.0128533
906.083	0.0130390
906.161	0.0129758
906.239	0.0129299
906.318	0.0129588
906.396	0.0132265
906.474	0.0131411
906.552	0.0130106
906.630	0.0129723
906.708	0.0130608
906.786	0.0131053
906.864	0.0131579
906.943	0.0129527
907.021	0.0129279
907.099	0.0129066
907.177	0.0130272
907.255	0.0129741
907.333	0.0129516
907.411	0.0128489
907.489	0.0127934
907.568	0.0128706
907.646	0.0128710
907.724	0.0127026
907.802	0.0127895
907.880	0.0127664
907.958	0.0127861
908.036	0.0127522
908.114	0.0127655
908.193	0.0127657
908.271	0.0127062
908.349	0.0128013
908.427	0.0128055
908.505	0.0128600
908.583	0.0129267
908.661	0.0127724
908.739	0.0128384
908.818	0.0127917
908.896	0.0128786
908.974	0.0129372
909.052	0.0128851
909.130	0.0127551
909.208	0.0130777
909.286	0.0130709
909.364	0.0128835
909.443	0.0130421
909.521	0.0130820
909.599	0.0131596
909.677	0.0130041
909.755	0.0131318
909.833	0.0131049
909.911	0.0130016
909.989	0.0131293
910.068	0.0130740
910.146	0.0130721
910.224	0.0129117
910.302	0.0128072
910.380	0.0128554
910.458	0.0129353
910.536	0.0129365
910.614	0.0129611
910.693	0.0128915
910.771	0.0128350
910.849	0.0128029
910.927	0.0127439
911.005	0.0127357
911.083	0.0129018
911.161	0.0128708
911.239	0.0128652
911.318	0.0128535
911.396	0.0128829
911.474	0.0127898
911.552	0.0128333
911.630	0.0128205
911.708	0.0129179
911.786	0.0128157
911.864	0.0130190
911.943	0.0129385
912.021	0.0130105
912.099	0.0128860
912.177	0.0129418
912.255	0.0129964
912.333	0.0129147
912.411	0.0129769
912.489	0.0129296
912.568	0.0128088
912.646	0.0128494
912.724	0.0129675
912.802	0.0127913
912.880	0.0128004
912.958	0.0128848
913.036	0.0129296
913.114	0.0128106
913.193	0.0128864
913.271	0.0127794
913.349	0.0127982
913.427	0.0127262
913.505	0.0126318
913.583	0.0128220
913.661	0.0128014
913.739	0.0127475
913.818	0.0126881
913.896	0.0127467
913.974	0.0127488
914.052	0.0128277
914.130	0.0127780
914.208	0.0126258
914.286	0.0127353
914.364	0.0128027
914.443	0.0128220
914.521	0.0127561
914.599	0.0130276
914.677	0.0129206
914.755	0.0128800
914.833	0.0128276
914.911	0.0129068
914.989	0.0128278
915.068	0.0128640
915.146	0.0128292
915.224	0.0129143
915.302	0.0129871
915.380	0.0128749
915.458	0.0129322
915.536	0.0129417
915.614	0.0129293
915.693	0.0128455
915.771	0.0127957
915.849	0.0129018
915.927	0.0128567
916.005	0.0126295
916.083	0.0129025
916.161	0.0127785
916.239	0.0127768
916.318	0.0127934
916.396	0.0128091
916.474	0.0126560
916.552	0.0127934
916.630	0.0127824
916.708	0.0128645
916.786	0.0127792
916.864	0.0129840
916.943	0.0128442
917.021	0.0128135
917.099	0.0128571
917.177	0.0128832
917.255	0.0129330
917.333	0.0128738
917.411	0.0128226
917.489	0.0128499
917.568	0.0129584
917.646	0.0128063
917.724	0.0128854
917.802	0.0129705
917.880	0.0127635
917.958	0.0128230
918.036	0.0128189
918.114	0.0129044
918.193	0.0128118
918.271	0.0127151
918.349	0.0128329
918.427	0.0127937
918.505	0.0128991
918.583	0.0127500
918.661	0.0128428
918.739	0.0128870
918.818	0.0128651
918.896	0.0127715
918.974	0.0127418
919.052	0.0127666
919.130	0.0128339
919.208	0.0127682
919.286	0.0127634
919.364	0.0126952
919.443	0.0129582
919.521	0.0126926
919.599	0.0128486
919.677	0.0128181
919.755	0.0128498
919.833	0.0128246
919.911	0.0127720
919.989	0.0128244
920.068	0.0129604
920.146	0.0128030
920.224	0.0129363
920.302	0.0128894
920.380	0.0128387
920.458	0.0128548
920.536	0.0128051
920.614	0.0129069
920.693	0.0129684
920.771	0.0128514
920.849	0.0127729
920.927	0.0128907
921.005	0.0127747
921.083	0.0128407
921.161	0.0128429
921.239	0.0127658
921.318	0.0128191
921.396	0.0127613
921.474	0.0126627
921.552	0.0127404
921.630	0.0128345
921.708	0.0127983
921.786	0.0126599
921.864	0.0128281
921.943	0.0128706
922.021	0.0129491
922.099	0.0128352
922.177	0.0128203
922.255	0.0128092
922.333	0.0127878
922.411	0.0129308
922.489	0.0127721
922.568	0.0128838
922.646	0.0129746
922.724	0.0128796
922.802	0.0128616
922.880	0.0128623
922.958	0.0130481
923.036	0.0128743
923.114	0.0130447
923.193	0.0129598
923.271	0.0129408
923.349	0.0131291
923.427	0.0129281
923.505	0.0128132
923.583	0.0128365
923.661	0.0128482
923.739	0.0128593
923.818	0.0130000
923.896	0.0128761
923.974	0.0129157
924.052	0.0129652
924.130	0.0129089
924.208	0.0128374
924.286	0.0127953
924.364	0.0128101
924.443	0.0128570
924.521	0.0128858
924.599	0.0128442
924.677	0.0129277
924.755	0.0128654
924.833	0.0126556
924.911	0.0126156
924.989	0.0128117
925.068	0.0128151
925.146	0.0127525
925.224	0.0126788
925.302	0.0128275
925.380	0.0128055
925.458	0.0127374
925.536	0.0127161
925.614	0.0127007
925.693	0.0127206
925.771	0.0129228
925.849	0.0127941
925.927	0.0128687
926.005	0.0127390
926.083	0.0127592
926.161	0.0127282
926.239	0.0127612
926.318	0.0127699
926.396	0.0129443
926.474	0.0128500
926.552	0.0125882
926.630	0.0128453
926.708	0.0129086
926.786	0.0127820
926.864	0.0128233
926.943	0.0128524
927.021	0.0129695
927.099	0.0127766
927.177	0.0128368
927.255	0.0128204
927.333	0.0128392
927.411	0.0129656
927.489	0.0130113
927.568	0.0126500
927.646	0.0126886
927.724	0.0127189
927.802	0.0129764
927.880	0.0129094
927.958	0.0128430
928.036	0.0130145
928.114	0.0128428
928.193	0.0128319
928.271	0.0129148
928.349	0.0129630
928.427	0.0131148
928.505	0.0128742
928.583	0.0129218
928.661	0.0129337
928.739	0.0128992
928.818	0.0129081
928.896	0.0130995
928.974	0.0129955
929.052	0.0129057
929.130	0.0129118
929.208	0.0129059
929.286	0.0129207
929.364	0.0130307
929.443	0.0129091
929.521	0.0129687
929.599	0.0128488
929.677	0.0129080
929.755	0.0130119
929.833	0.0130102
929.911	0.0128770
929.989	0.0128203
930.068	0.0128686
930.146	0.0128564
930.224	0.0129026
930.302	0.0128767
930.380	0.0128091
930.458	0.0128298
930.536	0.0129041
930.614	0.0128926
930.693	0.0129588
930.771	0.0131075
930.849	0.0129588
930.927	0.0129041
931.005	0.0128544
931.083	0.0129488
931.161	0.0129492
931.239	0.0130277
931.318	0.0129842
931.396	0.0131001
931.474	0.0130602
931.552	0.0129066
931.630	0.0129659
931.708	0.0130438
931.786	0.0128270
931.864	0.0127052
931.943	0.0128321
932.021	0.0129176
932.099	0.0129098
932.177	0.0128814
932.255	0.0127875
932.333	0.0128427
932.411	0.0129338
932.489	0.0127468
932.568	0.0126979
932.646	0.0128345
932.724	0.0127766
932.802	0.0128271
932.880	0.0128767
932.958	0.0129842
933.036	0.0129553
933.114	0.0129192
933.193	0.0129266
933.271	0.0129486
933.349	0.0130176
933.427	0.0130135
933.505	0.0131198
933.583	0.0131178
933.661	0.0131315
933.739	0.0129459
933.818	0.0129241
933.896	0.0129873
933.974	0.0130531
934.052	0.0130492
934.130	0.0130225
934.208	0.0130132
934.286	0.0129465
934.364	0.0130647
934.443	0.0129993
934.521	0.0130007
934.599	0.0129530
934.677	0.0130471
934.755	0.0129670
934.833	0.0129504
934.911	0.0130685
934.989	0.0129184
935.068	0.0130547
935.146	0.0129507
935.224	0.0130013
935.302	0.0130424
935.380	0.0129674
935.458	0.0129907
935.536	0.0129507
935.614	0.0128609
935.693	0.0129682
935.771	0.0129067
935.849	0.0129080
935.927	0.0128482
936.005	0.0128745
936.083	0.0128401
936.161	0.0129358
936.239	0.0127656
936.318	0.0128304
936.396	0.0129498
936.474	0.0128133
936.552	0.0128314
936.630	0.0128319
936.708	0.0129644
936.786	0.0128595
936.864	0.0128828
936.943	0.0128882
937.021	0.0127267
937.099	0.0128224
937.177	0.0128841
937.255	0.0128212
937.333	0.0129372
937.411	0.0129838
937.489	0.0128746
937.568	0.0129307
937.646	0.0129404
937.724	0.0128170
937.802	0.0129109
937.880	0.0129511
937.958	0.0127927
938.036	0.0130145
938.114	0.0128736
938.193	0.0130299
938.271	0.0130024
938.349	0.0129271
938.427	0.0127962
938.505	0.0128548
938.583	0.0129967
938.661	0.0131210
938.739	0.0128617
938.818	0.0129973
938.896	0.0129697
938.974	0.0128784
939.052	0.0130487
939.130	0.0129932
939.208	0.0129627
939.286	0.0128223
939.364	0.0127401
939.443	0.0127710
939.521	0.0128707
939.599	0.0128032
939.677	0.0128405
939.755	0.0129391
939.833	0.0128123
939.911	0.0127821
939.989	0.0127261
940.068	0.0127830
940.146	0.0127195
940.224	0.0129469
940.302	0.0128288
940.380	0.0128674
940.458	0.0128468
940.536	0.0128013
940.614	0.0128559
940.693	0.0128262
940.771	0.0128689
940.849	0.0128551
940.927	0.0129137
941.005	0.0128408
941.083	0.0129000
941.161	0.0127937
941.239	0.0127867
941.318	0.0127859
941.396	0.0128653
941.474	0.0128929
941.552	0.0128405
941.630	0.0128423
941.708	0.0128409
941.786	0.0127543
941.864	0.0129515
941.943	0.0129107
942.021	0.0126868
942.099	0.0127257
942.177	0.0127035
942.255	0.0127843
942.333	0.0128776
942.411	0.0127089
942.489	0.0126985
942.568	0.0128816
942.646	0.0129693
942.724	0.0128744
942.802	0.0128768
942.880	0.0128996
942.958	0.0129020
943.036	0.0129184
943.114	0.0129459
943.193	0.0130090
943.271	0.0129115
943.349	0.0131417
943.427	0.0128503
943.505	0.0128065
943.583	0.0129388
943.661	0.0130681
943.739	0.0131075
943.818	0.0129752
943.896	0.0130244
943.974	0.0130296
944.052	0.0131071
944.130	0.0129677
944.208	0.0129695
944.286	0.0129997
944.364	0.0130947
944.443	0.0130766
944.521	0.0130025
944.599	0.0130264
944.677	0.0129188
944.755	0.0129482
944.833	0.0129316
944.911	0.0128960
944.989	0.0129531
945.068	0.0127979
945.146	0.0130272
945.224	0.0128924
945.302	0.0130473
945.380	0.0129818
945.458	0.0128407
945.536	0.0129486
945.614	0.0130525
945.693	0.0130352
945.771	0.0129529
945.849	0.0129941
945.927	0.0130631
946.005	0.0130405
946.083	0.0131055
946.161	0.0129976
946.239	0.0131020
946.318	0.0130209
946.396	0.0129581
946.474	0.0130421
946.552	0.0130003
946.630	0.0131516
946.708	0.0129122
946.786	0.0130154
946.864	0.0130487
946.943	0.0129637
947.021	0.0129271
947.099	0.0129324
947.177	0.0129118
947.255	0.0129823
947.333	0.0129424
947.411	0.0127599
947.489	0.0128363
947.568	0.0127818
947.646	0.0127427
947.724	0.0128648
947.802	0.0127557
947.880	0.0127349
947.958	0.0127271
948.036	0.0127116
948.114	0.0127808
948.193	0.0128649
948.271	0.0126752
948.349	0.0126849
948.427	0.0127480
948.505	0.0129096
948.583	0.0129212
948.661	0.0129050
948.739	0.0128259
948.818	0.0128297
948.896	0.0129343
948.974	0.0128709
949.052	0.0127995
949.130	0.0129339
949.208	0.0129470
949.286	0.0129539
949.364	0.0129736
949.443	0.0129206
949.521	0.0128959
949.599	0.0130437
949.677	0.0130474
949.755	0.0129314
949.833	0.0129446
949.911	0.0129588
949.989	0.0129670
950.068	0.0127747
950.146	0.0127708
950.224	0.0128949
950.302	0.0129529
950.380	0.0129192
950.458	0.0128634
950.536	0.0129730
950.614	0.0128069
950.693	0.0127579
950.771	0.0129213
950.849	0.0128341
950.927	0.0128225
951.005	0.0128623
951.083	0.0128394
951.161	0.0127543
951.239	0.0126369
951.318	0.0127830
951.396	0.0128607
951.474	0.0128096
951.552	0.0128522
951.630	0.0126948
951.708	0.0128156
951.786	0.0128048
951.864	0.0128060
951.943	0.0128116
952.021	0.0129455
952.099	0.0127728
952.177	0.0128522
952.255	0.0128801
952.333	0.0129323
952.411	0.0127538
952.489	0.0130119
952.568	0.0128838
952.646	0.0128408
952.724	0.0128215
952.802	0.0128738
952.880	0.0127528
952.958	0.0127776
953.036	0.0128443
953.114	0.0128085
953.193	0.0127593
953.271	0.0128277
953.349	0.0127409
953.427	0.0127457
953.505	0.0127947
953.583	0.0128520
953.661	0.0129385
953.739	0.0126651
953.818	0.0127882
953.896	0.0128162
953.974	0.0128141
954.052	0.0130258
954.130	0.0129572
954.208	0.0129751
954.286	0.0128781
954.364	0.0129105
954.443	0.0126748
954.521	0.0128785
954.599	0.0129440
954.677	0.0128323
954.755	0.0128763
954.833	0.0129800
954.911	0.0128814
954.989	0.0128561
955.068	0.0128048
955.146	0.0128270
955.224	0.0129498
955.302	0.0129885
955.380	0.0128603
955.458	0.0128107
955.536	0.0129291
955.614	0.0129153
955.693	0.0128775
955.771	0.0129922
955.849	0.0130338
955.927	0.0129929
956.005	0.0129253
956.083	0.0129948
956.161	0.0130032
956.239	0.0130280
956.318	0.0129404
956.396	0.0129739
956.474	0.0128455
956.552	0.0129075
956.630	0.0128784
956.708	0.0130204
956.786	0.0129810
956.864	0.0128249
956.943	0.0129147
957.021	0.0129208
957.099	0.0129739
957.177	0.0129835
957.255	0.0129932
957.333	0.0129585
957.411	0.0129268
957.489	0.0130099
957.568	0.0129564
957.646	0.0128892
957.724	0.0129293
957.802	0.0127434
957.880	0.0128907
957.958	0.0128407
958.036	0.0128092
958.114	0.0127404
958.193	0.0127567
958.271	0.0127361
958.349	0.0126408
958.427	0.0127431
958.505	0.0127645
958.583	0.0128200
958.661	0.0130164
958.739	0.0128934
958.818	0.0129198
958.896	0.0129263
958.974	0.0129227
959.052	0.0129357
959.130	0.0130886
959.208	0.0129546
959.286	0.0129584
959.364	0.0129955
959.443	0.0129362
959.521	0.0129049
959.599	0.0128001
959.677	0.0128997
959.755	0.0128370
959.833	0.0127824
959.911	0.0127515
