05/07/2022	17:47:14	Ver.	4.1	UNKNOWN
Optical Delay	639.989416	Delta X		0.078125	Sweeps	1	Scan Rate	0/0
Coordinates	Axis 1	NaN	Axis 2	NaN	Axis 3	NaN	Axis 4	NaN	Axis 5	NaN	Axis 6	0.000000
TX Power	0.000000	RX Power	0.000000

639.989	0.0128675
640.068	0.0130952
640.146	0.0129862
640.224	0.0130962
640.302	0.0131202
640.380	0.0129532
640.458	0.0129705
640.536	0.0128316
640.614	0.0129517
640.693	0.0130674
640.771	0.0130416
640.849	0.0129504
640.927	0.0129413
641.005	0.0129224
641.083	0.0128903
641.161	0.0129166
641.239	0.0130144
641.318	0.0129011
641.396	0.0129610
641.474	0.0128607
641.552	0.0127874
641.630	0.0127951
641.708	0.0127972
641.786	0.0128139
641.864	0.0128032
641.943	0.0128443
642.021	0.0128795
642.099	0.0129920
642.177	0.0128320
642.255	0.0129366
642.333	0.0128863
642.411	0.0128728
642.489	0.0130561
642.568	0.0130861
642.646	0.0130409
642.724	0.0131370
642.802	0.0130514
642.880	0.0132334
642.958	0.0130739
643.036	0.0130831
643.114	0.0129523
643.193	0.0129318
643.271	0.0130373
643.349	0.0128922
643.427	0.0129335
643.505	0.0127709
643.583	0.0127962
643.661	0.0128367
643.739	0.0126727
643.818	0.0125735
643.896	0.0128000
643.974	0.0126814
644.052	0.0126176
644.130	0.0125944
644.208	0.0125201
644.286	0.0125911
644.364	0.0126704
644.443	0.0126273
644.521	0.0127395
644.599	0.0125904
644.677	0.0126715
644.755	0.0127625
644.833	0.0127856
644.911	0.0130657
644.989	0.0129929
645.068	0.0130132
645.146	0.0130146
645.224	0.0130012
645.302	0.0131222
645.380	0.0133002
645.458	0.0132817
645.536	0.0133240
645.614	0.0133913
645.693	0.0133742
645.771	0.0133788
645.849	0.0132701
645.927	0.0133778
646.005	0.0131743
646.083	0.0131781
646.161	0.0131600
646.239	0.0129993
646.318	0.0128835
646.396	0.0128897
646.474	0.0128177
646.552	0.0127132
646.630	0.0124964
646.708	0.0124943
646.786	0.0124486
646.864	0.0124155
646.943	0.0123807
647.021	0.0123521
647.099	0.0123478
647.177	0.0123261
647.255	0.0123421
647.333	0.0123344
647.411	0.0123533
647.489	0.0123531
647.568	0.0125451
647.646	0.0126192
647.724	0.0125117
647.802	0.0126836
647.880	0.0127150
647.958	0.0126945
648.036	0.0128467
648.114	0.0128432
648.193	0.0129876
648.271	0.0129528
648.349	0.0129282
648.427	0.0131059
648.505	0.0132295
648.583	0.0132086
648.661	0.0131421
648.739	0.0133860
648.818	0.0132185
648.896	0.0130573
648.974	0.0132130
649.052	0.0132997
649.130	0.0132616
649.208	0.0131298
649.286	0.0133804
649.364	0.0133786
649.443	0.0134296
649.521	0.0132931
649.599	0.0131315
649.677	0.0131398
649.755	0.0131666
649.833	0.0131664
649.911	0.0129756
649.989	0.0129100
650.068	0.0130348
650.146	0.0129970
650.224	0.0128748
650.302	0.0127811
650.380	0.0125719
650.458	0.0127513
650.536	0.0126432
650.614	0.0124755
650.693	0.0126519
650.771	0.0125304
650.849	0.0124200
650.927	0.0124547
651.005	0.0124610
651.083	0.0123853
651.161	0.0122631
651.239	0.0123354
651.318	0.0123409
651.396	0.0121725
651.474	0.0120776
651.552	0.0121251
651.630	0.0121587
651.708	0.0121957
651.786	0.0122247
651.864	0.0121110
651.943	0.0123782
652.021	0.0123057
652.099	0.0124835
652.177	0.0125080
652.255	0.0126572
652.333	0.0127310
652.411	0.0128233
652.489	0.0130398
652.568	0.0131733
652.646	0.0131638
652.724	0.0133090
652.802	0.0132967
652.880	0.0135682
652.958	0.0137185
653.036	0.0138493
653.114	0.0138823
653.193	0.0139117
653.271	0.0139936
653.349	0.0140177
653.427	0.0141301
653.505	0.0141721
653.583	0.0141949
653.661	0.0141321
653.739	0.0140663
653.818	0.0139077
653.896	0.0139169
653.974	0.0138056
654.052	0.0136854
654.130	0.0134296
654.208	0.0132919
654.286	0.0131297
654.364	0.0129564
654.443	0.0128631
654.521	0.0125870
654.599	0.0123396
654.677	0.0121918
654.755	0.0120394
654.833	0.0119182
654.911	0.0119305
654.989	0.0116858
655.068	0.0114037
655.146	0.0113457
655.224	0.0113660
655.302	0.0110818
655.380	0.0111509
655.458	0.0110928
655.536	0.0112148
655.614	0.0110949
655.693	0.0114574
655.771	0.0114093
655.849	0.0114787
655.927	0.0116553
656.005	0.0118163
656.083	0.0119588
656.161	0.0120795
656.239	0.0124165
656.318	0.0124601
656.396	0.0127496
656.474	0.0130176
656.552	0.0133020
656.630	0.0134824
656.708	0.0136226
656.786	0.0138946
656.864	0.0140582
656.943	0.0142509
657.021	0.0144015
657.099	0.0145997
657.177	0.0148249
657.255	0.0147829
657.333	0.0148401
657.411	0.0149274
657.489	0.0148852
657.568	0.0148454
657.646	0.0147237
657.724	0.0145773
657.802	0.0145477
657.880	0.0144801
657.958	0.0140754
658.036	0.0140444
658.114	0.0140865
658.193	0.0138183
658.271	0.0135210
658.349	0.0132922
658.427	0.0130659
658.505	0.0129053
658.583	0.0126756
658.661	0.0124066
658.739	0.0121767
658.818	0.0119154
658.896	0.0117442
658.974	0.0114811
659.052	0.0112219
659.130	0.0112077
659.208	0.0110776
659.286	0.0109024
659.364	0.0108485
659.443	0.0107465
659.521	0.0106407
659.599	0.0107480
659.677	0.0105937
659.755	0.0106586
659.833	0.0108358
659.911	0.0107317
659.989	0.0109881
660.068	0.0111310
660.146	0.0111520
660.224	0.0113747
660.302	0.0115282
660.380	0.0117936
660.458	0.0119498
660.536	0.0120783
660.614	0.0124053
660.693	0.0124525
660.771	0.0128230
660.849	0.0129751
660.927	0.0132726
661.005	0.0134300
661.083	0.0136192
661.161	0.0139543
661.239	0.0142665
661.318	0.0145175
661.396	0.0145337
661.474	0.0147998
661.552	0.0149662
661.630	0.0150584
661.708	0.0152018
661.786	0.0153668
661.864	0.0153873
661.943	0.0153663
662.021	0.0154346
662.099	0.0153508
662.177	0.0153088
662.255	0.0152812
662.333	0.0152695
662.411	0.0149377
662.489	0.0148179
662.568	0.0146070
662.646	0.0143423
662.724	0.0141075
662.802	0.0137897
662.880	0.0135423
662.958	0.0131674
663.036	0.0126900
663.114	0.0124329
663.193	0.0120448
663.271	0.0116955
663.349	0.0113615
663.427	0.0110324
663.505	0.0107992
663.583	0.0104668
663.661	0.0101368
663.739	0.0100082
663.818	0.00995354
663.896	0.00959671
663.974	0.00950577
664.052	0.00948143
664.130	0.00946754
664.208	0.00945488
664.286	0.00951157
664.364	0.00981018
664.443	0.0101124
664.521	0.0102109
664.599	0.0105254
664.677	0.0108832
664.755	0.0112127
664.833	0.0114845
664.911	0.0120605
664.989	0.0123334
665.068	0.0126403
665.146	0.0131062
665.224	0.0135220
665.302	0.0140148
665.380	0.0144325
665.458	0.0145455
665.536	0.0149467
665.614	0.0151807
665.693	0.0153494
665.771	0.0156172
665.849	0.0156353
665.927	0.0158039
666.005	0.0158575
666.083	0.0159188
666.161	0.0158233
666.239	0.0158160
666.318	0.0159914
666.396	0.0157791
666.474	0.0157939
666.552	0.0155673
666.630	0.0154680
666.708	0.0152673
666.786	0.0151820
666.864	0.0149205
666.943	0.0146219
667.021	0.0143864
667.099	0.0140918
667.177	0.0138715
667.255	0.0136703
667.333	0.0133640
667.411	0.0129846
667.489	0.0129872
667.568	0.0126535
667.646	0.0122001
667.724	0.0119318
667.802	0.0118396
667.880	0.0113751
667.958	0.0110992
668.036	0.0109042
668.114	0.0106563
668.193	0.0102866
668.271	0.0101545
668.349	0.0101182
668.427	0.00979980
668.505	0.00985710
668.583	0.00975441
668.661	0.00965736
668.739	0.00977325
668.818	0.00990379
668.896	0.0100489
668.974	0.0102762
669.052	0.0104900
669.130	0.0106332
669.208	0.0110609
669.286	0.0111772
669.364	0.0115413
669.443	0.0119599
669.521	0.0122290
669.599	0.0127388
669.677	0.0127943
669.755	0.0133100
669.833	0.0137507
669.911	0.0140710
669.989	0.0142857
670.068	0.0146175
670.146	0.0147917
670.224	0.0151268
670.302	0.0151049
670.380	0.0152996
670.458	0.0154399
670.536	0.0154800
670.614	0.0154578
670.693	0.0154009
670.771	0.0152554
670.849	0.0152507
670.927	0.0151958
671.005	0.0148520
671.083	0.0148197
671.161	0.0146159
671.239	0.0143575
671.318	0.0141356
671.396	0.0139315
671.474	0.0135399
671.552	0.0134624
671.630	0.0130865
671.708	0.0129550
671.786	0.0127954
671.864	0.0126297
671.943	0.0125182
672.021	0.0122423
672.099	0.0122311
672.177	0.0121262
672.255	0.0121157
672.333	0.0118983
672.411	0.0118012
672.489	0.0117841
672.568	0.0118874
672.646	0.0117717
672.724	0.0117275
672.802	0.0117144
672.880	0.0117703
672.958	0.0117397
673.036	0.0118000
673.114	0.0116496
673.193	0.0116200
673.271	0.0118268
673.349	0.0117988
673.427	0.0118687
673.505	0.0117406
673.583	0.0120659
673.661	0.0119827
673.739	0.0119042
673.818	0.0120670
673.896	0.0121571
673.974	0.0123141
674.052	0.0121946
674.130	0.0124103
674.208	0.0124356
674.286	0.0125391
674.364	0.0125818
674.443	0.0126899
674.521	0.0127204
674.599	0.0129206
674.677	0.0129313
674.755	0.0130626
674.833	0.0131276
674.911	0.0132219
674.989	0.0131762
675.068	0.0132593
675.146	0.0133435
675.224	0.0134550
675.302	0.0133902
675.380	0.0136143
675.458	0.0134593
675.536	0.0134690
675.614	0.0137312
675.693	0.0134309
675.771	0.0134542
675.849	0.0134700
675.927	0.0135999
676.005	0.0133582
676.083	0.0133048
676.161	0.0133144
676.239	0.0130862
676.318	0.0131447
676.396	0.0132513
676.474	0.0130255
676.552	0.0130943
676.630	0.0131400
676.708	0.0131186
676.786	0.0131514
676.864	0.0131738
676.943	0.0132290
677.021	0.0130942
677.099	0.0130127
677.177	0.0132061
677.255	0.0130772
677.333	0.0131396
677.411	0.0131988
677.489	0.0134497
677.568	0.0134403
677.646	0.0133708
677.724	0.0135361
677.802	0.0134281
677.880	0.0134166
677.958	0.0134080
678.036	0.0135026
678.114	0.0133489
678.193	0.0133470
678.271	0.0132874
678.349	0.0132394
678.427	0.0129736
678.505	0.0130392
678.583	0.0129093
678.661	0.0128238
678.739	0.0126516
678.818	0.0126125
678.896	0.0125213
678.974	0.0124257
679.052	0.0122763
679.130	0.0120658
679.208	0.0119577
679.286	0.0117246
679.364	0.0116738
679.443	0.0115173
679.521	0.0113805
679.599	0.0113499
679.677	0.0112907
679.755	0.0114402
679.833	0.0113405
679.911	0.0112136
679.989	0.0112320
680.068	0.0114342
680.146	0.0114987
680.224	0.0114525
680.302	0.0115336
680.380	0.0116492
680.458	0.0118137
680.536	0.0118814
680.614	0.0120683
680.693	0.0122162
680.771	0.0122652
680.849	0.0126702
680.927	0.0127486
681.005	0.0130059
681.083	0.0131609
681.161	0.0132511
681.239	0.0133873
681.318	0.0136024
681.396	0.0138700
681.474	0.0139128
681.552	0.0139616
681.630	0.0140495
681.708	0.0141649
681.786	0.0141634
681.864	0.0142480
681.943	0.0143421
682.021	0.0142557
682.099	0.0142539
682.177	0.0143165
682.255	0.0140525
682.333	0.0140266
682.411	0.0139288
682.489	0.0138053
682.568	0.0137415
682.646	0.0135025
682.724	0.0134107
682.802	0.0134117
682.880	0.0131460
682.958	0.0130077
683.036	0.0127491
683.114	0.0128292
683.193	0.0125435
683.271	0.0123521
683.349	0.0123306
683.427	0.0123685
683.505	0.0122468
683.583	0.0122444
683.661	0.0122053
683.739	0.0122018
683.818	0.0122220
683.896	0.0121870
683.974	0.0122659
684.052	0.0121626
684.130	0.0123139
684.208	0.0122596
684.286	0.0121889
684.364	0.0122854
684.443	0.0122644
684.521	0.0122395
684.599	0.0122092
684.677	0.0122537
684.755	0.0123176
684.833	0.0122887
684.911	0.0123048
684.989	0.0122571
685.068	0.0121978
685.146	0.0123949
685.224	0.0123924
685.302	0.0124029
685.380	0.0125584
685.458	0.0123593
685.536	0.0122600
685.614	0.0123980
685.693	0.0125214
685.771	0.0126032
685.849	0.0125345
685.927	0.0126141
686.005	0.0126754
686.083	0.0128010
686.161	0.0127992
686.239	0.0128714
686.318	0.0129230
686.396	0.0130522
686.474	0.0130106
686.552	0.0130476
686.630	0.0131872
686.708	0.0133648
686.786	0.0133112
686.864	0.0134765
686.943	0.0134414
687.021	0.0132690
687.099	0.0131955
687.177	0.0133946
687.255	0.0133674
687.333	0.0133353
687.411	0.0131895
687.489	0.0131865
687.568	0.0131458
687.646	0.0131296
687.724	0.0131239
687.802	0.0130988
687.880	0.0130237
687.958	0.0131346
688.036	0.0131776
688.114	0.0132160
688.193	0.0130306
688.271	0.0132013
688.349	0.0129353
688.427	0.0129744
688.505	0.0130955
688.583	0.0129627
688.661	0.0129523
688.739	0.0131503
688.818	0.0130965
688.896	0.0130767
688.974	0.0130634
689.052	0.0128902
689.130	0.0130061
689.208	0.0131692
689.286	0.0132587
689.364	0.0131590
689.443	0.0132640
689.521	0.0132626
689.599	0.0133163
689.677	0.0134341
689.755	0.0133125
689.833	0.0133772
689.911	0.0132212
689.989	0.0133364
690.068	0.0132156
690.146	0.0132524
690.224	0.0130685
690.302	0.0128788
690.380	0.0127316
690.458	0.0126958
690.536	0.0125302
690.614	0.0123471
690.693	0.0121874
690.771	0.0120150
690.849	0.0118468
690.927	0.0118610
691.005	0.0116586
691.083	0.0114492
691.161	0.0114731
691.239	0.0113058
691.318	0.0113287
691.396	0.0111446
691.474	0.0110059
691.552	0.0110232
691.630	0.0112461
691.708	0.0112232
691.786	0.0113431
691.864	0.0114562
691.943	0.0116885
692.021	0.0116507
692.099	0.0118680
692.177	0.0121759
692.255	0.0122715
692.333	0.0124895
692.411	0.0126627
692.489	0.0129545
692.568	0.0130685
692.646	0.0132559
692.724	0.0135055
692.802	0.0137807
692.880	0.0139367
692.958	0.0139357
693.036	0.0141331
693.114	0.0142749
693.193	0.0145004
693.271	0.0145832
693.349	0.0147575
693.427	0.0146915
693.505	0.0146462
693.583	0.0146996
693.661	0.0145837
693.739	0.0148052
693.818	0.0146600
693.896	0.0145303
693.974	0.0145745
694.052	0.0144312
694.130	0.0143082
694.208	0.0142221
694.286	0.0140832
694.364	0.0140261
694.443	0.0138513
694.521	0.0136991
694.599	0.0134966
694.677	0.0134422
694.755	0.0132203
694.833	0.0128852
694.911	0.0129111
694.989	0.0127099
695.068	0.0124885
695.146	0.0124332
695.224	0.0122369
695.302	0.0122002
695.380	0.0121007
695.458	0.0118855
695.536	0.0118554
695.614	0.0117668
695.693	0.0116407
695.771	0.0117652
695.849	0.0116569
695.927	0.0117261
696.005	0.0117290
696.083	0.0116505
696.161	0.0116689
696.239	0.0116603
696.318	0.0118307
696.396	0.0118793
696.474	0.0119364
696.552	0.0119806
696.630	0.0120753
696.708	0.0121772
696.786	0.0122824
696.864	0.0122568
696.943	0.0121965
697.021	0.0124704
697.099	0.0126682
697.177	0.0125719
697.255	0.0125806
697.333	0.0125895
697.411	0.0126778
697.489	0.0127290
697.568	0.0127585
697.646	0.0130406
697.724	0.0129861
697.802	0.0130322
697.880	0.0132551
697.958	0.0131216
698.036	0.0131081
698.114	0.0133017
698.193	0.0134382
698.271	0.0134761
698.349	0.0135031
698.427	0.0134736
698.505	0.0135864
698.583	0.0136282
698.661	0.0136579
698.739	0.0136121
698.818	0.0135949
698.896	0.0137238
698.974	0.0137899
699.052	0.0137936
699.130	0.0137577
699.208	0.0137907
699.286	0.0136948
699.364	0.0137930
699.443	0.0136650
699.521	0.0136201
699.599	0.0135323
699.677	0.0135857
699.755	0.0137186
699.833	0.0134663
699.911	0.0134857
699.989	0.0133849
700.068	0.0134351
700.146	0.0133921
700.224	0.0132129
700.302	0.0130137
700.380	0.0130790
700.458	0.0129533
700.536	0.0128789
700.614	0.0127706
700.693	0.0126869
700.771	0.0126141
700.849	0.0123978
700.927	0.0122669
701.005	0.0123538
701.083	0.0123418
701.161	0.0123431
701.239	0.0121316
701.318	0.0122623
701.396	0.0121731
701.474	0.0122285
701.552	0.0122761
701.630	0.0122672
701.708	0.0124644
701.786	0.0124805
701.864	0.0125127
701.943	0.0125834
702.021	0.0126608
702.099	0.0127263
702.177	0.0127747
702.255	0.0128797
702.333	0.0129406
702.411	0.0129224
702.489	0.0129803
702.568	0.0128585
702.646	0.0128752
702.724	0.0129597
702.802	0.0130184
702.880	0.0129969
702.958	0.0128392
703.036	0.0127393
703.114	0.0128599
703.193	0.0126534
703.271	0.0126057
703.349	0.0127472
703.427	0.0127616
703.505	0.0126676
703.583	0.0125739
703.661	0.0125105
703.739	0.0125500
703.818	0.0124042
703.896	0.0124448
703.974	0.0124910
704.052	0.0124605
704.130	0.0124751
704.208	0.0124889
704.286	0.0126028
704.364	0.0125667
704.443	0.0126488
704.521	0.0128068
704.599	0.0127245
704.677	0.0127671
704.755	0.0128986
704.833	0.0129176
704.911	0.0129333
704.989	0.0130746
705.068	0.0131860
705.146	0.0130768
705.224	0.0129874
705.302	0.0132250
705.380	0.0131291
705.458	0.0131915
705.536	0.0133529
705.614	0.0133201
705.693	0.0134148
705.771	0.0134349
705.849	0.0132971
705.927	0.0132227
706.005	0.0133775
706.083	0.0133051
706.161	0.0133757
706.239	0.0134273
706.318	0.0133473
706.396	0.0134035
706.474	0.0133819
706.552	0.0133881
706.630	0.0132233
706.708	0.0131342
706.786	0.0131549
706.864	0.0130057
706.943	0.0130299
707.021	0.0129205
707.099	0.0129112
707.177	0.0127761
707.255	0.0127914
707.333	0.0126305
707.411	0.0127726
707.489	0.0127296
707.568	0.0125682
707.646	0.0124622
707.724	0.0125530
707.802	0.0124699
707.880	0.0123419
707.958	0.0124017
708.036	0.0123257
708.114	0.0123946
708.193	0.0122764
708.271	0.0122639
708.349	0.0121678
708.427	0.0120665
708.505	0.0124134
708.583	0.0123460
708.661	0.0123230
708.739	0.0122480
708.818	0.0124647
708.896	0.0123505
708.974	0.0124610
709.052	0.0125560
709.130	0.0126607
709.208	0.0124880
709.286	0.0126081
709.364	0.0127359
709.443	0.0125206
709.521	0.0126106
709.599	0.0125275
709.677	0.0124226
709.755	0.0124882
709.833	0.0125926
709.911	0.0125883
709.989	0.0126306
710.068	0.0126019
710.146	0.0124305
710.224	0.0128115
710.302	0.0127982
710.380	0.0126299
710.458	0.0127090
710.536	0.0126488
710.614	0.0128405
710.693	0.0128953
710.771	0.0128747
710.849	0.0128915
710.927	0.0129128
711.005	0.0129986
711.083	0.0130032
711.161	0.0129776
711.239	0.0131703
711.318	0.0132673
711.396	0.0132803
711.474	0.0133629
711.552	0.0133855
711.630	0.0135915
711.708	0.0136751
711.786	0.0135719
711.864	0.0137379
711.943	0.0137495
712.021	0.0137518
712.099	0.0138114
712.177	0.0137849
712.255	0.0137412
712.333	0.0136131
712.411	0.0136865
712.489	0.0135370
712.568	0.0133866
712.646	0.0134892
712.724	0.0135210
712.802	0.0133276
712.880	0.0132369
712.958	0.0132233
713.036	0.0128743
713.114	0.0128255
713.193	0.0128656
713.271	0.0127387
713.349	0.0124294
713.427	0.0122487
713.505	0.0121594
713.583	0.0121262
713.661	0.0120383
713.739	0.0119839
713.818	0.0118418
713.896	0.0117149
713.974	0.0118021
714.052	0.0119183
714.130	0.0118011
714.208	0.0117425
714.286	0.0116640
714.364	0.0117522
714.443	0.0117149
714.521	0.0119282
714.599	0.0120000
714.677	0.0119814
714.755	0.0119126
714.833	0.0120186
714.911	0.0121518
714.989	0.0122828
715.068	0.0122963
715.146	0.0123789
715.224	0.0123384
715.302	0.0126130
715.380	0.0126766
715.458	0.0127200
715.536	0.0129419
715.614	0.0127600
715.693	0.0128303
715.771	0.0129688
715.849	0.0130625
715.927	0.0130293
716.005	0.0130958
716.083	0.0130491
716.161	0.0131174
716.239	0.0130470
716.318	0.0131966
716.396	0.0133624
716.474	0.0133397
716.552	0.0134422
716.630	0.0133760
716.708	0.0134006
716.786	0.0133763
716.864	0.0132409
716.943	0.0133880
717.021	0.0134451
717.099	0.0134536
717.177	0.0134354
717.255	0.0133922
717.333	0.0135597
717.411	0.0135423
717.489	0.0136129
717.568	0.0135748
717.646	0.0135865
717.724	0.0134820
717.802	0.0135372
717.880	0.0135469
717.958	0.0136605
718.036	0.0135679
718.114	0.0135049
718.193	0.0134550
718.271	0.0135514
718.349	0.0134452
718.427	0.0134251
718.505	0.0133680
718.583	0.0134407
718.661	0.0133019
718.739	0.0133635
718.818	0.0132709
718.896	0.0131725
718.974	0.0132028
719.052	0.0132005
719.130	0.0130891
719.208	0.0131801
719.286	0.0130717
719.364	0.0130025
719.443	0.0128875
719.521	0.0129403
719.599	0.0127707
719.677	0.0127251
719.755	0.0127751
719.833	0.0126868
719.911	0.0126194
719.989	0.0125285
720.068	0.0125283
720.146	0.0126607
720.224	0.0127281
720.302	0.0125847
720.380	0.0124756
720.458	0.0126025
720.536	0.0124478
720.614	0.0124979
720.693	0.0124791
720.771	0.0124516
720.849	0.0124482
720.927	0.0125484
721.005	0.0124916
721.083	0.0123949
721.161	0.0125350
721.239	0.0125397
721.318	0.0126471
721.396	0.0127325
721.474	0.0127998
721.552	0.0128350
721.630	0.0128770
721.708	0.0132064
721.786	0.0130296
721.864	0.0129756
721.943	0.0131111
722.021	0.0131729
722.099	0.0132172
722.177	0.0131849
722.255	0.0131898
722.333	0.0132503
722.411	0.0132548
722.489	0.0132131
722.568	0.0131688
722.646	0.0132545
722.724	0.0134193
722.802	0.0132230
722.880	0.0131929
722.958	0.0131839
723.036	0.0131354
723.114	0.0131537
723.193	0.0131054
723.271	0.0130522
723.349	0.0130675
723.427	0.0129791
723.505	0.0130523
723.583	0.0130817
723.661	0.0131279
723.739	0.0129467
723.818	0.0129327
723.896	0.0130770
723.974	0.0131153
724.052	0.0131039
724.130	0.0130489
724.208	0.0130465
724.286	0.0131551
724.364	0.0131280
724.443	0.0129858
724.521	0.0131081
724.599	0.0130703
724.677	0.0131107
724.755	0.0132188
724.833	0.0132336
724.911	0.0132131
724.989	0.0131286
725.068	0.0132636
725.146	0.0133610
725.224	0.0132113
725.302	0.0132686
725.380	0.0129898
725.458	0.0131515
725.536	0.0130819
725.614	0.0130573
725.693	0.0129864
725.771	0.0128120
725.849	0.0129871
725.927	0.0129212
726.005	0.0127738
726.083	0.0126119
726.161	0.0125978
726.239	0.0125240
726.318	0.0125543
726.396	0.0122028
726.474	0.0124099
726.552	0.0123883
726.630	0.0124189
726.708	0.0122804
726.786	0.0122848
726.864	0.0121719
726.943	0.0122532
727.021	0.0122820
727.099	0.0123241
727.177	0.0122422
727.255	0.0122595
727.333	0.0123168
727.411	0.0123676
727.489	0.0125275
727.568	0.0124898
727.646	0.0125579
727.724	0.0125971
727.802	0.0127821
727.880	0.0128918
727.958	0.0129524
728.036	0.0128758
728.114	0.0130395
728.193	0.0129153
728.271	0.0130676
728.349	0.0130369
728.427	0.0129617
728.505	0.0130161
728.583	0.0130663
728.661	0.0130548
728.739	0.0131491
728.818	0.0131119
728.896	0.0131036
728.974	0.0130694
729.052	0.0130942
729.130	0.0133340
729.208	0.0131822
729.286	0.0132072
729.364	0.0130130
729.443	0.0130225
729.521	0.0131187
729.599	0.0132314
729.677	0.0131251
729.755	0.0131274
729.833	0.0130343
729.911	0.0131631
729.989	0.0130481
730.068	0.0129320
730.146	0.0129824
730.224	0.0130392
730.302	0.0130512
730.380	0.0130549
730.458	0.0131399
730.536	0.0130828
730.614	0.0130928
730.693	0.0132160
730.771	0.0130770
730.849	0.0132546
730.927	0.0131228
731.005	0.0131196
731.083	0.0132235
731.161	0.0132459
731.239	0.0131522
731.318	0.0131256
731.396	0.0130882
731.474	0.0130562
731.552	0.0130351
731.630	0.0130704
731.708	0.0131133
731.786	0.0130907
731.864	0.0129498
731.943	0.0127920
732.021	0.0127904
732.099	0.0128042
732.177	0.0127349
732.255	0.0125586
732.333	0.0125643
732.411	0.0127158
732.489	0.0126479
732.568	0.0123734
732.646	0.0123531
732.724	0.0124735
732.802	0.0123626
732.880	0.0121854
732.958	0.0124073
733.036	0.0122183
733.114	0.0121273
733.193	0.0121810
733.271	0.0121232
733.349	0.0121593
733.427	0.0121448
733.505	0.0121463
733.583	0.0122150
733.661	0.0122019
733.739	0.0123005
733.818	0.0121319
733.896	0.0122109
733.974	0.0122744
734.052	0.0122686
734.130	0.0124574
734.208	0.0124392
734.286	0.0124519
734.364	0.0126310
734.443	0.0125157
734.521	0.0125695
734.599	0.0127460
734.677	0.0127740
734.755	0.0128074
734.833	0.0129807
734.911	0.0130656
734.989	0.0130407
735.068	0.0130880
735.146	0.0132082
735.224	0.0130434
735.302	0.0131214
735.380	0.0131815
735.458	0.0130370
735.536	0.0131903
735.614	0.0131678
735.693	0.0130933
735.771	0.0130656
735.849	0.0130553
735.927	0.0130366
736.005	0.0131622
736.083	0.0127814
736.161	0.0129871
736.239	0.0130074
736.318	0.0130000
736.396	0.0128907
736.474	0.0129743
736.552	0.0129578
736.630	0.0128396
736.708	0.0129135
736.786	0.0129656
736.864	0.0130097
736.943	0.0130569
737.021	0.0130663
737.099	0.0129729
737.177	0.0131498
737.255	0.0131184
737.333	0.0128764
737.411	0.0131075
737.489	0.0130199
737.568	0.0130756
737.646	0.0129690
737.724	0.0129523
737.802	0.0129500
737.880	0.0129733
737.958	0.0129067
738.036	0.0128277
738.114	0.0128445
738.193	0.0127532
738.271	0.0127845
738.349	0.0127280
738.427	0.0126228
738.505	0.0126924
738.583	0.0127402
738.661	0.0126672
738.739	0.0126923
738.818	0.0125824
738.896	0.0126275
738.974	0.0126336
739.052	0.0125265
739.130	0.0125858
739.208	0.0126459
739.286	0.0126820
739.364	0.0125813
739.443	0.0125872
739.521	0.0127603
739.599	0.0127419
739.677	0.0124849
739.755	0.0126032
739.833	0.0126593
739.911	0.0125268
739.989	0.0126083
740.068	0.0126277
740.146	0.0128506
740.224	0.0126904
740.302	0.0126511
740.380	0.0128348
740.458	0.0127012
740.536	0.0126953
740.614	0.0127015
740.693	0.0127187
740.771	0.0127415
740.849	0.0127664
740.927	0.0129108
741.005	0.0128689
741.083	0.0128556
741.161	0.0129171
741.239	0.0130357
741.318	0.0129576
741.396	0.0131099
741.474	0.0131264
741.552	0.0131190
741.630	0.0132213
741.708	0.0132607
741.786	0.0132733
741.864	0.0132799
741.943	0.0132592
742.021	0.0132281
742.099	0.0132430
742.177	0.0133070
742.255	0.0134286
742.333	0.0133845
742.411	0.0131293
742.489	0.0132175
742.568	0.0132201
742.646	0.0133381
742.724	0.0131853
742.802	0.0133412
742.880	0.0131361
742.958	0.0130503
743.036	0.0131078
743.114	0.0130741
743.193	0.0129311
743.271	0.0131081
743.349	0.0129727
743.427	0.0129527
743.505	0.0128899
743.583	0.0129148
743.661	0.0130349
743.739	0.0129229
743.818	0.0128965
743.896	0.0129282
743.974	0.0130371
744.052	0.0128679
744.130	0.0127662
744.208	0.0129510
744.286	0.0128712
744.364	0.0127585
744.443	0.0127882
744.521	0.0128696
744.599	0.0130872
744.677	0.0129501
744.755	0.0128051
744.833	0.0130290
744.911	0.0129969
744.989	0.0129545
745.068	0.0129596
745.146	0.0129514
745.224	0.0129907
745.302	0.0128776
745.380	0.0130267
745.458	0.0129073
745.536	0.0129820
745.614	0.0128143
745.693	0.0128886
745.771	0.0127174
745.849	0.0129228
745.927	0.0128305
746.005	0.0127432
746.083	0.0126467
746.161	0.0127162
746.239	0.0126316
746.318	0.0127266
746.396	0.0125595
746.474	0.0125369
746.552	0.0124451
746.630	0.0125745
746.708	0.0125316
746.786	0.0125864
746.864	0.0125450
746.943	0.0126254
747.021	0.0127126
747.099	0.0127120
747.177	0.0126503
747.255	0.0126175
747.333	0.0127561
747.411	0.0129686
747.489	0.0129279
747.568	0.0129240
747.646	0.0130400
747.724	0.0129155
747.802	0.0129551
747.880	0.0130998
747.958	0.0131870
748.036	0.0132678
748.114	0.0131224
748.193	0.0131201
748.271	0.0132770
748.349	0.0131897
748.427	0.0133156
748.505	0.0132339
748.583	0.0131249
748.661	0.0132618
748.739	0.0133251
748.818	0.0132233
748.896	0.0131532
748.974	0.0131290
749.052	0.0131734
749.130	0.0131196
749.208	0.0130710
749.286	0.0129763
749.364	0.0130283
749.443	0.0130405
749.521	0.0130359
749.599	0.0129736
749.677	0.0129323
749.755	0.0129942
749.833	0.0129547
749.911	0.0130392
749.989	0.0129263
750.068	0.0131393
750.146	0.0128777
750.224	0.0130537
750.302	0.0129337
750.380	0.0129362
750.458	0.0130031
750.536	0.0130101
750.614	0.0130714
750.693	0.0128773
750.771	0.0129745
750.849	0.0130590
750.927	0.0129549
751.005	0.0131157
751.083	0.0130920
751.161	0.0130158
751.239	0.0130572
751.318	0.0129517
751.396	0.0130126
751.474	0.0129198
751.552	0.0128055
751.630	0.0128530
751.708	0.0128178
751.786	0.0128542
751.864	0.0126802
751.943	0.0125962
752.021	0.0124973
752.099	0.0125501
752.177	0.0125024
752.255	0.0122781
752.333	0.0123038
752.411	0.0122424
752.489	0.0123512
752.568	0.0124044
752.646	0.0122720
752.724	0.0122066
752.802	0.0122906
752.880	0.0122932
752.958	0.0121642
753.036	0.0123275
753.114	0.0123786
753.193	0.0124297
753.271	0.0124460
753.349	0.0125791
753.427	0.0124833
753.505	0.0126295
753.583	0.0126060
753.661	0.0127323
753.739	0.0129616
753.818	0.0129144
753.896	0.0131046
753.974	0.0130302
754.052	0.0129913
754.130	0.0132116
754.208	0.0130833
754.286	0.0132487
754.364	0.0134994
754.443	0.0134603
754.521	0.0132446
754.599	0.0134972
754.677	0.0134244
754.755	0.0132282
754.833	0.0134480
754.911	0.0134941
754.989	0.0135270
755.068	0.0133203
755.146	0.0132761
755.224	0.0133980
755.302	0.0133891
755.380	0.0133098
755.458	0.0133015
755.536	0.0132197
755.614	0.0131480
755.693	0.0131121
755.771	0.0130221
755.849	0.0129382
755.927	0.0128930
756.005	0.0128423
756.083	0.0126176
756.161	0.0127316
756.239	0.0125964
756.318	0.0126517
756.396	0.0126714
756.474	0.0125475
756.552	0.0127018
756.630	0.0125839
756.708	0.0125805
756.786	0.0127183
756.864	0.0127312
756.943	0.0127875
757.021	0.0127044
757.099	0.0128069
757.177	0.0129082
757.255	0.0128362
757.333	0.0129230
757.411	0.0129258
757.489	0.0129849
757.568	0.0130614
757.646	0.0129861
757.724	0.0130155
757.802	0.0131532
757.880	0.0131728
757.958	0.0131409
758.036	0.0131963
758.114	0.0131659
758.193	0.0132949
758.271	0.0131599
758.349	0.0132525
758.427	0.0133282
758.505	0.0132635
758.583	0.0133324
758.661	0.0132156
758.739	0.0132381
758.818	0.0131044
758.896	0.0131976
758.974	0.0132182
759.052	0.0131078
759.130	0.0131118
759.208	0.0129703
759.286	0.0129773
759.364	0.0129340
759.443	0.0128980
759.521	0.0127554
759.599	0.0126897
759.677	0.0127791
759.755	0.0126080
759.833	0.0125508
759.911	0.0126016
759.989	0.0124398
760.068	0.0123719
760.146	0.0123943
760.224	0.0125034
760.302	0.0125681
760.380	0.0124382
760.458	0.0123286
760.536	0.0123645
760.614	0.0123611
760.693	0.0123885
760.771	0.0124902
760.849	0.0124782
760.927	0.0124786
761.005	0.0124767
761.083	0.0126366
761.161	0.0126595
761.239	0.0126768
761.318	0.0127388
761.396	0.0127778
761.474	0.0128525
761.552	0.0129565
761.630	0.0128597
761.708	0.0131034
761.786	0.0131322
761.864	0.0132822
761.943	0.0130658
762.021	0.0131977
762.099	0.0132585
762.177	0.0132619
762.255	0.0133393
762.333	0.0133694
762.411	0.0134297
762.489	0.0132839
762.568	0.0132961
762.646	0.0134026
762.724	0.0132112
762.802	0.0130981
762.880	0.0131390
762.958	0.0133226
763.036	0.0132378
763.114	0.0134068
763.193	0.0132659
763.271	0.0131511
763.349	0.0131236
763.427	0.0129837
763.505	0.0129868
763.583	0.0129199
763.661	0.0128901
763.739	0.0130104
763.818	0.0128668
763.896	0.0129134
763.974	0.0129173
764.052	0.0128012
764.130	0.0128203
764.208	0.0128850
764.286	0.0127061
764.364	0.0127052
764.443	0.0126560
764.521	0.0126131
764.599	0.0126315
764.677	0.0125658
764.755	0.0125212
764.833	0.0124316
764.911	0.0123916
764.989	0.0125309
765.068	0.0122958
765.146	0.0122245
765.224	0.0122997
765.302	0.0123715
765.380	0.0122675
765.458	0.0122066
765.536	0.0122749
765.614	0.0124011
765.693	0.0123222
765.771	0.0123177
765.849	0.0123357
765.927	0.0123672
766.005	0.0123325
766.083	0.0124417
766.161	0.0124316
766.239	0.0125185
766.318	0.0124174
766.396	0.0125397
766.474	0.0127052
766.552	0.0126604
766.630	0.0125294
766.708	0.0127753
766.786	0.0128655
766.864	0.0128431
766.943	0.0127382
767.021	0.0128426
767.099	0.0129221
767.177	0.0130181
767.255	0.0128358
767.333	0.0130890
767.411	0.0131218
767.489	0.0128475
767.568	0.0128860
767.646	0.0130971
767.724	0.0130475
767.802	0.0130669
767.880	0.0132254
767.958	0.0132053
768.036	0.0131824
768.114	0.0130533
768.193	0.0131289
768.271	0.0130981
768.349	0.0130238
768.427	0.0130360
768.505	0.0131516
768.583	0.0132166
768.661	0.0131429
768.739	0.0129575
768.818	0.0128911
768.896	0.0129824
768.974	0.0128626
769.052	0.0129969
769.130	0.0128690
769.208	0.0129830
769.286	0.0128329
769.364	0.0128373
769.443	0.0128003
769.521	0.0128373
769.599	0.0128008
769.677	0.0127655
769.755	0.0127158
769.833	0.0126250
769.911	0.0126765
769.989	0.0126546
770.068	0.0127871
770.146	0.0128038
770.224	0.0125765
770.302	0.0127689
770.380	0.0126103
770.458	0.0126276
770.536	0.0127177
770.614	0.0124806
770.693	0.0125972
770.771	0.0126873
770.849	0.0126987
770.927	0.0128092
771.005	0.0127401
771.083	0.0127560
771.161	0.0128599
771.239	0.0128436
771.318	0.0128636
771.396	0.0128058
771.474	0.0129353
771.552	0.0128341
771.630	0.0128646
771.708	0.0129954
771.786	0.0129900
771.864	0.0128049
771.943	0.0128853
772.021	0.0129794
772.099	0.0129893
772.177	0.0130227
772.255	0.0129465
772.333	0.0128680
772.411	0.0130025
772.489	0.0129995
772.568	0.0129537
772.646	0.0128642
772.724	0.0129456
772.802	0.0127707
772.880	0.0129060
772.958	0.0129549
773.036	0.0128274
773.114	0.0131252
773.193	0.0130604
773.271	0.0130585
773.349	0.0130506
773.427	0.0130575
773.505	0.0130102
773.583	0.0131147
773.661	0.0132967
773.739	0.0130654
773.818	0.0132130
773.896	0.0132087
773.974	0.0133762
774.052	0.0134399
774.130	0.0134049
774.208	0.0133144
774.286	0.0132376
774.364	0.0133359
774.443	0.0133427
774.521	0.0133850
774.599	0.0134793
774.677	0.0132536
774.755	0.0134037
774.833	0.0133435
774.911	0.0132830
774.989	0.0133674
775.068	0.0132467
775.146	0.0130941
775.224	0.0131831
775.302	0.0131443
775.380	0.0131786
775.458	0.0130851
775.536	0.0130215
775.614	0.0128691
775.693	0.0131785
775.771	0.0130183
775.849	0.0129034
775.927	0.0127167
776.005	0.0127665
776.083	0.0128856
776.161	0.0128124
776.239	0.0127002
776.318	0.0129214
776.396	0.0127615
776.474	0.0125903
776.552	0.0127282
776.630	0.0128153
776.708	0.0127206
776.786	0.0128304
776.864	0.0127232
776.943	0.0127341
777.021	0.0128889
777.099	0.0128052
777.177	0.0127673
777.255	0.0128339
777.333	0.0129326
777.411	0.0128687
777.489	0.0127496
777.568	0.0129557
777.646	0.0130926
777.724	0.0129768
777.802	0.0129872
777.880	0.0129261
777.958	0.0130058
778.036	0.0130357
778.114	0.0129433
778.193	0.0131093
778.271	0.0131286
778.349	0.0131674
778.427	0.0131631
778.505	0.0131625
778.583	0.0131905
778.661	0.0132890
778.739	0.0131565
778.818	0.0132829
778.896	0.0130955
778.974	0.0131634
779.052	0.0131615
779.130	0.0130882
779.208	0.0130187
779.286	0.0130947
779.364	0.0131248
779.443	0.0129986
779.521	0.0128909
779.599	0.0129234
779.677	0.0129439
779.755	0.0130602
779.833	0.0129868
779.911	0.0128199
779.989	0.0128852
780.068	0.0128996
780.146	0.0128510
780.224	0.0129181
780.302	0.0129565
780.380	0.0129781
780.458	0.0129591
780.536	0.0130095
780.614	0.0129389
780.693	0.0128666
780.771	0.0128976
780.849	0.0129915
780.927	0.0130915
781.005	0.0130901
781.083	0.0130244
781.161	0.0130096
781.239	0.0129590
781.318	0.0129639
781.396	0.0129094
781.474	0.0127192
781.552	0.0128522
781.630	0.0128393
781.708	0.0128513
781.786	0.0127801
781.864	0.0127238
781.943	0.0126506
782.021	0.0127517
782.099	0.0126753
782.177	0.0126528
782.255	0.0127510
782.333	0.0128777
782.411	0.0126957
782.489	0.0127221
782.568	0.0128231
782.646	0.0127879
782.724	0.0127312
782.802	0.0127814
782.880	0.0128802
782.958	0.0127100
783.036	0.0128520
783.114	0.0128329
783.193	0.0127641
783.271	0.0128346
783.349	0.0127686
783.427	0.0127858
783.505	0.0129364
783.583	0.0129829
783.661	0.0129125
783.739	0.0130147
783.818	0.0131050
783.896	0.0130688
783.974	0.0130174
784.052	0.0129466
784.130	0.0131311
784.208	0.0131806
784.286	0.0131380
784.364	0.0131792
784.443	0.0130700
784.521	0.0131531
784.599	0.0131921
784.677	0.0130339
784.755	0.0130831
784.833	0.0129008
784.911	0.0127903
784.989	0.0128522
785.068	0.0127544
785.146	0.0129323
785.224	0.0128404
785.302	0.0128900
785.380	0.0127511
785.458	0.0125640
785.536	0.0125747
785.614	0.0128017
785.693	0.0127184
785.771	0.0127119
785.849	0.0126526
785.927	0.0125431
786.005	0.0126070
786.083	0.0127517
786.161	0.0127610
786.239	0.0126466
786.318	0.0126936
786.396	0.0125679
786.474	0.0126373
786.552	0.0127731
786.630	0.0127650
786.708	0.0126794
786.786	0.0127822
786.864	0.0126981
786.943	0.0126733
787.021	0.0126041
787.099	0.0127019
787.177	0.0127301
787.255	0.0126480
787.333	0.0125465
787.411	0.0125783
787.489	0.0126773
787.568	0.0125446
787.646	0.0126241
787.724	0.0126118
787.802	0.0128448
787.880	0.0127877
787.958	0.0127966
788.036	0.0128419
788.114	0.0128292
788.193	0.0127155
788.271	0.0129433
788.349	0.0128654
788.427	0.0127515
788.505	0.0130602
788.583	0.0128951
788.661	0.0130353
788.739	0.0130209
788.818	0.0129051
788.896	0.0129634
788.974	0.0129318
789.052	0.0128437
789.130	0.0129678
789.208	0.0127493
789.286	0.0128827
789.364	0.0128597
789.443	0.0128910
789.521	0.0130048
789.599	0.0128886
789.677	0.0128978
789.755	0.0129514
789.833	0.0129213
789.911	0.0130552
789.989	0.0131156
790.068	0.0129029
790.146	0.0129004
790.224	0.0129702
790.302	0.0130275
790.380	0.0129713
790.458	0.0130023
790.536	0.0129894
790.614	0.0130118
790.693	0.0129514
790.771	0.0130534
790.849	0.0130589
790.927	0.0128845
791.005	0.0129574
791.083	0.0129540
791.161	0.0129527
791.239	0.0128316
791.318	0.0130112
791.396	0.0129737
791.474	0.0129491
791.552	0.0130194
791.630	0.0129673
791.708	0.0129664
791.786	0.0129411
791.864	0.0130038
791.943	0.0130139
792.021	0.0131010
792.099	0.0129627
792.177	0.0128393
792.255	0.0128326
792.333	0.0128150
792.411	0.0128133
792.489	0.0127405
792.568	0.0127825
792.646	0.0127728
792.724	0.0126042
792.802	0.0125659
792.880	0.0126647
792.958	0.0124310
793.036	0.0123605
793.114	0.0125641
793.193	0.0124552
793.271	0.0124240
793.349	0.0124201
793.427	0.0125791
793.505	0.0124195
793.583	0.0123392
793.661	0.0124892
793.739	0.0125733
793.818	0.0126436
793.896	0.0126501
793.974	0.0125752
794.052	0.0127930
794.130	0.0128049
794.208	0.0126640
794.286	0.0127866
794.364	0.0128208
794.443	0.0126672
794.521	0.0128392
794.599	0.0128195
794.677	0.0128842
794.755	0.0129815
794.833	0.0129531
794.911	0.0130560
794.989	0.0130857
795.068	0.0129985
795.146	0.0131187
795.224	0.0130812
795.302	0.0130256
795.380	0.0130944
795.458	0.0132197
795.536	0.0130226
795.614	0.0130135
795.693	0.0131110
795.771	0.0130661
795.849	0.0129861
795.927	0.0130265
796.005	0.0129751
796.083	0.0130569
796.161	0.0130363
796.239	0.0129930
796.318	0.0129175
796.396	0.0129629
796.474	0.0128197
796.552	0.0128123
796.630	0.0129357
796.708	0.0128715
796.786	0.0128992
796.864	0.0128951
796.943	0.0129318
797.021	0.0129443
797.099	0.0129482
797.177	0.0127054
797.255	0.0129546
797.333	0.0125343
797.411	0.0126628
797.489	0.0126633
797.568	0.0125310
797.646	0.0127412
797.724	0.0125642
797.802	0.0124527
797.880	0.0124111
797.958	0.0124545
798.036	0.0126485
798.114	0.0126475
798.193	0.0126706
798.271	0.0126687
798.349	0.0126756
798.427	0.0126949
798.505	0.0128342
798.583	0.0127633
798.661	0.0126989
798.739	0.0127860
798.818	0.0127476
798.896	0.0127841
798.974	0.0128989
799.052	0.0128343
799.130	0.0127168
799.208	0.0129575
799.286	0.0128024
799.364	0.0130227
799.443	0.0130817
799.521	0.0129665
799.599	0.0130837
799.677	0.0131467
799.755	0.0130817
799.833	0.0131099
799.911	0.0131618
799.989	0.0133081
800.068	0.0132648
800.146	0.0133203
800.224	0.0132050
800.302	0.0133109
800.380	0.0130685
800.458	0.0129927
800.536	0.0130596
800.614	0.0130153
800.693	0.0130396
800.771	0.0129223
800.849	0.0128278
800.927	0.0127615
801.005	0.0128036
801.083	0.0128062
801.161	0.0127084
801.239	0.0126622
801.318	0.0126992
801.396	0.0127119
801.474	0.0128374
801.552	0.0130312
801.630	0.0128909
801.708	0.0127332
801.786	0.0128559
801.864	0.0130318
801.943	0.0129489
802.021	0.0130856
802.099	0.0131658
802.177	0.0129567
802.255	0.0130335
802.333	0.0129891
802.411	0.0130088
802.489	0.0130351
802.568	0.0131063
802.646	0.0130013
802.724	0.0129588
802.802	0.0129966
802.880	0.0129850
802.958	0.0129224
803.036	0.0129259
803.114	0.0129050
803.193	0.0128192
803.271	0.0128762
803.349	0.0128539
803.427	0.0127897
803.505	0.0127243
803.583	0.0128899
803.661	0.0128876
803.739	0.0125701
803.818	0.0126936
803.896	0.0129305
803.974	0.0129941
804.052	0.0128173
804.130	0.0128622
804.208	0.0129513
804.286	0.0128761
804.364	0.0128846
804.443	0.0129362
804.521	0.0128362
804.599	0.0128593
804.677	0.0127460
804.755	0.0127953
804.833	0.0129202
804.911	0.0127253
804.989	0.0128492
805.068	0.0127986
805.146	0.0127458
805.224	0.0127180
805.302	0.0127103
805.380	0.0126773
805.458	0.0124267
805.536	0.0126781
805.614	0.0126191
805.693	0.0125495
805.771	0.0126017
805.849	0.0126724
805.927	0.0127078
806.005	0.0125837
806.083	0.0126064
806.161	0.0125837
806.239	0.0126529
806.318	0.0125637
806.396	0.0125881
806.474	0.0127687
806.552	0.0126651
806.630	0.0126759
806.708	0.0125818
806.786	0.0126542
806.864	0.0126214
806.943	0.0126778
807.021	0.0127610
807.099	0.0128167
807.177	0.0127354
807.255	0.0128341
807.333	0.0129955
807.411	0.0128896
807.489	0.0129362
807.568	0.0132020
807.646	0.0130934
807.724	0.0131222
807.802	0.0131445
807.880	0.0131608
807.958	0.0131079
808.036	0.0131036
808.114	0.0131615
808.193	0.0131207
808.271	0.0131975
808.349	0.0132777
808.427	0.0132124
808.505	0.0131652
808.583	0.0131222
808.661	0.0129371
808.739	0.0130562
808.818	0.0130605
808.896	0.0129270
808.974	0.0129110
809.052	0.0131052
809.130	0.0129983
809.208	0.0129584
809.286	0.0128743
809.364	0.0128304
809.443	0.0129547
809.521	0.0129115
809.599	0.0128656
809.677	0.0127541
809.755	0.0127762
809.833	0.0129483
809.911	0.0126320
809.989	0.0126902
810.068	0.0127458
810.146	0.0126038
810.224	0.0126865
810.302	0.0127573
810.380	0.0125544
810.458	0.0126519
810.536	0.0124731
810.614	0.0127233
810.693	0.0127034
810.771	0.0128125
810.849	0.0128075
810.927	0.0127674
811.005	0.0127489
811.083	0.0127972
811.161	0.0128046
811.239	0.0126072
811.318	0.0125998
811.396	0.0125510
811.474	0.0127579
811.552	0.0125587
811.630	0.0126008
811.708	0.0128066
811.786	0.0127325
811.864	0.0127135
811.943	0.0128210
812.021	0.0126887
812.099	0.0127996
812.177	0.0127937
812.255	0.0127851
812.333	0.0128039
812.411	0.0127726
812.489	0.0127103
812.568	0.0127493
812.646	0.0127465
812.724	0.0127522
812.802	0.0126759
812.880	0.0127654
812.958	0.0128006
813.036	0.0128779
813.114	0.0128445
813.193	0.0129062
813.271	0.0128562
813.349	0.0127831
813.427	0.0128815
813.505	0.0128265
813.583	0.0128139
813.661	0.0128552
813.739	0.0128674
813.818	0.0128757
813.896	0.0129529
813.974	0.0128201
814.052	0.0129007
814.130	0.0129588
814.208	0.0128993
814.286	0.0130672
814.364	0.0131163
814.443	0.0129933
814.521	0.0130978
814.599	0.0132739
814.677	0.0133065
814.755	0.0132211
814.833	0.0131506
814.911	0.0131022
814.989	0.0130903
815.068	0.0129486
815.146	0.0129561
815.224	0.0129917
815.302	0.0130383
815.380	0.0129608
815.458	0.0128059
815.536	0.0128598
815.614	0.0128761
815.693	0.0129721
815.771	0.0128091
815.849	0.0127919
815.927	0.0129423
816.005	0.0127676
816.083	0.0130486
816.161	0.0129532
816.239	0.0129990
816.318	0.0129399
816.396	0.0127752
816.474	0.0128198
816.552	0.0128990
816.630	0.0127102
816.708	0.0128377
816.786	0.0127710
816.864	0.0127525
816.943	0.0127363
817.021	0.0128353
817.099	0.0125553
817.177	0.0127105
817.255	0.0127341
817.333	0.0127349
817.411	0.0127979
817.489	0.0128041
817.568	0.0128072
817.646	0.0128707
817.724	0.0129206
817.802	0.0129594
817.880	0.0129669
817.958	0.0129964
818.036	0.0127956
818.114	0.0128564
818.193	0.0128108
818.271	0.0127357
818.349	0.0126147
818.427	0.0127557
818.505	0.0127139
818.583	0.0128156
818.661	0.0127357
818.739	0.0127665
818.818	0.0126201
818.896	0.0127473
818.974	0.0128789
819.052	0.0127969
819.130	0.0127225
819.208	0.0130151
819.286	0.0130965
819.364	0.0129530
819.443	0.0130663
819.521	0.0130204
819.599	0.0128969
819.677	0.0129249
819.755	0.0131190
819.833	0.0130498
819.911	0.0130733
819.989	0.0130726
820.068	0.0130829
820.146	0.0130092
820.224	0.0129433
820.302	0.0130615
820.380	0.0130045
820.458	0.0129112
820.536	0.0129399
820.614	0.0130737
820.693	0.0130505
820.771	0.0129416
820.849	0.0130127
820.927	0.0130605
821.005	0.0129710
821.083	0.0130826
821.161	0.0129562
821.239	0.0129194
821.318	0.0130425
821.396	0.0131536
821.474	0.0131181
821.552	0.0130989
821.630	0.0131438
821.708	0.0130655
821.786	0.0129728
821.864	0.0130883
821.943	0.0128699
822.021	0.0129568
822.099	0.0128944
822.177	0.0127878
822.255	0.0128944
822.333	0.0130511
822.411	0.0129476
822.489	0.0128498
822.568	0.0128168
822.646	0.0127703
822.724	0.0128716
822.802	0.0130012
822.880	0.0129031
822.958	0.0130055
823.036	0.0129203
823.114	0.0129237
823.193	0.0127695
823.271	0.0127899
823.349	0.0125856
823.427	0.0127425
823.505	0.0126685
823.583	0.0126239
823.661	0.0126475
823.739	0.0127158
823.818	0.0127306
823.896	0.0126915
823.974	0.0126691
824.052	0.0126653
824.130	0.0127486
824.208	0.0127438
824.286	0.0126690
824.364	0.0127840
824.443	0.0127670
824.521	0.0130029
824.599	0.0128058
824.677	0.0128893
824.755	0.0128021
824.833	0.0129821
824.911	0.0128043
824.989	0.0129129
825.068	0.0128842
825.146	0.0129225
825.224	0.0127992
825.302	0.0129401
825.380	0.0129018
825.458	0.0127341
825.536	0.0127238
825.614	0.0128342
825.693	0.0129007
825.771	0.0128889
825.849	0.0128750
825.927	0.0128947
826.005	0.0127005
826.083	0.0128064
826.161	0.0129364
826.239	0.0128477
826.318	0.0129317
826.396	0.0127547
826.474	0.0128104
826.552	0.0128928
826.630	0.0129402
826.708	0.0128683
826.786	0.0128398
826.864	0.0127995
826.943	0.0128617
827.021	0.0128015
827.099	0.0126587
827.177	0.0127771
827.255	0.0128047
827.333	0.0126488
827.411	0.0127238
827.489	0.0128142
827.568	0.0128788
827.646	0.0128114
827.724	0.0126878
827.802	0.0127723
827.880	0.0126961
827.958	0.0127884
828.036	0.0128506
828.114	0.0129163
828.193	0.0128263
828.271	0.0129661
828.349	0.0130361
828.427	0.0130841
828.505	0.0131350
828.583	0.0129707
828.661	0.0130241
828.739	0.0131522
828.818	0.0129985
828.896	0.0130412
828.974	0.0130518
829.052	0.0128783
829.130	0.0128606
829.208	0.0128610
829.286	0.0128564
829.364	0.0129357
829.443	0.0128987
829.521	0.0126855
829.599	0.0128354
829.677	0.0127039
829.755	0.0126683
829.833	0.0127756
829.911	0.0128166
829.989	0.0127007
830.068	0.0125542
830.146	0.0125656
830.224	0.0125076
830.302	0.0126068
830.380	0.0125380
830.458	0.0124899
830.536	0.0125894
830.614	0.0124594
830.693	0.0124133
830.771	0.0125063
830.849	0.0126144
830.927	0.0127136
831.005	0.0126389
831.083	0.0126511
831.161	0.0126980
831.239	0.0128027
831.318	0.0128104
831.396	0.0128511
831.474	0.0129089
831.552	0.0128881
831.630	0.0129947
831.708	0.0129123
831.786	0.0128697
831.864	0.0129916
831.943	0.0131218
832.021	0.0130592
832.099	0.0129422
832.177	0.0130029
832.255	0.0130196
832.333	0.0130483
832.411	0.0130057
832.489	0.0130697
832.568	0.0130273
832.646	0.0130136
832.724	0.0129254
832.802	0.0128486
832.880	0.0129750
832.958	0.0128587
833.036	0.0128706
833.114	0.0128642
833.193	0.0128029
833.271	0.0128855
833.349	0.0128687
833.427	0.0129588
833.505	0.0129748
833.583	0.0129089
833.661	0.0128813
833.739	0.0128087
833.818	0.0129374
833.896	0.0127645
833.974	0.0127752
834.052	0.0128371
834.130	0.0127905
834.208	0.0128236
834.286	0.0127074
834.364	0.0126684
834.443	0.0126842
834.521	0.0127048
834.599	0.0127498
834.677	0.0128438
834.755	0.0127776
834.833	0.0127495
834.911	0.0126861
834.989	0.0128103
835.068	0.0127895
835.146	0.0127563
835.224	0.0127087
835.302	0.0127573
835.380	0.0127802
835.458	0.0126884
835.536	0.0129040
835.614	0.0127015
835.693	0.0127825
835.771	0.0127431
835.849	0.0128673
835.927	0.0128117
836.005	0.0128336
836.083	0.0128004
836.161	0.0129886
836.239	0.0127675
836.318	0.0127927
836.396	0.0129271
836.474	0.0128716
836.552	0.0127692
836.630	0.0128102
836.708	0.0129144
836.786	0.0128885
836.864	0.0129613
836.943	0.0130144
837.021	0.0130327
837.099	0.0129385
837.177	0.0130334
837.255	0.0129159
837.333	0.0129638
837.411	0.0128002
837.489	0.0128034
837.568	0.0128085
837.646	0.0126888
837.724	0.0128745
837.802	0.0128748
837.880	0.0127534
837.958	0.0128204
838.036	0.0126479
838.114	0.0127544
838.193	0.0127708
838.271	0.0127589
838.349	0.0127272
838.427	0.0128643
838.505	0.0126775
838.583	0.0127568
838.661	0.0128658
838.739	0.0129120
838.818	0.0128480
838.896	0.0129076
838.974	0.0130318
839.052	0.0131155
839.130	0.0130128
839.208	0.0129958
839.286	0.0130171
839.364	0.0130295
839.443	0.0130510
839.521	0.0129491
839.599	0.0130148
839.677	0.0131467
839.755	0.0129443
839.833	0.0129620
839.911	0.0129855
839.989	0.0130222
840.068	0.0129911
840.146	0.0129728
840.224	0.0129414
840.302	0.0130119
840.380	0.0128906
840.458	0.0128468
840.536	0.0129308
840.614	0.0127811
840.693	0.0129549
840.771	0.0129269
840.849	0.0129882
840.927	0.0130129
841.005	0.0129082
841.083	0.0129438
841.161	0.0127954
841.239	0.0130067
841.318	0.0128764
841.396	0.0128992
841.474	0.0128990
841.552	0.0130476
841.630	0.0129053
841.708	0.0129046
841.786	0.0129275
841.864	0.0128328
841.943	0.0129527
842.021	0.0128007
842.099	0.0127727
842.177	0.0128547
842.255	0.0127352
842.333	0.0128932
842.411	0.0129045
842.489	0.0128999
842.568	0.0127833
842.646	0.0127913
842.724	0.0127990
842.802	0.0126201
842.880	0.0127669
842.958	0.0127272
843.036	0.0128449
843.114	0.0127841
843.193	0.0126172
843.271	0.0128083
843.349	0.0128273
843.427	0.0127425
843.505	0.0126626
843.583	0.0126915
843.661	0.0128693
843.739	0.0129128
843.818	0.0126937
843.896	0.0128162
843.974	0.0129121
844.052	0.0129689
844.130	0.0128928
844.208	0.0129546
844.286	0.0129890
844.364	0.0130817
844.443	0.0131392
844.521	0.0130529
844.599	0.0130896
844.677	0.0128542
844.755	0.0129903
844.833	0.0132217
844.911	0.0130682
844.989	0.0131445
845.068	0.0129855
845.146	0.0129626
845.224	0.0130734
845.302	0.0130946
845.380	0.0130276
845.458	0.0128784
845.536	0.0129413
845.614	0.0129997
845.693	0.0129607
845.771	0.0129135
845.849	0.0128740
845.927	0.0127345
846.005	0.0128897
846.083	0.0127760
846.161	0.0127679
846.239	0.0126243
846.318	0.0127005
846.396	0.0127010
846.474	0.0126259
846.552	0.0126689
846.630	0.0128003
846.708	0.0127593
846.786	0.0126266
846.864	0.0127663
846.943	0.0127891
847.021	0.0128327
847.099	0.0127891
847.177	0.0127010
847.255	0.0127621
847.333	0.0127605
847.411	0.0126733
847.489	0.0126772
847.568	0.0128208
847.646	0.0128669
847.724	0.0128724
847.802	0.0129622
847.880	0.0130130
847.958	0.0127631
848.036	0.0127137
848.114	0.0128041
848.193	0.0129066
848.271	0.0129450
848.349	0.0128657
848.427	0.0129514
848.505	0.0130962
848.583	0.0130154
848.661	0.0130444
848.739	0.0129613
848.818	0.0129230
848.896	0.0131194
848.974	0.0130077
849.052	0.0130104
849.130	0.0129638
849.208	0.0129482
849.286	0.0129624
849.364	0.0129775
849.443	0.0130075
849.521	0.0129049
849.599	0.0129497
849.677	0.0129238
849.755	0.0129311
849.833	0.0128584
849.911	0.0128761
849.989	0.0130297
850.068	0.0128554
850.146	0.0128652
850.224	0.0128304
850.302	0.0130470
850.380	0.0129487
850.458	0.0129323
850.536	0.0129481
850.614	0.0129176
850.693	0.0130324
850.771	0.0128845
850.849	0.0127979
850.927	0.0129249
851.005	0.0129049
851.083	0.0128429
851.161	0.0129120
851.239	0.0128784
851.318	0.0128935
851.396	0.0128049
851.474	0.0129010
851.552	0.0128605
851.630	0.0129253
851.708	0.0128219
851.786	0.0128825
851.864	0.0128324
851.943	0.0127258
852.021	0.0128680
852.099	0.0130092
852.177	0.0130188
852.255	0.0129070
852.333	0.0129880
852.411	0.0129850
852.489	0.0127687
852.568	0.0130920
852.646	0.0128641
852.724	0.0129155
852.802	0.0130605
852.880	0.0130083
852.958	0.0131009
853.036	0.0131338
853.114	0.0130075
853.193	0.0130904
853.271	0.0129698
853.349	0.0130560
853.427	0.0130166
853.505	0.0129340
853.583	0.0128902
853.661	0.0128896
853.739	0.0129219
853.818	0.0129487
853.896	0.0129413
853.974	0.0127554
854.052	0.0128569
854.130	0.0128779
854.208	0.0128394
854.286	0.0127918
854.364	0.0126704
854.443	0.0128988
854.521	0.0127103
854.599	0.0128081
854.677	0.0128146
854.755	0.0126373
854.833	0.0126904
854.911	0.0126828
854.989	0.0126670
855.068	0.0127533
855.146	0.0127193
855.224	0.0126232
855.302	0.0126489
855.380	0.0125739
855.458	0.0127198
855.536	0.0125761
855.614	0.0125481
855.693	0.0126392
855.771	0.0126855
855.849	0.0126700
855.927	0.0125965
856.005	0.0127491
856.083	0.0127666
856.161	0.0127834
856.239	0.0127059
856.318	0.0128544
856.396	0.0128107
856.474	0.0127712
856.552	0.0128481
856.630	0.0130346
856.708	0.0130035
856.786	0.0131061
856.864	0.0130275
856.943	0.0130774
857.021	0.0130589
857.099	0.0131777
857.177	0.0129848
857.255	0.0130802
857.333	0.0130930
857.411	0.0130655
857.489	0.0129638
857.568	0.0130841
857.646	0.0129639
857.724	0.0130887
857.802	0.0130173
857.880	0.0129596
857.958	0.0129967
858.036	0.0129759
858.114	0.0130122
858.193	0.0130427
858.271	0.0129852
858.349	0.0130106
858.427	0.0128973
858.505	0.0128850
858.583	0.0128922
858.661	0.0129043
858.739	0.0128732
858.818	0.0127249
858.896	0.0128331
858.974	0.0128191
859.052	0.0128364
859.130	0.0129202
859.208	0.0129762
859.286	0.0129298
859.364	0.0128213
859.443	0.0127800
859.521	0.0127742
859.599	0.0128209
859.677	0.0126096
859.755	0.0127325
859.833	0.0125642
859.911	0.0127168
859.989	0.0127413
860.068	0.0127602
860.146	0.0126750
860.224	0.0125818
860.302	0.0126326
860.380	0.0125549
860.458	0.0126387
860.536	0.0126099
860.614	0.0128046
860.693	0.0127756
860.771	0.0127263
860.849	0.0127270
860.927	0.0127698
861.005	0.0127000
861.083	0.0128010
861.161	0.0128977
861.239	0.0130476
861.318	0.0128728
861.396	0.0129192
861.474	0.0130394
861.552	0.0130875
861.630	0.0131462
861.708	0.0129546
861.786	0.0130988
861.864	0.0131367
861.943	0.0130924
862.021	0.0131461
862.099	0.0130910
862.177	0.0130895
862.255	0.0131454
862.333	0.0131873
862.411	0.0131142
862.489	0.0129666
862.568	0.0130228
862.646	0.0129253
862.724	0.0130161
862.802	0.0130157
862.880	0.0128937
862.958	0.0127460
863.036	0.0129013
863.114	0.0129543
863.193	0.0130386
863.271	0.0130988
863.349	0.0129003
863.427	0.0128576
863.505	0.0129742
863.583	0.0131341
863.661	0.0129627
863.739	0.0128427
863.818	0.0128085
863.896	0.0128916
863.974	0.0129379
864.052	0.0129171
864.130	0.0128466
864.208	0.0128584
864.286	0.0129227
864.364	0.0129970
864.443	0.0128977
864.521	0.0128856
864.599	0.0129335
864.677	0.0129587
864.755	0.0130289
864.833	0.0128817
864.911	0.0129187
864.989	0.0130277
865.068	0.0129686
865.146	0.0128009
865.224	0.0129030
865.302	0.0129683
865.380	0.0128376
865.458	0.0129564
865.536	0.0128253
865.614	0.0128272
865.693	0.0128529
865.771	0.0130479
865.849	0.0128622
865.927	0.0128821
866.005	0.0129622
866.083	0.0129893
866.161	0.0129512
866.239	0.0128907
866.318	0.0130073
866.396	0.0129317
866.474	0.0129351
866.552	0.0130761
866.630	0.0131374
866.708	0.0128413
866.786	0.0130074
866.864	0.0131265
866.943	0.0129985
867.021	0.0128740
867.099	0.0129173
867.177	0.0129025
867.255	0.0129509
867.333	0.0128352
867.411	0.0130625
867.489	0.0127801
867.568	0.0127745
867.646	0.0128681
867.724	0.0128131
867.802	0.0128441
867.880	0.0127348
867.958	0.0127378
868.036	0.0127821
868.114	0.0125750
868.193	0.0128460
868.271	0.0127058
868.349	0.0126830
868.427	0.0126944
868.505	0.0126619
868.583	0.0127510
868.661	0.0127552
868.739	0.0128513
868.818	0.0128158
868.896	0.0127319
868.974	0.0129104
869.052	0.0129765
869.130	0.0127943
869.208	0.0127896
869.286	0.0128901
869.364	0.0128358
869.443	0.0130704
869.521	0.0128785
869.599	0.0130604
869.677	0.0130096
869.755	0.0129613
869.833	0.0129361
869.911	0.0129565
869.989	0.0129271
870.068	0.0128719
870.146	0.0127531
870.224	0.0128698
870.302	0.0128356
870.380	0.0127145
870.458	0.0127668
870.536	0.0127278
870.614	0.0128181
870.693	0.0127232
870.771	0.0127710
870.849	0.0128004
870.927	0.0128464
871.005	0.0125979
871.083	0.0125700
871.161	0.0127953
871.239	0.0128215
871.318	0.0129772
871.396	0.0128034
871.474	0.0128471
871.552	0.0128537
871.630	0.0129862
871.708	0.0128716
871.786	0.0127647
871.864	0.0129302
871.943	0.0129359
872.021	0.0130115
872.099	0.0130900
872.177	0.0130181
872.255	0.0129310
872.333	0.0129411
872.411	0.0130489
872.489	0.0130216
872.568	0.0131075
872.646	0.0128634
872.724	0.0129085
872.802	0.0130169
872.880	0.0130405
872.958	0.0130006
873.036	0.0129992
873.114	0.0128261
873.193	0.0129234
873.271	0.0129048
873.349	0.0128191
873.427	0.0128719
873.505	0.0129582
873.583	0.0128819
873.661	0.0128571
873.739	0.0130096
873.818	0.0128781
873.896	0.0129031
873.974	0.0129922
874.052	0.0129513
874.130	0.0129863
874.208	0.0129678
874.286	0.0129173
874.364	0.0130785
874.443	0.0129546
874.521	0.0128893
874.599	0.0128861
874.677	0.0130782
874.755	0.0129250
874.833	0.0128752
874.911	0.0129154
874.989	0.0129673
875.068	0.0128888
875.146	0.0128807
875.224	0.0128432
875.302	0.0128989
875.380	0.0128284
875.458	0.0128210
875.536	0.0127811
875.614	0.0127818
875.693	0.0128680
875.771	0.0129807
875.849	0.0128131
875.927	0.0127441
876.005	0.0128593
876.083	0.0128876
876.161	0.0128795
876.239	0.0128239
876.318	0.0129073
876.396	0.0129259
876.474	0.0130029
876.552	0.0129317
876.630	0.0128609
876.708	0.0128716
876.786	0.0129434
876.864	0.0130233
876.943	0.0130086
877.021	0.0129585
877.099	0.0128443
877.177	0.0129448
877.255	0.0130064
877.333	0.0129868
877.411	0.0129440
877.489	0.0129787
877.568	0.0129137
877.646	0.0128334
877.724	0.0128864
877.802	0.0129135
877.880	0.0129749
877.958	0.0128479
878.036	0.0128343
878.114	0.0128336
878.193	0.0129659
878.271	0.0128729
878.349	0.0130042
878.427	0.0129989
878.505	0.0127811
878.583	0.0129379
878.661	0.0128395
878.739	0.0128043
878.818	0.0128869
878.896	0.0128611
878.974	0.0128212
879.052	0.0128344
879.130	0.0127775
879.208	0.0127614
879.286	0.0126536
879.364	0.0127579
879.443	0.0127929
879.521	0.0127834
879.599	0.0127666
879.677	0.0127377
879.755	0.0127683
879.833	0.0127219
879.911	0.0125977
879.989	0.0125098
880.068	0.0126828
880.146	0.0127559
880.224	0.0128857
880.302	0.0127156
880.380	0.0126711
880.458	0.0127010
880.536	0.0127407
880.614	0.0126164
880.693	0.0127744
880.771	0.0127336
880.849	0.0125584
880.927	0.0126582
881.005	0.0127563
881.083	0.0126674
881.161	0.0127493
881.239	0.0126440
881.318	0.0126744
881.396	0.0128472
881.474	0.0128086
881.552	0.0128902
881.630	0.0129048
881.708	0.0128358
881.786	0.0129014
881.864	0.0129810
881.943	0.0129620
882.021	0.0128133
882.099	0.0129866
882.177	0.0129897
882.255	0.0128825
882.333	0.0128638
882.411	0.0129031
882.489	0.0127309
882.568	0.0127879
882.646	0.0129021
882.724	0.0128268
882.802	0.0128548
882.880	0.0127592
882.958	0.0127859
883.036	0.0128766
883.114	0.0129151
883.193	0.0127350
883.271	0.0125711
883.349	0.0128274
883.427	0.0128950
883.505	0.0127043
883.583	0.0128432
883.661	0.0129285
883.739	0.0128828
883.818	0.0128979
883.896	0.0129060
883.974	0.0129743
884.052	0.0128645
884.130	0.0129091
884.208	0.0130685
884.286	0.0130324
884.364	0.0129193
884.443	0.0129190
884.521	0.0129514
884.599	0.0130972
884.677	0.0130292
884.755	0.0129562
884.833	0.0130418
884.911	0.0130939
884.989	0.0128565
885.068	0.0130486
885.146	0.0130806
885.224	0.0129676
885.302	0.0128870
885.380	0.0129663
885.458	0.0128699
885.536	0.0130592
885.614	0.0127730
885.693	0.0128117
885.771	0.0128582
885.849	0.0129183
885.927	0.0128257
886.005	0.0127944
886.083	0.0128256
886.161	0.0127950
886.239	0.0127251
886.318	0.0127711
886.396	0.0127726
886.474	0.0127522
886.552	0.0127434
886.630	0.0127517
886.708	0.0127303
886.786	0.0124901
886.864	0.0126178
886.943	0.0126477
887.021	0.0126849
887.099	0.0127135
887.177	0.0125922
887.255	0.0128088
887.333	0.0127164
887.411	0.0126559
887.489	0.0127655
887.568	0.0127594
887.646	0.0126581
887.724	0.0128345
887.802	0.0127441
887.880	0.0127691
887.958	0.0127083
888.036	0.0127731
888.114	0.0127489
888.193	0.0127595
888.271	0.0128638
888.349	0.0128625
888.427	0.0128204
888.505	0.0128835
888.583	0.0128291
888.661	0.0128662
888.739	0.0128416
888.818	0.0127702
888.896	0.0127698
888.974	0.0128950
889.052	0.0129485
889.130	0.0128384
889.208	0.0128568
889.286	0.0127615
889.364	0.0128722
889.443	0.0128951
889.521	0.0129117
889.599	0.0127562
889.677	0.0129634
889.755	0.0129958
889.833	0.0128200
889.911	0.0129057
889.989	0.0130376
890.068	0.0129457
890.146	0.0129337
890.224	0.0130948
890.302	0.0130537
890.380	0.0130782
890.458	0.0130418
890.536	0.0130708
890.614	0.0131782
890.693	0.0130836
890.771	0.0129195
890.849	0.0128825
890.927	0.0130360
891.005	0.0130350
891.083	0.0128910
891.161	0.0128958
891.239	0.0129694
891.318	0.0129175
891.396	0.0129337
891.474	0.0129672
891.552	0.0128117
891.630	0.0130501
891.708	0.0130872
891.786	0.0127322
891.864	0.0129444
891.943	0.0129388
892.021	0.0128697
892.099	0.0127916
892.177	0.0128564
892.255	0.0128011
892.333	0.0127601
892.411	0.0127728
892.489	0.0127250
892.568	0.0126865
892.646	0.0127432
892.724	0.0127393
892.802	0.0125729
892.880	0.0125028
892.958	0.0125404
893.036	0.0128711
893.114	0.0127953
893.193	0.0127416
893.271	0.0127995
893.349	0.0127566
893.427	0.0125867
893.505	0.0127308
893.583	0.0126295
893.661	0.0128770
893.739	0.0129645
893.818	0.0127726
893.896	0.0127161
893.974	0.0129042
894.052	0.0127158
894.130	0.0127697
894.208	0.0127766
894.286	0.0127664
894.364	0.0127487
894.443	0.0128799
894.521	0.0129942
894.599	0.0127767
894.677	0.0128319
894.755	0.0127912
894.833	0.0128188
894.911	0.0128294
894.989	0.0128452
895.068	0.0129287
895.146	0.0129771
895.224	0.0129378
895.302	0.0129813
895.380	0.0130180
895.458	0.0130287
895.536	0.0130511
895.614	0.0130794
895.693	0.0130767
895.771	0.0129459
895.849	0.0129590
895.927	0.0130702
896.005	0.0129882
896.083	0.0128676
896.161	0.0129313
896.239	0.0130223
896.318	0.0130048
896.396	0.0130309
896.474	0.0130923
896.552	0.0131202
896.630	0.0129595
896.708	0.0129934
896.786	0.0129954
896.864	0.0129874
896.943	0.0129624
897.021	0.0130153
897.099	0.0129736
897.177	0.0129379
897.255	0.0129663
897.333	0.0129253
897.411	0.0129414
897.489	0.0130139
897.568	0.0128442
897.646	0.0129543
897.724	0.0127406
897.802	0.0128432
897.880	0.0129346
897.958	0.0128320
898.036	0.0128328
898.114	0.0129680
898.193	0.0128879
898.271	0.0128648
898.349	0.0127615
898.427	0.0127292
898.505	0.0125820
898.583	0.0126794
898.661	0.0126923
898.739	0.0127543
898.818	0.0125265
898.896	0.0126771
898.974	0.0126850
899.052	0.0126720
899.130	0.0127112
899.208	0.0127399
899.286	0.0127495
899.364	0.0128367
899.443	0.0127006
899.521	0.0127261
899.599	0.0128907
899.677	0.0128830
899.755	0.0129131
899.833	0.0128798
899.911	0.0128079
899.989	0.0128345
900.068	0.0128784
900.146	0.0128883
900.224	0.0129330
900.302	0.0130098
900.380	0.0129945
900.458	0.0130414
900.536	0.0129707
900.614	0.0128534
900.693	0.0130923
900.771	0.0130518
900.849	0.0131069
900.927	0.0130738
901.005	0.0131471
901.083	0.0131873
901.161	0.0130843
901.239	0.0130331
901.318	0.0132230
901.396	0.0132283
901.474	0.0131300
901.552	0.0131828
901.630	0.0130350
901.708	0.0130299
901.786	0.0129833
901.864	0.0129448
901.943	0.0131402
902.021	0.0130966
902.099	0.0130554
902.177	0.0130102
902.255	0.0129661
902.333	0.0128926
902.411	0.0130534
902.489	0.0127833
902.568	0.0129243
902.646	0.0130370
902.724	0.0128500
902.802	0.0129339
902.880	0.0128601
902.958	0.0128352
903.036	0.0128698
903.114	0.0130219
903.193	0.0129800
903.271	0.0129108
903.349	0.0128143
903.427	0.0129616
903.505	0.0128793
903.583	0.0128578
903.661	0.0129051
903.739	0.0126341
903.818	0.0129024
903.896	0.0128763
903.974	0.0127832
904.052	0.0128384
904.130	0.0127880
904.208	0.0127821
904.286	0.0129089
904.364	0.0127927
904.443	0.0127363
904.521	0.0127722
904.599	0.0129324
904.677	0.0128650
904.755	0.0129178
904.833	0.0127225
904.911	0.0127733
904.989	0.0126377
905.068	0.0128255
905.146	0.0127574
905.224	0.0127440
905.302	0.0127502
905.380	0.0128312
905.458	0.0128470
905.536	0.0128591
905.614	0.0130416
905.693	0.0129053
905.771	0.0129377
905.849	0.0127850
905.927	0.0129284
906.005	0.0130385
906.083	0.0130708
906.161	0.0130148
906.239	0.0129433
906.318	0.0130879
906.396	0.0129163
906.474	0.0130215
906.552	0.0129877
906.630	0.0130738
906.708	0.0130122
906.786	0.0129430
906.864	0.0129890
906.943	0.0129369
907.021	0.0128953
907.099	0.0128411
907.177	0.0129511
907.255	0.0129093
907.333	0.0128536
907.411	0.0128219
907.489	0.0130219
907.568	0.0129049
907.646	0.0127642
907.724	0.0129011
907.802	0.0129707
907.880	0.0128448
907.958	0.0128854
908.036	0.0129560
908.114	0.0129021
908.193	0.0129413
908.271	0.0128867
908.349	0.0128344
908.427	0.0129028
908.505	0.0129317
908.583	0.0127467
908.661	0.0127813
908.739	0.0128419
908.818	0.0126638
908.896	0.0127138
908.974	0.0127180
909.052	0.0127287
909.130	0.0128298
909.208	0.0129006
909.286	0.0126843
909.364	0.0126920
909.443	0.0127961
909.521	0.0127718
909.599	0.0126841
909.677	0.0126799
909.755	0.0128033
909.833	0.0127827
909.911	0.0125803
909.989	0.0127180
910.068	0.0127215
910.146	0.0128393
910.224	0.0127618
910.302	0.0124672
910.380	0.0126868
910.458	0.0126687
910.536	0.0127026
910.614	0.0126470
910.693	0.0126817
910.771	0.0129029
910.849	0.0127124
910.927	0.0126060
911.005	0.0127383
911.083	0.0127306
911.161	0.0125100
911.239	0.0126974
911.318	0.0127025
911.396	0.0126433
911.474	0.0127280
911.552	0.0127012
911.630	0.0127092
911.708	0.0128027
911.786	0.0127925
911.864	0.0127019
911.943	0.0128129
912.021	0.0127978
912.099	0.0128252
912.177	0.0127060
912.255	0.0127526
912.333	0.0127181
912.411	0.0129288
912.489	0.0129082
912.568	0.0127922
912.646	0.0126880
912.724	0.0127534
912.802	0.0127989
912.880	0.0128850
912.958	0.0128471
913.036	0.0128318
913.114	0.0127328
913.193	0.0127010
913.271	0.0127913
913.349	0.0127216
913.427	0.0128136
913.505	0.0127758
913.583	0.0127361
913.661	0.0128566
913.739	0.0128728
913.818	0.0127721
913.896	0.0127406
913.974	0.0128490
914.052	0.0127205
914.130	0.0127438
914.208	0.0128278
914.286	0.0128466
914.364	0.0128240
914.443	0.0129658
914.521	0.0128042
914.599	0.0127216
914.677	0.0128334
914.755	0.0127550
914.833	0.0128061
914.911	0.0129903
914.989	0.0126846
915.068	0.0128705
915.146	0.0129881
915.224	0.0129173
915.302	0.0128304
915.380	0.0130070
915.458	0.0128470
915.536	0.0128098
915.614	0.0128780
915.693	0.0128960
915.771	0.0127843
915.849	0.0129436
915.927	0.0127888
916.005	0.0128466
916.083	0.0128230
916.161	0.0127026
916.239	0.0129380
916.318	0.0127997
916.396	0.0128466
916.474	0.0128330
916.552	0.0129052
916.630	0.0127887
916.708	0.0128467
916.786	0.0128683
916.864	0.0129468
916.943	0.0129547
917.021	0.0128812
917.099	0.0129613
917.177	0.0128138
917.255	0.0127689
917.333	0.0129520
917.411	0.0129504
917.489	0.0129391
917.568	0.0130563
917.646	0.0127465
917.724	0.0128271
917.802	0.0129609
917.880	0.0128524
917.958	0.0129533
918.036	0.0129794
918.114	0.0129169
918.193	0.0128268
918.271	0.0127705
918.349	0.0128178
918.427	0.0128839
918.505	0.0128529
918.583	0.0128833
918.661	0.0129041
918.739	0.0128105
918.818	0.0128648
918.896	0.0130272
918.974	0.0128737
919.052	0.0129323
919.130	0.0128685
919.208	0.0129740
919.286	0.0128864
919.364	0.0127889
919.443	0.0129494
919.521	0.0129579
919.599	0.0130147
919.677	0.0129173
919.755	0.0129134
919.833	0.0129592
919.911	0.0129116
919.989	0.0129901
920.068	0.0130254
920.146	0.0129131
920.224	0.0130486
920.302	0.0129507
920.380	0.0128890
920.458	0.0128516
920.536	0.0129037
920.614	0.0130264
920.693	0.0129561
920.771	0.0130299
920.849	0.0129260
920.927	0.0129533
921.005	0.0129425
921.083	0.0128812
921.161	0.0128611
921.239	0.0130123
921.318	0.0129169
921.396	0.0129295
921.474	0.0129281
921.552	0.0129153
921.630	0.0129084
921.708	0.0127141
921.786	0.0128936
921.864	0.0129910
921.943	0.0126751
922.021	0.0128438
922.099	0.0129516
922.177	0.0129089
922.255	0.0128308
922.333	0.0127508
922.411	0.0128984
922.489	0.0128394
922.568	0.0128444
922.646	0.0128951
922.724	0.0128758
922.802	0.0127699
922.880	0.0127579
922.958	0.0128489
923.036	0.0127479
923.114	0.0127246
923.193	0.0130009
923.271	0.0128005
923.349	0.0127957
923.427	0.0128445
923.505	0.0129064
923.583	0.0128387
923.661	0.0129837
923.739	0.0127494
923.818	0.0127983
923.896	0.0128767
923.974	0.0128205
924.052	0.0128736
924.130	0.0128645
924.208	0.0127428
924.286	0.0128174
924.364	0.0128811
924.443	0.0129869
924.521	0.0131007
924.599	0.0128985
924.677	0.0129543
924.755	0.0129658
924.833	0.0131062
924.911	0.0130390
924.989	0.0130605
925.068	0.0130164
925.146	0.0129200
925.224	0.0129614
925.302	0.0130396
925.380	0.0130278
925.458	0.0130797
925.536	0.0130451
925.614	0.0130976
925.693	0.0131399
925.771	0.0130539
925.849	0.0130517
925.927	0.0130972
926.005	0.0131188
926.083	0.0131065
926.161	0.0130597
926.239	0.0131124
926.318	0.0130925
926.396	0.0130446
926.474	0.0132935
926.552	0.0130011
926.630	0.0129189
926.708	0.0130585
926.786	0.0129550
926.864	0.0130694
926.943	0.0130523
927.021	0.0130834
927.099	0.0129873
927.177	0.0130013
927.255	0.0130468
927.333	0.0129891
927.411	0.0130560
927.489	0.0130017
927.568	0.0127956
927.646	0.0129829
927.724	0.0129935
927.802	0.0129094
927.880	0.0129357
927.958	0.0128634
928.036	0.0128827
928.114	0.0129854
928.193	0.0129178
928.271	0.0127563
928.349	0.0129324
928.427	0.0127797
928.505	0.0127437
928.583	0.0127808
928.661	0.0129879
928.739	0.0128850
928.818	0.0128799
928.896	0.0129094
928.974	0.0129219
929.052	0.0126215
929.130	0.0126559
929.208	0.0128790
929.286	0.0128907
929.364	0.0127318
929.443	0.0127698
929.521	0.0128152
929.599	0.0126662
929.677	0.0129816
929.755	0.0125808
929.833	0.0127807
929.911	0.0127454
929.989	0.0128042
930.068	0.0128117
930.146	0.0128984
930.224	0.0126846
930.302	0.0129064
930.380	0.0128570
930.458	0.0128658
930.536	0.0129151
930.614	0.0128983
930.693	0.0127844
930.771	0.0130051
930.849	0.0128592
930.927	0.0128692
931.005	0.0129488
931.083	0.0129124
931.161	0.0129512
931.239	0.0129982
931.318	0.0128455
931.396	0.0129040
931.474	0.0129369
931.552	0.0128974
931.630	0.0127783
931.708	0.0128858
931.786	0.0129007
931.864	0.0128222
931.943	0.0127116
932.021	0.0127526
932.099	0.0128155
932.177	0.0129710
932.255	0.0128201
932.333	0.0127499
932.411	0.0126895
932.489	0.0128818
932.568	0.0128529
932.646	0.0128046
932.724	0.0127135
932.802	0.0127635
932.880	0.0127438
932.958	0.0127048
933.036	0.0127451
933.114	0.0127091
933.193	0.0126785
933.271	0.0126891
933.349	0.0125170
933.427	0.0128374
933.505	0.0127055
933.583	0.0126903
933.661	0.0128671
933.739	0.0127120
933.818	0.0127119
933.896	0.0127786
933.974	0.0127585
934.052	0.0127024
934.130	0.0126389
934.208	0.0125953
934.286	0.0127103
934.364	0.0127710
934.443	0.0128394
934.521	0.0127474
934.599	0.0128209
934.677	0.0128266
934.755	0.0129214
934.833	0.0128096
934.911	0.0128512
934.989	0.0129003
935.068	0.0127596
935.146	0.0128722
935.224	0.0129037
935.302	0.0128132
935.380	0.0127648
935.458	0.0129847
935.536	0.0130498
935.614	0.0129626
935.693	0.0128737
935.771	0.0128706
935.849	0.0129881
935.927	0.0128893
936.005	0.0129277
936.083	0.0129906
936.161	0.0130326
936.239	0.0130647
936.318	0.0130052
936.396	0.0130919
936.474	0.0131877
936.552	0.0131605
936.630	0.0130162
936.708	0.0130802
936.786	0.0131302
936.864	0.0131474
936.943	0.0131086
937.021	0.0132230
937.099	0.0131753
937.177	0.0130249
937.255	0.0131503
937.333	0.0130895
937.411	0.0131555
937.489	0.0130643
937.568	0.0128844
937.646	0.0129598
937.724	0.0129937
937.802	0.0129716
937.880	0.0130898
937.958	0.0129352
938.036	0.0128838
938.114	0.0130691
938.193	0.0130825
938.271	0.0129425
938.349	0.0128452
938.427	0.0129102
938.505	0.0128680
938.583	0.0129327
938.661	0.0128533
938.739	0.0128892
938.818	0.0128719
938.896	0.0128442
938.974	0.0127693
939.052	0.0129097
939.130	0.0128619
939.208	0.0128183
939.286	0.0127052
939.364	0.0128648
939.443	0.0127953
939.521	0.0127020
939.599	0.0127742
939.677	0.0128739
939.755	0.0128179
939.833	0.0128228
939.911	0.0126179
939.989	0.0126836
940.068	0.0127863
940.146	0.0126737
940.224	0.0127052
940.302	0.0127031
940.380	0.0128188
940.458	0.0127125
940.536	0.0127468
940.614	0.0128214
940.693	0.0129606
940.771	0.0127265
940.849	0.0127238
940.927	0.0128178
941.005	0.0128914
941.083	0.0129053
941.161	0.0127885
941.239	0.0127010
941.318	0.0128667
941.396	0.0128872
941.474	0.0128877
941.552	0.0128548
941.630	0.0128706
941.708	0.0128861
941.786	0.0131067
941.864	0.0128673
941.943	0.0128657
942.021	0.0128419
942.099	0.0128972
942.177	0.0129543
942.255	0.0128806
942.333	0.0128768
942.411	0.0128806
942.489	0.0128946
942.568	0.0128555
942.646	0.0128938
942.724	0.0129552
942.802	0.0129872
942.880	0.0129307
942.958	0.0130061
943.036	0.0129214
943.114	0.0129199
943.193	0.0129488
943.271	0.0129665
943.349	0.0128578
943.427	0.0129803
943.505	0.0128752
943.583	0.0129307
943.661	0.0129287
943.739	0.0128001
943.818	0.0127013
943.896	0.0129192
943.974	0.0129350
944.052	0.0128432
944.130	0.0128166
944.208	0.0128462
944.286	0.0129279
944.364	0.0128897
944.443	0.0128100
944.521	0.0128384
944.599	0.0128242
944.677	0.0128761
944.755	0.0128142
944.833	0.0127795
944.911	0.0127915
944.989	0.0128229
945.068	0.0129384
945.146	0.0128712
945.224	0.0127854
945.302	0.0128775
945.380	0.0128088
945.458	0.0129005
945.536	0.0128926
945.614	0.0127863
945.693	0.0127229
945.771	0.0128548
945.849	0.0127823
945.927	0.0128182
946.005	0.0128877
946.083	0.0128847
946.161	0.0128860
946.239	0.0128577
946.318	0.0129510
946.396	0.0128802
946.474	0.0128437
946.552	0.0128445
946.630	0.0126843
946.708	0.0127905
946.786	0.0129537
946.864	0.0129470
946.943	0.0126590
947.021	0.0128922
947.099	0.0129038
947.177	0.0128862
947.255	0.0128024
947.333	0.0127923
947.411	0.0126396
947.489	0.0127533
947.568	0.0129872
947.646	0.0129753
947.724	0.0128495
947.802	0.0126882
947.880	0.0128088
947.958	0.0127997
948.036	0.0128629
948.114	0.0128243
948.193	0.0128278
948.271	0.0128291
948.349	0.0128504
948.427	0.0128890
948.505	0.0129444
948.583	0.0127559
948.661	0.0128121
948.739	0.0129562
948.818	0.0128589
948.896	0.0128904
948.974	0.0129306
949.052	0.0128515
949.130	0.0129386
949.208	0.0128487
949.286	0.0128739
949.364	0.0128165
949.443	0.0129122
949.521	0.0129413
949.599	0.0129288
949.677	0.0129144
949.755	0.0130019
949.833	0.0130057
949.911	0.0129574
949.989	0.0129401
950.068	0.0128661
950.146	0.0130291
950.224	0.0129558
950.302	0.0130318
950.380	0.0129968
950.458	0.0129481
950.536	0.0129736
950.614	0.0129211
950.693	0.0129878
950.771	0.0129746
950.849	0.0130391
950.927	0.0130183
951.005	0.0128575
951.083	0.0129097
951.161	0.0129506
951.239	0.0129459
951.318	0.0128821
951.396	0.0128963
951.474	0.0128527
951.552	0.0128262
951.630	0.0129464
951.708	0.0127771
951.786	0.0127140
951.864	0.0126450
951.943	0.0127283
952.021	0.0127897
952.099	0.0128819
952.177	0.0127353
952.255	0.0127501
952.333	0.0127206
952.411	0.0127778
952.489	0.0129208
952.568	0.0129295
952.646	0.0127892
952.724	0.0127666
952.802	0.0129078
952.880	0.0129315
952.958	0.0128622
953.036	0.0129704
953.114	0.0129149
953.193	0.0128775
953.271	0.0129538
953.349	0.0129170
953.427	0.0128970
953.505	0.0128778
953.583	0.0128775
953.661	0.0129941
953.739	0.0129750
953.818	0.0129532
953.896	0.0127524
953.974	0.0129468
954.052	0.0128991
954.130	0.0128780
954.208	0.0128661
954.286	0.0130028
954.364	0.0128100
954.443	0.0129508
954.521	0.0128545
954.599	0.0128132
954.677	0.0128841
954.755	0.0128645
954.833	0.0128049
954.911	0.0128418
954.989	0.0129362
955.068	0.0128939
955.146	0.0129237
955.224	0.0128545
955.302	0.0127980
955.380	0.0130022
955.458	0.0128285
955.536	0.0127425
955.614	0.0128289
955.693	0.0127290
955.771	0.0128745
955.849	0.0128866
955.927	0.0127085
956.005	0.0128356
956.083	0.0128472
956.161	0.0128848
956.239	0.0128724
956.318	0.0129978
956.396	0.0128109
956.474	0.0127587
956.552	0.0128522
956.630	0.0127911
956.708	0.0128507
956.786	0.0128252
956.864	0.0128609
956.943	0.0127432
957.021	0.0128413
957.099	0.0128281
957.177	0.0127125
957.255	0.0129181
957.333	0.0127661
957.411	0.0127060
957.489	0.0129025
957.568	0.0128029
957.646	0.0128622
957.724	0.0128783
957.802	0.0128961
957.880	0.0127693
957.958	0.0129530
958.036	0.0128259
958.114	0.0128114
958.193	0.0127615
958.271	0.0128629
958.349	0.0128373
958.427	0.0128065
958.505	0.0129102
958.583	0.0127600
958.661	0.0127599
958.739	0.0128322
958.818	0.0129060
958.896	0.0127530
958.974	0.0127136
959.052	0.0127617
959.130	0.0128535
959.208	0.0128117
959.286	0.0127334
959.364	0.0128280
959.443	0.0128584
959.521	0.0127078
959.599	0.0128597
959.677	0.0128819
959.755	0.0129225
959.833	0.0128777
959.911	0.0129711
