05/07/2022	17:51:39	Ver.	4.1	UNKNOWN
Optical Delay	639.989416	Delta X		0.078125	Sweeps	1	Scan Rate	0/0
Coordinates	Axis 1	NaN	Axis 2	NaN	Axis 3	NaN	Axis 4	NaN	Axis 5	NaN	Axis 6	0.000000
TX Power	0.000000	RX Power	0.000000

639.989	0.0127995
640.068	0.0126265
640.146	0.0126421
640.224	0.0126077
640.302	0.0124421
640.380	0.0124965
640.458	0.0125106
640.536	0.0123776
640.614	0.0125471
640.693	0.0125984
640.771	0.0125581
640.849	0.0124535
640.927	0.0126452
641.005	0.0125839
641.083	0.0125872
641.161	0.0126649
641.239	0.0128589
641.318	0.0125214
641.396	0.0124887
641.474	0.0127106
641.552	0.0127092
641.630	0.0126397
641.708	0.0128177
641.786	0.0127002
641.864	0.0128159
641.943	0.0127652
642.021	0.0127393
642.099	0.0127345
642.177	0.0128120
642.255	0.0128621
642.333	0.0128840
642.411	0.0129518
642.489	0.0128331
642.568	0.0128537
642.646	0.0129526
642.724	0.0130348
642.802	0.0129097
642.880	0.0128945
642.958	0.0129142
643.036	0.0129137
643.114	0.0128604
643.193	0.0129425
643.271	0.0128323
643.349	0.0129147
643.427	0.0128918
643.505	0.0127340
643.583	0.0128281
643.661	0.0127590
643.739	0.0126971
643.818	0.0126681
643.896	0.0126993
643.974	0.0126240
644.052	0.0125287
644.130	0.0126493
644.208	0.0125499
644.286	0.0124220
644.364	0.0124279
644.443	0.0124860
644.521	0.0125413
644.599	0.0125937
644.677	0.0124986
644.755	0.0125875
644.833	0.0125454
644.911	0.0127111
644.989	0.0127653
645.068	0.0127822
645.146	0.0127512
645.224	0.0127905
645.302	0.0129699
645.380	0.0129386
645.458	0.0130650
645.536	0.0129037
645.614	0.0129195
645.693	0.0129761
645.771	0.0129314
645.849	0.0129017
645.927	0.0129868
646.005	0.0129049
646.083	0.0128523
646.161	0.0127731
646.239	0.0127317
646.318	0.0126257
646.396	0.0126186
646.474	0.0125848
646.552	0.0126163
646.630	0.0125834
646.708	0.0123765
646.786	0.0123613
646.864	0.0125010
646.943	0.0125050
647.021	0.0125976
647.099	0.0127512
647.177	0.0126814
647.255	0.0126343
647.333	0.0127611
647.411	0.0127876
647.489	0.0128574
647.568	0.0129424
647.646	0.0129409
647.724	0.0130962
647.802	0.0132217
647.880	0.0131424
647.958	0.0130640
648.036	0.0132771
648.114	0.0131686
648.193	0.0131358
648.271	0.0131502
648.349	0.0131259
648.427	0.0131829
648.505	0.0130899
648.583	0.0130751
648.661	0.0130515
648.739	0.0129690
648.818	0.0130009
648.896	0.0129981
648.974	0.0129337
649.052	0.0128067
649.130	0.0128842
649.208	0.0130539
649.286	0.0128864
649.364	0.0128445
649.443	0.0129156
649.521	0.0129325
649.599	0.0127472
649.677	0.0129356
649.755	0.0129077
649.833	0.0129842
649.911	0.0127721
649.989	0.0126065
650.068	0.0128972
650.146	0.0129101
650.224	0.0125439
650.302	0.0125000
650.380	0.0125976
650.458	0.0125337
650.536	0.0124271
650.614	0.0123759
650.693	0.0124854
650.771	0.0123072
650.849	0.0122804
650.927	0.0123741
651.005	0.0122692
651.083	0.0123802
651.161	0.0124211
651.239	0.0125243
651.318	0.0124816
651.396	0.0127019
651.474	0.0126665
651.552	0.0126874
651.630	0.0127096
651.708	0.0127573
651.786	0.0126460
651.864	0.0127122
651.943	0.0127144
652.021	0.0127705
652.099	0.0129193
652.177	0.0128197
652.255	0.0129028
652.333	0.0129538
652.411	0.0128551
652.489	0.0129185
652.568	0.0128595
652.646	0.0129089
652.724	0.0128918
652.802	0.0129287
652.880	0.0128987
652.958	0.0127748
653.036	0.0127973
653.114	0.0127762
653.193	0.0128299
653.271	0.0127885
653.349	0.0128004
653.427	0.0126419
653.505	0.0125875
653.583	0.0126205
653.661	0.0125789
653.739	0.0125316
653.818	0.0124384
653.896	0.0126582
653.974	0.0126337
654.052	0.0125323
654.130	0.0125661
654.208	0.0127031
654.286	0.0125403
654.364	0.0125027
654.443	0.0124935
654.521	0.0126357
654.599	0.0126205
654.677	0.0124706
654.755	0.0123420
654.833	0.0124079
654.911	0.0124014
654.989	0.0122944
655.068	0.0122828
655.146	0.0121654
655.224	0.0121087
655.302	0.0120670
655.380	0.0122976
655.458	0.0123077
655.536	0.0121043
655.614	0.0123317
655.693	0.0124050
655.771	0.0122542
655.849	0.0124927
655.927	0.0125217
656.005	0.0125399
656.083	0.0127383
656.161	0.0128377
656.239	0.0127605
656.318	0.0129224
656.396	0.0128706
656.474	0.0130435
656.552	0.0130891
656.630	0.0132056
656.708	0.0133445
656.786	0.0134062
656.864	0.0134436
656.943	0.0135608
657.021	0.0133913
657.099	0.0135339
657.177	0.0136629
657.255	0.0136439
657.333	0.0134646
657.411	0.0135135
657.489	0.0135773
657.568	0.0135420
657.646	0.0134441
657.724	0.0131996
657.802	0.0132520
657.880	0.0131744
657.958	0.0130811
658.036	0.0131396
658.114	0.0129192
658.193	0.0128748
658.271	0.0128172
658.349	0.0127540
658.427	0.0125979
658.505	0.0125414
658.583	0.0122118
658.661	0.0123024
658.739	0.0122312
658.818	0.0121210
658.896	0.0122467
658.974	0.0120670
659.052	0.0121095
659.130	0.0121375
659.208	0.0121939
659.286	0.0121836
659.364	0.0124091
659.443	0.0124671
659.521	0.0124655
659.599	0.0125861
659.677	0.0126432
659.755	0.0126454
659.833	0.0127744
659.911	0.0128032
659.989	0.0127746
660.068	0.0129553
660.146	0.0129379
660.224	0.0129362
660.302	0.0130809
660.380	0.0129585
660.458	0.0130396
660.536	0.0129868
660.614	0.0129571
660.693	0.0130119
660.771	0.0129752
660.849	0.0128963
660.927	0.0128890
661.005	0.0127550
661.083	0.0129281
661.161	0.0129977
661.239	0.0128850
661.318	0.0128388
661.396	0.0129313
661.474	0.0129322
661.552	0.0130124
661.630	0.0130412
661.708	0.0129861
661.786	0.0129255
661.864	0.0130147
661.943	0.0130482
662.021	0.0131876
662.099	0.0131459
662.177	0.0130215
662.255	0.0131281
662.333	0.0131654
662.411	0.0131071
662.489	0.0130499
662.568	0.0130597
662.646	0.0130126
662.724	0.0129879
662.802	0.0129716
662.880	0.0129245
662.958	0.0128291
663.036	0.0126942
663.114	0.0126914
663.193	0.0125844
663.271	0.0125375
663.349	0.0123772
663.427	0.0123367
663.505	0.0123584
663.583	0.0121983
663.661	0.0122620
663.739	0.0122540
663.818	0.0120687
663.896	0.0119941
663.974	0.0121151
664.052	0.0119383
664.130	0.0120320
664.208	0.0121556
664.286	0.0121854
664.364	0.0123222
664.443	0.0122587
664.521	0.0122931
664.599	0.0125285
664.677	0.0124331
664.755	0.0126007
664.833	0.0127268
664.911	0.0130509
664.989	0.0129813
665.068	0.0130817
665.146	0.0131879
665.224	0.0132453
665.302	0.0132687
665.380	0.0134406
665.458	0.0133974
665.536	0.0133694
665.614	0.0134370
665.693	0.0134811
665.771	0.0136337
665.849	0.0135985
665.927	0.0136784
666.005	0.0135593
666.083	0.0133707
666.161	0.0134953
666.239	0.0136542
666.318	0.0136405
666.396	0.0136892
666.474	0.0136935
666.552	0.0135352
666.630	0.0135434
666.708	0.0135382
666.786	0.0134179
666.864	0.0135068
666.943	0.0135004
667.021	0.0133573
667.099	0.0132510
667.177	0.0131485
667.255	0.0130373
667.333	0.0129809
667.411	0.0127935
667.489	0.0124843
667.568	0.0125153
667.646	0.0125257
667.724	0.0123081
667.802	0.0120973
667.880	0.0119484
667.958	0.0119791
668.036	0.0117558
668.114	0.0118502
668.193	0.0118141
668.271	0.0116132
668.349	0.0117645
668.427	0.0115829
668.505	0.0116936
668.583	0.0117183
668.661	0.0116660
668.739	0.0118107
668.818	0.0116561
668.896	0.0119341
668.974	0.0119749
669.052	0.0118945
669.130	0.0120074
669.208	0.0122704
669.286	0.0122413
669.364	0.0123423
669.443	0.0125955
669.521	0.0126389
669.599	0.0127601
669.677	0.0128587
669.755	0.0130405
669.833	0.0130165
669.911	0.0132186
669.989	0.0132394
670.068	0.0133623
670.146	0.0133393
670.224	0.0134988
670.302	0.0135413
670.380	0.0135527
670.458	0.0136004
670.536	0.0133924
670.614	0.0134134
670.693	0.0134143
670.771	0.0133942
670.849	0.0133376
670.927	0.0132922
671.005	0.0132417
671.083	0.0132905
671.161	0.0131732
671.239	0.0131604
671.318	0.0131944
671.396	0.0130958
671.474	0.0130730
671.552	0.0130462
671.630	0.0130463
671.708	0.0130708
671.786	0.0129630
671.864	0.0127349
671.943	0.0126749
672.021	0.0127013
672.099	0.0126480
672.177	0.0126193
672.255	0.0125772
672.333	0.0125498
672.411	0.0124117
672.489	0.0123419
672.568	0.0122764
672.646	0.0122030
672.724	0.0122130
672.802	0.0120813
672.880	0.0120912
672.958	0.0120264
673.036	0.0119446
673.114	0.0120818
673.193	0.0121742
673.271	0.0120100
673.349	0.0120699
673.427	0.0121508
673.505	0.0123647
673.583	0.0123882
673.661	0.0126512
673.739	0.0126968
673.818	0.0127731
673.896	0.0129816
673.974	0.0132350
674.052	0.0133069
674.130	0.0134382
674.208	0.0136707
674.286	0.0137831
674.364	0.0136956
674.443	0.0140173
674.521	0.0141068
674.599	0.0141972
674.677	0.0143114
674.755	0.0143493
674.833	0.0144784
674.911	0.0146529
674.989	0.0146868
675.068	0.0144754
675.146	0.0145435
675.224	0.0145224
675.302	0.0144528
675.380	0.0144422
675.458	0.0139696
675.536	0.0138947
675.614	0.0137481
675.693	0.0135883
675.771	0.0132951
675.849	0.0131928
675.927	0.0131915
676.005	0.0127708
676.083	0.0125399
676.161	0.0127023
676.239	0.0126038
676.318	0.0126267
676.396	0.0125087
676.474	0.0125121
676.552	0.0124625
676.630	0.0123890
676.708	0.0125179
676.786	0.0125014
676.864	0.0124720
676.943	0.0126770
677.021	0.0127613
677.099	0.0127408
677.177	0.0128548
677.255	0.0128397
677.333	0.0128283
677.411	0.0127998
677.489	0.0128528
677.568	0.0128158
677.646	0.0128081
677.724	0.0128146
677.802	0.0128454
677.880	0.0128624
677.958	0.0127135
678.036	0.0126437
678.114	0.0126379
678.193	0.0125262
678.271	0.0125218
678.349	0.0125076
678.427	0.0122499
678.505	0.0124396
678.583	0.0122619
678.661	0.0122562
678.739	0.0121319
678.818	0.0120479
678.896	0.0121881
678.974	0.0120142
679.052	0.0119861
679.130	0.0120792
679.208	0.0121786
679.286	0.0122817
679.364	0.0123762
679.443	0.0123280
679.521	0.0125054
679.599	0.0124644
679.677	0.0123562
679.755	0.0125351
679.833	0.0126930
679.911	0.0126331
679.989	0.0126726
680.068	0.0127494
680.146	0.0127881
680.224	0.0127956
680.302	0.0130163
680.380	0.0127089
680.458	0.0128057
680.536	0.0129504
680.614	0.0130196
680.693	0.0129662
680.771	0.0128516
680.849	0.0129143
680.927	0.0129824
681.005	0.0127123
681.083	0.0126306
681.161	0.0128194
681.239	0.0127458
681.318	0.0128113
681.396	0.0127345
681.474	0.0127311
681.552	0.0125696
681.630	0.0125012
681.708	0.0127041
681.786	0.0126965
681.864	0.0127083
681.943	0.0127471
682.021	0.0127441
682.099	0.0127615
682.177	0.0128714
682.255	0.0129156
682.333	0.0129045
682.411	0.0129755
682.489	0.0128901
682.568	0.0127527
682.646	0.0127460
682.724	0.0127482
682.802	0.0128864
682.880	0.0129434
682.958	0.0128619
683.036	0.0126952
683.114	0.0129179
683.193	0.0128059
683.271	0.0128794
683.349	0.0129087
683.427	0.0129819
683.505	0.0131664
683.583	0.0131105
683.661	0.0131876
683.739	0.0133241
683.818	0.0133440
683.896	0.0134235
683.974	0.0135496
684.052	0.0133180
684.130	0.0133487
684.208	0.0135456
684.286	0.0135103
684.364	0.0137311
684.443	0.0135315
684.521	0.0135856
684.599	0.0137300
684.677	0.0137676
684.755	0.0136734
684.833	0.0135439
684.911	0.0135699
684.989	0.0136688
685.068	0.0136928
685.146	0.0134048
685.224	0.0132914
685.302	0.0133065
685.380	0.0131693
685.458	0.0132140
685.536	0.0131710
685.614	0.0131110
685.693	0.0130109
685.771	0.0129469
685.849	0.0129534
685.927	0.0130414
686.005	0.0128881
686.083	0.0129018
686.161	0.0129405
686.239	0.0128267
686.318	0.0127882
686.396	0.0127974
686.474	0.0128314
686.552	0.0127590
686.630	0.0128218
686.708	0.0129467
686.786	0.0129442
686.864	0.0128439
686.943	0.0130956
687.021	0.0131480
687.099	0.0129617
687.177	0.0130372
687.255	0.0132310
687.333	0.0134218
687.411	0.0134191
687.489	0.0131972
687.568	0.0131480
687.646	0.0133627
687.724	0.0134350
687.802	0.0133469
687.880	0.0133618
687.958	0.0133034
688.036	0.0132269
688.114	0.0132443
688.193	0.0131645
688.271	0.0132088
688.349	0.0130058
688.427	0.0129776
688.505	0.0128390
688.583	0.0127468
688.661	0.0128398
688.739	0.0126183
688.818	0.0126054
688.896	0.0126330
688.974	0.0127201
689.052	0.0125909
689.130	0.0124689
689.208	0.0125817
689.286	0.0126645
689.364	0.0126649
689.443	0.0126586
689.521	0.0124702
689.599	0.0125800
689.677	0.0126445
689.755	0.0125685
689.833	0.0123534
689.911	0.0124146
689.989	0.0123676
690.068	0.0124550
690.146	0.0123565
690.224	0.0123074
690.302	0.0123209
690.380	0.0123241
690.458	0.0122758
690.536	0.0121883
690.614	0.0123865
690.693	0.0123039
690.771	0.0123293
690.849	0.0123572
690.927	0.0125436
691.005	0.0124260
691.083	0.0124243
691.161	0.0126218
691.239	0.0126688
691.318	0.0127587
691.396	0.0129207
691.474	0.0129345
691.552	0.0130540
691.630	0.0130663
691.708	0.0131470
691.786	0.0131594
691.864	0.0131597
691.943	0.0131754
692.021	0.0131939
692.099	0.0133038
692.177	0.0132767
692.255	0.0133358
692.333	0.0132060
692.411	0.0133986
692.489	0.0133994
692.568	0.0132765
692.646	0.0132420
692.724	0.0131858
692.802	0.0131957
692.880	0.0130315
692.958	0.0130982
693.036	0.0129573
693.114	0.0129245
693.193	0.0128485
693.271	0.0126651
693.349	0.0126554
693.427	0.0128474
693.505	0.0126518
693.583	0.0125374
693.661	0.0126645
693.739	0.0125346
693.818	0.0126289
693.896	0.0126154
693.974	0.0125045
694.052	0.0124522
694.130	0.0125690
694.208	0.0126402
694.286	0.0125128
694.364	0.0125023
694.443	0.0126264
694.521	0.0125755
694.599	0.0125175
694.677	0.0126553
694.755	0.0127602
694.833	0.0128108
694.911	0.0127879
694.989	0.0128471
695.068	0.0128823
695.146	0.0129230
695.224	0.0129395
695.302	0.0129808
695.380	0.0130537
695.458	0.0129636
695.536	0.0129953
695.614	0.0129321
695.693	0.0129488
695.771	0.0129499
695.849	0.0129549
695.927	0.0129199
696.005	0.0128953
696.083	0.0129799
696.161	0.0130863
696.239	0.0132261
696.318	0.0129803
696.396	0.0129924
696.474	0.0129024
696.552	0.0128865
696.630	0.0129239
696.708	0.0127994
696.786	0.0128882
696.864	0.0125712
696.943	0.0125888
697.021	0.0125583
697.099	0.0125803
697.177	0.0125903
697.255	0.0125782
697.333	0.0124214
697.411	0.0123265
697.489	0.0123674
697.568	0.0124187
697.646	0.0123886
697.724	0.0123943
697.802	0.0124007
697.880	0.0126016
697.958	0.0127243
698.036	0.0127028
698.114	0.0126872
698.193	0.0128130
698.271	0.0128762
698.349	0.0128965
698.427	0.0129405
698.505	0.0130219
698.583	0.0130875
698.661	0.0130737
698.739	0.0132803
698.818	0.0130588
698.896	0.0131983
698.974	0.0132965
699.052	0.0132134
699.130	0.0133772
699.208	0.0133881
699.286	0.0134531
699.364	0.0133193
699.443	0.0134364
699.521	0.0132842
699.599	0.0133640
699.677	0.0134422
699.755	0.0133999
699.833	0.0134245
699.911	0.0135322
699.989	0.0134282
700.068	0.0133529
700.146	0.0133364
700.224	0.0133675
700.302	0.0134090
700.380	0.0134918
700.458	0.0134150
700.536	0.0133089
700.614	0.0132579
700.693	0.0133073
700.771	0.0132058
700.849	0.0132276
700.927	0.0131482
701.005	0.0129614
701.083	0.0129192
701.161	0.0129676
701.239	0.0129842
701.318	0.0128957
701.396	0.0129395
701.474	0.0129559
701.552	0.0129240
701.630	0.0129154
701.708	0.0127766
701.786	0.0129227
701.864	0.0129108
701.943	0.0129800
702.021	0.0129993
702.099	0.0130853
702.177	0.0128091
702.255	0.0129573
702.333	0.0130193
702.411	0.0129263
702.489	0.0129195
702.568	0.0127702
702.646	0.0128030
702.724	0.0127761
702.802	0.0126681
702.880	0.0128363
702.958	0.0127562
703.036	0.0128018
703.114	0.0127567
703.193	0.0127376
703.271	0.0127779
703.349	0.0127210
703.427	0.0126060
703.505	0.0127155
703.583	0.0126872
703.661	0.0126516
703.739	0.0125735
703.818	0.0125507
703.896	0.0126442
703.974	0.0127425
704.052	0.0126002
704.130	0.0125679
704.208	0.0126300
704.286	0.0125577
704.364	0.0125842
704.443	0.0127552
704.521	0.0129061
704.599	0.0128779
704.677	0.0130103
704.755	0.0130525
704.833	0.0131350
704.911	0.0132009
704.989	0.0131709
705.068	0.0134454
705.146	0.0132743
705.224	0.0132938
705.302	0.0134263
705.380	0.0134415
705.458	0.0134401
705.536	0.0133071
705.614	0.0132600
705.693	0.0134046
705.771	0.0132578
705.849	0.0133655
705.927	0.0132809
706.005	0.0132620
706.083	0.0131794
706.161	0.0131621
706.239	0.0130307
706.318	0.0130445
706.396	0.0130267
706.474	0.0130194
706.552	0.0128991
706.630	0.0130461
706.708	0.0129841
706.786	0.0129620
706.864	0.0129520
706.943	0.0128865
707.021	0.0128035
707.099	0.0127680
707.177	0.0129411
707.255	0.0127620
707.333	0.0127488
707.411	0.0127792
707.489	0.0127491
707.568	0.0127651
707.646	0.0126410
707.724	0.0125893
707.802	0.0125404
707.880	0.0126312
707.958	0.0126852
708.036	0.0125655
708.114	0.0126164
708.193	0.0125793
708.271	0.0126056
708.349	0.0125768
708.427	0.0125783
708.505	0.0125068
708.583	0.0127366
708.661	0.0126421
708.739	0.0126862
708.818	0.0124923
708.896	0.0125218
708.974	0.0124574
709.052	0.0125085
709.130	0.0127515
709.208	0.0126213
709.286	0.0125253
709.364	0.0125901
709.443	0.0125941
709.521	0.0125650
709.599	0.0125334
709.677	0.0126207
709.755	0.0127449
709.833	0.0126218
709.911	0.0127538
709.989	0.0127475
710.068	0.0128676
710.146	0.0129487
710.224	0.0128533
710.302	0.0129055
710.380	0.0130859
710.458	0.0131071
710.536	0.0132661
710.614	0.0133168
710.693	0.0133565
710.771	0.0134448
710.849	0.0134666
710.927	0.0136156
711.005	0.0136687
711.083	0.0137979
711.161	0.0137477
711.239	0.0137716
711.318	0.0137659
711.396	0.0137246
711.474	0.0137191
711.552	0.0136739
711.630	0.0136984
711.708	0.0137580
711.786	0.0136214
711.864	0.0135986
711.943	0.0135312
712.021	0.0134756
712.099	0.0134470
712.177	0.0132697
712.255	0.0132901
712.333	0.0134597
712.411	0.0132919
712.489	0.0131950
712.568	0.0132173
712.646	0.0132442
712.724	0.0130443
712.802	0.0130983
712.880	0.0130845
712.958	0.0127081
713.036	0.0128020
713.114	0.0127855
713.193	0.0125648
713.271	0.0124872
713.349	0.0125041
713.427	0.0124294
713.505	0.0121443
713.583	0.0121999
713.661	0.0121259
713.739	0.0121568
713.818	0.0121706
713.896	0.0119935
713.974	0.0118954
714.052	0.0119701
714.130	0.0119257
714.208	0.0118346
714.286	0.0120203
714.364	0.0122625
714.443	0.0121332
714.521	0.0122992
714.599	0.0122225
714.677	0.0123894
714.755	0.0125489
714.833	0.0126719
714.911	0.0127467
714.989	0.0127750
715.068	0.0128271
715.146	0.0130634
715.224	0.0130316
715.302	0.0130939
715.380	0.0129568
715.458	0.0129850
715.536	0.0130003
715.614	0.0129274
715.693	0.0130064
715.771	0.0129536
715.849	0.0128590
715.927	0.0127271
716.005	0.0126794
716.083	0.0127441
716.161	0.0127325
716.239	0.0128501
716.318	0.0127267
716.396	0.0128033
716.474	0.0127086
716.552	0.0129585
716.630	0.0129224
716.708	0.0128255
716.786	0.0130148
716.864	0.0131836
716.943	0.0130863
717.021	0.0130861
717.099	0.0131218
717.177	0.0131142
717.255	0.0131061
717.333	0.0132467
717.411	0.0131680
717.489	0.0131577
717.568	0.0130879
717.646	0.0128298
717.724	0.0128116
717.802	0.0126486
717.880	0.0126989
717.958	0.0124146
718.036	0.0123162
718.114	0.0122876
718.193	0.0124251
718.271	0.0120858
718.349	0.0122425
718.427	0.0121651
718.505	0.0121973
718.583	0.0120274
718.661	0.0121401
718.739	0.0121136
718.818	0.0119779
718.896	0.0121356
718.974	0.0121568
719.052	0.0121368
719.130	0.0122137
719.208	0.0120660
719.286	0.0120853
719.364	0.0122715
719.443	0.0122224
719.521	0.0122301
719.599	0.0123167
719.677	0.0123719
719.755	0.0124357
719.833	0.0124030
719.911	0.0124867
719.989	0.0124270
720.068	0.0123843
720.146	0.0124841
720.224	0.0124984
720.302	0.0125643
720.380	0.0125423
720.458	0.0125760
720.536	0.0125131
720.614	0.0127297
720.693	0.0126333
720.771	0.0126982
720.849	0.0127096
720.927	0.0128947
721.005	0.0128957
721.083	0.0129424
721.161	0.0129840
721.239	0.0129073
721.318	0.0129004
721.396	0.0130651
721.474	0.0130653
721.552	0.0130782
721.630	0.0131464
721.708	0.0130912
721.786	0.0131293
721.864	0.0131811
721.943	0.0130437
722.021	0.0131409
722.099	0.0131802
722.177	0.0130289
722.255	0.0132452
722.333	0.0132372
722.411	0.0132726
722.489	0.0132823
722.568	0.0132211
722.646	0.0132623
722.724	0.0132716
722.802	0.0133077
722.880	0.0131664
722.958	0.0131361
723.036	0.0131798
723.114	0.0130753
723.193	0.0130685
723.271	0.0129256
723.349	0.0129195
723.427	0.0128821
723.505	0.0128456
723.583	0.0129173
723.661	0.0127469
723.739	0.0127182
723.818	0.0127989
723.896	0.0127807
723.974	0.0129956
724.052	0.0129910
724.130	0.0130457
724.208	0.0131102
724.286	0.0132415
724.364	0.0132327
724.443	0.0133179
724.521	0.0133427
724.599	0.0132376
724.677	0.0131747
724.755	0.0132149
724.833	0.0131519
724.911	0.0131989
724.989	0.0131779
725.068	0.0129474
725.146	0.0130685
725.224	0.0130710
725.302	0.0130176
725.380	0.0130079
725.458	0.0129709
725.536	0.0130087
725.614	0.0129295
725.693	0.0129306
725.771	0.0130212
725.849	0.0128741
725.927	0.0129054
726.005	0.0128699
726.083	0.0128393
726.161	0.0127821
726.239	0.0128013
726.318	0.0128626
726.396	0.0128004
726.474	0.0125198
726.552	0.0126826
726.630	0.0125761
726.708	0.0127338
726.786	0.0127061
726.864	0.0126685
726.943	0.0128210
727.021	0.0128480
727.099	0.0127427
727.177	0.0127869
727.255	0.0129528
727.333	0.0129350
727.411	0.0130095
727.489	0.0130737
727.568	0.0130411
727.646	0.0132004
727.724	0.0132145
727.802	0.0130830
727.880	0.0132070
727.958	0.0131419
728.036	0.0131597
728.114	0.0128995
728.193	0.0130140
728.271	0.0130240
728.349	0.0129200
728.427	0.0128069
728.505	0.0128363
728.583	0.0126537
728.661	0.0127162
728.739	0.0125651
728.818	0.0125756
728.896	0.0126138
728.974	0.0125527
729.052	0.0126295
729.130	0.0126395
729.208	0.0126189
729.286	0.0125758
729.364	0.0125879
729.443	0.0124976
729.521	0.0125881
729.599	0.0126364
729.677	0.0126633
729.755	0.0127043
729.833	0.0127318
729.911	0.0127042
729.989	0.0127724
730.068	0.0127399
730.146	0.0129196
730.224	0.0128553
730.302	0.0128854
730.380	0.0129868
730.458	0.0131175
730.536	0.0132081
730.614	0.0130344
730.693	0.0130758
730.771	0.0130515
730.849	0.0132861
730.927	0.0132786
731.005	0.0133391
731.083	0.0132269
731.161	0.0132417
731.239	0.0132256
731.318	0.0132248
731.396	0.0131799
731.474	0.0132323
731.552	0.0131948
731.630	0.0130743
731.708	0.0130502
731.786	0.0129321
731.864	0.0130503
731.943	0.0130899
732.021	0.0129654
732.099	0.0130289
732.177	0.0131122
732.255	0.0131409
732.333	0.0129899
732.411	0.0129848
732.489	0.0130430
732.568	0.0129662
732.646	0.0131245
732.724	0.0130899
732.802	0.0130495
732.880	0.0129480
732.958	0.0129205
733.036	0.0130209
733.114	0.0130331
733.193	0.0129916
733.271	0.0129722
733.349	0.0129272
733.427	0.0129992
733.505	0.0129248
733.583	0.0128420
733.661	0.0128825
733.739	0.0127895
733.818	0.0128443
733.896	0.0127515
733.974	0.0128116
734.052	0.0129126
734.130	0.0127765
734.208	0.0128149
734.286	0.0128788
734.364	0.0127433
734.443	0.0127549
734.521	0.0128404
734.599	0.0127595
734.677	0.0125797
734.755	0.0125974
734.833	0.0128251
734.911	0.0127791
734.989	0.0128062
735.068	0.0128548
735.146	0.0126035
735.224	0.0126656
735.302	0.0127586
735.380	0.0126615
735.458	0.0126359
735.536	0.0125671
735.614	0.0126923
735.693	0.0126160
735.771	0.0126699
735.849	0.0125759
735.927	0.0124300
736.005	0.0124981
736.083	0.0125110
736.161	0.0125359
736.239	0.0125113
736.318	0.0125348
736.396	0.0124277
736.474	0.0125052
736.552	0.0124662
736.630	0.0124590
736.708	0.0125045
736.786	0.0124620
736.864	0.0125404
736.943	0.0124917
737.021	0.0125486
737.099	0.0124969
737.177	0.0125668
737.255	0.0123959
737.333	0.0125600
737.411	0.0125216
737.489	0.0125198
737.568	0.0125762
737.646	0.0126494
737.724	0.0126758
737.802	0.0125431
737.880	0.0125223
737.958	0.0123286
738.036	0.0124137
738.114	0.0123672
738.193	0.0124730
738.271	0.0122162
738.349	0.0122627
738.427	0.0122501
738.505	0.0121690
738.583	0.0121156
738.661	0.0119217
738.739	0.0119248
738.818	0.0118468
738.896	0.0117584
738.974	0.0117914
739.052	0.0117934
739.130	0.0118428
739.208	0.0117532
739.286	0.0119215
739.364	0.0120450
739.443	0.0121416
739.521	0.0120885
739.599	0.0122131
739.677	0.0122324
739.755	0.0123146
739.833	0.0123983
739.911	0.0124776
739.989	0.0127968
740.068	0.0127293
740.146	0.0125752
740.224	0.0126129
740.302	0.0127615
740.380	0.0127176
740.458	0.0127892
740.536	0.0128165
740.614	0.0127934
740.693	0.0127911
740.771	0.0128135
740.849	0.0128386
740.927	0.0129493
741.005	0.0127552
741.083	0.0128554
741.161	0.0129032
741.239	0.0129939
741.318	0.0128178
741.396	0.0129060
741.474	0.0129491
741.552	0.0129371
741.630	0.0129344
741.708	0.0130648
741.786	0.0132368
741.864	0.0131158
741.943	0.0132010
742.021	0.0132863
742.099	0.0132156
742.177	0.0132358
742.255	0.0133902
742.333	0.0132285
742.411	0.0131965
742.489	0.0131297
742.568	0.0132311
742.646	0.0133659
742.724	0.0132719
742.802	0.0131588
742.880	0.0132094
742.958	0.0130779
743.036	0.0129157
743.114	0.0129034
743.193	0.0129997
743.271	0.0130218
743.349	0.0128909
743.427	0.0130092
743.505	0.0130290
743.583	0.0129431
743.661	0.0128137
743.739	0.0128746
743.818	0.0131305
743.896	0.0131529
743.974	0.0132676
744.052	0.0133818
744.130	0.0133694
744.208	0.0134464
744.286	0.0135976
744.364	0.0135127
744.443	0.0135143
744.521	0.0136116
744.599	0.0135625
744.677	0.0136213
744.755	0.0135504
744.833	0.0133626
744.911	0.0132806
744.989	0.0131628
745.068	0.0130391
745.146	0.0127579
745.224	0.0126887
745.302	0.0123532
745.380	0.0123566
745.458	0.0123197
745.536	0.0121014
745.614	0.0120423
745.693	0.0119889
745.771	0.0120709
745.849	0.0121030
745.927	0.0121165
746.005	0.0119976
746.083	0.0119183
746.161	0.0117631
746.239	0.0118913
746.318	0.0118786
746.396	0.0119855
746.474	0.0119754
746.552	0.0118777
746.630	0.0119551
746.708	0.0118873
746.786	0.0120290
746.864	0.0121606
746.943	0.0121843
747.021	0.0123171
747.099	0.0124693
747.177	0.0127187
747.255	0.0128864
747.333	0.0130427
747.411	0.0129195
747.489	0.0131519
747.568	0.0131123
747.646	0.0131317
747.724	0.0131771
747.802	0.0132745
747.880	0.0130474
747.958	0.0131046
748.036	0.0131444
748.114	0.0130334
748.193	0.0128629
748.271	0.0129226
748.349	0.0128880
748.427	0.0129384
748.505	0.0127734
748.583	0.0126884
748.661	0.0126498
748.739	0.0127425
748.818	0.0125384
748.896	0.0125826
748.974	0.0126873
749.052	0.0125307
749.130	0.0125037
749.208	0.0126001
749.286	0.0125212
749.364	0.0126640
749.443	0.0128263
749.521	0.0128300
749.599	0.0131259
749.677	0.0131232
749.755	0.0130361
749.833	0.0131556
749.911	0.0132719
749.989	0.0133791
750.068	0.0133238
750.146	0.0133783
750.224	0.0133107
750.302	0.0134867
750.380	0.0135309
750.458	0.0132304
750.536	0.0133243
750.614	0.0133777
750.693	0.0132869
750.771	0.0133459
750.849	0.0132608
750.927	0.0130814
751.005	0.0130613
751.083	0.0131852
751.161	0.0131812
751.239	0.0130532
751.318	0.0130456
751.396	0.0129070
751.474	0.0130561
751.552	0.0129934
751.630	0.0128610
751.708	0.0129647
751.786	0.0129458
751.864	0.0127528
751.943	0.0128186
752.021	0.0128454
752.099	0.0127720
752.177	0.0128246
752.255	0.0128490
752.333	0.0128910
752.411	0.0129237
752.489	0.0127778
752.568	0.0127608
752.646	0.0128986
752.724	0.0128941
752.802	0.0127504
752.880	0.0126882
752.958	0.0127371
753.036	0.0127624
753.114	0.0127769
753.193	0.0127901
753.271	0.0126113
753.349	0.0127539
753.427	0.0127711
753.505	0.0127043
753.583	0.0127235
753.661	0.0126074
753.739	0.0128227
753.818	0.0130092
753.896	0.0129151
753.974	0.0127789
754.052	0.0130167
754.130	0.0130310
754.208	0.0129700
754.286	0.0130985
754.364	0.0131036
754.443	0.0129282
754.521	0.0130731
754.599	0.0130408
754.677	0.0130978
754.755	0.0131391
754.833	0.0129442
754.911	0.0128544
754.989	0.0129112
755.068	0.0129149
755.146	0.0129760
755.224	0.0128397
755.302	0.0128868
755.380	0.0128552
755.458	0.0127164
755.536	0.0126556
755.614	0.0127243
755.693	0.0126040
755.771	0.0125425
755.849	0.0125336
755.927	0.0124741
756.005	0.0124310
756.083	0.0124505
756.161	0.0126711
756.239	0.0124474
756.318	0.0125094
756.396	0.0125050
756.474	0.0124995
756.552	0.0126207
756.630	0.0127252
756.708	0.0127912
756.786	0.0127331
756.864	0.0127782
756.943	0.0128666
757.021	0.0128270
757.099	0.0129430
757.177	0.0128763
757.255	0.0127802
757.333	0.0128231
757.411	0.0128645
757.489	0.0129646
757.568	0.0129752
757.646	0.0129675
757.724	0.0130330
757.802	0.0130251
757.880	0.0131707
757.958	0.0132757
758.036	0.0131696
758.114	0.0132305
758.193	0.0133892
758.271	0.0133503
758.349	0.0132178
758.427	0.0132818
758.505	0.0133759
758.583	0.0132507
758.661	0.0132613
758.739	0.0132186
758.818	0.0129747
758.896	0.0129071
758.974	0.0128821
759.052	0.0128078
759.130	0.0127910
759.208	0.0126103
759.286	0.0125498
759.364	0.0124612
759.443	0.0123067
759.521	0.0122456
759.599	0.0124029
759.677	0.0122910
759.755	0.0120914
759.833	0.0119872
759.911	0.0120604
759.989	0.0120030
760.068	0.0121545
760.146	0.0119943
760.224	0.0119839
760.302	0.0120710
760.380	0.0119622
760.458	0.0119718
760.536	0.0120630
760.614	0.0121494
760.693	0.0120954
760.771	0.0120590
760.849	0.0121352
760.927	0.0120555
761.005	0.0122545
761.083	0.0123342
761.161	0.0124322
761.239	0.0123717
761.318	0.0124599
761.396	0.0125146
761.474	0.0125396
761.552	0.0124828
761.630	0.0124765
761.708	0.0124741
761.786	0.0125482
761.864	0.0124368
761.943	0.0124495
762.021	0.0126483
762.099	0.0127284
762.177	0.0125977
762.255	0.0125487
762.333	0.0129256
762.411	0.0127987
762.489	0.0128097
762.568	0.0129201
762.646	0.0129672
762.724	0.0129838
762.802	0.0130723
762.880	0.0130620
762.958	0.0129765
763.036	0.0129991
763.114	0.0131291
763.193	0.0130479
763.271	0.0130016
763.349	0.0127972
763.427	0.0128021
763.505	0.0127583
763.583	0.0127614
763.661	0.0126862
763.739	0.0127014
763.818	0.0127033
763.896	0.0128819
763.974	0.0128736
764.052	0.0128045
764.130	0.0129522
764.208	0.0128932
764.286	0.0128623
764.364	0.0130083
764.443	0.0130704
764.521	0.0130907
764.599	0.0130280
764.677	0.0130934
764.755	0.0130429
764.833	0.0129042
764.911	0.0130170
764.989	0.0128117
765.068	0.0126933
765.146	0.0125500
765.224	0.0126014
765.302	0.0125417
765.380	0.0126216
765.458	0.0125729
765.536	0.0124329
765.614	0.0124846
765.693	0.0123164
765.771	0.0124053
765.849	0.0124149
765.927	0.0125246
766.005	0.0124982
766.083	0.0125651
766.161	0.0125421
766.239	0.0124141
766.318	0.0125335
766.396	0.0125563
766.474	0.0126000
766.552	0.0125200
766.630	0.0126464
766.708	0.0127311
766.786	0.0126858
766.864	0.0127947
766.943	0.0128029
767.021	0.0128793
767.099	0.0129933
767.177	0.0129458
767.255	0.0130608
767.333	0.0131631
767.411	0.0132031
767.489	0.0131647
767.568	0.0132320
767.646	0.0130426
767.724	0.0131824
767.802	0.0130715
767.880	0.0132298
767.958	0.0131665
768.036	0.0130605
768.114	0.0129733
768.193	0.0130513
768.271	0.0128093
768.349	0.0128900
768.427	0.0127911
768.505	0.0127321
768.583	0.0126839
768.661	0.0127160
768.739	0.0127476
768.818	0.0126863
768.896	0.0128796
768.974	0.0129209
769.052	0.0128389
769.130	0.0128837
769.208	0.0131682
769.286	0.0131786
769.364	0.0130802
769.443	0.0130495
769.521	0.0132394
769.599	0.0130840
769.677	0.0131883
769.755	0.0131394
769.833	0.0131716
769.911	0.0130563
769.989	0.0130344
770.068	0.0128200
770.146	0.0126463
770.224	0.0125985
770.302	0.0128768
770.380	0.0127267
770.458	0.0127972
770.536	0.0128799
770.614	0.0129190
770.693	0.0127145
770.771	0.0128222
770.849	0.0129512
770.927	0.0129045
771.005	0.0129041
771.083	0.0129973
771.161	0.0130697
771.239	0.0129847
771.318	0.0130988
771.396	0.0130305
771.474	0.0130904
771.552	0.0131905
771.630	0.0131070
771.708	0.0130424
771.786	0.0132253
771.864	0.0132301
771.943	0.0132619
772.021	0.0132399
772.099	0.0132616
772.177	0.0131828
772.255	0.0133032
772.333	0.0133420
772.411	0.0132437
772.489	0.0132275
772.568	0.0133201
772.646	0.0130982
772.724	0.0132256
772.802	0.0132571
772.880	0.0130975
772.958	0.0131235
773.036	0.0131509
773.114	0.0129983
773.193	0.0130317
773.271	0.0130474
773.349	0.0128448
773.427	0.0130374
773.505	0.0129263
773.583	0.0127990
773.661	0.0128030
773.739	0.0129681
773.818	0.0128287
773.896	0.0128982
773.974	0.0130350
774.052	0.0129961
774.130	0.0130743
774.208	0.0129360
774.286	0.0129087
774.364	0.0129600
774.443	0.0130377
774.521	0.0129951
774.599	0.0131843
774.677	0.0130049
774.755	0.0128618
774.833	0.0129854
774.911	0.0129542
774.989	0.0129873
775.068	0.0129778
775.146	0.0129012
775.224	0.0128252
775.302	0.0128058
775.380	0.0127907
775.458	0.0128406
775.536	0.0128182
775.614	0.0126738
775.693	0.0125822
775.771	0.0123759
775.849	0.0124324
775.927	0.0122151
776.005	0.0121708
776.083	0.0120916
776.161	0.0120482
776.239	0.0120007
776.318	0.0122202
776.396	0.0121140
776.474	0.0122604
776.552	0.0122137
776.630	0.0122377
776.708	0.0123202
776.786	0.0125879
776.864	0.0126002
776.943	0.0126527
777.021	0.0125918
777.099	0.0126685
777.177	0.0127016
777.255	0.0126196
777.333	0.0126980
777.411	0.0128115
777.489	0.0127879
777.568	0.0126723
777.646	0.0127643
777.724	0.0126938
777.802	0.0126684
777.880	0.0126852
777.958	0.0125646
778.036	0.0124267
778.114	0.0125224
778.193	0.0126364
778.271	0.0124259
778.349	0.0123988
778.427	0.0123830
778.505	0.0123804
778.583	0.0124512
778.661	0.0123770
778.739	0.0123205
778.818	0.0123821
778.896	0.0125931
778.974	0.0124332
779.052	0.0126389
779.130	0.0126138
779.208	0.0126778
779.286	0.0125632
779.364	0.0127158
779.443	0.0127905
779.521	0.0126961
779.599	0.0126283
779.677	0.0128660
779.755	0.0128422
779.833	0.0129728
779.911	0.0129777
779.989	0.0129179
780.068	0.0130065
780.146	0.0130448
780.224	0.0130550
780.302	0.0130534
780.380	0.0131765
780.458	0.0132310
780.536	0.0132292
780.614	0.0131853
780.693	0.0131552
780.771	0.0133339
780.849	0.0133207
780.927	0.0134522
781.005	0.0136268
781.083	0.0134361
781.161	0.0134406
781.239	0.0135236
781.318	0.0134941
781.396	0.0136281
781.474	0.0135456
781.552	0.0134799
781.630	0.0133874
781.708	0.0134702
781.786	0.0133775
781.864	0.0133299
781.943	0.0133903
782.021	0.0132374
782.099	0.0133329
782.177	0.0132692
782.255	0.0132496
782.333	0.0132182
782.411	0.0133813
782.489	0.0131833
782.568	0.0132988
782.646	0.0133642
782.724	0.0131992
782.802	0.0129629
782.880	0.0130752
782.958	0.0130286
783.036	0.0131820
783.114	0.0131192
783.193	0.0130341
783.271	0.0128232
783.349	0.0128957
783.427	0.0127732
783.505	0.0128001
783.583	0.0128951
783.661	0.0128507
783.739	0.0126173
783.818	0.0126859
783.896	0.0127535
783.974	0.0126395
784.052	0.0126952
784.130	0.0126579
784.208	0.0126816
784.286	0.0126254
784.364	0.0126773
784.443	0.0125153
784.521	0.0126312
784.599	0.0127178
784.677	0.0128443
784.755	0.0127946
784.833	0.0127300
784.911	0.0129105
784.989	0.0128530
785.068	0.0127920
785.146	0.0129017
785.224	0.0130030
785.302	0.0130150
785.380	0.0128655
785.458	0.0129303
785.536	0.0128589
785.614	0.0129638
785.693	0.0129218
785.771	0.0128328
785.849	0.0127492
785.927	0.0127087
786.005	0.0127549
786.083	0.0128635
786.161	0.0126318
786.239	0.0126461
786.318	0.0126609
786.396	0.0125989
786.474	0.0125278
786.552	0.0124979
786.630	0.0126167
786.708	0.0125336
786.786	0.0125706
786.864	0.0125433
786.943	0.0125709
787.021	0.0125148
787.099	0.0126646
787.177	0.0126680
787.255	0.0127866
787.333	0.0127313
787.411	0.0129304
787.489	0.0129688
787.568	0.0131040
787.646	0.0129171
787.724	0.0131387
787.802	0.0131532
787.880	0.0131467
787.958	0.0133169
788.036	0.0131929
788.114	0.0130573
788.193	0.0130888
788.271	0.0130997
788.349	0.0131275
788.427	0.0130733
788.505	0.0129906
788.583	0.0129396
788.661	0.0128646
788.739	0.0128035
788.818	0.0127395
788.896	0.0126425
788.974	0.0126570
789.052	0.0126544
789.130	0.0126747
789.208	0.0126041
789.286	0.0126131
789.364	0.0127608
789.443	0.0128548
789.521	0.0127617
789.599	0.0128385
789.677	0.0128072
789.755	0.0127458
789.833	0.0128741
789.911	0.0129128
789.989	0.0130143
790.068	0.0128798
790.146	0.0128911
790.224	0.0128444
790.302	0.0129675
790.380	0.0129737
790.458	0.0131300
790.536	0.0129313
790.614	0.0128679
790.693	0.0128902
790.771	0.0128524
790.849	0.0129539
790.927	0.0129541
791.005	0.0130441
791.083	0.0129984
791.161	0.0129477
791.239	0.0129775
791.318	0.0130065
791.396	0.0130013
791.474	0.0129408
791.552	0.0130454
791.630	0.0129296
791.708	0.0127351
791.786	0.0128333
791.864	0.0130440
791.943	0.0130115
792.021	0.0128975
792.099	0.0128948
792.177	0.0128266
792.255	0.0128445
792.333	0.0128461
792.411	0.0128537
792.489	0.0129224
792.568	0.0129235
792.646	0.0128290
792.724	0.0129995
792.802	0.0128591
792.880	0.0129353
792.958	0.0129819
793.036	0.0131721
793.114	0.0129176
793.193	0.0130330
793.271	0.0131013
793.349	0.0128053
793.427	0.0126139
793.505	0.0129032
793.583	0.0128323
793.661	0.0126380
793.739	0.0126752
793.818	0.0124762
793.896	0.0125759
793.974	0.0125616
794.052	0.0125692
794.130	0.0126174
794.208	0.0125824
794.286	0.0126316
794.364	0.0126554
794.443	0.0124645
794.521	0.0125805
794.599	0.0124715
794.677	0.0126082
794.755	0.0125950
794.833	0.0125376
794.911	0.0127657
794.989	0.0127126
795.068	0.0128019
795.146	0.0128523
795.224	0.0129907
795.302	0.0129305
795.380	0.0129944
795.458	0.0130664
795.536	0.0129387
795.614	0.0130386
795.693	0.0129804
795.771	0.0128675
795.849	0.0129824
795.927	0.0128604
796.005	0.0128696
796.083	0.0128835
796.161	0.0126694
796.239	0.0128973
796.318	0.0127876
796.396	0.0126287
796.474	0.0126817
796.552	0.0124598
796.630	0.0124926
796.708	0.0125542
796.786	0.0127088
796.864	0.0125251
796.943	0.0127055
797.021	0.0126129
797.099	0.0126303
797.177	0.0126896
797.255	0.0127120
797.333	0.0126803
797.411	0.0127353
797.489	0.0126089
797.568	0.0126660
797.646	0.0126907
797.724	0.0126100
797.802	0.0125394
797.880	0.0125330
797.958	0.0125215
798.036	0.0126816
798.114	0.0124948
798.193	0.0126771
798.271	0.0126666
798.349	0.0126223
798.427	0.0124274
798.505	0.0126233
798.583	0.0125332
798.661	0.0124237
798.739	0.0123649
798.818	0.0125381
798.896	0.0125463
798.974	0.0125320
799.052	0.0126017
799.130	0.0126410
799.208	0.0125654
799.286	0.0126343
799.364	0.0126212
799.443	0.0128754
799.521	0.0128064
799.599	0.0129414
799.677	0.0129493
799.755	0.0130322
799.833	0.0130764
799.911	0.0129002
799.989	0.0129261
800.068	0.0131278
800.146	0.0128707
800.224	0.0129792
800.302	0.0129891
800.380	0.0129433
800.458	0.0130951
800.536	0.0130367
800.614	0.0131374
800.693	0.0131014
800.771	0.0131101
800.849	0.0131714
800.927	0.0131358
801.005	0.0131610
801.083	0.0131568
801.161	0.0132784
801.239	0.0133463
801.318	0.0132716
801.396	0.0131813
801.474	0.0133131
801.552	0.0132838
801.630	0.0134599
801.708	0.0133862
801.786	0.0135333
801.864	0.0133858
801.943	0.0133438
802.021	0.0133570
802.099	0.0133828
802.177	0.0135463
802.255	0.0134438
802.333	0.0134595
802.411	0.0135468
802.489	0.0135154
802.568	0.0137066
802.646	0.0137611
802.724	0.0137514
802.802	0.0137418
802.880	0.0137146
802.958	0.0137614
803.036	0.0139240
803.114	0.0138591
803.193	0.0138103
803.271	0.0137550
803.349	0.0136553
803.427	0.0134936
803.505	0.0133871
803.583	0.0133298
803.661	0.0132899
803.739	0.0132736
803.818	0.0130830
803.896	0.0131222
803.974	0.0131569
804.052	0.0130027
804.130	0.0130357
804.208	0.0129910
804.286	0.0128966
804.364	0.0127170
804.443	0.0126614
804.521	0.0129009
804.599	0.0128862
804.677	0.0128501
804.755	0.0128330
804.833	0.0126131
804.911	0.0127351
804.989	0.0128318
805.068	0.0127734
805.146	0.0126051
805.224	0.0126568
805.302	0.0125455
805.380	0.0124294
805.458	0.0126616
805.536	0.0125683
805.614	0.0125874
805.693	0.0125766
805.771	0.0124488
805.849	0.0123946
805.927	0.0125748
806.005	0.0124916
806.083	0.0125064
806.161	0.0126445
806.239	0.0125725
806.318	0.0125753
806.396	0.0125022
806.474	0.0125327
806.552	0.0126218
806.630	0.0126607
806.708	0.0126197
806.786	0.0126411
806.864	0.0126238
806.943	0.0126096
807.021	0.0127435
807.099	0.0126727
807.177	0.0126318
807.255	0.0128231
807.333	0.0129858
807.411	0.0128772
807.489	0.0127727
807.568	0.0129220
807.646	0.0130029
807.724	0.0129627
807.802	0.0130446
807.880	0.0129686
807.958	0.0130450
808.036	0.0130779
808.114	0.0130528
808.193	0.0129548
808.271	0.0130616
808.349	0.0130740
808.427	0.0129866
808.505	0.0129528
808.583	0.0128794
808.661	0.0130684
808.739	0.0130821
808.818	0.0129891
808.896	0.0131289
808.974	0.0130235
809.052	0.0130061
809.130	0.0130811
809.208	0.0130971
809.286	0.0130053
809.364	0.0129668
809.443	0.0128790
809.521	0.0131001
809.599	0.0129518
809.677	0.0128307
809.755	0.0129467
809.833	0.0130297
809.911	0.0128346
809.989	0.0128418
810.068	0.0127570
810.146	0.0128116
810.224	0.0128378
810.302	0.0127067
810.380	0.0127262
810.458	0.0127035
810.536	0.0126548
810.614	0.0126838
810.693	0.0126273
810.771	0.0125523
810.849	0.0124524
810.927	0.0124760
811.005	0.0124435
811.083	0.0125887
811.161	0.0126947
811.239	0.0126957
811.318	0.0128421
811.396	0.0127287
811.474	0.0127847
811.552	0.0127470
811.630	0.0126842
811.708	0.0128057
811.786	0.0127502
811.864	0.0129595
811.943	0.0130084
812.021	0.0128458
812.099	0.0128100
812.177	0.0127676
812.255	0.0127960
812.333	0.0129960
812.411	0.0128937
812.489	0.0128780
812.568	0.0129148
812.646	0.0128885
812.724	0.0129544
812.802	0.0129776
812.880	0.0129876
812.958	0.0128522
813.036	0.0129104
813.114	0.0129298
813.193	0.0129986
813.271	0.0130334
813.349	0.0128138
813.427	0.0126918
813.505	0.0127676
813.583	0.0128101
813.661	0.0126676
813.739	0.0127228
813.818	0.0129239
813.896	0.0126863
813.974	0.0127301
814.052	0.0128060
814.130	0.0127676
814.208	0.0127612
814.286	0.0129008
814.364	0.0129575
814.443	0.0128947
814.521	0.0128196
814.599	0.0128635
814.677	0.0129913
814.755	0.0130156
814.833	0.0130681
814.911	0.0129568
814.989	0.0130124
815.068	0.0128175
815.146	0.0129691
815.224	0.0127913
815.302	0.0128256
815.380	0.0128516
815.458	0.0128806
815.536	0.0128661
815.614	0.0126926
815.693	0.0128511
815.771	0.0127022
815.849	0.0126659
815.927	0.0125353
816.005	0.0126687
816.083	0.0125225
816.161	0.0125130
816.239	0.0123873
816.318	0.0122514
816.396	0.0122964
816.474	0.0124037
816.552	0.0123282
816.630	0.0124027
816.708	0.0124226
816.786	0.0123704
816.864	0.0125777
816.943	0.0124377
817.021	0.0125956
817.099	0.0125703
817.177	0.0126936
817.255	0.0126248
817.333	0.0128046
817.411	0.0127534
817.489	0.0125877
817.568	0.0126798
817.646	0.0126864
817.724	0.0125455
817.802	0.0126148
817.880	0.0127157
817.958	0.0126009
818.036	0.0126810
818.114	0.0126575
818.193	0.0126592
818.271	0.0126836
818.349	0.0127640
818.427	0.0127350
818.505	0.0126707
818.583	0.0128491
818.661	0.0127592
818.739	0.0127567
818.818	0.0128221
818.896	0.0126907
818.974	0.0127029
819.052	0.0126625
819.130	0.0127636
819.208	0.0126653
819.286	0.0127051
819.364	0.0128422
819.443	0.0127971
819.521	0.0127917
819.599	0.0128300
819.677	0.0126745
819.755	0.0127291
819.833	0.0127542
819.911	0.0127599
819.989	0.0127647
820.068	0.0127430
820.146	0.0127213
820.224	0.0127069
820.302	0.0125663
820.380	0.0126228
820.458	0.0125031
820.536	0.0126471
820.614	0.0125014
820.693	0.0124695
820.771	0.0126615
820.849	0.0126234
820.927	0.0126911
821.005	0.0129313
821.083	0.0127873
821.161	0.0129469
821.239	0.0131076
821.318	0.0129195
821.396	0.0129483
821.474	0.0129367
821.552	0.0129663
821.630	0.0131554
821.708	0.0128570
821.786	0.0130122
821.864	0.0128879
821.943	0.0129929
822.021	0.0130057
822.099	0.0130278
822.177	0.0129913
822.255	0.0128814
822.333	0.0128074
822.411	0.0128548
822.489	0.0127901
822.568	0.0128379
822.646	0.0127596
822.724	0.0126438
822.802	0.0125153
822.880	0.0125180
822.958	0.0125285
823.036	0.0124429
823.114	0.0125620
823.193	0.0125620
823.271	0.0126055
823.349	0.0126450
823.427	0.0126857
823.505	0.0127764
823.583	0.0128011
823.661	0.0128522
823.739	0.0127459
823.818	0.0129924
823.896	0.0128136
823.974	0.0129046
824.052	0.0128915
824.130	0.0130059
824.208	0.0128693
824.286	0.0128878
824.364	0.0128249
824.443	0.0126761
824.521	0.0127721
824.599	0.0127342
824.677	0.0124778
824.755	0.0126783
824.833	0.0128487
824.911	0.0128118
824.989	0.0127531
825.068	0.0128545
825.146	0.0129217
825.224	0.0129728
825.302	0.0130210
825.380	0.0131582
825.458	0.0130502
825.536	0.0130025
825.614	0.0130608
825.693	0.0130886
825.771	0.0131672
825.849	0.0130729
825.927	0.0129500
826.005	0.0130550
826.083	0.0130262
826.161	0.0130442
826.239	0.0130721
826.318	0.0130259
826.396	0.0131080
826.474	0.0129111
826.552	0.0129507
826.630	0.0130353
826.708	0.0130220
826.786	0.0129321
826.864	0.0128207
826.943	0.0128647
827.021	0.0128158
827.099	0.0127191
827.177	0.0127232
827.255	0.0126993
827.333	0.0126071
827.411	0.0126395
827.489	0.0126040
827.568	0.0124561
827.646	0.0125636
827.724	0.0125960
827.802	0.0126118
827.880	0.0126111
827.958	0.0124694
828.036	0.0124237
828.114	0.0123672
828.193	0.0124717
828.271	0.0125195
828.349	0.0124696
828.427	0.0124895
828.505	0.0126446
828.583	0.0125307
828.661	0.0125812
828.739	0.0126419
828.818	0.0128239
828.896	0.0129383
828.974	0.0129984
829.052	0.0130392
829.130	0.0130780
829.208	0.0130958
829.286	0.0132352
829.364	0.0132755
829.443	0.0132639
829.521	0.0133440
829.599	0.0133932
829.677	0.0132267
829.755	0.0133258
829.833	0.0133570
829.911	0.0134184
829.989	0.0134420
830.068	0.0133614
830.146	0.0132676
830.224	0.0133359
830.302	0.0133186
830.380	0.0132589
830.458	0.0132872
830.536	0.0132604
830.614	0.0133612
830.693	0.0132269
830.771	0.0131506
830.849	0.0131199
830.927	0.0129482
831.005	0.0130784
831.083	0.0129746
831.161	0.0129875
831.239	0.0128675
831.318	0.0129601
831.396	0.0130091
831.474	0.0129508
831.552	0.0129185
831.630	0.0131772
831.708	0.0132417
831.786	0.0129422
831.864	0.0131917
831.943	0.0132753
832.021	0.0132459
832.099	0.0131914
832.177	0.0133378
832.255	0.0133753
832.333	0.0133583
832.411	0.0133878
832.489	0.0134286
832.568	0.0133817
832.646	0.0134138
832.724	0.0135744
832.802	0.0133770
832.880	0.0133778
832.958	0.0135040
833.036	0.0133025
833.114	0.0134336
833.193	0.0133681
833.271	0.0132725
833.349	0.0133423
833.427	0.0133330
833.505	0.0133238
833.583	0.0131123
833.661	0.0130640
833.739	0.0131834
833.818	0.0129175
833.896	0.0127510
833.974	0.0128584
834.052	0.0125906
834.130	0.0127409
834.208	0.0125943
834.286	0.0125736
834.364	0.0124844
834.443	0.0123972
834.521	0.0123872
834.599	0.0124567
834.677	0.0122594
834.755	0.0122316
834.833	0.0122689
834.911	0.0121767
834.989	0.0120963
835.068	0.0121654
835.146	0.0120290
835.224	0.0121938
835.302	0.0121685
835.380	0.0121922
835.458	0.0120824
835.536	0.0120108
835.614	0.0122099
835.693	0.0122788
835.771	0.0122948
835.849	0.0122860
835.927	0.0124910
836.005	0.0122155
836.083	0.0121451
836.161	0.0123068
836.239	0.0122443
836.318	0.0123721
836.396	0.0121815
836.474	0.0122915
836.552	0.0121818
836.630	0.0122283
836.708	0.0121964
836.786	0.0120523
836.864	0.0121194
836.943	0.0121033
837.021	0.0122038
837.099	0.0120292
837.177	0.0120509
837.255	0.0120759
837.333	0.0121580
837.411	0.0120614
837.489	0.0120330
837.568	0.0120524
837.646	0.0120715
837.724	0.0121068
837.802	0.0120611
837.880	0.0120630
837.958	0.0120995
838.036	0.0121390
838.114	0.0122123
838.193	0.0123214
838.271	0.0122584
838.349	0.0121996
838.427	0.0122809
838.505	0.0122950
838.583	0.0123234
838.661	0.0123702
838.739	0.0123744
838.818	0.0123322
838.896	0.0124088
838.974	0.0125106
839.052	0.0123527
839.130	0.0123641
839.208	0.0124028
839.286	0.0124796
839.364	0.0125565
839.443	0.0125584
839.521	0.0124923
839.599	0.0125642
839.677	0.0126339
839.755	0.0126376
839.833	0.0125951
839.911	0.0127367
839.989	0.0126898
840.068	0.0125858
840.146	0.0126025
840.224	0.0126839
840.302	0.0126789
840.380	0.0125755
840.458	0.0126014
840.536	0.0126907
840.614	0.0125382
840.693	0.0125483
840.771	0.0125881
840.849	0.0126623
840.927	0.0127456
841.005	0.0128354
841.083	0.0127196
841.161	0.0128411
841.239	0.0128401
841.318	0.0128669
841.396	0.0129258
841.474	0.0131049
841.552	0.0129520
841.630	0.0130104
841.708	0.0130602
841.786	0.0130656
841.864	0.0131461
841.943	0.0131895
842.021	0.0131171
842.099	0.0132208
842.177	0.0132296
842.255	0.0133459
842.333	0.0133530
842.411	0.0132491
842.489	0.0133697
842.568	0.0135035
842.646	0.0135589
842.724	0.0134699
842.802	0.0133687
842.880	0.0133891
842.958	0.0133617
843.036	0.0132873
843.114	0.0132280
843.193	0.0131890
843.271	0.0132252
843.349	0.0131297
843.427	0.0131614
843.505	0.0130869
843.583	0.0131629
843.661	0.0130221
843.739	0.0131075
843.818	0.0130049
843.896	0.0131509
843.974	0.0131254
844.052	0.0130135
844.130	0.0131090
844.208	0.0130977
844.286	0.0131470
844.364	0.0130041
844.443	0.0130477
844.521	0.0130055
844.599	0.0130367
844.677	0.0129340
844.755	0.0130448
844.833	0.0127686
844.911	0.0127712
844.989	0.0129111
845.068	0.0128832
845.146	0.0128500
845.224	0.0127065
845.302	0.0129505
845.380	0.0129356
845.458	0.0127679
845.536	0.0128820
845.614	0.0128120
845.693	0.0128553
845.771	0.0128174
845.849	0.0128967
845.927	0.0128925
846.005	0.0129354
846.083	0.0128860
846.161	0.0129039
846.239	0.0129092
846.318	0.0129171
846.396	0.0129537
846.474	0.0129581
846.552	0.0130132
846.630	0.0129790
846.708	0.0129169
846.786	0.0129295
846.864	0.0128160
846.943	0.0127912
847.021	0.0128424
847.099	0.0129285
847.177	0.0127975
847.255	0.0127528
847.333	0.0127891
847.411	0.0128835
847.489	0.0126543
847.568	0.0126402
847.646	0.0127843
847.724	0.0126571
847.802	0.0126688
847.880	0.0126614
847.958	0.0124960
848.036	0.0126933
848.114	0.0125922
848.193	0.0124222
848.271	0.0125468
848.349	0.0125053
848.427	0.0124458
848.505	0.0125625
848.583	0.0123179
848.661	0.0124235
848.739	0.0125521
848.818	0.0124417
848.896	0.0123913
848.974	0.0125674
849.052	0.0124899
849.130	0.0124533
849.208	0.0124791
849.286	0.0125587
849.364	0.0126884
849.443	0.0127654
849.521	0.0127805
849.599	0.0127036
849.677	0.0127074
849.755	0.0128077
849.833	0.0127911
849.911	0.0127254
849.989	0.0127068
850.068	0.0129041
850.146	0.0127781
850.224	0.0127248
850.302	0.0127946
850.380	0.0126780
850.458	0.0127723
850.536	0.0128113
850.614	0.0127601
850.693	0.0128197
850.771	0.0126908
850.849	0.0127554
850.927	0.0127737
851.005	0.0128662
851.083	0.0126977
851.161	0.0129966
851.239	0.0127888
851.318	0.0127395
851.396	0.0128030
851.474	0.0128057
851.552	0.0127035
851.630	0.0126726
851.708	0.0126175
851.786	0.0128059
851.864	0.0127203
851.943	0.0125250
852.021	0.0126800
852.099	0.0127531
852.177	0.0127598
852.255	0.0128487
852.333	0.0128358
852.411	0.0129414
852.489	0.0128965
852.568	0.0129088
852.646	0.0130840
852.724	0.0129667
852.802	0.0129475
852.880	0.0131261
852.958	0.0131162
853.036	0.0132696
853.114	0.0131170
853.193	0.0131647
853.271	0.0132669
853.349	0.0132619
853.427	0.0131749
853.505	0.0132769
853.583	0.0131599
853.661	0.0131271
853.739	0.0132519
853.818	0.0132352
853.896	0.0131982
853.974	0.0130902
854.052	0.0130491
854.130	0.0131759
854.208	0.0131222
854.286	0.0130834
854.364	0.0129150
854.443	0.0130227
854.521	0.0130122
854.599	0.0129751
854.677	0.0128587
854.755	0.0129042
854.833	0.0129290
854.911	0.0128998
854.989	0.0129952
855.068	0.0128969
855.146	0.0128851
855.224	0.0130789
855.302	0.0130511
855.380	0.0129783
855.458	0.0130003
855.536	0.0129438
855.614	0.0129471
855.693	0.0128640
855.771	0.0129401
855.849	0.0129341
855.927	0.0128829
856.005	0.0128268
856.083	0.0125988
856.161	0.0127182
856.239	0.0126414
856.318	0.0125485
856.396	0.0126466
856.474	0.0124969
856.552	0.0126497
856.630	0.0125557
856.708	0.0124818
856.786	0.0125478
856.864	0.0125884
856.943	0.0126250
857.021	0.0124148
857.099	0.0126969
857.177	0.0128651
857.255	0.0128881
857.333	0.0128184
857.411	0.0129097
857.489	0.0130618
857.568	0.0128616
857.646	0.0128265
857.724	0.0128915
857.802	0.0129796
857.880	0.0128929
857.958	0.0129645
858.036	0.0129884
858.114	0.0131413
858.193	0.0130841
858.271	0.0129516
858.349	0.0129042
858.427	0.0128752
858.505	0.0129029
858.583	0.0128754
858.661	0.0128817
858.739	0.0127460
858.818	0.0127749
858.896	0.0126298
858.974	0.0126733
859.052	0.0127831
859.130	0.0126579
859.208	0.0127245
859.286	0.0127216
859.364	0.0125304
859.443	0.0127692
859.521	0.0127628
859.599	0.0127382
859.677	0.0126719
859.755	0.0126888
859.833	0.0127302
859.911	0.0127478
859.989	0.0126461
860.068	0.0126830
860.146	0.0126846
860.224	0.0125926
860.302	0.0125333
860.380	0.0126875
860.458	0.0126057
860.536	0.0125652
860.614	0.0126251
860.693	0.0127095
860.771	0.0127369
860.849	0.0127418
860.927	0.0128705
861.005	0.0129270
861.083	0.0128282
861.161	0.0131548
861.239	0.0130704
861.318	0.0130664
861.396	0.0129352
861.474	0.0131611
861.552	0.0131818
861.630	0.0131390
861.708	0.0131053
861.786	0.0131225
861.864	0.0131783
861.943	0.0131194
862.021	0.0131873
862.099	0.0131642
862.177	0.0130012
862.255	0.0130861
862.333	0.0130462
862.411	0.0131116
862.489	0.0129860
862.568	0.0130984
862.646	0.0129609
862.724	0.0129959
862.802	0.0130705
862.880	0.0130953
862.958	0.0131426
863.036	0.0130164
863.114	0.0129989
863.193	0.0130076
863.271	0.0130955
863.349	0.0130398
863.427	0.0130600
863.505	0.0130756
863.583	0.0129816
863.661	0.0131038
863.739	0.0130773
863.818	0.0129473
863.896	0.0131063
863.974	0.0132074
864.052	0.0130492
864.130	0.0129076
864.208	0.0130545
864.286	0.0130796
864.364	0.0130550
864.443	0.0129550
864.521	0.0129207
864.599	0.0129050
864.677	0.0129674
864.755	0.0130696
864.833	0.0130438
864.911	0.0131582
864.989	0.0130915
865.068	0.0131223
865.146	0.0133309
865.224	0.0131210
865.302	0.0133073
865.380	0.0133919
865.458	0.0134520
865.536	0.0134746
865.614	0.0135365
865.693	0.0135127
865.771	0.0135487
865.849	0.0133355
865.927	0.0133263
866.005	0.0132919
866.083	0.0132269
866.161	0.0131263
866.239	0.0131097
866.318	0.0131044
866.396	0.0128561
866.474	0.0128850
866.552	0.0129075
866.630	0.0127466
866.708	0.0127887
866.786	0.0127328
866.864	0.0126231
866.943	0.0127132
867.021	0.0127673
867.099	0.0125812
867.177	0.0126628
867.255	0.0125857
867.333	0.0124332
867.411	0.0123844
867.489	0.0123369
867.568	0.0122904
867.646	0.0122980
867.724	0.0123585
867.802	0.0122250
867.880	0.0120278
867.958	0.0121647
868.036	0.0122684
868.114	0.0122442
868.193	0.0121516
868.271	0.0121629
868.349	0.0121290
868.427	0.0122489
868.505	0.0123625
868.583	0.0122611
868.661	0.0122734
868.739	0.0124517
868.818	0.0123911
868.896	0.0123946
868.974	0.0123882
869.052	0.0124913
869.130	0.0124976
869.208	0.0123926
869.286	0.0124969
869.364	0.0125536
869.443	0.0125282
869.521	0.0124835
869.599	0.0124432
869.677	0.0125568
869.755	0.0124928
869.833	0.0123859
869.911	0.0124210
869.989	0.0124074
870.068	0.0122992
870.146	0.0123042
870.224	0.0123382
870.302	0.0124580
870.380	0.0124300
870.458	0.0123388
870.536	0.0124677
870.614	0.0124450
870.693	0.0123875
870.771	0.0124915
870.849	0.0125754
870.927	0.0124741
871.005	0.0124783
871.083	0.0126092
871.161	0.0125219
871.239	0.0125885
871.318	0.0126714
871.396	0.0125979
871.474	0.0125236
871.552	0.0125045
871.630	0.0125645
871.708	0.0125648
871.786	0.0124581
871.864	0.0125910
871.943	0.0125966
872.021	0.0123866
872.099	0.0125735
872.177	0.0123927
872.255	0.0124464
872.333	0.0124126
872.411	0.0123050
872.489	0.0125098
872.568	0.0125282
872.646	0.0124553
872.724	0.0124884
872.802	0.0125771
872.880	0.0126670
872.958	0.0126489
873.036	0.0127348
873.114	0.0128591
873.193	0.0128673
873.271	0.0128452
873.349	0.0128884
873.427	0.0129182
873.505	0.0129388
873.583	0.0129125
873.661	0.0128092
873.739	0.0130692
873.818	0.0130037
873.896	0.0129086
873.974	0.0129633
874.052	0.0130312
874.130	0.0129002
874.208	0.0129745
874.286	0.0130447
874.364	0.0132452
874.443	0.0131088
874.521	0.0130627
874.599	0.0129559
874.677	0.0129973
874.755	0.0130687
874.833	0.0131953
874.911	0.0129867
874.989	0.0129700
875.068	0.0129787
875.146	0.0128714
875.224	0.0131017
875.302	0.0131435
875.380	0.0130279
875.458	0.0129319
875.536	0.0131315
875.614	0.0130883
875.693	0.0131229
875.771	0.0131593
875.849	0.0131565
875.927	0.0132838
876.005	0.0132693
876.083	0.0131808
876.161	0.0132884
876.239	0.0133002
876.318	0.0132719
876.396	0.0131944
876.474	0.0132049
876.552	0.0133140
876.630	0.0131776
876.708	0.0131796
876.786	0.0131682
876.864	0.0132856
876.943	0.0131348
877.021	0.0131247
877.099	0.0132037
877.177	0.0131533
877.255	0.0131062
877.333	0.0131544
877.411	0.0132675
877.489	0.0131470
877.568	0.0130235
877.646	0.0131084
877.724	0.0132990
877.802	0.0131162
877.880	0.0130650
877.958	0.0130192
878.036	0.0130460
878.114	0.0129475
878.193	0.0130862
878.271	0.0131194
878.349	0.0129551
878.427	0.0128590
878.505	0.0129790
878.583	0.0128994
878.661	0.0129186
878.739	0.0128362
878.818	0.0129290
878.896	0.0128581
878.974	0.0127711
879.052	0.0127088
879.130	0.0129301
879.208	0.0127373
879.286	0.0126133
879.364	0.0128011
879.443	0.0128074
879.521	0.0128478
879.599	0.0128409
879.677	0.0128169
879.755	0.0127232
879.833	0.0128423
879.911	0.0129156
879.989	0.0128143
880.068	0.0129756
880.146	0.0128667
880.224	0.0127933
880.302	0.0128593
880.380	0.0127291
880.458	0.0128084
880.536	0.0127576
880.614	0.0127887
880.693	0.0128072
880.771	0.0127001
880.849	0.0126849
880.927	0.0125919
881.005	0.0127245
881.083	0.0126740
881.161	0.0127252
881.239	0.0125920
881.318	0.0125619
881.396	0.0125040
881.474	0.0124784
881.552	0.0125221
881.630	0.0126212
881.708	0.0124329
881.786	0.0124824
881.864	0.0125066
881.943	0.0124884
882.021	0.0124821
882.099	0.0126589
882.177	0.0124139
882.255	0.0126976
882.333	0.0127316
882.411	0.0127533
882.489	0.0128140
882.568	0.0128282
882.646	0.0127242
882.724	0.0129084
882.802	0.0129739
882.880	0.0128206
882.958	0.0128240
883.036	0.0126927
883.114	0.0127951
883.193	0.0127499
883.271	0.0129015
883.349	0.0128896
883.427	0.0126874
883.505	0.0128217
883.583	0.0128964
883.661	0.0128181
883.739	0.0127779
883.818	0.0128082
883.896	0.0127876
883.974	0.0127829
884.052	0.0129362
884.130	0.0129034
884.208	0.0127335
884.286	0.0128896
884.364	0.0127487
884.443	0.0127351
884.521	0.0129470
884.599	0.0128539
884.677	0.0127594
884.755	0.0127897
884.833	0.0128819
884.911	0.0127277
884.989	0.0128598
885.068	0.0130322
885.146	0.0128954
885.224	0.0129025
885.302	0.0128306
885.380	0.0128507
885.458	0.0125631
885.536	0.0126002
885.614	0.0128114
885.693	0.0125764
885.771	0.0126256
885.849	0.0126248
885.927	0.0124937
886.005	0.0125041
886.083	0.0123947
886.161	0.0124400
886.239	0.0124101
886.318	0.0124322
886.396	0.0124699
886.474	0.0127196
886.552	0.0126488
886.630	0.0128426
886.708	0.0127065
886.786	0.0128485
886.864	0.0126797
886.943	0.0126924
887.021	0.0127960
887.099	0.0127760
887.177	0.0128629
887.255	0.0129300
887.333	0.0128510
887.411	0.0127133
887.489	0.0126576
887.568	0.0126840
887.646	0.0128027
887.724	0.0127957
887.802	0.0128251
887.880	0.0126540
887.958	0.0127923
888.036	0.0127328
888.114	0.0126563
888.193	0.0128043
888.271	0.0127925
888.349	0.0127926
888.427	0.0127976
888.505	0.0126461
888.583	0.0127517
888.661	0.0129207
888.739	0.0127160
888.818	0.0128018
888.896	0.0128809
888.974	0.0129081
889.052	0.0128011
889.130	0.0129062
889.208	0.0127565
889.286	0.0127371
889.364	0.0129162
889.443	0.0128178
889.521	0.0127380
889.599	0.0127498
889.677	0.0127876
889.755	0.0127762
889.833	0.0127654
889.911	0.0129394
889.989	0.0128441
890.068	0.0127187
890.146	0.0127489
890.224	0.0125974
890.302	0.0127126
890.380	0.0128162
890.458	0.0127185
890.536	0.0127079
890.614	0.0126059
890.693	0.0126576
890.771	0.0126525
890.849	0.0126981
890.927	0.0127000
891.005	0.0127222
891.083	0.0126535
891.161	0.0127708
891.239	0.0127488
891.318	0.0126465
891.396	0.0127767
891.474	0.0128470
891.552	0.0128998
891.630	0.0128268
891.708	0.0128451
891.786	0.0129204
891.864	0.0129222
891.943	0.0128966
892.021	0.0127747
892.099	0.0127975
892.177	0.0127823
892.255	0.0127515
892.333	0.0125935
892.411	0.0126043
892.489	0.0124372
892.568	0.0126336
892.646	0.0126397
892.724	0.0125246
892.802	0.0124499
892.880	0.0125346
892.958	0.0124767
893.036	0.0125367
893.114	0.0125812
893.193	0.0124931
893.271	0.0125974
893.349	0.0127025
893.427	0.0128702
893.505	0.0128098
893.583	0.0126161
893.661	0.0127563
893.739	0.0128681
893.818	0.0128420
893.896	0.0128140
893.974	0.0130798
894.052	0.0129184
894.130	0.0128397
894.208	0.0130014
894.286	0.0129492
894.364	0.0128329
894.443	0.0128848
894.521	0.0128994
894.599	0.0127856
894.677	0.0129987
894.755	0.0127094
894.833	0.0127567
894.911	0.0129375
894.989	0.0129520
895.068	0.0128265
895.146	0.0128116
895.224	0.0127528
895.302	0.0128067
895.380	0.0128345
895.458	0.0129633
895.536	0.0130025
895.614	0.0131980
895.693	0.0131045
895.771	0.0129974
895.849	0.0131864
895.927	0.0131136
896.005	0.0132178
896.083	0.0133158
896.161	0.0131571
896.239	0.0131089
896.318	0.0130892
896.396	0.0128859
896.474	0.0129291
896.552	0.0127339
896.630	0.0128930
896.708	0.0127042
896.786	0.0126540
896.864	0.0125874
896.943	0.0125443
897.021	0.0125394
897.099	0.0125240
897.177	0.0123460
897.255	0.0125903
897.333	0.0127749
897.411	0.0124944
897.489	0.0125261
897.568	0.0125843
897.646	0.0125291
897.724	0.0124625
897.802	0.0126578
897.880	0.0125140
897.958	0.0125278
898.036	0.0124245
898.114	0.0124892
898.193	0.0125895
898.271	0.0123708
898.349	0.0124346
898.427	0.0125781
898.505	0.0124541
898.583	0.0122587
898.661	0.0124318
898.739	0.0125061
898.818	0.0125121
898.896	0.0125563
898.974	0.0124990
899.052	0.0125932
899.130	0.0126146
899.208	0.0126705
899.286	0.0127049
899.364	0.0125449
899.443	0.0126749
899.521	0.0127447
899.599	0.0125594
899.677	0.0126466
899.755	0.0127013
899.833	0.0125431
899.911	0.0126983
899.989	0.0124925
900.068	0.0127422
900.146	0.0125787
900.224	0.0125195
900.302	0.0124136
900.380	0.0125423
900.458	0.0125781
900.536	0.0124329
900.614	0.0125034
900.693	0.0125073
900.771	0.0124457
900.849	0.0124392
900.927	0.0124414
901.005	0.0124937
901.083	0.0126141
901.161	0.0125970
901.239	0.0125416
901.318	0.0127703
901.396	0.0126340
901.474	0.0127000
901.552	0.0129227
901.630	0.0129047
901.708	0.0127819
901.786	0.0129550
901.864	0.0128870
901.943	0.0128528
902.021	0.0127920
902.099	0.0127060
902.177	0.0127689
902.255	0.0126023
902.333	0.0125075
902.411	0.0124958
902.489	0.0123885
902.568	0.0124235
902.646	0.0124366
902.724	0.0123024
902.802	0.0123089
902.880	0.0124078
902.958	0.0124701
903.036	0.0123528
903.114	0.0124947
903.193	0.0124850
903.271	0.0126173
903.349	0.0127452
903.427	0.0128716
903.505	0.0129295
903.583	0.0127287
903.661	0.0128721
903.739	0.0129709
903.818	0.0129507
903.896	0.0129021
903.974	0.0130215
904.052	0.0131457
904.130	0.0131065
904.208	0.0130740
904.286	0.0130505
904.364	0.0129326
904.443	0.0130403
904.521	0.0129440
904.599	0.0128665
904.677	0.0130167
904.755	0.0129387
904.833	0.0129517
904.911	0.0129449
904.989	0.0129594
905.068	0.0129784
905.146	0.0129266
905.224	0.0131384
905.302	0.0130273
905.380	0.0129861
905.458	0.0129971
905.536	0.0131090
905.614	0.0130762
905.693	0.0131687
905.771	0.0132370
905.849	0.0134750
905.927	0.0135004
906.005	0.0133218
906.083	0.0135172
906.161	0.0135368
906.239	0.0134871
906.318	0.0134120
906.396	0.0134459
906.474	0.0133765
906.552	0.0132580
906.630	0.0131387
906.708	0.0132391
906.786	0.0131577
906.864	0.0130893
906.943	0.0131363
907.021	0.0129968
907.099	0.0128490
907.177	0.0129836
907.255	0.0127851
907.333	0.0127757
907.411	0.0128757
907.489	0.0127478
907.568	0.0127684
907.646	0.0127185
907.724	0.0127496
907.802	0.0125982
907.880	0.0125655
907.958	0.0126715
908.036	0.0125808
908.114	0.0126310
908.193	0.0126963
908.271	0.0125182
908.349	0.0124583
908.427	0.0124386
908.505	0.0124716
908.583	0.0123862
908.661	0.0124072
908.739	0.0123415
908.818	0.0123235
908.896	0.0122283
908.974	0.0123492
909.052	0.0124146
909.130	0.0123643
909.208	0.0123168
909.286	0.0124289
909.364	0.0125072
909.443	0.0125200
909.521	0.0124714
909.599	0.0125191
909.677	0.0125968
909.755	0.0126288
909.833	0.0127212
909.911	0.0126434
909.989	0.0124515
910.068	0.0123647
910.146	0.0125631
910.224	0.0124688
910.302	0.0124673
910.380	0.0125636
910.458	0.0123096
910.536	0.0124310
910.614	0.0124561
910.693	0.0123909
910.771	0.0121901
910.849	0.0123158
910.927	0.0123220
911.005	0.0123730
911.083	0.0122362
911.161	0.0123340
911.239	0.0122868
911.318	0.0124335
911.396	0.0123141
911.474	0.0123859
911.552	0.0124698
911.630	0.0123743
911.708	0.0124483
911.786	0.0123965
911.864	0.0125073
911.943	0.0125648
912.021	0.0125900
912.099	0.0124664
912.177	0.0126331
912.255	0.0127147
912.333	0.0127421
912.411	0.0126872
912.489	0.0125938
912.568	0.0128032
912.646	0.0129383
912.724	0.0129922
912.802	0.0127840
912.880	0.0127908
912.958	0.0128760
913.036	0.0127242
913.114	0.0129128
913.193	0.0129298
913.271	0.0128442
913.349	0.0127995
913.427	0.0128637
913.505	0.0128219
913.583	0.0127041
913.661	0.0126910
913.739	0.0128293
913.818	0.0128324
913.896	0.0128577
913.974	0.0128426
914.052	0.0127119
914.130	0.0128640
914.208	0.0129861
914.286	0.0128115
914.364	0.0130781
914.443	0.0129429
914.521	0.0128749
914.599	0.0129899
914.677	0.0131879
914.755	0.0130599
914.833	0.0130537
914.911	0.0131459
914.989	0.0133779
915.068	0.0131755
915.146	0.0131107
915.224	0.0131757
915.302	0.0131020
915.380	0.0131249
915.458	0.0131406
915.536	0.0130653
915.614	0.0130348
915.693	0.0130990
915.771	0.0130783
915.849	0.0131017
915.927	0.0130484
916.005	0.0131142
916.083	0.0130655
916.161	0.0129900
916.239	0.0130411
916.318	0.0130404
916.396	0.0130247
916.474	0.0130824
916.552	0.0129725
916.630	0.0127574
916.708	0.0128343
916.786	0.0128780
916.864	0.0130152
916.943	0.0128997
917.021	0.0127575
917.099	0.0129125
917.177	0.0128436
917.255	0.0127922
917.333	0.0126315
917.411	0.0127319
917.489	0.0127325
917.568	0.0127911
917.646	0.0127135
917.724	0.0128132
917.802	0.0127585
917.880	0.0127766
917.958	0.0127045
918.036	0.0128347
918.114	0.0129919
918.193	0.0130441
918.271	0.0129868
918.349	0.0130763
918.427	0.0129307
918.505	0.0130278
918.583	0.0129729
918.661	0.0128638
918.739	0.0129069
918.818	0.0128637
918.896	0.0128560
918.974	0.0128271
919.052	0.0129136
919.130	0.0128696
919.208	0.0126891
919.286	0.0126852
919.364	0.0127942
919.443	0.0129086
919.521	0.0127277
919.599	0.0125938
919.677	0.0127176
919.755	0.0127477
919.833	0.0125596
919.911	0.0125031
919.989	0.0127129
920.068	0.0126701
920.146	0.0126109
920.224	0.0126714
920.302	0.0126970
920.380	0.0125313
920.458	0.0125673
920.536	0.0126133
920.614	0.0127048
920.693	0.0126223
920.771	0.0126208
920.849	0.0126596
920.927	0.0128318
921.005	0.0127108
921.083	0.0126321
921.161	0.0127435
921.239	0.0127168
921.318	0.0126279
921.396	0.0126660
921.474	0.0127325
921.552	0.0126560
921.630	0.0127009
921.708	0.0125668
921.786	0.0126256
921.864	0.0124789
921.943	0.0124506
922.021	0.0124837
922.099	0.0124779
922.177	0.0123251
922.255	0.0124796
922.333	0.0123302
922.411	0.0124446
922.489	0.0123622
922.568	0.0124789
922.646	0.0125196
922.724	0.0125407
922.802	0.0124539
922.880	0.0124040
922.958	0.0124823
923.036	0.0125068
923.114	0.0125390
923.193	0.0124873
923.271	0.0124166
923.349	0.0125302
923.427	0.0124750
923.505	0.0124336
923.583	0.0123873
923.661	0.0124530
923.739	0.0124632
923.818	0.0123463
923.896	0.0124357
923.974	0.0125951
924.052	0.0123687
924.130	0.0123000
924.208	0.0124139
924.286	0.0124711
924.364	0.0125002
924.443	0.0125439
924.521	0.0124348
924.599	0.0126390
924.677	0.0125735
924.755	0.0126398
924.833	0.0126678
924.911	0.0126819
924.989	0.0127605
925.068	0.0127643
925.146	0.0127899
925.224	0.0128792
925.302	0.0128870
925.380	0.0129073
925.458	0.0129517
925.536	0.0129138
925.614	0.0129440
925.693	0.0129786
925.771	0.0130067
925.849	0.0129517
925.927	0.0128448
926.005	0.0129492
926.083	0.0129269
926.161	0.0128008
926.239	0.0129283
926.318	0.0130748
926.396	0.0130582
926.474	0.0130102
926.552	0.0131127
926.630	0.0130256
926.708	0.0130148
926.786	0.0130721
926.864	0.0131288
926.943	0.0131133
927.021	0.0131210
927.099	0.0131081
927.177	0.0130654
927.255	0.0132477
927.333	0.0132199
927.411	0.0131781
927.489	0.0129923
927.568	0.0129897
927.646	0.0131363
927.724	0.0130690
927.802	0.0129524
927.880	0.0128841
927.958	0.0130939
928.036	0.0129917
928.114	0.0130829
928.193	0.0131009
928.271	0.0130916
928.349	0.0132645
928.427	0.0131947
928.505	0.0133629
928.583	0.0133243
928.661	0.0134965
928.739	0.0135209
928.818	0.0133681
928.896	0.0133374
928.974	0.0133356
929.052	0.0134127
929.130	0.0133382
929.208	0.0131863
929.286	0.0132240
929.364	0.0132562
929.443	0.0131369
929.521	0.0131961
929.599	0.0132353
929.677	0.0132034
929.755	0.0129671
929.833	0.0130711
929.911	0.0130257
929.989	0.0129819
930.068	0.0130946
930.146	0.0131286
930.224	0.0131577
930.302	0.0129694
930.380	0.0130070
930.458	0.0129723
930.536	0.0130784
930.614	0.0130465
930.693	0.0130395
930.771	0.0128507
930.849	0.0128748
930.927	0.0129798
931.005	0.0128146
931.083	0.0127233
931.161	0.0127393
931.239	0.0127135
931.318	0.0125761
931.396	0.0125652
931.474	0.0125281
931.552	0.0124888
931.630	0.0125913
931.708	0.0123955
931.786	0.0123918
931.864	0.0124265
931.943	0.0125084
932.021	0.0126401
932.099	0.0124929
932.177	0.0124508
932.255	0.0126182
932.333	0.0125607
932.411	0.0126749
932.489	0.0128198
932.568	0.0128260
932.646	0.0127128
932.724	0.0126991
932.802	0.0125786
932.880	0.0126541
932.958	0.0126925
933.036	0.0127391
933.114	0.0125212
933.193	0.0124879
933.271	0.0125357
933.349	0.0125087
933.427	0.0126221
933.505	0.0125910
933.583	0.0126228
933.661	0.0127174
933.739	0.0127052
933.818	0.0127068
933.896	0.0128956
933.974	0.0127871
934.052	0.0129083
934.130	0.0129108
934.208	0.0127409
934.286	0.0128239
934.364	0.0128751
934.443	0.0129211
934.521	0.0130093
934.599	0.0129652
934.677	0.0130325
934.755	0.0129234
934.833	0.0130717
934.911	0.0130214
934.989	0.0129272
935.068	0.0130469
935.146	0.0130553
935.224	0.0131433
935.302	0.0130659
935.380	0.0128814
935.458	0.0128915
935.536	0.0130771
935.614	0.0131481
935.693	0.0130840
935.771	0.0129230
935.849	0.0129398
935.927	0.0130125
936.005	0.0129199
936.083	0.0129722
936.161	0.0129649
936.239	0.0128779
936.318	0.0128085
936.396	0.0129391
936.474	0.0130525
936.552	0.0129260
936.630	0.0130466
936.708	0.0130893
936.786	0.0130828
936.864	0.0131859
936.943	0.0129859
937.021	0.0131709
937.099	0.0131356
937.177	0.0132693
937.255	0.0132893
937.333	0.0132110
937.411	0.0132127
937.489	0.0131297
937.568	0.0131882
937.646	0.0131979
937.724	0.0132671
937.802	0.0131773
937.880	0.0132143
937.958	0.0131384
938.036	0.0132647
938.114	0.0132096
938.193	0.0130933
938.271	0.0131386
938.349	0.0131236
938.427	0.0130248
938.505	0.0130661
938.583	0.0133100
938.661	0.0132758
938.739	0.0131157
938.818	0.0130988
938.896	0.0132401
938.974	0.0131041
939.052	0.0129642
939.130	0.0132601
939.208	0.0131996
939.286	0.0131194
939.364	0.0130529
939.443	0.0130709
939.521	0.0130146
939.599	0.0129367
939.677	0.0130022
939.755	0.0128413
939.833	0.0129244
939.911	0.0129922
939.989	0.0128307
940.068	0.0127935
940.146	0.0128483
940.224	0.0129390
940.302	0.0130031
940.380	0.0129303
940.458	0.0129524
940.536	0.0130208
940.614	0.0129738
940.693	0.0130063
940.771	0.0129893
940.849	0.0129183
940.927	0.0129325
941.005	0.0130402
941.083	0.0129680
941.161	0.0129906
941.239	0.0129059
941.318	0.0128105
941.396	0.0128825
941.474	0.0129042
941.552	0.0128126
941.630	0.0128670
941.708	0.0129320
941.786	0.0128699
941.864	0.0128816
941.943	0.0127495
942.021	0.0128091
942.099	0.0127053
942.177	0.0126672
942.255	0.0126704
942.333	0.0127862
942.411	0.0127425
942.489	0.0126794
942.568	0.0126677
942.646	0.0128536
942.724	0.0127746
942.802	0.0127020
942.880	0.0127780
942.958	0.0127071
943.036	0.0128008
943.114	0.0128648
943.193	0.0129633
943.271	0.0128725
943.349	0.0126951
943.427	0.0127425
943.505	0.0126263
943.583	0.0127394
943.661	0.0126849
943.739	0.0127898
943.818	0.0127493
943.896	0.0125557
943.974	0.0125417
944.052	0.0124686
944.130	0.0126714
944.208	0.0125206
944.286	0.0125391
944.364	0.0123872
944.443	0.0125098
944.521	0.0125087
944.599	0.0124355
944.677	0.0126682
944.755	0.0125708
944.833	0.0125826
944.911	0.0126252
944.989	0.0127943
945.068	0.0125623
945.146	0.0125133
945.224	0.0126473
945.302	0.0126591
945.380	0.0126521
945.458	0.0127246
945.536	0.0127082
945.614	0.0127192
945.693	0.0126567
945.771	0.0126289
945.849	0.0126446
945.927	0.0126795
946.005	0.0126453
946.083	0.0127244
946.161	0.0127681
946.239	0.0126540
946.318	0.0126975
946.396	0.0128107
946.474	0.0127779
946.552	0.0127768
946.630	0.0127645
946.708	0.0126951
946.786	0.0127131
946.864	0.0126571
946.943	0.0126543
947.021	0.0126527
947.099	0.0125887
947.177	0.0126112
947.255	0.0126022
947.333	0.0126298
947.411	0.0125935
947.489	0.0126673
947.568	0.0125954
947.646	0.0126479
947.724	0.0127693
947.802	0.0126665
947.880	0.0125673
947.958	0.0125011
948.036	0.0126027
948.114	0.0125576
948.193	0.0125165
948.271	0.0125783
948.349	0.0126177
948.427	0.0124573
948.505	0.0129057
948.583	0.0127140
948.661	0.0127103
948.739	0.0127174
948.818	0.0126566
948.896	0.0126129
948.974	0.0127341
949.052	0.0127995
949.130	0.0127287
949.208	0.0128473
949.286	0.0128696
949.364	0.0128920
949.443	0.0129758
949.521	0.0128540
949.599	0.0128719
949.677	0.0130495
949.755	0.0129487
949.833	0.0131296
949.911	0.0130975
949.989	0.0131006
950.068	0.0130202
950.146	0.0130676
950.224	0.0131258
950.302	0.0131245
950.380	0.0131595
950.458	0.0131513
950.536	0.0131481
950.614	0.0132195
950.693	0.0133079
950.771	0.0133565
950.849	0.0133025
950.927	0.0131901
951.005	0.0132745
951.083	0.0133184
951.161	0.0132699
951.239	0.0132744
951.318	0.0132491
951.396	0.0130487
951.474	0.0131284
951.552	0.0131533
951.630	0.0132126
951.708	0.0131656
951.786	0.0131135
951.864	0.0131878
951.943	0.0133424
952.021	0.0132229
952.099	0.0131073
952.177	0.0131229
952.255	0.0130396
952.333	0.0131009
952.411	0.0130555
952.489	0.0130868
952.568	0.0131707
952.646	0.0129874
952.724	0.0130096
952.802	0.0129443
952.880	0.0129169
952.958	0.0129949
953.036	0.0130539
953.114	0.0129431
953.193	0.0130119
953.271	0.0129078
953.349	0.0129302
953.427	0.0129594
953.505	0.0130847
953.583	0.0130195
953.661	0.0130757
953.739	0.0130300
953.818	0.0130982
953.896	0.0130222
953.974	0.0129829
954.052	0.0130169
954.130	0.0130872
954.208	0.0131006
954.286	0.0132029
954.364	0.0131525
954.443	0.0130333
954.521	0.0131456
954.599	0.0132358
954.677	0.0133353
954.755	0.0132246
954.833	0.0131073
954.911	0.0131698
954.989	0.0133174
955.068	0.0134480
955.146	0.0133369
955.224	0.0133174
955.302	0.0134131
955.380	0.0133376
955.458	0.0132530
955.536	0.0132242
955.614	0.0132004
955.693	0.0131747
955.771	0.0130491
955.849	0.0129765
955.927	0.0128427
956.005	0.0129501
956.083	0.0128172
956.161	0.0129891
956.239	0.0128696
956.318	0.0129147
956.396	0.0128650
956.474	0.0127357
956.552	0.0128239
956.630	0.0127944
956.708	0.0126154
956.786	0.0128026
956.864	0.0129044
956.943	0.0129789
957.021	0.0130640
957.099	0.0130018
957.177	0.0129128
957.255	0.0130106
957.333	0.0129200
957.411	0.0129433
957.489	0.0130651
957.568	0.0131133
957.646	0.0130038
957.724	0.0128985
957.802	0.0128856
957.880	0.0127882
957.958	0.0128242
958.036	0.0128733
958.114	0.0127825
958.193	0.0127924
958.271	0.0128719
958.349	0.0128221
958.427	0.0127225
958.505	0.0128405
958.583	0.0129291
958.661	0.0129025
958.739	0.0130011
958.818	0.0128165
958.896	0.0128051
958.974	0.0128237
959.052	0.0129832
959.130	0.0129781
959.208	0.0128857
959.286	0.0129926
959.364	0.0128841
959.443	0.0128429
959.521	0.0128924
959.599	0.0128020
959.677	0.0128859
959.755	0.0128198
959.833	0.0128670
959.911	0.0129716
