05/07/2022	17:05:16	Ver.	4.1	UNKNOWN
Optical Delay	639.989416	Delta X		0.078125	Sweeps	1	Scan Rate	0/0
Coordinates	Axis 1	NaN	Axis 2	NaN	Axis 3	NaN	Axis 4	NaN	Axis 5	NaN	Axis 6	0.000000
TX Power	0.000000	RX Power	0.000000

639.989	0.0128745
640.068	0.0128244
640.146	0.0129759
640.224	0.0129552
640.302	0.0127579
640.380	0.0129340
640.458	0.0128230
640.536	0.0129233
640.614	0.0128871
640.693	0.0129094
640.771	0.0128844
640.849	0.0129478
640.927	0.0127732
641.005	0.0128573
641.083	0.0128942
641.161	0.0129070
641.239	0.0127885
641.318	0.0129436
641.396	0.0129459
641.474	0.0128758
641.552	0.0127500
641.630	0.0129583
641.708	0.0129559
641.786	0.0129715
641.864	0.0130622
641.943	0.0128723
642.021	0.0129123
642.099	0.0129128
642.177	0.0128533
642.255	0.0130889
642.333	0.0128852
642.411	0.0129333
642.489	0.0128429
642.568	0.0128233
642.646	0.0129244
642.724	0.0129684
642.802	0.0128497
642.880	0.0130402
642.958	0.0129299
643.036	0.0128808
643.114	0.0128503
643.193	0.0129455
643.271	0.0127838
643.349	0.0128293
643.427	0.0128721
643.505	0.0129188
643.583	0.0128053
643.661	0.0127963
643.739	0.0129799
643.818	0.0128170
643.896	0.0129662
643.974	0.0129033
644.052	0.0127306
644.130	0.0128289
644.208	0.0129776
644.286	0.0129321
644.364	0.0128349
644.443	0.0129793
644.521	0.0129510
644.599	0.0129121
644.677	0.0128868
644.755	0.0129764
644.833	0.0129128
644.911	0.0128964
644.989	0.0129652
645.068	0.0128728
645.146	0.0127884
645.224	0.0129110
645.302	0.0128459
645.380	0.0128826
645.458	0.0128506
645.536	0.0128922
645.614	0.0128913
645.693	0.0128783
645.771	0.0129213
645.849	0.0128206
645.927	0.0128423
646.005	0.0128627
646.083	0.0128732
646.161	0.0128375
646.239	0.0128288
646.318	0.0128329
646.396	0.0128986
646.474	0.0127998
646.552	0.0129613
646.630	0.0129566
646.708	0.0128744
646.786	0.0128478
646.864	0.0128580
646.943	0.0129581
647.021	0.0128113
647.099	0.0127824
647.177	0.0128818
647.255	0.0128950
647.333	0.0129182
647.411	0.0128087
647.489	0.0127612
647.568	0.0129264
647.646	0.0128301
647.724	0.0126774
647.802	0.0128241
647.880	0.0129260
647.958	0.0129595
648.036	0.0127869
648.114	0.0128302
648.193	0.0130130
648.271	0.0128969
648.349	0.0127262
648.427	0.0127747
648.505	0.0129605
648.583	0.0127300
648.661	0.0129458
648.739	0.0129250
648.818	0.0128026
648.896	0.0128584
648.974	0.0127473
649.052	0.0128072
649.130	0.0128157
649.208	0.0127256
649.286	0.0128846
649.364	0.0129187
649.443	0.0128876
649.521	0.0129503
649.599	0.0128801
649.677	0.0128433
649.755	0.0127776
649.833	0.0129160
649.911	0.0128853
649.989	0.0128349
650.068	0.0128798
650.146	0.0129228
650.224	0.0129220
650.302	0.0127571
650.380	0.0128168
650.458	0.0128474
650.536	0.0129604
650.614	0.0129639
650.693	0.0129252
650.771	0.0128600
650.849	0.0128378
650.927	0.0128358
651.005	0.0128180
651.083	0.0127898
651.161	0.0129375
651.239	0.0128168
651.318	0.0128665
651.396	0.0129852
651.474	0.0128945
651.552	0.0128725
651.630	0.0128024
651.708	0.0129733
651.786	0.0128645
651.864	0.0128506
651.943	0.0128086
652.021	0.0128535
652.099	0.0129370
652.177	0.0128409
652.255	0.0127464
652.333	0.0128545
652.411	0.0128683
652.489	0.0127763
652.568	0.0129517
652.646	0.0128387
652.724	0.0128793
652.802	0.0128519
652.880	0.0128325
652.958	0.0127982
653.036	0.0128134
653.114	0.0128288
653.193	0.0129557
653.271	0.0127757
653.349	0.0129236
653.427	0.0129028
653.505	0.0129040
653.583	0.0129227
653.661	0.0127882
653.739	0.0129644
653.818	0.0128767
653.896	0.0129502
653.974	0.0128615
654.052	0.0130395
654.130	0.0128954
654.208	0.0128566
654.286	0.0127698
654.364	0.0127592
654.443	0.0129021
654.521	0.0129760
654.599	0.0128996
654.677	0.0129956
654.755	0.0129612
654.833	0.0129787
654.911	0.0130257
654.989	0.0128843
655.068	0.0129267
655.146	0.0130901
655.224	0.0128714
655.302	0.0128745
655.380	0.0128281
655.458	0.0129684
655.536	0.0128225
655.614	0.0128751
655.693	0.0128812
655.771	0.0129572
655.849	0.0128208
655.927	0.0128795
656.005	0.0127937
656.083	0.0128596
656.161	0.0129243
656.239	0.0129959
656.318	0.0128088
656.396	0.0128358
656.474	0.0127887
656.552	0.0129259
656.630	0.0128446
656.708	0.0129777
656.786	0.0128160
656.864	0.0128249
656.943	0.0129189
657.021	0.0130154
657.099	0.0129144
657.177	0.0129327
657.255	0.0129368
657.333	0.0128105
657.411	0.0128744
657.489	0.0128775
657.568	0.0128556
657.646	0.0129494
657.724	0.0128533
657.802	0.0127625
657.880	0.0128864
657.958	0.0129391
658.036	0.0129024
658.114	0.0128019
658.193	0.0128965
658.271	0.0128471
658.349	0.0127085
658.427	0.0128923
658.505	0.0130147
658.583	0.0128363
658.661	0.0127754
658.739	0.0128771
658.818	0.0129760
658.896	0.0129121
658.974	0.0128863
659.052	0.0128485
659.130	0.0127283
659.208	0.0129710
659.286	0.0129572
659.364	0.0128400
659.443	0.0129034
659.521	0.0128004
659.599	0.0128806
659.677	0.0127651
659.755	0.0128406
659.833	0.0128339
659.911	0.0128056
659.989	0.0128703
660.068	0.0129126
660.146	0.0128852
660.224	0.0128027
660.302	0.0128664
660.380	0.0129982
660.458	0.0127986
660.536	0.0127934
660.614	0.0129418
660.693	0.0129568
660.771	0.0128922
660.849	0.0127020
660.927	0.0129434
661.005	0.0129277
661.083	0.0128902
661.161	0.0129357
661.239	0.0128009
661.318	0.0127198
661.396	0.0129152
661.474	0.0127882
661.552	0.0128151
661.630	0.0128307
661.708	0.0129540
661.786	0.0129240
661.864	0.0127364
661.943	0.0127904
662.021	0.0129642
662.099	0.0128332
662.177	0.0128426
662.255	0.0128666
662.333	0.0128899
662.411	0.0128932
662.489	0.0127991
662.568	0.0128505
662.646	0.0128143
662.724	0.0129808
662.802	0.0128015
662.880	0.0126915
662.958	0.0127915
663.036	0.0129432
663.114	0.0129953
663.193	0.0129176
663.271	0.0128418
663.349	0.0127406
663.427	0.0129295
663.505	0.0129173
663.583	0.0128591
663.661	0.0129129
663.739	0.0127197
663.818	0.0127566
663.896	0.0128219
663.974	0.0129634
664.052	0.0127805
664.130	0.0127975
664.208	0.0128983
664.286	0.0129858
664.364	0.0128941
664.443	0.0127166
664.521	0.0129269
664.599	0.0129372
664.677	0.0129687
664.755	0.0128152
664.833	0.0128710
664.911	0.0128548
664.989	0.0128658
665.068	0.0128633
665.146	0.0128518
665.224	0.0129009
665.302	0.0129608
665.380	0.0130639
665.458	0.0129192
665.536	0.0128777
665.614	0.0129224
665.693	0.0128934
665.771	0.0129354
665.849	0.0129543
665.927	0.0128948
666.005	0.0128632
666.083	0.0127517
666.161	0.0130231
666.239	0.0130106
666.318	0.0129313
666.396	0.0128150
666.474	0.0127277
666.552	0.0129135
666.630	0.0129441
666.708	0.0127482
666.786	0.0128407
666.864	0.0130152
666.943	0.0130199
667.021	0.0129946
667.099	0.0128671
667.177	0.0127870
667.255	0.0129213
667.333	0.0129444
667.411	0.0129282
667.489	0.0128491
667.568	0.0129526
667.646	0.0129251
667.724	0.0129083
667.802	0.0129135
667.880	0.0130042
667.958	0.0129840
668.036	0.0129021
668.114	0.0130169
668.193	0.0130242
668.271	0.0128979
668.349	0.0130099
668.427	0.0130275
668.505	0.0129618
668.583	0.0128936
668.661	0.0130167
668.739	0.0129044
668.818	0.0129758
668.896	0.0130666
668.974	0.0127870
669.052	0.0128516
669.130	0.0129454
669.208	0.0128979
669.286	0.0130080
669.364	0.0127489
669.443	0.0129004
669.521	0.0129251
669.599	0.0129582
669.677	0.0129726
669.755	0.0129263
669.833	0.0129470
669.911	0.0129607
669.989	0.0128258
670.068	0.0128689
670.146	0.0127651
670.224	0.0128083
670.302	0.0128314
670.380	0.0128521
670.458	0.0127832
670.536	0.0128224
670.614	0.0129184
670.693	0.0129881
670.771	0.0130707
670.849	0.0129273
670.927	0.0129047
671.005	0.0128434
671.083	0.0128946
671.161	0.0129105
671.239	0.0129709
671.318	0.0129898
671.396	0.0128686
671.474	0.0127989
671.552	0.0128201
671.630	0.0127851
671.708	0.0128649
671.786	0.0128783
671.864	0.0128577
671.943	0.0127344
672.021	0.0127565
672.099	0.0127843
672.177	0.0128559
672.255	0.0128461
672.333	0.0128625
672.411	0.0129076
672.489	0.0129086
672.568	0.0128725
672.646	0.0128258
672.724	0.0127093
672.802	0.0128608
672.880	0.0128441
672.958	0.0128148
673.036	0.0128849
673.114	0.0127309
673.193	0.0128745
673.271	0.0128903
673.349	0.0128004
673.427	0.0128083
673.505	0.0129459
673.583	0.0127518
673.661	0.0127514
673.739	0.0128122
673.818	0.0128235
673.896	0.0128302
673.974	0.0127398
674.052	0.0126815
674.130	0.0128384
674.208	0.0128603
674.286	0.0128844
674.364	0.0127663
674.443	0.0128415
674.521	0.0127641
674.599	0.0130034
674.677	0.0126351
674.755	0.0126496
674.833	0.0127762
674.911	0.0127809
674.989	0.0129646
675.068	0.0126152
675.146	0.0128123
675.224	0.0128143
675.302	0.0128786
675.380	0.0127396
675.458	0.0128141
675.536	0.0128903
675.614	0.0128860
675.693	0.0128060
675.771	0.0128605
675.849	0.0128902
675.927	0.0127293
676.005	0.0128540
676.083	0.0127633
676.161	0.0129105
676.239	0.0128768
676.318	0.0127982
676.396	0.0127868
676.474	0.0126711
676.552	0.0128507
676.630	0.0126440
676.708	0.0127831
676.786	0.0129399
676.864	0.0128229
676.943	0.0129099
677.021	0.0128505
677.099	0.0126753
677.177	0.0128675
677.255	0.0128671
677.333	0.0127585
677.411	0.0127941
677.489	0.0129180
677.568	0.0127466
677.646	0.0127344
677.724	0.0128519
677.802	0.0127162
677.880	0.0128613
677.958	0.0128936
678.036	0.0127115
678.114	0.0127921
678.193	0.0128208
678.271	0.0127954
678.349	0.0128728
678.427	0.0128046
678.505	0.0126630
678.583	0.0128297
678.661	0.0128059
678.739	0.0128559
678.818	0.0128205
678.896	0.0128998
678.974	0.0127981
679.052	0.0127938
679.130	0.0128329
679.208	0.0127884
679.286	0.0127567
679.364	0.0126961
679.443	0.0128571
679.521	0.0129477
679.599	0.0128830
679.677	0.0127190
679.755	0.0128471
679.833	0.0129020
679.911	0.0129839
679.989	0.0129092
680.068	0.0128508
680.146	0.0129447
680.224	0.0128353
680.302	0.0128816
680.380	0.0128971
680.458	0.0128973
680.536	0.0128004
680.614	0.0128519
680.693	0.0129317
680.771	0.0129551
680.849	0.0128216
680.927	0.0127751
681.005	0.0129662
681.083	0.0128123
681.161	0.0127742
681.239	0.0127946
681.318	0.0128613
681.396	0.0129652
681.474	0.0128265
681.552	0.0128875
681.630	0.0129477
681.708	0.0129025
681.786	0.0128978
681.864	0.0129253
681.943	0.0128009
682.021	0.0128386
682.099	0.0127770
682.177	0.0127674
682.255	0.0126740
682.333	0.0127496
682.411	0.0126149
682.489	0.0124650
682.568	0.0126634
682.646	0.0127175
682.724	0.0126671
682.802	0.0128927
682.880	0.0128313
682.958	0.0129367
683.036	0.0131954
683.114	0.0133270
683.193	0.0133602
683.271	0.0133492
683.349	0.0133713
683.427	0.0134536
683.505	0.0132626
683.583	0.0132879
683.661	0.0131400
683.739	0.0129781
683.818	0.0128047
683.896	0.0125139
683.974	0.0123640
684.052	0.0122091
684.130	0.0120657
684.208	0.0119646
684.286	0.0118360
684.364	0.0117211
684.443	0.0119202
684.521	0.0119285
684.599	0.0121172
684.677	0.0123126
684.755	0.0126998
684.833	0.0128910
684.911	0.0132958
684.989	0.0136085
685.068	0.0138937
685.146	0.0141482
685.224	0.0142100
685.302	0.0144106
685.380	0.0143531
685.458	0.0143533
685.536	0.0142871
685.614	0.0141243
685.693	0.0139985
685.771	0.0137736
685.849	0.0133375
685.927	0.0130874
686.005	0.0126714
686.083	0.0122863
686.161	0.0117872
686.239	0.0114188
686.318	0.0111177
686.396	0.0106410
686.474	0.0104258
686.552	0.0101333
686.630	0.0101231
686.708	0.0102587
686.786	0.0105502
686.864	0.0107637
686.943	0.0113067
687.021	0.0119563
687.099	0.0125701
687.177	0.0134510
687.255	0.0141006
687.333	0.0147746
687.411	0.0154266
687.489	0.0159013
687.568	0.0161098
687.646	0.0161135
687.724	0.0161700
687.802	0.0159315
687.880	0.0156934
687.958	0.0153729
688.036	0.0148989
688.114	0.0144041
688.193	0.0139059
688.271	0.0134689
688.349	0.0128436
688.427	0.0122434
688.505	0.0118020
688.583	0.0113361
688.661	0.0110725
688.739	0.0109019
688.818	0.0105208
688.896	0.0102277
688.974	0.0100674
689.052	0.0100900
689.130	0.00981255
689.208	0.00995728
689.286	0.0102509
689.364	0.0105366
689.443	0.0106004
689.521	0.0111449
689.599	0.0116232
689.677	0.0121359
689.755	0.0125183
689.833	0.0131721
689.911	0.0139570
689.989	0.0143433
690.068	0.0148772
690.146	0.0150851
690.224	0.0152734
690.302	0.0154805
690.380	0.0157671
690.458	0.0157620
690.536	0.0156580
690.614	0.0155471
690.693	0.0155719
690.771	0.0153626
690.849	0.0152638
690.927	0.0148386
691.005	0.0144522
691.083	0.0144149
691.161	0.0137999
691.239	0.0134189
691.318	0.0129197
691.396	0.0123279
691.474	0.0118467
691.552	0.0113675
691.630	0.0109354
691.708	0.0103853
691.786	0.0102000
691.864	0.00988449
691.943	0.00967842
692.021	0.00953339
692.099	0.00952461
692.177	0.00959991
692.255	0.00976097
692.333	0.0101767
692.411	0.0104560
692.489	0.0108933
692.568	0.0113622
692.646	0.0116162
692.724	0.0122186
692.802	0.0128751
692.880	0.0133433
692.958	0.0137516
693.036	0.0142923
693.114	0.0145885
693.193	0.0148920
693.271	0.0153551
693.349	0.0157845
693.427	0.0159241
693.505	0.0160980
693.583	0.0160241
693.661	0.0160251
693.739	0.0160090
693.818	0.0155602
693.896	0.0152902
693.974	0.0151094
694.052	0.0146543
694.130	0.0142679
694.208	0.0138242
694.286	0.0133611
694.364	0.0128254
694.443	0.0125053
694.521	0.0119283
694.599	0.0114955
694.677	0.0112125
694.755	0.0108458
694.833	0.0106712
694.911	0.0106693
694.989	0.0105320
695.068	0.0102953
695.146	0.0104748
695.224	0.0107755
695.302	0.0110381
695.380	0.0111388
695.458	0.0113839
695.536	0.0118038
695.614	0.0121529
695.693	0.0125317
695.771	0.0130094
695.849	0.0134161
695.927	0.0135529
696.005	0.0140378
696.083	0.0142948
696.161	0.0145599
696.239	0.0143591
696.318	0.0144172
696.396	0.0144950
696.474	0.0143267
696.552	0.0141920
696.630	0.0139278
696.708	0.0136256
696.786	0.0133881
696.864	0.0130187
696.943	0.0126320
697.021	0.0123263
697.099	0.0121323
697.177	0.0118117
697.255	0.0116734
697.333	0.0116144
697.411	0.0114143
697.489	0.0115717
697.568	0.0118073
697.646	0.0117962
697.724	0.0118877
697.802	0.0121133
697.880	0.0124210
697.958	0.0127817
698.036	0.0131138
698.114	0.0134486
698.193	0.0136841
698.271	0.0140459
698.349	0.0140938
698.427	0.0143848
698.505	0.0147221
698.583	0.0147900
698.661	0.0147848
698.739	0.0148168
698.818	0.0147165
698.896	0.0145947
698.974	0.0144560
699.052	0.0141381
699.130	0.0138632
699.208	0.0135921
699.286	0.0132919
699.364	0.0129399
699.443	0.0125443
699.521	0.0122633
699.599	0.0119160
699.677	0.0116537
699.755	0.0113533
699.833	0.0112217
699.911	0.0109373
699.989	0.0107131
700.068	0.0107052
700.146	0.0104628
700.224	0.0106010
700.302	0.0107186
700.380	0.0107431
700.458	0.0108555
700.536	0.0111777
700.614	0.0113432
700.693	0.0116576
700.771	0.0118802
700.849	0.0121722
700.927	0.0126469
701.005	0.0128822
701.083	0.0133198
701.161	0.0137659
701.239	0.0138509
701.318	0.0142623
701.396	0.0146325
701.474	0.0147436
701.552	0.0146877
701.630	0.0149468
701.708	0.0150218
701.786	0.0150638
701.864	0.0148488
701.943	0.0145438
702.021	0.0145448
702.099	0.0142707
702.177	0.0140090
702.255	0.0137967
702.333	0.0135197
702.411	0.0131453
702.489	0.0129995
702.568	0.0126206
702.646	0.0123457
702.724	0.0122181
702.802	0.0120364
702.880	0.0119530
702.958	0.0118504
703.036	0.0117770
703.114	0.0117616
703.193	0.0117227
703.271	0.0119432
703.349	0.0119024
703.427	0.0120997
703.505	0.0124628
703.583	0.0125298
703.661	0.0127718
703.739	0.0127305
703.818	0.0129663
703.896	0.0132446
703.974	0.0131979
704.052	0.0133100
704.130	0.0135054
704.208	0.0134766
704.286	0.0135344
704.364	0.0134731
704.443	0.0134679
704.521	0.0133245
704.599	0.0131479
704.677	0.0131977
704.755	0.0129054
704.833	0.0128201
704.911	0.0127247
704.989	0.0126353
705.068	0.0124071
705.146	0.0123798
705.224	0.0122244
705.302	0.0120532
705.380	0.0118322
705.458	0.0118413
705.536	0.0120419
705.614	0.0119509
705.693	0.0119492
705.771	0.0118401
705.849	0.0119041
705.927	0.0120144
706.005	0.0120922
706.083	0.0121034
706.161	0.0122066
706.239	0.0121867
706.318	0.0123505
706.396	0.0123657
706.474	0.0126601
706.552	0.0129442
706.630	0.0128089
706.708	0.0130721
706.786	0.0132498
706.864	0.0135915
706.943	0.0136736
707.021	0.0136971
707.099	0.0139085
707.177	0.0140527
707.255	0.0140788
707.333	0.0144084
707.411	0.0144951
707.489	0.0144169
707.568	0.0142873
707.646	0.0144443
707.724	0.0142973
707.802	0.0143081
707.880	0.0142747
707.958	0.0139939
708.036	0.0139501
708.114	0.0138164
708.193	0.0135128
708.271	0.0132829
708.349	0.0129958
708.427	0.0128551
708.505	0.0125112
708.583	0.0123550
708.661	0.0121299
708.739	0.0118317
708.818	0.0116244
708.896	0.0116417
708.974	0.0114423
709.052	0.0114407
709.130	0.0114044
709.208	0.0112486
709.286	0.0113975
709.364	0.0115115
709.443	0.0114611
709.521	0.0114508
709.599	0.0117105
709.677	0.0117924
709.755	0.0118616
709.833	0.0117897
709.911	0.0118993
709.989	0.0120936
710.068	0.0121902
710.146	0.0122620
710.224	0.0124428
710.302	0.0126089
710.380	0.0125861
710.458	0.0126875
710.536	0.0127940
710.614	0.0129807
710.693	0.0131432
710.771	0.0130998
710.849	0.0131100
710.927	0.0132561
711.005	0.0132193
711.083	0.0133857
711.161	0.0132566
711.239	0.0132500
711.318	0.0133510
711.396	0.0132601
711.474	0.0134435
711.552	0.0135689
711.630	0.0135192
711.708	0.0136784
711.786	0.0140076
711.864	0.0140131
711.943	0.0141216
712.021	0.0141235
712.099	0.0141717
712.177	0.0141709
712.255	0.0143015
712.333	0.0142995
712.411	0.0142077
712.489	0.0140455
712.568	0.0140323
712.646	0.0139279
712.724	0.0137093
712.802	0.0135049
712.880	0.0131462
712.958	0.0129146
713.036	0.0127506
713.114	0.0125709
713.193	0.0122299
713.271	0.0120039
713.349	0.0119352
713.427	0.0116156
713.505	0.0115215
713.583	0.0112999
713.661	0.0111226
713.739	0.0113195
713.818	0.0111998
713.896	0.0111855
713.974	0.0112946
714.052	0.0113847
714.130	0.0116546
714.208	0.0115218
714.286	0.0117760
714.364	0.0120309
714.443	0.0122144
714.521	0.0123882
714.599	0.0124545
714.677	0.0126244
714.755	0.0127781
714.833	0.0130986
714.911	0.0131194
714.989	0.0131379
715.068	0.0131696
715.146	0.0132523
715.224	0.0132049
715.302	0.0133468
715.380	0.0133198
715.458	0.0132574
715.536	0.0131432
715.614	0.0131355
715.693	0.0131139
715.771	0.0129980
715.849	0.0129250
715.927	0.0129163
716.005	0.0127695
716.083	0.0126974
716.161	0.0127907
716.239	0.0128609
716.318	0.0128926
716.396	0.0128255
716.474	0.0129565
716.552	0.0131784
716.630	0.0132734
716.708	0.0133328
716.786	0.0134640
716.864	0.0134569
716.943	0.0137769
717.021	0.0137325
717.099	0.0138773
717.177	0.0139864
717.255	0.0138672
717.333	0.0140199
717.411	0.0139658
717.489	0.0138190
717.568	0.0139842
717.646	0.0136259
717.724	0.0135310
717.802	0.0134779
717.880	0.0133454
717.958	0.0132948
718.036	0.0131930
718.114	0.0129040
718.193	0.0129316
718.271	0.0127954
718.349	0.0126775
718.427	0.0126682
718.505	0.0126620
718.583	0.0125917
718.661	0.0124226
718.739	0.0123622
718.818	0.0124385
718.896	0.0123195
718.974	0.0122807
719.052	0.0122532
719.130	0.0122203
719.208	0.0121453
719.286	0.0120845
719.364	0.0119478
719.443	0.0119810
719.521	0.0120412
719.599	0.0118487
719.677	0.0119559
719.755	0.0118425
719.833	0.0119321
719.911	0.0120049
719.989	0.0119839
720.068	0.0120296
720.146	0.0122099
720.224	0.0122326
720.302	0.0124258
720.380	0.0124886
720.458	0.0124893
720.536	0.0127601
720.614	0.0127448
720.693	0.0130695
720.771	0.0131074
720.849	0.0129150
720.927	0.0130612
721.005	0.0131318
721.083	0.0132859
721.161	0.0132431
721.239	0.0131182
721.318	0.0131830
721.396	0.0132684
721.474	0.0132569
721.552	0.0133660
721.630	0.0133260
721.708	0.0133173
721.786	0.0136642
721.864	0.0136755
721.943	0.0136090
722.021	0.0138412
722.099	0.0139944
722.177	0.0139412
722.255	0.0140364
722.333	0.0141819
722.411	0.0140514
722.489	0.0141323
722.568	0.0141717
722.646	0.0140932
722.724	0.0141795
722.802	0.0139581
722.880	0.0138512
722.958	0.0136089
723.036	0.0133622
723.114	0.0131322
723.193	0.0129848
723.271	0.0126984
723.349	0.0124991
723.427	0.0122553
723.505	0.0122983
723.583	0.0121402
723.661	0.0119934
723.739	0.0118557
723.818	0.0118763
723.896	0.0117394
723.974	0.0116615
724.052	0.0117285
724.130	0.0118366
724.208	0.0118669
724.286	0.0120523
724.364	0.0120779
724.443	0.0119543
724.521	0.0119872
724.599	0.0123137
724.677	0.0123792
724.755	0.0124020
724.833	0.0127007
724.911	0.0128322
724.989	0.0127464
725.068	0.0128011
725.146	0.0130550
725.224	0.0130597
725.302	0.0131406
725.380	0.0130647
725.458	0.0129663
725.536	0.0130215
725.614	0.0131228
725.693	0.0129673
725.771	0.0130246
725.849	0.0128177
725.927	0.0127146
726.005	0.0124719
726.083	0.0124483
726.161	0.0125347
726.239	0.0125460
726.318	0.0125535
726.396	0.0125391
726.474	0.0127164
726.552	0.0126307
726.630	0.0128224
726.708	0.0130017
726.786	0.0130479
726.864	0.0132101
726.943	0.0133650
727.021	0.0137017
727.099	0.0137860
727.177	0.0139278
727.255	0.0138912
727.333	0.0141310
727.411	0.0140919
727.489	0.0140636
727.568	0.0141125
727.646	0.0141592
727.724	0.0140379
727.802	0.0138834
727.880	0.0137734
727.958	0.0135316
728.036	0.0134507
728.114	0.0132280
728.193	0.0130157
728.271	0.0128628
728.349	0.0127689
728.427	0.0125539
728.505	0.0123193
728.583	0.0121329
728.661	0.0121014
728.739	0.0118907
728.818	0.0117937
728.896	0.0119533
728.974	0.0121062
729.052	0.0118543
729.130	0.0120278
729.208	0.0119238
729.286	0.0120609
729.364	0.0122456
729.443	0.0123073
729.521	0.0124731
729.599	0.0125029
729.677	0.0126092
729.755	0.0127789
729.833	0.0129029
729.911	0.0129185
729.989	0.0131297
730.068	0.0131448
730.146	0.0131780
730.224	0.0131973
730.302	0.0131322
730.380	0.0131416
730.458	0.0132102
730.536	0.0131451
730.614	0.0131183
730.693	0.0130633
730.771	0.0129543
730.849	0.0129034
730.927	0.0127606
731.005	0.0127823
731.083	0.0126251
731.161	0.0126095
731.239	0.0124604
731.318	0.0123914
731.396	0.0122530
731.474	0.0123264
731.552	0.0121306
731.630	0.0122346
731.708	0.0121639
731.786	0.0122172
731.864	0.0122742
731.943	0.0124397
732.021	0.0123148
732.099	0.0124939
732.177	0.0126396
732.255	0.0128070
732.333	0.0130003
732.411	0.0132110
732.489	0.0133507
732.568	0.0135638
732.646	0.0136843
732.724	0.0136592
732.802	0.0138822
732.880	0.0138960
732.958	0.0139181
733.036	0.0139054
733.114	0.0138519
733.193	0.0139484
733.271	0.0139024
733.349	0.0138329
733.427	0.0136189
733.505	0.0136697
733.583	0.0134113
733.661	0.0133406
733.739	0.0132250
733.818	0.0131253
733.896	0.0129436
733.974	0.0128921
734.052	0.0126900
734.130	0.0124842
734.208	0.0124355
734.286	0.0122395
734.364	0.0122163
734.443	0.0122075
734.521	0.0121338
734.599	0.0121812
734.677	0.0120982
734.755	0.0120980
734.833	0.0121224
734.911	0.0121893
734.989	0.0123800
735.068	0.0122981
735.146	0.0123427
735.224	0.0125449
735.302	0.0127060
735.380	0.0127547
735.458	0.0128560
735.536	0.0131226
735.614	0.0129698
735.693	0.0130534
735.771	0.0131411
735.849	0.0130515
735.927	0.0130685
736.005	0.0130501
736.083	0.0130193
736.161	0.0130781
736.239	0.0129684
736.318	0.0129134
736.396	0.0128718
736.474	0.0130247
736.552	0.0127560
736.630	0.0128342
736.708	0.0129087
736.786	0.0125781
736.864	0.0127124
736.943	0.0127271
737.021	0.0126305
737.099	0.0126342
737.177	0.0126683
737.255	0.0126166
737.333	0.0127647
737.411	0.0126777
737.489	0.0126528
737.568	0.0127004
737.646	0.0125468
737.724	0.0127241
737.802	0.0126870
737.880	0.0126639
737.958	0.0127307
738.036	0.0128753
738.114	0.0129133
738.193	0.0130463
738.271	0.0131348
738.349	0.0132075
738.427	0.0131611
738.505	0.0131277
738.583	0.0130801
738.661	0.0132627
738.739	0.0133566
738.818	0.0133128
738.896	0.0132868
738.974	0.0133427
739.052	0.0134370
739.130	0.0132718
739.208	0.0131550
739.286	0.0131317
739.364	0.0132373
739.443	0.0131604
739.521	0.0131181
739.599	0.0130311
739.677	0.0129060
739.755	0.0129176
739.833	0.0128918
739.911	0.0130449
739.989	0.0127584
740.068	0.0126023
740.146	0.0126535
740.224	0.0125189
740.302	0.0126100
740.380	0.0124866
740.458	0.0124394
740.536	0.0123782
740.614	0.0123891
740.693	0.0123083
740.771	0.0124156
740.849	0.0123464
740.927	0.0123705
741.005	0.0123729
741.083	0.0123517
741.161	0.0125185
741.239	0.0126356
741.318	0.0124176
741.396	0.0124771
741.474	0.0127129
741.552	0.0127420
741.630	0.0127487
741.708	0.0128562
741.786	0.0131258
741.864	0.0132106
741.943	0.0131322
742.021	0.0131668
742.099	0.0130466
742.177	0.0131606
742.255	0.0133231
742.333	0.0132800
742.411	0.0131841
742.489	0.0132970
742.568	0.0132720
742.646	0.0132030
742.724	0.0134467
742.802	0.0131793
742.880	0.0132445
742.958	0.0129913
743.036	0.0131123
743.114	0.0130219
743.193	0.0130445
743.271	0.0130330
743.349	0.0127570
743.427	0.0126707
743.505	0.0126374
743.583	0.0125467
743.661	0.0125471
743.739	0.0124744
743.818	0.0125294
743.896	0.0124647
743.974	0.0123679
744.052	0.0127195
744.130	0.0125889
744.208	0.0125122
744.286	0.0126740
744.364	0.0127444
744.443	0.0127710
744.521	0.0129238
744.599	0.0128800
744.677	0.0129475
744.755	0.0131322
744.833	0.0133167
744.911	0.0131351
744.989	0.0134144
745.068	0.0132542
745.146	0.0132336
745.224	0.0132008
745.302	0.0133392
745.380	0.0133491
745.458	0.0132294
745.536	0.0131595
745.614	0.0130428
745.693	0.0130813
745.771	0.0130443
745.849	0.0128477
745.927	0.0127181
746.005	0.0127025
746.083	0.0126456
746.161	0.0126757
746.239	0.0125584
746.318	0.0123132
746.396	0.0123891
746.474	0.0123453
746.552	0.0123837
746.630	0.0123416
746.708	0.0122877
746.786	0.0123650
746.864	0.0124939
746.943	0.0125990
747.021	0.0124916
747.099	0.0127553
747.177	0.0128227
747.255	0.0127579
747.333	0.0129611
747.411	0.0131184
747.489	0.0132817
747.568	0.0133938
747.646	0.0134179
747.724	0.0134164
747.802	0.0135478
747.880	0.0135519
747.958	0.0136542
748.036	0.0135763
748.114	0.0136188
748.193	0.0135164
748.271	0.0134223
748.349	0.0134788
748.427	0.0134764
748.505	0.0133347
748.583	0.0132536
748.661	0.0131810
748.739	0.0129243
748.818	0.0128407
748.896	0.0130556
748.974	0.0127942
749.052	0.0126988
749.130	0.0127254
749.208	0.0125884
749.286	0.0126596
749.364	0.0126079
749.443	0.0124374
749.521	0.0124750
749.599	0.0123515
749.677	0.0122681
749.755	0.0122094
749.833	0.0121235
749.911	0.0122515
749.989	0.0121987
750.068	0.0121008
750.146	0.0123083
750.224	0.0122176
750.302	0.0122897
750.380	0.0123026
750.458	0.0125068
750.536	0.0124705
750.614	0.0126282
750.693	0.0125634
750.771	0.0126570
750.849	0.0128134
750.927	0.0129870
751.005	0.0129278
751.083	0.0130795
751.161	0.0131033
751.239	0.0131111
751.318	0.0130905
751.396	0.0131889
751.474	0.0132827
751.552	0.0133810
751.630	0.0133493
751.708	0.0132886
751.786	0.0134536
751.864	0.0133849
751.943	0.0134237
752.021	0.0134382
752.099	0.0134853
752.177	0.0133749
752.255	0.0132118
752.333	0.0132682
752.411	0.0132201
752.489	0.0132756
752.568	0.0132390
752.646	0.0132249
752.724	0.0130366
752.802	0.0130274
752.880	0.0130036
752.958	0.0130147
753.036	0.0130051
753.114	0.0129412
753.193	0.0132818
753.271	0.0130762
753.349	0.0130346
753.427	0.0129292
753.505	0.0128512
753.583	0.0130033
753.661	0.0128021
753.739	0.0130241
753.818	0.0129985
753.896	0.0128814
753.974	0.0128963
754.052	0.0128719
754.130	0.0127821
754.208	0.0127621
754.286	0.0128863
754.364	0.0128088
754.443	0.0126793
754.521	0.0126898
754.599	0.0126772
754.677	0.0126792
754.755	0.0127299
754.833	0.0127180
754.911	0.0127827
754.989	0.0126911
755.068	0.0126727
755.146	0.0127612
755.224	0.0126547
755.302	0.0125296
755.380	0.0127396
755.458	0.0127823
755.536	0.0126977
755.614	0.0126596
755.693	0.0126138
755.771	0.0126258
755.849	0.0125907
755.927	0.0124505
756.005	0.0124570
756.083	0.0124339
756.161	0.0124332
756.239	0.0124034
756.318	0.0123423
756.396	0.0124783
756.474	0.0124478
756.552	0.0125697
756.630	0.0125079
756.708	0.0126456
756.786	0.0127764
756.864	0.0128615
756.943	0.0130672
757.021	0.0129231
757.099	0.0130795
757.177	0.0132839
757.255	0.0133311
757.333	0.0134163
757.411	0.0134349
757.489	0.0133106
757.568	0.0134449
757.646	0.0136607
757.724	0.0135158
757.802	0.0133797
757.880	0.0134435
757.958	0.0134223
758.036	0.0134054
758.114	0.0133393
758.193	0.0132771
758.271	0.0132629
758.349	0.0130909
758.427	0.0130125
758.505	0.0130553
758.583	0.0128166
758.661	0.0129157
758.739	0.0128771
758.818	0.0128614
758.896	0.0127886
758.974	0.0128204
759.052	0.0126899
759.130	0.0126644
759.208	0.0128646
759.286	0.0129222
759.364	0.0128426
759.443	0.0128938
759.521	0.0129348
759.599	0.0128384
759.677	0.0128728
759.755	0.0128043
759.833	0.0128589
759.911	0.0129855
759.989	0.0129530
760.068	0.0128329
760.146	0.0128428
760.224	0.0127782
760.302	0.0126927
760.380	0.0125712
760.458	0.0126402
760.536	0.0125280
760.614	0.0126369
760.693	0.0126697
760.771	0.0125193
760.849	0.0125157
760.927	0.0125542
761.005	0.0125906
761.083	0.0126214
761.161	0.0124897
761.239	0.0126109
761.318	0.0125335
761.396	0.0124618
761.474	0.0125661
761.552	0.0125179
761.630	0.0125918
761.708	0.0124681
761.786	0.0125431
761.864	0.0124836
761.943	0.0127177
762.021	0.0127768
762.099	0.0126067
762.177	0.0125797
762.255	0.0125452
762.333	0.0125738
762.411	0.0126695
762.489	0.0127888
762.568	0.0128214
762.646	0.0128979
762.724	0.0129082
762.802	0.0129387
762.880	0.0129842
762.958	0.0129739
763.036	0.0131792
763.114	0.0131897
763.193	0.0132449
763.271	0.0135162
763.349	0.0134018
763.427	0.0134314
763.505	0.0135750
763.583	0.0135673
763.661	0.0134454
763.739	0.0136039
763.818	0.0135180
763.896	0.0135529
763.974	0.0135651
764.052	0.0133504
764.130	0.0133447
764.208	0.0135463
764.286	0.0133723
764.364	0.0133134
764.443	0.0132774
764.521	0.0132076
764.599	0.0132367
764.677	0.0131232
764.755	0.0129882
764.833	0.0128983
764.911	0.0128152
764.989	0.0127080
765.068	0.0126661
765.146	0.0125327
765.224	0.0126240
765.302	0.0123714
765.380	0.0123716
765.458	0.0124982
765.536	0.0125247
765.614	0.0124517
765.693	0.0123135
765.771	0.0125504
765.849	0.0124908
765.927	0.0124596
766.005	0.0125249
766.083	0.0126247
766.161	0.0125045
766.239	0.0126726
766.318	0.0126636
766.396	0.0126618
766.474	0.0128082
766.552	0.0128525
766.630	0.0128027
766.708	0.0130173
766.786	0.0131490
766.864	0.0131712
766.943	0.0132854
767.021	0.0131302
767.099	0.0133654
767.177	0.0133288
767.255	0.0133371
767.333	0.0132909
767.411	0.0133361
767.489	0.0134606
767.568	0.0132932
767.646	0.0131068
767.724	0.0131377
767.802	0.0131158
767.880	0.0130743
767.958	0.0129585
768.036	0.0128145
768.114	0.0129437
768.193	0.0128951
768.271	0.0127956
768.349	0.0126443
768.427	0.0126393
768.505	0.0124769
768.583	0.0125579
768.661	0.0125899
768.739	0.0123803
768.818	0.0122905
768.896	0.0124880
768.974	0.0124449
769.052	0.0124005
769.130	0.0124010
769.208	0.0123457
769.286	0.0125504
769.364	0.0126329
769.443	0.0126178
769.521	0.0125418
769.599	0.0126762
769.677	0.0127026
769.755	0.0127647
769.833	0.0128247
769.911	0.0129485
769.989	0.0129613
770.068	0.0130762
770.146	0.0130547
770.224	0.0132467
770.302	0.0130793
770.380	0.0132180
770.458	0.0133355
770.536	0.0133434
770.614	0.0133627
770.693	0.0133607
770.771	0.0133005
770.849	0.0131886
770.927	0.0133480
771.005	0.0131493
771.083	0.0130497
771.161	0.0131630
771.239	0.0132125
771.318	0.0128930
771.396	0.0128031
771.474	0.0129464
771.552	0.0130586
771.630	0.0127553
771.708	0.0129005
771.786	0.0127321
771.864	0.0128246
771.943	0.0125890
772.021	0.0126598
772.099	0.0127303
772.177	0.0126945
772.255	0.0127245
772.333	0.0126912
772.411	0.0125999
772.489	0.0126353
772.568	0.0125547
772.646	0.0126112
772.724	0.0126524
772.802	0.0126532
772.880	0.0125964
772.958	0.0127208
773.036	0.0127809
773.114	0.0127825
773.193	0.0127664
773.271	0.0130560
773.349	0.0129759
773.427	0.0128114
773.505	0.0130089
773.583	0.0130124
773.661	0.0129481
773.739	0.0130613
773.818	0.0131615
773.896	0.0129948
773.974	0.0130995
774.052	0.0130845
774.130	0.0130525
774.208	0.0128690
774.286	0.0129305
774.364	0.0131090
774.443	0.0130189
774.521	0.0128326
774.599	0.0128658
774.677	0.0128407
774.755	0.0128791
774.833	0.0126605
774.911	0.0126533
774.989	0.0127133
775.068	0.0126279
775.146	0.0126390
775.224	0.0126003
775.302	0.0126581
775.380	0.0126054
775.458	0.0125275
775.536	0.0125563
775.614	0.0126837
775.693	0.0126136
775.771	0.0125588
775.849	0.0127210
775.927	0.0128046
776.005	0.0128397
776.083	0.0127010
776.161	0.0126592
776.239	0.0129514
776.318	0.0129175
776.396	0.0128954
776.474	0.0127959
776.552	0.0129809
776.630	0.0130451
776.708	0.0128352
776.786	0.0130332
776.864	0.0131491
776.943	0.0129270
777.021	0.0130161
777.099	0.0131564
777.177	0.0131354
777.255	0.0132555
777.333	0.0133981
777.411	0.0132613
777.489	0.0134230
777.568	0.0133714
777.646	0.0133023
777.724	0.0132899
777.802	0.0133278
777.880	0.0132934
777.958	0.0133118
778.036	0.0132705
778.114	0.0130794
778.193	0.0130745
778.271	0.0130402
778.349	0.0129355
778.427	0.0128966
778.505	0.0129034
778.583	0.0126633
778.661	0.0128044
778.739	0.0126582
778.818	0.0126736
778.896	0.0125809
778.974	0.0126389
779.052	0.0125631
779.130	0.0124901
779.208	0.0126225
779.286	0.0125851
779.364	0.0124511
779.443	0.0125599
779.521	0.0126498
779.599	0.0126038
779.677	0.0126968
779.755	0.0126102
779.833	0.0125876
779.911	0.0125796
779.989	0.0126633
780.068	0.0126784
780.146	0.0125550
780.224	0.0127962
780.302	0.0126564
780.380	0.0127928
780.458	0.0127878
780.536	0.0125864
780.614	0.0126570
780.693	0.0128120
780.771	0.0126226
780.849	0.0127903
780.927	0.0127779
781.005	0.0129173
781.083	0.0129054
781.161	0.0130447
781.239	0.0129351
781.318	0.0128955
781.396	0.0129678
781.474	0.0129861
781.552	0.0128490
781.630	0.0129406
781.708	0.0129302
781.786	0.0130386
781.864	0.0129154
781.943	0.0128380
782.021	0.0129618
782.099	0.0130047
782.177	0.0127253
782.255	0.0130094
782.333	0.0128619
782.411	0.0128556
782.489	0.0128152
782.568	0.0127509
782.646	0.0129333
782.724	0.0128352
782.802	0.0127003
782.880	0.0128408
782.958	0.0128165
783.036	0.0128010
783.114	0.0127708
783.193	0.0128268
783.271	0.0129213
783.349	0.0130177
783.427	0.0130139
783.505	0.0127695
783.583	0.0130733
783.661	0.0131384
783.739	0.0130422
783.818	0.0132101
783.896	0.0130598
783.974	0.0130933
784.052	0.0131400
784.130	0.0131276
784.208	0.0130728
784.286	0.0131382
784.364	0.0132301
784.443	0.0130643
784.521	0.0130853
784.599	0.0132399
784.677	0.0130869
784.755	0.0130672
784.833	0.0130864
784.911	0.0129836
784.989	0.0130045
785.068	0.0128172
785.146	0.0128768
785.224	0.0128667
785.302	0.0128349
785.380	0.0126534
785.458	0.0126001
785.536	0.0128397
785.614	0.0126927
785.693	0.0126031
785.771	0.0125034
785.849	0.0126844
785.927	0.0124887
786.005	0.0124996
786.083	0.0125243
786.161	0.0127530
786.239	0.0125503
786.318	0.0125938
786.396	0.0125691
786.474	0.0127126
786.552	0.0127050
786.630	0.0128049
786.708	0.0129099
786.786	0.0129533
786.864	0.0129646
786.943	0.0131707
787.021	0.0132802
787.099	0.0132098
787.177	0.0132552
787.255	0.0132242
787.333	0.0131573
787.411	0.0131647
787.489	0.0131699
787.568	0.0131605
787.646	0.0131735
787.724	0.0130409
787.802	0.0130149
787.880	0.0128869
787.958	0.0128359
788.036	0.0127628
788.114	0.0126585
788.193	0.0123882
788.271	0.0124828
788.349	0.0124833
788.427	0.0124657
788.505	0.0124448
788.583	0.0122707
788.661	0.0122095
788.739	0.0122939
788.818	0.0122405
788.896	0.0122865
788.974	0.0123284
789.052	0.0124649
789.130	0.0123692
789.208	0.0123878
789.286	0.0125934
789.364	0.0126823
789.443	0.0127786
789.521	0.0129262
789.599	0.0128989
789.677	0.0130733
789.755	0.0131487
789.833	0.0132027
789.911	0.0133434
789.989	0.0133170
790.068	0.0132535
790.146	0.0132458
790.224	0.0133100
790.302	0.0135754
790.380	0.0135127
790.458	0.0133126
790.536	0.0134283
790.614	0.0134327
790.693	0.0133638
790.771	0.0131873
790.849	0.0132207
790.927	0.0132188
791.005	0.0130259
791.083	0.0129156
791.161	0.0129738
791.239	0.0128448
791.318	0.0127710
791.396	0.0127233
791.474	0.0125689
791.552	0.0125706
791.630	0.0124072
791.708	0.0124865
791.786	0.0124024
791.864	0.0125134
791.943	0.0124557
792.021	0.0122238
792.099	0.0123878
792.177	0.0125201
792.255	0.0125716
792.333	0.0125662
792.411	0.0127182
792.489	0.0128326
792.568	0.0129773
792.646	0.0129543
792.724	0.0128506
792.802	0.0129853
792.880	0.0131570
792.958	0.0130389
793.036	0.0131763
793.114	0.0131422
793.193	0.0131107
793.271	0.0130791
793.349	0.0130589
793.427	0.0131399
793.505	0.0128328
793.583	0.0129427
793.661	0.0128315
793.739	0.0128082
793.818	0.0129052
793.896	0.0127803
793.974	0.0127079
794.052	0.0126851
794.130	0.0127519
794.208	0.0128545
794.286	0.0127672
794.364	0.0128397
794.443	0.0126516
794.521	0.0126091
794.599	0.0127061
794.677	0.0128721
794.755	0.0127194
794.833	0.0127351
794.911	0.0129128
794.989	0.0129594
795.068	0.0127910
795.146	0.0128986
795.224	0.0129025
795.302	0.0128760
795.380	0.0130447
795.458	0.0129924
795.536	0.0130022
795.614	0.0127818
795.693	0.0129332
795.771	0.0129662
795.849	0.0129983
795.927	0.0129221
796.005	0.0129289
796.083	0.0130606
796.161	0.0129308
796.239	0.0129054
796.318	0.0128458
796.396	0.0127528
796.474	0.0126804
796.552	0.0127535
796.630	0.0127978
796.708	0.0128304
796.786	0.0126996
796.864	0.0128833
796.943	0.0127721
797.021	0.0128432
797.099	0.0128127
797.177	0.0127828
797.255	0.0127463
797.333	0.0126947
797.411	0.0127835
797.489	0.0127747
797.568	0.0129102
797.646	0.0129359
797.724	0.0128383
797.802	0.0129807
797.880	0.0129800
797.958	0.0130327
798.036	0.0129884
798.114	0.0129671
798.193	0.0129542
798.271	0.0129479
798.349	0.0129897
798.427	0.0130071
798.505	0.0131131
798.583	0.0132009
798.661	0.0131136
798.739	0.0129692
798.818	0.0130237
798.896	0.0131368
798.974	0.0130744
799.052	0.0128200
799.130	0.0129473
799.208	0.0129334
799.286	0.0129818
799.364	0.0128498
799.443	0.0127719
799.521	0.0127608
799.599	0.0127741
799.677	0.0126094
799.755	0.0127708
799.833	0.0125513
799.911	0.0126833
799.989	0.0126827
800.068	0.0126635
800.146	0.0126439
800.224	0.0126782
800.302	0.0127179
800.380	0.0127679
800.458	0.0126892
800.536	0.0126310
800.614	0.0126868
800.693	0.0126929
800.771	0.0126234
800.849	0.0126546
800.927	0.0126597
801.005	0.0127208
801.083	0.0125485
801.161	0.0127507
801.239	0.0127840
801.318	0.0127962
801.396	0.0128223
801.474	0.0129260
801.552	0.0127526
801.630	0.0126790
801.708	0.0127952
801.786	0.0128141
801.864	0.0128878
801.943	0.0127795
802.021	0.0127562
802.099	0.0129993
802.177	0.0129507
802.255	0.0128390
802.333	0.0128813
802.411	0.0127694
802.489	0.0130750
802.568	0.0131006
802.646	0.0130359
802.724	0.0129292
802.802	0.0131170
802.880	0.0131960
802.958	0.0130404
803.036	0.0130508
803.114	0.0129614
803.193	0.0130827
803.271	0.0130185
803.349	0.0129967
803.427	0.0131748
803.505	0.0129633
803.583	0.0130514
803.661	0.0129762
803.739	0.0132127
803.818	0.0130487
803.896	0.0130348
803.974	0.0130045
804.052	0.0131507
804.130	0.0131676
804.208	0.0130650
804.286	0.0130022
804.364	0.0129665
804.443	0.0130778
804.521	0.0130746
804.599	0.0129614
804.677	0.0129281
804.755	0.0129674
804.833	0.0128583
804.911	0.0129001
804.989	0.0127921
805.068	0.0126887
805.146	0.0127555
805.224	0.0127377
805.302	0.0126987
805.380	0.0127594
805.458	0.0127715
805.536	0.0126490
805.614	0.0126199
805.693	0.0127760
805.771	0.0127126
805.849	0.0125913
805.927	0.0126503
806.005	0.0126391
806.083	0.0125468
806.161	0.0127891
806.239	0.0126049
806.318	0.0127205
806.396	0.0126073
806.474	0.0126389
806.552	0.0126283
806.630	0.0127087
806.708	0.0127705
806.786	0.0125983
806.864	0.0126265
806.943	0.0126905
807.021	0.0128484
807.099	0.0126958
807.177	0.0126160
807.255	0.0126420
807.333	0.0127048
807.411	0.0127116
807.489	0.0127021
807.568	0.0125343
807.646	0.0126889
807.724	0.0126150
807.802	0.0126627
807.880	0.0126825
807.958	0.0127399
808.036	0.0127942
808.114	0.0128606
808.193	0.0129720
808.271	0.0129227
808.349	0.0132018
808.427	0.0130624
808.505	0.0131373
808.583	0.0132242
808.661	0.0131426
808.739	0.0131064
808.818	0.0132527
808.896	0.0130907
808.974	0.0130991
809.052	0.0131676
809.130	0.0129067
809.208	0.0130873
809.286	0.0130038
809.364	0.0130348
809.443	0.0130721
809.521	0.0129501
809.599	0.0129433
809.677	0.0129099
809.755	0.0128159
809.833	0.0128837
809.911	0.0129186
809.989	0.0127658
810.068	0.0128526
810.146	0.0128464
810.224	0.0128859
810.302	0.0128277
810.380	0.0129690
810.458	0.0129798
810.536	0.0129073
810.614	0.0130407
810.693	0.0128886
810.771	0.0130119
810.849	0.0129839
810.927	0.0130301
811.005	0.0130385
811.083	0.0129778
811.161	0.0130181
811.239	0.0130458
811.318	0.0129630
811.396	0.0129935
811.474	0.0129660
811.552	0.0129070
811.630	0.0129884
811.708	0.0128937
811.786	0.0128889
811.864	0.0127107
811.943	0.0126995
812.021	0.0127934
812.099	0.0127711
812.177	0.0126187
812.255	0.0126673
812.333	0.0128139
812.411	0.0127829
812.489	0.0125970
812.568	0.0125599
812.646	0.0127475
812.724	0.0128033
812.802	0.0126373
812.880	0.0126603
812.958	0.0128042
813.036	0.0125716
813.114	0.0127326
813.193	0.0126218
813.271	0.0127473
813.349	0.0128611
813.427	0.0128596
813.505	0.0129113
813.583	0.0127774
813.661	0.0127536
813.739	0.0128604
813.818	0.0129100
813.896	0.0129181
813.974	0.0128930
814.052	0.0128460
814.130	0.0130376
814.208	0.0129853
814.286	0.0130916
814.364	0.0130977
814.443	0.0130901
814.521	0.0130788
814.599	0.0130219
814.677	0.0130651
814.755	0.0130524
814.833	0.0131467
814.911	0.0130589
814.989	0.0131275
815.068	0.0130190
815.146	0.0129316
815.224	0.0130535
815.302	0.0129830
815.380	0.0130528
815.458	0.0128049
815.536	0.0128897
815.614	0.0130322
815.693	0.0127552
815.771	0.0127380
815.849	0.0127327
815.927	0.0127889
816.005	0.0128664
816.083	0.0128301
816.161	0.0127521
816.239	0.0126925
816.318	0.0128300
816.396	0.0129585
816.474	0.0127769
816.552	0.0128975
816.630	0.0130057
816.708	0.0130052
816.786	0.0130111
816.864	0.0130342
816.943	0.0131116
817.021	0.0131005
817.099	0.0131068
817.177	0.0131395
817.255	0.0130853
817.333	0.0130597
817.411	0.0130531
817.489	0.0130280
817.568	0.0131319
817.646	0.0130171
817.724	0.0130159
817.802	0.0129092
817.880	0.0128774
817.958	0.0127920
818.036	0.0127819
818.114	0.0128403
818.193	0.0128166
818.271	0.0125016
818.349	0.0126536
818.427	0.0126864
818.505	0.0127709
818.583	0.0126050
818.661	0.0125007
818.739	0.0124628
818.818	0.0126315
818.896	0.0124956
818.974	0.0126026
819.052	0.0125884
819.130	0.0126246
819.208	0.0126746
819.286	0.0126685
819.364	0.0127092
819.443	0.0127185
819.521	0.0126089
819.599	0.0128158
819.677	0.0127422
819.755	0.0128415
819.833	0.0128407
819.911	0.0128294
819.989	0.0128371
820.068	0.0128431
820.146	0.0128180
820.224	0.0128217
820.302	0.0128869
820.380	0.0129244
820.458	0.0128053
820.536	0.0126608
820.614	0.0128392
820.693	0.0127546
820.771	0.0126775
820.849	0.0127787
820.927	0.0127996
821.005	0.0127603
821.083	0.0129220
821.161	0.0127435
821.239	0.0128324
821.318	0.0127805
821.396	0.0126677
821.474	0.0128223
821.552	0.0128064
821.630	0.0127666
821.708	0.0130180
821.786	0.0128808
821.864	0.0130475
821.943	0.0128870
822.021	0.0129429
822.099	0.0129432
822.177	0.0130217
822.255	0.0129966
822.333	0.0131472
822.411	0.0132796
822.489	0.0129958
822.568	0.0129885
822.646	0.0132649
822.724	0.0130811
822.802	0.0131180
822.880	0.0130091
822.958	0.0130663
823.036	0.0131000
823.114	0.0130981
823.193	0.0130318
823.271	0.0130230
823.349	0.0130521
823.427	0.0129501
823.505	0.0128949
823.583	0.0130058
823.661	0.0128722
823.739	0.0128303
823.818	0.0127190
823.896	0.0127482
823.974	0.0128675
824.052	0.0128616
824.130	0.0128285
824.208	0.0127549
824.286	0.0128368
824.364	0.0129546
824.443	0.0127725
824.521	0.0127677
824.599	0.0128990
824.677	0.0128278
824.755	0.0129614
824.833	0.0127495
824.911	0.0129114
824.989	0.0128804
825.068	0.0128184
825.146	0.0128200
825.224	0.0129129
825.302	0.0126852
825.380	0.0127583
825.458	0.0127176
825.536	0.0129073
825.614	0.0129122
825.693	0.0128366
825.771	0.0129256
825.849	0.0128730
825.927	0.0128554
826.005	0.0129749
826.083	0.0129601
826.161	0.0129099
826.239	0.0129588
826.318	0.0129456
826.396	0.0128139
826.474	0.0129277
826.552	0.0128820
826.630	0.0128666
826.708	0.0129618
826.786	0.0128079
826.864	0.0128201
826.943	0.0128259
827.021	0.0128189
827.099	0.0128001
827.177	0.0126996
827.255	0.0127672
827.333	0.0128164
827.411	0.0127033
827.489	0.0128729
827.568	0.0127116
827.646	0.0125936
827.724	0.0128091
827.802	0.0128741
827.880	0.0127872
827.958	0.0127843
828.036	0.0126994
828.114	0.0129008
828.193	0.0127960
828.271	0.0129598
828.349	0.0128716
828.427	0.0130847
828.505	0.0128088
828.583	0.0128834
828.661	0.0130826
828.739	0.0130643
828.818	0.0130046
828.896	0.0130688
828.974	0.0130355
829.052	0.0129969
829.130	0.0130702
829.208	0.0128996
829.286	0.0130017
829.364	0.0130550
829.443	0.0131550
829.521	0.0130413
829.599	0.0129375
829.677	0.0129054
829.755	0.0130089
829.833	0.0128808
829.911	0.0130322
829.989	0.0129401
830.068	0.0128748
830.146	0.0130144
830.224	0.0128830
830.302	0.0128797
830.380	0.0128923
830.458	0.0128422
830.536	0.0126928
830.614	0.0127527
830.693	0.0127606
830.771	0.0127985
830.849	0.0127847
830.927	0.0126209
831.005	0.0127733
831.083	0.0127707
831.161	0.0126425
831.239	0.0127132
831.318	0.0127175
831.396	0.0126642
831.474	0.0126667
831.552	0.0127596
831.630	0.0127808
831.708	0.0127354
831.786	0.0127283
831.864	0.0127558
831.943	0.0129129
832.021	0.0129095
832.099	0.0129219
832.177	0.0128588
832.255	0.0129623
832.333	0.0130051
832.411	0.0129942
832.489	0.0130659
832.568	0.0131521
832.646	0.0130836
832.724	0.0130472
832.802	0.0129887
832.880	0.0131266
832.958	0.0131542
833.036	0.0130949
833.114	0.0129869
833.193	0.0131346
833.271	0.0130173
833.349	0.0130175
833.427	0.0131348
833.505	0.0129317
833.583	0.0130827
833.661	0.0129427
833.739	0.0129287
833.818	0.0128710
833.896	0.0128724
833.974	0.0129600
834.052	0.0129239
834.130	0.0128941
834.208	0.0129148
834.286	0.0129836
834.364	0.0129132
834.443	0.0128728
834.521	0.0129498
834.599	0.0129355
834.677	0.0128130
834.755	0.0128819
834.833	0.0128502
834.911	0.0130119
834.989	0.0128917
835.068	0.0129345
835.146	0.0130260
835.224	0.0129442
835.302	0.0129127
835.380	0.0130106
835.458	0.0130777
835.536	0.0129973
835.614	0.0130920
835.693	0.0129237
835.771	0.0130013
835.849	0.0132183
835.927	0.0130283
836.005	0.0130421
836.083	0.0130419
836.161	0.0130027
836.239	0.0130629
836.318	0.0131257
836.396	0.0130061
836.474	0.0127992
836.552	0.0128547
836.630	0.0128314
836.708	0.0129401
836.786	0.0128870
836.864	0.0128482
836.943	0.0128949
837.021	0.0127335
837.099	0.0128591
837.177	0.0127502
837.255	0.0126369
837.333	0.0126415
837.411	0.0127866
837.489	0.0125437
837.568	0.0127109
837.646	0.0126965
837.724	0.0127247
837.802	0.0128107
837.880	0.0128720
837.958	0.0126897
838.036	0.0126814
838.114	0.0128278
838.193	0.0128100
838.271	0.0129675
838.349	0.0128742
838.427	0.0127768
838.505	0.0128990
838.583	0.0127817
838.661	0.0128883
838.739	0.0129025
838.818	0.0128902
838.896	0.0129205
838.974	0.0129276
839.052	0.0131357
839.130	0.0131778
839.208	0.0130070
839.286	0.0130271
839.364	0.0129624
839.443	0.0130891
839.521	0.0131780
839.599	0.0130346
839.677	0.0129997
839.755	0.0131960
839.833	0.0131354
839.911	0.0129498
839.989	0.0129855
840.068	0.0130495
840.146	0.0130233
840.224	0.0128543
840.302	0.0130241
840.380	0.0129018
840.458	0.0130099
840.536	0.0130503
840.614	0.0128756
840.693	0.0128048
840.771	0.0129704
840.849	0.0128780
840.927	0.0128246
841.005	0.0127554
841.083	0.0128134
841.161	0.0129247
841.239	0.0129148
841.318	0.0129023
841.396	0.0127512
841.474	0.0127903
841.552	0.0129800
841.630	0.0129182
841.708	0.0128394
841.786	0.0128129
841.864	0.0129713
841.943	0.0129999
842.021	0.0128218
842.099	0.0129504
842.177	0.0126767
842.255	0.0128436
842.333	0.0128757
842.411	0.0127161
842.489	0.0127048
842.568	0.0128854
842.646	0.0128161
842.724	0.0127869
842.802	0.0127612
842.880	0.0128034
842.958	0.0127547
843.036	0.0127641
843.114	0.0129015
843.193	0.0127887
843.271	0.0128393
843.349	0.0128777
843.427	0.0128885
843.505	0.0129367
843.583	0.0130608
843.661	0.0129431
843.739	0.0129228
843.818	0.0130614
843.896	0.0130862
843.974	0.0130106
844.052	0.0131475
844.130	0.0130450
844.208	0.0131232
844.286	0.0132710
844.364	0.0131201
844.443	0.0132659
844.521	0.0132081
844.599	0.0132536
844.677	0.0130822
844.755	0.0130247
844.833	0.0131759
844.911	0.0132325
844.989	0.0131724
845.068	0.0131003
845.146	0.0129861
845.224	0.0129290
845.302	0.0129715
845.380	0.0127980
845.458	0.0126933
845.536	0.0128432
845.614	0.0129129
845.693	0.0128684
845.771	0.0126773
845.849	0.0125468
845.927	0.0126120
846.005	0.0126278
846.083	0.0126512
846.161	0.0125472
846.239	0.0127768
846.318	0.0127076
846.396	0.0126690
846.474	0.0128482
846.552	0.0128795
846.630	0.0128370
846.708	0.0126535
846.786	0.0127287
846.864	0.0128176
846.943	0.0129357
847.021	0.0127605
847.099	0.0128635
847.177	0.0128490
847.255	0.0129795
847.333	0.0128860
847.411	0.0127843
847.489	0.0127379
847.568	0.0127122
847.646	0.0128990
847.724	0.0128704
847.802	0.0127522
847.880	0.0125845
847.958	0.0126764
848.036	0.0128324
848.114	0.0127306
848.193	0.0128561
848.271	0.0128429
848.349	0.0128056
848.427	0.0127862
848.505	0.0127805
848.583	0.0128835
848.661	0.0130607
848.739	0.0129799
848.818	0.0129005
848.896	0.0130394
848.974	0.0131749
849.052	0.0131139
849.130	0.0130646
849.208	0.0131403
849.286	0.0130246
849.364	0.0130419
849.443	0.0131554
849.521	0.0130676
849.599	0.0131231
849.677	0.0130813
849.755	0.0130527
849.833	0.0129887
849.911	0.0131485
849.989	0.0131455
850.068	0.0130852
850.146	0.0130193
850.224	0.0130893
850.302	0.0130306
850.380	0.0129553
850.458	0.0130860
850.536	0.0129604
850.614	0.0130653
850.693	0.0130527
850.771	0.0130075
850.849	0.0129992
850.927	0.0129536
851.005	0.0131001
851.083	0.0130288
851.161	0.0129601
851.239	0.0129626
851.318	0.0129666
851.396	0.0128324
851.474	0.0128870
851.552	0.0129118
851.630	0.0128588
851.708	0.0127709
851.786	0.0126665
851.864	0.0127162
851.943	0.0127097
852.021	0.0126519
852.099	0.0125378
852.177	0.0126266
852.255	0.0126771
852.333	0.0125478
852.411	0.0126559
852.489	0.0125586
852.568	0.0125063
852.646	0.0125907
852.724	0.0125352
852.802	0.0127496
852.880	0.0127370
852.958	0.0126276
853.036	0.0127898
853.114	0.0128969
853.193	0.0128176
853.271	0.0129823
853.349	0.0129552
853.427	0.0128664
853.505	0.0129809
853.583	0.0130128
853.661	0.0130988
853.739	0.0128794
853.818	0.0129597
853.896	0.0131081
853.974	0.0130853
854.052	0.0131406
854.130	0.0130736
854.208	0.0131754
854.286	0.0129855
854.364	0.0131747
854.443	0.0130465
854.521	0.0129739
854.599	0.0131052
854.677	0.0130724
854.755	0.0128582
854.833	0.0129345
854.911	0.0129924
854.989	0.0130269
855.068	0.0128864
855.146	0.0129967
855.224	0.0129443
855.302	0.0130216
855.380	0.0130055
855.458	0.0130779
855.536	0.0130476
855.614	0.0129813
855.693	0.0128814
855.771	0.0128584
855.849	0.0131343
855.927	0.0130567
856.005	0.0128329
856.083	0.0128294
856.161	0.0130463
856.239	0.0129702
856.318	0.0130351
856.396	0.0129710
856.474	0.0127551
856.552	0.0127207
856.630	0.0129437
856.708	0.0128085
856.786	0.0128187
856.864	0.0129290
856.943	0.0129938
857.021	0.0128215
857.099	0.0127589
857.177	0.0128839
857.255	0.0129356
857.333	0.0128641
857.411	0.0128863
857.489	0.0129099
857.568	0.0128925
857.646	0.0130872
857.724	0.0129417
857.802	0.0129769
857.880	0.0129549
857.958	0.0128568
858.036	0.0129645
858.114	0.0128769
858.193	0.0129855
858.271	0.0129482
858.349	0.0128963
858.427	0.0128603
858.505	0.0129271
858.583	0.0128356
858.661	0.0127434
858.739	0.0127570
858.818	0.0127137
858.896	0.0128102
858.974	0.0127139
859.052	0.0127550
859.130	0.0126303
859.208	0.0126486
859.286	0.0127293
859.364	0.0126720
859.443	0.0127524
859.521	0.0127370
859.599	0.0125925
859.677	0.0127664
859.755	0.0127999
859.833	0.0128558
859.911	0.0127988
859.989	0.0128611
860.068	0.0128884
860.146	0.0128662
860.224	0.0128780
860.302	0.0129098
860.380	0.0129764
860.458	0.0129961
860.536	0.0129449
860.614	0.0129531
860.693	0.0129020
860.771	0.0130362
860.849	0.0131268
860.927	0.0131351
861.005	0.0130495
861.083	0.0128741
861.161	0.0129169
861.239	0.0131057
861.318	0.0129880
861.396	0.0129272
861.474	0.0128239
861.552	0.0126019
861.630	0.0127679
861.708	0.0127213
861.786	0.0127534
861.864	0.0127940
861.943	0.0126102
862.021	0.0126114
862.099	0.0126947
862.177	0.0128327
862.255	0.0126315
862.333	0.0127279
862.411	0.0126791
862.489	0.0127647
862.568	0.0127654
862.646	0.0127734
862.724	0.0129787
862.802	0.0129708
862.880	0.0130164
862.958	0.0130257
863.036	0.0130302
863.114	0.0130795
863.193	0.0130708
863.271	0.0130819
863.349	0.0129923
863.427	0.0128613
863.505	0.0132546
863.583	0.0130935
863.661	0.0129433
863.739	0.0130127
863.818	0.0129775
863.896	0.0129534
863.974	0.0128621
864.052	0.0128372
864.130	0.0127356
864.208	0.0127837
864.286	0.0127165
864.364	0.0127601
864.443	0.0128848
864.521	0.0127428
864.599	0.0127830
864.677	0.0128568
864.755	0.0130277
864.833	0.0129091
864.911	0.0128864
864.989	0.0128874
865.068	0.0128342
865.146	0.0128674
865.224	0.0129331
865.302	0.0129604
865.380	0.0130655
865.458	0.0129282
865.536	0.0128712
865.614	0.0128442
865.693	0.0129463
865.771	0.0129234
865.849	0.0129664
865.927	0.0127855
866.005	0.0127789
866.083	0.0128038
866.161	0.0127924
866.239	0.0127639
866.318	0.0127184
866.396	0.0126965
866.474	0.0127713
866.552	0.0127003
866.630	0.0127052
866.708	0.0127422
866.786	0.0127197
866.864	0.0126469
866.943	0.0128204
867.021	0.0127782
867.099	0.0127333
867.177	0.0128632
867.255	0.0127541
867.333	0.0127520
867.411	0.0128632
867.489	0.0128718
867.568	0.0129461
867.646	0.0130537
867.724	0.0129466
867.802	0.0129301
867.880	0.0129665
867.958	0.0130939
868.036	0.0129646
868.114	0.0128970
868.193	0.0129445
868.271	0.0127895
868.349	0.0129659
868.427	0.0129445
868.505	0.0129070
868.583	0.0129118
868.661	0.0127792
868.739	0.0128596
868.818	0.0128731
868.896	0.0128413
868.974	0.0128143
869.052	0.0129237
869.130	0.0128098
869.208	0.0126936
869.286	0.0127350
869.364	0.0128275
869.443	0.0128934
869.521	0.0129250
869.599	0.0128153
869.677	0.0129466
869.755	0.0128531
869.833	0.0129320
869.911	0.0129404
869.989	0.0129932
870.068	0.0129328
870.146	0.0127909
870.224	0.0129217
870.302	0.0129097
870.380	0.0127905
870.458	0.0128418
870.536	0.0129155
870.614	0.0129099
870.693	0.0127376
870.771	0.0127390
870.849	0.0127420
870.927	0.0126840
871.005	0.0127726
871.083	0.0126611
871.161	0.0127509
871.239	0.0126581
871.318	0.0126806
871.396	0.0127638
871.474	0.0126144
871.552	0.0126914
871.630	0.0125346
871.708	0.0124173
871.786	0.0125769
871.864	0.0126017
871.943	0.0126390
872.021	0.0126293
872.099	0.0126337
872.177	0.0126578
872.255	0.0126150
872.333	0.0126377
872.411	0.0126853
872.489	0.0126755
872.568	0.0128192
872.646	0.0128585
872.724	0.0127988
872.802	0.0128083
872.880	0.0128279
872.958	0.0128759
873.036	0.0128015
873.114	0.0129201
873.193	0.0129685
873.271	0.0128844
873.349	0.0129004
873.427	0.0130053
873.505	0.0129890
873.583	0.0130473
873.661	0.0130627
873.739	0.0128632
873.818	0.0129057
873.896	0.0129928
873.974	0.0129726
874.052	0.0128720
874.130	0.0129713
874.208	0.0130012
874.286	0.0129718
874.364	0.0128667
874.443	0.0129211
874.521	0.0129186
874.599	0.0128820
874.677	0.0128230
874.755	0.0129811
874.833	0.0129080
874.911	0.0129620
874.989	0.0129868
875.068	0.0129666
875.146	0.0131720
875.224	0.0130652
875.302	0.0129784
875.380	0.0129361
875.458	0.0130491
875.536	0.0131684
875.614	0.0129067
875.693	0.0128802
875.771	0.0129494
875.849	0.0129250
875.927	0.0127542
876.005	0.0128318
876.083	0.0127074
876.161	0.0126633
876.239	0.0128236
876.318	0.0128925
876.396	0.0129922
876.474	0.0129195
876.552	0.0127795
876.630	0.0127798
876.708	0.0130222
876.786	0.0129362
876.864	0.0128608
876.943	0.0129394
877.021	0.0129174
877.099	0.0129333
877.177	0.0129185
877.255	0.0128786
877.333	0.0129211
877.411	0.0128178
877.489	0.0128257
877.568	0.0128329
877.646	0.0127708
877.724	0.0126428
877.802	0.0125403
877.880	0.0125393
877.958	0.0126387
878.036	0.0125898
878.114	0.0126273
878.193	0.0125699
878.271	0.0125296
878.349	0.0124931
878.427	0.0125952
878.505	0.0125932
878.583	0.0126116
878.661	0.0127015
878.739	0.0129057
878.818	0.0130460
878.896	0.0129690
878.974	0.0132548
879.052	0.0133723
879.130	0.0133552
879.208	0.0132848
879.286	0.0133479
879.364	0.0135110
879.443	0.0133221
879.521	0.0132615
879.599	0.0132805
879.677	0.0129961
879.755	0.0130406
879.833	0.0129784
879.911	0.0127513
879.989	0.0127113
880.068	0.0127904
880.146	0.0126174
880.224	0.0124517
880.302	0.0125642
880.380	0.0124995
880.458	0.0126077
880.536	0.0125323
880.614	0.0124859
880.693	0.0125196
880.771	0.0123852
880.849	0.0126656
880.927	0.0127065
881.005	0.0125525
881.083	0.0127133
881.161	0.0127245
881.239	0.0128757
881.318	0.0128481
881.396	0.0129990
881.474	0.0130700
881.552	0.0130402
881.630	0.0131607
881.708	0.0132287
881.786	0.0131685
881.864	0.0131817
881.943	0.0132555
882.021	0.0132344
882.099	0.0133482
882.177	0.0132043
882.255	0.0133870
882.333	0.0132405
882.411	0.0129951
882.489	0.0130526
882.568	0.0129433
882.646	0.0128207
882.724	0.0126529
882.802	0.0126651
882.880	0.0124802
882.958	0.0124757
883.036	0.0124615
883.114	0.0125172
883.193	0.0123912
883.271	0.0122456
883.349	0.0122721
883.427	0.0123886
883.505	0.0123801
883.583	0.0122728
883.661	0.0123910
883.739	0.0125179
883.818	0.0125282
883.896	0.0125103
883.974	0.0127470
884.052	0.0126939
884.130	0.0127975
884.208	0.0127635
884.286	0.0129037
884.364	0.0130193
884.443	0.0129632
884.521	0.0131377
884.599	0.0130730
884.677	0.0129636
884.755	0.0129831
884.833	0.0131503
884.911	0.0128880
884.989	0.0130339
885.068	0.0129793
885.146	0.0132251
885.224	0.0130631
885.302	0.0129156
885.380	0.0130380
885.458	0.0130276
885.536	0.0130455
885.614	0.0129004
885.693	0.0128805
885.771	0.0129234
885.849	0.0129295
885.927	0.0129334
886.005	0.0128193
886.083	0.0129596
886.161	0.0127542
886.239	0.0129675
886.318	0.0130104
886.396	0.0130116
886.474	0.0128046
886.552	0.0129082
886.630	0.0128322
886.708	0.0130212
886.786	0.0127785
886.864	0.0129102
886.943	0.0129259
887.021	0.0127979
887.099	0.0128461
887.177	0.0128904
887.255	0.0128866
887.333	0.0130324
887.411	0.0129228
887.489	0.0130703
887.568	0.0130307
887.646	0.0129295
887.724	0.0129818
887.802	0.0130729
887.880	0.0130017
887.958	0.0129226
888.036	0.0128828
888.114	0.0129433
888.193	0.0127158
888.271	0.0127190
888.349	0.0127091
888.427	0.0127803
888.505	0.0126308
888.583	0.0126682
888.661	0.0127088
888.739	0.0127951
888.818	0.0126615
888.896	0.0127010
888.974	0.0128020
889.052	0.0128115
889.130	0.0127631
889.208	0.0128415
889.286	0.0130337
889.364	0.0129743
889.443	0.0129710
889.521	0.0129602
889.599	0.0130324
889.677	0.0130804
889.755	0.0132556
889.833	0.0131608
889.911	0.0131489
889.989	0.0132169
890.068	0.0133222
890.146	0.0131000
890.224	0.0130093
890.302	0.0130145
890.380	0.0129502
890.458	0.0128807
890.536	0.0129351
890.614	0.0128528
890.693	0.0128584
890.771	0.0126408
890.849	0.0124873
890.927	0.0126282
891.005	0.0123107
891.083	0.0124571
891.161	0.0124517
891.239	0.0123959
891.318	0.0123937
891.396	0.0123693
891.474	0.0125362
891.552	0.0125787
891.630	0.0125056
891.708	0.0124232
891.786	0.0125853
891.864	0.0127120
891.943	0.0129129
892.021	0.0126586
892.099	0.0129204
892.177	0.0130332
892.255	0.0130760
892.333	0.0130222
892.411	0.0132879
892.489	0.0131540
892.568	0.0130837
892.646	0.0130784
892.724	0.0130708
892.802	0.0132751
892.880	0.0131817
892.958	0.0130756
893.036	0.0130244
893.114	0.0131592
893.193	0.0129900
893.271	0.0129134
893.349	0.0127920
893.427	0.0127318
893.505	0.0126637
893.583	0.0126627
893.661	0.0126205
893.739	0.0126581
893.818	0.0126207
893.896	0.0125227
893.974	0.0125923
894.052	0.0125645
894.130	0.0125419
894.208	0.0126841
894.286	0.0126762
894.364	0.0126666
894.443	0.0127925
894.521	0.0126680
894.599	0.0127753
894.677	0.0129995
894.755	0.0128397
894.833	0.0129692
894.911	0.0131406
894.989	0.0132378
895.068	0.0132143
895.146	0.0131860
895.224	0.0130808
895.302	0.0131076
895.380	0.0132469
895.458	0.0131826
895.536	0.0131965
895.614	0.0132092
895.693	0.0131310
895.771	0.0131298
895.849	0.0130474
895.927	0.0129884
896.005	0.0129354
896.083	0.0127985
896.161	0.0128706
896.239	0.0127438
896.318	0.0125934
896.396	0.0126404
896.474	0.0126344
896.552	0.0124896
896.630	0.0125227
896.708	0.0124823
896.786	0.0125106
896.864	0.0125444
896.943	0.0124469
897.021	0.0125156
897.099	0.0126472
897.177	0.0128419
897.255	0.0128355
897.333	0.0128337
897.411	0.0129321
897.489	0.0128977
897.568	0.0130268
897.646	0.0132274
897.724	0.0130209
897.802	0.0131117
897.880	0.0130243
897.958	0.0131593
898.036	0.0131319
898.114	0.0130018
898.193	0.0129861
898.271	0.0130917
898.349	0.0129533
898.427	0.0128352
898.505	0.0129372
898.583	0.0129246
898.661	0.0127953
898.739	0.0128109
898.818	0.0128975
898.896	0.0128042
898.974	0.0127655
899.052	0.0128896
899.130	0.0127195
899.208	0.0126981
899.286	0.0127419
899.364	0.0126464
899.443	0.0127408
899.521	0.0128080
899.599	0.0128883
899.677	0.0128809
899.755	0.0127689
899.833	0.0128806
899.911	0.0127828
899.989	0.0129148
900.068	0.0129101
900.146	0.0128979
900.224	0.0129769
900.302	0.0129590
900.380	0.0128703
900.458	0.0129154
900.536	0.0127818
900.614	0.0129274
900.693	0.0128696
900.771	0.0128186
900.849	0.0127364
900.927	0.0127809
901.005	0.0128965
901.083	0.0128563
901.161	0.0129189
901.239	0.0128206
901.318	0.0128415
901.396	0.0128241
901.474	0.0127596
901.552	0.0128140
901.630	0.0127752
901.708	0.0129044
901.786	0.0127764
901.864	0.0128559
901.943	0.0128291
902.021	0.0129038
902.099	0.0127892
902.177	0.0127792
902.255	0.0128578
902.333	0.0128951
902.411	0.0128835
902.489	0.0127176
902.568	0.0128079
902.646	0.0128786
902.724	0.0127435
902.802	0.0127687
902.880	0.0128760
902.958	0.0128630
903.036	0.0129207
903.114	0.0127827
903.193	0.0127811
903.271	0.0128096
903.349	0.0126851
903.427	0.0127413
903.505	0.0129425
903.583	0.0128674
903.661	0.0127476
903.739	0.0127959
903.818	0.0127544
903.896	0.0126700
903.974	0.0127563
904.052	0.0127858
904.130	0.0127481
904.208	0.0126180
904.286	0.0127062
904.364	0.0126512
904.443	0.0126738
904.521	0.0127161
904.599	0.0127284
904.677	0.0126057
904.755	0.0126705
904.833	0.0127541
904.911	0.0127576
904.989	0.0125728
905.068	0.0127520
905.146	0.0127253
905.224	0.0128456
905.302	0.0127739
905.380	0.0129369
905.458	0.0129796
905.536	0.0127595
905.614	0.0128907
905.693	0.0130704
905.771	0.0130475
905.849	0.0130585
905.927	0.0130376
906.005	0.0130554
906.083	0.0129998
906.161	0.0130550
906.239	0.0129896
906.318	0.0129128
906.396	0.0128925
906.474	0.0129642
906.552	0.0128899
906.630	0.0126487
906.708	0.0128055
906.786	0.0127129
906.864	0.0126223
906.943	0.0125037
907.021	0.0126743
907.099	0.0125932
907.177	0.0125155
907.255	0.0126269
907.333	0.0125986
907.411	0.0126296
907.489	0.0126851
907.568	0.0128433
907.646	0.0128388
907.724	0.0127777
907.802	0.0129210
907.880	0.0128632
907.958	0.0129636
908.036	0.0130400
908.114	0.0129713
908.193	0.0132448
908.271	0.0130489
908.349	0.0131531
908.427	0.0133266
908.505	0.0132903
908.583	0.0133560
908.661	0.0130824
908.739	0.0131992
908.818	0.0134047
908.896	0.0131756
908.974	0.0131650
909.052	0.0132571
909.130	0.0130949
909.208	0.0129114
909.286	0.0127915
909.364	0.0129572
909.443	0.0128083
909.521	0.0126508
909.599	0.0127457
909.677	0.0125624
909.755	0.0125623
909.833	0.0126129
909.911	0.0125911
909.989	0.0126729
910.068	0.0126768
910.146	0.0126501
910.224	0.0126820
910.302	0.0126598
910.380	0.0127177
910.458	0.0126797
910.536	0.0127551
910.614	0.0128686
910.693	0.0127511
910.771	0.0129299
910.849	0.0129981
910.927	0.0128925
911.005	0.0130177
911.083	0.0128227
911.161	0.0129434
911.239	0.0129727
911.318	0.0129633
911.396	0.0130220
911.474	0.0130395
911.552	0.0129262
911.630	0.0129594
911.708	0.0130464
911.786	0.0130737
911.864	0.0130618
911.943	0.0130424
912.021	0.0129921
912.099	0.0128941
912.177	0.0131641
912.255	0.0129562
912.333	0.0129757
912.411	0.0130614
912.489	0.0130920
912.568	0.0131384
912.646	0.0130290
912.724	0.0129951
912.802	0.0129307
912.880	0.0129146
912.958	0.0128114
913.036	0.0128892
913.114	0.0128638
913.193	0.0128192
913.271	0.0127747
913.349	0.0128304
913.427	0.0128140
913.505	0.0126849
913.583	0.0127713
913.661	0.0128824
913.739	0.0128823
913.818	0.0129324
913.896	0.0130362
913.974	0.0129556
914.052	0.0129456
914.130	0.0131411
914.208	0.0130682
914.286	0.0129962
914.364	0.0130917
914.443	0.0129855
914.521	0.0129802
914.599	0.0129106
914.677	0.0129586
914.755	0.0130116
914.833	0.0129576
914.911	0.0128983
914.989	0.0128732
915.068	0.0128639
915.146	0.0127296
915.224	0.0128415
915.302	0.0128294
915.380	0.0127687
915.458	0.0127990
915.536	0.0127060
915.614	0.0127419
915.693	0.0127174
915.771	0.0126845
915.849	0.0127811
915.927	0.0127043
916.005	0.0126903
916.083	0.0127957
916.161	0.0128993
916.239	0.0127814
916.318	0.0127682
916.396	0.0127030
916.474	0.0126807
916.552	0.0129103
916.630	0.0128949
916.708	0.0128669
916.786	0.0129279
916.864	0.0130098
916.943	0.0128735
917.021	0.0129258
917.099	0.0130077
917.177	0.0129898
917.255	0.0131272
917.333	0.0129790
917.411	0.0130769
917.489	0.0130140
917.568	0.0129036
917.646	0.0129494
917.724	0.0130545
917.802	0.0129103
917.880	0.0128440
917.958	0.0128934
918.036	0.0128965
918.114	0.0128266
918.193	0.0129311
918.271	0.0127619
918.349	0.0127126
918.427	0.0128078
918.505	0.0128436
918.583	0.0128756
918.661	0.0127094
918.739	0.0130080
918.818	0.0129633
918.896	0.0129665
918.974	0.0128514
919.052	0.0130200
919.130	0.0130300
919.208	0.0129510
919.286	0.0128816
919.364	0.0131232
919.443	0.0130372
919.521	0.0131252
919.599	0.0129923
919.677	0.0130294
919.755	0.0130934
919.833	0.0130042
919.911	0.0129015
919.989	0.0130428
920.068	0.0128163
920.146	0.0128556
920.224	0.0127211
920.302	0.0128259
920.380	0.0128522
920.458	0.0127764
920.536	0.0126032
920.614	0.0125938
920.693	0.0126753
920.771	0.0125469
920.849	0.0126295
920.927	0.0126668
921.005	0.0126130
921.083	0.0126304
921.161	0.0126218
921.239	0.0126808
921.318	0.0126028
921.396	0.0128378
921.474	0.0127377
921.552	0.0127572
921.630	0.0128548
921.708	0.0127328
921.786	0.0128812
921.864	0.0129266
921.943	0.0129971
922.021	0.0129524
922.099	0.0130268
922.177	0.0130404
922.255	0.0131159
922.333	0.0129545
922.411	0.0129530
922.489	0.0128111
922.568	0.0129588
922.646	0.0129131
922.724	0.0129952
922.802	0.0129342
922.880	0.0129267
922.958	0.0127937
923.036	0.0127979
923.114	0.0126753
923.193	0.0127448
923.271	0.0126733
923.349	0.0128112
923.427	0.0128183
923.505	0.0127496
923.583	0.0126672
923.661	0.0128406
923.739	0.0128922
923.818	0.0128169
923.896	0.0127626
923.974	0.0128713
924.052	0.0130031
924.130	0.0129697
924.208	0.0129494
924.286	0.0129996
924.364	0.0130618
924.443	0.0131226
924.521	0.0130991
924.599	0.0130729
924.677	0.0130695
924.755	0.0129773
924.833	0.0129837
924.911	0.0128758
924.989	0.0130008
925.068	0.0129693
925.146	0.0129703
925.224	0.0128867
925.302	0.0127804
925.380	0.0128163
925.458	0.0128272
925.536	0.0129498
925.614	0.0128372
925.693	0.0127554
925.771	0.0129900
925.849	0.0128120
925.927	0.0129795
926.005	0.0129060
926.083	0.0128947
926.161	0.0128049
926.239	0.0128198
926.318	0.0128688
926.396	0.0130184
926.474	0.0128845
926.552	0.0128352
926.630	0.0129180
926.708	0.0130399
926.786	0.0128394
926.864	0.0128169
926.943	0.0128257
927.021	0.0128375
927.099	0.0128767
927.177	0.0127793
927.255	0.0126717
927.333	0.0128981
927.411	0.0128846
927.489	0.0126376
927.568	0.0127418
927.646	0.0127267
927.724	0.0127050
927.802	0.0127388
927.880	0.0128439
927.958	0.0125957
928.036	0.0126888
928.114	0.0127177
928.193	0.0128073
928.271	0.0129480
928.349	0.0129547
928.427	0.0128281
928.505	0.0128608
928.583	0.0128265
928.661	0.0128639
928.739	0.0127640
928.818	0.0129539
928.896	0.0129910
928.974	0.0129027
929.052	0.0129468
929.130	0.0128755
929.208	0.0130057
929.286	0.0130657
929.364	0.0129929
929.443	0.0129491
929.521	0.0130515
929.599	0.0129004
929.677	0.0129449
929.755	0.0129473
929.833	0.0130313
929.911	0.0130879
929.989	0.0130602
930.068	0.0131110
930.146	0.0129385
930.224	0.0129484
930.302	0.0130489
930.380	0.0130065
930.458	0.0129404
930.536	0.0127604
930.614	0.0129257
930.693	0.0128435
930.771	0.0129269
930.849	0.0129165
930.927	0.0128461
931.005	0.0128160
931.083	0.0128231
931.161	0.0127157
931.239	0.0127535
931.318	0.0127739
931.396	0.0128600
931.474	0.0127437
931.552	0.0128476
931.630	0.0127649
931.708	0.0127271
931.786	0.0129617
931.864	0.0128741
931.943	0.0128991
932.021	0.0130897
932.099	0.0128689
932.177	0.0128263
932.255	0.0128278
932.333	0.0129679
932.411	0.0130839
932.489	0.0128994
932.568	0.0129350
932.646	0.0128155
932.724	0.0127971
932.802	0.0128978
932.880	0.0129309
932.958	0.0128777
933.036	0.0129375
933.114	0.0127332
933.193	0.0128623
933.271	0.0127821
933.349	0.0128645
933.427	0.0128719
933.505	0.0128420
933.583	0.0129318
933.661	0.0130953
933.739	0.0129786
933.818	0.0129875
933.896	0.0129339
933.974	0.0129533
934.052	0.0129395
934.130	0.0129333
934.208	0.0129411
934.286	0.0128056
934.364	0.0129940
934.443	0.0130884
934.521	0.0129429
934.599	0.0130415
934.677	0.0129975
934.755	0.0130201
934.833	0.0129329
934.911	0.0131684
934.989	0.0130013
935.068	0.0130958
935.146	0.0130265
935.224	0.0129122
935.302	0.0128775
935.380	0.0131153
935.458	0.0129469
935.536	0.0129366
935.614	0.0129674
935.693	0.0130338
935.771	0.0129843
935.849	0.0130232
935.927	0.0129366
936.005	0.0129181
936.083	0.0130317
936.161	0.0129929
936.239	0.0129454
936.318	0.0130005
936.396	0.0128876
936.474	0.0129893
936.552	0.0129861
936.630	0.0131468
936.708	0.0131171
936.786	0.0130719
936.864	0.0131444
936.943	0.0130832
937.021	0.0131703
937.099	0.0132422
937.177	0.0132005
937.255	0.0131070
937.333	0.0131901
937.411	0.0132626
937.489	0.0132191
937.568	0.0130695
937.646	0.0131756
937.724	0.0132812
937.802	0.0129923
937.880	0.0130912
937.958	0.0129780
938.036	0.0130617
938.114	0.0129130
938.193	0.0129566
938.271	0.0129203
938.349	0.0128901
938.427	0.0130058
938.505	0.0128204
938.583	0.0127721
938.661	0.0128594
938.739	0.0129060
938.818	0.0128088
938.896	0.0128111
938.974	0.0128164
939.052	0.0128747
939.130	0.0127901
939.208	0.0127610
939.286	0.0128154
939.364	0.0129496
939.443	0.0129055
939.521	0.0129008
939.599	0.0129221
939.677	0.0129202
939.755	0.0130587
939.833	0.0129469
939.911	0.0129749
939.989	0.0130444
940.068	0.0130041
940.146	0.0130346
940.224	0.0129482
940.302	0.0130493
940.380	0.0130383
940.458	0.0130599
940.536	0.0131907
940.614	0.0132166
940.693	0.0129805
940.771	0.0131036
940.849	0.0130807
940.927	0.0129422
941.005	0.0129281
941.083	0.0131255
941.161	0.0129201
941.239	0.0129011
941.318	0.0127861
941.396	0.0128053
941.474	0.0128397
941.552	0.0126714
941.630	0.0128275
941.708	0.0127852
941.786	0.0125968
941.864	0.0127570
941.943	0.0128611
942.021	0.0128063
942.099	0.0128395
942.177	0.0128032
942.255	0.0129353
942.333	0.0129176
942.411	0.0128227
942.489	0.0128147
942.568	0.0128253
942.646	0.0129279
942.724	0.0130476
942.802	0.0129393
942.880	0.0129388
942.958	0.0129248
943.036	0.0129227
943.114	0.0129488
943.193	0.0129826
943.271	0.0129195
943.349	0.0130030
943.427	0.0129189
943.505	0.0129690
943.583	0.0128960
943.661	0.0127744
943.739	0.0127625
943.818	0.0128134
943.896	0.0129272
943.974	0.0128418
944.052	0.0128753
944.130	0.0128532
944.208	0.0127448
944.286	0.0127551
944.364	0.0127938
944.443	0.0127467
944.521	0.0127241
944.599	0.0127594
944.677	0.0127856
944.755	0.0127580
944.833	0.0127752
944.911	0.0126882
944.989	0.0125755
945.068	0.0125872
945.146	0.0127596
945.224	0.0127771
945.302	0.0127837
945.380	0.0128235
945.458	0.0129090
945.536	0.0128878
945.614	0.0128409
945.693	0.0129283
945.771	0.0129590
945.849	0.0128461
945.927	0.0129234
946.005	0.0129844
946.083	0.0129247
946.161	0.0130818
946.239	0.0130280
946.318	0.0129747
946.396	0.0129659
946.474	0.0130524
946.552	0.0129046
946.630	0.0129769
946.708	0.0129630
946.786	0.0128802
946.864	0.0128001
946.943	0.0127279
947.021	0.0129039
947.099	0.0127859
947.177	0.0129391
947.255	0.0127939
947.333	0.0129321
947.411	0.0128936
947.489	0.0130050
947.568	0.0128724
947.646	0.0127364
947.724	0.0129399
947.802	0.0129853
947.880	0.0129275
947.958	0.0128402
948.036	0.0129493
948.114	0.0128822
948.193	0.0128016
948.271	0.0129064
948.349	0.0127590
948.427	0.0128262
948.505	0.0129342
948.583	0.0127599
948.661	0.0128555
948.739	0.0129289
948.818	0.0128897
948.896	0.0129867
948.974	0.0129800
949.052	0.0129326
949.130	0.0128915
949.208	0.0129118
949.286	0.0130277
949.364	0.0129573
949.443	0.0129610
949.521	0.0129253
949.599	0.0128510
949.677	0.0128698
949.755	0.0127864
949.833	0.0128706
949.911	0.0127533
949.989	0.0126829
950.068	0.0126749
950.146	0.0126902
950.224	0.0126180
950.302	0.0125758
950.380	0.0126685
950.458	0.0126904
950.536	0.0127455
950.614	0.0126992
950.693	0.0127797
950.771	0.0127740
950.849	0.0127415
950.927	0.0128683
951.005	0.0128801
951.083	0.0129207
951.161	0.0129833
951.239	0.0130046
951.318	0.0131979
951.396	0.0131052
951.474	0.0131520
951.552	0.0130042
951.630	0.0129870
951.708	0.0130751
951.786	0.0129468
951.864	0.0129962
951.943	0.0127740
952.021	0.0128162
952.099	0.0128335
952.177	0.0127490
952.255	0.0128992
952.333	0.0128259
952.411	0.0128840
952.489	0.0127050
952.568	0.0127613
952.646	0.0129521
952.724	0.0128865
952.802	0.0128748
952.880	0.0129627
952.958	0.0128570
953.036	0.0128436
953.114	0.0128719
953.193	0.0129250
953.271	0.0129536
953.349	0.0127906
953.427	0.0128152
953.505	0.0128732
953.583	0.0129834
953.661	0.0129526
953.739	0.0129225
953.818	0.0128528
953.896	0.0128608
953.974	0.0129079
954.052	0.0129546
954.130	0.0128389
954.208	0.0128842
954.286	0.0127361
954.364	0.0128426
954.443	0.0128726
954.521	0.0128176
954.599	0.0129443
954.677	0.0130422
954.755	0.0128829
954.833	0.0130320
954.911	0.0130903
954.989	0.0129633
955.068	0.0130861
955.146	0.0130267
955.224	0.0130680
955.302	0.0131441
955.380	0.0129932
955.458	0.0130672
955.536	0.0131885
955.614	0.0131619
955.693	0.0128989
955.771	0.0129740
955.849	0.0130565
955.927	0.0130749
956.005	0.0126955
956.083	0.0127785
956.161	0.0129194
956.239	0.0127074
956.318	0.0127873
956.396	0.0128092
956.474	0.0126935
956.552	0.0127892
956.630	0.0125938
956.708	0.0126144
956.786	0.0127094
956.864	0.0126495
956.943	0.0126615
957.021	0.0126233
957.099	0.0128329
957.177	0.0127380
957.255	0.0126504
957.333	0.0128483
957.411	0.0128590
957.489	0.0127956
957.568	0.0129292
957.646	0.0130839
957.724	0.0128371
957.802	0.0128223
957.880	0.0130065
957.958	0.0130366
958.036	0.0129789
958.114	0.0130267
958.193	0.0129772
958.271	0.0128809
958.349	0.0129437
958.427	0.0129524
958.505	0.0130429
958.583	0.0131079
958.661	0.0129303
958.739	0.0128159
958.818	0.0129359
958.896	0.0129481
958.974	0.0129340
959.052	0.0128691
959.130	0.0129603
959.208	0.0129130
959.286	0.0128152
959.364	0.0128543
959.443	0.0129642
959.521	0.0129101
959.599	0.0128708
959.677	0.0128628
959.755	0.0129537
959.833	0.0128675
959.911	0.0128877
