05/07/2022	17:13:37	Ver.	4.1	UNKNOWN
Optical Delay	639.989416	Delta X		0.078125	Sweeps	1	Scan Rate	0/0
Coordinates	Axis 1	NaN	Axis 2	NaN	Axis 3	NaN	Axis 4	NaN	Axis 5	NaN	Axis 6	0.000000
TX Power	0.000000	RX Power	0.000000

639.989	0.0128405
640.068	0.0127895
640.146	0.0127996
640.224	0.0127884
640.302	0.0127732
640.380	0.0127486
640.458	0.0127395
640.536	0.0128197
640.614	0.0127991
640.693	0.0127466
640.771	0.0128464
640.849	0.0126642
640.927	0.0129184
641.005	0.0126948
641.083	0.0127422
641.161	0.0126942
641.239	0.0127032
641.318	0.0127599
641.396	0.0127008
641.474	0.0128722
641.552	0.0128696
641.630	0.0126267
641.708	0.0127121
641.786	0.0128610
641.864	0.0128130
641.943	0.0127118
642.021	0.0129053
642.099	0.0128937
642.177	0.0127737
642.255	0.0128097
642.333	0.0126897
642.411	0.0128313
642.489	0.0127872
642.568	0.0128024
642.646	0.0128146
642.724	0.0127290
642.802	0.0127741
642.880	0.0127803
642.958	0.0127322
643.036	0.0127084
643.114	0.0127419
643.193	0.0128664
643.271	0.0129823
643.349	0.0127791
643.427	0.0127314
643.505	0.0128342
643.583	0.0127399
643.661	0.0127156
643.739	0.0126895
643.818	0.0129050
643.896	0.0128712
643.974	0.0127630
644.052	0.0127988
644.130	0.0129206
644.208	0.0129427
644.286	0.0127819
644.364	0.0127136
644.443	0.0127760
644.521	0.0127859
644.599	0.0128605
644.677	0.0127879
644.755	0.0128670
644.833	0.0127477
644.911	0.0129314
644.989	0.0128667
645.068	0.0128413
645.146	0.0127296
645.224	0.0127978
645.302	0.0128564
645.380	0.0129120
645.458	0.0127341
645.536	0.0128621
645.614	0.0128106
645.693	0.0128093
645.771	0.0127370
645.849	0.0126905
645.927	0.0127808
646.005	0.0128046
646.083	0.0127293
646.161	0.0126608
646.239	0.0128471
646.318	0.0129124
646.396	0.0129453
646.474	0.0128494
646.552	0.0127627
646.630	0.0128158
646.708	0.0128993
646.786	0.0128986
646.864	0.0128586
646.943	0.0126839
647.021	0.0128503
647.099	0.0127888
647.177	0.0128593
647.255	0.0128085
647.333	0.0128522
647.411	0.0129190
647.489	0.0127185
647.568	0.0129037
647.646	0.0129082
647.724	0.0128279
647.802	0.0129032
647.880	0.0128139
647.958	0.0127454
648.036	0.0128020
648.114	0.0128185
648.193	0.0127438
648.271	0.0127254
648.349	0.0127359
648.427	0.0127111
648.505	0.0128276
648.583	0.0127282
648.661	0.0128533
648.739	0.0126479
648.818	0.0128242
648.896	0.0129383
648.974	0.0128080
649.052	0.0127865
649.130	0.0128550
649.208	0.0128384
649.286	0.0128272
649.364	0.0128356
649.443	0.0128042
649.521	0.0129568
649.599	0.0127730
649.677	0.0128090
649.755	0.0127383
649.833	0.0127611
649.911	0.0129371
649.989	0.0127934
650.068	0.0128697
650.146	0.0126711
650.224	0.0127415
650.302	0.0127516
650.380	0.0128328
650.458	0.0128786
650.536	0.0128580
650.614	0.0127787
650.693	0.0127760
650.771	0.0127579
650.849	0.0128436
650.927	0.0128124
651.005	0.0128295
651.083	0.0128133
651.161	0.0128567
651.239	0.0128169
651.318	0.0128214
651.396	0.0129778
651.474	0.0127274
651.552	0.0127896
651.630	0.0128221
651.708	0.0127982
651.786	0.0127086
651.864	0.0128152
651.943	0.0127306
652.021	0.0127855
652.099	0.0128250
652.177	0.0128365
652.255	0.0127901
652.333	0.0127554
652.411	0.0128019
652.489	0.0128779
652.568	0.0126792
652.646	0.0129189
652.724	0.0126798
652.802	0.0128271
652.880	0.0127575
652.958	0.0129350
653.036	0.0128250
653.114	0.0129382
653.193	0.0128854
653.271	0.0126974
653.349	0.0128673
653.427	0.0127576
653.505	0.0128893
653.583	0.0128668
653.661	0.0128610
653.739	0.0128078
653.818	0.0129058
653.896	0.0128473
653.974	0.0127003
654.052	0.0128728
654.130	0.0128803
654.208	0.0128550
654.286	0.0127923
654.364	0.0127285
654.443	0.0128574
654.521	0.0129183
654.599	0.0127800
654.677	0.0128481
654.755	0.0127164
654.833	0.0127797
654.911	0.0128033
654.989	0.0128247
655.068	0.0128716
655.146	0.0129134
655.224	0.0129453
655.302	0.0129296
655.380	0.0128351
655.458	0.0128403
655.536	0.0127148
655.614	0.0128365
655.693	0.0128626
655.771	0.0127373
655.849	0.0127664
655.927	0.0128508
656.005	0.0128329
656.083	0.0128587
656.161	0.0128259
656.239	0.0128085
656.318	0.0128682
656.396	0.0128150
656.474	0.0128681
656.552	0.0128942
656.630	0.0127999
656.708	0.0127943
656.786	0.0128867
656.864	0.0127666
656.943	0.0128839
657.021	0.0128358
657.099	0.0128548
657.177	0.0128920
657.255	0.0127298
657.333	0.0127794
657.411	0.0128283
657.489	0.0129868
657.568	0.0127856
657.646	0.0129028
657.724	0.0129102
657.802	0.0128308
657.880	0.0128306
657.958	0.0128351
658.036	0.0128960
658.114	0.0127903
658.193	0.0128718
658.271	0.0128976
658.349	0.0128704
658.427	0.0128357
658.505	0.0128860
658.583	0.0130157
658.661	0.0128635
658.739	0.0127014
658.818	0.0127181
658.896	0.0130151
658.974	0.0129474
659.052	0.0128986
659.130	0.0129120
659.208	0.0128737
659.286	0.0128680
659.364	0.0130289
659.443	0.0129112
659.521	0.0129040
659.599	0.0127897
659.677	0.0128750
659.755	0.0128032
659.833	0.0128996
659.911	0.0129541
659.989	0.0127707
660.068	0.0129813
660.146	0.0129301
660.224	0.0129547
660.302	0.0128132
660.380	0.0129166
660.458	0.0129074
660.536	0.0128094
660.614	0.0127367
660.693	0.0127930
660.771	0.0129155
660.849	0.0129298
660.927	0.0127051
661.005	0.0129124
661.083	0.0127607
661.161	0.0129389
661.239	0.0128697
661.318	0.0128125
661.396	0.0128082
661.474	0.0128501
661.552	0.0128473
661.630	0.0128516
661.708	0.0128379
661.786	0.0128574
661.864	0.0128272
661.943	0.0128886
662.021	0.0128351
662.099	0.0129075
662.177	0.0128739
662.255	0.0128686
662.333	0.0129671
662.411	0.0129463
662.489	0.0128768
662.568	0.0128412
662.646	0.0128342
662.724	0.0127833
662.802	0.0128696
662.880	0.0128905
662.958	0.0128402
663.036	0.0129414
663.114	0.0129182
663.193	0.0128074
663.271	0.0127540
663.349	0.0129012
663.427	0.0129648
663.505	0.0129278
663.583	0.0128424
663.661	0.0127122
663.739	0.0128618
663.818	0.0128427
663.896	0.0129644
663.974	0.0129567
664.052	0.0127573
664.130	0.0126936
664.208	0.0127900
664.286	0.0127623
664.364	0.0127789
664.443	0.0128580
664.521	0.0128983
664.599	0.0127785
664.677	0.0129768
664.755	0.0127762
664.833	0.0128197
664.911	0.0129179
664.989	0.0128220
665.068	0.0128039
665.146	0.0128499
665.224	0.0129234
665.302	0.0129446
665.380	0.0129623
665.458	0.0128907
665.536	0.0128313
665.614	0.0128577
665.693	0.0130033
665.771	0.0129600
665.849	0.0128834
665.927	0.0128173
666.005	0.0128848
666.083	0.0129189
666.161	0.0128902
666.239	0.0129382
666.318	0.0129026
666.396	0.0129197
666.474	0.0128168
666.552	0.0127289
666.630	0.0127925
666.708	0.0128016
666.786	0.0128584
666.864	0.0128196
666.943	0.0128694
667.021	0.0128999
667.099	0.0128857
667.177	0.0128671
667.255	0.0127843
667.333	0.0127108
667.411	0.0128190
667.489	0.0128111
667.568	0.0128082
667.646	0.0128476
667.724	0.0128267
667.802	0.0129033
667.880	0.0129220
667.958	0.0128903
668.036	0.0128642
668.114	0.0129634
668.193	0.0128149
668.271	0.0128477
668.349	0.0128310
668.427	0.0129066
668.505	0.0129624
668.583	0.0126964
668.661	0.0127248
668.739	0.0128749
668.818	0.0129243
668.896	0.0128102
668.974	0.0127981
669.052	0.0128893
669.130	0.0128638
669.208	0.0128705
669.286	0.0128141
669.364	0.0129203
669.443	0.0128937
669.521	0.0129096
669.599	0.0128774
669.677	0.0127953
669.755	0.0128120
669.833	0.0128345
669.911	0.0129538
669.989	0.0128290
670.068	0.0127570
670.146	0.0127010
670.224	0.0126841
670.302	0.0127498
670.380	0.0127454
670.458	0.0127650
670.536	0.0127349
670.614	0.0129947
670.693	0.0129425
670.771	0.0128639
670.849	0.0128024
670.927	0.0129228
671.005	0.0128590
671.083	0.0129819
671.161	0.0128526
671.239	0.0129054
671.318	0.0130051
671.396	0.0128994
671.474	0.0129712
671.552	0.0129482
671.630	0.0130111
671.708	0.0128273
671.786	0.0128171
671.864	0.0127584
671.943	0.0125772
672.021	0.0125077
672.099	0.0124896
672.177	0.0126113
672.255	0.0125353
672.333	0.0124796
672.411	0.0125210
672.489	0.0126050
672.568	0.0128114
672.646	0.0128808
672.724	0.0128851
672.802	0.0131508
672.880	0.0131314
672.958	0.0131894
673.036	0.0130537
673.114	0.0131995
673.193	0.0133383
673.271	0.0131149
673.349	0.0131246
673.427	0.0130280
673.505	0.0130516
673.583	0.0129842
673.661	0.0128741
673.739	0.0128585
673.818	0.0127425
673.896	0.0125704
673.974	0.0125735
674.052	0.0124055
674.130	0.0123991
674.208	0.0124944
674.286	0.0123431
674.364	0.0124014
674.443	0.0124416
674.521	0.0123753
674.599	0.0124138
674.677	0.0125956
674.755	0.0124822
674.833	0.0125597
674.911	0.0128184
674.989	0.0127573
675.068	0.0128760
675.146	0.0130290
675.224	0.0130238
675.302	0.0132207
675.380	0.0131989
675.458	0.0132388
675.536	0.0132185
675.614	0.0132175
675.693	0.0131924
675.771	0.0132851
675.849	0.0131745
675.927	0.0131577
676.005	0.0129826
676.083	0.0129950
676.161	0.0128387
676.239	0.0128849
676.318	0.0128261
676.396	0.0127063
676.474	0.0127458
676.552	0.0127106
676.630	0.0126990
676.708	0.0126900
676.786	0.0128256
676.864	0.0129125
676.943	0.0128021
677.021	0.0129004
677.099	0.0129848
677.177	0.0132275
677.255	0.0131216
677.333	0.0131677
677.411	0.0131226
677.489	0.0130928
677.568	0.0128646
677.646	0.0129165
677.724	0.0126485
677.802	0.0126321
677.880	0.0124874
677.958	0.0124890
678.036	0.0124190
678.114	0.0123698
678.193	0.0124125
678.271	0.0123683
678.349	0.0125075
678.427	0.0125730
678.505	0.0124442
678.583	0.0125444
678.661	0.0125890
678.739	0.0126685
678.818	0.0128986
678.896	0.0129826
678.974	0.0130347
679.052	0.0130277
679.130	0.0130592
679.208	0.0131497
679.286	0.0133066
679.364	0.0131725
679.443	0.0132657
679.521	0.0133530
679.599	0.0134079
679.677	0.0132628
679.755	0.0132898
679.833	0.0133142
679.911	0.0132901
679.989	0.0132550
680.068	0.0131840
680.146	0.0131918
680.224	0.0132059
680.302	0.0130779
680.380	0.0131219
680.458	0.0132247
680.536	0.0132270
680.614	0.0131180
680.693	0.0129178
680.771	0.0127693
680.849	0.0127477
680.927	0.0126907
681.005	0.0126226
681.083	0.0124812
681.161	0.0122349
681.239	0.0120441
681.318	0.0119817
681.396	0.0119394
681.474	0.0118565
681.552	0.0118840
681.630	0.0118662
681.708	0.0117891
681.786	0.0118069
681.864	0.0118073
681.943	0.0119955
682.021	0.0119925
682.099	0.0120882
682.177	0.0123396
682.255	0.0123640
682.333	0.0125102
682.411	0.0127600
682.489	0.0127888
682.568	0.0130619
682.646	0.0132851
682.724	0.0133462
682.802	0.0135371
682.880	0.0136502
682.958	0.0138049
683.036	0.0139349
683.114	0.0140417
683.193	0.0142349
683.271	0.0144279
683.349	0.0143398
683.427	0.0143863
683.505	0.0143607
683.583	0.0143240
683.661	0.0143364
683.739	0.0143055
683.818	0.0140462
683.896	0.0139935
683.974	0.0137138
684.052	0.0135660
684.130	0.0132057
684.208	0.0129920
684.286	0.0127179
684.364	0.0124056
684.443	0.0121580
684.521	0.0118024
684.599	0.0117793
684.677	0.0116105
684.755	0.0114343
684.833	0.0114108
684.911	0.0112816
684.989	0.0113059
685.068	0.0112962
685.146	0.0113592
685.224	0.0113084
685.302	0.0114954
685.380	0.0115422
685.458	0.0114363
685.536	0.0118134
685.614	0.0117844
685.693	0.0120679
685.771	0.0122468
685.849	0.0122881
685.927	0.0125298
686.005	0.0125243
686.083	0.0129015
686.161	0.0130618
686.239	0.0131559
686.318	0.0134153
686.396	0.0134851
686.474	0.0137048
686.552	0.0138703
686.630	0.0138198
686.708	0.0138670
686.786	0.0139072
686.864	0.0139182
686.943	0.0138178
687.021	0.0139159
687.099	0.0139758
687.177	0.0139653
687.255	0.0138172
687.333	0.0138488
687.411	0.0138909
687.489	0.0139026
687.568	0.0140149
687.646	0.0139510
687.724	0.0139501
687.802	0.0140643
687.880	0.0139567
687.958	0.0138053
688.036	0.0138081
688.114	0.0135321
688.193	0.0134339
688.271	0.0132563
688.349	0.0130560
688.427	0.0127482
688.505	0.0127222
688.583	0.0125275
688.661	0.0123529
688.739	0.0121397
688.818	0.0121273
688.896	0.0120424
688.974	0.0119576
689.052	0.0117978
689.130	0.0118071
689.208	0.0115778
689.286	0.0114939
689.364	0.0113601
689.443	0.0111023
689.521	0.0110399
689.599	0.0109157
689.677	0.0110088
689.755	0.0109701
689.833	0.0110229
689.911	0.0111509
689.989	0.0113615
690.068	0.0114357
690.146	0.0116228
690.224	0.0119166
690.302	0.0119377
690.380	0.0123579
690.458	0.0126370
690.536	0.0128281
690.614	0.0129796
690.693	0.0130204
690.771	0.0129694
690.849	0.0131477
690.927	0.0131229
691.005	0.0131470
691.083	0.0132621
691.161	0.0133556
691.239	0.0133899
691.318	0.0135146
691.396	0.0134625
691.474	0.0138673
691.552	0.0140217
691.630	0.0141319
691.708	0.0143966
691.786	0.0145060
691.864	0.0147742
691.943	0.0149744
692.021	0.0149654
692.099	0.0150411
692.177	0.0149742
692.255	0.0151102
692.333	0.0151377
692.411	0.0149895
692.489	0.0146940
692.568	0.0147393
692.646	0.0145944
692.724	0.0144747
692.802	0.0142757
692.880	0.0138718
692.958	0.0138188
693.036	0.0135307
693.114	0.0133846
693.193	0.0129871
693.271	0.0127314
693.349	0.0123608
693.427	0.0120633
693.505	0.0117525
693.583	0.0112552
693.661	0.0109478
693.739	0.0106004
693.818	0.0102292
693.896	0.00971237
693.974	0.00942253
694.052	0.00908897
694.130	0.00877815
694.208	0.00859184
694.286	0.00854996
694.364	0.00842026
694.443	0.00849655
694.521	0.00867088
694.599	0.00895729
694.677	0.00928787
694.755	0.00977356
694.833	0.0101733
694.911	0.0106863
694.989	0.0113702
695.068	0.0117612
695.146	0.0122256
695.224	0.0129432
695.302	0.0133382
695.380	0.0138470
695.458	0.0143470
695.536	0.0146611
695.614	0.0151585
695.693	0.0156412
695.771	0.0159548
695.849	0.0163161
695.927	0.0166197
696.005	0.0167977
696.083	0.0169553
696.161	0.0172247
696.239	0.0173051
696.318	0.0172646
696.396	0.0170392
696.474	0.0171330
696.552	0.0169207
696.630	0.0166463
696.708	0.0163654
696.786	0.0160122
696.864	0.0155992
696.943	0.0153197
697.021	0.0148103
697.099	0.0142876
697.177	0.0139781
697.255	0.0134486
697.333	0.0131297
697.411	0.0125309
697.489	0.0122066
697.568	0.0117033
697.646	0.0114924
697.724	0.0111276
697.802	0.0107368
697.880	0.0104916
697.958	0.0103286
698.036	0.0101014
698.114	0.00998283
698.193	0.00977043
698.271	0.00966721
698.349	0.00961563
698.427	0.00950768
698.505	0.00937897
698.583	0.00936279
698.661	0.00934387
698.739	0.00937439
698.818	0.00924294
698.896	0.00934303
698.974	0.00926659
699.052	0.00936478
699.130	0.00932915
699.208	0.00937256
699.286	0.00963974
699.364	0.00979149
699.443	0.0100744
699.521	0.0103809
699.599	0.0106597
699.677	0.0113111
699.755	0.0118578
699.833	0.0124158
699.911	0.0131139
699.989	0.0137482
700.068	0.0144276
700.146	0.0151649
700.224	0.0158285
700.302	0.0162590
700.380	0.0166265
700.458	0.0171574
700.536	0.0175935
700.614	0.0179590
700.693	0.0179598
700.771	0.0182888
700.849	0.0183614
700.927	0.0183706
701.005	0.0183342
701.083	0.0181129
701.161	0.0178051
701.239	0.0174556
701.318	0.0168171
701.396	0.0162504
701.474	0.0155401
701.552	0.0148742
701.630	0.0141961
701.708	0.0132072
701.786	0.0124498
701.864	0.0117668
701.943	0.0110981
702.021	0.0105443
702.099	0.00999069
702.177	0.00937859
702.255	0.00918800
702.333	0.00897530
702.411	0.00902016
702.489	0.00892143
702.568	0.00912170
702.646	0.00933876
702.724	0.00964485
702.802	0.00998466
702.880	0.0102479
702.958	0.0109128
703.036	0.0113655
703.114	0.0119359
703.193	0.0122550
703.271	0.0127530
703.349	0.0130811
703.427	0.0131842
703.505	0.0134808
703.583	0.0135873
703.661	0.0136008
703.739	0.0135016
703.818	0.0132610
703.896	0.0132658
703.974	0.0128338
704.052	0.0125011
704.130	0.0121916
704.208	0.0118308
704.286	0.0113451
704.364	0.0109654
704.443	0.0106342
704.521	0.0102084
704.599	0.0101016
704.677	0.00973259
704.755	0.00956139
704.833	0.00964798
704.911	0.00971069
704.989	0.00994247
705.068	0.0103985
705.146	0.0108717
705.224	0.0114268
705.302	0.0119379
705.380	0.0128164
705.458	0.0136295
705.536	0.0142147
705.614	0.0150489
705.693	0.0157162
705.771	0.0164531
705.849	0.0168977
705.927	0.0172985
706.005	0.0176818
706.083	0.0179729
706.161	0.0182498
706.239	0.0183635
706.318	0.0183772
706.396	0.0181713
706.474	0.0180892
706.552	0.0178044
706.630	0.0172240
706.708	0.0167428
706.786	0.0162079
706.864	0.0155186
706.943	0.0148260
707.021	0.0142521
707.099	0.0133475
707.177	0.0125323
707.255	0.0121462
707.333	0.0113898
707.411	0.0107410
707.489	0.0101134
707.568	0.00984642
707.646	0.00967178
707.724	0.00934914
707.802	0.00917892
707.880	0.00942139
707.958	0.00954002
708.036	0.00981728
708.114	0.0101811
708.193	0.0106090
708.271	0.0111954
708.349	0.0114244
708.427	0.0119691
708.505	0.0122670
708.583	0.0123938
708.661	0.0126392
708.739	0.0127778
708.818	0.0127441
708.896	0.0125805
708.974	0.0124292
709.052	0.0121027
709.130	0.0117789
709.208	0.0114568
709.286	0.0111599
709.364	0.0108876
709.443	0.0105303
709.521	0.00992424
709.599	0.00974037
709.677	0.00934265
709.755	0.00922585
709.833	0.00899223
709.911	0.00888245
709.989	0.00892807
710.068	0.00912216
710.146	0.00926811
710.224	0.00968208
710.302	0.0104227
710.380	0.0109977
710.458	0.0117107
710.536	0.0125565
710.614	0.0134554
710.693	0.0144030
710.771	0.0153641
710.849	0.0163917
710.927	0.0172118
711.005	0.0180006
711.083	0.0186584
711.161	0.0192842
711.239	0.0195649
711.318	0.0196918
711.396	0.0199977
711.474	0.0200433
711.552	0.0199082
711.630	0.0194177
711.708	0.0190776
711.786	0.0187467
711.864	0.0180056
711.943	0.0174199
712.021	0.0165783
712.099	0.0156532
712.177	0.0146881
712.255	0.0138292
712.333	0.0128539
712.411	0.0119759
712.489	0.0110252
712.568	0.0102247
712.646	0.00938629
712.724	0.00898239
712.802	0.00841888
712.880	0.00807632
712.958	0.00778404
713.036	0.00774681
713.114	0.00780022
713.193	0.00788612
713.271	0.00825684
713.349	0.00881447
713.427	0.00921577
713.505	0.00997154
713.583	0.0106183
713.661	0.0113273
713.739	0.0119357
713.818	0.0125574
713.896	0.0129866
713.974	0.0134949
714.052	0.0138046
714.130	0.0138832
714.208	0.0138650
714.286	0.0139240
714.364	0.0136220
714.443	0.0134824
714.521	0.0130946
714.599	0.0125879
714.677	0.0122124
714.755	0.0116673
714.833	0.0111128
714.911	0.0107590
714.989	0.0102153
715.068	0.0100600
715.146	0.00970406
715.224	0.00952553
715.302	0.00948273
715.380	0.00938927
715.458	0.00949181
715.536	0.00984764
715.614	0.0100459
715.693	0.0104591
715.771	0.0108995
715.849	0.0114670
715.927	0.0122488
716.005	0.0128304
716.083	0.0135373
716.161	0.0144775
716.239	0.0152926
716.318	0.0158201
716.396	0.0165291
716.474	0.0171024
716.552	0.0175215
716.630	0.0179293
716.708	0.0183031
716.786	0.0185422
716.864	0.0185251
716.943	0.0184798
717.021	0.0183017
717.099	0.0181349
717.177	0.0176960
717.255	0.0173729
717.333	0.0169467
717.411	0.0163448
717.489	0.0159180
717.568	0.0152152
717.646	0.0147375
717.724	0.0140904
717.802	0.0134702
717.880	0.0129279
717.958	0.0123248
718.036	0.0119493
718.114	0.0114272
718.193	0.0109641
718.271	0.0106711
718.349	0.0104325
718.427	0.0102357
718.505	0.0102275
718.583	0.00999664
718.661	0.00995979
718.739	0.00999313
718.818	0.0100613
718.896	0.0102087
718.974	0.0102544
719.052	0.0103354
719.130	0.0105749
719.208	0.0106797
719.286	0.0106954
719.364	0.0109291
719.443	0.0110184
719.521	0.0110108
719.599	0.0109441
719.677	0.0108299
719.755	0.0108297
719.833	0.0107658
719.911	0.0105427
719.989	0.0105912
720.068	0.0105699
720.146	0.0101964
720.224	0.0102188
720.302	0.0100954
720.380	0.0101109
720.458	0.0104002
720.536	0.0105867
720.614	0.0108199
720.693	0.0111848
720.771	0.0115898
720.849	0.0120017
720.927	0.0123950
721.005	0.0129914
721.083	0.0132725
721.161	0.0140225
721.239	0.0143165
721.318	0.0146313
721.396	0.0149442
721.474	0.0152504
721.552	0.0153536
721.630	0.0156203
721.708	0.0156821
721.786	0.0158684
721.864	0.0158066
721.943	0.0158262
722.021	0.0158296
722.099	0.0157002
722.177	0.0156762
722.255	0.0156898
722.333	0.0156108
722.411	0.0155153
722.489	0.0153948
722.568	0.0151352
722.646	0.0150401
722.724	0.0149137
722.802	0.0146588
722.880	0.0145914
722.958	0.0141811
723.036	0.0141340
723.114	0.0140387
723.193	0.0138435
723.271	0.0136191
723.349	0.0136018
723.427	0.0134841
723.505	0.0131085
723.583	0.0131806
723.661	0.0130190
723.739	0.0129422
723.818	0.0130402
723.896	0.0129250
723.974	0.0125929
724.052	0.0125418
724.130	0.0126279
724.208	0.0122387
724.286	0.0121170
724.364	0.0119285
724.443	0.0116739
724.521	0.0115543
724.599	0.0112178
724.677	0.0109461
724.755	0.0105750
724.833	0.0101238
724.911	0.00992836
724.989	0.00971237
725.068	0.00946114
725.146	0.00924988
725.224	0.00904999
725.302	0.00897545
725.380	0.00878983
725.458	0.00906822
725.536	0.00902000
725.614	0.00935966
725.693	0.00941521
725.771	0.00977379
725.849	0.0101472
725.927	0.0105992
726.005	0.0109731
726.083	0.0114852
726.161	0.0118353
726.239	0.0123496
726.318	0.0128977
726.396	0.0133237
726.474	0.0137710
726.552	0.0139227
726.630	0.0144531
726.708	0.0147369
726.786	0.0149643
726.864	0.0151136
726.943	0.0152615
727.021	0.0153651
727.099	0.0152068
727.177	0.0151756
727.255	0.0152895
727.333	0.0151562
727.411	0.0152267
727.489	0.0150799
727.568	0.0149709
727.646	0.0149176
727.724	0.0146324
727.802	0.0144193
727.880	0.0145448
727.958	0.0144038
728.036	0.0143121
728.114	0.0142227
728.193	0.0139095
728.271	0.0138103
728.349	0.0136821
728.427	0.0137611
728.505	0.0136204
728.583	0.0135854
728.661	0.0138687
728.739	0.0138143
728.818	0.0139079
728.896	0.0138933
728.974	0.0140770
729.052	0.0140985
729.130	0.0140844
729.208	0.0140591
729.286	0.0140759
729.364	0.0140048
729.443	0.0139076
729.521	0.0136894
729.599	0.0135916
729.677	0.0133184
729.755	0.0129183
729.833	0.0127251
729.911	0.0123117
729.989	0.0121184
730.068	0.0115815
730.146	0.0113116
730.224	0.0108669
730.302	0.0105888
730.380	0.0102404
730.458	0.00975723
730.536	0.00969292
730.614	0.00946342
730.693	0.00915337
730.771	0.00904442
730.849	0.00904984
730.927	0.00905746
731.005	0.00919609
731.083	0.00931480
731.161	0.00966476
731.239	0.00979027
731.318	0.0101902
731.396	0.0105035
731.474	0.0108561
731.552	0.0112082
731.630	0.0117359
731.708	0.0121340
731.786	0.0124818
731.864	0.0128297
731.943	0.0131366
732.021	0.0135211
732.099	0.0137758
732.177	0.0141080
732.255	0.0143279
732.333	0.0143716
732.411	0.0145991
732.489	0.0146727
732.568	0.0150124
732.646	0.0150299
732.724	0.0148367
732.802	0.0148898
732.880	0.0147598
732.958	0.0146999
733.036	0.0145960
733.114	0.0144905
733.193	0.0144733
733.271	0.0140343
733.349	0.0139333
733.427	0.0139196
733.505	0.0136583
733.583	0.0134867
733.661	0.0133971
733.739	0.0132278
733.818	0.0131821
733.896	0.0130935
733.974	0.0130621
734.052	0.0130981
734.130	0.0132025
734.208	0.0133316
734.286	0.0133846
734.364	0.0133746
734.443	0.0134678
734.521	0.0135157
734.599	0.0139048
734.677	0.0139407
734.755	0.0139207
734.833	0.0141135
734.911	0.0141676
734.989	0.0141297
735.068	0.0141253
735.146	0.0142264
735.224	0.0141396
735.302	0.0140074
735.380	0.0139577
735.458	0.0136169
735.536	0.0134631
735.614	0.0131381
735.693	0.0130897
735.771	0.0127444
735.849	0.0124355
735.927	0.0123095
736.005	0.0118401
736.083	0.0115232
736.161	0.0112971
736.239	0.0112798
736.318	0.0109824
736.396	0.0106554
736.474	0.0106434
736.552	0.0105198
736.630	0.0102392
736.708	0.0102563
736.786	0.0103151
736.864	0.0103668
736.943	0.0102139
737.021	0.0104037
737.099	0.0104937
737.177	0.0106147
737.255	0.0106822
737.333	0.0110287
737.411	0.0111562
737.489	0.0112620
737.568	0.0115213
737.646	0.0116459
737.724	0.0119747
737.802	0.0121858
737.880	0.0123717
737.958	0.0126514
738.036	0.0128445
738.114	0.0130650
738.193	0.0131715
738.271	0.0133956
738.349	0.0137486
738.427	0.0137710
738.505	0.0138596
738.583	0.0141094
738.661	0.0142110
738.739	0.0143922
738.818	0.0144369
738.896	0.0145815
738.974	0.0145658
739.052	0.0146603
739.130	0.0146360
739.208	0.0146295
739.286	0.0146967
739.364	0.0146867
739.443	0.0145653
739.521	0.0145746
739.599	0.0145087
739.677	0.0143440
739.755	0.0143406
739.833	0.0141635
739.911	0.0139484
739.989	0.0140100
740.068	0.0137750
740.146	0.0134991
740.224	0.0132768
740.302	0.0133172
740.380	0.0132017
740.458	0.0130542
740.536	0.0130557
740.614	0.0131539
740.693	0.0129688
740.771	0.0129367
740.849	0.0128374
740.927	0.0129382
741.005	0.0129205
741.083	0.0128579
741.161	0.0128323
741.239	0.0129073
741.318	0.0127768
741.396	0.0127993
741.474	0.0127969
741.552	0.0126809
741.630	0.0126948
741.708	0.0126082
741.786	0.0124565
741.864	0.0124069
741.943	0.0123088
742.021	0.0122084
742.099	0.0121629
742.177	0.0121428
742.255	0.0120744
742.333	0.0117685
742.411	0.0116261
742.489	0.0116747
742.568	0.0114576
742.646	0.0113960
742.724	0.0113135
742.802	0.0112833
742.880	0.0111688
742.958	0.0111414
743.036	0.0108920
743.114	0.0110753
743.193	0.0111923
743.271	0.0112080
743.349	0.0112114
743.427	0.0115375
743.505	0.0116392
743.583	0.0118938
743.661	0.0122160
743.739	0.0121623
743.818	0.0123701
743.896	0.0126694
743.974	0.0126962
744.052	0.0129926
744.130	0.0130837
744.208	0.0132996
744.286	0.0132986
744.364	0.0133662
744.443	0.0135220
744.521	0.0136749
744.599	0.0136693
744.677	0.0138304
744.755	0.0138271
744.833	0.0140138
744.911	0.0139153
744.989	0.0139336
745.068	0.0140221
745.146	0.0138995
745.224	0.0139164
745.302	0.0140266
745.380	0.0137232
745.458	0.0137445
745.536	0.0136467
745.614	0.0137033
745.693	0.0136732
745.771	0.0135297
745.849	0.0134397
745.927	0.0135012
746.005	0.0134518
746.083	0.0131713
746.161	0.0132441
746.239	0.0131308
746.318	0.0132610
746.396	0.0131181
746.474	0.0131393
746.552	0.0132503
746.630	0.0133411
746.708	0.0131255
746.786	0.0133441
746.864	0.0133725
746.943	0.0134130
747.021	0.0133894
747.099	0.0134629
747.177	0.0133070
747.255	0.0132802
747.333	0.0132213
747.411	0.0131567
747.489	0.0129310
747.568	0.0128277
747.646	0.0126730
747.724	0.0125755
747.802	0.0122713
747.880	0.0121587
747.958	0.0120221
748.036	0.0118806
748.114	0.0117381
748.193	0.0115945
748.271	0.0116283
748.349	0.0116072
748.427	0.0115382
748.505	0.0113489
748.583	0.0115449
748.661	0.0116989
748.739	0.0115457
748.818	0.0113188
748.896	0.0115779
748.974	0.0117261
749.052	0.0118446
749.130	0.0119220
749.208	0.0119854
749.286	0.0119669
749.364	0.0122104
749.443	0.0123045
749.521	0.0122997
749.599	0.0122589
749.677	0.0125165
749.755	0.0125532
749.833	0.0124718
749.911	0.0126367
749.989	0.0126538
750.068	0.0127248
750.146	0.0126710
750.224	0.0127055
750.302	0.0126832
750.380	0.0128944
750.458	0.0131064
750.536	0.0130284
750.614	0.0130744
750.693	0.0131602
750.771	0.0134325
750.849	0.0133775
750.927	0.0135403
751.005	0.0136819
751.083	0.0136378
751.161	0.0138181
751.239	0.0137864
751.318	0.0137921
751.396	0.0139050
751.474	0.0139984
751.552	0.0140051
751.630	0.0140225
751.708	0.0141756
751.786	0.0139748
751.864	0.0139022
751.943	0.0138029
752.021	0.0137841
752.099	0.0139436
752.177	0.0136917
752.255	0.0135210
752.333	0.0134399
752.411	0.0132759
752.489	0.0131335
752.568	0.0129820
752.646	0.0129248
752.724	0.0128785
752.802	0.0125687
752.880	0.0124960
752.958	0.0126963
753.036	0.0124619
753.114	0.0124663
753.193	0.0124746
753.271	0.0124403
753.349	0.0123643
753.427	0.0122982
753.505	0.0123486
753.583	0.0124059
753.661	0.0125202
753.739	0.0123586
753.818	0.0126181
753.896	0.0126544
753.974	0.0125888
754.052	0.0128209
754.130	0.0129416
754.208	0.0128902
754.286	0.0130208
754.364	0.0130540
754.443	0.0131503
754.521	0.0131345
754.599	0.0130247
754.677	0.0129728
754.755	0.0130253
754.833	0.0129694
754.911	0.0128283
754.989	0.0126661
755.068	0.0124191
755.146	0.0123633
755.224	0.0123956
755.302	0.0122285
755.380	0.0121316
755.458	0.0121284
755.536	0.0119978
755.614	0.0118832
755.693	0.0118909
755.771	0.0118830
755.849	0.0117910
755.927	0.0118407
756.005	0.0118319
756.083	0.0118645
756.161	0.0118425
756.239	0.0120095
756.318	0.0120692
756.396	0.0121347
756.474	0.0123040
756.552	0.0124866
756.630	0.0125417
756.708	0.0126913
756.786	0.0126445
756.864	0.0127511
756.943	0.0127628
757.021	0.0130265
757.099	0.0131293
757.177	0.0132069
757.255	0.0133572
757.333	0.0134174
757.411	0.0135710
757.489	0.0136012
757.568	0.0135988
757.646	0.0136729
757.724	0.0137456
757.802	0.0137985
757.880	0.0138595
757.958	0.0137440
758.036	0.0136366
758.114	0.0135856
758.193	0.0136804
758.271	0.0136836
758.349	0.0133706
758.427	0.0133736
758.505	0.0132817
758.583	0.0132876
758.661	0.0130761
758.739	0.0129961
758.818	0.0129565
758.896	0.0129434
758.974	0.0129321
759.052	0.0127589
759.130	0.0128094
759.208	0.0128818
759.286	0.0127648
759.364	0.0127913
759.443	0.0128121
759.521	0.0128715
759.599	0.0128387
759.677	0.0127923
759.755	0.0128185
759.833	0.0128858
759.911	0.0128154
759.989	0.0127883
760.068	0.0126921
760.146	0.0128621
760.224	0.0127930
760.302	0.0126719
760.380	0.0126389
760.458	0.0126800
760.536	0.0127418
760.614	0.0125920
760.693	0.0125376
760.771	0.0126527
760.849	0.0125582
760.927	0.0123756
761.005	0.0124914
761.083	0.0124398
761.161	0.0123600
761.239	0.0122903
761.318	0.0124854
761.396	0.0124294
761.474	0.0124577
761.552	0.0123148
761.630	0.0122583
761.708	0.0125002
761.786	0.0125729
761.864	0.0124786
761.943	0.0125151
762.021	0.0125342
762.099	0.0125504
762.177	0.0126006
762.255	0.0125368
762.333	0.0125036
762.411	0.0124640
762.489	0.0125529
762.568	0.0123604
762.646	0.0123473
762.724	0.0122456
762.802	0.0121624
762.880	0.0122054
762.958	0.0122186
763.036	0.0123298
763.114	0.0123351
763.193	0.0123361
763.271	0.0124036
763.349	0.0124387
763.427	0.0125156
763.505	0.0126820
763.583	0.0126862
763.661	0.0129864
763.739	0.0130370
763.818	0.0131890
763.896	0.0132996
763.974	0.0134230
764.052	0.0135325
764.130	0.0135024
764.208	0.0138242
764.286	0.0138313
764.364	0.0136732
764.443	0.0138109
764.521	0.0139217
764.599	0.0138152
764.677	0.0138462
764.755	0.0138265
764.833	0.0136530
764.911	0.0136605
764.989	0.0137520
765.068	0.0135191
765.146	0.0134360
765.224	0.0134319
765.302	0.0133032
765.380	0.0131586
765.458	0.0131590
765.536	0.0130917
765.614	0.0129681
765.693	0.0128341
765.771	0.0127906
765.849	0.0128188
765.927	0.0127529
766.005	0.0126294
766.083	0.0125271
766.161	0.0124822
766.239	0.0124473
766.318	0.0122711
766.396	0.0123196
766.474	0.0121542
766.552	0.0122011
766.630	0.0122386
766.708	0.0122499
766.786	0.0123746
766.864	0.0124590
766.943	0.0124352
767.021	0.0124642
767.099	0.0127316
767.177	0.0127551
767.255	0.0126333
767.333	0.0128734
767.411	0.0128894
767.489	0.0128697
767.568	0.0129710
767.646	0.0129453
767.724	0.0129610
767.802	0.0128977
767.880	0.0128873
767.958	0.0128434
768.036	0.0128321
768.114	0.0128808
768.193	0.0127065
768.271	0.0127831
768.349	0.0126051
768.427	0.0125771
768.505	0.0125300
768.583	0.0125364
768.661	0.0122711
768.739	0.0123880
768.818	0.0123210
768.896	0.0121564
768.974	0.0121660
769.052	0.0123000
769.130	0.0122719
769.208	0.0121387
769.286	0.0123990
769.364	0.0123710
769.443	0.0124209
769.521	0.0125009
769.599	0.0126844
769.677	0.0127727
769.755	0.0128232
769.833	0.0129367
769.911	0.0129390
769.989	0.0131377
770.068	0.0131318
770.146	0.0132312
770.224	0.0134110
770.302	0.0134939
770.380	0.0134283
770.458	0.0134054
770.536	0.0134670
770.614	0.0135939
770.693	0.0133611
770.771	0.0134119
770.849	0.0135179
770.927	0.0135937
771.005	0.0134343
771.083	0.0133069
771.161	0.0134367
771.239	0.0131213
771.318	0.0132787
771.396	0.0130666
771.474	0.0131252
771.552	0.0131332
771.630	0.0131789
771.708	0.0129298
771.786	0.0128670
771.864	0.0127879
771.943	0.0128754
772.021	0.0128300
772.099	0.0128012
772.177	0.0127613
772.255	0.0128486
772.333	0.0127133
772.411	0.0128832
772.489	0.0129194
772.568	0.0127607
772.646	0.0128008
772.724	0.0128283
772.802	0.0127947
772.880	0.0127845
772.958	0.0128391
773.036	0.0128416
773.114	0.0129119
773.193	0.0126771
773.271	0.0128205
773.349	0.0129315
773.427	0.0129086
773.505	0.0130017
773.583	0.0128414
773.661	0.0129156
773.739	0.0129282
773.818	0.0128857
773.896	0.0126734
773.974	0.0126476
774.052	0.0126835
774.130	0.0125906
774.208	0.0126351
774.286	0.0123927
774.364	0.0124318
774.443	0.0123824
774.521	0.0123668
774.599	0.0122124
774.677	0.0122185
774.755	0.0122523
774.833	0.0122108
774.911	0.0122188
774.989	0.0122138
775.068	0.0121338
775.146	0.0122835
775.224	0.0122536
775.302	0.0123491
775.380	0.0123006
775.458	0.0123392
775.536	0.0124550
775.614	0.0124939
775.693	0.0127126
775.771	0.0126912
775.849	0.0128437
775.927	0.0127304
776.005	0.0129462
776.083	0.0131541
776.161	0.0131236
776.239	0.0133430
776.318	0.0132971
776.396	0.0134598
776.474	0.0134291
776.552	0.0134273
776.630	0.0135574
776.708	0.0136478
776.786	0.0136733
776.864	0.0136553
776.943	0.0135155
777.021	0.0136125
777.099	0.0136367
777.177	0.0135780
777.255	0.0134599
777.333	0.0135267
777.411	0.0133163
777.489	0.0132893
777.568	0.0133517
777.646	0.0131631
777.724	0.0131436
777.802	0.0130593
777.880	0.0130140
777.958	0.0128517
778.036	0.0128255
778.114	0.0127997
778.193	0.0127659
778.271	0.0126923
778.349	0.0125649
778.427	0.0124967
778.505	0.0125718
778.583	0.0123872
778.661	0.0123962
778.739	0.0124364
778.818	0.0124374
778.896	0.0123797
778.974	0.0122739
779.052	0.0122684
779.130	0.0123996
779.208	0.0124814
779.286	0.0123807
779.364	0.0124458
779.443	0.0125137
779.521	0.0124429
779.599	0.0126570
779.677	0.0128320
779.755	0.0127771
779.833	0.0129872
779.911	0.0129870
779.989	0.0129879
780.068	0.0129717
780.146	0.0131209
780.224	0.0131498
780.302	0.0131796
780.380	0.0133426
780.458	0.0132739
780.536	0.0132544
780.614	0.0131767
780.693	0.0131070
780.771	0.0131580
780.849	0.0131775
780.927	0.0132203
781.005	0.0129251
781.083	0.0128896
781.161	0.0128238
781.239	0.0127755
781.318	0.0126584
781.396	0.0126454
781.474	0.0126095
781.552	0.0123786
781.630	0.0123513
781.708	0.0122272
781.786	0.0121678
781.864	0.0122417
781.943	0.0120580
782.021	0.0119736
782.099	0.0121381
782.177	0.0121401
782.255	0.0121815
782.333	0.0121439
782.411	0.0122490
782.489	0.0123421
782.568	0.0125365
782.646	0.0125991
782.724	0.0126597
782.802	0.0127179
782.880	0.0127042
782.958	0.0128732
783.036	0.0129276
783.114	0.0130715
783.193	0.0131506
783.271	0.0130657
783.349	0.0131622
783.427	0.0132799
783.505	0.0132886
783.583	0.0133282
783.661	0.0133929
783.739	0.0134269
783.818	0.0134550
783.896	0.0133923
783.974	0.0133479
784.052	0.0136391
784.130	0.0134837
784.208	0.0134147
784.286	0.0135044
784.364	0.0134605
784.443	0.0135269
784.521	0.0134600
784.599	0.0133247
784.677	0.0133205
784.755	0.0132802
784.833	0.0132260
784.911	0.0132448
784.989	0.0132278
785.068	0.0129462
785.146	0.0129419
785.224	0.0129530
785.302	0.0128094
785.380	0.0128784
785.458	0.0129125
785.536	0.0126215
785.614	0.0126415
785.693	0.0127737
785.771	0.0126759
785.849	0.0125406
785.927	0.0125429
786.005	0.0124360
786.083	0.0125312
786.161	0.0125407
786.239	0.0124918
786.318	0.0124451
786.396	0.0125496
786.474	0.0124989
786.552	0.0126386
786.630	0.0125901
786.708	0.0125834
786.786	0.0125008
786.864	0.0125993
786.943	0.0124642
787.021	0.0124986
787.099	0.0126574
787.177	0.0124287
787.255	0.0124451
787.333	0.0124652
787.411	0.0125824
787.489	0.0125165
787.568	0.0125265
787.646	0.0125780
787.724	0.0125617
787.802	0.0126102
787.880	0.0127155
787.958	0.0127248
788.036	0.0126740
788.114	0.0127692
788.193	0.0127900
788.271	0.0126203
788.349	0.0127195
788.427	0.0128117
788.505	0.0127841
788.583	0.0127859
788.661	0.0129111
788.739	0.0128987
788.818	0.0127321
788.896	0.0128815
788.974	0.0129323
789.052	0.0130250
789.130	0.0131617
789.208	0.0129222
789.286	0.0129837
789.364	0.0131046
789.443	0.0131708
789.521	0.0130579
789.599	0.0131578
789.677	0.0132626
789.755	0.0132289
789.833	0.0133215
789.911	0.0132083
789.989	0.0132250
790.068	0.0131200
790.146	0.0133294
790.224	0.0131165
790.302	0.0131123
790.380	0.0132249
790.458	0.0130829
790.536	0.0130771
790.614	0.0129991
790.693	0.0127769
790.771	0.0128876
790.849	0.0128773
790.927	0.0127010
791.005	0.0128103
791.083	0.0126613
791.161	0.0125391
791.239	0.0125995
791.318	0.0124918
791.396	0.0123609
791.474	0.0124899
791.552	0.0125452
791.630	0.0126136
791.708	0.0124746
791.786	0.0124451
791.864	0.0125567
791.943	0.0125322
792.021	0.0126989
792.099	0.0126801
792.177	0.0126806
792.255	0.0128560
792.333	0.0128251
792.411	0.0128371
792.489	0.0129227
792.568	0.0127283
792.646	0.0127776
792.724	0.0131171
792.802	0.0130209
792.880	0.0130116
792.958	0.0132326
793.036	0.0130345
793.114	0.0131696
793.193	0.0133127
793.271	0.0133349
793.349	0.0132508
793.427	0.0131838
793.505	0.0132024
793.583	0.0130190
793.661	0.0130751
793.739	0.0130493
793.818	0.0130116
793.896	0.0129472
793.974	0.0127570
794.052	0.0127969
794.130	0.0128387
794.208	0.0128748
794.286	0.0127398
794.364	0.0125858
794.443	0.0125548
794.521	0.0124787
794.599	0.0124255
794.677	0.0124393
794.755	0.0123570
794.833	0.0122316
794.911	0.0122913
794.989	0.0124290
795.068	0.0123936
795.146	0.0124285
795.224	0.0123690
795.302	0.0124075
795.380	0.0122970
795.458	0.0125045
795.536	0.0124681
795.614	0.0124155
795.693	0.0126624
795.771	0.0125547
795.849	0.0126644
795.927	0.0128456
796.005	0.0127704
796.083	0.0127611
796.161	0.0128538
796.239	0.0129263
796.318	0.0129903
796.396	0.0129012
796.474	0.0130491
796.552	0.0129662
796.630	0.0130136
796.708	0.0131693
796.786	0.0130638
796.864	0.0131846
796.943	0.0130883
797.021	0.0132936
797.099	0.0133776
797.177	0.0132928
797.255	0.0131958
797.333	0.0133203
797.411	0.0132639
797.489	0.0134417
797.568	0.0133793
797.646	0.0133315
797.724	0.0134676
797.802	0.0132891
797.880	0.0131438
797.958	0.0132960
798.036	0.0132635
798.114	0.0132928
798.193	0.0131646
798.271	0.0131240
798.349	0.0131632
798.427	0.0130231
798.505	0.0128771
798.583	0.0129650
798.661	0.0128239
798.739	0.0128275
798.818	0.0126311
798.896	0.0125503
798.974	0.0125075
799.052	0.0126264
799.130	0.0123534
799.208	0.0123293
799.286	0.0122539
799.364	0.0123596
799.443	0.0123029
799.521	0.0124630
799.599	0.0125398
799.677	0.0124447
799.755	0.0125902
799.833	0.0125079
799.911	0.0125827
799.989	0.0125880
800.068	0.0126079
800.146	0.0125861
800.224	0.0125050
800.302	0.0127361
800.380	0.0128457
800.458	0.0127909
800.536	0.0126414
800.614	0.0127625
800.693	0.0128543
800.771	0.0126042
800.849	0.0127524
800.927	0.0126697
801.005	0.0125592
801.083	0.0127109
801.161	0.0126796
801.239	0.0125306
801.318	0.0124555
801.396	0.0125145
801.474	0.0124908
801.552	0.0123314
801.630	0.0123577
801.708	0.0124179
801.786	0.0123955
801.864	0.0124460
801.943	0.0124519
802.021	0.0124334
802.099	0.0124886
802.177	0.0125883
802.255	0.0127182
802.333	0.0128410
802.411	0.0127888
802.489	0.0129595
802.568	0.0130939
802.646	0.0132663
802.724	0.0132734
802.802	0.0133567
802.880	0.0135703
802.958	0.0133441
803.036	0.0134637
803.114	0.0135035
803.193	0.0134491
803.271	0.0135703
803.349	0.0135438
803.427	0.0134995
803.505	0.0134897
803.583	0.0134641
803.661	0.0134007
803.739	0.0133480
803.818	0.0133762
803.896	0.0134092
803.974	0.0133578
804.052	0.0131600
804.130	0.0131922
804.208	0.0132520
804.286	0.0131060
804.364	0.0131272
804.443	0.0131573
804.521	0.0129066
804.599	0.0128123
804.677	0.0129635
804.755	0.0127720
804.833	0.0126703
804.911	0.0126685
804.989	0.0125864
805.068	0.0124917
805.146	0.0125986
805.224	0.0124935
805.302	0.0123991
805.380	0.0125359
805.458	0.0124553
805.536	0.0122907
805.614	0.0123872
805.693	0.0123179
805.771	0.0123488
805.849	0.0122135
805.927	0.0123059
806.005	0.0123524
806.083	0.0123573
806.161	0.0122198
806.239	0.0121581
806.318	0.0123190
806.396	0.0123237
806.474	0.0122353
806.552	0.0122824
806.630	0.0122817
806.708	0.0123149
806.786	0.0124304
806.864	0.0123548
806.943	0.0124301
807.021	0.0124928
807.099	0.0124298
807.177	0.0124503
807.255	0.0127186
807.333	0.0127493
807.411	0.0128069
807.489	0.0130421
807.568	0.0131377
807.646	0.0132150
807.724	0.0131870
807.802	0.0133814
807.880	0.0135603
807.958	0.0135620
808.036	0.0137266
808.114	0.0137831
808.193	0.0138414
808.271	0.0137956
808.349	0.0136354
808.427	0.0138665
808.505	0.0139442
808.583	0.0138787
808.661	0.0137126
808.739	0.0137095
808.818	0.0135339
808.896	0.0134518
808.974	0.0132713
809.052	0.0133688
809.130	0.0131564
809.208	0.0131099
809.286	0.0130285
809.364	0.0129754
809.443	0.0128567
809.521	0.0127405
809.599	0.0126449
809.677	0.0125085
809.755	0.0126420
809.833	0.0124644
809.911	0.0123795
809.989	0.0124788
810.068	0.0123693
810.146	0.0123499
810.224	0.0123978
810.302	0.0124075
810.380	0.0124391
810.458	0.0123459
810.536	0.0124265
810.614	0.0123444
810.693	0.0123397
810.771	0.0123848
810.849	0.0124313
810.927	0.0123126
811.005	0.0123914
811.083	0.0123007
811.161	0.0121481
811.239	0.0121938
811.318	0.0122227
811.396	0.0122849
811.474	0.0121988
811.552	0.0121851
811.630	0.0121813
811.708	0.0121938
811.786	0.0121680
811.864	0.0122104
811.943	0.0122787
812.021	0.0122540
812.099	0.0122865
812.177	0.0123566
812.255	0.0124487
812.333	0.0125520
812.411	0.0126329
812.489	0.0126723
812.568	0.0128358
812.646	0.0131088
812.724	0.0131911
812.802	0.0132746
812.880	0.0132096
812.958	0.0134268
813.036	0.0134938
813.114	0.0135938
813.193	0.0135358
813.271	0.0135503
813.349	0.0138491
813.427	0.0138243
813.505	0.0139526
813.583	0.0139713
813.661	0.0138923
813.739	0.0139031
813.818	0.0137572
813.896	0.0135376
813.974	0.0137501
814.052	0.0136568
814.130	0.0134003
814.208	0.0134145
814.286	0.0133428
814.364	0.0130016
814.443	0.0131359
814.521	0.0129144
814.599	0.0126978
814.677	0.0127230
814.755	0.0125240
814.833	0.0123969
814.911	0.0123852
814.989	0.0123251
815.068	0.0121371
815.146	0.0121615
815.224	0.0122314
815.302	0.0120717
815.380	0.0121785
815.458	0.0120924
815.536	0.0120243
815.614	0.0119785
815.693	0.0120145
815.771	0.0118884
815.849	0.0119494
815.927	0.0120787
816.005	0.0120567
816.083	0.0118930
816.161	0.0119655
816.239	0.0121036
816.318	0.0120642
816.396	0.0121022
816.474	0.0120068
816.552	0.0120001
816.630	0.0121214
816.708	0.0121320
816.786	0.0123630
816.864	0.0122091
816.943	0.0121881
817.021	0.0123120
817.099	0.0124483
817.177	0.0125646
817.255	0.0127003
817.333	0.0127995
817.411	0.0127776
817.489	0.0128911
817.568	0.0128831
817.646	0.0130046
817.724	0.0133099
817.802	0.0132582
817.880	0.0132626
817.958	0.0133528
818.036	0.0133021
818.114	0.0135359
818.193	0.0134783
818.271	0.0134584
818.349	0.0135733
818.427	0.0136393
818.505	0.0137448
818.583	0.0137566
818.661	0.0136921
818.739	0.0137560
818.818	0.0137611
818.896	0.0136754
818.974	0.0137042
819.052	0.0136916
819.130	0.0136914
819.208	0.0134452
819.286	0.0135204
819.364	0.0134673
819.443	0.0134550
819.521	0.0132832
819.599	0.0133405
819.677	0.0132122
819.755	0.0131574
819.833	0.0129773
819.911	0.0130067
819.989	0.0128778
820.068	0.0127636
820.146	0.0126319
820.224	0.0127402
820.302	0.0126803
820.380	0.0125798
820.458	0.0124789
820.536	0.0122850
820.614	0.0122602
820.693	0.0123689
820.771	0.0120446
820.849	0.0120745
820.927	0.0121554
821.005	0.0120161
821.083	0.0118510
821.161	0.0119525
821.239	0.0119779
821.318	0.0119726
821.396	0.0118518
821.474	0.0119361
821.552	0.0119180
821.630	0.0119359
821.708	0.0119866
821.786	0.0119797
821.864	0.0119610
821.943	0.0121234
822.021	0.0122600
822.099	0.0123364
822.177	0.0122642
822.255	0.0123880
822.333	0.0123933
822.411	0.0125122
822.489	0.0125420
822.568	0.0124749
822.646	0.0125578
822.724	0.0126332
822.802	0.0126770
822.880	0.0128084
822.958	0.0128280
823.036	0.0128928
823.114	0.0131324
823.193	0.0133057
823.271	0.0131561
823.349	0.0131364
823.427	0.0131646
823.505	0.0133073
823.583	0.0134071
823.661	0.0132742
823.739	0.0133232
823.818	0.0134183
823.896	0.0134536
823.974	0.0133837
824.052	0.0134729
824.130	0.0133974
824.208	0.0133031
824.286	0.0133159
824.364	0.0133823
824.443	0.0133663
824.521	0.0132561
824.599	0.0132816
824.677	0.0131760
824.755	0.0131723
824.833	0.0132501
824.911	0.0131800
824.989	0.0131380
825.068	0.0131731
825.146	0.0131087
825.224	0.0130491
825.302	0.0130750
825.380	0.0130888
825.458	0.0128758
825.536	0.0128369
825.614	0.0129878
825.693	0.0128235
825.771	0.0129169
825.849	0.0126960
825.927	0.0127497
826.005	0.0128038
826.083	0.0127596
826.161	0.0127129
826.239	0.0126460
826.318	0.0125967
826.396	0.0125366
826.474	0.0125970
826.552	0.0123415
826.630	0.0125077
826.708	0.0124789
826.786	0.0123566
826.864	0.0122526
826.943	0.0122521
827.021	0.0122412
827.099	0.0121436
827.177	0.0122052
827.255	0.0121704
827.333	0.0121147
827.411	0.0121223
827.489	0.0120747
827.568	0.0121594
827.646	0.0121178
827.724	0.0122366
827.802	0.0123059
827.880	0.0123121
827.958	0.0122859
828.036	0.0124161
828.114	0.0123764
828.193	0.0123699
828.271	0.0125471
828.349	0.0126064
828.427	0.0126284
828.505	0.0127554
828.583	0.0126987
828.661	0.0127825
828.739	0.0129084
828.818	0.0130083
828.896	0.0131799
828.974	0.0131043
829.052	0.0130902
829.130	0.0131674
829.208	0.0132820
829.286	0.0134319
829.364	0.0133088
829.443	0.0133147
829.521	0.0135036
829.599	0.0134915
829.677	0.0133042
829.755	0.0133265
829.833	0.0134147
829.911	0.0134104
829.989	0.0133942
830.068	0.0132939
830.146	0.0133306
830.224	0.0132513
830.302	0.0131641
830.380	0.0132304
830.458	0.0131464
830.536	0.0131296
830.614	0.0130553
830.693	0.0130031
830.771	0.0130318
830.849	0.0131711
830.927	0.0129803
831.005	0.0129815
831.083	0.0127835
831.161	0.0127415
831.239	0.0129487
831.318	0.0128004
831.396	0.0128231
831.474	0.0127229
831.552	0.0126353
831.630	0.0126247
831.708	0.0126762
831.786	0.0126679
831.864	0.0126588
831.943	0.0126142
832.021	0.0126846
832.099	0.0124397
832.177	0.0124489
832.255	0.0124870
832.333	0.0125970
832.411	0.0124940
832.489	0.0125036
832.568	0.0124821
832.646	0.0125280
832.724	0.0124199
832.802	0.0123195
832.880	0.0125461
832.958	0.0124790
833.036	0.0125234
833.114	0.0124123
833.193	0.0125344
833.271	0.0125704
833.349	0.0124644
833.427	0.0124369
833.505	0.0124805
833.583	0.0125909
833.661	0.0123872
833.739	0.0124969
833.818	0.0125216
833.896	0.0127012
833.974	0.0127222
834.052	0.0126266
834.130	0.0126620
834.208	0.0125936
834.286	0.0127216
834.364	0.0127232
834.443	0.0128166
834.521	0.0128285
834.599	0.0129957
834.677	0.0128464
834.755	0.0128600
834.833	0.0130116
834.911	0.0129614
834.989	0.0129286
835.068	0.0128964
835.146	0.0130897
835.224	0.0131917
835.302	0.0130599
835.380	0.0131970
835.458	0.0131789
835.536	0.0131884
835.614	0.0131026
835.693	0.0130193
835.771	0.0132703
835.849	0.0132879
835.927	0.0131684
836.005	0.0131253
836.083	0.0129995
836.161	0.0131808
836.239	0.0131258
836.318	0.0130474
836.396	0.0130737
836.474	0.0130584
836.552	0.0129343
836.630	0.0128516
836.708	0.0129073
836.786	0.0128928
836.864	0.0128977
836.943	0.0128856
837.021	0.0127534
837.099	0.0126221
837.177	0.0128069
837.255	0.0128065
837.333	0.0127090
837.411	0.0126234
837.489	0.0125921
837.568	0.0126318
837.646	0.0125732
837.724	0.0125960
837.802	0.0127227
837.880	0.0126387
837.958	0.0127110
838.036	0.0127147
838.114	0.0126933
838.193	0.0127683
838.271	0.0127351
838.349	0.0127100
838.427	0.0128480
838.505	0.0128026
838.583	0.0126994
838.661	0.0127637
838.739	0.0128484
838.818	0.0128355
838.896	0.0127776
838.974	0.0127049
839.052	0.0126902
839.130	0.0126360
839.208	0.0126366
839.286	0.0127343
839.364	0.0127766
839.443	0.0126442
839.521	0.0127290
839.599	0.0126563
839.677	0.0125222
839.755	0.0125123
839.833	0.0126742
839.911	0.0127380
839.989	0.0126408
840.068	0.0126391
840.146	0.0127341
840.224	0.0127658
840.302	0.0126673
840.380	0.0127707
840.458	0.0126566
840.536	0.0127925
840.614	0.0128564
840.693	0.0128111
840.771	0.0127091
840.849	0.0127339
840.927	0.0129105
841.005	0.0129533
841.083	0.0128367
841.161	0.0129582
841.239	0.0129192
841.318	0.0128505
841.396	0.0126981
841.474	0.0128769
841.552	0.0129966
841.630	0.0129382
841.708	0.0130614
841.786	0.0130267
841.864	0.0129394
841.943	0.0129494
842.021	0.0129628
842.099	0.0130164
842.177	0.0128680
842.255	0.0129994
842.333	0.0129671
842.411	0.0129530
842.489	0.0129996
842.568	0.0128330
842.646	0.0129225
842.724	0.0129535
842.802	0.0128977
842.880	0.0129067
842.958	0.0128708
843.036	0.0129543
843.114	0.0128288
843.193	0.0128799
843.271	0.0130497
843.349	0.0130494
843.427	0.0128944
843.505	0.0128840
843.583	0.0131131
843.661	0.0128776
843.739	0.0129930
843.818	0.0129266
843.896	0.0131001
843.974	0.0130274
844.052	0.0130793
844.130	0.0130570
844.208	0.0131092
844.286	0.0129379
844.364	0.0129496
844.443	0.0130439
844.521	0.0128383
844.599	0.0129888
844.677	0.0129145
844.755	0.0129212
844.833	0.0129046
844.911	0.0128345
844.989	0.0128117
845.068	0.0127544
845.146	0.0126168
845.224	0.0126390
845.302	0.0125890
845.380	0.0125591
845.458	0.0125695
845.536	0.0125854
845.614	0.0124714
845.693	0.0124809
845.771	0.0125154
845.849	0.0125723
845.927	0.0126564
846.005	0.0126003
846.083	0.0126294
846.161	0.0126832
846.239	0.0126777
846.318	0.0128163
846.396	0.0126801
846.474	0.0127888
846.552	0.0128370
846.630	0.0127841
846.708	0.0127853
846.786	0.0129126
846.864	0.0130073
846.943	0.0128053
847.021	0.0127833
847.099	0.0129106
847.177	0.0129460
847.255	0.0129413
847.333	0.0129900
847.411	0.0128637
847.489	0.0129133
847.568	0.0129692
847.646	0.0128316
847.724	0.0128507
847.802	0.0128609
847.880	0.0129185
847.958	0.0128160
848.036	0.0129446
848.114	0.0128424
848.193	0.0128805
848.271	0.0129330
848.349	0.0127975
848.427	0.0128414
848.505	0.0129220
848.583	0.0129031
848.661	0.0129525
848.739	0.0130914
848.818	0.0128847
848.896	0.0131463
848.974	0.0130762
849.052	0.0130073
849.130	0.0130619
849.208	0.0130013
849.286	0.0129647
849.364	0.0130736
849.443	0.0130293
849.521	0.0130695
849.599	0.0129564
849.677	0.0130771
849.755	0.0132104
849.833	0.0132417
849.911	0.0131461
849.989	0.0130520
850.068	0.0130383
850.146	0.0128562
850.224	0.0129856
850.302	0.0129079
850.380	0.0128426
850.458	0.0127991
850.536	0.0127483
850.614	0.0128226
850.693	0.0127504
850.771	0.0126833
850.849	0.0125978
850.927	0.0125935
851.005	0.0125393
851.083	0.0123784
851.161	0.0124686
851.239	0.0124755
851.318	0.0125878
851.396	0.0124820
851.474	0.0124228
851.552	0.0125185
851.630	0.0125726
851.708	0.0125780
851.786	0.0125093
851.864	0.0125768
851.943	0.0126086
852.021	0.0125768
852.099	0.0124722
852.177	0.0127458
852.255	0.0127080
852.333	0.0127126
852.411	0.0125765
852.489	0.0125767
852.568	0.0127428
852.646	0.0126286
852.724	0.0125111
852.802	0.0126832
852.880	0.0126747
852.958	0.0127802
853.036	0.0127663
853.114	0.0126559
853.193	0.0127008
853.271	0.0128165
853.349	0.0126943
853.427	0.0129115
853.505	0.0128693
853.583	0.0128591
853.661	0.0128072
853.739	0.0129804
853.818	0.0129731
853.896	0.0128297
853.974	0.0130270
854.052	0.0130537
854.130	0.0130913
854.208	0.0130562
854.286	0.0129015
854.364	0.0129454
854.443	0.0130434
854.521	0.0130177
854.599	0.0131402
854.677	0.0129134
854.755	0.0128624
854.833	0.0130578
854.911	0.0129688
854.989	0.0130630
855.068	0.0128599
855.146	0.0129984
855.224	0.0130610
855.302	0.0128751
855.380	0.0128987
855.458	0.0129001
855.536	0.0129703
855.614	0.0129043
855.693	0.0129061
855.771	0.0129234
855.849	0.0129095
855.927	0.0128117
856.005	0.0128625
856.083	0.0129114
856.161	0.0128538
856.239	0.0128873
856.318	0.0128555
856.396	0.0128314
856.474	0.0128917
856.552	0.0127685
856.630	0.0128497
856.708	0.0128418
856.786	0.0128288
856.864	0.0129179
856.943	0.0128352
857.021	0.0127534
857.099	0.0126704
857.177	0.0126332
857.255	0.0126588
857.333	0.0125979
857.411	0.0126586
857.489	0.0126098
857.568	0.0126648
857.646	0.0125990
857.724	0.0126086
857.802	0.0125085
857.880	0.0125064
857.958	0.0126646
858.036	0.0126637
858.114	0.0124523
858.193	0.0126385
858.271	0.0126283
858.349	0.0125964
858.427	0.0127406
858.505	0.0127724
858.583	0.0128043
858.661	0.0128162
858.739	0.0126203
858.818	0.0127696
858.896	0.0128256
858.974	0.0128661
859.052	0.0130095
859.130	0.0128738
859.208	0.0128335
859.286	0.0129292
859.364	0.0129292
859.443	0.0129568
859.521	0.0129130
859.599	0.0129288
859.677	0.0129912
859.755	0.0129871
859.833	0.0131832
859.911	0.0130124
859.989	0.0130142
860.068	0.0128469
860.146	0.0129715
860.224	0.0130151
860.302	0.0130305
860.380	0.0130672
860.458	0.0129488
860.536	0.0128245
860.614	0.0128247
860.693	0.0129426
860.771	0.0129853
860.849	0.0128778
860.927	0.0127650
861.005	0.0127883
861.083	0.0129519
861.161	0.0129275
861.239	0.0127493
861.318	0.0128695
861.396	0.0130007
861.474	0.0129816
861.552	0.0127944
861.630	0.0128012
861.708	0.0130485
861.786	0.0129670
861.864	0.0130406
861.943	0.0129398
862.021	0.0130523
862.099	0.0131767
862.177	0.0129505
862.255	0.0129316
862.333	0.0129923
862.411	0.0129958
862.489	0.0129780
862.568	0.0129727
862.646	0.0131009
862.724	0.0129546
862.802	0.0128438
862.880	0.0128406
862.958	0.0128470
863.036	0.0128452
863.114	0.0128075
863.193	0.0128210
863.271	0.0127190
863.349	0.0125902
863.427	0.0126833
863.505	0.0126675
863.583	0.0125858
863.661	0.0126021
863.739	0.0125320
863.818	0.0124835
863.896	0.0125053
863.974	0.0125655
864.052	0.0124641
864.130	0.0125127
864.208	0.0125320
864.286	0.0125587
864.364	0.0126583
864.443	0.0126904
864.521	0.0126217
864.599	0.0127184
864.677	0.0128590
864.755	0.0129443
864.833	0.0127740
864.911	0.0129142
864.989	0.0128520
865.068	0.0128970
865.146	0.0127960
865.224	0.0128287
865.302	0.0129331
865.380	0.0128336
865.458	0.0127524
865.536	0.0126411
865.614	0.0127956
865.693	0.0127681
865.771	0.0127737
865.849	0.0127143
865.927	0.0127821
866.005	0.0129041
866.083	0.0128014
866.161	0.0128127
866.239	0.0128838
866.318	0.0129148
866.396	0.0130698
866.474	0.0129826
866.552	0.0130552
866.630	0.0129767
866.708	0.0130850
866.786	0.0131083
866.864	0.0132710
866.943	0.0130979
867.021	0.0132063
867.099	0.0134057
867.177	0.0132549
867.255	0.0132382
867.333	0.0131118
867.411	0.0131824
867.489	0.0132495
867.568	0.0132572
867.646	0.0131747
867.724	0.0130882
867.802	0.0129890
867.880	0.0128295
867.958	0.0129826
868.036	0.0129357
868.114	0.0129230
868.193	0.0129190
868.271	0.0127992
868.349	0.0127859
868.427	0.0127476
868.505	0.0127000
868.583	0.0126356
868.661	0.0126385
868.739	0.0126828
868.818	0.0126436
868.896	0.0127153
868.974	0.0128266
869.052	0.0126260
869.130	0.0125834
869.208	0.0125936
869.286	0.0125002
869.364	0.0125519
869.443	0.0126370
869.521	0.0124986
869.599	0.0127039
869.677	0.0126844
869.755	0.0126859
869.833	0.0128432
869.911	0.0126424
869.989	0.0127431
870.068	0.0126405
870.146	0.0127531
870.224	0.0127247
870.302	0.0127457
870.380	0.0126143
870.458	0.0126783
870.536	0.0127551
870.614	0.0126784
870.693	0.0127085
870.771	0.0127893
870.849	0.0125987
870.927	0.0128041
871.005	0.0126599
871.083	0.0128516
871.161	0.0128287
871.239	0.0127946
871.318	0.0127695
871.396	0.0128286
871.474	0.0127952
871.552	0.0127190
871.630	0.0128194
871.708	0.0129504
871.786	0.0129382
871.864	0.0129964
871.943	0.0128661
872.021	0.0129435
872.099	0.0130151
872.177	0.0130406
872.255	0.0130397
872.333	0.0129808
872.411	0.0130587
872.489	0.0130826
872.568	0.0130537
872.646	0.0130497
872.724	0.0130558
872.802	0.0130770
872.880	0.0130873
872.958	0.0131456
873.036	0.0129662
873.114	0.0130927
873.193	0.0128799
873.271	0.0128926
873.349	0.0130261
873.427	0.0129292
873.505	0.0128852
873.583	0.0129872
873.661	0.0127567
873.739	0.0128830
873.818	0.0127568
873.896	0.0129185
873.974	0.0128300
874.052	0.0127339
874.130	0.0128342
874.208	0.0128351
874.286	0.0127785
874.364	0.0127419
874.443	0.0128075
874.521	0.0128712
874.599	0.0128799
874.677	0.0129142
874.755	0.0129922
874.833	0.0128494
874.911	0.0128668
874.989	0.0128633
875.068	0.0128593
875.146	0.0127828
875.224	0.0128093
875.302	0.0128426
875.380	0.0126733
875.458	0.0126711
875.536	0.0126892
875.614	0.0127028
875.693	0.0126588
875.771	0.0126463
875.849	0.0125129
875.927	0.0124317
876.005	0.0125997
876.083	0.0125201
876.161	0.0125318
876.239	0.0125607
876.318	0.0126266
876.396	0.0125529
876.474	0.0126381
876.552	0.0126239
876.630	0.0126232
876.708	0.0126061
876.786	0.0127507
876.864	0.0127754
876.943	0.0128568
877.021	0.0129213
877.099	0.0127722
877.177	0.0128905
877.255	0.0130660
877.333	0.0129841
877.411	0.0129689
877.489	0.0128674
877.568	0.0131133
877.646	0.0130682
877.724	0.0130374
877.802	0.0130248
877.880	0.0130919
877.958	0.0130147
878.036	0.0131253
878.114	0.0128762
878.193	0.0127405
878.271	0.0129733
878.349	0.0129771
878.427	0.0129105
878.505	0.0128677
878.583	0.0128466
878.661	0.0128902
878.739	0.0129973
878.818	0.0127860
878.896	0.0128902
878.974	0.0128094
879.052	0.0127813
879.130	0.0128600
879.208	0.0128613
879.286	0.0127224
879.364	0.0127666
879.443	0.0128446
879.521	0.0129619
879.599	0.0128413
879.677	0.0129692
879.755	0.0128308
879.833	0.0126859
879.911	0.0128638
879.989	0.0129445
880.068	0.0127786
880.146	0.0128172
880.224	0.0128564
880.302	0.0129244
880.380	0.0129295
880.458	0.0128611
880.536	0.0128521
880.614	0.0129744
880.693	0.0127172
880.771	0.0126358
880.849	0.0129585
880.927	0.0128442
881.005	0.0128574
881.083	0.0128899
881.161	0.0128377
881.239	0.0127290
881.318	0.0127477
881.396	0.0127238
881.474	0.0127016
881.552	0.0127042
881.630	0.0127390
881.708	0.0126637
881.786	0.0127799
881.864	0.0127425
881.943	0.0126952
882.021	0.0127330
882.099	0.0126998
882.177	0.0126844
882.255	0.0129304
882.333	0.0128401
882.411	0.0128017
882.489	0.0127365
882.568	0.0128074
882.646	0.0128259
882.724	0.0128367
882.802	0.0127632
882.880	0.0129649
882.958	0.0127574
883.036	0.0127583
883.114	0.0128133
883.193	0.0128669
883.271	0.0127219
883.349	0.0129487
883.427	0.0128835
883.505	0.0129022
883.583	0.0129402
883.661	0.0129489
883.739	0.0128185
883.818	0.0129493
883.896	0.0129744
883.974	0.0129733
884.052	0.0129443
884.130	0.0128431
884.208	0.0129562
884.286	0.0129086
884.364	0.0129329
884.443	0.0129838
884.521	0.0127908
884.599	0.0128041
884.677	0.0128401
884.755	0.0129156
884.833	0.0128027
884.911	0.0128927
884.989	0.0128119
885.068	0.0129051
885.146	0.0127977
885.224	0.0129926
885.302	0.0128613
885.380	0.0127782
885.458	0.0126756
885.536	0.0128201
885.614	0.0126684
885.693	0.0125884
885.771	0.0125746
885.849	0.0126756
885.927	0.0125573
886.005	0.0124382
886.083	0.0125242
886.161	0.0126170
886.239	0.0125301
886.318	0.0124226
886.396	0.0124966
886.474	0.0125007
886.552	0.0127094
886.630	0.0126884
886.708	0.0127239
886.786	0.0127667
886.864	0.0128246
886.943	0.0127544
887.021	0.0127322
887.099	0.0129135
887.177	0.0129845
887.255	0.0129927
887.333	0.0129893
887.411	0.0131482
887.489	0.0131061
887.568	0.0131109
887.646	0.0131646
887.724	0.0131738
887.802	0.0131999
887.880	0.0131726
887.958	0.0133736
888.036	0.0133081
888.114	0.0132801
888.193	0.0132055
888.271	0.0130128
888.349	0.0131096
888.427	0.0130772
888.505	0.0129723
888.583	0.0129175
888.661	0.0128323
888.739	0.0128651
888.818	0.0127669
888.896	0.0128110
888.974	0.0127882
889.052	0.0126677
889.130	0.0128257
889.208	0.0126923
889.286	0.0127448
889.364	0.0125999
889.443	0.0126501
889.521	0.0125319
889.599	0.0126527
889.677	0.0125722
889.755	0.0126247
889.833	0.0125276
889.911	0.0126025
889.989	0.0126296
890.068	0.0125366
890.146	0.0124437
890.224	0.0127417
890.302	0.0126171
890.380	0.0124968
890.458	0.0126361
890.536	0.0126180
890.614	0.0127327
890.693	0.0126328
890.771	0.0126698
890.849	0.0126105
890.927	0.0126915
891.005	0.0125589
891.083	0.0125548
891.161	0.0126401
891.239	0.0125548
891.318	0.0126669
891.396	0.0127834
891.474	0.0128130
891.552	0.0128628
891.630	0.0128371
891.708	0.0129367
891.786	0.0130940
891.864	0.0130840
891.943	0.0131379
892.021	0.0132967
892.099	0.0134127
892.177	0.0133460
892.255	0.0133387
892.333	0.0132951
892.411	0.0133685
892.489	0.0132539
892.568	0.0132771
892.646	0.0132622
892.724	0.0131101
892.802	0.0130274
892.880	0.0131536
892.958	0.0131870
893.036	0.0129636
893.114	0.0127460
893.193	0.0127235
893.271	0.0128438
893.349	0.0126819
893.427	0.0125247
893.505	0.0126017
893.583	0.0125395
893.661	0.0124404
893.739	0.0122543
893.818	0.0123300
893.896	0.0123217
893.974	0.0123315
894.052	0.0123315
894.130	0.0123619
894.208	0.0125031
894.286	0.0124773
894.364	0.0125394
894.443	0.0125095
894.521	0.0128105
894.599	0.0128046
894.677	0.0127953
894.755	0.0129869
894.833	0.0130030
894.911	0.0130871
894.989	0.0130789
895.068	0.0133259
895.146	0.0133437
895.224	0.0133190
895.302	0.0131266
895.380	0.0132159
895.458	0.0132813
895.536	0.0132343
895.614	0.0131494
895.693	0.0131124
895.771	0.0129211
895.849	0.0129258
895.927	0.0127181
896.005	0.0127960
896.083	0.0125254
896.161	0.0125003
896.239	0.0126074
896.318	0.0124423
896.396	0.0124290
896.474	0.0124687
896.552	0.0122439
896.630	0.0123267
896.708	0.0124313
896.786	0.0123614
896.864	0.0123146
896.943	0.0125300
897.021	0.0125848
897.099	0.0126304
897.177	0.0128673
897.255	0.0129366
897.333	0.0129858
897.411	0.0128661
897.489	0.0130408
897.568	0.0130926
897.646	0.0130682
897.724	0.0132412
897.802	0.0130029
897.880	0.0131703
897.958	0.0131841
898.036	0.0132207
898.114	0.0131181
898.193	0.0129459
898.271	0.0130353
898.349	0.0129812
898.427	0.0129107
898.505	0.0128332
898.583	0.0128719
898.661	0.0127212
898.739	0.0127229
898.818	0.0127486
898.896	0.0126478
898.974	0.0125832
899.052	0.0124197
899.130	0.0125650
899.208	0.0127478
899.286	0.0125971
899.364	0.0125632
899.443	0.0125714
899.521	0.0125968
899.599	0.0127475
899.677	0.0128135
899.755	0.0128094
899.833	0.0128943
899.911	0.0129890
899.989	0.0129104
900.068	0.0131492
900.146	0.0132689
900.224	0.0131723
900.302	0.0131640
900.380	0.0131912
900.458	0.0129530
900.536	0.0129493
900.614	0.0129434
900.693	0.0130442
900.771	0.0129095
900.849	0.0128117
900.927	0.0127986
901.005	0.0126832
901.083	0.0126655
901.161	0.0125226
901.239	0.0125049
901.318	0.0125809
901.396	0.0124868
901.474	0.0124732
901.552	0.0124879
901.630	0.0125776
901.708	0.0125672
901.786	0.0124339
901.864	0.0124791
901.943	0.0125185
902.021	0.0125525
902.099	0.0126568
902.177	0.0128330
902.255	0.0128228
902.333	0.0129748
902.411	0.0128620
902.489	0.0130822
902.568	0.0131367
902.646	0.0131874
902.724	0.0132267
902.802	0.0132254
902.880	0.0133066
902.958	0.0132269
903.036	0.0131925
903.114	0.0132597
903.193	0.0131796
903.271	0.0129116
903.349	0.0129196
903.427	0.0129861
903.505	0.0128104
903.583	0.0128123
903.661	0.0127344
903.739	0.0126902
903.818	0.0126897
903.896	0.0124921
903.974	0.0127723
904.052	0.0126691
904.130	0.0125446
904.208	0.0126204
904.286	0.0126781
904.364	0.0126514
904.443	0.0125694
904.521	0.0124788
904.599	0.0126154
904.677	0.0127272
904.755	0.0127622
904.833	0.0128796
904.911	0.0129395
904.989	0.0128805
905.068	0.0129963
905.146	0.0129364
905.224	0.0129732
905.302	0.0131329
905.380	0.0130273
905.458	0.0130804
905.536	0.0129951
905.614	0.0129364
905.693	0.0130759
905.771	0.0129019
905.849	0.0127881
905.927	0.0129688
906.005	0.0128657
906.083	0.0125922
906.161	0.0126564
906.239	0.0126267
906.318	0.0125668
906.396	0.0124884
906.474	0.0124096
906.552	0.0123367
906.630	0.0124264
906.708	0.0124084
906.786	0.0125043
906.864	0.0125228
906.943	0.0123759
907.021	0.0124734
907.099	0.0126207
907.177	0.0126254
907.255	0.0127588
907.333	0.0126707
907.411	0.0128417
907.489	0.0128886
907.568	0.0129339
907.646	0.0130811
907.724	0.0131332
907.802	0.0132393
907.880	0.0132529
907.958	0.0133220
908.036	0.0132802
908.114	0.0134194
908.193	0.0134176
908.271	0.0132693
908.349	0.0132718
908.427	0.0133410
908.505	0.0133047
908.583	0.0131387
908.661	0.0130322
908.739	0.0129722
908.818	0.0128129
908.896	0.0129123
908.974	0.0128334
909.052	0.0126073
909.130	0.0125542
909.208	0.0126694
909.286	0.0127087
909.364	0.0125368
909.443	0.0124870
909.521	0.0126248
909.599	0.0125961
909.677	0.0125443
909.755	0.0126451
909.833	0.0126299
909.911	0.0125819
909.989	0.0125681
910.068	0.0126676
910.146	0.0126173
910.224	0.0126731
910.302	0.0125981
910.380	0.0128435
910.458	0.0128048
910.536	0.0126377
910.614	0.0128073
910.693	0.0127618
910.771	0.0127668
910.849	0.0126324
910.927	0.0127197
911.005	0.0127374
911.083	0.0127062
911.161	0.0128041
911.239	0.0127457
911.318	0.0128017
911.396	0.0126510
911.474	0.0126806
911.552	0.0127797
911.630	0.0126996
911.708	0.0126442
911.786	0.0127338
911.864	0.0127145
911.943	0.0127106
912.021	0.0127780
912.099	0.0126655
912.177	0.0127097
912.255	0.0127362
912.333	0.0128851
912.411	0.0128293
912.489	0.0128005
912.568	0.0128813
912.646	0.0130731
912.724	0.0131386
912.802	0.0131181
912.880	0.0130997
912.958	0.0132585
913.036	0.0132902
913.114	0.0132126
913.193	0.0131506
913.271	0.0130515
913.349	0.0132171
913.427	0.0131049
913.505	0.0130314
913.583	0.0128794
913.661	0.0130325
913.739	0.0128882
913.818	0.0128848
913.896	0.0128322
913.974	0.0128474
914.052	0.0128037
914.130	0.0125588
914.208	0.0127382
914.286	0.0127225
914.364	0.0125343
914.443	0.0126146
914.521	0.0126406
914.599	0.0126984
914.677	0.0124881
914.755	0.0126041
914.833	0.0125990
914.911	0.0124954
914.989	0.0125753
915.068	0.0126093
915.146	0.0126193
915.224	0.0125724
915.302	0.0127692
915.380	0.0125708
915.458	0.0125865
915.536	0.0126218
915.614	0.0126096
915.693	0.0126855
915.771	0.0127655
915.849	0.0126548
915.927	0.0128157
916.005	0.0127739
916.083	0.0126852
916.161	0.0126428
916.239	0.0125644
916.318	0.0126263
916.396	0.0127451
916.474	0.0125941
916.552	0.0126212
916.630	0.0128045
916.708	0.0128282
916.786	0.0127576
916.864	0.0128272
916.943	0.0126843
917.021	0.0128539
917.099	0.0130216
917.177	0.0129505
917.255	0.0128759
917.333	0.0128455
917.411	0.0129146
917.489	0.0130821
917.568	0.0129135
917.646	0.0129634
917.724	0.0131250
917.802	0.0131425
917.880	0.0130894
917.958	0.0130324
918.036	0.0131615
918.114	0.0130490
918.193	0.0130637
918.271	0.0130792
918.349	0.0131079
918.427	0.0132105
918.505	0.0129725
918.583	0.0129097
918.661	0.0130527
918.739	0.0130418
918.818	0.0129758
918.896	0.0129604
918.974	0.0129597
919.052	0.0130275
919.130	0.0128172
919.208	0.0127940
919.286	0.0126994
919.364	0.0127484
919.443	0.0128448
919.521	0.0129137
919.599	0.0126905
919.677	0.0127327
919.755	0.0126570
919.833	0.0127763
919.911	0.0127995
919.989	0.0126691
920.068	0.0126072
920.146	0.0127666
920.224	0.0127295
920.302	0.0126804
920.380	0.0127496
920.458	0.0127136
920.536	0.0127690
920.614	0.0127928
920.693	0.0128901
920.771	0.0128065
920.849	0.0128524
920.927	0.0128934
921.005	0.0127316
921.083	0.0127952
921.161	0.0129636
921.239	0.0128817
921.318	0.0127778
921.396	0.0129720
921.474	0.0128135
921.552	0.0127991
921.630	0.0128915
921.708	0.0128745
921.786	0.0127704
921.864	0.0126991
921.943	0.0127298
922.021	0.0127934
922.099	0.0127126
922.177	0.0127003
922.255	0.0126756
922.333	0.0126244
922.411	0.0126604
922.489	0.0128152
922.568	0.0127126
922.646	0.0126298
922.724	0.0126508
922.802	0.0126331
922.880	0.0126565
922.958	0.0127870
923.036	0.0128841
923.114	0.0128633
923.193	0.0129303
923.271	0.0129630
923.349	0.0128775
923.427	0.0130320
923.505	0.0130536
923.583	0.0129709
923.661	0.0131731
923.739	0.0130193
923.818	0.0130410
923.896	0.0131129
923.974	0.0130619
924.052	0.0130885
924.130	0.0129700
924.208	0.0130549
924.286	0.0129368
924.364	0.0131108
924.443	0.0130766
924.521	0.0129821
924.599	0.0129074
924.677	0.0128095
924.755	0.0127917
924.833	0.0128695
924.911	0.0127776
924.989	0.0127904
925.068	0.0127883
925.146	0.0128041
925.224	0.0126189
925.302	0.0126389
925.380	0.0126669
925.458	0.0126780
925.536	0.0127442
925.614	0.0127075
925.693	0.0126202
925.771	0.0126317
925.849	0.0127219
925.927	0.0127422
926.005	0.0127038
926.083	0.0127149
926.161	0.0127859
926.239	0.0126897
926.318	0.0126785
926.396	0.0127542
926.474	0.0128435
926.552	0.0128396
926.630	0.0127931
926.708	0.0127837
926.786	0.0128532
926.864	0.0128014
926.943	0.0127091
927.021	0.0128438
927.099	0.0127699
927.177	0.0128629
927.255	0.0128314
927.333	0.0127043
927.411	0.0127187
927.489	0.0126064
927.568	0.0125747
927.646	0.0126455
927.724	0.0126996
927.802	0.0126222
927.880	0.0126216
927.958	0.0125213
928.036	0.0125488
928.114	0.0124677
928.193	0.0125696
928.271	0.0125674
928.349	0.0127528
928.427	0.0126454
928.505	0.0127194
928.583	0.0126738
928.661	0.0126412
928.739	0.0126878
928.818	0.0127232
928.896	0.0127772
928.974	0.0126933
929.052	0.0128291
929.130	0.0128947
929.208	0.0131421
929.286	0.0129359
929.364	0.0130135
929.443	0.0129711
929.521	0.0128733
929.599	0.0130862
929.677	0.0131927
929.755	0.0130726
929.833	0.0131019
929.911	0.0131866
929.989	0.0132311
930.068	0.0130833
930.146	0.0130322
930.224	0.0131124
930.302	0.0130815
930.380	0.0130309
930.458	0.0129518
930.536	0.0128999
930.614	0.0130733
930.693	0.0129025
930.771	0.0129752
930.849	0.0129322
930.927	0.0128381
931.005	0.0129262
931.083	0.0127825
931.161	0.0126861
931.239	0.0127976
931.318	0.0129226
931.396	0.0127448
931.474	0.0127521
931.552	0.0127163
931.630	0.0127460
931.708	0.0127473
931.786	0.0128583
931.864	0.0127259
931.943	0.0125928
932.021	0.0126066
932.099	0.0126559
932.177	0.0125671
932.255	0.0126092
932.333	0.0125597
932.411	0.0126915
932.489	0.0127328
932.568	0.0126089
932.646	0.0125020
932.724	0.0125021
932.802	0.0125545
932.880	0.0125519
932.958	0.0125142
933.036	0.0125710
933.114	0.0125340
933.193	0.0126469
933.271	0.0126708
933.349	0.0126250
933.427	0.0126440
933.505	0.0126690
933.583	0.0127245
933.661	0.0126942
933.739	0.0127220
933.818	0.0126437
933.896	0.0127042
933.974	0.0126102
934.052	0.0127393
934.130	0.0126022
934.208	0.0126507
934.286	0.0126057
934.364	0.0127004
934.443	0.0127702
934.521	0.0127203
934.599	0.0126850
934.677	0.0127830
934.755	0.0128775
934.833	0.0128281
934.911	0.0127938
934.989	0.0128584
935.068	0.0131072
935.146	0.0129034
935.224	0.0129182
935.302	0.0130593
935.380	0.0130036
935.458	0.0131531
935.536	0.0131948
935.614	0.0132760
935.693	0.0132188
935.771	0.0131010
935.849	0.0131001
935.927	0.0133090
936.005	0.0133521
936.083	0.0132638
936.161	0.0131980
936.239	0.0130759
936.318	0.0132072
936.396	0.0131242
936.474	0.0131613
936.552	0.0130699
936.630	0.0130898
936.708	0.0129337
936.786	0.0129544
936.864	0.0129221
936.943	0.0130208
937.021	0.0128883
937.099	0.0128937
937.177	0.0128532
937.255	0.0127890
937.333	0.0127347
937.411	0.0125833
937.489	0.0125427
937.568	0.0125822
937.646	0.0126553
937.724	0.0125249
937.802	0.0125137
937.880	0.0124641
937.958	0.0126279
938.036	0.0126033
938.114	0.0125860
938.193	0.0125815
938.271	0.0125296
938.349	0.0124310
938.427	0.0124834
938.505	0.0124887
938.583	0.0125814
938.661	0.0125682
938.739	0.0126389
938.818	0.0124573
938.896	0.0125689
938.974	0.0127220
939.052	0.0126794
939.130	0.0126188
939.208	0.0127067
939.286	0.0127667
939.364	0.0128497
939.443	0.0128303
939.521	0.0128612
939.599	0.0128185
939.677	0.0128298
939.755	0.0127614
939.833	0.0128638
939.911	0.0128172
939.989	0.0127370
940.068	0.0128278
940.146	0.0127703
940.224	0.0128687
940.302	0.0129057
940.380	0.0129795
940.458	0.0130640
940.536	0.0131831
940.614	0.0130959
940.693	0.0131288
940.771	0.0131227
940.849	0.0131616
940.927	0.0131316
941.005	0.0129707
941.083	0.0129809
941.161	0.0130626
941.239	0.0131319
941.318	0.0130301
941.396	0.0132427
941.474	0.0130827
941.552	0.0129458
941.630	0.0131313
941.708	0.0129909
941.786	0.0130898
941.864	0.0130527
941.943	0.0130542
942.021	0.0130563
942.099	0.0131661
942.177	0.0129504
942.255	0.0129065
942.333	0.0130166
942.411	0.0129252
942.489	0.0128723
942.568	0.0129144
942.646	0.0128614
942.724	0.0129717
942.802	0.0129583
942.880	0.0128593
942.958	0.0128421
943.036	0.0127800
943.114	0.0125910
943.193	0.0126704
943.271	0.0126275
943.349	0.0126804
943.427	0.0125935
943.505	0.0124841
943.583	0.0124551
943.661	0.0124261
943.739	0.0124734
943.818	0.0124171
943.896	0.0125018
943.974	0.0123862
944.052	0.0125269
944.130	0.0124450
944.208	0.0124624
944.286	0.0125089
944.364	0.0127045
944.443	0.0126122
944.521	0.0125735
944.599	0.0126853
944.677	0.0128193
944.755	0.0127083
944.833	0.0128148
944.911	0.0129482
944.989	0.0129782
945.068	0.0129762
945.146	0.0130467
945.224	0.0129285
945.302	0.0129540
945.380	0.0129332
945.458	0.0131355
945.536	0.0130511
945.614	0.0129883
945.693	0.0129798
945.771	0.0128528
945.849	0.0130326
945.927	0.0130164
946.005	0.0130035
946.083	0.0129190
946.161	0.0130175
946.239	0.0129493
946.318	0.0130714
946.396	0.0129391
946.474	0.0131149
946.552	0.0130613
946.630	0.0131159
946.708	0.0130518
946.786	0.0130369
946.864	0.0130367
946.943	0.0130492
947.021	0.0130573
947.099	0.0129449
947.177	0.0130214
947.255	0.0129695
947.333	0.0129969
947.411	0.0130408
947.489	0.0129620
947.568	0.0128720
947.646	0.0129289
947.724	0.0128754
947.802	0.0129268
947.880	0.0129604
947.958	0.0129906
948.036	0.0128880
948.114	0.0129013
948.193	0.0128152
948.271	0.0128176
948.349	0.0128126
948.427	0.0126852
948.505	0.0126605
948.583	0.0127551
948.661	0.0125150
948.739	0.0125989
948.818	0.0127122
948.896	0.0126481
948.974	0.0125708
949.052	0.0127412
949.130	0.0126746
949.208	0.0125545
949.286	0.0126189
949.364	0.0124899
949.443	0.0126741
949.521	0.0126519
949.599	0.0127171
949.677	0.0126105
949.755	0.0126383
949.833	0.0127850
949.911	0.0127371
949.989	0.0127316
950.068	0.0127501
950.146	0.0126952
950.224	0.0128795
950.302	0.0128334
950.380	0.0127013
950.458	0.0128002
950.536	0.0127874
950.614	0.0128465
950.693	0.0129517
950.771	0.0128577
950.849	0.0130080
950.927	0.0128857
951.005	0.0129677
951.083	0.0129317
951.161	0.0129057
951.239	0.0130116
951.318	0.0128866
951.396	0.0130522
951.474	0.0129199
951.552	0.0128510
951.630	0.0128974
951.708	0.0128303
951.786	0.0127637
951.864	0.0126472
951.943	0.0128931
952.021	0.0129805
952.099	0.0127859
952.177	0.0128344
952.255	0.0127266
952.333	0.0128321
952.411	0.0128272
952.489	0.0128506
952.568	0.0128720
952.646	0.0128244
952.724	0.0129181
952.802	0.0130142
952.880	0.0129253
952.958	0.0128377
953.036	0.0127841
953.114	0.0128319
953.193	0.0129171
953.271	0.0129770
953.349	0.0129401
953.427	0.0129664
953.505	0.0128058
953.583	0.0128632
953.661	0.0127962
953.739	0.0127532
953.818	0.0127381
953.896	0.0128312
953.974	0.0128304
954.052	0.0127650
954.130	0.0126714
954.208	0.0127188
954.286	0.0126664
954.364	0.0127488
954.443	0.0126330
954.521	0.0126174
954.599	0.0126823
954.677	0.0127406
954.755	0.0127351
954.833	0.0127739
954.911	0.0127975
954.989	0.0128398
955.068	0.0127283
955.146	0.0128407
955.224	0.0129173
955.302	0.0127975
955.380	0.0128143
955.458	0.0128918
955.536	0.0131079
955.614	0.0128703
955.693	0.0129139
955.771	0.0128794
955.849	0.0128194
955.927	0.0127924
956.005	0.0128493
956.083	0.0128426
956.161	0.0128693
956.239	0.0128256
956.318	0.0127914
956.396	0.0126366
956.474	0.0127293
956.552	0.0126400
956.630	0.0126987
956.708	0.0127132
956.786	0.0126246
956.864	0.0126615
956.943	0.0126112
957.021	0.0126720
957.099	0.0126900
957.177	0.0127427
957.255	0.0127708
957.333	0.0129085
957.411	0.0129157
957.489	0.0128599
957.568	0.0129450
957.646	0.0127566
957.724	0.0129094
957.802	0.0128134
957.880	0.0129401
957.958	0.0130343
958.036	0.0130048
958.114	0.0128249
958.193	0.0130472
958.271	0.0128874
958.349	0.0128595
958.427	0.0129106
958.505	0.0128960
958.583	0.0129189
958.661	0.0128671
958.739	0.0129845
958.818	0.0130531
958.896	0.0129728
958.974	0.0128978
959.052	0.0128190
959.130	0.0128752
959.208	0.0128999
959.286	0.0129409
959.364	0.0128558
959.443	0.0127114
959.521	0.0128426
959.599	0.0126547
959.677	0.0126318
959.755	0.0128813
959.833	0.0128062
959.911	0.0128036
