05/07/2022	17:23:22	Ver.	4.1	UNKNOWN
Optical Delay	639.989416	Delta X		0.078125	Sweeps	1	Scan Rate	0/0
Coordinates	Axis 1	NaN	Axis 2	NaN	Axis 3	NaN	Axis 4	NaN	Axis 5	NaN	Axis 6	0.000000
TX Power	0.000000	RX Power	0.000000

639.989	0.0127171
640.068	0.0125813
640.146	0.0125610
640.224	0.0126807
640.302	0.0125977
640.380	0.0127351
640.458	0.0126248
640.536	0.0127624
640.614	0.0126498
640.693	0.0126332
640.771	0.0126805
640.849	0.0128622
640.927	0.0126454
641.005	0.0127277
641.083	0.0128568
641.161	0.0127190
641.239	0.0127116
641.318	0.0128864
641.396	0.0128112
641.474	0.0126618
641.552	0.0125437
641.630	0.0127262
641.708	0.0126029
641.786	0.0125861
641.864	0.0127659
641.943	0.0127831
642.021	0.0126543
642.099	0.0128278
642.177	0.0126241
642.255	0.0125641
642.333	0.0126804
642.411	0.0125951
642.489	0.0128555
642.568	0.0127934
642.646	0.0127690
642.724	0.0126829
642.802	0.0126515
642.880	0.0127364
642.958	0.0127776
643.036	0.0126328
643.114	0.0127824
643.193	0.0127303
643.271	0.0126177
643.349	0.0127649
643.427	0.0127141
643.505	0.0128181
643.583	0.0126920
643.661	0.0126466
643.739	0.0126559
643.818	0.0126067
643.896	0.0127194
643.974	0.0127372
644.052	0.0127239
644.130	0.0127435
644.208	0.0127728
644.286	0.0125956
644.364	0.0127908
644.443	0.0127877
644.521	0.0125834
644.599	0.0129117
644.677	0.0127789
644.755	0.0126395
644.833	0.0127213
644.911	0.0126154
644.989	0.0127088
645.068	0.0126627
645.146	0.0126735
645.224	0.0126393
645.302	0.0127075
645.380	0.0125475
645.458	0.0126902
645.536	0.0127406
645.614	0.0126948
645.693	0.0125893
645.771	0.0125668
645.849	0.0126791
645.927	0.0127475
646.005	0.0127489
646.083	0.0124909
646.161	0.0128752
646.239	0.0126274
646.318	0.0127447
646.396	0.0125784
646.474	0.0125627
646.552	0.0127047
646.630	0.0126380
646.708	0.0126357
646.786	0.0126064
646.864	0.0125732
646.943	0.0126554
647.021	0.0126003
647.099	0.0126286
647.177	0.0126392
647.255	0.0125957
647.333	0.0126066
647.411	0.0127966
647.489	0.0126427
647.568	0.0126189
647.646	0.0127106
647.724	0.0127161
647.802	0.0127817
647.880	0.0126926
647.958	0.0126053
648.036	0.0126433
648.114	0.0127548
648.193	0.0127597
648.271	0.0126407
648.349	0.0127806
648.427	0.0126267
648.505	0.0125306
648.583	0.0127798
648.661	0.0128104
648.739	0.0127617
648.818	0.0127396
648.896	0.0126738
648.974	0.0128080
649.052	0.0128369
649.130	0.0127225
649.208	0.0127020
649.286	0.0127103
649.364	0.0126899
649.443	0.0126608
649.521	0.0126757
649.599	0.0127633
649.677	0.0129519
649.755	0.0127098
649.833	0.0127264
649.911	0.0126792
649.989	0.0129222
650.068	0.0125761
650.146	0.0127039
650.224	0.0126647
650.302	0.0125672
650.380	0.0126181
650.458	0.0127415
650.536	0.0127808
650.614	0.0127835
650.693	0.0128329
650.771	0.0127408
650.849	0.0127422
650.927	0.0126872
651.005	0.0125782
651.083	0.0127793
651.161	0.0127612
651.239	0.0126998
651.318	0.0128201
651.396	0.0127469
651.474	0.0127163
651.552	0.0126903
651.630	0.0127143
651.708	0.0127201
651.786	0.0126718
651.864	0.0127192
651.943	0.0127350
652.021	0.0129024
652.099	0.0129115
652.177	0.0126785
652.255	0.0127299
652.333	0.0127390
652.411	0.0127151
652.489	0.0128489
652.568	0.0127673
652.646	0.0125976
652.724	0.0126336
652.802	0.0127009
652.880	0.0128468
652.958	0.0128261
653.036	0.0126902
653.114	0.0128213
653.193	0.0127633
653.271	0.0126678
653.349	0.0127216
653.427	0.0127548
653.505	0.0126974
653.583	0.0127544
653.661	0.0128236
653.739	0.0127407
653.818	0.0127491
653.896	0.0126093
653.974	0.0126650
654.052	0.0127195
654.130	0.0127079
654.208	0.0128078
654.286	0.0127278
654.364	0.0125996
654.443	0.0126968
654.521	0.0126473
654.599	0.0126003
654.677	0.0127576
654.755	0.0128039
654.833	0.0128443
654.911	0.0127909
654.989	0.0127901
655.068	0.0127618
655.146	0.0128046
655.224	0.0126236
655.302	0.0126477
655.380	0.0128119
655.458	0.0127763
655.536	0.0126891
655.614	0.0127286
655.693	0.0127113
655.771	0.0126997
655.849	0.0126927
655.927	0.0128096
656.005	0.0127142
656.083	0.0126935
656.161	0.0125726
656.239	0.0127769
656.318	0.0126797
656.396	0.0127564
656.474	0.0126434
656.552	0.0127447
656.630	0.0127058
656.708	0.0126040
656.786	0.0127335
656.864	0.0128384
656.943	0.0129077
657.021	0.0128930
657.099	0.0126620
657.177	0.0127650
657.255	0.0127161
657.333	0.0128551
657.411	0.0128448
657.489	0.0127222
657.568	0.0127737
657.646	0.0126852
657.724	0.0126044
657.802	0.0127406
657.880	0.0126601
657.958	0.0125186
658.036	0.0125055
658.114	0.0124493
658.193	0.0125784
658.271	0.0124587
658.349	0.0125233
658.427	0.0125230
658.505	0.0124846
658.583	0.0125257
658.661	0.0125577
658.739	0.0126757
658.818	0.0126695
658.896	0.0127438
658.974	0.0129181
659.052	0.0130125
659.130	0.0129672
659.208	0.0129617
659.286	0.0129843
659.364	0.0130836
659.443	0.0130302
659.521	0.0129781
659.599	0.0130615
659.677	0.0129714
659.755	0.0128352
659.833	0.0128283
659.911	0.0128032
659.989	0.0125850
660.068	0.0125935
660.146	0.0125174
660.224	0.0124022
660.302	0.0123727
660.380	0.0123118
660.458	0.0121209
660.536	0.0121538
660.614	0.0121822
660.693	0.0122364
660.771	0.0122382
660.849	0.0121986
660.927	0.0123676
661.005	0.0123051
661.083	0.0123430
661.161	0.0125791
661.239	0.0126077
661.318	0.0125806
661.396	0.0127535
661.474	0.0128355
661.552	0.0129243
661.630	0.0129887
661.708	0.0132549
661.786	0.0132925
661.864	0.0132050
661.943	0.0132650
662.021	0.0132019
662.099	0.0133237
662.177	0.0132212
662.255	0.0129082
662.333	0.0130468
662.411	0.0129483
662.489	0.0127663
662.568	0.0127990
662.646	0.0125797
662.724	0.0126431
662.802	0.0125568
662.880	0.0123322
662.958	0.0123907
663.036	0.0121987
663.114	0.0121342
663.193	0.0122349
663.271	0.0121025
663.349	0.0121991
663.427	0.0121580
663.505	0.0122332
663.583	0.0121990
663.661	0.0122089
663.739	0.0124020
663.818	0.0124257
663.896	0.0124006
663.974	0.0126044
664.052	0.0126849
664.130	0.0127393
664.208	0.0127260
664.286	0.0128099
664.364	0.0128685
664.443	0.0128549
664.521	0.0129206
664.599	0.0129411
664.677	0.0129987
664.755	0.0130295
664.833	0.0130097
664.911	0.0131174
664.989	0.0131974
665.068	0.0131580
665.146	0.0132094
665.224	0.0132313
665.302	0.0131712
665.380	0.0130896
665.458	0.0127977
665.536	0.0129733
665.614	0.0128677
665.693	0.0126254
665.771	0.0124955
665.849	0.0125486
665.927	0.0124172
666.005	0.0123698
666.083	0.0122160
666.161	0.0123186
666.239	0.0122095
666.318	0.0121785
666.396	0.0122301
666.474	0.0122413
666.552	0.0122830
666.630	0.0125301
666.708	0.0126871
666.786	0.0126350
666.864	0.0127655
666.943	0.0127779
667.021	0.0127893
667.099	0.0128263
667.177	0.0129163
667.255	0.0129745
667.333	0.0130130
667.411	0.0129575
667.489	0.0128410
667.568	0.0128123
667.646	0.0126778
667.724	0.0127116
667.802	0.0124722
667.880	0.0125784
667.958	0.0125820
668.036	0.0122318
668.114	0.0122085
668.193	0.0123323
668.271	0.0121173
668.349	0.0118904
668.427	0.0120612
668.505	0.0121361
668.583	0.0121242
668.661	0.0122208
668.739	0.0122166
668.818	0.0122456
668.896	0.0123248
668.974	0.0123791
669.052	0.0126564
669.130	0.0127539
669.208	0.0126874
669.286	0.0128602
669.364	0.0129827
669.443	0.0133999
669.521	0.0132748
669.599	0.0134120
669.677	0.0133627
669.755	0.0134924
669.833	0.0135629
669.911	0.0136531
669.989	0.0138189
670.068	0.0139341
670.146	0.0138314
670.224	0.0137276
670.302	0.0136164
670.380	0.0137621
670.458	0.0135851
670.536	0.0134837
670.614	0.0133302
670.693	0.0129131
670.771	0.0128845
670.849	0.0126078
670.927	0.0124162
671.005	0.0122465
671.083	0.0119041
671.161	0.0115659
671.239	0.0115165
671.318	0.0113716
671.396	0.0112949
671.474	0.0110686
671.552	0.0110439
671.630	0.0110098
671.708	0.0110448
671.786	0.0111115
671.864	0.0111828
671.943	0.0113522
672.021	0.0113766
672.099	0.0114538
672.177	0.0118202
672.255	0.0120856
672.333	0.0122027
672.411	0.0124229
672.489	0.0124392
672.568	0.0127486
672.646	0.0130341
672.724	0.0130205
672.802	0.0133991
672.880	0.0135332
672.958	0.0136326
673.036	0.0139929
673.114	0.0140759
673.193	0.0140907
673.271	0.0143211
673.349	0.0143516
673.427	0.0145865
673.505	0.0145315
673.583	0.0146746
673.661	0.0146487
673.739	0.0145089
673.818	0.0143770
673.896	0.0142876
673.974	0.0141469
674.052	0.0138869
674.130	0.0137746
674.208	0.0135902
674.286	0.0133754
674.364	0.0130558
674.443	0.0128156
674.521	0.0127425
674.599	0.0124633
674.677	0.0122028
674.755	0.0120573
674.833	0.0119051
674.911	0.0116119
674.989	0.0115079
675.068	0.0113126
675.146	0.0111297
675.224	0.0111288
675.302	0.0108711
675.380	0.0106773
675.458	0.0107986
675.536	0.0106965
675.614	0.0107919
675.693	0.0107054
675.771	0.0107998
675.849	0.0109139
675.927	0.0110859
676.005	0.0112413
676.083	0.0112859
676.161	0.0117738
676.239	0.0120620
676.318	0.0122545
676.396	0.0125786
676.474	0.0128159
676.552	0.0131047
676.630	0.0134628
676.708	0.0136057
676.786	0.0136009
676.864	0.0140192
676.943	0.0141477
677.021	0.0141343
677.099	0.0142526
677.177	0.0145579
677.255	0.0145537
677.333	0.0145298
677.411	0.0146760
677.489	0.0146033
677.568	0.0146069
677.646	0.0145125
677.724	0.0146200
677.802	0.0144514
677.880	0.0143876
677.958	0.0144772
678.036	0.0143018
678.114	0.0140372
678.193	0.0138890
678.271	0.0139085
678.349	0.0137737
678.427	0.0134938
678.505	0.0131969
678.583	0.0130148
678.661	0.0128278
678.739	0.0123359
678.818	0.0122124
678.896	0.0121434
678.974	0.0118845
679.052	0.0116981
679.130	0.0115407
679.208	0.0113527
679.286	0.0114240
679.364	0.0111686
679.443	0.0110738
679.521	0.0109370
679.599	0.0108781
679.677	0.0110086
679.755	0.0108986
679.833	0.0109305
679.911	0.0107000
679.989	0.0106287
680.068	0.0105794
680.146	0.0105737
680.224	0.0106530
680.302	0.0107747
680.380	0.0107098
680.458	0.0109223
680.536	0.0109425
680.614	0.0109879
680.693	0.0111264
680.771	0.0114295
680.849	0.0119357
680.927	0.0121207
681.005	0.0124184
681.083	0.0127631
681.161	0.0130832
681.239	0.0135722
681.318	0.0139143
681.396	0.0140079
681.474	0.0145151
681.552	0.0147196
681.630	0.0149931
681.708	0.0151968
681.786	0.0155266
681.864	0.0158498
681.943	0.0159308
682.021	0.0160871
682.099	0.0161862
682.177	0.0163303
682.255	0.0163264
682.333	0.0161550
682.411	0.0162224
682.489	0.0158672
682.568	0.0157277
682.646	0.0154530
682.724	0.0148814
682.802	0.0143385
682.880	0.0139584
682.958	0.0133904
683.036	0.0128203
683.114	0.0121363
683.193	0.0117274
683.271	0.0110628
683.349	0.0106024
683.427	0.0102364
683.505	0.00981026
683.583	0.00937477
683.661	0.00901474
683.739	0.00904587
683.818	0.00901901
683.896	0.00893730
683.974	0.00886246
684.052	0.00880867
684.130	0.00880798
684.208	0.00897949
684.286	0.00927048
684.364	0.00942200
684.443	0.00976357
684.521	0.00983986
684.599	0.0101749
684.677	0.0104993
684.755	0.0109571
684.833	0.0113124
684.911	0.0116907
684.989	0.0121722
685.068	0.0123104
685.146	0.0128667
685.224	0.0132915
685.302	0.0136411
685.380	0.0142789
685.458	0.0142776
685.536	0.0146777
685.614	0.0150946
685.693	0.0153133
685.771	0.0152613
685.849	0.0155162
685.927	0.0156539
686.005	0.0156554
686.083	0.0156924
686.161	0.0158192
686.239	0.0157623
686.318	0.0156111
686.396	0.0154907
686.474	0.0153111
686.552	0.0151752
686.630	0.0149445
686.708	0.0147130
686.786	0.0143628
686.864	0.0140779
686.943	0.0137865
687.021	0.0135448
687.099	0.0132712
687.177	0.0129585
687.255	0.0126870
687.333	0.0125475
687.411	0.0121037
687.489	0.0117784
687.568	0.0116422
687.646	0.0114031
687.724	0.0109975
687.802	0.0108270
687.880	0.0104568
687.958	0.0103002
688.036	0.0100179
688.114	0.00990639
688.193	0.00973717
688.271	0.00953178
688.349	0.00930008
688.427	0.00926064
688.505	0.00937592
688.583	0.00939896
688.661	0.00969330
688.739	0.00969772
688.818	0.0101661
688.896	0.0102094
688.974	0.0106051
689.052	0.0112167
689.130	0.0115680
689.208	0.0118788
689.286	0.0122645
689.364	0.0130758
689.443	0.0134097
689.521	0.0138829
689.599	0.0142981
689.677	0.0146560
689.755	0.0152019
689.833	0.0155550
689.911	0.0157756
689.989	0.0159014
690.068	0.0159719
690.146	0.0159151
690.224	0.0160896
690.302	0.0160860
690.380	0.0158817
690.458	0.0157238
690.536	0.0154880
690.614	0.0151161
690.693	0.0149344
690.771	0.0143188
690.849	0.0138621
690.927	0.0134798
691.005	0.0130550
691.083	0.0126033
691.161	0.0122440
691.239	0.0117896
691.318	0.0112725
691.396	0.0109962
691.474	0.0106939
691.552	0.0106664
691.630	0.0103184
691.708	0.0101248
691.786	0.0102670
691.864	0.0102321
691.943	0.0102824
692.021	0.0104230
692.099	0.0105056
692.177	0.0106751
692.255	0.0108522
692.333	0.0111205
692.411	0.0115668
692.489	0.0117497
692.568	0.0121174
692.646	0.0124263
692.724	0.0126006
692.802	0.0129497
692.880	0.0132975
692.958	0.0133512
693.036	0.0134343
693.114	0.0136799
693.193	0.0138120
693.271	0.0138656
693.349	0.0138160
693.427	0.0139320
693.505	0.0140245
693.583	0.0138451
693.661	0.0136564
693.739	0.0135597
693.818	0.0135258
693.896	0.0134886
693.974	0.0134160
694.052	0.0131596
694.130	0.0130845
694.208	0.0129756
694.286	0.0128854
694.364	0.0129440
694.443	0.0131163
694.521	0.0129551
694.599	0.0131443
694.677	0.0130936
694.755	0.0132275
694.833	0.0131855
694.911	0.0132001
694.989	0.0130104
695.068	0.0131505
695.146	0.0132635
695.224	0.0132291
695.302	0.0133078
695.380	0.0131355
695.458	0.0130510
695.536	0.0131409
695.614	0.0129962
695.693	0.0126019
695.771	0.0126550
695.849	0.0125942
695.927	0.0123569
696.005	0.0121642
696.083	0.0119547
696.161	0.0117446
696.239	0.0113764
696.318	0.0110700
696.396	0.0109356
696.474	0.0106611
696.552	0.0104826
696.630	0.0102282
696.708	0.0103345
696.786	0.0103608
696.864	0.0104597
696.943	0.0106101
697.021	0.0107058
697.099	0.0111588
697.177	0.0114222
697.255	0.0117957
697.333	0.0122492
697.411	0.0126740
697.489	0.0129853
697.568	0.0136460
697.646	0.0139297
697.724	0.0142840
697.802	0.0147103
697.880	0.0149641
697.958	0.0152209
698.036	0.0153513
698.114	0.0155954
698.193	0.0156194
698.271	0.0157647
698.349	0.0156394
698.427	0.0155444
698.505	0.0153382
698.583	0.0150999
698.661	0.0148800
698.739	0.0146854
698.818	0.0142614
698.896	0.0138625
698.974	0.0134550
699.052	0.0129688
699.130	0.0125476
699.208	0.0122224
699.286	0.0117832
699.364	0.0115079
699.443	0.0113547
699.521	0.0111436
699.599	0.0107828
699.677	0.0107446
699.755	0.0107441
699.833	0.0107092
699.911	0.0107275
699.989	0.0108749
700.068	0.0108550
700.146	0.0110642
700.224	0.0111590
700.302	0.0114991
700.380	0.0116550
700.458	0.0119138
700.536	0.0119733
700.614	0.0122212
700.693	0.0123407
700.771	0.0127105
700.849	0.0128056
700.927	0.0129334
701.005	0.0131493
701.083	0.0132401
701.161	0.0134617
701.239	0.0134071
701.318	0.0133084
701.396	0.0134766
701.474	0.0133076
701.552	0.0130975
701.630	0.0130615
701.708	0.0127683
701.786	0.0126337
701.864	0.0122846
701.943	0.0121135
702.021	0.0120332
702.099	0.0119054
702.177	0.0117452
702.255	0.0117941
702.333	0.0116009
702.411	0.0115922
702.489	0.0117204
702.568	0.0116365
702.646	0.0117805
702.724	0.0120828
702.802	0.0124126
702.880	0.0125278
702.958	0.0127166
703.036	0.0129523
703.114	0.0131713
703.193	0.0136034
703.271	0.0138183
703.349	0.0141077
703.427	0.0142034
703.505	0.0144177
703.583	0.0146313
703.661	0.0146143
703.739	0.0145100
703.818	0.0145241
703.896	0.0143643
703.974	0.0142684
704.052	0.0142427
704.130	0.0139602
704.208	0.0136935
704.286	0.0132898
704.364	0.0129780
704.443	0.0128860
704.521	0.0123058
704.599	0.0119208
704.677	0.0115795
704.755	0.0113367
704.833	0.0112576
704.911	0.0110593
704.989	0.0107526
705.068	0.0105632
705.146	0.0106929
705.224	0.0107026
705.302	0.0106377
705.380	0.0108592
705.458	0.0112144
705.536	0.0114440
705.614	0.0116388
705.693	0.0120162
705.771	0.0123949
705.849	0.0125827
705.927	0.0129270
706.005	0.0130950
706.083	0.0133311
706.161	0.0135367
706.239	0.0137238
706.318	0.0138027
706.396	0.0139966
706.474	0.0139846
706.552	0.0139948
706.630	0.0139125
706.708	0.0139388
706.786	0.0138963
706.864	0.0136806
706.943	0.0133292
707.021	0.0131249
707.099	0.0130921
707.177	0.0127325
707.255	0.0125347
707.333	0.0122940
707.411	0.0119434
707.489	0.0116992
707.568	0.0115352
707.646	0.0112386
707.724	0.0110594
707.802	0.0110970
707.880	0.0110017
707.958	0.0107183
708.036	0.0107336
708.114	0.0109404
708.193	0.0109159
708.271	0.0109500
708.349	0.0110669
708.427	0.0115860
708.505	0.0118018
708.583	0.0120405
708.661	0.0123301
708.739	0.0125735
708.818	0.0127013
708.896	0.0132719
708.974	0.0134299
709.052	0.0135918
709.130	0.0137251
709.208	0.0140849
709.286	0.0143092
709.364	0.0145802
709.443	0.0145712
709.521	0.0145021
709.599	0.0145536
709.677	0.0144117
709.755	0.0144685
709.833	0.0143016
709.911	0.0142995
709.989	0.0141132
710.068	0.0138063
710.146	0.0136139
710.224	0.0133802
710.302	0.0130104
710.380	0.0129000
710.458	0.0127065
710.536	0.0123818
710.614	0.0125023
710.693	0.0124618
710.771	0.0122031
710.849	0.0122677
710.927	0.0121760
711.005	0.0120554
711.083	0.0122415
711.161	0.0123548
711.239	0.0123837
711.318	0.0124471
711.396	0.0126469
711.474	0.0126897
711.552	0.0127865
711.630	0.0127699
711.708	0.0127805
711.786	0.0128475
711.864	0.0127046
711.943	0.0125047
712.021	0.0125420
712.099	0.0124241
712.177	0.0123494
712.255	0.0121444
712.333	0.0121789
712.411	0.0119782
712.489	0.0117775
712.568	0.0117518
712.646	0.0117430
712.724	0.0115327
712.802	0.0114835
712.880	0.0115889
712.958	0.0116805
713.036	0.0115350
713.114	0.0116335
713.193	0.0117142
713.271	0.0118251
713.349	0.0118568
713.427	0.0118868
713.505	0.0120901
713.583	0.0123933
713.661	0.0124816
713.739	0.0126048
713.818	0.0126519
713.896	0.0128834
713.974	0.0130225
714.052	0.0132973
714.130	0.0134468
714.208	0.0134961
714.286	0.0136192
714.364	0.0135934
714.443	0.0137859
714.521	0.0137850
714.599	0.0138672
714.677	0.0137260
714.755	0.0138241
714.833	0.0137012
714.911	0.0135130
714.989	0.0133611
715.068	0.0132434
715.146	0.0131249
715.224	0.0130266
715.302	0.0129279
715.380	0.0126823
715.458	0.0126583
715.536	0.0125639
715.614	0.0123752
715.693	0.0123972
715.771	0.0123663
715.849	0.0124323
715.927	0.0124367
716.005	0.0124883
716.083	0.0125874
716.161	0.0126029
716.239	0.0127887
716.318	0.0128407
716.396	0.0130244
716.474	0.0130907
716.552	0.0132527
716.630	0.0134536
716.708	0.0133999
716.786	0.0134671
716.864	0.0135835
716.943	0.0137253
717.021	0.0136964
717.099	0.0137754
717.177	0.0137393
717.255	0.0137587
717.333	0.0137173
717.411	0.0135783
717.489	0.0133065
717.568	0.0131152
717.646	0.0129167
717.724	0.0127543
717.802	0.0122865
717.880	0.0121130
717.958	0.0118456
718.036	0.0115718
718.114	0.0115112
718.193	0.0111054
718.271	0.0109507
718.349	0.0108717
718.427	0.0107098
718.505	0.0106163
718.583	0.0106631
718.661	0.0105647
718.739	0.0107059
718.818	0.0107682
718.896	0.0108212
718.974	0.0111530
719.052	0.0112626
719.130	0.0112691
719.208	0.0116854
719.286	0.0120570
719.364	0.0120972
719.443	0.0124594
719.521	0.0126128
719.599	0.0129943
719.677	0.0130865
719.755	0.0133491
719.833	0.0136900
719.911	0.0137016
719.989	0.0137567
720.068	0.0140133
720.146	0.0141590
720.224	0.0140472
720.302	0.0141128
720.380	0.0139527
720.458	0.0140733
720.536	0.0140545
720.614	0.0139928
720.693	0.0138998
720.771	0.0138193
720.849	0.0137754
720.927	0.0136351
721.005	0.0134217
721.083	0.0134040
721.161	0.0131592
721.239	0.0131287
721.318	0.0131666
721.396	0.0130931
721.474	0.0129958
721.552	0.0127637
721.630	0.0128025
721.708	0.0127302
721.786	0.0129293
721.864	0.0128441
721.943	0.0128626
722.021	0.0128817
722.099	0.0129477
722.177	0.0128845
722.255	0.0130408
722.333	0.0130854
722.411	0.0130444
722.489	0.0129763
722.568	0.0129060
722.646	0.0128943
722.724	0.0127968
722.802	0.0126218
722.880	0.0125674
722.958	0.0125198
723.036	0.0122037
723.114	0.0121524
723.193	0.0122445
723.271	0.0121854
723.349	0.0120590
723.427	0.0120894
723.505	0.0120531
723.583	0.0118377
723.661	0.0116965
723.739	0.0116158
723.818	0.0116145
723.896	0.0116389
723.974	0.0115428
724.052	0.0115634
724.130	0.0116426
724.208	0.0114640
724.286	0.0115851
724.364	0.0116176
724.443	0.0116439
724.521	0.0117010
724.599	0.0120011
724.677	0.0120350
724.755	0.0120529
724.833	0.0121708
724.911	0.0122888
724.989	0.0123934
725.068	0.0125222
725.146	0.0127135
725.224	0.0128625
725.302	0.0129424
725.380	0.0132756
725.458	0.0131122
725.536	0.0132678
725.614	0.0132314
725.693	0.0132796
725.771	0.0133656
725.849	0.0134304
725.927	0.0133875
726.005	0.0134733
726.083	0.0133768
726.161	0.0133738
726.239	0.0133718
726.318	0.0133435
726.396	0.0134492
726.474	0.0132846
726.552	0.0132343
726.630	0.0132351
726.708	0.0132408
726.786	0.0132019
726.864	0.0132853
726.943	0.0130560
727.021	0.0130692
727.099	0.0129381
727.177	0.0129472
727.255	0.0129138
727.333	0.0129434
727.411	0.0128831
727.489	0.0128876
727.568	0.0129776
727.646	0.0127268
727.724	0.0127546
727.802	0.0127071
727.880	0.0127840
727.958	0.0127771
728.036	0.0127688
728.114	0.0126595
728.193	0.0127850
728.271	0.0127317
728.349	0.0128093
728.427	0.0127643
728.505	0.0127595
728.583	0.0126469
728.661	0.0126052
728.739	0.0126811
728.818	0.0128537
728.896	0.0126652
728.974	0.0127453
729.052	0.0126595
729.130	0.0125698
729.208	0.0126293
729.286	0.0125607
729.364	0.0124801
729.443	0.0125629
729.521	0.0125248
729.599	0.0122783
729.677	0.0122672
729.755	0.0120211
729.833	0.0120627
729.911	0.0120274
729.989	0.0118588
730.068	0.0117135
730.146	0.0118527
730.224	0.0118441
730.302	0.0118705
730.380	0.0116275
730.458	0.0117343
730.536	0.0117034
730.614	0.0116048
730.693	0.0117155
730.771	0.0118556
730.849	0.0116560
730.927	0.0117592
731.005	0.0120306
731.083	0.0121990
731.161	0.0121622
731.239	0.0124271
731.318	0.0126006
731.396	0.0126770
731.474	0.0128137
731.552	0.0129247
731.630	0.0130339
731.708	0.0133058
731.786	0.0132934
731.864	0.0134729
731.943	0.0134232
732.021	0.0136395
732.099	0.0137099
732.177	0.0135886
732.255	0.0135797
732.333	0.0136918
732.411	0.0136524
732.489	0.0137115
732.568	0.0137355
732.646	0.0135693
732.724	0.0134382
732.802	0.0135795
732.880	0.0134803
732.958	0.0134837
733.036	0.0134520
733.114	0.0132562
733.193	0.0131544
733.271	0.0132515
733.349	0.0131406
733.427	0.0131892
733.505	0.0128696
733.583	0.0128378
733.661	0.0129310
733.739	0.0127518
733.818	0.0127012
733.896	0.0125322
733.974	0.0125648
734.052	0.0124232
734.130	0.0124780
734.208	0.0124425
734.286	0.0124230
734.364	0.0122160
734.443	0.0122903
734.521	0.0123237
734.599	0.0121515
734.677	0.0122090
734.755	0.0121316
734.833	0.0122017
734.911	0.0121526
734.989	0.0123195
735.068	0.0122687
735.146	0.0122536
735.224	0.0121156
735.302	0.0121271
735.380	0.0123453
735.458	0.0122928
735.536	0.0122353
735.614	0.0122849
735.693	0.0122469
735.771	0.0122002
735.849	0.0123505
735.927	0.0125198
736.005	0.0124821
736.083	0.0123689
736.161	0.0124908
736.239	0.0125802
736.318	0.0125007
736.396	0.0125639
736.474	0.0125257
736.552	0.0125817
736.630	0.0125081
736.708	0.0124266
736.786	0.0125644
736.864	0.0126125
736.943	0.0124888
737.021	0.0125764
737.099	0.0126726
737.177	0.0125636
737.255	0.0125204
737.333	0.0125344
737.411	0.0126340
737.489	0.0127760
737.568	0.0128600
737.646	0.0130399
737.724	0.0130680
737.802	0.0131717
737.880	0.0132578
737.958	0.0132293
738.036	0.0132247
738.114	0.0131516
738.193	0.0132962
738.271	0.0132057
738.349	0.0132300
738.427	0.0133418
738.505	0.0131078
738.583	0.0131889
738.661	0.0130787
738.739	0.0131859
738.818	0.0132767
738.896	0.0130764
738.974	0.0131153
739.052	0.0130972
739.130	0.0129601
739.208	0.0130497
739.286	0.0130168
739.364	0.0128003
739.443	0.0127432
739.521	0.0127245
739.599	0.0126640
739.677	0.0124949
739.755	0.0125710
739.833	0.0124994
739.911	0.0123183
739.989	0.0123696
740.068	0.0123332
740.146	0.0123943
740.224	0.0123314
740.302	0.0122266
740.380	0.0123048
740.458	0.0122780
740.536	0.0123396
740.614	0.0122992
740.693	0.0120951
740.771	0.0123219
740.849	0.0122901
740.927	0.0122670
741.005	0.0125591
741.083	0.0123428
741.161	0.0124426
741.239	0.0124613
741.318	0.0126426
741.396	0.0126176
741.474	0.0125953
741.552	0.0128220
741.630	0.0127591
741.708	0.0129063
741.786	0.0130231
741.864	0.0130575
741.943	0.0130788
742.021	0.0130803
742.099	0.0132138
742.177	0.0131648
742.255	0.0131877
742.333	0.0132316
742.411	0.0132623
742.489	0.0132111
742.568	0.0130831
742.646	0.0130157
742.724	0.0129304
742.802	0.0128969
742.880	0.0127984
742.958	0.0127663
743.036	0.0126968
743.114	0.0125990
743.193	0.0125301
743.271	0.0125368
743.349	0.0125296
743.427	0.0122366
743.505	0.0124791
743.583	0.0122703
743.661	0.0123528
743.739	0.0124509
743.818	0.0124340
743.896	0.0125882
743.974	0.0125947
744.052	0.0125381
744.130	0.0126151
744.208	0.0125669
744.286	0.0127876
744.364	0.0128204
744.443	0.0128649
744.521	0.0128865
744.599	0.0127835
744.677	0.0130116
744.755	0.0129136
744.833	0.0128938
744.911	0.0127140
744.989	0.0127773
745.068	0.0128625
745.146	0.0127390
745.224	0.0128770
745.302	0.0127747
745.380	0.0128907
745.458	0.0128297
745.536	0.0128582
745.614	0.0128486
745.693	0.0128261
745.771	0.0128326
745.849	0.0128645
745.927	0.0129244
746.005	0.0126936
746.083	0.0127380
746.161	0.0126572
746.239	0.0128121
746.318	0.0126600
746.396	0.0126969
746.474	0.0127127
746.552	0.0124862
746.630	0.0126095
746.708	0.0124506
746.786	0.0125368
746.864	0.0124567
746.943	0.0122867
747.021	0.0123141
747.099	0.0124252
747.177	0.0124196
747.255	0.0123738
747.333	0.0125063
747.411	0.0125439
747.489	0.0125315
747.568	0.0126726
747.646	0.0126301
747.724	0.0127506
747.802	0.0126152
747.880	0.0126551
747.958	0.0127565
748.036	0.0128098
748.114	0.0128044
748.193	0.0126598
748.271	0.0128500
748.349	0.0127969
748.427	0.0128065
748.505	0.0127386
748.583	0.0126988
748.661	0.0128435
748.739	0.0126278
748.818	0.0125926
748.896	0.0125584
748.974	0.0127395
749.052	0.0126570
749.130	0.0125851
749.208	0.0126432
749.286	0.0126110
749.364	0.0125994
749.443	0.0125085
749.521	0.0126581
749.599	0.0126096
749.677	0.0124529
749.755	0.0125382
749.833	0.0125362
749.911	0.0124684
749.989	0.0124904
750.068	0.0126268
750.146	0.0125745
750.224	0.0124936
750.302	0.0124730
750.380	0.0124272
750.458	0.0125211
750.536	0.0125866
750.614	0.0125801
750.693	0.0126792
750.771	0.0128136
750.849	0.0126384
750.927	0.0126637
751.005	0.0128526
751.083	0.0127911
751.161	0.0127518
751.239	0.0129168
751.318	0.0130428
751.396	0.0129932
751.474	0.0129379
751.552	0.0130029
751.630	0.0130737
751.708	0.0129816
751.786	0.0130085
751.864	0.0130382
751.943	0.0130556
752.021	0.0130051
752.099	0.0128899
752.177	0.0129063
752.255	0.0129954
752.333	0.0127287
752.411	0.0127657
752.489	0.0128197
752.568	0.0126285
752.646	0.0125698
752.724	0.0124718
752.802	0.0125253
752.880	0.0126860
752.958	0.0125795
753.036	0.0124791
753.114	0.0126028
753.193	0.0123855
753.271	0.0126118
753.349	0.0125846
753.427	0.0125858
753.505	0.0125806
753.583	0.0125927
753.661	0.0125044
753.739	0.0126041
753.818	0.0126687
753.896	0.0125880
753.974	0.0127539
754.052	0.0126396
754.130	0.0126342
754.208	0.0126746
754.286	0.0125542
754.364	0.0126887
754.443	0.0126079
754.521	0.0125846
754.599	0.0125504
754.677	0.0127027
754.755	0.0127098
754.833	0.0125984
754.911	0.0126655
754.989	0.0126006
755.068	0.0126638
755.146	0.0127092
755.224	0.0127670
755.302	0.0127935
755.380	0.0128194
755.458	0.0128367
755.536	0.0127050
755.614	0.0128981
755.693	0.0129259
755.771	0.0128955
755.849	0.0127096
755.927	0.0128088
756.005	0.0127882
756.083	0.0127498
756.161	0.0126484
756.239	0.0126680
756.318	0.0127249
756.396	0.0126731
756.474	0.0126831
756.552	0.0125959
756.630	0.0126392
756.708	0.0127001
756.786	0.0126747
756.864	0.0126310
756.943	0.0125102
757.021	0.0124609
757.099	0.0125398
757.177	0.0127039
757.255	0.0127572
757.333	0.0125905
757.411	0.0126913
757.489	0.0127048
757.568	0.0128239
757.646	0.0127467
757.724	0.0126467
757.802	0.0126879
757.880	0.0126913
757.958	0.0127632
758.036	0.0128349
758.114	0.0127584
758.193	0.0127221
758.271	0.0126374
758.349	0.0127094
758.427	0.0127822
758.505	0.0126640
758.583	0.0127308
758.661	0.0126620
758.739	0.0125871
758.818	0.0126414
758.896	0.0127960
758.974	0.0127513
759.052	0.0126176
759.130	0.0126838
759.208	0.0125549
759.286	0.0126475
759.364	0.0127840
759.443	0.0127055
759.521	0.0126700
759.599	0.0126397
759.677	0.0126959
759.755	0.0127000
759.833	0.0127310
759.911	0.0126071
759.989	0.0127369
760.068	0.0127269
760.146	0.0126234
760.224	0.0126250
760.302	0.0126564
760.380	0.0125904
760.458	0.0126092
760.536	0.0125249
760.614	0.0126920
760.693	0.0125303
760.771	0.0123830
760.849	0.0124307
760.927	0.0125407
761.005	0.0124532
761.083	0.0124061
761.161	0.0124350
761.239	0.0124075
761.318	0.0123817
761.396	0.0123005
761.474	0.0125391
761.552	0.0124143
761.630	0.0126272
761.708	0.0126845
761.786	0.0124387
761.864	0.0126669
761.943	0.0126374
762.021	0.0127609
762.099	0.0127988
762.177	0.0128206
762.255	0.0130029
762.333	0.0130395
762.411	0.0130586
762.489	0.0128839
762.568	0.0128529
762.646	0.0129202
762.724	0.0129211
762.802	0.0128382
762.880	0.0129459
762.958	0.0131127
763.036	0.0129355
763.114	0.0126310
763.193	0.0126978
763.271	0.0127435
763.349	0.0127628
763.427	0.0127545
763.505	0.0125761
763.583	0.0125151
763.661	0.0126995
763.739	0.0126553
763.818	0.0126489
763.896	0.0124773
763.974	0.0124307
764.052	0.0125729
764.130	0.0125159
764.208	0.0124754
764.286	0.0125027
764.364	0.0125494
764.443	0.0123128
764.521	0.0124907
764.599	0.0124777
764.677	0.0124296
764.755	0.0123681
764.833	0.0125426
764.911	0.0124524
764.989	0.0123831
765.068	0.0124480
765.146	0.0125343
765.224	0.0124992
765.302	0.0126172
765.380	0.0125739
765.458	0.0126074
765.536	0.0126600
765.614	0.0126421
765.693	0.0127502
765.771	0.0128069
765.849	0.0128696
765.927	0.0128389
766.005	0.0127982
766.083	0.0128614
766.161	0.0129573
766.239	0.0128611
766.318	0.0128493
766.396	0.0130988
766.474	0.0129855
766.552	0.0128255
766.630	0.0129996
766.708	0.0130389
766.786	0.0130249
766.864	0.0130339
766.943	0.0130055
767.021	0.0129675
767.099	0.0128566
767.177	0.0128925
767.255	0.0128175
767.333	0.0127518
767.411	0.0126422
767.489	0.0127444
767.568	0.0127355
767.646	0.0126833
767.724	0.0127888
767.802	0.0126716
767.880	0.0125419
767.958	0.0124854
768.036	0.0125584
768.114	0.0126512
768.193	0.0125354
768.271	0.0124442
768.349	0.0126569
768.427	0.0125915
768.505	0.0125729
768.583	0.0125784
768.661	0.0124807
768.739	0.0125862
768.818	0.0126328
768.896	0.0124483
768.974	0.0124852
769.052	0.0126711
769.130	0.0125246
769.208	0.0125900
769.286	0.0127224
769.364	0.0126522
769.443	0.0127296
769.521	0.0126368
769.599	0.0126595
769.677	0.0129021
769.755	0.0128064
769.833	0.0126772
769.911	0.0128764
769.989	0.0128983
770.068	0.0129169
770.146	0.0129029
770.224	0.0129041
770.302	0.0128689
770.380	0.0127795
770.458	0.0129152
770.536	0.0128127
770.614	0.0127013
770.693	0.0128542
770.771	0.0129117
770.849	0.0128819
770.927	0.0127867
771.005	0.0128304
771.083	0.0128405
771.161	0.0128379
771.239	0.0127818
771.318	0.0126662
771.396	0.0126976
771.474	0.0126078
771.552	0.0125571
771.630	0.0125034
771.708	0.0125220
771.786	0.0124389
771.864	0.0124136
771.943	0.0125700
772.021	0.0123633
772.099	0.0122771
772.177	0.0122411
772.255	0.0121954
772.333	0.0121774
772.411	0.0122959
772.489	0.0123085
772.568	0.0123119
772.646	0.0122733
772.724	0.0121915
772.802	0.0123163
772.880	0.0124518
772.958	0.0125555
773.036	0.0127454
773.114	0.0127637
773.193	0.0126784
773.271	0.0127479
773.349	0.0129787
773.427	0.0128831
773.505	0.0128969
773.583	0.0129367
773.661	0.0130753
773.739	0.0129173
773.818	0.0128477
773.896	0.0130027
773.974	0.0129227
774.052	0.0130483
774.130	0.0129872
774.208	0.0128707
774.286	0.0129252
774.364	0.0130773
774.443	0.0130048
774.521	0.0130125
774.599	0.0129737
774.677	0.0131593
774.755	0.0129690
774.833	0.0129841
774.911	0.0129422
774.989	0.0130900
775.068	0.0131667
775.146	0.0130238
775.224	0.0129787
775.302	0.0129735
775.380	0.0129630
775.458	0.0128911
775.536	0.0128318
775.614	0.0126773
775.693	0.0128890
775.771	0.0127547
775.849	0.0126495
775.927	0.0126235
776.005	0.0125233
776.083	0.0123701
776.161	0.0124418
776.239	0.0122023
776.318	0.0122092
776.396	0.0122050
776.474	0.0122644
776.552	0.0121784
776.630	0.0120896
776.708	0.0121786
776.786	0.0121626
776.864	0.0121301
776.943	0.0122141
777.021	0.0121529
777.099	0.0122684
777.177	0.0123071
777.255	0.0123828
777.333	0.0124496
777.411	0.0122984
777.489	0.0123630
777.568	0.0124324
777.646	0.0125304
777.724	0.0125641
777.802	0.0126188
777.880	0.0126186
777.958	0.0129073
778.036	0.0127422
778.114	0.0127083
778.193	0.0127577
778.271	0.0128762
778.349	0.0128252
778.427	0.0130260
778.505	0.0129455
778.583	0.0129399
778.661	0.0130002
778.739	0.0130980
778.818	0.0130826
778.896	0.0131712
778.974	0.0132084
779.052	0.0131783
779.130	0.0132546
779.208	0.0132627
779.286	0.0132403
779.364	0.0131724
779.443	0.0131618
779.521	0.0131184
779.599	0.0130693
779.677	0.0130404
779.755	0.0128814
779.833	0.0127340
779.911	0.0128008
779.989	0.0126689
780.068	0.0127323
780.146	0.0126115
780.224	0.0124741
780.302	0.0123086
780.380	0.0121613
780.458	0.0121773
780.536	0.0121655
780.614	0.0120781
780.693	0.0120999
780.771	0.0119519
780.849	0.0117892
780.927	0.0118104
781.005	0.0117677
781.083	0.0117965
781.161	0.0119202
781.239	0.0120235
781.318	0.0119098
781.396	0.0121436
781.474	0.0120953
781.552	0.0121230
781.630	0.0122327
781.708	0.0124147
781.786	0.0125459
781.864	0.0126495
781.943	0.0126998
782.021	0.0128118
782.099	0.0128906
782.177	0.0128424
782.255	0.0130070
782.333	0.0130681
782.411	0.0132076
782.489	0.0132903
782.568	0.0133202
782.646	0.0132980
782.724	0.0133506
782.802	0.0133750
782.880	0.0131115
782.958	0.0131237
783.036	0.0130955
783.114	0.0131486
783.193	0.0130027
783.271	0.0128952
783.349	0.0129729
783.427	0.0130624
783.505	0.0128593
783.583	0.0128222
783.661	0.0126956
783.739	0.0126605
783.818	0.0127724
783.896	0.0126550
783.974	0.0126540
784.052	0.0125516
784.130	0.0124759
784.208	0.0124747
784.286	0.0125073
784.364	0.0125166
784.443	0.0124982
784.521	0.0122807
784.599	0.0123181
784.677	0.0125002
784.755	0.0122972
784.833	0.0123154
784.911	0.0125156
784.989	0.0123242
785.068	0.0123051
785.146	0.0123000
785.224	0.0122562
785.302	0.0123973
785.380	0.0123884
785.458	0.0123684
785.536	0.0122650
785.614	0.0125786
785.693	0.0125289
785.771	0.0124773
785.849	0.0125148
785.927	0.0124146
786.005	0.0125743
786.083	0.0127594
786.161	0.0126392
786.239	0.0126473
786.318	0.0130067
786.396	0.0129535
786.474	0.0129529
786.552	0.0129745
786.630	0.0129543
786.708	0.0130267
786.786	0.0129771
786.864	0.0131422
786.943	0.0129496
787.021	0.0130283
787.099	0.0131345
787.177	0.0130244
787.255	0.0129797
787.333	0.0130257
787.411	0.0129564
787.489	0.0129356
787.568	0.0129259
787.646	0.0128928
787.724	0.0128745
787.802	0.0127552
787.880	0.0129745
787.958	0.0128619
788.036	0.0126484
788.114	0.0128682
788.193	0.0128165
788.271	0.0127481
788.349	0.0127410
788.427	0.0126913
788.505	0.0125765
788.583	0.0126965
788.661	0.0126965
788.739	0.0126462
788.818	0.0126363
788.896	0.0127072
788.974	0.0125435
789.052	0.0127706
789.130	0.0126652
789.208	0.0126450
789.286	0.0125285
789.364	0.0125472
789.443	0.0125726
789.521	0.0125746
789.599	0.0124384
789.677	0.0123338
789.755	0.0124982
789.833	0.0124682
789.911	0.0122700
789.989	0.0123462
790.068	0.0123862
790.146	0.0124638
790.224	0.0124721
790.302	0.0124966
790.380	0.0124905
790.458	0.0125388
790.536	0.0124976
790.614	0.0126125
790.693	0.0125537
790.771	0.0126869
790.849	0.0128367
790.927	0.0127281
791.005	0.0126223
791.083	0.0127543
791.161	0.0128305
791.239	0.0128484
791.318	0.0127517
791.396	0.0127099
791.474	0.0127646
791.552	0.0128337
791.630	0.0128318
791.708	0.0126308
791.786	0.0127185
791.864	0.0127478
791.943	0.0126888
792.021	0.0126700
792.099	0.0127306
792.177	0.0125091
792.255	0.0126450
792.333	0.0126298
792.411	0.0126189
792.489	0.0125673
792.568	0.0126878
792.646	0.0127035
792.724	0.0127129
792.802	0.0128082
792.880	0.0126397
792.958	0.0127325
793.036	0.0127035
793.114	0.0127904
793.193	0.0129396
793.271	0.0127940
793.349	0.0126511
793.427	0.0127251
793.505	0.0127619
793.583	0.0126532
793.661	0.0126980
793.739	0.0128585
793.818	0.0127755
793.896	0.0129019
793.974	0.0129405
794.052	0.0128044
794.130	0.0129819
794.208	0.0128522
794.286	0.0127960
794.364	0.0130617
794.443	0.0128972
794.521	0.0128884
794.599	0.0130031
794.677	0.0129728
794.755	0.0128122
794.833	0.0129240
794.911	0.0130991
794.989	0.0129896
795.068	0.0129870
795.146	0.0130066
795.224	0.0129597
795.302	0.0129929
795.380	0.0129437
795.458	0.0129305
795.536	0.0128864
795.614	0.0128875
795.693	0.0127505
795.771	0.0128754
795.849	0.0127625
795.927	0.0125697
796.005	0.0125313
796.083	0.0124625
796.161	0.0124644
796.239	0.0124275
796.318	0.0123438
796.396	0.0123588
796.474	0.0123696
796.552	0.0123379
796.630	0.0122353
796.708	0.0122587
796.786	0.0123133
796.864	0.0122384
796.943	0.0121764
797.021	0.0123758
797.099	0.0122694
797.177	0.0124142
797.255	0.0123201
797.333	0.0124329
797.411	0.0124465
797.489	0.0125320
797.568	0.0125275
797.646	0.0124701
797.724	0.0126433
797.802	0.0126688
797.880	0.0128010
797.958	0.0127267
798.036	0.0125498
798.114	0.0125050
798.193	0.0127030
798.271	0.0128343
798.349	0.0128057
798.427	0.0127392
798.505	0.0129039
798.583	0.0127587
798.661	0.0127609
798.739	0.0128119
798.818	0.0126884
798.896	0.0127916
798.974	0.0128207
799.052	0.0128957
799.130	0.0128008
799.208	0.0128485
799.286	0.0128711
799.364	0.0128447
799.443	0.0127861
799.521	0.0128749
799.599	0.0128560
799.677	0.0128897
799.755	0.0129877
799.833	0.0130503
799.911	0.0128918
799.989	0.0128787
800.068	0.0130093
800.146	0.0128665
800.224	0.0129123
800.302	0.0129384
800.380	0.0130898
800.458	0.0129520
800.536	0.0130583
800.614	0.0128875
800.693	0.0128508
800.771	0.0127710
800.849	0.0127297
800.927	0.0126681
801.005	0.0126569
801.083	0.0126440
801.161	0.0125379
801.239	0.0124983
801.318	0.0124609
801.396	0.0123969
801.474	0.0123630
801.552	0.0124412
801.630	0.0123434
801.708	0.0123889
801.786	0.0124090
801.864	0.0122195
801.943	0.0122356
802.021	0.0123382
802.099	0.0124742
802.177	0.0123624
802.255	0.0125475
802.333	0.0125397
802.411	0.0126168
802.489	0.0126682
802.568	0.0127554
802.646	0.0129215
802.724	0.0128779
802.802	0.0127518
802.880	0.0129002
802.958	0.0129610
803.036	0.0130731
803.114	0.0130268
803.193	0.0128505
803.271	0.0129732
803.349	0.0129804
803.427	0.0129430
803.505	0.0129366
803.583	0.0128742
803.661	0.0128542
803.739	0.0128181
803.818	0.0127193
803.896	0.0128144
803.974	0.0127541
804.052	0.0124693
804.130	0.0124470
804.208	0.0123470
804.286	0.0124361
804.364	0.0122528
804.443	0.0122329
804.521	0.0122938
804.599	0.0121601
804.677	0.0121278
804.755	0.0123277
804.833	0.0121725
804.911	0.0121728
804.989	0.0120836
805.068	0.0122005
805.146	0.0122678
805.224	0.0124007
805.302	0.0123908
805.380	0.0123371
805.458	0.0123339
805.536	0.0126663
805.614	0.0127026
805.693	0.0125217
805.771	0.0126507
805.849	0.0128586
805.927	0.0127663
806.005	0.0127728
806.083	0.0130161
806.161	0.0128307
806.239	0.0130081
806.318	0.0130998
806.396	0.0128886
806.474	0.0131480
806.552	0.0129540
806.630	0.0129720
806.708	0.0130913
806.786	0.0131001
806.864	0.0130182
806.943	0.0129565
807.021	0.0130131
807.099	0.0131487
807.177	0.0128769
807.255	0.0127873
807.333	0.0128118
807.411	0.0129270
807.489	0.0127667
807.568	0.0129799
807.646	0.0127992
807.724	0.0127880
807.802	0.0128589
807.880	0.0129015
807.958	0.0127485
808.036	0.0127853
808.114	0.0128905
808.193	0.0129849
808.271	0.0127296
808.349	0.0128377
808.427	0.0127916
808.505	0.0128384
808.583	0.0128077
808.661	0.0128898
808.739	0.0127443
808.818	0.0127061
808.896	0.0126835
808.974	0.0125889
809.052	0.0125735
809.130	0.0126375
809.208	0.0124989
809.286	0.0124392
809.364	0.0124270
809.443	0.0124185
809.521	0.0123914
809.599	0.0124233
809.677	0.0122654
809.755	0.0121922
809.833	0.0123706
809.911	0.0122079
809.989	0.0123476
810.068	0.0122574
810.146	0.0122977
810.224	0.0123299
810.302	0.0123186
810.380	0.0123252
810.458	0.0123905
810.536	0.0124565
810.614	0.0124866
810.693	0.0124980
810.771	0.0125989
810.849	0.0126977
810.927	0.0126585
811.005	0.0127000
811.083	0.0128305
811.161	0.0128590
811.239	0.0128078
811.318	0.0128712
811.396	0.0129404
811.474	0.0129403
811.552	0.0129012
811.630	0.0130616
811.708	0.0130256
811.786	0.0131453
811.864	0.0130729
811.943	0.0130687
812.021	0.0130261
812.099	0.0130170
812.177	0.0130521
812.255	0.0130957
812.333	0.0129948
812.411	0.0129684
812.489	0.0130811
812.568	0.0130989
812.646	0.0130694
812.724	0.0130602
812.802	0.0129821
812.880	0.0131055
812.958	0.0130819
813.036	0.0129506
813.114	0.0129532
813.193	0.0129703
813.271	0.0129168
813.349	0.0130234
813.427	0.0128938
813.505	0.0129623
813.583	0.0126698
813.661	0.0126923
813.739	0.0128870
813.818	0.0129972
813.896	0.0128502
813.974	0.0126208
814.052	0.0127200
814.130	0.0127034
814.208	0.0126460
814.286	0.0126453
814.364	0.0125100
814.443	0.0124277
814.521	0.0124374
814.599	0.0124734
814.677	0.0123013
814.755	0.0124077
814.833	0.0125502
814.911	0.0124570
814.989	0.0124431
815.068	0.0125541
815.146	0.0124608
815.224	0.0126440
815.302	0.0126781
815.380	0.0126010
815.458	0.0124761
815.536	0.0125917
815.614	0.0127048
815.693	0.0127101
815.771	0.0125687
815.849	0.0127655
815.927	0.0127894
816.005	0.0129316
816.083	0.0128303
816.161	0.0128130
816.239	0.0128036
816.318	0.0128109
816.396	0.0127281
816.474	0.0128131
816.552	0.0128046
816.630	0.0129631
816.708	0.0129552
816.786	0.0128514
816.864	0.0126327
816.943	0.0126737
817.021	0.0128152
817.099	0.0127918
817.177	0.0127820
817.255	0.0126987
817.333	0.0127215
817.411	0.0127299
817.489	0.0127386
817.568	0.0126928
817.646	0.0125471
817.724	0.0124654
817.802	0.0126872
817.880	0.0127110
817.958	0.0127037
818.036	0.0125576
818.114	0.0127151
818.193	0.0128286
818.271	0.0126448
818.349	0.0126266
818.427	0.0127891
818.505	0.0127377
818.583	0.0127392
818.661	0.0128461
818.739	0.0128201
818.818	0.0130561
818.896	0.0131796
818.974	0.0130419
819.052	0.0129900
819.130	0.0131306
819.208	0.0129829
819.286	0.0131914
819.364	0.0128722
819.443	0.0131006
819.521	0.0130807
819.599	0.0128904
819.677	0.0128187
819.755	0.0128124
819.833	0.0128451
819.911	0.0128181
819.989	0.0127682
820.068	0.0126734
820.146	0.0126772
820.224	0.0125429
820.302	0.0125303
820.380	0.0124641
820.458	0.0124754
820.536	0.0124736
820.614	0.0123906
820.693	0.0123840
820.771	0.0124535
820.849	0.0123478
820.927	0.0122282
821.005	0.0122527
821.083	0.0122584
821.161	0.0122128
821.239	0.0121256
821.318	0.0122574
821.396	0.0123386
821.474	0.0122093
821.552	0.0121113
821.630	0.0122665
821.708	0.0123357
821.786	0.0124208
821.864	0.0124917
821.943	0.0124687
822.021	0.0124315
822.099	0.0126389
822.177	0.0127083
822.255	0.0127625
822.333	0.0127356
822.411	0.0129597
822.489	0.0128814
822.568	0.0128559
822.646	0.0130240
822.724	0.0128679
822.802	0.0129246
822.880	0.0129954
822.958	0.0128943
823.036	0.0130735
823.114	0.0129456
823.193	0.0128761
823.271	0.0129742
823.349	0.0128560
823.427	0.0127955
823.505	0.0127982
823.583	0.0127376
823.661	0.0128569
823.739	0.0127791
823.818	0.0126736
823.896	0.0126154
823.974	0.0126218
824.052	0.0127172
824.130	0.0126883
824.208	0.0127386
824.286	0.0127253
824.364	0.0127878
824.443	0.0126652
824.521	0.0127728
824.599	0.0125755
824.677	0.0127042
824.755	0.0126228
824.833	0.0126659
824.911	0.0125534
824.989	0.0125700
825.068	0.0125669
825.146	0.0124760
825.224	0.0126196
825.302	0.0124687
825.380	0.0125170
825.458	0.0126943
825.536	0.0124036
825.614	0.0127132
825.693	0.0125613
825.771	0.0125385
825.849	0.0125816
825.927	0.0124127
826.005	0.0124184
826.083	0.0124230
826.161	0.0123819
826.239	0.0125130
826.318	0.0125210
826.396	0.0124493
826.474	0.0125484
826.552	0.0124258
826.630	0.0124670
826.708	0.0125436
826.786	0.0125561
826.864	0.0127323
826.943	0.0125378
827.021	0.0125543
827.099	0.0125507
827.177	0.0127090
827.255	0.0125938
827.333	0.0124979
827.411	0.0124765
827.489	0.0124795
827.568	0.0125545
827.646	0.0126647
827.724	0.0126419
827.802	0.0126032
827.880	0.0127197
827.958	0.0125977
828.036	0.0126543
828.114	0.0127695
828.193	0.0127695
828.271	0.0128191
828.349	0.0126772
828.427	0.0128352
828.505	0.0129236
828.583	0.0129363
828.661	0.0128786
828.739	0.0128194
828.818	0.0128429
828.896	0.0127934
828.974	0.0127901
829.052	0.0129424
829.130	0.0128848
829.208	0.0128796
829.286	0.0129569
829.364	0.0129047
829.443	0.0128373
829.521	0.0128669
829.599	0.0129968
829.677	0.0129078
829.755	0.0129707
829.833	0.0129367
829.911	0.0128587
829.989	0.0129002
830.068	0.0128320
830.146	0.0127201
830.224	0.0128513
830.302	0.0128862
830.380	0.0127306
830.458	0.0128101
830.536	0.0126621
830.614	0.0127489
830.693	0.0126485
830.771	0.0126073
830.849	0.0125590
830.927	0.0125054
831.005	0.0125980
831.083	0.0124229
831.161	0.0123814
831.239	0.0123134
831.318	0.0123660
831.396	0.0123416
831.474	0.0123095
831.552	0.0123606
831.630	0.0124783
831.708	0.0123787
831.786	0.0124690
831.864	0.0122289
831.943	0.0124598
832.021	0.0125752
832.099	0.0125304
832.177	0.0125771
832.255	0.0125298
832.333	0.0126896
832.411	0.0126966
832.489	0.0127816
832.568	0.0127377
832.646	0.0126063
832.724	0.0128037
832.802	0.0127911
832.880	0.0127940
832.958	0.0128092
833.036	0.0128288
833.114	0.0127505
833.193	0.0129207
833.271	0.0128527
833.349	0.0129195
833.427	0.0128447
833.505	0.0127888
833.583	0.0127437
833.661	0.0126652
833.739	0.0127753
833.818	0.0128292
833.896	0.0129073
833.974	0.0127611
834.052	0.0127224
834.130	0.0128542
834.208	0.0127558
834.286	0.0126917
834.364	0.0129191
834.443	0.0127573
834.521	0.0127702
834.599	0.0128726
834.677	0.0128604
834.755	0.0129179
834.833	0.0128053
834.911	0.0128482
834.989	0.0127728
835.068	0.0126913
835.146	0.0128373
835.224	0.0129030
835.302	0.0130300
835.380	0.0129375
835.458	0.0129879
835.536	0.0127489
835.614	0.0128569
835.693	0.0129999
835.771	0.0129327
835.849	0.0129588
835.927	0.0128439
836.005	0.0128911
836.083	0.0127853
836.161	0.0127269
836.239	0.0129294
836.318	0.0128019
836.396	0.0127927
836.474	0.0126996
836.552	0.0128552
836.630	0.0127358
836.708	0.0127825
836.786	0.0127326
836.864	0.0128089
836.943	0.0127229
837.021	0.0126733
837.099	0.0127361
837.177	0.0126031
837.255	0.0126328
837.333	0.0126488
837.411	0.0126337
837.489	0.0126418
837.568	0.0126435
837.646	0.0125084
837.724	0.0126027
837.802	0.0124670
837.880	0.0123869
837.958	0.0125246
838.036	0.0125510
838.114	0.0124545
838.193	0.0125090
838.271	0.0125285
838.349	0.0126324
838.427	0.0125354
838.505	0.0126685
838.583	0.0126945
838.661	0.0125858
838.739	0.0126519
838.818	0.0126585
838.896	0.0125986
838.974	0.0126563
839.052	0.0125668
839.130	0.0127585
839.208	0.0127832
839.286	0.0127809
839.364	0.0127894
839.443	0.0127526
839.521	0.0128084
839.599	0.0127324
839.677	0.0128446
839.755	0.0128638
839.833	0.0127985
839.911	0.0128532
839.989	0.0128600
840.068	0.0129559
840.146	0.0128260
840.224	0.0129276
840.302	0.0129231
840.380	0.0129605
840.458	0.0127760
840.536	0.0128490
840.614	0.0128165
840.693	0.0129346
840.771	0.0127981
840.849	0.0128754
840.927	0.0126943
841.005	0.0128269
841.083	0.0128306
841.161	0.0129310
841.239	0.0128516
841.318	0.0127375
841.396	0.0129359
841.474	0.0128835
841.552	0.0128120
841.630	0.0127491
841.708	0.0126994
841.786	0.0128052
841.864	0.0128048
841.943	0.0127427
842.021	0.0128973
842.099	0.0128458
842.177	0.0126651
842.255	0.0127252
842.333	0.0127718
842.411	0.0128346
842.489	0.0127734
842.568	0.0128465
842.646	0.0127739
842.724	0.0127687
842.802	0.0127470
842.880	0.0126234
842.958	0.0126122
843.036	0.0127405
843.114	0.0126263
843.193	0.0126244
843.271	0.0126157
843.349	0.0127383
843.427	0.0125975
843.505	0.0124712
843.583	0.0125980
843.661	0.0124973
843.739	0.0125549
843.818	0.0125437
843.896	0.0125856
843.974	0.0125649
844.052	0.0124513
844.130	0.0125692
844.208	0.0125900
844.286	0.0126377
844.364	0.0125911
844.443	0.0124239
844.521	0.0124709
844.599	0.0125538
844.677	0.0124168
844.755	0.0123631
844.833	0.0124892
844.911	0.0125186
844.989	0.0124491
845.068	0.0124645
845.146	0.0124095
845.224	0.0124216
845.302	0.0123985
845.380	0.0123971
845.458	0.0125453
845.536	0.0124234
845.614	0.0123882
845.693	0.0125710
845.771	0.0125912
845.849	0.0126548
845.927	0.0126574
846.005	0.0127969
846.083	0.0126630
846.161	0.0126900
846.239	0.0127696
846.318	0.0127372
846.396	0.0128501
846.474	0.0127011
846.552	0.0128090
846.630	0.0127486
846.708	0.0127980
846.786	0.0127290
846.864	0.0126396
846.943	0.0126955
847.021	0.0128490
847.099	0.0127460
847.177	0.0126935
847.255	0.0127469
847.333	0.0129143
847.411	0.0126998
847.489	0.0127068
847.568	0.0126149
847.646	0.0127422
847.724	0.0127502
847.802	0.0128714
847.880	0.0128282
847.958	0.0127009
848.036	0.0126875
848.114	0.0126898
848.193	0.0127147
848.271	0.0127393
848.349	0.0128217
848.427	0.0126937
848.505	0.0127459
848.583	0.0126577
848.661	0.0126807
848.739	0.0128046
848.818	0.0126675
848.896	0.0126643
848.974	0.0126400
849.052	0.0127418
849.130	0.0125988
849.208	0.0126510
849.286	0.0127791
849.364	0.0127046
849.443	0.0125249
849.521	0.0127483
849.599	0.0128188
849.677	0.0127323
849.755	0.0127301
849.833	0.0126205
849.911	0.0126773
849.989	0.0125681
850.068	0.0126817
850.146	0.0126363
850.224	0.0126257
850.302	0.0126552
850.380	0.0126273
850.458	0.0126604
850.536	0.0125851
850.614	0.0126299
850.693	0.0124303
850.771	0.0125024
850.849	0.0126151
850.927	0.0125353
851.005	0.0125174
851.083	0.0124491
851.161	0.0125176
851.239	0.0123466
851.318	0.0123658
851.396	0.0123375
851.474	0.0123414
851.552	0.0123744
851.630	0.0124761
851.708	0.0124610
851.786	0.0124174
851.864	0.0125461
851.943	0.0125217
852.021	0.0126348
852.099	0.0126267
852.177	0.0125980
852.255	0.0127615
852.333	0.0127938
852.411	0.0128437
852.489	0.0128191
852.568	0.0128695
852.646	0.0127638
852.724	0.0127924
852.802	0.0129260
852.880	0.0128673
852.958	0.0128493
853.036	0.0129324
853.114	0.0129638
853.193	0.0128867
853.271	0.0128612
853.349	0.0128617
853.427	0.0128605
853.505	0.0127653
853.583	0.0128067
853.661	0.0128572
853.739	0.0128532
853.818	0.0128139
853.896	0.0127877
853.974	0.0127195
854.052	0.0128056
854.130	0.0127323
854.208	0.0127282
854.286	0.0126660
854.364	0.0126007
854.443	0.0127523
854.521	0.0126337
854.599	0.0125719
854.677	0.0125378
854.755	0.0125255
854.833	0.0125463
854.911	0.0126069
854.989	0.0125169
855.068	0.0125201
855.146	0.0126048
855.224	0.0126707
855.302	0.0126692
855.380	0.0126620
855.458	0.0127044
855.536	0.0127585
855.614	0.0126186
855.693	0.0126133
855.771	0.0125930
855.849	0.0127906
855.927	0.0127019
856.005	0.0126911
856.083	0.0127731
856.161	0.0128531
856.239	0.0128452
856.318	0.0128849
856.396	0.0127694
856.474	0.0128638
856.552	0.0127275
856.630	0.0129370
856.708	0.0127227
856.786	0.0129041
856.864	0.0127823
856.943	0.0127821
857.021	0.0126332
857.099	0.0127293
857.177	0.0127673
857.255	0.0126180
857.333	0.0123518
857.411	0.0124774
857.489	0.0125546
857.568	0.0125243
857.646	0.0124728
857.724	0.0122836
857.802	0.0122668
857.880	0.0125448
857.958	0.0124454
858.036	0.0124603
858.114	0.0123750
858.193	0.0123589
858.271	0.0123902
858.349	0.0123621
858.427	0.0126340
858.505	0.0126645
858.583	0.0126041
858.661	0.0125828
858.739	0.0125776
858.818	0.0127234
858.896	0.0126492
858.974	0.0126762
859.052	0.0126748
859.130	0.0126402
859.208	0.0128327
859.286	0.0127425
859.364	0.0127932
859.443	0.0129269
859.521	0.0129520
859.599	0.0128793
859.677	0.0127203
859.755	0.0128656
859.833	0.0128854
859.911	0.0127672
859.989	0.0127137
860.068	0.0127498
860.146	0.0128049
860.224	0.0127798
860.302	0.0129250
860.380	0.0127456
860.458	0.0128386
860.536	0.0125563
860.614	0.0127683
860.693	0.0127338
860.771	0.0127405
860.849	0.0128487
860.927	0.0127810
861.005	0.0126369
861.083	0.0127654
861.161	0.0127084
861.239	0.0126092
861.318	0.0127892
861.396	0.0127161
861.474	0.0127831
861.552	0.0127429
861.630	0.0127523
861.708	0.0127138
861.786	0.0127103
861.864	0.0127262
861.943	0.0128904
862.021	0.0126937
862.099	0.0126705
862.177	0.0126841
862.255	0.0126196
862.333	0.0125655
862.411	0.0125011
862.489	0.0126895
862.568	0.0126415
862.646	0.0126244
862.724	0.0124770
862.802	0.0124951
862.880	0.0125294
862.958	0.0124496
863.036	0.0125001
863.114	0.0125563
863.193	0.0124860
863.271	0.0123606
863.349	0.0122977
863.427	0.0124014
863.505	0.0124715
863.583	0.0125826
863.661	0.0126101
863.739	0.0125636
863.818	0.0126497
863.896	0.0126406
863.974	0.0126572
864.052	0.0126349
864.130	0.0126823
864.208	0.0126133
864.286	0.0126373
864.364	0.0127976
864.443	0.0128422
864.521	0.0128132
864.599	0.0127185
864.677	0.0126827
864.755	0.0127138
864.833	0.0128645
864.911	0.0128583
864.989	0.0127733
865.068	0.0126897
865.146	0.0127473
865.224	0.0127326
865.302	0.0127299
865.380	0.0127757
865.458	0.0127377
865.536	0.0128320
865.614	0.0126258
865.693	0.0128968
865.771	0.0127955
865.849	0.0126489
865.927	0.0127483
866.005	0.0127831
866.083	0.0128348
866.161	0.0126465
866.239	0.0126949
866.318	0.0127747
866.396	0.0127198
866.474	0.0127434
866.552	0.0127650
866.630	0.0127235
866.708	0.0126741
866.786	0.0126005
866.864	0.0126856
866.943	0.0127463
867.021	0.0126615
867.099	0.0125713
867.177	0.0126237
867.255	0.0126027
867.333	0.0125774
867.411	0.0127146
867.489	0.0126768
867.568	0.0125294
867.646	0.0125999
867.724	0.0126826
867.802	0.0126714
867.880	0.0127062
867.958	0.0126257
868.036	0.0127406
868.114	0.0126345
868.193	0.0127720
868.271	0.0127209
868.349	0.0126155
868.427	0.0126644
868.505	0.0127268
868.583	0.0126346
868.661	0.0127434
868.739	0.0128006
868.818	0.0126635
868.896	0.0125291
868.974	0.0127251
869.052	0.0127647
869.130	0.0127546
869.208	0.0127879
869.286	0.0127423
869.364	0.0128388
869.443	0.0127959
869.521	0.0127785
869.599	0.0126218
869.677	0.0128180
869.755	0.0127801
869.833	0.0128492
869.911	0.0129515
869.989	0.0127505
870.068	0.0126749
870.146	0.0126839
870.224	0.0128142
870.302	0.0128058
870.380	0.0126895
870.458	0.0127499
870.536	0.0126766
870.614	0.0127502
870.693	0.0127401
870.771	0.0126810
870.849	0.0126771
870.927	0.0126439
871.005	0.0126991
871.083	0.0126923
871.161	0.0126652
871.239	0.0126200
871.318	0.0127676
871.396	0.0126261
871.474	0.0125925
871.552	0.0126312
871.630	0.0127421
871.708	0.0127029
871.786	0.0124896
871.864	0.0126341
871.943	0.0126097
872.021	0.0126646
872.099	0.0126841
872.177	0.0127104
872.255	0.0127119
872.333	0.0126849
872.411	0.0126529
872.489	0.0125603
872.568	0.0127671
872.646	0.0126892
872.724	0.0127757
872.802	0.0127406
872.880	0.0127510
872.958	0.0127622
873.036	0.0127693
873.114	0.0127529
873.193	0.0128476
873.271	0.0129870
873.349	0.0129315
873.427	0.0129332
873.505	0.0126958
873.583	0.0128407
873.661	0.0128170
873.739	0.0128346
873.818	0.0129180
873.896	0.0129618
873.974	0.0128393
874.052	0.0128248
874.130	0.0129060
874.208	0.0127519
874.286	0.0126208
874.364	0.0126971
874.443	0.0127633
874.521	0.0127104
874.599	0.0126992
874.677	0.0125400
874.755	0.0125092
874.833	0.0123598
874.911	0.0124891
874.989	0.0123576
875.068	0.0124792
875.146	0.0123666
875.224	0.0123176
875.302	0.0122846
875.380	0.0122984
875.458	0.0124158
875.536	0.0124390
875.614	0.0124333
875.693	0.0125726
875.771	0.0124855
875.849	0.0125696
875.927	0.0125660
876.005	0.0125410
876.083	0.0126472
876.161	0.0125060
876.239	0.0126447
876.318	0.0125947
876.396	0.0127412
876.474	0.0127187
876.552	0.0127991
876.630	0.0126492
876.708	0.0128555
876.786	0.0128214
876.864	0.0128407
876.943	0.0130931
877.021	0.0128709
877.099	0.0129907
877.177	0.0130100
877.255	0.0129819
877.333	0.0129789
877.411	0.0129303
877.489	0.0128925
877.568	0.0129820
877.646	0.0128282
877.724	0.0128106
877.802	0.0128306
877.880	0.0129173
877.958	0.0127731
878.036	0.0127397
878.114	0.0127013
878.193	0.0128075
878.271	0.0128735
878.349	0.0128191
878.427	0.0126507
878.505	0.0128142
878.583	0.0127698
878.661	0.0127596
878.739	0.0127042
878.818	0.0126910
878.896	0.0126447
878.974	0.0126823
879.052	0.0127327
879.130	0.0126840
879.208	0.0125436
879.286	0.0125262
879.364	0.0126816
879.443	0.0125970
879.521	0.0123876
879.599	0.0123873
879.677	0.0124155
879.755	0.0124724
879.833	0.0123863
879.911	0.0123988
879.989	0.0123636
880.068	0.0125823
880.146	0.0123594
880.224	0.0124382
880.302	0.0124293
880.380	0.0123581
880.458	0.0125262
880.536	0.0125545
880.614	0.0124061
880.693	0.0124107
880.771	0.0126923
880.849	0.0126204
880.927	0.0125810
881.005	0.0126994
881.083	0.0127874
881.161	0.0129330
881.239	0.0128687
881.318	0.0128509
881.396	0.0130057
881.474	0.0128573
881.552	0.0129080
881.630	0.0129453
881.708	0.0129807
881.786	0.0128976
881.864	0.0129087
881.943	0.0128950
882.021	0.0128282
882.099	0.0127367
882.177	0.0129537
882.255	0.0126864
882.333	0.0127232
882.411	0.0127510
882.489	0.0126875
882.568	0.0124797
882.646	0.0124802
882.724	0.0124622
882.802	0.0123362
882.880	0.0123722
882.958	0.0123818
883.036	0.0122221
883.114	0.0122340
883.193	0.0123476
883.271	0.0122432
883.349	0.0121301
883.427	0.0123142
883.505	0.0123589
883.583	0.0125049
883.661	0.0123824
883.739	0.0125184
883.818	0.0125485
883.896	0.0124354
883.974	0.0125634
884.052	0.0125657
884.130	0.0128644
884.208	0.0126671
884.286	0.0126768
884.364	0.0128876
884.443	0.0128886
884.521	0.0128246
884.599	0.0128577
884.677	0.0128690
884.755	0.0127580
884.833	0.0129300
884.911	0.0129449
884.989	0.0128728
885.068	0.0128497
885.146	0.0128484
885.224	0.0128857
885.302	0.0126884
885.380	0.0127558
885.458	0.0127401
885.536	0.0127201
885.614	0.0127127
885.693	0.0126328
885.771	0.0127783
885.849	0.0125385
885.927	0.0124799
886.005	0.0127337
886.083	0.0125917
886.161	0.0124990
886.239	0.0124693
886.318	0.0126373
886.396	0.0126442
886.474	0.0125351
886.552	0.0125935
886.630	0.0126218
886.708	0.0124879
886.786	0.0125490
886.864	0.0125838
886.943	0.0124465
887.021	0.0125380
887.099	0.0124910
887.177	0.0126562
887.255	0.0125401
887.333	0.0124832
887.411	0.0124891
887.489	0.0125101
887.568	0.0125760
887.646	0.0126627
887.724	0.0125446
887.802	0.0125675
887.880	0.0126316
887.958	0.0126653
888.036	0.0126506
888.114	0.0125316
888.193	0.0126729
888.271	0.0125756
888.349	0.0126066
888.427	0.0126568
888.505	0.0126779
888.583	0.0126891
888.661	0.0128149
888.739	0.0128379
888.818	0.0128480
888.896	0.0129958
888.974	0.0129691
889.052	0.0130370
889.130	0.0129854
889.208	0.0130550
889.286	0.0132146
889.364	0.0130975
889.443	0.0132373
889.521	0.0132310
889.599	0.0130768
889.677	0.0131441
889.755	0.0130422
889.833	0.0130111
889.911	0.0130705
889.989	0.0129920
890.068	0.0128497
890.146	0.0128235
890.224	0.0128328
890.302	0.0127534
890.380	0.0125768
890.458	0.0125288
890.536	0.0124778
890.614	0.0126059
890.693	0.0124009
890.771	0.0124429
890.849	0.0123331
890.927	0.0122500
891.005	0.0123950
891.083	0.0124199
891.161	0.0122918
891.239	0.0123016
891.318	0.0124023
891.396	0.0123761
891.474	0.0123799
891.552	0.0123922
891.630	0.0125346
891.708	0.0126466
891.786	0.0125637
891.864	0.0125795
891.943	0.0127067
892.021	0.0126148
892.099	0.0125801
892.177	0.0127628
892.255	0.0128111
892.333	0.0127979
892.411	0.0128839
892.489	0.0127037
892.568	0.0127527
892.646	0.0128281
892.724	0.0128788
892.802	0.0129268
892.880	0.0127534
892.958	0.0127789
893.036	0.0127380
893.114	0.0126649
893.193	0.0127582
893.271	0.0127721
893.349	0.0127688
893.427	0.0127525
893.505	0.0128137
893.583	0.0127727
893.661	0.0126570
893.739	0.0127247
893.818	0.0126425
893.896	0.0128094
893.974	0.0128161
894.052	0.0128495
894.130	0.0126722
894.208	0.0126734
894.286	0.0127636
894.364	0.0127296
894.443	0.0128114
894.521	0.0129073
894.599	0.0127412
894.677	0.0126483
894.755	0.0128787
894.833	0.0128909
894.911	0.0128242
894.989	0.0128467
895.068	0.0128465
895.146	0.0129144
895.224	0.0128274
895.302	0.0128919
895.380	0.0127601
895.458	0.0127263
895.536	0.0127893
895.614	0.0127242
895.693	0.0125912
895.771	0.0126042
895.849	0.0127464
895.927	0.0126011
896.005	0.0125228
896.083	0.0125903
896.161	0.0125275
896.239	0.0126286
896.318	0.0126522
896.396	0.0125207
896.474	0.0124231
896.552	0.0125556
896.630	0.0125720
896.708	0.0124794
896.786	0.0126482
896.864	0.0126201
896.943	0.0127518
897.021	0.0127234
897.099	0.0126795
897.177	0.0127077
897.255	0.0127741
897.333	0.0127613
897.411	0.0129115
897.489	0.0129996
897.568	0.0128410
897.646	0.0128844
897.724	0.0128886
897.802	0.0130231
897.880	0.0128773
897.958	0.0128648
898.036	0.0127672
898.114	0.0128601
898.193	0.0129637
898.271	0.0128321
898.349	0.0126237
898.427	0.0127592
898.505	0.0126357
898.583	0.0126258
898.661	0.0126244
898.739	0.0126082
898.818	0.0125967
898.896	0.0125341
898.974	0.0124558
899.052	0.0124026
899.130	0.0124361
899.208	0.0125230
899.286	0.0123765
899.364	0.0124998
899.443	0.0123820
899.521	0.0124628
899.599	0.0126107
899.677	0.0123629
899.755	0.0124242
899.833	0.0124360
899.911	0.0124329
899.989	0.0124684
900.068	0.0124689
900.146	0.0124976
900.224	0.0124881
900.302	0.0127843
900.380	0.0126487
900.458	0.0126603
900.536	0.0127877
900.614	0.0128719
900.693	0.0127697
900.771	0.0129502
900.849	0.0129771
900.927	0.0130131
901.005	0.0129832
901.083	0.0130444
901.161	0.0131646
901.239	0.0131724
901.318	0.0130371
901.396	0.0130869
901.474	0.0129270
901.552	0.0128934
901.630	0.0129182
901.708	0.0129684
901.786	0.0129168
901.864	0.0128653
901.943	0.0127489
902.021	0.0127184
902.099	0.0127953
902.177	0.0127670
902.255	0.0126905
902.333	0.0126572
902.411	0.0124818
902.489	0.0124892
902.568	0.0125150
902.646	0.0126591
902.724	0.0124857
902.802	0.0125166
902.880	0.0125064
902.958	0.0125616
903.036	0.0125349
903.114	0.0124606
903.193	0.0124474
903.271	0.0125896
903.349	0.0124966
903.427	0.0125383
903.505	0.0124178
903.583	0.0124635
903.661	0.0125131
903.739	0.0124157
903.818	0.0126396
903.896	0.0125121
903.974	0.0124137
904.052	0.0123316
904.130	0.0124981
904.208	0.0124413
904.286	0.0124468
904.364	0.0124738
904.443	0.0124902
904.521	0.0125150
904.599	0.0125436
904.677	0.0126784
904.755	0.0127024
904.833	0.0127258
904.911	0.0125429
904.989	0.0126347
905.068	0.0126736
905.146	0.0127822
905.224	0.0130090
905.302	0.0128242
905.380	0.0128759
905.458	0.0128524
905.536	0.0127404
905.614	0.0129809
905.693	0.0128590
905.771	0.0128488
905.849	0.0128237
905.927	0.0128522
906.005	0.0127731
906.083	0.0126559
906.161	0.0127400
906.239	0.0127104
906.318	0.0126276
906.396	0.0127069
906.474	0.0125600
906.552	0.0126735
906.630	0.0124995
906.708	0.0124773
906.786	0.0125664
906.864	0.0124809
906.943	0.0125120
907.021	0.0123882
907.099	0.0124271
907.177	0.0123717
907.255	0.0123318
907.333	0.0123083
907.411	0.0123660
907.489	0.0123238
907.568	0.0125795
907.646	0.0124517
907.724	0.0123215
907.802	0.0125391
907.880	0.0124329
907.958	0.0124827
908.036	0.0124339
908.114	0.0125111
908.193	0.0125472
908.271	0.0127385
908.349	0.0126380
908.427	0.0127162
908.505	0.0127311
908.583	0.0126986
908.661	0.0127115
908.739	0.0127595
908.818	0.0126672
908.896	0.0127700
908.974	0.0127035
909.052	0.0128338
909.130	0.0128269
909.208	0.0126980
909.286	0.0127794
909.364	0.0128115
909.443	0.0127930
909.521	0.0127187
909.599	0.0128037
909.677	0.0126028
909.755	0.0126664
909.833	0.0126662
909.911	0.0127026
909.989	0.0126901
910.068	0.0126603
910.146	0.0127660
910.224	0.0127319
910.302	0.0125487
910.380	0.0125720
910.458	0.0125572
910.536	0.0127104
910.614	0.0126119
910.693	0.0125608
910.771	0.0126143
910.849	0.0126555
910.927	0.0126931
911.005	0.0127120
911.083	0.0127803
911.161	0.0127505
911.239	0.0127743
911.318	0.0127408
911.396	0.0128587
911.474	0.0127840
911.552	0.0127350
911.630	0.0128294
911.708	0.0127148
911.786	0.0126980
911.864	0.0127042
911.943	0.0127989
912.021	0.0126833
912.099	0.0127451
912.177	0.0126398
912.255	0.0126643
912.333	0.0126505
912.411	0.0126026
912.489	0.0126775
912.568	0.0126768
912.646	0.0126978
912.724	0.0126182
912.802	0.0125909
912.880	0.0126201
912.958	0.0126778
913.036	0.0125318
913.114	0.0125201
913.193	0.0126344
913.271	0.0125793
913.349	0.0126326
913.427	0.0126560
913.505	0.0125793
913.583	0.0124968
913.661	0.0126884
913.739	0.0126507
913.818	0.0126118
913.896	0.0126685
913.974	0.0127964
914.052	0.0125922
914.130	0.0125414
914.208	0.0127272
914.286	0.0126080
914.364	0.0126488
914.443	0.0127292
914.521	0.0126257
914.599	0.0125585
914.677	0.0126131
914.755	0.0127138
914.833	0.0127650
914.911	0.0125426
914.989	0.0126494
915.068	0.0128075
915.146	0.0128743
915.224	0.0127974
915.302	0.0127068
915.380	0.0129016
915.458	0.0129079
915.536	0.0128362
915.614	0.0128841
915.693	0.0128709
915.771	0.0128233
915.849	0.0128540
915.927	0.0128200
916.005	0.0130428
916.083	0.0130078
916.161	0.0130119
916.239	0.0131323
916.318	0.0131188
916.396	0.0129981
916.474	0.0130961
916.552	0.0130960
916.630	0.0131048
916.708	0.0130776
916.786	0.0129887
916.864	0.0130625
916.943	0.0131619
917.021	0.0130942
917.099	0.0129382
917.177	0.0128727
917.255	0.0131183
917.333	0.0128767
917.411	0.0127203
917.489	0.0128165
917.568	0.0127473
917.646	0.0126472
917.724	0.0125510
917.802	0.0124890
917.880	0.0125024
917.958	0.0125252
918.036	0.0123748
918.114	0.0123856
918.193	0.0124826
918.271	0.0124670
918.349	0.0123096
918.427	0.0124507
918.505	0.0125334
918.583	0.0125508
918.661	0.0125121
918.739	0.0125438
918.818	0.0126677
918.896	0.0126904
918.974	0.0126911
919.052	0.0127427
919.130	0.0128357
919.208	0.0127919
919.286	0.0128408
919.364	0.0128498
919.443	0.0128162
919.521	0.0128618
919.599	0.0126859
919.677	0.0129743
919.755	0.0129052
919.833	0.0129063
919.911	0.0129930
919.989	0.0129877
920.068	0.0128078
920.146	0.0126173
920.224	0.0128191
920.302	0.0129021
920.380	0.0127901
920.458	0.0127814
920.536	0.0128123
920.614	0.0125851
920.693	0.0128470
920.771	0.0127621
920.849	0.0127453
920.927	0.0128329
921.005	0.0127464
921.083	0.0127824
921.161	0.0127851
921.239	0.0127639
921.318	0.0127359
921.396	0.0126907
921.474	0.0128146
921.552	0.0126833
921.630	0.0126409
921.708	0.0127290
921.786	0.0128490
921.864	0.0126376
921.943	0.0126823
922.021	0.0126069
922.099	0.0126125
922.177	0.0127274
922.255	0.0125739
922.333	0.0127068
922.411	0.0126814
922.489	0.0126414
922.568	0.0127354
922.646	0.0126953
922.724	0.0126820
922.802	0.0126054
922.880	0.0125983
922.958	0.0127234
923.036	0.0125738
923.114	0.0125193
923.193	0.0125712
923.271	0.0126476
923.349	0.0126012
923.427	0.0125991
923.505	0.0126297
923.583	0.0125681
923.661	0.0126231
923.739	0.0126037
923.818	0.0126867
923.896	0.0126906
923.974	0.0125504
924.052	0.0125918
924.130	0.0125658
924.208	0.0126765
924.286	0.0126570
924.364	0.0126320
924.443	0.0126431
924.521	0.0126884
924.599	0.0126850
924.677	0.0126384
924.755	0.0125979
924.833	0.0125877
924.911	0.0128442
924.989	0.0128444
925.068	0.0127068
925.146	0.0127565
925.224	0.0126727
925.302	0.0126993
925.380	0.0126443
925.458	0.0126155
925.536	0.0126715
925.614	0.0126324
925.693	0.0125694
925.771	0.0126446
925.849	0.0126229
925.927	0.0124450
926.005	0.0125925
926.083	0.0126546
926.161	0.0125636
926.239	0.0125515
926.318	0.0126720
926.396	0.0126127
926.474	0.0125861
926.552	0.0124886
926.630	0.0125130
926.708	0.0125034
926.786	0.0126096
926.864	0.0125514
926.943	0.0125312
927.021	0.0125497
927.099	0.0123830
927.177	0.0126092
927.255	0.0126220
927.333	0.0126962
927.411	0.0127266
927.489	0.0126854
927.568	0.0127486
927.646	0.0126580
927.724	0.0128194
927.802	0.0127939
927.880	0.0127992
927.958	0.0126573
928.036	0.0128318
928.114	0.0128834
928.193	0.0128065
928.271	0.0128249
928.349	0.0128048
928.427	0.0127020
928.505	0.0127001
928.583	0.0129631
928.661	0.0127811
928.739	0.0126624
928.818	0.0127054
928.896	0.0125996
928.974	0.0128002
929.052	0.0126513
929.130	0.0127596
929.208	0.0125570
929.286	0.0126426
929.364	0.0127224
929.443	0.0126981
929.521	0.0127883
929.599	0.0127609
929.677	0.0126315
929.755	0.0127918
929.833	0.0127858
929.911	0.0127178
929.989	0.0127288
930.068	0.0127469
930.146	0.0126930
930.224	0.0126655
930.302	0.0126489
930.380	0.0126353
930.458	0.0126348
930.536	0.0126834
930.614	0.0126352
930.693	0.0128300
930.771	0.0125716
930.849	0.0127338
930.927	0.0126907
931.005	0.0127728
931.083	0.0127232
931.161	0.0126127
931.239	0.0127023
931.318	0.0126672
931.396	0.0126792
931.474	0.0125732
931.552	0.0126957
931.630	0.0127175
931.708	0.0126363
931.786	0.0127596
931.864	0.0127106
931.943	0.0127853
932.021	0.0126839
932.099	0.0127593
932.177	0.0128104
932.255	0.0128179
932.333	0.0128108
932.411	0.0127451
932.489	0.0126279
932.568	0.0126415
932.646	0.0125839
932.724	0.0127142
932.802	0.0127946
932.880	0.0127618
932.958	0.0125819
933.036	0.0126791
933.114	0.0126406
933.193	0.0126776
933.271	0.0125176
933.349	0.0126404
933.427	0.0127647
933.505	0.0126743
933.583	0.0126022
933.661	0.0126455
933.739	0.0127058
933.818	0.0126943
933.896	0.0127536
933.974	0.0127075
934.052	0.0127034
934.130	0.0127101
934.208	0.0126891
934.286	0.0126511
934.364	0.0126157
934.443	0.0126045
934.521	0.0125520
934.599	0.0126367
934.677	0.0127142
934.755	0.0127155
934.833	0.0125558
934.911	0.0125238
934.989	0.0125762
935.068	0.0126410
935.146	0.0126414
935.224	0.0126022
935.302	0.0126397
935.380	0.0126189
935.458	0.0129129
935.536	0.0128038
935.614	0.0128658
935.693	0.0128245
935.771	0.0127465
935.849	0.0128832
935.927	0.0129560
936.005	0.0129963
936.083	0.0128607
936.161	0.0129414
936.239	0.0129660
936.318	0.0129938
936.396	0.0129455
936.474	0.0129372
936.552	0.0129314
936.630	0.0128455
936.708	0.0129398
936.786	0.0128570
936.864	0.0128674
936.943	0.0128036
937.021	0.0127545
937.099	0.0126961
937.177	0.0127336
937.255	0.0127388
937.333	0.0126759
937.411	0.0125781
937.489	0.0127848
937.568	0.0126749
937.646	0.0125907
937.724	0.0125477
937.802	0.0126254
937.880	0.0125300
937.958	0.0126964
938.036	0.0127267
938.114	0.0127478
938.193	0.0125340
938.271	0.0125215
938.349	0.0126978
938.427	0.0126358
938.505	0.0125914
938.583	0.0126269
938.661	0.0126592
938.739	0.0126782
938.818	0.0128381
938.896	0.0126823
938.974	0.0126066
939.052	0.0127254
939.130	0.0128615
939.208	0.0127784
939.286	0.0128217
939.364	0.0128079
939.443	0.0127724
939.521	0.0128423
939.599	0.0128456
939.677	0.0128245
939.755	0.0127071
939.833	0.0127412
939.911	0.0127631
939.989	0.0126631
940.068	0.0126431
940.146	0.0127715
940.224	0.0127914
940.302	0.0126553
940.380	0.0126962
940.458	0.0127713
940.536	0.0126881
940.614	0.0127113
940.693	0.0127241
940.771	0.0127009
940.849	0.0127684
940.927	0.0127444
941.005	0.0126901
941.083	0.0128202
941.161	0.0128820
941.239	0.0129067
941.318	0.0129227
941.396	0.0130082
941.474	0.0128429
941.552	0.0129205
941.630	0.0129575
941.708	0.0128875
941.786	0.0129017
941.864	0.0128486
941.943	0.0127538
942.021	0.0128521
942.099	0.0127369
942.177	0.0128671
942.255	0.0128439
942.333	0.0128391
942.411	0.0127471
942.489	0.0126152
942.568	0.0126382
942.646	0.0127290
942.724	0.0126589
942.802	0.0126097
942.880	0.0126649
942.958	0.0126230
943.036	0.0126267
943.114	0.0125418
943.193	0.0127216
943.271	0.0125047
943.349	0.0125233
943.427	0.0126497
943.505	0.0124599
943.583	0.0124951
943.661	0.0126170
943.739	0.0126017
943.818	0.0127230
943.896	0.0127156
943.974	0.0124415
944.052	0.0126817
944.130	0.0126360
944.208	0.0126638
944.286	0.0126958
944.364	0.0125957
944.443	0.0127113
944.521	0.0126505
944.599	0.0126123
944.677	0.0125889
944.755	0.0128048
944.833	0.0127729
944.911	0.0126349
944.989	0.0126292
945.068	0.0127024
945.146	0.0126338
945.224	0.0126315
945.302	0.0126645
945.380	0.0126942
945.458	0.0127927
945.536	0.0126334
945.614	0.0127627
945.693	0.0128242
945.771	0.0128004
945.849	0.0126894
945.927	0.0127538
946.005	0.0128088
946.083	0.0126981
946.161	0.0126685
946.239	0.0126037
946.318	0.0126315
946.396	0.0126453
946.474	0.0125744
946.552	0.0125962
946.630	0.0126369
946.708	0.0126820
946.786	0.0127265
946.864	0.0126435
946.943	0.0125896
947.021	0.0126554
947.099	0.0128041
947.177	0.0127145
947.255	0.0126144
947.333	0.0126712
947.411	0.0128020
947.489	0.0128271
947.568	0.0127323
947.646	0.0127248
947.724	0.0128339
947.802	0.0129236
947.880	0.0126212
947.958	0.0126729
948.036	0.0127245
948.114	0.0126756
948.193	0.0126868
948.271	0.0127437
948.349	0.0127315
948.427	0.0127323
948.505	0.0127254
948.583	0.0125870
948.661	0.0125818
948.739	0.0125630
948.818	0.0126836
948.896	0.0126081
948.974	0.0124821
949.052	0.0127203
949.130	0.0126893
949.208	0.0126794
949.286	0.0125648
949.364	0.0127109
949.443	0.0125956
949.521	0.0126396
949.599	0.0127139
949.677	0.0126633
949.755	0.0125368
949.833	0.0125367
949.911	0.0126216
949.989	0.0125998
950.068	0.0125401
950.146	0.0126584
950.224	0.0125534
950.302	0.0125119
950.380	0.0125250
950.458	0.0125310
950.536	0.0126006
950.614	0.0126564
950.693	0.0125998
950.771	0.0126779
950.849	0.0127379
950.927	0.0126117
951.005	0.0126151
951.083	0.0126761
951.161	0.0124897
951.239	0.0126994
951.318	0.0127138
951.396	0.0127010
951.474	0.0126949
951.552	0.0126121
951.630	0.0126956
951.708	0.0128634
951.786	0.0127063
951.864	0.0127138
951.943	0.0126658
952.021	0.0127378
952.099	0.0127223
952.177	0.0127110
952.255	0.0127572
952.333	0.0126685
952.411	0.0127139
952.489	0.0126557
952.568	0.0126221
952.646	0.0127778
952.724	0.0126773
952.802	0.0126722
952.880	0.0128136
952.958	0.0128014
953.036	0.0125890
953.114	0.0126822
953.193	0.0126996
953.271	0.0127382
953.349	0.0128129
953.427	0.0128456
953.505	0.0126580
953.583	0.0128117
953.661	0.0128490
953.739	0.0127599
953.818	0.0127782
953.896	0.0127732
953.974	0.0127537
954.052	0.0127454
954.130	0.0128776
954.208	0.0127339
954.286	0.0126550
954.364	0.0127982
954.443	0.0127157
954.521	0.0126456
954.599	0.0127020
954.677	0.0126176
954.755	0.0125764
954.833	0.0125519
954.911	0.0125025
954.989	0.0125394
955.068	0.0124484
955.146	0.0126108
955.224	0.0125856
955.302	0.0126514
955.380	0.0126337
955.458	0.0126329
955.536	0.0127064
955.614	0.0125961
955.693	0.0125503
955.771	0.0125682
955.849	0.0126591
955.927	0.0126461
956.005	0.0125864
956.083	0.0126269
956.161	0.0126463
956.239	0.0127025
956.318	0.0126411
956.396	0.0127309
956.474	0.0127462
956.552	0.0127178
956.630	0.0126915
956.708	0.0127648
956.786	0.0127448
956.864	0.0125558
956.943	0.0126226
957.021	0.0127340
957.099	0.0126378
957.177	0.0126538
957.255	0.0125460
957.333	0.0127792
957.411	0.0126829
957.489	0.0126702
957.568	0.0128125
957.646	0.0127618
957.724	0.0127454
957.802	0.0128033
957.880	0.0127386
957.958	0.0126707
958.036	0.0128329
958.114	0.0127497
958.193	0.0128685
958.271	0.0126996
958.349	0.0127415
958.427	0.0127606
958.505	0.0128046
958.583	0.0127467
958.661	0.0127157
958.739	0.0127101
958.818	0.0127465
958.896	0.0127905
958.974	0.0127508
959.052	0.0127218
959.130	0.0126523
959.208	0.0126321
959.286	0.0127106
959.364	0.0126534
959.443	0.0126204
959.521	0.0126299
959.599	0.0126735
959.677	0.0125381
959.755	0.0126372
959.833	0.0127055
959.911	0.0124874
