05/07/2022	17:29:58	Ver.	4.1	UNKNOWN
Optical Delay	639.989416	Delta X		0.078125	Sweeps	1	Scan Rate	0/0
Coordinates	Axis 1	NaN	Axis 2	NaN	Axis 3	NaN	Axis 4	NaN	Axis 5	NaN	Axis 6	0.000000
TX Power	0.000000	RX Power	0.000000

639.989	0.0125505
640.068	0.0125373
640.146	0.0125545
640.224	0.0126588
640.302	0.0125092
640.380	0.0124601
640.458	0.0125990
640.536	0.0125636
640.614	0.0125697
640.693	0.0125025
640.771	0.0125893
640.849	0.0125100
640.927	0.0126011
641.005	0.0125403
641.083	0.0125834
641.161	0.0125443
641.239	0.0124834
641.318	0.0124439
641.396	0.0125398
641.474	0.0127184
641.552	0.0125558
641.630	0.0125359
641.708	0.0125357
641.786	0.0125556
641.864	0.0125945
641.943	0.0123761
642.021	0.0124432
642.099	0.0124879
642.177	0.0126070
642.255	0.0125763
642.333	0.0125584
642.411	0.0125328
642.489	0.0124924
642.568	0.0125759
642.646	0.0126692
642.724	0.0126142
642.802	0.0124863
642.880	0.0125891
642.958	0.0125572
643.036	0.0126228
643.114	0.0125785
643.193	0.0125946
643.271	0.0126298
643.349	0.0125130
643.427	0.0123801
643.505	0.0126568
643.583	0.0125509
643.661	0.0126003
643.739	0.0126573
643.818	0.0125523
643.896	0.0126933
643.974	0.0125465
644.052	0.0125225
644.130	0.0125468
644.208	0.0125571
644.286	0.0124366
644.364	0.0125709
644.443	0.0125944
644.521	0.0124902
644.599	0.0125882
644.677	0.0127179
644.755	0.0125811
644.833	0.0126685
644.911	0.0126160
644.989	0.0126032
645.068	0.0126160
645.146	0.0126779
645.224	0.0126523
645.302	0.0126409
645.380	0.0126587
645.458	0.0125870
645.536	0.0126372
645.614	0.0126226
645.693	0.0125572
645.771	0.0126016
645.849	0.0125299
645.927	0.0126472
646.005	0.0126591
646.083	0.0126649
646.161	0.0126421
646.239	0.0125375
646.318	0.0125729
646.396	0.0127023
646.474	0.0127858
646.552	0.0126511
646.630	0.0127270
646.708	0.0127021
646.786	0.0126728
646.864	0.0126388
646.943	0.0126769
647.021	0.0127348
647.099	0.0125989
647.177	0.0125979
647.255	0.0126243
647.333	0.0126709
647.411	0.0126028
647.489	0.0125781
647.568	0.0124911
647.646	0.0126056
647.724	0.0127547
647.802	0.0127132
647.880	0.0125783
647.958	0.0126470
648.036	0.0127098
648.114	0.0126545
648.193	0.0126508
648.271	0.0126230
648.349	0.0126978
648.427	0.0126579
648.505	0.0127403
648.583	0.0128235
648.661	0.0126584
648.739	0.0127332
648.818	0.0127026
648.896	0.0129070
648.974	0.0128189
649.052	0.0127278
649.130	0.0128316
649.208	0.0127894
649.286	0.0127839
649.364	0.0127663
649.443	0.0126143
649.521	0.0127478
649.599	0.0125172
649.677	0.0126281
649.755	0.0126015
649.833	0.0126308
649.911	0.0125420
649.989	0.0124697
650.068	0.0124395
650.146	0.0123621
650.224	0.0124621
650.302	0.0124522
650.380	0.0124210
650.458	0.0125148
650.536	0.0124670
650.614	0.0124355
650.693	0.0124783
650.771	0.0125017
650.849	0.0126752
650.927	0.0126518
651.005	0.0127182
651.083	0.0126158
651.161	0.0127856
651.239	0.0127505
651.318	0.0127981
651.396	0.0128902
651.474	0.0129157
651.552	0.0130208
651.630	0.0130403
651.708	0.0130009
651.786	0.0128465
651.864	0.0129964
651.943	0.0130711
652.021	0.0130045
652.099	0.0129411
652.177	0.0130615
652.255	0.0130128
652.333	0.0128047
652.411	0.0127365
652.489	0.0128093
652.568	0.0126766
652.646	0.0125679
652.724	0.0123838
652.802	0.0122881
652.880	0.0123409
652.958	0.0122813
653.036	0.0120765
653.114	0.0120625
653.193	0.0120228
653.271	0.0122034
653.349	0.0120234
653.427	0.0119216
653.505	0.0120706
653.583	0.0119684
653.661	0.0121648
653.739	0.0121679
653.818	0.0123090
653.896	0.0122973
653.974	0.0124097
654.052	0.0125539
654.130	0.0125973
654.208	0.0127472
654.286	0.0128944
654.364	0.0130679
654.443	0.0129675
654.521	0.0131812
654.599	0.0132761
654.677	0.0133044
654.755	0.0135019
654.833	0.0135773
654.911	0.0135618
654.989	0.0136441
655.068	0.0135166
655.146	0.0133746
655.224	0.0134689
655.302	0.0133977
655.380	0.0132915
655.458	0.0132533
655.536	0.0131022
655.614	0.0128871
655.693	0.0128108
655.771	0.0125748
655.849	0.0123925
655.927	0.0121215
656.005	0.0118867
656.083	0.0117659
656.161	0.0117532
656.239	0.0115971
656.318	0.0115171
656.396	0.0114061
656.474	0.0111369
656.552	0.0110899
656.630	0.0110758
656.708	0.0111978
656.786	0.0112663
656.864	0.0112291
656.943	0.0112362
657.021	0.0116108
657.099	0.0117440
657.177	0.0119859
657.255	0.0121126
657.333	0.0123866
657.411	0.0124405
657.489	0.0128217
657.568	0.0129452
657.646	0.0131731
657.724	0.0133359
657.802	0.0135269
657.880	0.0137543
657.958	0.0138943
658.036	0.0140134
658.114	0.0141080
658.193	0.0140267
658.271	0.0140016
658.349	0.0138690
658.427	0.0139828
658.505	0.0138956
658.583	0.0137949
658.661	0.0135290
658.739	0.0134634
658.818	0.0132645
658.896	0.0130073
658.974	0.0129047
659.052	0.0126610
659.130	0.0124989
659.208	0.0122391
659.286	0.0121021
659.364	0.0119431
659.443	0.0118423
659.521	0.0117616
659.599	0.0116806
659.677	0.0114230
659.755	0.0113961
659.833	0.0112991
659.911	0.0113749
659.989	0.0112901
660.068	0.0112770
660.146	0.0113719
660.224	0.0114627
660.302	0.0113424
660.380	0.0113010
660.458	0.0114475
660.536	0.0116569
660.614	0.0118118
660.693	0.0120335
660.771	0.0120348
660.849	0.0122094
660.927	0.0123583
661.005	0.0125034
661.083	0.0126272
661.161	0.0126819
661.239	0.0129340
661.318	0.0131290
661.396	0.0132019
661.474	0.0132735
661.552	0.0134158
661.630	0.0135439
661.708	0.0133450
661.786	0.0134672
661.864	0.0134842
661.943	0.0136522
662.021	0.0135051
662.099	0.0133929
662.177	0.0134484
662.255	0.0134061
662.333	0.0134614
662.411	0.0133240
662.489	0.0133043
662.568	0.0132487
662.646	0.0133642
662.724	0.0132543
662.802	0.0132514
662.880	0.0130788
662.958	0.0132507
663.036	0.0130969
663.114	0.0130023
663.193	0.0129200
663.271	0.0128906
663.349	0.0127738
663.427	0.0125491
663.505	0.0125580
663.583	0.0124706
663.661	0.0123255
663.739	0.0121806
663.818	0.0120402
663.896	0.0117403
663.974	0.0117693
664.052	0.0115582
664.130	0.0115197
664.208	0.0114814
664.286	0.0112767
664.364	0.0110943
664.443	0.0110226
664.521	0.0111739
664.599	0.0110712
664.677	0.0110618
664.755	0.0110680
664.833	0.0110709
664.911	0.0112428
664.989	0.0114630
665.068	0.0115534
665.146	0.0116599
665.224	0.0117751
665.302	0.0121396
665.380	0.0123270
665.458	0.0126340
665.536	0.0128852
665.614	0.0131553
665.693	0.0133802
665.771	0.0137302
665.849	0.0138974
665.927	0.0140151
666.005	0.0141819
666.083	0.0143317
666.161	0.0144794
666.239	0.0146733
666.318	0.0146852
666.396	0.0146295
666.474	0.0147005
666.552	0.0147105
666.630	0.0145457
666.708	0.0145895
666.786	0.0143395
666.864	0.0141681
666.943	0.0137747
667.021	0.0134834
667.099	0.0132685
667.177	0.0129818
667.255	0.0128432
667.333	0.0125300
667.411	0.0122715
667.489	0.0119984
667.568	0.0117472
667.646	0.0114063
667.724	0.0111342
667.802	0.0111947
667.880	0.0110183
667.958	0.0108697
668.036	0.0109064
668.114	0.0107708
668.193	0.0108398
668.271	0.0109966
668.349	0.0109324
668.427	0.0111948
668.505	0.0112317
668.583	0.0114351
668.661	0.0116564
668.739	0.0117905
668.818	0.0119440
668.896	0.0121604
668.974	0.0122721
669.052	0.0125095
669.130	0.0126310
669.208	0.0127531
669.286	0.0127585
669.364	0.0129103
669.443	0.0131862
669.521	0.0132085
669.599	0.0132526
669.677	0.0132353
669.755	0.0131026
669.833	0.0132358
669.911	0.0131641
669.989	0.0131886
670.068	0.0132417
670.146	0.0131776
670.224	0.0132258
670.302	0.0131584
670.380	0.0132109
670.458	0.0133205
670.536	0.0134116
670.614	0.0134154
670.693	0.0133563
670.771	0.0133098
670.849	0.0134442
670.927	0.0134888
671.005	0.0135322
671.083	0.0134657
671.161	0.0133578
671.239	0.0133056
671.318	0.0132896
671.396	0.0133194
671.474	0.0132368
671.552	0.0132085
671.630	0.0130088
671.708	0.0128952
671.786	0.0126819
671.864	0.0127358
671.943	0.0125412
672.021	0.0124246
672.099	0.0121661
672.177	0.0120925
672.255	0.0118977
672.333	0.0118693
672.411	0.0117504
672.489	0.0117200
672.568	0.0115195
672.646	0.0113512
672.724	0.0112457
672.802	0.0114130
672.880	0.0113429
672.958	0.0113323
673.036	0.0114617
673.114	0.0115582
673.193	0.0117397
673.271	0.0119692
673.349	0.0121725
673.427	0.0123972
673.505	0.0124536
673.583	0.0124442
673.661	0.0126791
673.739	0.0128747
673.818	0.0129176
673.896	0.0131253
673.974	0.0131367
674.052	0.0133326
674.130	0.0132603
674.208	0.0133344
674.286	0.0132951
674.364	0.0132507
674.443	0.0133683
674.521	0.0132800
674.599	0.0132417
674.677	0.0133867
674.755	0.0131107
674.833	0.0130575
674.911	0.0130586
674.989	0.0130586
675.068	0.0128615
675.146	0.0129351
675.224	0.0128889
675.302	0.0127926
675.380	0.0128387
675.458	0.0128267
675.536	0.0128428
675.614	0.0129129
675.693	0.0130249
675.771	0.0130240
675.849	0.0130019
675.927	0.0130549
676.005	0.0131508
676.083	0.0131019
676.161	0.0131738
676.239	0.0130814
676.318	0.0131379
676.396	0.0130882
676.474	0.0130019
676.552	0.0130022
676.630	0.0128434
676.708	0.0127891
676.786	0.0125903
676.864	0.0122646
676.943	0.0122473
677.021	0.0120690
677.099	0.0117862
677.177	0.0115449
677.255	0.0115293
677.333	0.0114164
677.411	0.0113684
677.489	0.0113155
677.568	0.0109942
677.646	0.0111522
677.724	0.0111268
677.802	0.0113231
677.880	0.0116422
677.958	0.0117753
678.036	0.0118162
678.114	0.0121516
678.193	0.0125327
678.271	0.0127699
678.349	0.0130164
678.427	0.0133312
678.505	0.0135750
678.583	0.0140094
678.661	0.0140727
678.739	0.0144205
678.818	0.0146052
678.896	0.0147182
678.974	0.0148704
679.052	0.0150098
679.130	0.0150323
679.208	0.0151083
679.286	0.0150504
679.364	0.0150092
679.443	0.0147212
679.521	0.0144063
679.599	0.0140956
679.677	0.0136980
679.755	0.0134304
679.833	0.0129648
679.911	0.0125574
679.989	0.0121717
680.068	0.0117764
680.146	0.0113248
680.224	0.0110152
680.302	0.0107245
680.380	0.0103994
680.458	0.0101748
680.536	0.0100401
680.614	0.00977715
680.693	0.00973747
680.771	0.00966652
680.849	0.00983177
680.927	0.00987587
681.005	0.0101962
681.083	0.0103793
681.161	0.0105332
681.239	0.0108537
681.318	0.0112586
681.396	0.0116277
681.474	0.0118188
681.552	0.0122311
681.630	0.0127102
681.708	0.0128844
681.786	0.0132811
681.864	0.0135942
681.943	0.0137870
682.021	0.0139922
682.099	0.0141503
682.177	0.0141766
682.255	0.0145083
682.333	0.0145818
682.411	0.0147144
682.489	0.0147540
682.568	0.0147166
682.646	0.0147935
682.724	0.0144341
682.802	0.0144527
682.880	0.0143066
682.958	0.0143587
683.036	0.0141701
683.114	0.0139774
683.193	0.0139238
683.271	0.0137539
683.349	0.0134712
683.427	0.0133543
683.505	0.0133237
683.583	0.0132211
683.661	0.0129671
683.739	0.0129518
683.818	0.0128797
683.896	0.0127259
683.974	0.0125972
684.052	0.0123899
684.130	0.0123035
684.208	0.0121898
684.286	0.0121800
684.364	0.0119880
684.443	0.0121011
684.521	0.0118286
684.599	0.0117735
684.677	0.0116180
684.755	0.0116790
684.833	0.0115275
684.911	0.0113184
684.989	0.0112061
685.068	0.0111354
685.146	0.0110043
685.224	0.0108002
685.302	0.0108752
685.380	0.0106274
685.458	0.0105322
685.536	0.0103525
685.614	0.0102865
685.693	0.0105386
685.771	0.0104825
685.849	0.0104348
685.927	0.0107080
686.005	0.0107794
686.083	0.0111495
686.161	0.0111977
686.239	0.0114657
686.318	0.0117821
686.396	0.0120522
686.474	0.0122752
686.552	0.0126244
686.630	0.0132610
686.708	0.0134753
686.786	0.0137866
686.864	0.0140871
686.943	0.0144883
687.021	0.0149294
687.099	0.0151343
687.177	0.0154366
687.255	0.0154954
687.333	0.0157287
687.411	0.0158791
687.489	0.0157597
687.568	0.0158677
687.646	0.0156877
687.724	0.0154911
687.802	0.0154070
687.880	0.0151254
687.958	0.0148382
688.036	0.0145781
688.114	0.0142147
688.193	0.0138498
688.271	0.0134214
688.349	0.0131343
688.427	0.0126494
688.505	0.0123058
688.583	0.0120705
688.661	0.0117248
688.739	0.0115638
688.818	0.0112910
688.896	0.0111445
688.974	0.0110566
689.052	0.0109052
689.130	0.0108088
689.208	0.0107701
689.286	0.0108449
689.364	0.0109135
689.443	0.0109918
689.521	0.0111211
689.599	0.0113414
689.677	0.0114349
689.755	0.0115215
689.833	0.0117358
689.911	0.0118617
689.989	0.0120804
690.068	0.0121219
690.146	0.0121766
690.224	0.0122659
690.302	0.0123280
690.380	0.0124249
690.458	0.0124015
690.536	0.0124590
690.614	0.0125565
690.693	0.0122619
690.771	0.0122417
690.849	0.0121678
690.927	0.0120857
691.005	0.0119392
691.083	0.0118848
691.161	0.0117652
691.239	0.0116329
691.318	0.0115604
691.396	0.0116205
691.474	0.0114417
691.552	0.0115247
691.630	0.0116936
691.708	0.0118044
691.786	0.0119008
691.864	0.0120826
691.943	0.0122457
692.021	0.0124477
692.099	0.0128352
692.177	0.0131469
692.255	0.0134602
692.333	0.0136530
692.411	0.0138944
692.489	0.0140350
692.568	0.0144761
692.646	0.0146971
692.724	0.0145945
692.802	0.0150984
692.880	0.0152638
692.958	0.0151836
693.036	0.0149594
693.114	0.0150625
693.193	0.0148889
693.271	0.0146729
693.349	0.0145364
693.427	0.0143028
693.505	0.0141183
693.583	0.0137489
693.661	0.0133900
693.739	0.0131341
693.818	0.0129019
693.896	0.0126163
693.974	0.0124545
694.052	0.0121891
694.130	0.0119320
694.208	0.0116600
694.286	0.0114259
694.364	0.0114992
694.443	0.0114693
694.521	0.0112627
694.599	0.0114101
694.677	0.0112008
694.755	0.0112614
694.833	0.0115239
694.911	0.0113090
694.989	0.0113810
695.068	0.0115623
695.146	0.0115456
695.224	0.0117735
695.302	0.0117255
695.380	0.0119793
695.458	0.0120197
695.536	0.0120115
695.614	0.0120200
695.693	0.0119386
695.771	0.0121500
695.849	0.0122109
695.927	0.0122411
696.005	0.0122231
696.083	0.0122116
696.161	0.0122775
696.239	0.0123246
696.318	0.0124055
696.396	0.0123305
696.474	0.0123683
696.552	0.0123907
696.630	0.0125759
696.708	0.0127216
696.786	0.0127824
696.864	0.0128783
696.943	0.0130112
697.021	0.0129919
697.099	0.0130927
697.177	0.0131864
697.255	0.0132986
697.333	0.0132114
697.411	0.0132028
697.489	0.0132509
697.568	0.0133151
697.646	0.0132738
697.724	0.0132001
697.802	0.0132060
697.880	0.0131874
697.958	0.0131068
698.036	0.0132537
698.114	0.0130746
698.193	0.0131805
698.271	0.0130157
698.349	0.0130331
698.427	0.0130719
698.505	0.0130970
698.583	0.0129585
698.661	0.0130299
698.739	0.0130925
698.818	0.0130808
698.896	0.0131978
698.974	0.0130990
699.052	0.0130370
699.130	0.0132137
699.208	0.0130801
699.286	0.0130167
699.364	0.0131509
699.443	0.0131012
699.521	0.0130054
699.599	0.0129391
699.677	0.0132066
699.755	0.0131743
699.833	0.0129252
699.911	0.0128773
699.989	0.0128960
700.068	0.0129029
700.146	0.0128179
700.224	0.0126950
700.302	0.0128080
700.380	0.0126717
700.458	0.0127129
700.536	0.0126888
700.614	0.0124375
700.693	0.0124467
700.771	0.0125099
700.849	0.0123283
700.927	0.0121979
701.005	0.0122216
701.083	0.0119714
701.161	0.0120259
701.239	0.0120659
701.318	0.0118904
701.396	0.0117867
701.474	0.0117504
701.552	0.0118253
701.630	0.0118253
701.708	0.0117437
701.786	0.0117815
701.864	0.0116695
701.943	0.0117636
702.021	0.0118792
702.099	0.0119168
702.177	0.0120148
702.255	0.0120399
702.333	0.0121252
702.411	0.0121149
702.489	0.0123972
702.568	0.0123614
702.646	0.0123371
702.724	0.0124843
702.802	0.0124383
702.880	0.0124694
702.958	0.0124612
703.036	0.0124110
703.114	0.0122760
703.193	0.0122436
703.271	0.0123277
703.349	0.0123337
703.427	0.0122939
703.505	0.0122005
703.583	0.0122174
703.661	0.0121878
703.739	0.0122899
703.818	0.0125276
703.896	0.0124898
703.974	0.0125826
704.052	0.0127012
704.130	0.0128059
704.208	0.0130815
704.286	0.0132503
704.364	0.0134438
704.443	0.0137500
704.521	0.0138701
704.599	0.0139390
704.677	0.0141241
704.755	0.0143259
704.833	0.0141002
704.911	0.0141808
704.989	0.0142200
705.068	0.0142841
705.146	0.0142247
705.224	0.0140365
705.302	0.0139967
705.380	0.0138919
705.458	0.0138134
705.536	0.0137607
705.614	0.0134869
705.693	0.0133753
705.771	0.0131791
705.849	0.0130733
705.927	0.0130889
706.005	0.0129510
706.083	0.0126738
706.161	0.0126276
706.239	0.0125700
706.318	0.0123500
706.396	0.0123470
706.474	0.0122286
706.552	0.0121347
706.630	0.0121244
706.708	0.0120261
706.786	0.0118900
706.864	0.0118832
706.943	0.0117612
707.021	0.0116482
707.099	0.0114708
707.177	0.0114304
707.255	0.0114342
707.333	0.0114464
707.411	0.0113384
707.489	0.0113032
707.568	0.0112740
707.646	0.0110560
707.724	0.0110686
707.802	0.0110981
707.880	0.0111433
707.958	0.0112551
708.036	0.0111418
708.114	0.0112433
708.193	0.0113332
708.271	0.0114742
708.349	0.0115916
708.427	0.0118346
708.505	0.0118299
708.583	0.0119794
708.661	0.0121391
708.739	0.0122560
708.818	0.0124993
708.896	0.0123817
708.974	0.0125140
709.052	0.0126765
709.130	0.0128568
709.208	0.0128264
709.286	0.0129401
709.364	0.0130466
709.443	0.0130266
709.521	0.0132072
709.599	0.0132540
709.677	0.0132783
709.755	0.0134268
709.833	0.0133434
709.911	0.0134332
709.989	0.0134910
710.068	0.0135779
710.146	0.0135181
710.224	0.0136881
710.302	0.0136977
710.380	0.0137306
710.458	0.0138604
710.536	0.0139201
710.614	0.0140469
710.693	0.0139710
710.771	0.0141390
710.849	0.0141344
710.927	0.0142849
711.005	0.0142282
711.083	0.0141797
711.161	0.0140173
711.239	0.0141207
711.318	0.0141795
711.396	0.0139910
711.474	0.0137888
711.552	0.0138190
711.630	0.0136048
711.708	0.0133733
711.786	0.0132955
711.864	0.0131488
711.943	0.0130918
712.021	0.0128842
712.099	0.0125753
712.177	0.0123380
712.255	0.0121036
712.333	0.0120219
712.411	0.0118443
712.489	0.0115660
712.568	0.0116209
712.646	0.0113515
712.724	0.0111889
712.802	0.0111304
712.880	0.0110078
712.958	0.0106978
713.036	0.0108559
713.114	0.0106870
713.193	0.0106155
713.271	0.0106042
713.349	0.0105083
713.427	0.0105447
713.505	0.0105262
713.583	0.0106090
713.661	0.0107483
713.739	0.0108549
713.818	0.0110622
713.896	0.0112759
713.974	0.0113097
714.052	0.0115829
714.130	0.0117649
714.208	0.0118605
714.286	0.0120526
714.364	0.0122559
714.443	0.0123342
714.521	0.0126256
714.599	0.0126987
714.677	0.0129437
714.755	0.0129369
714.833	0.0130598
714.911	0.0131812
714.989	0.0132154
715.068	0.0132189
715.146	0.0133088
715.224	0.0132999
715.302	0.0133716
715.380	0.0134126
715.458	0.0134956
715.536	0.0136259
715.614	0.0136504
715.693	0.0136998
715.771	0.0136841
715.849	0.0138599
715.927	0.0140496
716.005	0.0141076
716.083	0.0141751
716.161	0.0140929
716.239	0.0143092
716.318	0.0143754
716.396	0.0143565
716.474	0.0143695
716.552	0.0144492
716.630	0.0145661
716.708	0.0143649
716.786	0.0142879
716.864	0.0141830
716.943	0.0141552
717.021	0.0141507
717.099	0.0141119
717.177	0.0139104
717.255	0.0136668
717.333	0.0134688
717.411	0.0132980
717.489	0.0132471
717.568	0.0131416
717.646	0.0127684
717.724	0.0127389
717.802	0.0125065
717.880	0.0124752
717.958	0.0122748
718.036	0.0120912
718.114	0.0117652
718.193	0.0118029
718.271	0.0117027
718.349	0.0115181
718.427	0.0113033
718.505	0.0113168
718.583	0.0113322
718.661	0.0110577
718.739	0.0109341
718.818	0.0108936
718.896	0.0109459
718.974	0.0106552
719.052	0.0108348
719.130	0.0107996
719.208	0.0108754
719.286	0.0109277
719.364	0.0110474
719.443	0.0111923
719.521	0.0111969
719.599	0.0111952
719.677	0.0113354
719.755	0.0114581
719.833	0.0115605
719.911	0.0116387
719.989	0.0119365
720.068	0.0119922
720.146	0.0120953
720.224	0.0121204
720.302	0.0122142
720.380	0.0125201
720.458	0.0126106
720.536	0.0128505
720.614	0.0129267
720.693	0.0129918
720.771	0.0132085
720.849	0.0133984
720.927	0.0133972
721.005	0.0136016
721.083	0.0136520
721.161	0.0139184
721.239	0.0138522
721.318	0.0140046
721.396	0.0140321
721.474	0.0141864
721.552	0.0141478
721.630	0.0143575
721.708	0.0144102
721.786	0.0144128
721.864	0.0143580
721.943	0.0143510
722.021	0.0143250
722.099	0.0143759
722.177	0.0142374
722.255	0.0142252
722.333	0.0140298
722.411	0.0140527
722.489	0.0139043
722.568	0.0139166
722.646	0.0138510
722.724	0.0135389
722.802	0.0136394
722.880	0.0133217
722.958	0.0132323
723.036	0.0131183
723.114	0.0129420
723.193	0.0127491
723.271	0.0128087
723.349	0.0125930
723.427	0.0124349
723.505	0.0124879
723.583	0.0123032
723.661	0.0120843
723.739	0.0119498
723.818	0.0118705
723.896	0.0117712
723.974	0.0119068
724.052	0.0117001
724.130	0.0116261
724.208	0.0116209
724.286	0.0116206
724.364	0.0114426
724.443	0.0114732
724.521	0.0114482
724.599	0.0114922
724.677	0.0114704
724.755	0.0113338
724.833	0.0113245
724.911	0.0114488
724.989	0.0115556
725.068	0.0114255
725.146	0.0116228
725.224	0.0115340
725.302	0.0116199
725.380	0.0114579
725.458	0.0117511
725.536	0.0118010
725.614	0.0118104
725.693	0.0119127
725.771	0.0119850
725.849	0.0120959
725.927	0.0121607
726.005	0.0123635
726.083	0.0122831
726.161	0.0124364
726.239	0.0125639
726.318	0.0126740
726.396	0.0126901
726.474	0.0127140
726.552	0.0128538
726.630	0.0129700
726.708	0.0131649
726.786	0.0131835
726.864	0.0131458
726.943	0.0133638
727.021	0.0135095
727.099	0.0135281
727.177	0.0135169
727.255	0.0136292
727.333	0.0136980
727.411	0.0136280
727.489	0.0135937
727.568	0.0136889
727.646	0.0137511
727.724	0.0136372
727.802	0.0134768
727.880	0.0136429
727.958	0.0136369
728.036	0.0134636
728.114	0.0134167
728.193	0.0133868
728.271	0.0133522
728.349	0.0132876
728.427	0.0132193
728.505	0.0131056
728.583	0.0130344
728.661	0.0131414
728.739	0.0130550
728.818	0.0128869
728.896	0.0128471
728.974	0.0129748
729.052	0.0126553
729.130	0.0129030
729.208	0.0126832
729.286	0.0126083
729.364	0.0125440
729.443	0.0125963
729.521	0.0122762
729.599	0.0123058
729.677	0.0122270
729.755	0.0120834
729.833	0.0119321
729.911	0.0120828
729.989	0.0118301
730.068	0.0117870
730.146	0.0116500
730.224	0.0114928
730.302	0.0115723
730.380	0.0115710
730.458	0.0115369
730.536	0.0116028
730.614	0.0114291
730.693	0.0114933
730.771	0.0115188
730.849	0.0114688
730.927	0.0116308
731.005	0.0117932
731.083	0.0117418
731.161	0.0118079
731.239	0.0118886
731.318	0.0119197
731.396	0.0120229
731.474	0.0120762
731.552	0.0122507
731.630	0.0122399
731.708	0.0122720
731.786	0.0123446
731.864	0.0123399
731.943	0.0123822
732.021	0.0125798
732.099	0.0126462
732.177	0.0126301
732.255	0.0126701
732.333	0.0127808
732.411	0.0127971
732.489	0.0129510
732.568	0.0129486
732.646	0.0129173
732.724	0.0130328
732.802	0.0131235
732.880	0.0129774
732.958	0.0130814
733.036	0.0131081
733.114	0.0133067
733.193	0.0131004
733.271	0.0131489
733.349	0.0132358
733.427	0.0130718
733.505	0.0130363
733.583	0.0130433
733.661	0.0130682
733.739	0.0130187
733.818	0.0130548
733.896	0.0130334
733.974	0.0131666
734.052	0.0129771
734.130	0.0130243
734.208	0.0130363
734.286	0.0130420
734.364	0.0129845
734.443	0.0131255
734.521	0.0130988
734.599	0.0130938
734.677	0.0131405
734.755	0.0130376
734.833	0.0131477
734.911	0.0131950
734.989	0.0132869
735.068	0.0133649
735.146	0.0131450
735.224	0.0131390
735.302	0.0131734
735.380	0.0130133
735.458	0.0129745
735.536	0.0128890
735.614	0.0128426
735.693	0.0127733
735.771	0.0126983
735.849	0.0124461
735.927	0.0124464
736.005	0.0124183
736.083	0.0124269
736.161	0.0123421
736.239	0.0122141
736.318	0.0120809
736.396	0.0119499
736.474	0.0119841
736.552	0.0119409
736.630	0.0118990
736.708	0.0117928
736.786	0.0119170
736.864	0.0119450
736.943	0.0120810
737.021	0.0119402
737.099	0.0119279
737.177	0.0121552
737.255	0.0122302
737.333	0.0120244
737.411	0.0121263
737.489	0.0122490
737.568	0.0123026
737.646	0.0124293
737.724	0.0123051
737.802	0.0125548
737.880	0.0125965
737.958	0.0125928
738.036	0.0126176
738.114	0.0126000
738.193	0.0127361
738.271	0.0127885
738.349	0.0127506
738.427	0.0128428
738.505	0.0127585
738.583	0.0127811
738.661	0.0128716
738.739	0.0128713
738.818	0.0128358
738.896	0.0128507
738.974	0.0128713
739.052	0.0129861
739.130	0.0129817
739.208	0.0128668
739.286	0.0130059
739.364	0.0130573
739.443	0.0129974
739.521	0.0130672
739.599	0.0130314
739.677	0.0130158
739.755	0.0130465
739.833	0.0131248
739.911	0.0129886
739.989	0.0129980
740.068	0.0131069
740.146	0.0131170
740.224	0.0130802
740.302	0.0129774
740.380	0.0132075
740.458	0.0131404
740.536	0.0131116
740.614	0.0131311
740.693	0.0132003
740.771	0.0131934
740.849	0.0129910
740.927	0.0130480
741.005	0.0129328
741.083	0.0130203
741.161	0.0131612
741.239	0.0128678
741.318	0.0128253
741.396	0.0127686
741.474	0.0127454
741.552	0.0127564
741.630	0.0126860
741.708	0.0127853
741.786	0.0126929
741.864	0.0126213
741.943	0.0125678
742.021	0.0125610
742.099	0.0125122
742.177	0.0124689
742.255	0.0123823
742.333	0.0124261
742.411	0.0124165
742.489	0.0124492
742.568	0.0123377
742.646	0.0122543
742.724	0.0122403
742.802	0.0123392
742.880	0.0122154
742.958	0.0120151
743.036	0.0120853
743.114	0.0121195
743.193	0.0122384
743.271	0.0119878
743.349	0.0120747
743.427	0.0122800
743.505	0.0121118
743.583	0.0121510
743.661	0.0122295
743.739	0.0123209
743.818	0.0123484
743.896	0.0123422
743.974	0.0124725
744.052	0.0126107
744.130	0.0125825
744.208	0.0126570
744.286	0.0125907
744.364	0.0126704
744.443	0.0126697
744.521	0.0128895
744.599	0.0129192
744.677	0.0127888
744.755	0.0129353
744.833	0.0130315
744.911	0.0129147
744.989	0.0129688
745.068	0.0128136
745.146	0.0126913
745.224	0.0129758
745.302	0.0126611
745.380	0.0129081
745.458	0.0128754
745.536	0.0129731
745.614	0.0129686
745.693	0.0128362
745.771	0.0131310
745.849	0.0131348
745.927	0.0130161
746.005	0.0130021
746.083	0.0131149
746.161	0.0131984
746.239	0.0130123
746.318	0.0130784
746.396	0.0130115
746.474	0.0131394
746.552	0.0131116
746.630	0.0131048
746.708	0.0128992
746.786	0.0128793
746.864	0.0130125
746.943	0.0131402
747.021	0.0129374
747.099	0.0128233
747.177	0.0127436
747.255	0.0128467
747.333	0.0126302
747.411	0.0127335
747.489	0.0125775
747.568	0.0124815
747.646	0.0125172
747.724	0.0126111
747.802	0.0125356
747.880	0.0126043
747.958	0.0126014
748.036	0.0126409
748.114	0.0126412
748.193	0.0127094
748.271	0.0127299
748.349	0.0126492
748.427	0.0126867
748.505	0.0127339
748.583	0.0126567
748.661	0.0127087
748.739	0.0125963
748.818	0.0125700
748.896	0.0127271
748.974	0.0125494
749.052	0.0125528
749.130	0.0125067
749.208	0.0124017
749.286	0.0124138
749.364	0.0124608
749.443	0.0123112
749.521	0.0121435
749.599	0.0122181
749.677	0.0121652
749.755	0.0123302
749.833	0.0123321
749.911	0.0122067
749.989	0.0122120
750.068	0.0121713
750.146	0.0121680
750.224	0.0122855
750.302	0.0123637
750.380	0.0122044
750.458	0.0124126
750.536	0.0124884
750.614	0.0125128
750.693	0.0124545
750.771	0.0127811
750.849	0.0126865
750.927	0.0126932
751.005	0.0126785
751.083	0.0128703
751.161	0.0128058
751.239	0.0128271
751.318	0.0129584
751.396	0.0129293
751.474	0.0129637
751.552	0.0129191
751.630	0.0128442
751.708	0.0130236
751.786	0.0129813
751.864	0.0128853
751.943	0.0129584
752.021	0.0129795
752.099	0.0128081
752.177	0.0128761
752.255	0.0128300
752.333	0.0127780
752.411	0.0128117
752.489	0.0128147
752.568	0.0126830
752.646	0.0126658
752.724	0.0125205
752.802	0.0125465
752.880	0.0125465
752.958	0.0124155
753.036	0.0125744
753.114	0.0125250
753.193	0.0125606
753.271	0.0124407
753.349	0.0123738
753.427	0.0123230
753.505	0.0125178
753.583	0.0124007
753.661	0.0125526
753.739	0.0123158
753.818	0.0124197
753.896	0.0124648
753.974	0.0124879
754.052	0.0124309
754.130	0.0127028
754.208	0.0126353
754.286	0.0125874
754.364	0.0127483
754.443	0.0128493
754.521	0.0127398
754.599	0.0128692
754.677	0.0129206
754.755	0.0130377
754.833	0.0128231
754.911	0.0129597
754.989	0.0129665
755.068	0.0131069
755.146	0.0129163
755.224	0.0127283
755.302	0.0128908
755.380	0.0129021
755.458	0.0129257
755.536	0.0127300
755.614	0.0126692
755.693	0.0126015
755.771	0.0124221
755.849	0.0125959
755.927	0.0124879
756.005	0.0123789
756.083	0.0122051
756.161	0.0122206
756.239	0.0121192
756.318	0.0121461
756.396	0.0121202
756.474	0.0121583
756.552	0.0122578
756.630	0.0122527
756.708	0.0122942
756.786	0.0123129
756.864	0.0122381
756.943	0.0123183
757.021	0.0123186
757.099	0.0124986
757.177	0.0124564
757.255	0.0125689
757.333	0.0124660
757.411	0.0125092
757.489	0.0125187
757.568	0.0127018
757.646	0.0126247
757.724	0.0126854
757.802	0.0126049
757.880	0.0125355
757.958	0.0127022
758.036	0.0127340
758.114	0.0126904
758.193	0.0127621
758.271	0.0125770
758.349	0.0128400
758.427	0.0126631
758.505	0.0127592
758.583	0.0127509
758.661	0.0126409
758.739	0.0126630
758.818	0.0127512
758.896	0.0127518
758.974	0.0126165
759.052	0.0130125
759.130	0.0129178
759.208	0.0127508
759.286	0.0128427
759.364	0.0129369
759.443	0.0129195
759.521	0.0128856
759.599	0.0130508
759.677	0.0128616
759.755	0.0128620
759.833	0.0127432
759.911	0.0127825
759.989	0.0127376
760.068	0.0126804
760.146	0.0127404
760.224	0.0126796
760.302	0.0126756
760.380	0.0126709
760.458	0.0126351
760.536	0.0125318
760.614	0.0125079
760.693	0.0124728
760.771	0.0125049
760.849	0.0123911
760.927	0.0124843
761.005	0.0124544
761.083	0.0124059
761.161	0.0124361
761.239	0.0123252
761.318	0.0124585
761.396	0.0125159
761.474	0.0124439
761.552	0.0124369
761.630	0.0123728
761.708	0.0124592
761.786	0.0125922
761.864	0.0126795
761.943	0.0125116
762.021	0.0123914
762.099	0.0124309
762.177	0.0125024
762.255	0.0125860
762.333	0.0124397
762.411	0.0126257
762.489	0.0125266
762.568	0.0126131
762.646	0.0125903
762.724	0.0124790
762.802	0.0127148
762.880	0.0125964
762.958	0.0127165
763.036	0.0127243
763.114	0.0126871
763.193	0.0126743
763.271	0.0126228
763.349	0.0127514
763.427	0.0126595
763.505	0.0126726
763.583	0.0129257
763.661	0.0128197
763.739	0.0128292
763.818	0.0128767
763.896	0.0128862
763.974	0.0127244
764.052	0.0127141
764.130	0.0128850
764.208	0.0127211
764.286	0.0127124
764.364	0.0126060
764.443	0.0126344
764.521	0.0126736
764.599	0.0125510
764.677	0.0126779
764.755	0.0125685
764.833	0.0124113
764.911	0.0123349
764.989	0.0123061
765.068	0.0123253
765.146	0.0123830
765.224	0.0123807
765.302	0.0123567
765.380	0.0124045
765.458	0.0124741
765.536	0.0124653
765.614	0.0124638
765.693	0.0126192
765.771	0.0125704
765.849	0.0126708
765.927	0.0126971
766.005	0.0126237
766.083	0.0129147
766.161	0.0129324
766.239	0.0131029
766.318	0.0127984
766.396	0.0128212
766.474	0.0129949
766.552	0.0129038
766.630	0.0129982
766.708	0.0131242
766.786	0.0128687
766.864	0.0129019
766.943	0.0127853
767.021	0.0128336
767.099	0.0127621
767.177	0.0127864
767.255	0.0127979
767.333	0.0126488
767.411	0.0126244
767.489	0.0126637
767.568	0.0126558
767.646	0.0125313
767.724	0.0127511
767.802	0.0125645
767.880	0.0126270
767.958	0.0125699
768.036	0.0126409
768.114	0.0127826
768.193	0.0127290
768.271	0.0128051
768.349	0.0126662
768.427	0.0127209
768.505	0.0127128
768.583	0.0126670
768.661	0.0125831
768.739	0.0125880
768.818	0.0125820
768.896	0.0124046
768.974	0.0125997
769.052	0.0125230
769.130	0.0123715
769.208	0.0123360
769.286	0.0123811
769.364	0.0123282
769.443	0.0123745
769.521	0.0123779
769.599	0.0124541
769.677	0.0123246
769.755	0.0122807
769.833	0.0123623
769.911	0.0124082
769.989	0.0123615
770.068	0.0123902
770.146	0.0124980
770.224	0.0126595
770.302	0.0125295
770.380	0.0125235
770.458	0.0126459
770.536	0.0126838
770.614	0.0126666
770.693	0.0126340
770.771	0.0127480
770.849	0.0128714
770.927	0.0128547
771.005	0.0128485
771.083	0.0128130
771.161	0.0127717
771.239	0.0126824
771.318	0.0130013
771.396	0.0128354
771.474	0.0128268
771.552	0.0129544
771.630	0.0129166
771.708	0.0129638
771.786	0.0128470
771.864	0.0128097
771.943	0.0128168
772.021	0.0127885
772.099	0.0129594
772.177	0.0129489
772.255	0.0128499
772.333	0.0128441
772.411	0.0130019
772.489	0.0129053
772.568	0.0130180
772.646	0.0129059
772.724	0.0127821
772.802	0.0128464
772.880	0.0127714
772.958	0.0128833
773.036	0.0128378
773.114	0.0127848
773.193	0.0126743
773.271	0.0125921
773.349	0.0125745
773.427	0.0125835
773.505	0.0125626
773.583	0.0124220
773.661	0.0125489
773.739	0.0124369
773.818	0.0125536
773.896	0.0125591
773.974	0.0124977
774.052	0.0125291
774.130	0.0127274
774.208	0.0125198
774.286	0.0124570
774.364	0.0123837
774.443	0.0124770
774.521	0.0123933
774.599	0.0123817
774.677	0.0125329
774.755	0.0126306
774.833	0.0125530
774.911	0.0126116
774.989	0.0127518
775.068	0.0125941
775.146	0.0126169
775.224	0.0125694
775.302	0.0127268
775.380	0.0128917
775.458	0.0127075
775.536	0.0126331
775.614	0.0127831
775.693	0.0128979
775.771	0.0128403
775.849	0.0127299
775.927	0.0127795
776.005	0.0127881
776.083	0.0127292
776.161	0.0128052
776.239	0.0128478
776.318	0.0127595
776.396	0.0127200
776.474	0.0127497
776.552	0.0127849
776.630	0.0125753
776.708	0.0127920
776.786	0.0126881
776.864	0.0126448
776.943	0.0125684
777.021	0.0126756
777.099	0.0126316
777.177	0.0125857
777.255	0.0125760
777.333	0.0126117
777.411	0.0123881
777.489	0.0124836
777.568	0.0125336
777.646	0.0124979
777.724	0.0125037
777.802	0.0123586
777.880	0.0123373
777.958	0.0124871
778.036	0.0125870
778.114	0.0125320
778.193	0.0124300
778.271	0.0125938
778.349	0.0125504
778.427	0.0125481
778.505	0.0127351
778.583	0.0125278
778.661	0.0126141
778.739	0.0126785
778.818	0.0126424
778.896	0.0127150
778.974	0.0129127
779.052	0.0127613
779.130	0.0129330
779.208	0.0128730
779.286	0.0129169
779.364	0.0129282
779.443	0.0129957
779.521	0.0129589
779.599	0.0129669
779.677	0.0129754
779.755	0.0129639
779.833	0.0130866
779.911	0.0129970
779.989	0.0128721
780.068	0.0129123
780.146	0.0128751
780.224	0.0129288
780.302	0.0128527
780.380	0.0128107
780.458	0.0127903
780.536	0.0127369
780.614	0.0126184
780.693	0.0126289
780.771	0.0127960
780.849	0.0126971
780.927	0.0126870
781.005	0.0125604
781.083	0.0126218
781.161	0.0126343
781.239	0.0125532
781.318	0.0124874
781.396	0.0125749
781.474	0.0125600
781.552	0.0124805
781.630	0.0125731
781.708	0.0123223
781.786	0.0124163
781.864	0.0124702
781.943	0.0124651
782.021	0.0123566
782.099	0.0122000
782.177	0.0122838
782.255	0.0122739
782.333	0.0122144
782.411	0.0122147
782.489	0.0120692
782.568	0.0121801
782.646	0.0122404
782.724	0.0122264
782.802	0.0121459
782.880	0.0122280
782.958	0.0122236
783.036	0.0122117
783.114	0.0122867
783.193	0.0123610
783.271	0.0124917
783.349	0.0125455
783.427	0.0126286
783.505	0.0126728
783.583	0.0126141
783.661	0.0128355
783.739	0.0129095
783.818	0.0129680
783.896	0.0130775
783.974	0.0130312
784.052	0.0130829
784.130	0.0131826
784.208	0.0132153
784.286	0.0131442
784.364	0.0131194
784.443	0.0131964
784.521	0.0130737
784.599	0.0131374
784.677	0.0130597
784.755	0.0131178
784.833	0.0130096
784.911	0.0129684
784.989	0.0129053
785.068	0.0129111
785.146	0.0128908
785.224	0.0127496
785.302	0.0126857
785.380	0.0127839
785.458	0.0126884
785.536	0.0126147
785.614	0.0126801
785.693	0.0124223
785.771	0.0123421
785.849	0.0124770
785.927	0.0122890
786.005	0.0122859
786.083	0.0122272
786.161	0.0121176
786.239	0.0121408
786.318	0.0122250
786.396	0.0122159
786.474	0.0122617
786.552	0.0122626
786.630	0.0122334
786.708	0.0123267
786.786	0.0123023
786.864	0.0123814
786.943	0.0122744
787.021	0.0122858
787.099	0.0123222
787.177	0.0123955
787.255	0.0123985
787.333	0.0123274
787.411	0.0123914
787.489	0.0124384
787.568	0.0124582
787.646	0.0124125
787.724	0.0123615
787.802	0.0124433
787.880	0.0124681
787.958	0.0124789
788.036	0.0125558
788.114	0.0125651
788.193	0.0125046
788.271	0.0122803
788.349	0.0124769
788.427	0.0126020
788.505	0.0125648
788.583	0.0123641
788.661	0.0125790
788.739	0.0126414
788.818	0.0126838
788.896	0.0126508
788.974	0.0126115
789.052	0.0127039
789.130	0.0127505
789.208	0.0127445
789.286	0.0128262
789.364	0.0129198
789.443	0.0129720
789.521	0.0128528
789.599	0.0127935
789.677	0.0129709
789.755	0.0129777
789.833	0.0128493
789.911	0.0129448
789.989	0.0128637
790.068	0.0129298
790.146	0.0129748
790.224	0.0127431
790.302	0.0127551
790.380	0.0127283
790.458	0.0129289
790.536	0.0126766
790.614	0.0125817
790.693	0.0127065
790.771	0.0126777
790.849	0.0127108
790.927	0.0127033
791.005	0.0125700
791.083	0.0126754
791.161	0.0125311
791.239	0.0124983
791.318	0.0125063
791.396	0.0124394
791.474	0.0123989
791.552	0.0124625
791.630	0.0124148
791.708	0.0124601
791.786	0.0122425
791.864	0.0124254
791.943	0.0123917
792.021	0.0124023
792.099	0.0123848
792.177	0.0125317
792.255	0.0123680
792.333	0.0123230
792.411	0.0124435
792.489	0.0123888
792.568	0.0124321
792.646	0.0122591
792.724	0.0123442
792.802	0.0123336
792.880	0.0123604
792.958	0.0126143
793.036	0.0125034
793.114	0.0123540
793.193	0.0126350
793.271	0.0124355
793.349	0.0124387
793.427	0.0124506
793.505	0.0125201
793.583	0.0124236
793.661	0.0124971
793.739	0.0124810
793.818	0.0126119
793.896	0.0125600
793.974	0.0124409
794.052	0.0125420
794.130	0.0126422
794.208	0.0127837
794.286	0.0127557
794.364	0.0128001
794.443	0.0128388
794.521	0.0127477
794.599	0.0127993
794.677	0.0128532
794.755	0.0129532
794.833	0.0128769
794.911	0.0128613
794.989	0.0129678
795.068	0.0129104
795.146	0.0129603
795.224	0.0130779
795.302	0.0130501
795.380	0.0131010
795.458	0.0130086
795.536	0.0129417
795.614	0.0131114
795.693	0.0130824
795.771	0.0131061
795.849	0.0130497
795.927	0.0131697
796.005	0.0131411
796.083	0.0130130
796.161	0.0130349
796.239	0.0130773
796.318	0.0130933
796.396	0.0129298
796.474	0.0129895
796.552	0.0129205
796.630	0.0128007
796.708	0.0126850
796.786	0.0127715
796.864	0.0126578
796.943	0.0125978
797.021	0.0124670
797.099	0.0125018
797.177	0.0124117
797.255	0.0123862
797.333	0.0123129
797.411	0.0123478
797.489	0.0123051
797.568	0.0123462
797.646	0.0123515
797.724	0.0122125
797.802	0.0123205
797.880	0.0123594
797.958	0.0121612
798.036	0.0122436
798.114	0.0122882
798.193	0.0122569
798.271	0.0121479
798.349	0.0121542
798.427	0.0123568
798.505	0.0123636
798.583	0.0123174
798.661	0.0123403
798.739	0.0125597
798.818	0.0124549
798.896	0.0125907
798.974	0.0125821
799.052	0.0126391
799.130	0.0126739
799.208	0.0125908
799.286	0.0126151
799.364	0.0126658
799.443	0.0126884
799.521	0.0127346
799.599	0.0128361
799.677	0.0128004
799.755	0.0127749
799.833	0.0129152
799.911	0.0128379
799.989	0.0128459
800.068	0.0129679
800.146	0.0129717
800.224	0.0129791
800.302	0.0128676
800.380	0.0128439
800.458	0.0129851
800.536	0.0128901
800.614	0.0129000
800.693	0.0129328
800.771	0.0128926
800.849	0.0128938
800.927	0.0129391
801.005	0.0128800
801.083	0.0129133
801.161	0.0129520
801.239	0.0127487
801.318	0.0129414
801.396	0.0128781
801.474	0.0128287
801.552	0.0127764
801.630	0.0128633
801.708	0.0127435
801.786	0.0128011
801.864	0.0128896
801.943	0.0126002
802.021	0.0127530
802.099	0.0127716
802.177	0.0127066
802.255	0.0127178
802.333	0.0127117
802.411	0.0128233
802.489	0.0125951
802.568	0.0124263
802.646	0.0124799
802.724	0.0125105
802.802	0.0124639
802.880	0.0123984
802.958	0.0124741
803.036	0.0123191
803.114	0.0123114
803.193	0.0123243
803.271	0.0123619
803.349	0.0122998
803.427	0.0123386
803.505	0.0121915
803.583	0.0121697
803.661	0.0122456
803.739	0.0123956
803.818	0.0123202
803.896	0.0124803
803.974	0.0123545
804.052	0.0123852
804.130	0.0122108
804.208	0.0123110
804.286	0.0123054
804.364	0.0123784
804.443	0.0123353
804.521	0.0123859
804.599	0.0123916
804.677	0.0123371
804.755	0.0123163
804.833	0.0123318
804.911	0.0123818
804.989	0.0124730
805.068	0.0123679
805.146	0.0124773
805.224	0.0125090
805.302	0.0123980
805.380	0.0124457
805.458	0.0126102
805.536	0.0125969
805.614	0.0126456
805.693	0.0126915
805.771	0.0127001
805.849	0.0126337
805.927	0.0127637
806.005	0.0127621
806.083	0.0127136
806.161	0.0128678
806.239	0.0129379
806.318	0.0127925
806.396	0.0128036
806.474	0.0129955
806.552	0.0128277
806.630	0.0127549
806.708	0.0127769
806.786	0.0128520
806.864	0.0128661
806.943	0.0129166
807.021	0.0127032
807.099	0.0126958
807.177	0.0128139
807.255	0.0128170
807.333	0.0127730
807.411	0.0127271
807.489	0.0126393
807.568	0.0126170
807.646	0.0128525
807.724	0.0128695
807.802	0.0126308
807.880	0.0126782
807.958	0.0127773
808.036	0.0126740
808.114	0.0126360
808.193	0.0126601
808.271	0.0127043
808.349	0.0128259
808.427	0.0125437
808.505	0.0125992
808.583	0.0125590
808.661	0.0125583
808.739	0.0124462
808.818	0.0123602
808.896	0.0124316
808.974	0.0123880
809.052	0.0124188
809.130	0.0124631
809.208	0.0122950
809.286	0.0122968
809.364	0.0122821
809.443	0.0123756
809.521	0.0121453
809.599	0.0121975
809.677	0.0121577
809.755	0.0119559
809.833	0.0119408
809.911	0.0120605
809.989	0.0118934
810.068	0.0119798
810.146	0.0120763
810.224	0.0119749
810.302	0.0120761
810.380	0.0120632
810.458	0.0119321
810.536	0.0121443
810.614	0.0120946
810.693	0.0120927
810.771	0.0122466
810.849	0.0123388
810.927	0.0123525
811.005	0.0123134
811.083	0.0124359
811.161	0.0125020
811.239	0.0126465
811.318	0.0126344
811.396	0.0123815
811.474	0.0127165
811.552	0.0128638
811.630	0.0127940
811.708	0.0127252
811.786	0.0128488
811.864	0.0128060
811.943	0.0129368
812.021	0.0129376
812.099	0.0129176
812.177	0.0128339
812.255	0.0129775
812.333	0.0128693
812.411	0.0129575
812.489	0.0129477
812.568	0.0129510
812.646	0.0128271
812.724	0.0128596
812.802	0.0129980
812.880	0.0129943
812.958	0.0128460
813.036	0.0128732
813.114	0.0129523
813.193	0.0128474
813.271	0.0129330
813.349	0.0127991
813.427	0.0128556
813.505	0.0128948
813.583	0.0128828
813.661	0.0128681
813.739	0.0128065
813.818	0.0127889
813.896	0.0127752
813.974	0.0128512
814.052	0.0129321
814.130	0.0126099
814.208	0.0126640
814.286	0.0126790
814.364	0.0125003
814.443	0.0125736
814.521	0.0125387
814.599	0.0125939
814.677	0.0124781
814.755	0.0123798
814.833	0.0123122
814.911	0.0123728
814.989	0.0123215
815.068	0.0123169
815.146	0.0123717
815.224	0.0123769
815.302	0.0121378
815.380	0.0122915
815.458	0.0124725
815.536	0.0122980
815.614	0.0121342
815.693	0.0123247
815.771	0.0123297
815.849	0.0121968
815.927	0.0122398
816.005	0.0124258
816.083	0.0122752
816.161	0.0123375
816.239	0.0123359
816.318	0.0124508
816.396	0.0123633
816.474	0.0122830
816.552	0.0124126
816.630	0.0125204
816.708	0.0126646
816.786	0.0126754
816.864	0.0125778
816.943	0.0126537
817.021	0.0126509
817.099	0.0127374
817.177	0.0128152
817.255	0.0127692
817.333	0.0127302
817.411	0.0127419
817.489	0.0129186
817.568	0.0130088
817.646	0.0129191
817.724	0.0129290
817.802	0.0130139
817.880	0.0129884
817.958	0.0130704
818.036	0.0129517
818.114	0.0130012
818.193	0.0131158
818.271	0.0129269
818.349	0.0130339
818.427	0.0130119
818.505	0.0129253
818.583	0.0130340
818.661	0.0129292
818.739	0.0129890
818.818	0.0130317
818.896	0.0129150
818.974	0.0130447
819.052	0.0129102
819.130	0.0129894
819.208	0.0128311
819.286	0.0128297
819.364	0.0128603
819.443	0.0128392
819.521	0.0126330
819.599	0.0127601
819.677	0.0127881
819.755	0.0127177
819.833	0.0127163
819.911	0.0126783
819.989	0.0125549
820.068	0.0125340
820.146	0.0125961
820.224	0.0124962
820.302	0.0124947
820.380	0.0126302
820.458	0.0123363
820.536	0.0123910
820.614	0.0126241
820.693	0.0125861
820.771	0.0124677
820.849	0.0125065
820.927	0.0124923
821.005	0.0125458
821.083	0.0125462
821.161	0.0125819
821.239	0.0126356
821.318	0.0124421
821.396	0.0124445
821.474	0.0124452
821.552	0.0126031
821.630	0.0125639
821.708	0.0125574
821.786	0.0126915
821.864	0.0126217
821.943	0.0125604
822.021	0.0125056
822.099	0.0124427
822.177	0.0125582
822.255	0.0125644
822.333	0.0125175
822.411	0.0126189
822.489	0.0125671
822.568	0.0126635
822.646	0.0123202
822.724	0.0123931
822.802	0.0124966
822.880	0.0125169
822.958	0.0124626
823.036	0.0123941
823.114	0.0125508
823.193	0.0125826
823.271	0.0125687
823.349	0.0124932
823.427	0.0126201
823.505	0.0126162
823.583	0.0126012
823.661	0.0126437
823.739	0.0129175
823.818	0.0127435
823.896	0.0128752
823.974	0.0127733
824.052	0.0128802
824.130	0.0128928
824.208	0.0129741
824.286	0.0129839
824.364	0.0129366
824.443	0.0129049
824.521	0.0130017
824.599	0.0129272
824.677	0.0129266
824.755	0.0129468
824.833	0.0130413
824.911	0.0129194
824.989	0.0128658
825.068	0.0127750
825.146	0.0129023
825.224	0.0128529
825.302	0.0127518
825.380	0.0127929
825.458	0.0127938
825.536	0.0128115
825.614	0.0128366
825.693	0.0127612
825.771	0.0128079
825.849	0.0126398
825.927	0.0126336
826.005	0.0125648
826.083	0.0126807
826.161	0.0124882
826.239	0.0124218
826.318	0.0126659
826.396	0.0125237
826.474	0.0123422
826.552	0.0124099
826.630	0.0125950
826.708	0.0124446
826.786	0.0124094
826.864	0.0125767
826.943	0.0123732
827.021	0.0123784
827.099	0.0123482
827.177	0.0124312
827.255	0.0123843
827.333	0.0123606
827.411	0.0123679
827.489	0.0124390
827.568	0.0123940
827.646	0.0123524
827.724	0.0123744
827.802	0.0124669
827.880	0.0124078
827.958	0.0124120
828.036	0.0123310
828.114	0.0123632
828.193	0.0124477
828.271	0.0125995
828.349	0.0123985
828.427	0.0124335
828.505	0.0124453
828.583	0.0124239
828.661	0.0124464
828.739	0.0124945
828.818	0.0125867
828.896	0.0125537
828.974	0.0124253
829.052	0.0125665
829.130	0.0125209
829.208	0.0126033
829.286	0.0124945
829.364	0.0125959
829.443	0.0127464
829.521	0.0126836
829.599	0.0128684
829.677	0.0127207
829.755	0.0128187
829.833	0.0128637
829.911	0.0129517
829.989	0.0129829
830.068	0.0128241
830.146	0.0126613
830.224	0.0128983
830.302	0.0127895
830.380	0.0127632
830.458	0.0128337
830.536	0.0127401
830.614	0.0127977
830.693	0.0129646
830.771	0.0125816
830.849	0.0128844
830.927	0.0128445
831.005	0.0127121
831.083	0.0126685
831.161	0.0128997
831.239	0.0127943
831.318	0.0126513
831.396	0.0125766
831.474	0.0126485
831.552	0.0126717
831.630	0.0126318
831.708	0.0125752
831.786	0.0125520
831.864	0.0126163
831.943	0.0125384
832.021	0.0126885
832.099	0.0126663
832.177	0.0125335
832.255	0.0126898
832.333	0.0125596
832.411	0.0126514
832.489	0.0126691
832.568	0.0124638
832.646	0.0123936
832.724	0.0124989
832.802	0.0123875
832.880	0.0123395
832.958	0.0125126
833.036	0.0123291
833.114	0.0124093
833.193	0.0122549
833.271	0.0123578
833.349	0.0123518
833.427	0.0124328
833.505	0.0123402
833.583	0.0121592
833.661	0.0123992
833.739	0.0124458
833.818	0.0123610
833.896	0.0123223
833.974	0.0124094
834.052	0.0123448
834.130	0.0123367
834.208	0.0123496
834.286	0.0123525
834.364	0.0123521
834.443	0.0124747
834.521	0.0124377
834.599	0.0124397
834.677	0.0125883
834.755	0.0126251
834.833	0.0125520
834.911	0.0125668
834.989	0.0126073
835.068	0.0126760
835.146	0.0126337
835.224	0.0126208
835.302	0.0127314
835.380	0.0127564
835.458	0.0126689
835.536	0.0127102
835.614	0.0127024
835.693	0.0126614
835.771	0.0126213
835.849	0.0127631
835.927	0.0126220
836.005	0.0126566
836.083	0.0126382
836.161	0.0126771
836.239	0.0126388
836.318	0.0127030
836.396	0.0126831
836.474	0.0127144
836.552	0.0127844
836.630	0.0126283
836.708	0.0126452
836.786	0.0127602
836.864	0.0127554
836.943	0.0127020
837.021	0.0126733
837.099	0.0127888
837.177	0.0127615
837.255	0.0126884
837.333	0.0127420
837.411	0.0128483
837.489	0.0129256
837.568	0.0127760
837.646	0.0127754
837.724	0.0127967
837.802	0.0127642
837.880	0.0127457
837.958	0.0128740
838.036	0.0129235
838.114	0.0128541
838.193	0.0129501
838.271	0.0128166
838.349	0.0128490
838.427	0.0126670
838.505	0.0127802
838.583	0.0126860
838.661	0.0126225
838.739	0.0126441
838.818	0.0126752
838.896	0.0127013
838.974	0.0127533
839.052	0.0125472
839.130	0.0124307
839.208	0.0124146
839.286	0.0123338
839.364	0.0122750
839.443	0.0124392
839.521	0.0123369
839.599	0.0124510
839.677	0.0122075
839.755	0.0121770
839.833	0.0123645
839.911	0.0122968
839.989	0.0122979
840.068	0.0121484
840.146	0.0122758
840.224	0.0124469
840.302	0.0122950
840.380	0.0123816
840.458	0.0122829
840.536	0.0124662
840.614	0.0125052
840.693	0.0125386
840.771	0.0125813
840.849	0.0126064
840.927	0.0126325
841.005	0.0124739
841.083	0.0125951
841.161	0.0126424
841.239	0.0126288
841.318	0.0125439
841.396	0.0126535
841.474	0.0125237
841.552	0.0125266
841.630	0.0126471
841.708	0.0126362
841.786	0.0125598
841.864	0.0125622
841.943	0.0125798
842.021	0.0125936
842.099	0.0124329
842.177	0.0126292
842.255	0.0126449
842.333	0.0126273
842.411	0.0125256
842.489	0.0126041
842.568	0.0127951
842.646	0.0127328
842.724	0.0126907
842.802	0.0126714
842.880	0.0127290
842.958	0.0127370
843.036	0.0127111
843.114	0.0125883
843.193	0.0127265
843.271	0.0127539
843.349	0.0127260
843.427	0.0126528
843.505	0.0126930
843.583	0.0127236
843.661	0.0126507
843.739	0.0127420
843.818	0.0125458
843.896	0.0126926
843.974	0.0125961
844.052	0.0125463
844.130	0.0125438
844.208	0.0126737
844.286	0.0125141
844.364	0.0125572
844.443	0.0125387
844.521	0.0126177
844.599	0.0123824
844.677	0.0123446
844.755	0.0125085
844.833	0.0123657
844.911	0.0123151
844.989	0.0123105
845.068	0.0124003
845.146	0.0123287
845.224	0.0121915
845.302	0.0123873
845.380	0.0122572
845.458	0.0124079
845.536	0.0124242
845.614	0.0124136
845.693	0.0125065
845.771	0.0124900
845.849	0.0125172
845.927	0.0123249
846.005	0.0124120
846.083	0.0124303
846.161	0.0123862
846.239	0.0124480
846.318	0.0125683
846.396	0.0125292
846.474	0.0125181
846.552	0.0124375
846.630	0.0124613
846.708	0.0124532
846.786	0.0125472
846.864	0.0124050
846.943	0.0124219
847.021	0.0124673
847.099	0.0123814
847.177	0.0125867
847.255	0.0124458
847.333	0.0124774
847.411	0.0124189
847.489	0.0124211
847.568	0.0125355
847.646	0.0124308
847.724	0.0124958
847.802	0.0125891
847.880	0.0125640
847.958	0.0125827
848.036	0.0125230
848.114	0.0125383
848.193	0.0126048
848.271	0.0127029
848.349	0.0127232
848.427	0.0127598
848.505	0.0127277
848.583	0.0129444
848.661	0.0129790
848.739	0.0130592
848.818	0.0129191
848.896	0.0127889
848.974	0.0130380
849.052	0.0130851
849.130	0.0131231
849.208	0.0130915
849.286	0.0129716
849.364	0.0129558
849.443	0.0132072
849.521	0.0130755
849.599	0.0129220
849.677	0.0129709
849.755	0.0129241
849.833	0.0130968
849.911	0.0129316
849.989	0.0128590
850.068	0.0127420
850.146	0.0126543
850.224	0.0127724
850.302	0.0127026
850.380	0.0125698
850.458	0.0126297
850.536	0.0125681
850.614	0.0125864
850.693	0.0123692
850.771	0.0122395
850.849	0.0124495
850.927	0.0125513
851.005	0.0125014
851.083	0.0125520
851.161	0.0124659
851.239	0.0124384
851.318	0.0122803
851.396	0.0123903
851.474	0.0124806
851.552	0.0125269
851.630	0.0123681
851.708	0.0124269
851.786	0.0125098
851.864	0.0124809
851.943	0.0124415
852.021	0.0123823
852.099	0.0123956
852.177	0.0124247
852.255	0.0124997
852.333	0.0123778
852.411	0.0124334
852.489	0.0125862
852.568	0.0124404
852.646	0.0125149
852.724	0.0124725
852.802	0.0124847
852.880	0.0125603
852.958	0.0126135
853.036	0.0125875
853.114	0.0126089
853.193	0.0125788
853.271	0.0125237
853.349	0.0125771
853.427	0.0127570
853.505	0.0126083
853.583	0.0126529
853.661	0.0127234
853.739	0.0128654
853.818	0.0127885
853.896	0.0129160
853.974	0.0128967
854.052	0.0127882
854.130	0.0128519
854.208	0.0128223
854.286	0.0128148
854.364	0.0128658
854.443	0.0128728
854.521	0.0128514
854.599	0.0128700
854.677	0.0128408
854.755	0.0128011
854.833	0.0126230
854.911	0.0126551
854.989	0.0127258
855.068	0.0127084
855.146	0.0125507
855.224	0.0125610
855.302	0.0127397
855.380	0.0125509
855.458	0.0124353
855.536	0.0126374
855.614	0.0124693
855.693	0.0125879
855.771	0.0125039
855.849	0.0125256
855.927	0.0124702
856.005	0.0124725
856.083	0.0125478
856.161	0.0125333
856.239	0.0125409
856.318	0.0127214
856.396	0.0125926
856.474	0.0126837
856.552	0.0127018
856.630	0.0124741
856.708	0.0125294
856.786	0.0125726
856.864	0.0125687
856.943	0.0125687
857.021	0.0126010
857.099	0.0125523
857.177	0.0126714
857.255	0.0127400
857.333	0.0128239
857.411	0.0127541
857.489	0.0125620
857.568	0.0128256
857.646	0.0127709
857.724	0.0127506
857.802	0.0127039
857.880	0.0126920
857.958	0.0127490
858.036	0.0128203
858.114	0.0127617
858.193	0.0126777
858.271	0.0127819
858.349	0.0127760
858.427	0.0126141
858.505	0.0127438
858.583	0.0126531
858.661	0.0127277
858.739	0.0127484
858.818	0.0127290
858.896	0.0125622
858.974	0.0125246
859.052	0.0125736
859.130	0.0125473
859.208	0.0125038
859.286	0.0125241
859.364	0.0125363
859.443	0.0125748
859.521	0.0125948
859.599	0.0124559
859.677	0.0125831
859.755	0.0125282
859.833	0.0127509
859.911	0.0127776
859.989	0.0126417
860.068	0.0125451
860.146	0.0127991
860.224	0.0127639
860.302	0.0126981
860.380	0.0127396
860.458	0.0127110
860.536	0.0128680
860.614	0.0127480
860.693	0.0127382
860.771	0.0127787
860.849	0.0126369
860.927	0.0126709
861.005	0.0126715
861.083	0.0126853
861.161	0.0126939
861.239	0.0125562
861.318	0.0126901
861.396	0.0126047
861.474	0.0127068
861.552	0.0125494
861.630	0.0126006
861.708	0.0126954
861.786	0.0126490
861.864	0.0126855
861.943	0.0126575
862.021	0.0127106
862.099	0.0126226
862.177	0.0126599
862.255	0.0126349
862.333	0.0127179
862.411	0.0125829
862.489	0.0127089
862.568	0.0127369
862.646	0.0125309
862.724	0.0125793
862.802	0.0126400
862.880	0.0125613
862.958	0.0126891
863.036	0.0124709
863.114	0.0124268
863.193	0.0125428
863.271	0.0124776
863.349	0.0124689
863.427	0.0124302
863.505	0.0124603
863.583	0.0124142
863.661	0.0123603
863.739	0.0123817
863.818	0.0123482
863.896	0.0123139
863.974	0.0124167
864.052	0.0123815
864.130	0.0122757
864.208	0.0123119
864.286	0.0124274
864.364	0.0123623
864.443	0.0123399
864.521	0.0123640
864.599	0.0124384
864.677	0.0124978
864.755	0.0124544
864.833	0.0126256
864.911	0.0125863
864.989	0.0125526
865.068	0.0127563
865.146	0.0127965
865.224	0.0127260
865.302	0.0128927
865.380	0.0128670
865.458	0.0128970
865.536	0.0129761
865.614	0.0129265
865.693	0.0128927
865.771	0.0129120
865.849	0.0129754
865.927	0.0129141
866.005	0.0128857
866.083	0.0128550
866.161	0.0127583
866.239	0.0128121
866.318	0.0127370
866.396	0.0126640
866.474	0.0126593
866.552	0.0127604
866.630	0.0126068
866.708	0.0126943
866.786	0.0126317
866.864	0.0125902
866.943	0.0124603
867.021	0.0126059
867.099	0.0126591
867.177	0.0124918
867.255	0.0126310
867.333	0.0126065
867.411	0.0126082
867.489	0.0124741
867.568	0.0125764
867.646	0.0125748
867.724	0.0126478
867.802	0.0126750
867.880	0.0126631
867.958	0.0126991
868.036	0.0127383
868.114	0.0125304
868.193	0.0124336
868.271	0.0126635
868.349	0.0126296
868.427	0.0125282
868.505	0.0126167
868.583	0.0126845
868.661	0.0123709
868.739	0.0124087
868.818	0.0125764
868.896	0.0124734
868.974	0.0123840
869.052	0.0124829
869.130	0.0125435
869.208	0.0122938
869.286	0.0123217
869.364	0.0124605
869.443	0.0124902
869.521	0.0125047
869.599	0.0126271
869.677	0.0125893
869.755	0.0126221
869.833	0.0126128
869.911	0.0126346
869.989	0.0126257
870.068	0.0127206
870.146	0.0127531
870.224	0.0126302
870.302	0.0126569
870.380	0.0128113
870.458	0.0127459
870.536	0.0127596
870.614	0.0128687
870.693	0.0126527
870.771	0.0126563
870.849	0.0126764
870.927	0.0126884
871.005	0.0125474
871.083	0.0125375
871.161	0.0126499
871.239	0.0124476
871.318	0.0125098
871.396	0.0124352
871.474	0.0124179
871.552	0.0123840
871.630	0.0124059
871.708	0.0123718
871.786	0.0122358
871.864	0.0123300
871.943	0.0123886
872.021	0.0122837
872.099	0.0122764
872.177	0.0121926
872.255	0.0124338
872.333	0.0122706
872.411	0.0122664
872.489	0.0123410
872.568	0.0124627
872.646	0.0125117
872.724	0.0125329
872.802	0.0124051
872.880	0.0126260
872.958	0.0126180
873.036	0.0126071
873.114	0.0125527
873.193	0.0125780
873.271	0.0128524
873.349	0.0127832
873.427	0.0126634
873.505	0.0127193
873.583	0.0128310
873.661	0.0128230
873.739	0.0128252
873.818	0.0128232
873.896	0.0128886
873.974	0.0128017
874.052	0.0126885
874.130	0.0126966
874.208	0.0127109
874.286	0.0127758
874.364	0.0127120
874.443	0.0127458
874.521	0.0126547
874.599	0.0126881
874.677	0.0125739
874.755	0.0126931
874.833	0.0124769
874.911	0.0125439
874.989	0.0126295
875.068	0.0126881
875.146	0.0125304
875.224	0.0126266
875.302	0.0125035
875.380	0.0124696
875.458	0.0124031
875.536	0.0126108
875.614	0.0126248
875.693	0.0125373
875.771	0.0126318
875.849	0.0126004
875.927	0.0125681
876.005	0.0125891
876.083	0.0126074
876.161	0.0126228
876.239	0.0127132
876.318	0.0126002
876.396	0.0126483
876.474	0.0125516
876.552	0.0124614
876.630	0.0124654
876.708	0.0125609
876.786	0.0125668
876.864	0.0125679
876.943	0.0125603
877.021	0.0125051
877.099	0.0127083
877.177	0.0125565
877.255	0.0126266
877.333	0.0125278
877.411	0.0127635
877.489	0.0125999
877.568	0.0126398
877.646	0.0127867
877.724	0.0127350
877.802	0.0127905
877.880	0.0127693
877.958	0.0127392
878.036	0.0126907
878.114	0.0126546
878.193	0.0127776
878.271	0.0127589
878.349	0.0127419
878.427	0.0128326
878.505	0.0128524
878.583	0.0128526
878.661	0.0126530
878.739	0.0128282
878.818	0.0128687
878.896	0.0128048
878.974	0.0127923
879.052	0.0126437
879.130	0.0127643
879.208	0.0127208
879.286	0.0125741
879.364	0.0126778
879.443	0.0127557
879.521	0.0126704
879.599	0.0126363
879.677	0.0125183
879.755	0.0125048
879.833	0.0124051
879.911	0.0125289
879.989	0.0125434
880.068	0.0124207
880.146	0.0124081
880.224	0.0123932
880.302	0.0126064
880.380	0.0124414
880.458	0.0124655
880.536	0.0125000
880.614	0.0123314
880.693	0.0125179
880.771	0.0125366
880.849	0.0126099
880.927	0.0126854
881.005	0.0126159
881.083	0.0126288
881.161	0.0126922
881.239	0.0127218
881.318	0.0127667
881.396	0.0127693
881.474	0.0127505
881.552	0.0128396
881.630	0.0128986
881.708	0.0128278
881.786	0.0128294
881.864	0.0128368
881.943	0.0127183
882.021	0.0127766
882.099	0.0127283
882.177	0.0126470
882.255	0.0126244
882.333	0.0127341
882.411	0.0126614
882.489	0.0127091
882.568	0.0126886
882.646	0.0125713
882.724	0.0125616
882.802	0.0125864
882.880	0.0125520
882.958	0.0125915
883.036	0.0127106
883.114	0.0125871
883.193	0.0125762
883.271	0.0125063
883.349	0.0124808
883.427	0.0124520
883.505	0.0127256
883.583	0.0127325
883.661	0.0126180
883.739	0.0127379
883.818	0.0126346
883.896	0.0127267
883.974	0.0126277
884.052	0.0127108
884.130	0.0127061
884.208	0.0126519
884.286	0.0127317
884.364	0.0128552
884.443	0.0128234
884.521	0.0128376
884.599	0.0128094
884.677	0.0127101
884.755	0.0127412
884.833	0.0127582
884.911	0.0127534
884.989	0.0126936
885.068	0.0126348
885.146	0.0127578
885.224	0.0125742
885.302	0.0125368
885.380	0.0126081
885.458	0.0126965
885.536	0.0125469
885.614	0.0124825
885.693	0.0124326
885.771	0.0124701
885.849	0.0125017
885.927	0.0124874
886.005	0.0124035
886.083	0.0125674
886.161	0.0124207
886.239	0.0125275
886.318	0.0124362
886.396	0.0124956
886.474	0.0123941
886.552	0.0124776
886.630	0.0125641
886.708	0.0124709
886.786	0.0123860
886.864	0.0123701
886.943	0.0124258
887.021	0.0125592
887.099	0.0124541
887.177	0.0125893
887.255	0.0123808
887.333	0.0124387
887.411	0.0124235
887.489	0.0125143
887.568	0.0124935
887.646	0.0123575
887.724	0.0123727
887.802	0.0123534
887.880	0.0123981
887.958	0.0127017
888.036	0.0124783
888.114	0.0124924
888.193	0.0125000
888.271	0.0125656
888.349	0.0125907
888.427	0.0126130
888.505	0.0123936
888.583	0.0125793
888.661	0.0126776
888.739	0.0126461
888.818	0.0127596
888.896	0.0126889
888.974	0.0128139
889.052	0.0127734
889.130	0.0128484
889.208	0.0127589
889.286	0.0125900
889.364	0.0128162
889.443	0.0127930
889.521	0.0127145
889.599	0.0127346
889.677	0.0125685
889.755	0.0126748
889.833	0.0128427
889.911	0.0128479
889.989	0.0126722
890.068	0.0127192
890.146	0.0127747
890.224	0.0126244
890.302	0.0126229
890.380	0.0125115
890.458	0.0126529
890.536	0.0126212
890.614	0.0126041
890.693	0.0128278
890.771	0.0127073
890.849	0.0125258
890.927	0.0126056
891.005	0.0125420
891.083	0.0126491
891.161	0.0126942
891.239	0.0125701
891.318	0.0126418
891.396	0.0126347
891.474	0.0124737
891.552	0.0124365
891.630	0.0125323
891.708	0.0124551
891.786	0.0124115
891.864	0.0124924
891.943	0.0123151
892.021	0.0123609
892.099	0.0123720
892.177	0.0124751
892.255	0.0125160
892.333	0.0124508
892.411	0.0123911
892.489	0.0124931
892.568	0.0123200
892.646	0.0124547
892.724	0.0125110
892.802	0.0124968
892.880	0.0125708
892.958	0.0126655
893.036	0.0126001
893.114	0.0124991
893.193	0.0126331
893.271	0.0125519
893.349	0.0126439
893.427	0.0126954
893.505	0.0128668
893.583	0.0128110
893.661	0.0126572
893.739	0.0127309
893.818	0.0128402
893.896	0.0127853
893.974	0.0126312
894.052	0.0126550
894.130	0.0127477
894.208	0.0127650
894.286	0.0129434
894.364	0.0128696
894.443	0.0128078
894.521	0.0128948
894.599	0.0128186
894.677	0.0128153
894.755	0.0128052
894.833	0.0128998
894.911	0.0128009
894.989	0.0127202
895.068	0.0126844
895.146	0.0127722
895.224	0.0127362
895.302	0.0127433
895.380	0.0126456
895.458	0.0127967
895.536	0.0126162
895.614	0.0126006
895.693	0.0126196
895.771	0.0126063
895.849	0.0124861
895.927	0.0125377
896.005	0.0125251
896.083	0.0125076
896.161	0.0123508
896.239	0.0124459
896.318	0.0124467
896.396	0.0126387
896.474	0.0126351
896.552	0.0124161
896.630	0.0123615
896.708	0.0125723
896.786	0.0125591
896.864	0.0126387
896.943	0.0125138
897.021	0.0124089
897.099	0.0124291
897.177	0.0125256
897.255	0.0126968
897.333	0.0123547
897.411	0.0124809
897.489	0.0125735
897.568	0.0124684
897.646	0.0125670
897.724	0.0126066
897.802	0.0125153
897.880	0.0126337
897.958	0.0125194
898.036	0.0125372
898.114	0.0125191
898.193	0.0124430
898.271	0.0125627
898.349	0.0125439
898.427	0.0125781
898.505	0.0125806
898.583	0.0125152
898.661	0.0125092
898.739	0.0125047
898.818	0.0124658
898.896	0.0125226
898.974	0.0124496
899.052	0.0124353
899.130	0.0126176
899.208	0.0124471
899.286	0.0124036
899.364	0.0124548
899.443	0.0123862
899.521	0.0125587
899.599	0.0126431
899.677	0.0124957
899.755	0.0125938
899.833	0.0124806
899.911	0.0125053
899.989	0.0125409
900.068	0.0124665
900.146	0.0124663
900.224	0.0124834
900.302	0.0126911
900.380	0.0126552
900.458	0.0126827
900.536	0.0127069
900.614	0.0126723
900.693	0.0127776
900.771	0.0126952
900.849	0.0127077
900.927	0.0125551
901.005	0.0125935
901.083	0.0127028
901.161	0.0126669
901.239	0.0127211
901.318	0.0127563
901.396	0.0125940
901.474	0.0126726
901.552	0.0126064
901.630	0.0125352
901.708	0.0124843
901.786	0.0124986
901.864	0.0126260
901.943	0.0125581
902.021	0.0125525
902.099	0.0125773
902.177	0.0125629
902.255	0.0125399
902.333	0.0124243
902.411	0.0125032
902.489	0.0125020
902.568	0.0124709
902.646	0.0124393
902.724	0.0125893
902.802	0.0127256
902.880	0.0124855
902.958	0.0124328
903.036	0.0126254
903.114	0.0126239
903.193	0.0126187
903.271	0.0126438
903.349	0.0126075
903.427	0.0124839
903.505	0.0125446
903.583	0.0124403
903.661	0.0125470
903.739	0.0125139
903.818	0.0125269
903.896	0.0124944
903.974	0.0126096
904.052	0.0126025
904.130	0.0125929
904.208	0.0125900
904.286	0.0125838
904.364	0.0124467
904.443	0.0125105
904.521	0.0126681
904.599	0.0126810
904.677	0.0126529
904.755	0.0125919
904.833	0.0124762
904.911	0.0125523
904.989	0.0126498
905.068	0.0127000
905.146	0.0127356
905.224	0.0126529
905.302	0.0126323
905.380	0.0127367
905.458	0.0127840
905.536	0.0126135
905.614	0.0124750
905.693	0.0126762
905.771	0.0126736
905.849	0.0126771
905.927	0.0128026
906.005	0.0127034
906.083	0.0127728
906.161	0.0127089
906.239	0.0126155
906.318	0.0126480
906.396	0.0126064
906.474	0.0124939
906.552	0.0126386
906.630	0.0127692
906.708	0.0125256
906.786	0.0125241
906.864	0.0125021
906.943	0.0126176
907.021	0.0124760
907.099	0.0125092
907.177	0.0124849
907.255	0.0123961
907.333	0.0124619
907.411	0.0125441
907.489	0.0125237
907.568	0.0126451
907.646	0.0125175
907.724	0.0123763
907.802	0.0124943
907.880	0.0125516
907.958	0.0125867
908.036	0.0126595
908.114	0.0126838
908.193	0.0125359
908.271	0.0126329
908.349	0.0126965
908.427	0.0124518
908.505	0.0124558
908.583	0.0128205
908.661	0.0125613
908.739	0.0125824
908.818	0.0126993
908.896	0.0125977
908.974	0.0124454
909.052	0.0125683
909.130	0.0124062
909.208	0.0124320
909.286	0.0124464
909.364	0.0124586
909.443	0.0124191
909.521	0.0124577
909.599	0.0125027
909.677	0.0125237
909.755	0.0123444
909.833	0.0125207
909.911	0.0124380
909.989	0.0126048
910.068	0.0126127
910.146	0.0124941
910.224	0.0123975
910.302	0.0124042
910.380	0.0125136
910.458	0.0125764
910.536	0.0123962
910.614	0.0124923
910.693	0.0126257
910.771	0.0125534
910.849	0.0125102
910.927	0.0127372
911.005	0.0126196
911.083	0.0125653
911.161	0.0125578
911.239	0.0127861
911.318	0.0126297
911.396	0.0126714
911.474	0.0126450
911.552	0.0125446
911.630	0.0127286
911.708	0.0125695
911.786	0.0125275
911.864	0.0126987
911.943	0.0127507
912.021	0.0127082
912.099	0.0127905
912.177	0.0128841
912.255	0.0127839
912.333	0.0127106
912.411	0.0127573
912.489	0.0127632
912.568	0.0128349
912.646	0.0127979
912.724	0.0128925
912.802	0.0127332
912.880	0.0127631
912.958	0.0127431
913.036	0.0127912
913.114	0.0128278
913.193	0.0126456
913.271	0.0128789
913.349	0.0127357
913.427	0.0127343
913.505	0.0127728
913.583	0.0127608
913.661	0.0126114
913.739	0.0129096
913.818	0.0125579
913.896	0.0126707
913.974	0.0126823
914.052	0.0126656
914.130	0.0124272
914.208	0.0124976
914.286	0.0125829
914.364	0.0126283
914.443	0.0125418
914.521	0.0124854
914.599	0.0124678
914.677	0.0123219
914.755	0.0124905
914.833	0.0123678
914.911	0.0125256
914.989	0.0125075
915.068	0.0124657
915.146	0.0124173
915.224	0.0123994
915.302	0.0124339
915.380	0.0126435
915.458	0.0124268
915.536	0.0124156
915.614	0.0124361
915.693	0.0124644
915.771	0.0123598
915.849	0.0125178
915.927	0.0125057
916.005	0.0124444
916.083	0.0124953
916.161	0.0124957
916.239	0.0126401
916.318	0.0125977
916.396	0.0125808
916.474	0.0124594
916.552	0.0125974
916.630	0.0126764
916.708	0.0125655
916.786	0.0126470
916.864	0.0125459
916.943	0.0125883
917.021	0.0128306
917.099	0.0126286
917.177	0.0125729
917.255	0.0126530
917.333	0.0126919
917.411	0.0128237
917.489	0.0127379
917.568	0.0127093
917.646	0.0125826
917.724	0.0127694
917.802	0.0126973
917.880	0.0126908
917.958	0.0128358
918.036	0.0128178
918.114	0.0127957
918.193	0.0128694
918.271	0.0126923
918.349	0.0128553
918.427	0.0127431
918.505	0.0127103
918.583	0.0126511
918.661	0.0126938
918.739	0.0126944
918.818	0.0126808
918.896	0.0127406
918.974	0.0126677
919.052	0.0123528
919.130	0.0125267
919.208	0.0125771
919.286	0.0126000
919.364	0.0125445
919.443	0.0125841
919.521	0.0125973
919.599	0.0124451
919.677	0.0125520
919.755	0.0125648
919.833	0.0124824
919.911	0.0125392
919.989	0.0124117
920.068	0.0124869
920.146	0.0123988
920.224	0.0124301
920.302	0.0125306
920.380	0.0125214
920.458	0.0123926
920.536	0.0125256
920.614	0.0124307
920.693	0.0124844
920.771	0.0124415
920.849	0.0124911
920.927	0.0125513
921.005	0.0125159
921.083	0.0125820
921.161	0.0125732
921.239	0.0125401
921.318	0.0125873
921.396	0.0126960
921.474	0.0126374
921.552	0.0125616
921.630	0.0125008
921.708	0.0125762
921.786	0.0125831
921.864	0.0125318
921.943	0.0125776
922.021	0.0125443
922.099	0.0125867
922.177	0.0126263
922.255	0.0126395
922.333	0.0125985
922.411	0.0125442
922.489	0.0125337
922.568	0.0125706
922.646	0.0126285
922.724	0.0126025
922.802	0.0125694
922.880	0.0125925
922.958	0.0126616
923.036	0.0127206
923.114	0.0126804
923.193	0.0126968
923.271	0.0126555
923.349	0.0126521
923.427	0.0126304
923.505	0.0125422
923.583	0.0125667
923.661	0.0125952
923.739	0.0125202
923.818	0.0126150
923.896	0.0125902
923.974	0.0124992
924.052	0.0126246
924.130	0.0126447
924.208	0.0126021
924.286	0.0126076
924.364	0.0124998
924.443	0.0125675
924.521	0.0125652
924.599	0.0125452
924.677	0.0124302
924.755	0.0126142
924.833	0.0124516
924.911	0.0126407
924.989	0.0127509
925.068	0.0125954
925.146	0.0125151
925.224	0.0125603
925.302	0.0124454
925.380	0.0126648
925.458	0.0127104
925.536	0.0127634
925.614	0.0126215
925.693	0.0125135
925.771	0.0125474
925.849	0.0127180
925.927	0.0125948
926.005	0.0124862
926.083	0.0125212
926.161	0.0124950
926.239	0.0125510
926.318	0.0126129
926.396	0.0125200
926.474	0.0125458
926.552	0.0124984
926.630	0.0125845
926.708	0.0125810
926.786	0.0124912
926.864	0.0122898
926.943	0.0124514
927.021	0.0124492
927.099	0.0125124
927.177	0.0124459
927.255	0.0124407
927.333	0.0124734
927.411	0.0124316
927.489	0.0123048
927.568	0.0122763
927.646	0.0124649
927.724	0.0124720
927.802	0.0124336
927.880	0.0124487
927.958	0.0125469
928.036	0.0124841
928.114	0.0125883
928.193	0.0125076
928.271	0.0125689
928.349	0.0125842
928.427	0.0127299
928.505	0.0125883
928.583	0.0125592
928.661	0.0126363
928.739	0.0127833
928.818	0.0126829
928.896	0.0127064
928.974	0.0125841
929.052	0.0127856
929.130	0.0128111
929.208	0.0128143
929.286	0.0126805
929.364	0.0127634
929.443	0.0127081
929.521	0.0126633
929.599	0.0126563
929.677	0.0125949
929.755	0.0127144
929.833	0.0126746
929.911	0.0126050
929.989	0.0127093
930.068	0.0126699
930.146	0.0126991
930.224	0.0126047
930.302	0.0125984
930.380	0.0124907
930.458	0.0125629
930.536	0.0126367
930.614	0.0125678
930.693	0.0125430
930.771	0.0125439
930.849	0.0126193
930.927	0.0126128
931.005	0.0125777
931.083	0.0126933
931.161	0.0125018
931.239	0.0125930
931.318	0.0125155
931.396	0.0125932
931.474	0.0126021
931.552	0.0125745
931.630	0.0124589
931.708	0.0125880
931.786	0.0126639
931.864	0.0126081
931.943	0.0124954
932.021	0.0126726
932.099	0.0126558
932.177	0.0126167
932.255	0.0126598
932.333	0.0125075
932.411	0.0124603
932.489	0.0125054
932.568	0.0125441
932.646	0.0124769
932.724	0.0123737
932.802	0.0124844
932.880	0.0125538
932.958	0.0125108
933.036	0.0124487
933.114	0.0124304
933.193	0.0123882
933.271	0.0125233
933.349	0.0125464
933.427	0.0125674
933.505	0.0124947
933.583	0.0125234
933.661	0.0125040
933.739	0.0125147
933.818	0.0125922
933.896	0.0126276
933.974	0.0126188
934.052	0.0124861
934.130	0.0125829
934.208	0.0126182
934.286	0.0126659
934.364	0.0124841
934.443	0.0126450
934.521	0.0126307
934.599	0.0126456
934.677	0.0126299
934.755	0.0126047
934.833	0.0127243
934.911	0.0126901
934.989	0.0126450
935.068	0.0127240
935.146	0.0127235
935.224	0.0126607
935.302	0.0127278
935.380	0.0126579
935.458	0.0127542
935.536	0.0127376
935.614	0.0126404
935.693	0.0127772
935.771	0.0128448
935.849	0.0127528
935.927	0.0127310
936.005	0.0128596
936.083	0.0128830
936.161	0.0128682
936.239	0.0126890
936.318	0.0126949
936.396	0.0128652
936.474	0.0128014
936.552	0.0128697
936.630	0.0127454
936.708	0.0127874
936.786	0.0125782
936.864	0.0126987
936.943	0.0126668
937.021	0.0126143
937.099	0.0127692
937.177	0.0124441
937.255	0.0126071
937.333	0.0127608
937.411	0.0124923
937.489	0.0126226
937.568	0.0126501
937.646	0.0125816
937.724	0.0126107
937.802	0.0126328
937.880	0.0124553
937.958	0.0125060
938.036	0.0124744
938.114	0.0126019
938.193	0.0126183
938.271	0.0123776
938.349	0.0124916
938.427	0.0124607
938.505	0.0124971
938.583	0.0124197
938.661	0.0123743
938.739	0.0123277
938.818	0.0124112
938.896	0.0124657
938.974	0.0124118
939.052	0.0124562
939.130	0.0123508
939.208	0.0122581
939.286	0.0123429
939.364	0.0125458
939.443	0.0124298
939.521	0.0124075
939.599	0.0124981
939.677	0.0124703
939.755	0.0124296
939.833	0.0125407
939.911	0.0124223
939.989	0.0124689
940.068	0.0124264
940.146	0.0125175
940.224	0.0125497
940.302	0.0124268
940.380	0.0126006
940.458	0.0126576
940.536	0.0125330
940.614	0.0124760
940.693	0.0125430
940.771	0.0126381
940.849	0.0126572
940.927	0.0126485
941.005	0.0126619
941.083	0.0127436
941.161	0.0127401
941.239	0.0126327
941.318	0.0126196
941.396	0.0126151
941.474	0.0126878
941.552	0.0125919
941.630	0.0127555
941.708	0.0127271
941.786	0.0126600
941.864	0.0126109
941.943	0.0126559
942.021	0.0127436
942.099	0.0127161
942.177	0.0126255
942.255	0.0125884
942.333	0.0126146
942.411	0.0125788
942.489	0.0127267
942.568	0.0127341
942.646	0.0126037
942.724	0.0126572
942.802	0.0126653
942.880	0.0126776
942.958	0.0127834
943.036	0.0127997
943.114	0.0126809
943.193	0.0126811
943.271	0.0125803
943.349	0.0126634
943.427	0.0126423
943.505	0.0127181
943.583	0.0125604
943.661	0.0125552
943.739	0.0125322
943.818	0.0126368
943.896	0.0123814
943.974	0.0124532
944.052	0.0126260
944.130	0.0124909
944.208	0.0124942
944.286	0.0124986
944.364	0.0124870
944.443	0.0125483
944.521	0.0124544
944.599	0.0124622
944.677	0.0125016
944.755	0.0124904
944.833	0.0125005
944.911	0.0125720
944.989	0.0126981
945.068	0.0125460
945.146	0.0125819
945.224	0.0125363
945.302	0.0127100
945.380	0.0127273
945.458	0.0128546
945.536	0.0126421
945.614	0.0127038
945.693	0.0127779
945.771	0.0127519
945.849	0.0127496
945.927	0.0127982
946.005	0.0127817
946.083	0.0128442
946.161	0.0127818
946.239	0.0127322
946.318	0.0127061
946.396	0.0127388
946.474	0.0126884
946.552	0.0128429
946.630	0.0128045
946.708	0.0126929
946.786	0.0126254
946.864	0.0127026
946.943	0.0127348
947.021	0.0127306
947.099	0.0127062
947.177	0.0126167
947.255	0.0125892
947.333	0.0127254
947.411	0.0126865
947.489	0.0127112
947.568	0.0126612
947.646	0.0126323
947.724	0.0125240
947.802	0.0125915
947.880	0.0126171
947.958	0.0125882
948.036	0.0126664
948.114	0.0126984
948.193	0.0126211
948.271	0.0127224
948.349	0.0127536
948.427	0.0126248
948.505	0.0125922
948.583	0.0126134
948.661	0.0126207
948.739	0.0126465
948.818	0.0126839
948.896	0.0127328
948.974	0.0126915
949.052	0.0126167
949.130	0.0127015
949.208	0.0126866
949.286	0.0126886
949.364	0.0126897
949.443	0.0126614
949.521	0.0126873
949.599	0.0128271
949.677	0.0126611
949.755	0.0125449
949.833	0.0126096
949.911	0.0127324
949.989	0.0125948
950.068	0.0124596
950.146	0.0126125
950.224	0.0125259
950.302	0.0126995
950.380	0.0125884
950.458	0.0125417
950.536	0.0127232
950.614	0.0126852
950.693	0.0125324
950.771	0.0125999
950.849	0.0126215
950.927	0.0126936
951.005	0.0124688
951.083	0.0125678
951.161	0.0126212
951.239	0.0127232
951.318	0.0126579
951.396	0.0125333
951.474	0.0126022
951.552	0.0126079
951.630	0.0126611
951.708	0.0125710
951.786	0.0125659
951.864	0.0126115
951.943	0.0125928
952.021	0.0126271
952.099	0.0125681
952.177	0.0126086
952.255	0.0127147
952.333	0.0127348
952.411	0.0125938
952.489	0.0125567
952.568	0.0125974
952.646	0.0127060
952.724	0.0126161
952.802	0.0126501
952.880	0.0127871
952.958	0.0127237
953.036	0.0125020
953.114	0.0126238
953.193	0.0126048
953.271	0.0126075
953.349	0.0126474
953.427	0.0127969
953.505	0.0127839
953.583	0.0128578
953.661	0.0128999
953.739	0.0128652
953.818	0.0128917
953.896	0.0128969
953.974	0.0127998
954.052	0.0128919
954.130	0.0128925
954.208	0.0127947
954.286	0.0128588
954.364	0.0129102
954.443	0.0127988
954.521	0.0128177
954.599	0.0127625
954.677	0.0129117
954.755	0.0127687
954.833	0.0129205
954.911	0.0127811
954.989	0.0126797
955.068	0.0127802
955.146	0.0128165
955.224	0.0127059
955.302	0.0127116
955.380	0.0126592
955.458	0.0127521
955.536	0.0126276
955.614	0.0126929
955.693	0.0126412
955.771	0.0126386
955.849	0.0124905
955.927	0.0126021
956.005	0.0125957
956.083	0.0125780
956.161	0.0125260
956.239	0.0124305
956.318	0.0125453
956.396	0.0125771
956.474	0.0124484
956.552	0.0124290
956.630	0.0124844
956.708	0.0124163
956.786	0.0125333
956.864	0.0124687
956.943	0.0125494
957.021	0.0125089
957.099	0.0124638
957.177	0.0124480
957.255	0.0124827
957.333	0.0125126
957.411	0.0126215
957.489	0.0125459
957.568	0.0124886
957.646	0.0124354
957.724	0.0124802
957.802	0.0123432
957.880	0.0124913
957.958	0.0125718
958.036	0.0125827
958.114	0.0124855
958.193	0.0125699
958.271	0.0125867
958.349	0.0126321
958.427	0.0124940
958.505	0.0125837
958.583	0.0125441
958.661	0.0124574
958.739	0.0126167
958.818	0.0125710
958.896	0.0124689
958.974	0.0127136
959.052	0.0126936
959.130	0.0126453
959.208	0.0126022
959.286	0.0126813
959.364	0.0126855
959.443	0.0125948
959.521	0.0126370
959.599	0.0126551
959.677	0.0126716
959.755	0.0126990
959.833	0.0125764
959.911	0.0125793
