06/29/2022	21:23:39	Ver.	4.1	UNKNOWN
Optical Delay	629.995835	Delta X		0.078125	Sweeps	1	Scan Rate	0/0
Coordinates	Axis 1	NaN	Axis 2	NaN	Axis 3	NaN	Axis 4	NaN	Axis 5	NaN	Axis 6	0.000000
TX Power	0.000000	RX Power	0.000000

629.996	0.0157922
630.074	0.0158068
630.152	0.0155634
630.230	0.0157766
630.308	0.0158146
630.386	0.0158477
630.465	0.0159076
630.543	0.0158751
630.621	0.0157144
630.699	0.0157639
630.777	0.0157079
630.855	0.0157335
630.933	0.0157768
631.011	0.0156162
631.090	0.0157450
631.168	0.0157538
631.246	0.0158574
631.324	0.0156996
631.402	0.0158173
631.480	0.0158508
631.558	0.0159432
631.636	0.0157591
631.715	0.0157994
631.793	0.0157144
631.871	0.0157893
631.949	0.0158071
632.027	0.0157452
632.105	0.0158353
632.183	0.0158318
632.261	0.0156960
632.340	0.0157735
632.418	0.0156893
632.496	0.0156424
632.574	0.0157386
632.652	0.0157794
632.730	0.0158380
632.808	0.0157156
632.886	0.0158527
632.965	0.0158524
633.043	0.0157870
633.121	0.0158094
633.199	0.0158282
633.277	0.0157861
633.355	0.0158043
633.433	0.0158458
633.511	0.0158301
633.590	0.0157888
633.668	0.0159194
633.746	0.0159520
633.824	0.0158185
633.902	0.0158163
633.980	0.0157623
634.058	0.0156345
634.136	0.0156577
634.215	0.0157440
634.293	0.0157577
634.371	0.0156400
634.449	0.0158372
634.527	0.0158387
634.605	0.0158662
634.683	0.0157651
634.761	0.0157741
634.840	0.0159560
634.918	0.0157526
634.996	0.0157381
635.074	0.0158321
635.152	0.0158583
635.230	0.0157317
635.308	0.0157313
635.386	0.0159366
635.465	0.0158182
635.543	0.0158316
635.621	0.0158932
635.699	0.0156610
635.777	0.0156059
635.855	0.0158140
635.933	0.0159300
636.011	0.0158845
636.090	0.0157854
636.168	0.0157902
636.246	0.0157799
636.324	0.0159277
636.402	0.0159079
636.480	0.0158312
636.558	0.0157423
636.636	0.0157462
636.715	0.0158311
636.793	0.0157365
636.871	0.0158266
636.949	0.0158054
637.027	0.0157691
637.105	0.0158371
637.183	0.0157841
637.261	0.0159121
637.340	0.0157761
637.418	0.0158110
637.496	0.0158042
637.574	0.0158799
637.652	0.0160412
637.730	0.0158748
637.808	0.0158131
637.886	0.0158320
637.965	0.0159046
638.043	0.0158773
638.121	0.0158628
638.199	0.0158803
638.277	0.0158894
638.355	0.0158894
638.433	0.0158151
638.511	0.0158301
638.590	0.0158518
638.668	0.0158573
638.746	0.0158072
638.824	0.0159231
638.902	0.0159753
638.980	0.0158449
639.058	0.0158457
639.136	0.0158309
639.215	0.0158305
639.293	0.0158620
639.371	0.0158034
639.449	0.0157756
639.527	0.0159319
639.605	0.0157426
639.683	0.0158321
639.761	0.0157471
639.840	0.0157652
639.918	0.0158575
639.996	0.0157247
640.074	0.0159283
640.152	0.0158147
640.230	0.0158213
640.308	0.0157895
640.386	0.0158141
640.465	0.0158537
640.543	0.0157729
640.621	0.0158332
640.699	0.0158319
640.777	0.0158441
640.855	0.0158298
640.933	0.0157614
641.011	0.0159295
641.090	0.0158538
641.168	0.0158720
641.246	0.0157722
641.324	0.0157764
641.402	0.0158729
641.480	0.0159319
641.558	0.0157957
641.636	0.0157720
641.715	0.0157166
641.793	0.0158861
641.871	0.0157419
641.949	0.0157115
642.027	0.0157534
642.105	0.0157904
642.183	0.0158167
642.261	0.0157813
642.340	0.0158664
642.418	0.0157912
642.496	0.0157529
642.574	0.0157417
642.652	0.0156950
642.730	0.0157050
642.808	0.0157859
642.886	0.0157603
642.965	0.0158756
643.043	0.0159071
643.121	0.0157686
643.199	0.0157610
643.277	0.0157066
643.355	0.0157198
643.433	0.0157183
643.511	0.0157807
643.590	0.0157891
643.668	0.0157434
643.746	0.0158084
643.824	0.0158981
643.902	0.0157708
643.980	0.0157054
644.058	0.0158542
644.136	0.0159586
644.215	0.0158065
644.293	0.0156747
644.371	0.0159109
644.449	0.0158753
644.527	0.0156932
644.605	0.0157617
644.683	0.0158652
644.761	0.0157672
644.840	0.0158284
644.918	0.0157354
644.996	0.0157003
645.074	0.0156982
645.152	0.0156778
645.230	0.0156758
645.308	0.0158313
645.386	0.0158302
645.465	0.0157318
645.543	0.0158427
645.621	0.0159058
645.699	0.0157777
645.777	0.0157094
645.855	0.0157382
645.933	0.0157608
646.011	0.0158255
646.090	0.0157996
646.168	0.0159435
646.246	0.0156987
646.324	0.0157181
646.402	0.0157124
646.480	0.0158462
646.558	0.0158393
646.636	0.0156885
646.715	0.0157524
646.793	0.0157604
646.871	0.0158187
646.949	0.0157350
647.027	0.0157785
647.105	0.0157001
647.183	0.0157603
647.261	0.0158376
647.340	0.0158683
647.418	0.0158311
647.496	0.0157693
647.574	0.0158124
647.652	0.0157512
647.730	0.0157538
647.808	0.0158436
647.886	0.0157951
647.965	0.0157500
648.043	0.0157291
648.121	0.0158076
648.199	0.0159094
648.277	0.0156974
648.355	0.0156917
648.433	0.0157714
648.511	0.0160063
648.590	0.0158346
648.668	0.0158594
648.746	0.0157639
648.824	0.0158137
648.902	0.0157230
648.980	0.0158974
649.058	0.0158995
649.136	0.0157434
649.215	0.0157346
649.293	0.0158135
649.371	0.0158069
649.449	0.0158112
649.527	0.0158460
649.605	0.0157236
649.683	0.0157909
649.761	0.0158550
649.840	0.0158366
649.918	0.0157434
649.996	0.0157632
650.074	0.0158749
650.152	0.0157329
650.230	0.0157364
650.308	0.0158586
650.386	0.0158556
650.465	0.0159161
650.543	0.0158962
650.621	0.0157878
650.699	0.0159756
650.777	0.0158184
650.855	0.0157846
650.933	0.0158189
651.011	0.0157941
651.090	0.0158672
651.168	0.0157401
651.246	0.0156166
651.324	0.0159232
651.402	0.0158191
651.480	0.0158258
651.558	0.0158381
651.636	0.0157921
651.715	0.0158150
651.793	0.0158290
651.871	0.0158366
651.949	0.0158904
652.027	0.0156641
652.105	0.0158447
652.183	0.0160662
652.261	0.0159150
652.340	0.0157327
652.418	0.0157970
652.496	0.0159150
652.574	0.0157282
652.652	0.0158609
652.730	0.0159075
652.808	0.0159138
652.886	0.0157300
652.965	0.0157838
653.043	0.0158382
653.121	0.0159074
653.199	0.0158170
653.277	0.0158230
653.355	0.0159158
653.433	0.0157416
653.511	0.0157186
653.590	0.0156963
653.668	0.0158032
653.746	0.0157335
653.824	0.0157510
653.902	0.0157648
653.980	0.0157950
654.058	0.0157590
654.136	0.0156695
654.215	0.0158165
654.293	0.0158688
654.371	0.0157825
654.449	0.0158752
654.527	0.0158273
654.605	0.0158489
654.683	0.0158348
654.761	0.0158227
654.840	0.0158063
654.918	0.0157240
654.996	0.0158609
655.074	0.0157619
655.152	0.0158133
655.230	0.0157639
655.308	0.0157934
655.386	0.0158299
655.465	0.0157758
655.543	0.0158068
655.621	0.0157005
655.699	0.0158573
655.777	0.0158904
655.855	0.0157592
655.933	0.0159126
656.011	0.0158472
656.090	0.0157403
656.168	0.0157788
656.246	0.0158027
656.324	0.0157687
656.402	0.0157774
656.480	0.0156465
656.558	0.0157953
656.636	0.0157611
656.715	0.0158708
656.793	0.0159085
656.871	0.0157965
656.949	0.0158142
657.027	0.0157796
657.105	0.0157130
657.183	0.0158137
657.261	0.0158365
657.340	0.0157763
657.418	0.0158557
657.496	0.0158044
657.574	0.0157877
657.652	0.0157839
657.730	0.0158720
657.808	0.0157999
657.886	0.0158408
657.965	0.0158301
658.043	0.0158897
658.121	0.0157466
658.199	0.0158524
658.277	0.0158916
658.355	0.0157354
658.433	0.0157372
658.511	0.0158001
658.590	0.0159251
658.668	0.0158321
658.746	0.0159888
658.824	0.0159907
658.902	0.0157364
658.980	0.0157307
659.058	0.0159053
659.136	0.0158472
659.215	0.0158010
659.293	0.0157819
659.371	0.0157952
659.449	0.0157632
659.527	0.0157936
659.605	0.0157793
659.683	0.0157313
659.761	0.0157630
659.840	0.0158396
659.918	0.0159738
659.996	0.0158183
660.074	0.0157561
660.152	0.0159023
660.230	0.0157838
660.308	0.0159068
660.386	0.0158237
660.465	0.0156931
660.543	0.0157500
660.621	0.0158204
660.699	0.0157858
660.777	0.0157417
660.855	0.0158924
660.933	0.0158275
661.011	0.0157066
661.090	0.0157795
661.168	0.0158587
661.246	0.0157403
661.324	0.0157458
661.402	0.0157863
661.480	0.0157989
661.558	0.0158262
661.636	0.0158794
661.715	0.0158498
661.793	0.0157332
661.871	0.0158361
661.949	0.0157304
662.027	0.0156856
662.105	0.0155876
662.183	0.0157876
662.261	0.0158986
662.340	0.0158697
662.418	0.0157398
662.496	0.0157278
662.574	0.0157462
662.652	0.0158500
662.730	0.0157341
662.808	0.0157875
662.886	0.0157722
662.965	0.0157883
663.043	0.0158723
663.121	0.0157983
663.199	0.0158638
663.277	0.0157928
663.355	0.0156681
663.433	0.0158923
663.511	0.0157371
663.590	0.0157774
663.668	0.0158988
663.746	0.0158787
663.824	0.0157484
663.902	0.0158009
663.980	0.0158285
664.058	0.0158331
664.136	0.0157813
664.215	0.0156929
664.293	0.0157943
664.371	0.0158234
664.449	0.0157672
664.527	0.0158089
664.605	0.0157841
664.683	0.0157531
664.761	0.0157198
664.840	0.0159051
664.918	0.0157205
664.996	0.0158868
665.074	0.0156591
665.152	0.0158513
665.230	0.0158492
665.308	0.0158567
665.386	0.0157312
665.465	0.0157516
665.543	0.0159100
665.621	0.0159190
665.699	0.0157110
665.777	0.0157436
665.855	0.0158287
665.933	0.0157681
666.011	0.0158253
666.090	0.0159057
666.168	0.0158498
666.246	0.0157644
666.324	0.0157755
666.402	0.0158205
666.480	0.0157069
666.558	0.0158727
666.636	0.0159005
666.715	0.0158592
666.793	0.0157870
666.871	0.0158252
666.949	0.0157338
667.027	0.0159217
667.105	0.0158733
667.183	0.0159443
667.261	0.0157825
667.340	0.0157999
667.418	0.0157944
667.496	0.0157752
667.574	0.0157703
667.652	0.0158029
667.730	0.0157310
667.808	0.0158731
667.886	0.0158290
667.965	0.0157648
668.043	0.0158881
668.121	0.0158768
668.199	0.0157493
668.277	0.0156461
668.355	0.0158797
668.433	0.0158037
668.511	0.0158232
668.590	0.0157122
668.668	0.0157877
668.746	0.0157733
668.824	0.0158599
668.902	0.0158485
668.980	0.0158491
669.058	0.0157112
669.136	0.0157671
669.215	0.0157458
669.293	0.0156200
669.371	0.0156742
669.449	0.0157533
669.527	0.0158904
669.605	0.0157856
669.683	0.0157272
669.761	0.0158818
669.840	0.0159218
669.918	0.0159409
669.996	0.0158169
670.074	0.0157600
670.152	0.0158944
670.230	0.0159538
670.308	0.0156479
670.386	0.0156699
670.465	0.0157896
670.543	0.0156991
670.621	0.0157782
670.699	0.0157735
670.777	0.0157919
670.855	0.0158450
670.933	0.0157704
671.011	0.0158055
671.090	0.0158453
671.168	0.0159544
671.246	0.0159628
671.324	0.0158838
671.402	0.0158311
671.480	0.0157400
671.558	0.0157935
671.636	0.0158406
671.715	0.0159409
671.793	0.0158996
671.871	0.0158887
671.949	0.0158031
672.027	0.0158196
672.105	0.0157940
672.183	0.0158295
672.261	0.0158543
672.340	0.0156366
672.418	0.0158105
672.496	0.0159081
672.574	0.0157932
672.652	0.0159774
672.730	0.0158656
672.808	0.0159442
672.886	0.0157563
672.965	0.0158193
673.043	0.0158920
673.121	0.0158320
673.199	0.0158759
673.277	0.0157819
673.355	0.0158272
673.433	0.0158319
673.511	0.0157175
673.590	0.0158447
673.668	0.0157972
673.746	0.0159305
673.824	0.0156865
673.902	0.0157327
673.980	0.0158072
674.058	0.0157594
674.136	0.0157331
674.215	0.0156606
674.293	0.0156842
674.371	0.0156770
674.449	0.0156559
674.527	0.0157767
674.605	0.0157278
674.683	0.0156925
674.761	0.0157056
674.840	0.0157893
674.918	0.0158695
674.996	0.0158461
675.074	0.0158380
675.152	0.0158669
675.230	0.0160393
675.308	0.0158231
675.386	0.0158580
675.465	0.0158662
675.543	0.0158715
675.621	0.0157911
675.699	0.0158524
675.777	0.0158396
675.855	0.0158053
675.933	0.0157639
676.011	0.0157677
676.090	0.0158624
676.168	0.0159077
676.246	0.0158972
676.324	0.0158814
676.402	0.0158139
676.480	0.0158472
676.558	0.0158675
676.636	0.0158854
676.715	0.0158834
676.793	0.0159892
676.871	0.0159409
676.949	0.0157986
677.027	0.0158353
677.105	0.0158425
677.183	0.0158271
677.261	0.0157784
677.340	0.0157874
677.418	0.0158273
677.496	0.0157419
677.574	0.0157992
677.652	0.0158465
677.730	0.0158576
677.808	0.0157565
677.886	0.0157402
677.965	0.0157166
678.043	0.0157423
678.121	0.0158843
678.199	0.0157735
678.277	0.0159529
678.355	0.0158983
678.433	0.0157673
678.511	0.0157813
678.590	0.0157728
678.668	0.0158466
678.746	0.0158447
678.824	0.0158806
678.902	0.0157178
678.980	0.0157171
679.058	0.0157467
679.136	0.0158708
679.215	0.0156861
679.293	0.0157295
679.371	0.0158226
679.449	0.0156749
679.527	0.0158422
679.605	0.0159604
679.683	0.0158790
679.761	0.0158653
679.840	0.0158527
679.918	0.0156686
679.996	0.0157944
680.074	0.0158471
680.152	0.0156757
680.230	0.0156446
680.308	0.0158018
680.386	0.0156493
680.465	0.0158056
680.543	0.0158721
680.621	0.0158130
680.699	0.0157140
680.777	0.0157922
680.855	0.0160207
680.933	0.0158220
681.011	0.0157858
681.090	0.0158393
681.168	0.0158624
681.246	0.0158711
681.324	0.0159090
681.402	0.0157175
681.480	0.0158209
681.558	0.0157845
681.636	0.0159078
681.715	0.0159015
681.793	0.0156602
681.871	0.0156594
681.949	0.0158230
682.027	0.0157816
682.105	0.0156596
682.183	0.0158722
682.261	0.0158863
682.340	0.0158493
682.418	0.0158414
682.496	0.0156863
682.574	0.0157438
682.652	0.0156518
682.730	0.0157639
682.808	0.0157917
682.886	0.0157362
682.965	0.0156314
683.043	0.0156465
683.121	0.0156572
683.199	0.0157342
683.277	0.0158549
683.355	0.0158336
683.433	0.0157870
683.511	0.0157751
683.590	0.0159097
683.668	0.0159646
683.746	0.0159057
683.824	0.0158865
683.902	0.0158476
683.980	0.0159691
684.058	0.0158221
684.136	0.0158838
684.215	0.0156796
684.293	0.0157249
684.371	0.0156616
684.449	0.0156802
684.527	0.0155908
684.605	0.0155418
684.683	0.0155703
684.761	0.0158268
684.840	0.0158240
684.918	0.0157752
684.996	0.0159077
685.074	0.0158741
685.152	0.0158684
685.230	0.0159393
685.308	0.0159211
685.386	0.0158356
685.465	0.0158124
685.543	0.0158849
685.621	0.0159208
685.699	0.0158548
685.777	0.0157305
685.855	0.0157964
685.933	0.0157396
686.011	0.0158241
686.090	0.0157135
686.168	0.0159386
686.246	0.0157766
686.324	0.0157515
686.402	0.0157468
686.480	0.0157292
686.558	0.0157163
686.636	0.0159546
686.715	0.0158881
686.793	0.0158627
686.871	0.0157774
686.949	0.0157623
687.027	0.0158295
687.105	0.0158720
687.183	0.0158622
687.261	0.0158453
687.340	0.0157874
687.418	0.0157761
687.496	0.0160619
687.574	0.0159112
687.652	0.0157916
687.730	0.0157258
687.808	0.0158756
687.886	0.0157642
687.965	0.0159415
688.043	0.0157742
688.121	0.0158025
688.199	0.0156924
688.277	0.0157406
688.355	0.0157616
688.433	0.0156994
688.511	0.0157158
688.590	0.0157597
688.668	0.0158665
688.746	0.0158269
688.824	0.0157334
688.902	0.0158673
688.980	0.0158131
689.058	0.0158837
689.136	0.0158270
689.215	0.0158981
689.293	0.0158128
689.371	0.0156515
689.449	0.0157362
689.527	0.0157816
689.605	0.0156212
689.683	0.0156889
689.761	0.0156789
689.840	0.0157597
689.918	0.0159165
689.996	0.0158325
690.074	0.0158627
690.152	0.0159337
690.230	0.0158723
690.308	0.0159044
690.386	0.0157853
690.465	0.0158908
690.543	0.0158639
690.621	0.0157417
690.699	0.0156850
690.777	0.0156476
690.855	0.0156606
690.933	0.0155781
691.011	0.0156647
691.090	0.0158341
691.168	0.0156692
691.246	0.0158295
691.324	0.0158951
691.402	0.0159679
691.480	0.0159818
691.558	0.0158047
691.636	0.0158449
691.715	0.0158665
691.793	0.0159077
691.871	0.0159703
691.949	0.0158492
692.027	0.0159232
692.105	0.0158183
692.183	0.0158620
692.261	0.0158766
692.340	0.0157781
692.418	0.0156721
692.496	0.0157650
692.574	0.0156676
692.652	0.0155975
692.730	0.0158076
692.808	0.0158550
692.886	0.0157363
692.965	0.0157300
693.043	0.0157819
693.121	0.0157037
693.199	0.0157941
693.277	0.0158540
693.355	0.0157857
693.433	0.0158548
693.511	0.0158655
693.590	0.0157561
693.668	0.0158543
693.746	0.0158065
693.824	0.0157880
693.902	0.0157204
693.980	0.0157794
694.058	0.0158711
694.136	0.0158422
694.215	0.0156764
694.293	0.0158326
694.371	0.0157800
694.449	0.0159307
694.527	0.0157802
694.605	0.0157044
694.683	0.0156252
694.761	0.0156673
694.840	0.0157118
694.918	0.0156607
694.996	0.0157956
695.074	0.0156473
695.152	0.0156049
695.230	0.0157576
695.308	0.0156974
695.386	0.0157095
695.465	0.0157109
695.543	0.0158335
695.621	0.0158832
695.699	0.0158302
695.777	0.0158497
695.855	0.0158546
695.933	0.0158062
696.011	0.0157891
696.090	0.0158012
696.168	0.0158875
696.246	0.0157948
696.324	0.0157381
696.402	0.0157446
696.480	0.0157543
696.558	0.0157831
696.636	0.0157418
696.715	0.0157944
696.793	0.0158106
696.871	0.0156837
696.949	0.0157184
697.027	0.0157612
697.105	0.0158434
697.183	0.0158632
697.261	0.0159184
697.340	0.0158997
697.418	0.0161111
697.496	0.0159504
697.574	0.0157985
697.652	0.0158089
697.730	0.0157893
697.808	0.0156696
697.886	0.0158035
697.965	0.0157218
698.043	0.0156171
698.121	0.0155948
698.199	0.0158023
698.277	0.0156668
698.355	0.0156497
698.433	0.0158870
698.511	0.0158789
698.590	0.0159656
698.668	0.0158106
698.746	0.0157104
698.824	0.0158005
698.902	0.0157024
698.980	0.0158551
699.058	0.0157294
699.136	0.0157360
699.215	0.0156330
699.293	0.0158433
699.371	0.0157994
699.449	0.0157719
699.527	0.0158067
699.605	0.0157757
699.683	0.0157502
699.761	0.0157953
699.840	0.0158918
699.918	0.0157655
699.996	0.0158624
700.074	0.0159042
700.152	0.0158125
700.230	0.0156958
700.308	0.0159279
700.386	0.0158253
700.465	0.0158034
700.543	0.0157631
700.621	0.0157780
700.699	0.0158726
700.777	0.0156849
700.855	0.0157315
700.933	0.0157390
701.011	0.0157304
701.090	0.0156315
701.168	0.0157595
701.246	0.0157456
701.324	0.0156030
701.402	0.0156061
701.480	0.0156670
701.558	0.0156776
701.636	0.0158099
701.715	0.0157423
701.793	0.0157730
701.871	0.0157935
701.949	0.0158013
702.027	0.0159597
702.105	0.0157016
702.183	0.0158650
702.261	0.0157904
702.340	0.0157143
702.418	0.0158679
702.496	0.0157874
702.574	0.0158032
702.652	0.0157304
702.730	0.0157434
702.808	0.0157967
702.886	0.0157029
702.965	0.0156287
703.043	0.0156250
703.121	0.0157387
703.199	0.0157258
703.277	0.0157418
703.355	0.0156644
703.433	0.0156345
703.511	0.0155625
703.590	0.0155141
703.668	0.0157421
703.746	0.0156741
703.824	0.0157015
703.902	0.0157470
703.980	0.0156686
704.058	0.0158189
704.136	0.0158068
704.215	0.0157649
704.293	0.0157568
704.371	0.0157398
704.449	0.0156484
704.527	0.0158280
704.605	0.0156300
704.683	0.0156441
704.761	0.0155585
704.840	0.0156963
704.918	0.0156807
704.996	0.0156718
705.074	0.0157546
705.152	0.0157755
705.230	0.0158461
705.308	0.0159470
705.386	0.0159143
705.465	0.0158733
705.543	0.0159998
705.621	0.0158585
705.699	0.0159904
705.777	0.0159027
705.855	0.0159570
705.933	0.0159698
706.011	0.0161171
706.090	0.0159213
706.168	0.0158817
706.246	0.0158633
706.324	0.0159460
706.402	0.0159913
706.480	0.0159209
706.558	0.0159265
706.636	0.0158646
706.715	0.0158502
706.793	0.0159509
706.871	0.0158418
706.949	0.0159549
707.027	0.0158273
707.105	0.0157981
707.183	0.0158286
707.261	0.0159627
707.340	0.0158086
707.418	0.0156796
707.496	0.0157915
707.574	0.0157612
707.652	0.0156545
707.730	0.0155304
707.808	0.0155840
707.886	0.0156058
707.965	0.0155988
708.043	0.0156086
708.121	0.0156171
708.199	0.0157250
708.277	0.0156624
708.355	0.0155702
708.433	0.0155405
708.511	0.0154977
708.590	0.0154878
708.668	0.0155861
708.746	0.0156161
708.824	0.0155469
708.902	0.0154680
708.980	0.0154732
709.058	0.0155811
709.136	0.0157288
709.215	0.0156182
709.293	0.0156189
709.371	0.0157815
709.449	0.0157230
709.527	0.0157826
709.605	0.0158598
709.683	0.0158624
709.761	0.0157753
709.840	0.0159869
709.918	0.0159092
709.996	0.0159864
710.074	0.0159515
710.152	0.0161078
710.230	0.0160249
710.308	0.0159274
710.386	0.0161056
710.465	0.0160932
710.543	0.0160404
710.621	0.0160700
710.699	0.0161027
710.777	0.0159771
710.855	0.0159830
710.933	0.0159175
711.011	0.0158020
711.090	0.0157876
711.168	0.0158926
711.246	0.0155331
711.324	0.0156620
711.402	0.0157014
711.480	0.0154729
711.558	0.0155709
711.636	0.0156394
711.715	0.0154569
711.793	0.0154783
711.871	0.0155812
711.949	0.0156887
712.027	0.0156001
712.105	0.0155735
712.183	0.0157166
712.261	0.0157642
712.340	0.0157233
712.418	0.0156570
712.496	0.0157158
712.574	0.0157138
712.652	0.0155980
712.730	0.0158375
712.808	0.0158069
712.886	0.0158059
712.965	0.0157713
713.043	0.0157050
713.121	0.0158656
713.199	0.0158292
713.277	0.0158625
713.355	0.0159111
713.433	0.0160309
713.511	0.0158593
713.590	0.0160159
713.668	0.0159431
713.746	0.0160446
713.824	0.0161450
713.902	0.0161649
713.980	0.0162134
714.058	0.0161586
714.136	0.0160674
714.215	0.0159872
714.293	0.0161162
714.371	0.0161609
714.449	0.0158901
714.527	0.0158710
714.605	0.0160706
714.683	0.0159381
714.761	0.0157265
714.840	0.0158361
714.918	0.0156594
714.996	0.0157447
715.074	0.0156915
715.152	0.0156525
715.230	0.0154877
715.308	0.0156876
715.386	0.0154642
715.465	0.0154058
715.543	0.0154494
715.621	0.0156291
715.699	0.0154229
715.777	0.0155292
715.855	0.0155087
715.933	0.0153455
716.011	0.0155234
716.090	0.0156326
716.168	0.0155777
716.246	0.0155767
716.324	0.0156490
716.402	0.0158002
716.480	0.0159255
716.558	0.0159161
716.636	0.0159657
716.715	0.0160024
716.793	0.0159859
716.871	0.0161320
716.949	0.0160770
717.027	0.0161810
717.105	0.0162167
717.183	0.0162188
717.261	0.0159576
717.340	0.0160786
717.418	0.0159764
717.496	0.0159842
717.574	0.0159837
717.652	0.0157928
717.730	0.0157859
717.808	0.0156610
717.886	0.0155679
717.965	0.0156225
718.043	0.0155415
718.121	0.0156253
718.199	0.0157001
718.277	0.0154620
718.355	0.0153572
718.433	0.0154325
718.511	0.0154439
718.590	0.0156619
718.668	0.0156285
718.746	0.0155207
718.824	0.0157132
718.902	0.0156787
718.980	0.0157693
719.058	0.0158057
719.136	0.0159004
719.215	0.0159275
719.293	0.0159396
719.371	0.0158931
719.449	0.0159225
719.527	0.0159486
719.605	0.0159616
719.683	0.0160326
719.761	0.0160615
719.840	0.0158342
719.918	0.0159946
719.996	0.0160720
720.074	0.0160942
720.152	0.0160005
720.230	0.0158959
720.308	0.0159607
720.386	0.0157526
720.465	0.0159029
720.543	0.0158316
720.621	0.0159274
720.699	0.0157873
720.777	0.0158794
720.855	0.0157193
720.933	0.0157764
721.011	0.0158995
721.090	0.0157991
721.168	0.0158254
721.246	0.0158107
721.324	0.0158892
721.402	0.0158158
721.480	0.0158035
721.558	0.0157965
721.636	0.0158984
721.715	0.0157477
721.793	0.0157094
721.871	0.0157445
721.949	0.0157070
722.027	0.0156821
722.105	0.0156232
722.183	0.0155589
722.261	0.0155044
722.340	0.0154641
722.418	0.0154890
722.496	0.0153987
722.574	0.0154878
722.652	0.0153299
722.730	0.0155245
722.808	0.0155054
722.886	0.0154573
722.965	0.0153883
723.043	0.0154828
723.121	0.0156608
723.199	0.0155769
723.277	0.0155872
723.355	0.0156836
723.433	0.0156083
723.511	0.0158116
723.590	0.0158198
723.668	0.0160410
723.746	0.0160887
723.824	0.0159994
723.902	0.0160189
723.980	0.0160220
724.058	0.0160899
724.136	0.0160831
724.215	0.0160542
724.293	0.0158436
724.371	0.0160407
724.449	0.0159925
724.527	0.0157971
724.605	0.0159089
724.683	0.0158858
724.761	0.0157056
724.840	0.0157304
724.918	0.0156793
724.996	0.0155567
725.074	0.0157017
725.152	0.0157293
725.230	0.0155383
725.308	0.0156602
725.386	0.0157143
725.465	0.0157127
725.543	0.0157575
725.621	0.0157648
725.699	0.0158441
725.777	0.0156908
725.855	0.0158402
725.933	0.0159248
726.011	0.0159120
726.090	0.0158641
726.168	0.0158381
726.246	0.0160941
726.324	0.0159829
726.402	0.0157135
726.480	0.0158488
726.558	0.0161011
726.636	0.0160574
726.715	0.0158538
726.793	0.0159555
726.871	0.0159486
726.949	0.0161258
727.027	0.0160728
727.105	0.0160142
727.183	0.0161188
727.261	0.0160555
727.340	0.0162727
727.418	0.0162132
727.496	0.0162368
727.574	0.0161495
727.652	0.0162146
727.730	0.0161106
727.808	0.0162231
727.886	0.0159967
727.965	0.0158697
728.043	0.0159652
728.121	0.0157892
728.199	0.0158361
728.277	0.0157575
728.355	0.0155634
728.433	0.0155276
728.511	0.0155848
728.590	0.0155975
728.668	0.0154044
728.746	0.0152956
728.824	0.0153852
728.902	0.0152147
728.980	0.0152718
729.058	0.0152798
729.136	0.0152922
729.215	0.0154169
729.293	0.0154066
729.371	0.0153385
729.449	0.0154094
729.527	0.0155149
729.605	0.0155660
729.683	0.0154993
729.761	0.0155240
729.840	0.0156709
729.918	0.0156158
729.996	0.0157464
730.074	0.0156960
730.152	0.0158512
730.230	0.0159637
730.308	0.0158988
730.386	0.0158911
730.465	0.0158537
730.543	0.0158639
730.621	0.0160764
730.699	0.0159412
730.777	0.0160794
730.855	0.0161024
730.933	0.0162033
731.011	0.0161892
731.090	0.0162433
731.168	0.0161819
731.246	0.0161658
731.324	0.0161000
731.402	0.0160781
731.480	0.0160197
731.558	0.0161182
731.636	0.0160191
731.715	0.0159675
731.793	0.0159844
731.871	0.0158868
731.949	0.0156801
732.027	0.0155878
732.105	0.0154823
732.183	0.0153484
732.261	0.0154167
732.340	0.0153332
732.418	0.0153236
732.496	0.0153085
732.574	0.0152873
732.652	0.0153681
732.730	0.0154818
732.808	0.0154148
732.886	0.0154229
732.965	0.0155200
733.043	0.0156284
733.121	0.0157300
733.199	0.0159194
733.277	0.0161248
733.355	0.0162750
733.433	0.0164052
733.511	0.0164756
733.590	0.0165604
733.668	0.0165539
733.746	0.0166120
733.824	0.0166013
733.902	0.0165253
733.980	0.0164420
734.058	0.0163134
734.136	0.0160479
734.215	0.0158707
734.293	0.0157867
734.371	0.0158118
734.449	0.0154849
734.527	0.0153515
734.605	0.0154081
734.683	0.0153869
734.761	0.0153101
734.840	0.0152032
734.918	0.0152362
734.996	0.0152333
735.074	0.0153776
735.152	0.0153648
735.230	0.0153604
735.308	0.0156724
735.386	0.0155451
735.465	0.0155486
735.543	0.0157065
735.621	0.0158750
735.699	0.0159406
735.777	0.0159997
735.855	0.0161230
735.933	0.0162524
736.011	0.0161701
736.090	0.0161291
736.168	0.0160328
736.246	0.0161711
736.324	0.0160720
736.402	0.0160433
736.480	0.0159683
736.558	0.0161375
736.636	0.0160604
736.715	0.0160056
736.793	0.0159304
736.871	0.0159701
736.949	0.0157395
737.027	0.0157493
737.105	0.0157394
737.183	0.0158071
737.261	0.0156300
737.340	0.0157168
737.418	0.0156674
737.496	0.0155252
737.574	0.0155688
737.652	0.0155434
737.730	0.0154889
737.808	0.0155027
737.886	0.0154957
737.965	0.0155058
738.043	0.0154414
738.121	0.0156140
738.199	0.0155737
738.277	0.0154369
738.355	0.0156329
738.433	0.0155582
738.511	0.0154454
738.590	0.0155676
738.668	0.0155869
738.746	0.0154014
738.824	0.0154549
738.902	0.0155485
738.980	0.0155336
739.058	0.0155231
739.136	0.0155573
739.215	0.0156562
739.293	0.0157616
739.371	0.0157875
739.449	0.0158528
739.527	0.0157543
739.605	0.0159299
739.683	0.0159821
739.761	0.0159945
739.840	0.0159535
739.918	0.0160029
739.996	0.0159171
740.074	0.0159192
740.152	0.0159519
740.230	0.0159278
740.308	0.0157355
740.386	0.0158065
740.465	0.0157399
740.543	0.0156860
740.621	0.0156956
740.699	0.0157841
740.777	0.0157361
740.855	0.0157565
740.933	0.0158495
741.011	0.0159019
741.090	0.0159101
741.168	0.0159975
741.246	0.0160722
741.324	0.0161976
741.402	0.0162213
741.480	0.0162810
741.558	0.0162804
741.636	0.0163708
741.715	0.0164083
741.793	0.0163718
741.871	0.0162861
741.949	0.0162002
742.027	0.0159946
742.105	0.0160912
742.183	0.0159533
742.261	0.0158224
742.340	0.0159132
742.418	0.0158714
742.496	0.0156748
742.574	0.0155817
742.652	0.0155644
742.730	0.0155939
742.808	0.0156326
742.886	0.0156229
742.965	0.0155926
743.043	0.0157890
743.121	0.0155107
743.199	0.0155193
743.277	0.0157190
743.355	0.0158627
743.433	0.0157738
743.511	0.0157404
743.590	0.0159009
743.668	0.0158455
743.746	0.0158693
743.824	0.0157816
743.902	0.0159198
743.980	0.0160031
744.058	0.0160159
744.136	0.0160971
744.215	0.0160178
744.293	0.0159155
744.371	0.0160168
744.449	0.0159299
744.527	0.0160544
744.605	0.0159271
744.683	0.0158478
744.761	0.0158166
744.840	0.0156772
744.918	0.0155744
744.996	0.0155233
745.074	0.0155013
745.152	0.0154278
745.230	0.0152956
745.308	0.0152828
745.386	0.0152888
745.465	0.0151852
745.543	0.0151222
745.621	0.0151970
745.699	0.0150451
745.777	0.0150292
745.855	0.0151308
745.933	0.0151324
746.011	0.0153079
746.090	0.0152482
746.168	0.0153160
746.246	0.0154081
746.324	0.0154826
746.402	0.0155146
746.480	0.0156488
746.558	0.0158101
746.636	0.0159826
746.715	0.0160493
746.793	0.0159222
746.871	0.0160260
746.949	0.0162540
747.027	0.0163323
747.105	0.0162963
747.183	0.0163200
747.261	0.0164192
747.340	0.0163045
747.418	0.0163422
747.496	0.0165208
747.574	0.0163029
747.652	0.0161424
747.730	0.0161048
747.808	0.0159856
747.886	0.0159273
747.965	0.0160888
748.043	0.0159469
748.121	0.0159308
748.199	0.0160550
748.277	0.0158619
748.355	0.0159405
748.433	0.0161118
748.511	0.0161031
748.590	0.0159853
748.668	0.0160014
748.746	0.0161150
748.824	0.0162797
748.902	0.0162066
748.980	0.0161487
749.058	0.0162714
749.136	0.0162906
749.215	0.0163799
749.293	0.0164449
749.371	0.0163004
749.449	0.0162981
749.527	0.0161647
749.605	0.0162510
749.683	0.0163214
749.761	0.0161642
749.840	0.0159924
749.918	0.0158202
749.996	0.0159390
750.074	0.0159040
750.152	0.0157941
750.230	0.0155869
750.308	0.0155978
750.386	0.0155528
750.465	0.0155171
750.543	0.0153129
750.621	0.0153188
750.699	0.0153922
750.777	0.0151602
750.855	0.0153374
750.933	0.0154121
751.011	0.0153529
751.090	0.0154514
751.168	0.0153905
751.246	0.0153630
751.324	0.0154869
751.402	0.0155609
751.480	0.0156147
751.558	0.0157712
751.636	0.0158150
751.715	0.0159344
751.793	0.0160353
751.871	0.0159686
751.949	0.0160921
752.027	0.0161407
752.105	0.0161167
752.183	0.0160822
752.261	0.0162878
752.340	0.0160522
752.418	0.0160933
752.496	0.0161913
752.574	0.0158911
752.652	0.0159475
752.730	0.0157564
752.808	0.0157235
752.886	0.0155434
752.965	0.0156406
753.043	0.0154692
753.121	0.0153506
753.199	0.0152223
753.277	0.0151335
753.355	0.0150972
753.433	0.0150738
753.511	0.0149876
753.590	0.0150728
753.668	0.0152674
753.746	0.0150714
753.824	0.0152419
753.902	0.0152493
753.980	0.0154098
754.058	0.0155360
754.136	0.0156686
754.215	0.0158498
754.293	0.0158141
754.371	0.0159068
754.449	0.0161172
754.527	0.0160504
754.605	0.0160319
754.683	0.0161460
754.761	0.0161845
754.840	0.0161848
754.918	0.0162144
754.996	0.0162070
755.074	0.0161337
755.152	0.0160844
755.230	0.0160899
755.308	0.0160845
755.386	0.0160065
755.465	0.0159024
755.543	0.0159611
755.621	0.0159548
755.699	0.0159069
755.777	0.0156598
755.855	0.0156664
755.933	0.0156805
756.011	0.0156921
756.090	0.0157143
756.168	0.0157740
756.246	0.0158028
756.324	0.0156191
756.402	0.0157697
756.480	0.0158836
756.558	0.0159655
756.636	0.0160409
756.715	0.0160243
756.793	0.0159855
756.871	0.0162140
756.949	0.0162302
757.027	0.0162807
757.105	0.0163057
757.183	0.0164008
757.261	0.0162981
757.340	0.0162402
757.418	0.0161050
757.496	0.0161475
757.574	0.0161416
757.652	0.0160934
757.730	0.0160505
757.808	0.0159346
757.886	0.0157426
757.965	0.0158485
758.043	0.0155661
758.121	0.0155761
758.199	0.0156281
758.277	0.0154296
758.355	0.0154237
758.433	0.0154016
758.511	0.0153928
758.590	0.0154508
758.668	0.0152182
758.746	0.0153114
758.824	0.0153337
758.902	0.0154596
758.980	0.0155274
759.058	0.0155012
759.136	0.0154490
759.215	0.0155836
759.293	0.0157831
759.371	0.0156256
759.449	0.0157707
759.527	0.0158891
759.605	0.0159135
759.683	0.0159870
759.761	0.0160136
759.840	0.0160682
759.918	0.0160726
759.996	0.0160911
760.074	0.0160962
760.152	0.0160567
760.230	0.0158533
760.308	0.0157957
760.386	0.0157944
760.465	0.0155885
760.543	0.0156601
760.621	0.0155402
760.699	0.0154076
760.777	0.0152152
760.855	0.0152983
760.933	0.0152116
761.011	0.0150571
761.090	0.0151218
761.168	0.0151254
761.246	0.0152679
761.324	0.0152811
761.402	0.0152319
761.480	0.0152467
761.558	0.0155293
761.636	0.0153722
761.715	0.0156121
761.793	0.0156060
761.871	0.0157850
761.949	0.0159951
762.027	0.0158917
762.105	0.0161520
762.183	0.0160977
762.261	0.0160600
762.340	0.0161677
762.418	0.0162089
762.496	0.0161546
762.574	0.0162223
762.652	0.0161002
762.730	0.0161927
762.808	0.0161354
762.886	0.0159814
762.965	0.0160213
763.043	0.0159317
763.121	0.0159242
763.199	0.0158197
763.277	0.0156180
763.355	0.0156940
763.433	0.0157150
763.511	0.0156710
763.590	0.0156511
763.668	0.0157224
763.746	0.0156474
763.824	0.0158410
763.902	0.0157157
763.980	0.0159766
764.058	0.0158755
764.136	0.0159845
764.215	0.0161797
764.293	0.0162305
764.371	0.0160247
764.449	0.0161879
764.527	0.0162257
764.605	0.0162141
764.683	0.0161002
764.761	0.0163091
764.840	0.0162585
764.918	0.0163308
764.996	0.0162952
765.074	0.0162812
765.152	0.0162836
765.230	0.0160828
765.308	0.0160632
765.386	0.0160363
765.465	0.0160648
765.543	0.0158179
765.621	0.0157398
765.699	0.0156247
765.777	0.0156101
765.855	0.0155207
765.933	0.0154787
766.011	0.0153991
766.090	0.0152670
766.168	0.0153889
766.246	0.0152809
766.324	0.0153317
766.402	0.0153093
766.480	0.0152094
766.558	0.0152433
766.636	0.0153623
766.715	0.0153764
766.793	0.0153796
766.871	0.0154543
766.949	0.0153981
767.027	0.0153478
767.105	0.0154675
767.183	0.0155470
767.261	0.0156501
767.340	0.0156919
767.418	0.0157170
767.496	0.0157353
767.574	0.0158605
767.652	0.0158004
767.730	0.0158552
767.808	0.0158630
767.886	0.0157772
767.965	0.0157275
768.043	0.0158022
768.121	0.0157899
768.199	0.0157204
768.277	0.0156419
768.355	0.0155766
768.433	0.0155678
768.511	0.0156335
768.590	0.0154787
768.668	0.0155541
768.746	0.0154865
768.824	0.0155819
768.902	0.0156602
768.980	0.0156758
769.058	0.0155821
769.136	0.0156501
769.215	0.0156621
769.293	0.0155353
769.371	0.0157147
769.449	0.0159743
769.527	0.0159583
769.605	0.0158335
769.683	0.0158915
769.761	0.0159170
769.840	0.0158573
769.918	0.0159682
769.996	0.0161978
770.074	0.0161162
770.152	0.0160906
770.230	0.0160052
770.308	0.0159656
770.386	0.0160280
770.465	0.0160555
770.543	0.0158855
770.621	0.0158887
770.699	0.0158292
770.777	0.0157568
770.855	0.0156922
770.933	0.0157051
771.011	0.0155817
771.090	0.0156409
771.168	0.0157030
771.246	0.0156263
771.324	0.0156165
771.402	0.0156909
771.480	0.0156301
771.558	0.0157393
771.636	0.0156615
771.715	0.0157171
771.793	0.0157834
771.871	0.0159467
771.949	0.0158553
772.027	0.0158074
772.105	0.0160419
772.183	0.0159907
772.261	0.0161784
772.340	0.0161077
772.418	0.0161637
772.496	0.0162796
772.574	0.0162524
772.652	0.0163286
772.730	0.0162955
772.808	0.0160662
772.886	0.0161176
772.965	0.0162457
773.043	0.0161903
773.121	0.0162117
773.199	0.0160952
773.277	0.0159972
773.355	0.0159444
773.433	0.0159858
773.511	0.0159261
773.590	0.0157813
773.668	0.0156487
773.746	0.0155920
773.824	0.0155920
773.902	0.0155509
773.980	0.0154041
774.058	0.0152801
774.136	0.0153757
774.215	0.0153111
774.293	0.0152990
774.371	0.0151641
774.449	0.0152029
774.527	0.0153264
774.605	0.0154069
774.683	0.0153019
774.761	0.0153500
774.840	0.0153092
774.918	0.0154397
774.996	0.0154846
775.074	0.0156052
775.152	0.0156052
775.230	0.0155701
775.308	0.0157642
775.386	0.0156734
775.465	0.0156277
775.543	0.0156841
775.621	0.0157560
775.699	0.0158398
775.777	0.0157362
775.855	0.0158076
775.933	0.0158226
776.011	0.0158331
776.090	0.0158102
776.168	0.0157757
776.246	0.0157460
776.324	0.0158004
776.402	0.0158441
776.480	0.0159557
776.558	0.0158372
776.636	0.0158401
776.715	0.0159474
776.793	0.0160753
776.871	0.0159644
776.949	0.0160023
777.027	0.0161623
777.105	0.0161753
777.183	0.0161293
777.261	0.0160606
777.340	0.0160216
777.418	0.0160298
777.496	0.0161185
777.574	0.0160407
777.652	0.0159296
777.730	0.0161040
777.808	0.0158758
777.886	0.0157575
777.965	0.0156988
778.043	0.0157934
778.121	0.0156483
778.199	0.0157500
778.277	0.0157140
778.355	0.0155338
778.433	0.0156736
778.511	0.0155989
778.590	0.0156125
778.668	0.0155409
778.746	0.0157363
778.824	0.0156054
778.902	0.0155256
778.980	0.0156210
779.058	0.0156664
779.136	0.0157354
779.215	0.0157211
779.293	0.0156460
779.371	0.0158765
779.449	0.0157790
779.527	0.0159856
779.605	0.0159077
779.683	0.0159502
779.761	0.0160450
779.840	0.0160967
779.918	0.0161212
779.996	0.0159825
780.074	0.0161406
780.152	0.0161720
780.230	0.0161384
780.308	0.0161304
780.386	0.0161738
780.465	0.0161261
780.543	0.0162200
780.621	0.0162852
780.699	0.0160971
780.777	0.0162077
780.855	0.0161998
780.933	0.0161466
781.011	0.0161639
781.090	0.0161632
781.168	0.0161425
781.246	0.0159953
781.324	0.0159766
781.402	0.0158734
781.480	0.0158229
781.558	0.0157413
781.636	0.0157598
781.715	0.0156627
781.793	0.0156981
781.871	0.0156377
781.949	0.0154400
782.027	0.0154865
782.105	0.0153735
782.183	0.0152539
782.261	0.0152798
782.340	0.0153199
782.418	0.0152082
782.496	0.0151017
782.574	0.0152005
782.652	0.0152036
782.730	0.0152794
782.808	0.0153899
782.886	0.0152981
782.965	0.0154243
783.043	0.0155447
783.121	0.0156165
783.199	0.0156313
783.277	0.0157674
783.355	0.0159376
783.433	0.0158543
783.511	0.0158022
783.590	0.0159177
783.668	0.0160064
783.746	0.0160707
783.824	0.0160854
783.902	0.0160150
783.980	0.0160380
784.058	0.0160401
784.136	0.0159455
784.215	0.0160642
784.293	0.0160158
784.371	0.0159565
784.449	0.0159103
784.527	0.0159751
784.605	0.0159383
784.683	0.0157841
784.761	0.0156149
784.840	0.0157317
784.918	0.0157142
784.996	0.0155836
785.074	0.0155377
785.152	0.0156452
785.230	0.0157735
785.308	0.0155678
785.386	0.0155231
785.465	0.0156950
785.543	0.0156430
785.621	0.0157124
785.699	0.0157340
785.777	0.0156633
785.855	0.0158746
785.933	0.0158878
786.011	0.0159890
786.090	0.0159020
786.168	0.0158328
786.246	0.0159277
786.324	0.0159875
786.402	0.0158865
786.480	0.0158409
786.558	0.0159112
786.636	0.0158467
786.715	0.0157436
786.793	0.0156621
786.871	0.0156697
786.949	0.0156294
787.027	0.0157964
787.105	0.0157799
787.183	0.0157817
787.261	0.0158468
787.340	0.0157564
787.418	0.0158041
787.496	0.0157658
787.574	0.0157870
787.652	0.0159302
787.730	0.0159732
787.808	0.0158526
787.886	0.0158780
787.965	0.0159708
788.043	0.0160846
788.121	0.0159944
788.199	0.0160252
788.277	0.0160073
788.355	0.0160435
788.433	0.0161514
788.511	0.0160993
788.590	0.0161438
788.668	0.0161443
788.746	0.0160342
788.824	0.0159846
788.902	0.0158912
788.980	0.0158727
789.058	0.0159673
789.136	0.0158088
789.215	0.0157966
789.293	0.0156920
789.371	0.0156625
789.449	0.0156073
789.527	0.0155630
789.605	0.0153722
789.683	0.0154958
789.761	0.0155173
789.840	0.0154837
789.918	0.0154205
789.996	0.0155202
790.074	0.0155037
790.152	0.0156110
790.230	0.0156836
790.308	0.0156831
790.386	0.0157810
790.465	0.0157605
790.543	0.0157623
790.621	0.0158143
790.699	0.0158549
790.777	0.0158302
790.855	0.0158882
790.933	0.0158559
791.011	0.0158840
791.090	0.0160317
791.168	0.0159632
791.246	0.0158942
791.324	0.0157514
791.402	0.0156926
791.480	0.0159515
791.558	0.0159615
791.636	0.0160061
791.715	0.0157978
791.793	0.0157632
791.871	0.0158399
791.949	0.0159818
792.027	0.0158150
792.105	0.0159396
792.183	0.0158702
792.261	0.0158909
792.340	0.0158999
792.418	0.0157597
792.496	0.0157043
792.574	0.0157655
792.652	0.0158167
792.730	0.0157106
792.808	0.0157893
792.886	0.0155688
792.965	0.0155964
793.043	0.0158222
793.121	0.0157726
793.199	0.0156425
793.277	0.0157107
793.355	0.0156653
793.433	0.0156479
793.511	0.0158290
793.590	0.0158362
793.668	0.0158309
793.746	0.0159534
793.824	0.0159103
793.902	0.0159004
793.980	0.0160150
794.058	0.0159823
794.136	0.0159949
794.215	0.0160203
794.293	0.0159898
794.371	0.0159856
794.449	0.0160205
794.527	0.0159229
794.605	0.0160603
794.683	0.0160426
794.761	0.0158765
794.840	0.0159682
794.918	0.0159427
794.996	0.0157582
795.074	0.0158482
795.152	0.0158018
795.230	0.0157071
795.308	0.0155470
795.386	0.0156409
795.465	0.0156570
795.543	0.0156376
795.621	0.0155764
795.699	0.0156821
795.777	0.0155914
795.855	0.0158000
795.933	0.0158926
796.011	0.0158166
796.090	0.0157401
796.168	0.0157947
796.246	0.0158994
796.324	0.0160119
796.402	0.0159229
796.480	0.0159477
796.558	0.0159657
796.636	0.0160298
796.715	0.0158803
796.793	0.0159634
796.871	0.0158821
796.949	0.0157827
797.027	0.0157110
797.105	0.0158249
797.183	0.0157745
797.261	0.0157233
797.340	0.0157559
797.418	0.0156894
797.496	0.0159061
797.574	0.0156974
797.652	0.0157980
797.730	0.0158088
797.808	0.0158805
797.886	0.0159277
797.965	0.0158839
798.043	0.0159291
798.121	0.0160105
798.199	0.0159942
798.277	0.0160291
798.355	0.0159949
798.433	0.0159645
798.511	0.0158562
798.590	0.0158092
798.668	0.0158324
798.746	0.0158506
798.824	0.0158445
798.902	0.0157198
798.980	0.0156599
799.058	0.0156881
799.136	0.0156499
799.215	0.0156539
799.293	0.0157985
799.371	0.0157168
799.449	0.0155731
799.527	0.0156901
799.605	0.0157036
799.683	0.0156339
799.761	0.0158341
799.840	0.0157162
799.918	0.0157580
799.996	0.0156715
800.074	0.0158009
800.152	0.0156773
800.230	0.0157539
800.308	0.0158548
800.386	0.0157037
800.465	0.0154959
800.543	0.0155127
800.621	0.0156847
800.699	0.0156390
800.777	0.0156086
800.855	0.0155796
800.933	0.0155357
801.011	0.0157427
801.090	0.0157360
801.168	0.0156685
801.246	0.0157143
801.324	0.0156470
801.402	0.0158853
801.480	0.0160680
801.558	0.0160027
801.636	0.0159399
801.715	0.0159930
801.793	0.0160135
801.871	0.0159513
801.949	0.0160668
802.027	0.0159251
802.105	0.0159349
802.183	0.0158573
802.261	0.0160323
802.340	0.0159248
802.418	0.0159399
802.496	0.0158311
802.574	0.0159489
802.652	0.0157648
802.730	0.0158268
802.808	0.0158006
802.886	0.0157826
802.965	0.0157795
803.043	0.0157951
803.121	0.0159232
803.199	0.0158438
803.277	0.0159335
803.355	0.0158500
803.433	0.0159500
803.511	0.0159892
803.590	0.0160296
803.668	0.0159696
803.746	0.0158490
803.824	0.0158314
803.902	0.0159500
803.980	0.0158223
804.058	0.0156898
804.136	0.0157365
804.215	0.0156573
804.293	0.0155439
804.371	0.0155908
804.449	0.0155004
804.527	0.0154934
804.605	0.0154024
804.683	0.0154047
804.761	0.0155097
804.840	0.0155479
804.918	0.0155030
804.996	0.0155447
805.074	0.0156825
805.152	0.0157269
805.230	0.0157999
805.308	0.0160488
805.386	0.0160348
805.465	0.0161069
805.543	0.0160792
805.621	0.0160489
805.699	0.0162239
805.777	0.0163774
805.855	0.0161370
805.933	0.0161265
806.011	0.0162344
806.090	0.0162028
806.168	0.0160302
806.246	0.0159772
806.324	0.0159880
806.402	0.0159663
806.480	0.0156467
806.558	0.0156185
806.636	0.0155286
806.715	0.0156162
806.793	0.0155084
806.871	0.0155506
806.949	0.0156200
807.027	0.0154807
807.105	0.0154908
807.183	0.0155939
807.261	0.0157121
807.340	0.0156806
807.418	0.0157780
807.496	0.0158762
807.574	0.0158015
807.652	0.0158647
807.730	0.0158955
807.808	0.0158733
807.886	0.0159853
807.965	0.0158304
808.043	0.0157992
808.121	0.0158582
808.199	0.0157114
808.277	0.0157929
808.355	0.0156382
808.433	0.0157219
808.511	0.0157274
808.590	0.0157352
808.668	0.0157303
808.746	0.0157543
808.824	0.0158002
808.902	0.0158481
808.980	0.0159347
809.058	0.0159573
809.136	0.0158507
809.215	0.0159885
809.293	0.0159915
809.371	0.0158443
809.449	0.0160031
809.527	0.0161469
809.605	0.0160061
809.683	0.0160390
809.761	0.0159413
809.840	0.0158327
809.918	0.0158080
809.996	0.0158803
810.074	0.0159468
810.152	0.0160035
810.230	0.0157809
810.308	0.0159047
810.386	0.0158757
810.465	0.0159975
810.543	0.0159870
810.621	0.0161057
810.699	0.0160237
810.777	0.0160553
810.855	0.0161125
810.933	0.0162505
811.011	0.0160295
811.090	0.0162051
811.168	0.0162214
811.246	0.0161463
811.324	0.0160337
811.402	0.0160072
811.480	0.0159852
811.558	0.0160596
811.636	0.0157644
811.715	0.0156843
811.793	0.0156653
811.871	0.0154362
811.949	0.0153859
812.027	0.0153703
812.105	0.0152190
812.183	0.0152851
812.261	0.0154257
812.340	0.0152221
812.418	0.0153404
812.496	0.0152909
812.574	0.0154470
812.652	0.0155952
812.730	0.0156765
812.808	0.0158379
812.886	0.0158190
812.965	0.0160149
813.043	0.0158273
813.121	0.0159956
813.199	0.0160632
813.277	0.0160996
813.355	0.0160882
813.433	0.0161496
813.511	0.0162058
813.590	0.0161441
813.668	0.0161662
813.746	0.0160783
813.824	0.0160306
813.902	0.0159985
813.980	0.0158598
814.058	0.0158189
814.136	0.0160770
814.215	0.0157541
814.293	0.0158104
814.371	0.0158598
814.449	0.0158123
814.527	0.0157888
814.605	0.0158157
814.683	0.0156789
814.761	0.0157049
814.840	0.0157682
814.918	0.0157925
814.996	0.0157955
815.074	0.0159328
815.152	0.0156496
815.230	0.0156749
815.308	0.0157262
815.386	0.0156244
815.465	0.0155775
815.543	0.0154826
815.621	0.0155183
815.699	0.0155939
815.777	0.0154096
815.855	0.0154700
815.933	0.0155053
816.011	0.0155759
816.090	0.0156049
816.168	0.0157768
816.246	0.0156288
816.324	0.0156232
816.402	0.0158601
816.480	0.0159544
816.558	0.0160656
816.636	0.0160892
816.715	0.0160413
816.793	0.0160478
816.871	0.0161642
816.949	0.0161716
817.027	0.0161305
817.105	0.0159843
817.183	0.0159061
817.261	0.0159463
817.340	0.0158971
817.418	0.0159329
817.496	0.0156864
817.574	0.0155772
817.652	0.0155677
817.730	0.0157372
817.808	0.0158080
817.886	0.0157944
817.965	0.0157462
818.043	0.0156768
818.121	0.0156677
818.199	0.0157230
818.277	0.0159348
818.355	0.0160037
818.433	0.0160808
818.511	0.0161401
818.590	0.0161679
818.668	0.0160557
818.746	0.0160260
818.824	0.0161185
818.902	0.0161266
818.980	0.0160473
819.058	0.0159324
819.136	0.0159926
819.215	0.0159621
819.293	0.0158286
819.371	0.0157590
819.449	0.0156300
819.527	0.0154320
819.605	0.0155055
819.683	0.0155930
819.761	0.0155652
819.840	0.0155959
819.918	0.0155776
819.996	0.0155253
820.074	0.0156219
820.152	0.0156502
820.230	0.0157185
820.308	0.0158318
820.386	0.0158612
820.465	0.0159915
820.543	0.0159384
820.621	0.0159804
820.699	0.0158901
820.777	0.0160048
820.855	0.0159095
820.933	0.0160406
821.011	0.0161132
821.090	0.0160119
821.168	0.0159898
821.246	0.0159275
821.324	0.0159033
821.402	0.0160050
821.480	0.0157742
821.558	0.0158183
821.636	0.0158949
821.715	0.0159326
821.793	0.0159251
821.871	0.0159094
821.949	0.0159212
822.027	0.0159984
822.105	0.0158662
822.183	0.0158502
822.261	0.0158844
822.340	0.0158559
822.418	0.0160099
822.496	0.0160364
822.574	0.0158868
822.652	0.0157623
822.730	0.0158125
822.808	0.0159196
822.886	0.0157355
822.965	0.0157178
823.043	0.0156377
823.121	0.0156617
823.199	0.0157391
823.277	0.0156699
823.355	0.0156640
823.433	0.0156756
823.511	0.0155827
823.590	0.0156718
823.668	0.0157366
823.746	0.0155959
823.824	0.0156951
823.902	0.0157533
823.980	0.0157432
824.058	0.0158788
824.136	0.0159187
824.215	0.0159437
824.293	0.0159167
824.371	0.0159743
824.449	0.0159629
824.527	0.0159930
824.605	0.0159852
824.683	0.0158981
824.761	0.0159517
824.840	0.0157755
824.918	0.0157922
824.996	0.0157531
825.074	0.0156883
825.152	0.0157294
825.230	0.0156686
825.308	0.0157225
825.386	0.0156041
825.465	0.0155470
825.543	0.0157157
825.621	0.0156278
825.699	0.0155647
825.777	0.0157296
825.855	0.0159193
825.933	0.0158160
826.011	0.0159087
826.090	0.0158855
826.168	0.0158353
826.246	0.0158306
826.324	0.0158553
826.402	0.0160724
826.480	0.0158115
826.558	0.0158880
826.636	0.0160076
826.715	0.0159743
826.793	0.0158988
826.871	0.0157920
826.949	0.0158943
827.027	0.0157603
827.105	0.0158050
827.183	0.0157418
827.261	0.0158862
827.340	0.0158374
827.418	0.0158087
827.496	0.0158479
827.574	0.0157868
827.652	0.0158613
827.730	0.0158125
827.808	0.0159618
827.886	0.0159707
827.965	0.0157919
828.043	0.0160247
828.121	0.0157768
828.199	0.0159317
828.277	0.0160926
828.355	0.0159702
828.433	0.0159730
828.511	0.0159674
828.590	0.0158188
828.668	0.0158495
828.746	0.0157473
828.824	0.0157586
828.902	0.0156777
828.980	0.0156197
829.058	0.0158902
829.136	0.0158157
829.215	0.0156579
829.293	0.0156531
829.371	0.0158588
829.449	0.0158777
829.527	0.0157225
829.605	0.0157826
829.683	0.0157957
829.761	0.0157288
829.840	0.0159016
829.918	0.0158166
829.996	0.0156945
830.074	0.0158193
830.152	0.0159734
830.230	0.0158535
830.308	0.0159415
830.386	0.0159538
830.465	0.0157218
830.543	0.0158694
830.621	0.0158954
830.699	0.0158441
830.777	0.0158353
830.855	0.0158792
830.933	0.0157442
831.011	0.0157281
831.090	0.0157657
831.168	0.0157195
831.246	0.0156995
831.324	0.0157303
831.402	0.0158569
831.480	0.0156145
831.558	0.0156898
831.636	0.0157201
831.715	0.0159147
831.793	0.0157078
831.871	0.0157793
831.949	0.0158974
832.027	0.0158561
832.105	0.0158759
832.183	0.0157167
832.261	0.0159029
832.340	0.0157460
832.418	0.0157222
832.496	0.0157744
832.574	0.0157907
832.652	0.0157563
832.730	0.0157336
832.808	0.0158903
832.886	0.0157017
832.965	0.0156651
833.043	0.0157780
833.121	0.0157835
833.199	0.0158705
833.277	0.0156981
833.355	0.0159540
833.433	0.0157780
833.511	0.0158031
833.590	0.0159574
833.668	0.0160291
833.746	0.0159416
833.824	0.0159164
833.902	0.0161019
833.980	0.0159511
834.058	0.0158998
834.136	0.0159015
834.215	0.0159358
834.293	0.0159592
834.371	0.0159708
834.449	0.0159434
834.527	0.0159654
834.605	0.0158796
834.683	0.0158186
834.761	0.0157181
834.840	0.0157394
834.918	0.0158420
834.996	0.0156033
835.074	0.0157082
835.152	0.0158700
835.230	0.0157663
835.308	0.0157355
835.386	0.0159357
835.465	0.0157905
835.543	0.0156993
835.621	0.0157719
835.699	0.0157568
835.777	0.0158489
835.855	0.0158910
835.933	0.0159869
836.011	0.0159221
836.090	0.0158054
836.168	0.0158229
836.246	0.0158609
836.324	0.0158110
836.402	0.0158802
836.480	0.0157623
836.558	0.0158347
836.636	0.0158077
836.715	0.0157506
836.793	0.0157967
836.871	0.0157882
836.949	0.0158691
837.027	0.0157549
837.105	0.0158065
837.183	0.0158128
837.261	0.0158121
837.340	0.0158238
837.418	0.0158377
837.496	0.0158900
837.574	0.0157569
837.652	0.0158370
837.730	0.0159429
837.808	0.0158125
837.886	0.0157749
837.965	0.0158872
838.043	0.0160059
838.121	0.0157690
838.199	0.0158939
838.277	0.0158234
838.355	0.0159859
838.433	0.0158562
838.511	0.0157655
838.590	0.0157956
838.668	0.0158136
838.746	0.0158296
838.824	0.0158165
838.902	0.0157886
838.980	0.0157948
839.058	0.0159322
839.136	0.0158570
839.215	0.0157555
839.293	0.0157133
839.371	0.0158056
839.449	0.0157459
839.527	0.0157327
839.605	0.0157880
839.683	0.0157204
839.761	0.0156938
839.840	0.0157061
839.918	0.0157353
839.996	0.0157000
840.074	0.0156985
840.152	0.0156326
840.230	0.0158006
840.308	0.0157195
840.386	0.0157143
840.465	0.0156061
840.543	0.0157838
840.621	0.0157118
840.699	0.0157320
840.777	0.0157487
840.855	0.0158263
840.933	0.0158068
841.011	0.0156647
841.090	0.0156625
841.168	0.0158289
841.246	0.0159028
841.324	0.0157101
841.402	0.0158960
841.480	0.0159013
841.558	0.0157301
841.636	0.0157240
841.715	0.0157955
841.793	0.0157793
841.871	0.0156535
841.949	0.0157296
842.027	0.0158070
842.105	0.0158147
842.183	0.0158612
842.261	0.0157519
842.340	0.0157530
842.418	0.0157526
842.496	0.0158780
842.574	0.0158762
842.652	0.0159534
842.730	0.0159505
842.808	0.0159476
842.886	0.0159091
842.965	0.0159468
843.043	0.0159274
843.121	0.0157815
843.199	0.0159050
843.277	0.0159037
843.355	0.0159150
843.433	0.0159764
843.511	0.0157619
843.590	0.0157925
843.668	0.0159399
843.746	0.0159090
843.824	0.0160100
843.902	0.0159398
843.980	0.0158806
844.058	0.0158031
844.136	0.0159878
844.215	0.0158186
844.293	0.0159634
844.371	0.0158454
844.449	0.0158876
844.527	0.0158240
844.605	0.0158237
844.683	0.0159636
844.761	0.0158146
844.840	0.0158449
844.918	0.0158477
844.996	0.0156680
845.074	0.0157246
845.152	0.0158187
845.230	0.0156951
845.308	0.0157679
845.386	0.0156594
845.465	0.0156391
845.543	0.0157298
845.621	0.0156780
845.699	0.0156454
845.777	0.0156077
845.855	0.0157211
845.933	0.0156638
846.011	0.0156177
846.090	0.0157604
846.168	0.0157285
846.246	0.0156844
846.324	0.0158002
846.402	0.0157425
846.480	0.0157086
846.558	0.0156536
846.636	0.0157551
846.715	0.0156437
846.793	0.0156881
846.871	0.0158042
846.949	0.0156464
847.027	0.0156319
847.105	0.0156390
847.183	0.0155748
847.261	0.0155607
847.340	0.0156424
847.418	0.0155820
847.496	0.0155146
847.574	0.0154803
847.652	0.0155042
847.730	0.0155688
847.808	0.0155844
847.886	0.0155801
847.965	0.0156982
848.043	0.0156091
848.121	0.0156343
848.199	0.0158163
848.277	0.0159827
848.355	0.0158022
848.433	0.0159219
848.511	0.0159039
848.590	0.0157968
848.668	0.0159396
848.746	0.0159748
848.824	0.0160139
848.902	0.0157922
848.980	0.0158402
849.058	0.0159271
849.136	0.0159573
849.215	0.0159399
849.293	0.0159539
849.371	0.0160275
849.449	0.0157993
849.527	0.0156947
849.605	0.0157864
849.683	0.0158976
849.761	0.0158791
849.840	0.0157444
849.918	0.0158073
849.996	0.0159522
850.074	0.0158964
850.152	0.0157886
850.230	0.0156727
850.308	0.0158054
850.386	0.0159325
850.465	0.0158727
850.543	0.0159045
850.621	0.0158279
850.699	0.0158889
850.777	0.0157465
850.855	0.0158081
850.933	0.0159612
851.011	0.0158582
851.090	0.0159650
851.168	0.0158926
851.246	0.0157230
851.324	0.0161551
851.402	0.0160973
851.480	0.0159022
851.558	0.0158952
851.636	0.0159097
851.715	0.0160120
851.793	0.0159346
851.871	0.0159592
851.949	0.0159917
852.027	0.0157803
852.105	0.0159628
852.183	0.0159039
852.261	0.0158223
852.340	0.0159130
852.418	0.0158995
852.496	0.0158078
852.574	0.0157117
852.652	0.0157388
852.730	0.0156174
852.808	0.0157493
852.886	0.0156732
852.965	0.0157243
853.043	0.0155412
853.121	0.0157724
853.199	0.0156519
853.277	0.0156261
853.355	0.0157510
853.433	0.0156348
853.511	0.0156351
853.590	0.0156579
853.668	0.0157589
853.746	0.0157350
853.824	0.0158923
853.902	0.0157688
853.980	0.0158119
854.058	0.0157748
854.136	0.0157741
854.215	0.0157350
854.293	0.0157491
854.371	0.0157076
854.449	0.0157323
854.527	0.0157069
854.605	0.0158324
854.683	0.0157320
854.761	0.0155894
854.840	0.0158303
854.918	0.0157655
854.996	0.0156121
855.074	0.0156223
855.152	0.0157237
855.230	0.0157814
855.308	0.0157913
855.386	0.0156194
855.465	0.0157165
855.543	0.0157619
855.621	0.0157405
855.699	0.0157576
855.777	0.0158189
855.855	0.0157314
855.933	0.0157256
856.011	0.0157908
856.090	0.0156886
856.168	0.0157767
856.246	0.0158017
856.324	0.0158019
856.402	0.0158588
856.480	0.0158199
856.558	0.0157520
856.636	0.0158263
856.715	0.0157336
856.793	0.0157394
856.871	0.0156480
856.949	0.0158235
857.027	0.0157275
857.105	0.0157445
857.183	0.0157504
857.261	0.0156940
857.340	0.0157275
857.418	0.0158430
857.496	0.0157658
857.574	0.0159319
857.652	0.0156903
857.730	0.0158257
857.808	0.0159100
857.886	0.0158259
857.965	0.0159153
858.043	0.0159446
858.121	0.0159530
858.199	0.0159307
858.277	0.0160374
858.355	0.0160282
858.433	0.0159398
858.511	0.0160257
858.590	0.0159727
858.668	0.0161534
858.746	0.0160564
858.824	0.0160665
858.902	0.0161290
858.980	0.0159908
859.058	0.0159327
859.136	0.0160470
859.215	0.0159671
859.293	0.0160979
859.371	0.0159563
859.449	0.0158043
859.527	0.0159521
859.605	0.0159243
859.683	0.0158787
859.761	0.0159323
859.840	0.0158444
859.918	0.0157861
859.996	0.0159296
860.074	0.0159671
860.152	0.0158945
860.230	0.0158294
860.308	0.0159631
860.386	0.0158176
860.465	0.0156893
860.543	0.0158514
860.621	0.0157834
860.699	0.0158422
860.777	0.0159152
860.855	0.0158596
860.933	0.0159344
861.011	0.0158813
861.090	0.0157775
861.168	0.0157644
861.246	0.0158345
861.324	0.0157402
861.402	0.0157330
861.480	0.0158144
861.558	0.0157748
861.636	0.0158216
861.715	0.0156613
861.793	0.0157469
861.871	0.0158162
861.949	0.0156593
862.027	0.0157758
862.105	0.0156227
862.183	0.0155972
862.261	0.0157928
862.340	0.0156810
862.418	0.0156389
862.496	0.0158268
862.574	0.0155763
862.652	0.0157227
862.730	0.0157528
862.808	0.0156185
862.886	0.0156716
862.965	0.0156790
863.043	0.0157278
863.121	0.0156969
863.199	0.0156841
863.277	0.0156754
863.355	0.0155660
863.433	0.0156123
863.511	0.0156556
863.590	0.0155759
863.668	0.0156546
863.746	0.0156622
863.824	0.0157535
863.902	0.0157383
863.980	0.0156226
864.058	0.0155903
864.136	0.0156850
864.215	0.0157619
864.293	0.0156879
864.371	0.0156623
864.449	0.0157199
864.527	0.0157929
864.605	0.0156969
864.683	0.0158000
864.761	0.0158224
864.840	0.0157592
864.918	0.0157961
864.996	0.0157542
865.074	0.0158296
865.152	0.0158422
865.230	0.0158161
865.308	0.0159688
865.386	0.0159425
865.465	0.0159920
865.543	0.0159464
865.621	0.0159490
865.699	0.0159689
865.777	0.0159469
865.855	0.0160363
865.933	0.0160809
866.011	0.0160938
866.090	0.0159876
866.168	0.0160699
866.246	0.0159582
866.324	0.0158994
866.402	0.0160662
866.480	0.0159291
866.558	0.0159168
866.636	0.0159318
866.715	0.0159668
866.793	0.0158659
866.871	0.0159379
866.949	0.0159627
867.027	0.0158076
867.105	0.0158646
867.183	0.0159084
867.261	0.0159384
867.340	0.0159229
867.418	0.0158574
867.496	0.0159547
867.574	0.0158745
867.652	0.0159032
867.730	0.0158042
867.808	0.0158554
867.886	0.0159028
867.965	0.0158751
868.043	0.0159515
868.121	0.0158362
868.199	0.0158627
868.277	0.0157642
868.355	0.0157730
868.433	0.0158167
868.511	0.0159498
868.590	0.0157401
868.668	0.0158467
868.746	0.0158988
868.824	0.0158961
868.902	0.0158449
868.980	0.0158899
869.058	0.0158209
869.136	0.0157815
869.215	0.0159819
869.293	0.0159304
869.371	0.0159967
869.449	0.0159622
869.527	0.0158418
869.605	0.0158852
869.683	0.0159583
869.761	0.0158945
869.840	0.0159083
869.918	0.0158671
869.996	0.0156774
870.074	0.0158430
870.152	0.0157636
870.230	0.0157421
870.308	0.0157265
870.386	0.0157698
870.465	0.0155955
870.543	0.0156950
870.621	0.0157668
870.699	0.0156443
870.777	0.0155838
870.855	0.0156211
870.933	0.0156425
871.011	0.0156789
871.090	0.0155650
871.168	0.0156275
871.246	0.0157339
871.324	0.0156511
871.402	0.0156194
871.480	0.0157518
871.558	0.0158390
871.636	0.0157503
871.715	0.0156017
871.793	0.0157954
871.871	0.0157804
871.949	0.0157342
872.027	0.0157124
872.105	0.0158115
872.183	0.0157254
872.261	0.0157226
872.340	0.0157422
872.418	0.0157681
872.496	0.0158034
872.574	0.0158168
872.652	0.0156623
872.730	0.0157303
872.808	0.0157455
872.886	0.0156965
872.965	0.0157801
873.043	0.0157543
873.121	0.0156650
873.199	0.0158344
873.277	0.0157779
873.355	0.0157537
873.433	0.0156551
873.511	0.0158465
873.590	0.0158372
873.668	0.0158309
873.746	0.0158092
873.824	0.0157635
873.902	0.0158965
873.980	0.0159251
874.058	0.0159070
874.136	0.0158375
874.215	0.0159450
874.293	0.0157899
874.371	0.0158727
874.449	0.0158915
874.527	0.0159140
874.605	0.0158842
874.683	0.0159863
874.761	0.0158987
874.840	0.0158317
874.918	0.0158673
874.996	0.0158492
875.074	0.0159045
875.152	0.0159688
875.230	0.0159930
875.308	0.0159608
875.386	0.0161092
875.465	0.0160119
875.543	0.0158782
875.621	0.0159520
875.699	0.0159105
875.777	0.0158250
875.855	0.0158792
875.933	0.0159303
876.011	0.0158900
876.090	0.0159055
876.168	0.0159571
876.246	0.0159285
876.324	0.0159583
876.402	0.0157777
876.480	0.0159863
876.558	0.0159032
876.636	0.0159772
876.715	0.0158367
876.793	0.0158984
876.871	0.0157926
876.949	0.0158179
877.027	0.0159911
877.105	0.0158421
877.183	0.0157936
877.261	0.0158782
877.340	0.0159905
877.418	0.0158981
877.496	0.0159957
877.574	0.0159006
877.652	0.0159507
877.730	0.0158906
877.808	0.0160105
877.886	0.0158272
877.965	0.0158275
878.043	0.0158556
878.121	0.0157442
878.199	0.0158466
878.277	0.0158157
878.355	0.0157896
878.433	0.0156008
878.511	0.0156808
878.590	0.0157124
878.668	0.0156701
878.746	0.0156568
878.824	0.0156747
878.902	0.0156699
878.980	0.0156532
879.058	0.0155894
879.136	0.0156024
879.215	0.0156461
879.293	0.0156296
879.371	0.0155422
879.449	0.0155752
879.527	0.0156248
879.605	0.0156628
879.683	0.0155357
879.761	0.0153808
879.840	0.0156371
879.918	0.0156470
879.996	0.0155892
880.074	0.0157177
880.152	0.0156995
880.230	0.0157500
880.308	0.0157484
880.386	0.0158225
880.465	0.0156805
880.543	0.0156774
880.621	0.0157644
880.699	0.0157377
880.777	0.0157469
880.855	0.0157933
880.933	0.0157402
881.011	0.0158076
881.090	0.0157024
881.168	0.0157529
881.246	0.0158556
881.324	0.0157031
881.402	0.0158089
881.480	0.0157114
881.558	0.0156991
881.636	0.0156886
881.715	0.0157774
881.793	0.0156824
881.871	0.0158331
881.949	0.0158456
882.027	0.0157843
882.105	0.0157732
882.183	0.0158131
882.261	0.0160360
882.340	0.0159587
882.418	0.0158312
882.496	0.0158900
882.574	0.0159911
882.652	0.0159909
882.730	0.0159043
882.808	0.0158589
882.886	0.0158907
882.965	0.0157666
883.043	0.0159048
883.121	0.0159949
883.199	0.0159229
883.277	0.0158181
883.355	0.0157805
883.433	0.0158870
883.511	0.0159181
883.590	0.0159011
883.668	0.0158213
883.746	0.0158253
883.824	0.0156904
883.902	0.0157538
883.980	0.0158356
884.058	0.0157715
884.136	0.0157526
884.215	0.0158922
884.293	0.0159174
884.371	0.0157108
884.449	0.0159618
884.527	0.0158521
884.605	0.0158752
884.683	0.0158591
884.761	0.0159059
884.840	0.0159970
884.918	0.0158479
884.996	0.0159992
885.074	0.0161234
885.152	0.0158653
885.230	0.0159482
885.308	0.0160103
885.386	0.0160085
885.465	0.0160558
885.543	0.0160381
885.621	0.0160146
885.699	0.0159369
885.777	0.0159686
885.855	0.0158941
885.933	0.0157872
886.011	0.0158595
886.090	0.0157674
886.168	0.0157789
886.246	0.0157530
886.324	0.0158446
886.402	0.0156850
886.480	0.0157191
886.558	0.0157953
886.636	0.0157029
886.715	0.0157449
886.793	0.0157671
886.871	0.0157494
886.949	0.0157507
887.027	0.0156703
887.105	0.0157494
887.183	0.0157223
887.261	0.0155814
887.340	0.0157367
887.418	0.0156713
887.496	0.0157912
887.574	0.0156115
887.652	0.0157295
887.730	0.0156516
887.808	0.0157413
887.886	0.0157486
887.965	0.0157747
888.043	0.0156718
888.121	0.0157127
888.199	0.0158979
888.277	0.0157512
888.355	0.0157857
888.433	0.0158079
888.511	0.0157883
888.590	0.0158042
888.668	0.0159274
888.746	0.0157506
888.824	0.0159054
888.902	0.0159296
888.980	0.0157877
889.058	0.0158296
889.136	0.0157784
889.215	0.0157322
889.293	0.0159071
889.371	0.0157773
889.449	0.0158226
889.527	0.0157546
889.605	0.0158284
889.683	0.0157126
889.761	0.0157488
889.840	0.0158989
889.918	0.0159229
889.996	0.0157919
890.074	0.0158375
890.152	0.0158134
890.230	0.0158521
890.308	0.0157787
890.386	0.0157652
890.465	0.0158744
890.543	0.0159584
890.621	0.0158086
890.699	0.0159417
890.777	0.0158982
890.855	0.0159350
890.933	0.0158768
891.011	0.0158280
891.090	0.0159135
891.168	0.0159008
891.246	0.0158430
891.324	0.0158224
891.402	0.0159814
891.480	0.0158820
891.558	0.0157755
891.636	0.0159513
891.715	0.0158669
891.793	0.0158684
891.871	0.0157829
891.949	0.0158575
892.027	0.0157655
892.105	0.0156434
892.183	0.0158551
892.261	0.0158266
892.340	0.0158009
892.418	0.0156628
892.496	0.0158360
892.574	0.0158080
892.652	0.0158164
892.730	0.0157658
892.808	0.0157672
892.886	0.0157917
892.965	0.0157649
893.043	0.0156648
893.121	0.0158320
893.199	0.0158409
893.277	0.0159440
893.355	0.0159351
893.433	0.0159200
893.511	0.0158727
893.590	0.0157431
893.668	0.0158814
893.746	0.0159045
893.824	0.0158865
893.902	0.0158282
893.980	0.0159393
894.058	0.0158689
894.136	0.0157883
894.215	0.0156982
894.293	0.0158978
894.371	0.0159319
894.449	0.0157421
894.527	0.0156676
894.605	0.0157790
894.683	0.0157887
894.761	0.0157323
894.840	0.0158647
894.918	0.0158627
894.996	0.0158263
895.074	0.0157401
895.152	0.0157799
895.230	0.0158289
895.308	0.0157843
895.386	0.0157602
895.465	0.0158144
895.543	0.0156891
895.621	0.0156381
895.699	0.0157990
895.777	0.0157761
895.855	0.0157957
895.933	0.0159404
896.011	0.0158584
896.090	0.0158385
896.168	0.0157745
896.246	0.0157943
896.324	0.0156916
896.402	0.0157615
896.480	0.0158421
896.558	0.0158231
896.636	0.0157406
896.715	0.0156434
896.793	0.0157041
896.871	0.0158199
896.949	0.0157133
897.027	0.0158383
897.105	0.0158189
897.183	0.0157526
897.261	0.0158600
897.340	0.0157986
897.418	0.0157884
897.496	0.0158062
897.574	0.0157014
897.652	0.0158193
897.730	0.0158013
897.808	0.0158340
897.886	0.0158704
897.965	0.0158232
898.043	0.0156696
898.121	0.0156545
898.199	0.0157556
898.277	0.0158088
898.355	0.0157706
898.433	0.0157620
898.511	0.0158286
898.590	0.0158121
898.668	0.0158235
898.746	0.0157030
898.824	0.0157175
898.902	0.0157687
898.980	0.0158830
899.058	0.0158211
899.136	0.0157626
899.215	0.0157057
899.293	0.0157413
899.371	0.0158633
899.449	0.0157302
899.527	0.0157095
899.605	0.0158421
899.683	0.0158244
899.761	0.0157296
899.840	0.0158117
899.918	0.0157722
899.996	0.0157532
900.074	0.0157973
900.152	0.0157486
900.230	0.0158652
900.308	0.0158694
900.386	0.0158134
900.465	0.0159203
900.543	0.0158012
900.621	0.0157691
900.699	0.0157925
900.777	0.0158036
900.855	0.0157227
900.933	0.0158745
901.011	0.0159122
901.090	0.0157013
901.168	0.0158052
901.246	0.0158751
901.324	0.0159544
901.402	0.0157734
901.480	0.0159028
901.558	0.0159247
901.636	0.0157452
901.715	0.0158412
901.793	0.0158714
901.871	0.0158180
901.949	0.0157670
902.027	0.0156861
902.105	0.0157105
902.183	0.0158382
902.261	0.0158243
902.340	0.0156740
902.418	0.0157587
902.496	0.0158622
902.574	0.0159545
902.652	0.0157611
902.730	0.0157728
902.808	0.0159145
902.886	0.0157725
902.965	0.0157093
903.043	0.0158351
903.121	0.0158073
903.199	0.0158003
903.277	0.0157944
903.355	0.0157842
903.433	0.0157359
903.511	0.0158198
903.590	0.0158633
903.668	0.0157287
903.746	0.0158979
903.824	0.0157225
903.902	0.0156728
903.980	0.0159082
904.058	0.0157716
904.136	0.0156776
904.215	0.0156671
904.293	0.0157687
904.371	0.0159908
904.449	0.0158846
904.527	0.0157728
904.605	0.0159559
904.683	0.0159327
904.761	0.0158051
904.840	0.0157820
904.918	0.0157513
904.996	0.0157333
905.074	0.0157077
905.152	0.0158665
905.230	0.0157449
905.308	0.0158224
905.386	0.0157230
905.465	0.0157859
905.543	0.0158998
905.621	0.0158359
905.699	0.0158768
905.777	0.0158107
905.855	0.0157135
905.933	0.0158151
906.011	0.0158794
906.090	0.0158486
906.168	0.0158443
906.246	0.0158506
906.324	0.0157967
906.402	0.0158910
906.480	0.0157438
906.558	0.0158733
906.636	0.0157937
906.715	0.0157764
906.793	0.0158092
906.871	0.0158213
906.949	0.0158340
907.027	0.0159245
907.105	0.0158147
907.183	0.0157510
907.261	0.0157814
907.340	0.0158490
907.418	0.0158331
907.496	0.0157893
907.574	0.0156980
907.652	0.0157713
907.730	0.0158466
907.808	0.0156937
907.886	0.0158224
907.965	0.0158141
908.043	0.0157816
908.121	0.0157543
908.199	0.0158744
908.277	0.0158727
908.355	0.0159002
908.433	0.0157944
908.511	0.0158780
908.590	0.0160921
908.668	0.0158908
908.746	0.0158178
908.824	0.0157918
908.902	0.0158949
908.980	0.0160104
909.058	0.0157703
909.136	0.0158057
909.215	0.0159153
909.293	0.0158227
909.371	0.0159534
909.449	0.0157804
909.527	0.0157862
909.605	0.0158549
909.683	0.0157288
909.761	0.0159026
909.840	0.0157692
909.918	0.0157249
909.996	0.0158133
910.074	0.0156338
910.152	0.0156828
910.230	0.0158325
910.308	0.0158958
910.386	0.0159362
910.465	0.0159940
910.543	0.0159386
910.621	0.0158092
910.699	0.0159141
910.777	0.0160219
910.855	0.0159335
910.933	0.0161285
911.011	0.0159406
911.090	0.0159246
911.168	0.0158296
911.246	0.0158720
911.324	0.0159462
911.402	0.0157766
911.480	0.0158791
911.558	0.0157778
911.636	0.0157252
911.715	0.0157825
911.793	0.0157364
911.871	0.0157367
911.949	0.0157730
912.027	0.0156795
912.105	0.0157650
912.183	0.0158625
912.261	0.0158253
912.340	0.0157574
912.418	0.0158320
912.496	0.0158051
912.574	0.0158810
912.652	0.0158089
912.730	0.0158289
912.808	0.0158799
912.886	0.0160249
912.965	0.0157896
913.043	0.0157802
913.121	0.0158617
913.199	0.0159477
913.277	0.0158513
913.355	0.0157817
913.433	0.0158827
913.511	0.0158537
913.590	0.0158205
913.668	0.0158623
913.746	0.0159426
913.824	0.0158123
913.902	0.0157357
913.980	0.0158095
914.058	0.0156915
914.136	0.0157874
914.215	0.0157886
914.293	0.0158716
914.371	0.0159116
914.449	0.0159062
914.527	0.0159297
914.605	0.0157193
914.683	0.0157976
914.761	0.0159045
914.840	0.0157993
914.918	0.0158469
914.996	0.0158456
915.074	0.0157887
915.152	0.0158209
915.230	0.0158850
915.308	0.0157726
915.386	0.0157390
915.465	0.0157183
915.543	0.0156834
915.621	0.0159317
915.699	0.0158362
915.777	0.0158015
915.855	0.0157733
915.933	0.0160110
916.011	0.0158503
916.090	0.0158933
916.168	0.0157688
916.246	0.0159082
916.324	0.0159626
916.402	0.0158387
916.480	0.0159783
916.558	0.0159952
916.636	0.0159318
916.715	0.0159145
916.793	0.0157969
916.871	0.0158080
916.949	0.0157945
917.027	0.0157673
917.105	0.0157468
917.183	0.0158589
917.261	0.0157741
917.340	0.0157650
917.418	0.0158003
917.496	0.0158759
917.574	0.0157627
917.652	0.0158739
917.730	0.0159422
917.808	0.0159637
917.886	0.0158076
917.965	0.0158003
918.043	0.0158841
918.121	0.0158430
918.199	0.0158566
918.277	0.0159422
918.355	0.0158868
918.433	0.0159728
918.511	0.0158751
918.590	0.0158955
918.668	0.0158101
918.746	0.0157756
918.824	0.0158044
918.902	0.0159183
918.980	0.0158255
919.058	0.0158045
919.136	0.0158032
919.215	0.0158785
919.293	0.0159113
919.371	0.0156850
919.449	0.0158012
919.527	0.0158401
919.605	0.0157948
919.683	0.0157568
919.761	0.0158011
919.840	0.0157051
919.918	0.0157865
919.996	0.0156891
920.074	0.0157735
920.152	0.0157484
920.230	0.0157585
920.308	0.0156595
920.386	0.0158672
920.465	0.0157778
920.543	0.0157094
920.621	0.0158661
920.699	0.0157656
920.777	0.0157808
920.855	0.0156413
920.933	0.0157706
921.011	0.0157619
921.090	0.0158047
921.168	0.0157910
921.246	0.0157352
921.324	0.0156658
921.402	0.0157832
921.480	0.0158572
921.558	0.0155988
921.636	0.0157744
921.715	0.0157474
921.793	0.0156400
921.871	0.0156781
921.949	0.0158714
922.027	0.0157589
922.105	0.0156736
922.183	0.0157721
922.261	0.0157956
922.340	0.0157419
922.418	0.0158506
922.496	0.0156194
922.574	0.0155357
922.652	0.0157857
922.730	0.0158709
922.808	0.0157178
922.886	0.0156964
922.965	0.0157515
923.043	0.0157868
923.121	0.0157013
923.199	0.0156841
923.277	0.0158392
923.355	0.0157782
923.433	0.0157454
923.511	0.0157360
923.590	0.0159502
923.668	0.0158838
923.746	0.0158294
923.824	0.0158154
923.902	0.0157933
923.980	0.0157550
924.058	0.0159357
924.136	0.0159782
924.215	0.0159745
924.293	0.0158543
924.371	0.0158730
924.449	0.0158774
924.527	0.0158583
924.605	0.0159805
924.683	0.0160595
924.761	0.0159401
924.840	0.0158810
924.918	0.0156992
924.996	0.0158922
925.074	0.0159222
925.152	0.0158535
925.230	0.0159182
925.308	0.0158801
925.386	0.0159262
925.465	0.0160024
925.543	0.0158245
925.621	0.0159227
925.699	0.0159481
925.777	0.0159282
925.855	0.0158472
925.933	0.0159335
926.011	0.0158818
926.090	0.0159563
926.168	0.0160069
926.246	0.0157774
926.324	0.0158640
926.402	0.0159143
926.480	0.0158550
926.558	0.0159007
926.636	0.0158282
926.715	0.0158015
926.793	0.0157973
926.871	0.0157323
926.949	0.0157639
927.027	0.0158229
927.105	0.0158762
927.183	0.0156673
927.261	0.0157536
927.340	0.0158186
927.418	0.0156602
927.496	0.0157371
927.574	0.0158514
927.652	0.0155838
927.730	0.0157442
927.808	0.0158488
927.886	0.0157874
927.965	0.0158191
928.043	0.0157881
928.121	0.0158846
928.199	0.0157331
928.277	0.0157972
928.355	0.0156760
928.433	0.0157848
928.511	0.0157240
928.590	0.0157809
928.668	0.0158520
928.746	0.0156525
928.824	0.0156274
928.902	0.0157577
928.980	0.0157391
929.058	0.0156589
929.136	0.0156242
929.215	0.0157638
929.293	0.0157966
929.371	0.0157800
929.449	0.0157063
929.527	0.0156699
929.605	0.0157591
929.683	0.0157303
929.761	0.0157214
929.840	0.0156706
929.918	0.0156470
929.996	0.0157333
930.074	0.0157713
930.152	0.0157627
930.230	0.0157584
930.308	0.0156818
930.386	0.0156282
930.465	0.0157028
930.543	0.0156737
930.621	0.0157890
930.699	0.0156692
930.777	0.0156663
930.855	0.0156718
930.933	0.0157156
931.011	0.0156635
931.090	0.0155568
931.168	0.0156605
931.246	0.0158195
931.324	0.0158105
931.402	0.0157469
931.480	0.0158157
931.558	0.0157928
931.636	0.0159205
931.715	0.0156662
931.793	0.0158302
931.871	0.0157143
931.949	0.0156619
932.027	0.0157865
932.105	0.0157137
932.183	0.0157007
932.261	0.0158362
932.340	0.0157696
932.418	0.0158234
932.496	0.0158237
932.574	0.0157943
932.652	0.0158582
932.730	0.0158984
932.808	0.0158205
932.886	0.0160123
932.965	0.0158133
933.043	0.0158403
933.121	0.0158402
933.199	0.0160445
933.277	0.0159168
933.355	0.0159241
933.433	0.0159013
933.511	0.0159126
933.590	0.0159679
933.668	0.0158846
933.746	0.0158649
933.824	0.0158617
933.902	0.0159131
933.980	0.0157547
934.058	0.0158926
934.136	0.0158562
934.215	0.0159570
934.293	0.0158643
934.371	0.0159785
934.449	0.0158815
934.527	0.0157769
934.605	0.0157791
934.683	0.0157311
934.761	0.0156850
934.840	0.0155963
934.918	0.0157693
934.996	0.0156665
935.074	0.0157148
935.152	0.0157372
935.230	0.0158407
935.308	0.0157685
935.386	0.0158260
935.465	0.0159348
935.543	0.0158275
935.621	0.0158492
935.699	0.0158342
935.777	0.0160352
935.855	0.0159395
935.933	0.0158953
936.011	0.0160567
936.090	0.0159607
936.168	0.0159055
936.246	0.0160152
936.324	0.0160340
936.402	0.0159342
936.480	0.0158810
936.558	0.0158122
936.636	0.0157359
936.715	0.0156034
936.793	0.0158363
936.871	0.0157742
936.949	0.0155998
937.027	0.0157503
937.105	0.0157339
937.183	0.0156957
937.261	0.0156710
937.340	0.0156848
937.418	0.0157033
937.496	0.0156436
937.574	0.0156156
937.652	0.0156949
937.730	0.0156954
937.808	0.0157196
937.886	0.0158279
937.965	0.0159521
938.043	0.0156927
938.121	0.0158114
938.199	0.0158756
938.277	0.0157629
938.355	0.0157157
938.433	0.0156942
938.511	0.0158630
938.590	0.0157696
938.668	0.0158189
938.746	0.0156749
938.824	0.0156638
938.902	0.0157709
938.980	0.0159204
939.058	0.0160129
939.136	0.0158147
939.215	0.0157860
939.293	0.0160058
939.371	0.0158695
939.449	0.0157009
939.527	0.0157713
939.605	0.0158520
939.683	0.0158650
939.761	0.0157178
939.840	0.0157841
939.918	0.0157751
939.996	0.0158551
940.074	0.0157492
940.152	0.0158681
940.230	0.0158785
940.308	0.0159245
940.386	0.0159735
940.465	0.0159018
940.543	0.0158633
940.621	0.0159745
940.699	0.0160427
940.777	0.0159413
940.855	0.0160884
940.933	0.0159452
941.011	0.0159857
941.090	0.0159198
941.168	0.0159007
941.246	0.0160235
941.324	0.0157970
941.402	0.0158296
941.480	0.0159003
941.558	0.0158156
941.636	0.0156796
941.715	0.0156940
941.793	0.0157522
941.871	0.0157273
941.949	0.0155604
942.027	0.0157487
942.105	0.0156113
942.183	0.0157320
942.261	0.0156413
942.340	0.0156384
942.418	0.0157168
942.496	0.0157504
942.574	0.0157363
942.652	0.0156492
942.730	0.0156686
942.808	0.0156950
942.886	0.0157330
942.965	0.0158532
943.043	0.0158627
943.121	0.0158031
943.199	0.0158611
943.277	0.0158942
943.355	0.0158414
943.433	0.0158801
943.511	0.0160131
943.590	0.0158536
943.668	0.0159768
943.746	0.0159299
943.824	0.0158523
943.902	0.0158920
943.980	0.0158918
944.058	0.0157494
944.136	0.0158469
944.215	0.0156851
944.293	0.0158115
944.371	0.0155968
944.449	0.0157301
944.527	0.0156357
944.605	0.0157002
944.683	0.0157545
944.761	0.0157178
944.840	0.0157126
944.918	0.0157511
944.996	0.0155533
945.074	0.0156548
945.152	0.0156227
945.230	0.0157290
945.308	0.0158697
945.386	0.0157115
945.465	0.0157648
945.543	0.0159201
945.621	0.0157593
945.699	0.0157964
945.777	0.0157766
945.855	0.0158378
945.933	0.0158359
946.011	0.0156735
946.090	0.0157528
946.168	0.0158591
946.246	0.0158632
946.324	0.0159525
946.402	0.0158638
946.480	0.0158170
946.558	0.0157976
946.636	0.0157817
946.715	0.0158949
946.793	0.0158602
946.871	0.0158626
946.949	0.0158742
947.027	0.0158932
947.105	0.0157822
947.183	0.0158068
947.261	0.0158612
947.340	0.0157529
947.418	0.0157338
947.496	0.0158402
947.574	0.0158104
947.652	0.0157732
947.730	0.0157793
947.808	0.0159075
947.886	0.0159332
947.965	0.0157723
948.043	0.0158766
948.121	0.0159705
948.199	0.0158976
948.277	0.0159921
948.355	0.0159223
948.433	0.0158366
948.511	0.0158555
948.590	0.0160207
948.668	0.0158498
948.746	0.0158162
948.824	0.0158916
948.902	0.0159298
948.980	0.0160262
949.058	0.0159102
949.136	0.0158804
949.215	0.0158765
949.293	0.0158044
949.371	0.0159238
949.449	0.0159261
949.527	0.0158238
949.605	0.0157443
949.683	0.0157671
949.761	0.0157272
949.840	0.0158146
949.918	0.0156539
