05/04/2022	21:34:18	Ver.	4.1	UNKNOWN
Optical Delay	678.996401	Delta X		0.078125	Sweeps	1	Scan Rate	0/0
Coordinates	Axis 1	NaN	Axis 2	NaN	Axis 3	NaN	Axis 4	NaN	Axis 5	NaN	Axis 6	0.000000
TX Power	0.000000	RX Power	0.000000

678.996	0.0139996
679.075	0.0140643
679.153	0.0140710
679.231	0.0140098
679.309	0.0140431
679.387	0.0140079
679.465	0.0140692
679.543	0.0141016
679.621	0.0140179
679.700	0.0141003
679.778	0.0141222
679.856	0.0139877
679.934	0.0138132
680.012	0.0139059
680.090	0.0139986
680.168	0.0139056
680.246	0.0138596
680.325	0.0138831
680.403	0.0140726
680.481	0.0139988
680.559	0.0139114
680.637	0.0141351
680.715	0.0140455
680.793	0.0138929
680.871	0.0140536
680.950	0.0139227
681.028	0.0140911
681.106	0.0140990
681.184	0.0138409
681.262	0.0140690
681.340	0.0139314
681.418	0.0139840
681.496	0.0139163
681.575	0.0141775
681.653	0.0141164
681.731	0.0139226
681.809	0.0138705
681.887	0.0138169
681.965	0.0138825
682.043	0.0140051
682.121	0.0138835
682.200	0.0138314
682.278	0.0137446
682.356	0.0137954
682.434	0.0138950
682.512	0.0138856
682.590	0.0138669
682.668	0.0138844
682.746	0.0139848
682.825	0.0139886
682.903	0.0139577
682.981	0.0139915
683.059	0.0140243
683.137	0.0140031
683.215	0.0140337
683.293	0.0140432
683.371	0.0139446
683.450	0.0139067
683.528	0.0141830
683.606	0.0140191
683.684	0.0140337
683.762	0.0142367
683.840	0.0141260
683.918	0.0140527
683.996	0.0141209
684.075	0.0141335
684.153	0.0140110
684.231	0.0139953
684.309	0.0138001
684.387	0.0139122
684.465	0.0137787
684.543	0.0137788
684.621	0.0138670
684.700	0.0138718
684.778	0.0137756
684.856	0.0138258
684.934	0.0138787
685.012	0.0137862
685.090	0.0137944
685.168	0.0139009
685.246	0.0139179
685.325	0.0139845
685.403	0.0138856
685.481	0.0138517
685.559	0.0140031
685.637	0.0141961
685.715	0.0140439
685.793	0.0140855
685.871	0.0142722
685.950	0.0142098
686.028	0.0143726
686.106	0.0143351
686.184	0.0142769
686.262	0.0142337
686.340	0.0141846
686.418	0.0140246
686.496	0.0139692
686.575	0.0139682
686.653	0.0140083
686.731	0.0137897
686.809	0.0138896
686.887	0.0136777
686.965	0.0137215
687.043	0.0137122
687.121	0.0135804
687.200	0.0135305
687.278	0.0135259
687.356	0.0136229
687.434	0.0136779
687.512	0.0137775
687.590	0.0138680
687.668	0.0139147
687.746	0.0139542
687.825	0.0140009
687.903	0.0140629
687.981	0.0140710
688.059	0.0142034
688.137	0.0143327
688.215	0.0140971
688.293	0.0141135
688.371	0.0142572
688.450	0.0143118
688.528	0.0143063
688.606	0.0141641
688.684	0.0142173
688.762	0.0140992
688.840	0.0140849
688.918	0.0139925
688.996	0.0140834
689.075	0.0141753
689.153	0.0141197
689.231	0.0140419
689.309	0.0140100
689.387	0.0140207
689.465	0.0140321
689.543	0.0138976
689.621	0.0140011
689.700	0.0137881
689.778	0.0137917
689.856	0.0137776
689.934	0.0136913
690.012	0.0135715
690.090	0.0135144
690.168	0.0135580
690.246	0.0135484
690.325	0.0136806
690.403	0.0136684
690.481	0.0137437
690.559	0.0137937
690.637	0.0139157
690.715	0.0138496
690.793	0.0137515
690.871	0.0139252
690.950	0.0138373
691.028	0.0139654
691.106	0.0140001
691.184	0.0140736
691.262	0.0141787
691.340	0.0140594
691.418	0.0140071
691.496	0.0140906
691.575	0.0139895
691.653	0.0141248
691.731	0.0142607
691.809	0.0141138
691.887	0.0140794
691.965	0.0141792
692.043	0.0139991
692.121	0.0141930
692.200	0.0141168
692.278	0.0140260
692.356	0.0140437
692.434	0.0140889
692.512	0.0140034
692.590	0.0141209
692.668	0.0139435
692.746	0.0139532
692.825	0.0137575
692.903	0.0138451
692.981	0.0137106
693.059	0.0136452
693.137	0.0136137
693.215	0.0136372
693.293	0.0136966
693.371	0.0135373
693.450	0.0136379
693.528	0.0136868
693.606	0.0136951
693.684	0.0136543
693.762	0.0136227
693.840	0.0136520
693.918	0.0136877
693.996	0.0136313
694.075	0.0136856
694.153	0.0138052
694.231	0.0138531
694.309	0.0139767
694.387	0.0139496
694.465	0.0142810
694.543	0.0143235
694.621	0.0143531
694.700	0.0144530
694.778	0.0143988
694.856	0.0144682
694.934	0.0143313
695.012	0.0144218
695.090	0.0143002
695.168	0.0141947
695.246	0.0142962
695.325	0.0141875
695.403	0.0140915
695.481	0.0140695
695.559	0.0141431
695.637	0.0141195
695.715	0.0139803
695.793	0.0139884
695.871	0.0139774
695.950	0.0137356
696.028	0.0139172
696.106	0.0138475
696.184	0.0137566
696.262	0.0136695
696.340	0.0136863
696.418	0.0136340
696.496	0.0135524
696.575	0.0135786
696.653	0.0136632
696.731	0.0136857
696.809	0.0137630
696.887	0.0135694
696.965	0.0137124
697.043	0.0138175
697.121	0.0137402
697.200	0.0136697
697.278	0.0138273
697.356	0.0138425
697.434	0.0139291
697.512	0.0140126
697.590	0.0141315
697.668	0.0140726
697.746	0.0141376
697.825	0.0141582
697.903	0.0142077
697.981	0.0142597
698.059	0.0142426
698.137	0.0143193
698.215	0.0142447
698.293	0.0143496
698.371	0.0141313
698.450	0.0142278
698.528	0.0142339
698.606	0.0143678
698.684	0.0141527
698.762	0.0142783
698.840	0.0141762
698.918	0.0142526
698.996	0.0143226
699.075	0.0142218
699.153	0.0139280
699.231	0.0139906
699.309	0.0140045
699.387	0.0138165
699.465	0.0136702
699.543	0.0135153
699.621	0.0135450
699.700	0.0134250
699.778	0.0134300
699.856	0.0134860
699.934	0.0136181
700.012	0.0135094
700.090	0.0135434
700.168	0.0137345
700.246	0.0137805
700.325	0.0138697
700.403	0.0139293
700.481	0.0139921
700.559	0.0140065
700.637	0.0141008
700.715	0.0141557
700.793	0.0140994
700.871	0.0141781
700.950	0.0142163
701.028	0.0140742
701.106	0.0140390
701.184	0.0140889
701.262	0.0139635
701.340	0.0140583
701.418	0.0140900
701.496	0.0142178
701.575	0.0142831
701.653	0.0143056
701.731	0.0141782
701.809	0.0142707
701.887	0.0143257
701.965	0.0144472
702.043	0.0143385
702.121	0.0143048
702.200	0.0142068
702.278	0.0141451
702.356	0.0140520
702.434	0.0140476
702.512	0.0140973
702.590	0.0139068
702.668	0.0137469
702.746	0.0137777
702.825	0.0137296
702.903	0.0137231
702.981	0.0136334
703.059	0.0137183
703.137	0.0136170
703.215	0.0135529
703.293	0.0135252
703.371	0.0136914
703.450	0.0135233
703.528	0.0137897
703.606	0.0136658
703.684	0.0137385
703.762	0.0136485
703.840	0.0137371
703.918	0.0137778
703.996	0.0138616
704.075	0.0138463
704.153	0.0138894
704.231	0.0141256
704.309	0.0140407
704.387	0.0141154
704.465	0.0141821
704.543	0.0142405
704.621	0.0142828
704.700	0.0142599
704.778	0.0143867
704.856	0.0144292
704.934	0.0143121
705.012	0.0143744
705.090	0.0144582
705.168	0.0143272
705.246	0.0142647
705.325	0.0143462
705.403	0.0142256
705.481	0.0141624
705.559	0.0140019
705.637	0.0139648
705.715	0.0137730
705.793	0.0138539
705.871	0.0138593
705.950	0.0137141
706.028	0.0137249
706.106	0.0138349
706.184	0.0137371
706.262	0.0137920
706.340	0.0137794
706.418	0.0138711
706.496	0.0137182
706.575	0.0139194
706.653	0.0139001
706.731	0.0139298
706.809	0.0139056
706.887	0.0138294
706.965	0.0140251
707.043	0.0139075
707.121	0.0139955
707.200	0.0138139
707.278	0.0138286
707.356	0.0139575
707.434	0.0138479
707.512	0.0138079
707.590	0.0138915
707.668	0.0140057
707.746	0.0138951
707.825	0.0140326
707.903	0.0140575
707.981	0.0140500
708.059	0.0140863
708.137	0.0140875
708.215	0.0141329
708.293	0.0140204
708.371	0.0140777
708.450	0.0142861
708.528	0.0141190
708.606	0.0140624
708.684	0.0142021
708.762	0.0142963
708.840	0.0141928
708.918	0.0143063
708.996	0.0143724
709.075	0.0141690
709.153	0.0141759
709.231	0.0141203
709.309	0.0140116
709.387	0.0141016
709.465	0.0141222
709.543	0.0139278
709.621	0.0138663
709.700	0.0138014
709.778	0.0137256
709.856	0.0136926
709.934	0.0136729
710.012	0.0136172
710.090	0.0135783
710.168	0.0136221
710.246	0.0136111
710.325	0.0136654
710.403	0.0135239
710.481	0.0135857
710.559	0.0138238
710.637	0.0137776
710.715	0.0139065
710.793	0.0138890
710.871	0.0138594
710.950	0.0141306
711.028	0.0141654
711.106	0.0141020
711.184	0.0140803
711.262	0.0141290
711.340	0.0142430
711.418	0.0142673
711.496	0.0142540
711.575	0.0143523
711.653	0.0142950
711.731	0.0143063
711.809	0.0142495
711.887	0.0141927
711.965	0.0140578
712.043	0.0140417
712.121	0.0141003
712.200	0.0140163
712.278	0.0140914
712.356	0.0139467
712.434	0.0138234
712.512	0.0139116
712.590	0.0139282
712.668	0.0138876
712.746	0.0138091
712.825	0.0138567
712.903	0.0138131
712.981	0.0138046
713.059	0.0138878
713.137	0.0137773
713.215	0.0136679
713.293	0.0138390
713.371	0.0140279
713.450	0.0138146
713.528	0.0137891
713.606	0.0137903
713.684	0.0137273
713.762	0.0138963
713.840	0.0138202
713.918	0.0138741
713.996	0.0138498
714.075	0.0138894
714.153	0.0138499
714.231	0.0138553
714.309	0.0138119
714.387	0.0137511
714.465	0.0138107
714.543	0.0138500
714.621	0.0139342
714.700	0.0139983
714.778	0.0139705
714.856	0.0140501
714.934	0.0140975
715.012	0.0139043
715.090	0.0140424
715.168	0.0139458
715.246	0.0141814
715.325	0.0141051
715.403	0.0139677
715.481	0.0138220
715.559	0.0139304
715.637	0.0140458
715.715	0.0139535
715.793	0.0141914
715.871	0.0140557
715.950	0.0139037
716.028	0.0140109
716.106	0.0138982
716.184	0.0139302
716.262	0.0139059
716.340	0.0139973
716.418	0.0137940
716.496	0.0138717
716.575	0.0137914
716.653	0.0138659
716.731	0.0138508
716.809	0.0137654
716.887	0.0137392
716.965	0.0137637
717.043	0.0135698
717.121	0.0136070
717.200	0.0136768
717.278	0.0137804
717.356	0.0138316
717.434	0.0137354
717.512	0.0137627
717.590	0.0138728
717.668	0.0137826
717.746	0.0137791
717.825	0.0138803
717.903	0.0140226
717.981	0.0140271
718.059	0.0140862
718.137	0.0140633
718.215	0.0141850
718.293	0.0142213
718.371	0.0144206
718.450	0.0142852
718.528	0.0141917
718.606	0.0140594
718.684	0.0142353
718.762	0.0141428
718.840	0.0140513
718.918	0.0141084
718.996	0.0140164
719.075	0.0139621
719.153	0.0139149
719.231	0.0139012
719.309	0.0138415
719.387	0.0139912
719.465	0.0138749
719.543	0.0138525
719.621	0.0139898
719.700	0.0140160
719.778	0.0138956
719.856	0.0138090
719.934	0.0137587
720.012	0.0138014
720.090	0.0137072
720.168	0.0138016
720.246	0.0136404
720.325	0.0137793
720.403	0.0139679
720.481	0.0140296
720.559	0.0139227
720.637	0.0137560
720.715	0.0139649
720.793	0.0140800
720.871	0.0140289
720.950	0.0139838
721.028	0.0139721
721.106	0.0139910
721.184	0.0140356
721.262	0.0140190
721.340	0.0141658
721.418	0.0140907
721.496	0.0138483
721.575	0.0139098
721.653	0.0139992
721.731	0.0139928
721.809	0.0140002
721.887	0.0140666
721.965	0.0139386
722.043	0.0139186
722.121	0.0138759
722.200	0.0138490
722.278	0.0139340
722.356	0.0138915
722.434	0.0140072
722.512	0.0139436
722.590	0.0140315
722.668	0.0139645
722.746	0.0139406
722.825	0.0140580
722.903	0.0140424
722.981	0.0140274
723.059	0.0140190
723.137	0.0140380
723.215	0.0139931
723.293	0.0140945
723.371	0.0139844
723.450	0.0138866
723.528	0.0139052
723.606	0.0137991
723.684	0.0137484
723.762	0.0137776
723.840	0.0135480
723.918	0.0136584
723.996	0.0138481
724.075	0.0137993
724.153	0.0138557
724.231	0.0137726
724.309	0.0138374
724.387	0.0139567
724.465	0.0139078
724.543	0.0140187
724.621	0.0139703
724.700	0.0140603
724.778	0.0141569
724.856	0.0141756
724.934	0.0140204
725.012	0.0140672
725.090	0.0140913
725.168	0.0140631
725.246	0.0141935
725.325	0.0142683
725.403	0.0141876
725.481	0.0141689
725.559	0.0140491
725.637	0.0142199
725.715	0.0140943
725.793	0.0141623
725.871	0.0140076
725.950	0.0141539
726.028	0.0141232
726.106	0.0139578
726.184	0.0139529
726.262	0.0137638
726.340	0.0138193
726.418	0.0137901
726.496	0.0136954
726.575	0.0137263
726.653	0.0135753
726.731	0.0137256
726.809	0.0135841
726.887	0.0135166
726.965	0.0136745
727.043	0.0135981
727.121	0.0136633
727.200	0.0137511
727.278	0.0138079
727.356	0.0138063
727.434	0.0139053
727.512	0.0138114
727.590	0.0140112
727.668	0.0140472
727.746	0.0141175
727.825	0.0140840
727.903	0.0140907
727.981	0.0140095
728.059	0.0140273
728.137	0.0140593
728.215	0.0140919
728.293	0.0140683
728.371	0.0140812
728.450	0.0139678
728.528	0.0139697
728.606	0.0140091
728.684	0.0139970
728.762	0.0139497
728.840	0.0140085
728.918	0.0138833
728.996	0.0138335
729.075	0.0139473
729.153	0.0138642
729.231	0.0138480
729.309	0.0137376
729.387	0.0138741
729.465	0.0139138
729.543	0.0138758
729.621	0.0138267
729.700	0.0138853
729.778	0.0139233
729.856	0.0138155
729.934	0.0139615
730.012	0.0139855
730.090	0.0139593
730.168	0.0139716
730.246	0.0141188
730.325	0.0141266
730.403	0.0139185
730.481	0.0140084
730.559	0.0139442
730.637	0.0139246
730.715	0.0139986
730.793	0.0139248
730.871	0.0139363
730.950	0.0139820
731.028	0.0138659
731.106	0.0138297
731.184	0.0139394
731.262	0.0139202
731.340	0.0136883
731.418	0.0139639
731.496	0.0139019
731.575	0.0138968
731.653	0.0139345
731.731	0.0138925
731.809	0.0139384
731.887	0.0141000
731.965	0.0139185
732.043	0.0141290
732.121	0.0141530
732.200	0.0141485
732.278	0.0141499
732.356	0.0141267
732.434	0.0141030
732.512	0.0140961
732.590	0.0140726
732.668	0.0140523
732.746	0.0140165
732.825	0.0140685
732.903	0.0140192
732.981	0.0140400
733.059	0.0139892
733.137	0.0139241
733.215	0.0137582
733.293	0.0138470
733.371	0.0139336
733.450	0.0138500
733.528	0.0137599
733.606	0.0137227
733.684	0.0138466
733.762	0.0138708
733.840	0.0136834
733.918	0.0137242
733.996	0.0138291
734.075	0.0138051
734.153	0.0137514
734.231	0.0138343
734.309	0.0138236
734.387	0.0138570
734.465	0.0139532
734.543	0.0139228
734.621	0.0139319
734.700	0.0140907
734.778	0.0141253
734.856	0.0140629
734.934	0.0143089
735.012	0.0142931
735.090	0.0143525
735.168	0.0142889
735.246	0.0142558
735.325	0.0142764
735.403	0.0143066
735.481	0.0141918
735.559	0.0143351
735.637	0.0141971
735.715	0.0140345
735.793	0.0139941
735.871	0.0139135
735.950	0.0140137
736.028	0.0139161
736.106	0.0137846
736.184	0.0139557
736.262	0.0139065
736.340	0.0138268
736.418	0.0138434
736.496	0.0138004
736.575	0.0138509
736.653	0.0139371
736.731	0.0138925
736.809	0.0138506
736.887	0.0138374
736.965	0.0139002
737.043	0.0138004
737.121	0.0139396
737.200	0.0139632
737.278	0.0140083
737.356	0.0140298
737.434	0.0140402
737.512	0.0140282
737.590	0.0138551
737.668	0.0141129
737.746	0.0140836
737.825	0.0140313
737.903	0.0140431
737.981	0.0141576
738.059	0.0138712
738.137	0.0139967
738.215	0.0140330
738.293	0.0140622
738.371	0.0139477
738.450	0.0139503
738.528	0.0140759
738.606	0.0139262
738.684	0.0139309
738.762	0.0139993
738.840	0.0139661
738.918	0.0138664
738.996	0.0140177
739.075	0.0139864
739.153	0.0138895
739.231	0.0140144
739.309	0.0140205
739.387	0.0138416
739.465	0.0139532
739.543	0.0140871
739.621	0.0139594
739.700	0.0139244
739.778	0.0140508
739.856	0.0140263
739.934	0.0139211
740.012	0.0139149
740.090	0.0138636
740.168	0.0139177
740.246	0.0139032
740.325	0.0139713
740.403	0.0139635
740.481	0.0139017
740.559	0.0140350
740.637	0.0140589
740.715	0.0139529
740.793	0.0140001
740.871	0.0141078
740.950	0.0139851
741.028	0.0140524
741.106	0.0139458
741.184	0.0140808
741.262	0.0139595
741.340	0.0138814
741.418	0.0138703
741.496	0.0141163
741.575	0.0139682
741.653	0.0139279
741.731	0.0139645
741.809	0.0137832
741.887	0.0140257
741.965	0.0139025
742.043	0.0139009
742.121	0.0139145
742.200	0.0139445
742.278	0.0138940
742.356	0.0140046
742.434	0.0140753
742.512	0.0141874
742.590	0.0139970
742.668	0.0138994
742.746	0.0140444
742.825	0.0140813
742.903	0.0140913
742.981	0.0140913
743.059	0.0138560
743.137	0.0139554
743.215	0.0141043
743.293	0.0138694
743.371	0.0139318
743.450	0.0140892
743.528	0.0140394
743.606	0.0139088
743.684	0.0137624
743.762	0.0139028
743.840	0.0137818
743.918	0.0137130
743.996	0.0138024
744.075	0.0139352
744.153	0.0138281
744.231	0.0139046
744.309	0.0138728
744.387	0.0137604
744.465	0.0139906
744.543	0.0138727
744.621	0.0138599
744.700	0.0139419
744.778	0.0138989
744.856	0.0140433
744.934	0.0140523
745.012	0.0140160
745.090	0.0140079
745.168	0.0141963
745.246	0.0141298
745.325	0.0140208
745.403	0.0139828
745.481	0.0141554
745.559	0.0141566
745.637	0.0141116
745.715	0.0140496
745.793	0.0141154
745.871	0.0140188
745.950	0.0140218
746.028	0.0138725
746.106	0.0139542
746.184	0.0139571
746.262	0.0137835
746.340	0.0138682
746.418	0.0138892
746.496	0.0138129
746.575	0.0138303
746.653	0.0138071
746.731	0.0138249
746.809	0.0138443
746.887	0.0138126
746.965	0.0138419
747.043	0.0138868
747.121	0.0138741
747.200	0.0139246
747.278	0.0138903
747.356	0.0140115
747.434	0.0139855
747.512	0.0140421
747.590	0.0141537
747.668	0.0141552
747.746	0.0141418
747.825	0.0140072
747.903	0.0139620
747.981	0.0139883
748.059	0.0141495
748.137	0.0141052
748.215	0.0140098
748.293	0.0139159
748.371	0.0140529
748.450	0.0139655
748.528	0.0140500
748.606	0.0139140
748.684	0.0138816
748.762	0.0138129
748.840	0.0138099
748.918	0.0138489
748.996	0.0139241
749.075	0.0139857
749.153	0.0139413
749.231	0.0137727
749.309	0.0137479
749.387	0.0137419
749.465	0.0138422
749.543	0.0138622
749.621	0.0138743
749.700	0.0137985
749.778	0.0138416
749.856	0.0138837
749.934	0.0138636
750.012	0.0138502
750.090	0.0139828
750.168	0.0139137
750.246	0.0138419
750.325	0.0137949
750.403	0.0139908
750.481	0.0139863
750.559	0.0138618
750.637	0.0140710
750.715	0.0139167
750.793	0.0140982
750.871	0.0139310
750.950	0.0139310
751.028	0.0138374
751.106	0.0139714
751.184	0.0139380
751.262	0.0137862
751.340	0.0139978
751.418	0.0140350
751.496	0.0138947
751.575	0.0137934
751.653	0.0138754
751.731	0.0138805
751.809	0.0138308
751.887	0.0137556
751.965	0.0138312
752.043	0.0140290
752.121	0.0139636
752.200	0.0140585
752.278	0.0139745
752.356	0.0140187
752.434	0.0139970
752.512	0.0140160
752.590	0.0140145
752.668	0.0140376
752.746	0.0140463
752.825	0.0140523
752.903	0.0139938
752.981	0.0139446
753.059	0.0141522
753.137	0.0139682
753.215	0.0139037
753.293	0.0139151
753.371	0.0139901
753.450	0.0140630
753.528	0.0139664
753.606	0.0138860
753.684	0.0140413
753.762	0.0139172
753.840	0.0137460
753.918	0.0140203
753.996	0.0139456
754.075	0.0138577
754.153	0.0138670
754.231	0.0140376
754.309	0.0140028
754.387	0.0139744
754.465	0.0138721
754.543	0.0137724
754.621	0.0138336
754.700	0.0140026
754.778	0.0138795
754.856	0.0139233
754.934	0.0139412
755.012	0.0140296
755.090	0.0139333
755.168	0.0140649
755.246	0.0138906
755.325	0.0138320
755.403	0.0140282
755.481	0.0140119
755.559	0.0139899
755.637	0.0139038
755.715	0.0139768
755.793	0.0139156
755.871	0.0140516
755.950	0.0141325
756.028	0.0140536
756.106	0.0140427
756.184	0.0140094
756.262	0.0140095
756.340	0.0139637
756.418	0.0139436
756.496	0.0140389
756.575	0.0139274
756.653	0.0138825
756.731	0.0139565
756.809	0.0138499
756.887	0.0138731
756.965	0.0139802
757.043	0.0137325
757.121	0.0139404
757.200	0.0139227
757.278	0.0139925
757.356	0.0139349
757.434	0.0139684
757.512	0.0141170
757.590	0.0140083
757.668	0.0138628
757.746	0.0140026
757.825	0.0139497
757.903	0.0139680
757.981	0.0139294
758.059	0.0139046
758.137	0.0139294
758.215	0.0140858
758.293	0.0139845
758.371	0.0140161
758.450	0.0139962
758.528	0.0138787
758.606	0.0138502
758.684	0.0139919
758.762	0.0139795
758.840	0.0139647
758.918	0.0139364
758.996	0.0139857
759.075	0.0138826
759.153	0.0139484
759.231	0.0139807
759.309	0.0140649
759.387	0.0139836
759.465	0.0139016
759.543	0.0139512
759.621	0.0139928
759.700	0.0139447
759.778	0.0138345
759.856	0.0139363
759.934	0.0140260
760.012	0.0139157
760.090	0.0140161
760.168	0.0141812
760.246	0.0141590
760.325	0.0140076
760.403	0.0140416
760.481	0.0140588
760.559	0.0140704
760.637	0.0140166
760.715	0.0140413
760.793	0.0139964
760.871	0.0139986
760.950	0.0139489
761.028	0.0140728
761.106	0.0140701
761.184	0.0140508
761.262	0.0139864
761.340	0.0139094
761.418	0.0138218
761.496	0.0139317
761.575	0.0138288
761.653	0.0137886
761.731	0.0139414
761.809	0.0138645
761.887	0.0139902
761.965	0.0138935
762.043	0.0140189
762.121	0.0138413
762.200	0.0139190
762.278	0.0139170
762.356	0.0140666
762.434	0.0139269
762.512	0.0139338
762.590	0.0139193
762.668	0.0139295
762.746	0.0139240
762.825	0.0139658
762.903	0.0140052
762.981	0.0139342
763.059	0.0138663
763.137	0.0139518
763.215	0.0141688
763.293	0.0140701
763.371	0.0139932
763.450	0.0139795
763.528	0.0139941
763.606	0.0140180
763.684	0.0139439
763.762	0.0139001
763.840	0.0138922
763.918	0.0139458
763.996	0.0140220
764.075	0.0140370
764.153	0.0140318
764.231	0.0139611
764.309	0.0139890
764.387	0.0138614
764.465	0.0140968
764.543	0.0139088
764.621	0.0138559
764.700	0.0140047
764.778	0.0139098
764.856	0.0139619
764.934	0.0138499
765.012	0.0139823
765.090	0.0138409
765.168	0.0139905
765.246	0.0141358
765.325	0.0138750
765.403	0.0138881
765.481	0.0139405
765.559	0.0140289
765.637	0.0140443
765.715	0.0140620
765.793	0.0141547
765.871	0.0141033
765.950	0.0140215
766.028	0.0140807
766.106	0.0141339
766.184	0.0138721
766.262	0.0139049
766.340	0.0139287
766.418	0.0140303
766.496	0.0139050
766.575	0.0139173
766.653	0.0139934
766.731	0.0139098
766.809	0.0139625
766.887	0.0138332
766.965	0.0138580
767.043	0.0139603
767.121	0.0140144
767.200	0.0138218
767.278	0.0139124
767.356	0.0139743
767.434	0.0137638
767.512	0.0139545
767.590	0.0139044
767.668	0.0138747
767.746	0.0138865
767.825	0.0139335
767.903	0.0138374
767.981	0.0140446
768.059	0.0141016
768.137	0.0139286
768.215	0.0138892
768.293	0.0139817
768.371	0.0140625
768.450	0.0140501
768.528	0.0139233
768.606	0.0139777
768.684	0.0140648
768.762	0.0138671
768.840	0.0139133
768.918	0.0139674
768.996	0.0139481
769.075	0.0139494
769.153	0.0140501
769.231	0.0139841
769.309	0.0140771
769.387	0.0139721
769.465	0.0140444
769.543	0.0139995
769.621	0.0140066
769.700	0.0139590
769.778	0.0141194
769.856	0.0140750
769.934	0.0139330
770.012	0.0140697
770.090	0.0138583
770.168	0.0139242
770.246	0.0139289
770.325	0.0139111
770.403	0.0139086
770.481	0.0139033
770.559	0.0140419
770.637	0.0138741
770.715	0.0139706
770.793	0.0139093
770.871	0.0139001
770.950	0.0140531
771.028	0.0139825
771.106	0.0139689
771.184	0.0139091
771.262	0.0139668
771.340	0.0140649
771.418	0.0140077
771.496	0.0140155
771.575	0.0139385
771.653	0.0139300
771.731	0.0139934
771.809	0.0137357
771.887	0.0139137
771.965	0.0138999
772.043	0.0139109
772.121	0.0138545
772.200	0.0140195
772.278	0.0139487
772.356	0.0139319
772.434	0.0138517
772.512	0.0139825
772.590	0.0139536
772.668	0.0140468
772.746	0.0139746
772.825	0.0140184
772.903	0.0140588
772.981	0.0140124
773.059	0.0139443
773.137	0.0138820
773.215	0.0140259
773.293	0.0140710
773.371	0.0139342
773.450	0.0141386
773.528	0.0138985
773.606	0.0140398
773.684	0.0140469
773.762	0.0140005
773.840	0.0140317
773.918	0.0140258
773.996	0.0139018
774.075	0.0140500
774.153	0.0140150
774.231	0.0138763
774.309	0.0138886
774.387	0.0138488
774.465	0.0139323
774.543	0.0140182
774.621	0.0139822
774.700	0.0138952
774.778	0.0138496
774.856	0.0139376
774.934	0.0139677
775.012	0.0139281
775.090	0.0139983
775.168	0.0140292
775.246	0.0139452
775.325	0.0138776
775.403	0.0138845
775.481	0.0139402
775.559	0.0139814
775.637	0.0140176
775.715	0.0139841
775.793	0.0138819
775.871	0.0140487
775.950	0.0140632
776.028	0.0140672
776.106	0.0139854
776.184	0.0139462
776.262	0.0140339
776.340	0.0141327
776.418	0.0139577
776.496	0.0140170
776.575	0.0140772
776.653	0.0140318
776.731	0.0139916
776.809	0.0139994
776.887	0.0140376
776.965	0.0139260
777.043	0.0138792
777.121	0.0141033
777.200	0.0139648
777.278	0.0140127
777.356	0.0140981
777.434	0.0141333
777.512	0.0139265
777.590	0.0139523
777.668	0.0139280
777.746	0.0140710
777.825	0.0138920
777.903	0.0139701
777.981	0.0140839
778.059	0.0139156
778.137	0.0141632
778.215	0.0139090
778.293	0.0139717
778.371	0.0140595
778.450	0.0139381
778.528	0.0141028
778.606	0.0139851
778.684	0.0139771
778.762	0.0139376
778.840	0.0139802
778.918	0.0138325
778.996	0.0139313
779.075	0.0139778
779.153	0.0138802
779.231	0.0140251
779.309	0.0140162
779.387	0.0140560
779.465	0.0139980
779.543	0.0141219
779.621	0.0140186
779.700	0.0139677
779.778	0.0138943
779.856	0.0139563
779.934	0.0140224
780.012	0.0140369
780.090	0.0139858
780.168	0.0139443
780.246	0.0138165
780.325	0.0138349
780.403	0.0140603
780.481	0.0138307
780.559	0.0141019
780.637	0.0139886
780.715	0.0140307
780.793	0.0139693
780.871	0.0140331
780.950	0.0139378
781.028	0.0139659
781.106	0.0140752
781.184	0.0140988
781.262	0.0139774
781.340	0.0139805
781.418	0.0141381
781.496	0.0141250
781.575	0.0139757
781.653	0.0140340
781.731	0.0139954
781.809	0.0140350
781.887	0.0140240
781.965	0.0140590
782.043	0.0139184
782.121	0.0140519
782.200	0.0139599
782.278	0.0139813
782.356	0.0139205
782.434	0.0138861
782.512	0.0139053
782.590	0.0138359
782.668	0.0139560
782.746	0.0139008
782.825	0.0140310
782.903	0.0139212
782.981	0.0139814
783.059	0.0139376
783.137	0.0139473
783.215	0.0140662
783.293	0.0140591
783.371	0.0139228
783.450	0.0138155
783.528	0.0139099
783.606	0.0140137
783.684	0.0141927
783.762	0.0140967
783.840	0.0139635
783.918	0.0141026
783.996	0.0140208
784.075	0.0139559
784.153	0.0139003
784.231	0.0139364
784.309	0.0140240
784.387	0.0140570
784.465	0.0139728
784.543	0.0139131
784.621	0.0140240
784.700	0.0139738
784.778	0.0139773
784.856	0.0139614
784.934	0.0140732
785.012	0.0140279
785.090	0.0140143
785.168	0.0138441
785.246	0.0138557
785.325	0.0140163
785.403	0.0139647
785.481	0.0139530
785.559	0.0140240
785.637	0.0140018
785.715	0.0140614
785.793	0.0139396
785.871	0.0139228
785.950	0.0140063
786.028	0.0139942
786.106	0.0139456
786.184	0.0140144
786.262	0.0138954
786.340	0.0140295
786.418	0.0140170
786.496	0.0137835
786.575	0.0140470
786.653	0.0140232
786.731	0.0140164
786.809	0.0138558
786.887	0.0140585
786.965	0.0141329
787.043	0.0139963
787.121	0.0139256
787.200	0.0138972
787.278	0.0139432
787.356	0.0140009
787.434	0.0139784
787.512	0.0139868
787.590	0.0139320
787.668	0.0140042
787.746	0.0139821
787.825	0.0139400
787.903	0.0139303
787.981	0.0139725
788.059	0.0139918
788.137	0.0139312
788.215	0.0139220
788.293	0.0140124
788.371	0.0139817
788.450	0.0139875
788.528	0.0139915
788.606	0.0140731
788.684	0.0138969
788.762	0.0140138
788.840	0.0138995
788.918	0.0139935
788.996	0.0139145
789.075	0.0139474
789.153	0.0140065
789.231	0.0140888
789.309	0.0139690
789.387	0.0138929
789.465	0.0140324
789.543	0.0140405
789.621	0.0140274
789.700	0.0140051
789.778	0.0140169
789.856	0.0139812
789.934	0.0139784
790.012	0.0141365
790.090	0.0139966
790.168	0.0140984
790.246	0.0140062
790.325	0.0140918
790.403	0.0140798
790.481	0.0140063
790.559	0.0140219
790.637	0.0141046
790.715	0.0139786
790.793	0.0140575
790.871	0.0140601
790.950	0.0139923
791.028	0.0139346
791.106	0.0140813
791.184	0.0139655
791.262	0.0140199
791.340	0.0140341
791.418	0.0140264
791.496	0.0140855
791.575	0.0139388
791.653	0.0138590
791.731	0.0141132
791.809	0.0141625
791.887	0.0142460
791.965	0.0140472
792.043	0.0140266
792.121	0.0140408
792.200	0.0140015
792.278	0.0139613
792.356	0.0139927
792.434	0.0139937
792.512	0.0139497
792.590	0.0139114
792.668	0.0139158
792.746	0.0138829
792.825	0.0142104
792.903	0.0140392
792.981	0.0138618
793.059	0.0140060
793.137	0.0140706
793.215	0.0139572
793.293	0.0139253
793.371	0.0140516
793.450	0.0140424
793.528	0.0140489
793.606	0.0140158
793.684	0.0140786
793.762	0.0139722
793.840	0.0139863
793.918	0.0139768
793.996	0.0140532
794.075	0.0139175
794.153	0.0140047
794.231	0.0140267
794.309	0.0139281
794.387	0.0140529
794.465	0.0140876
794.543	0.0139098
794.621	0.0139050
794.700	0.0139650
794.778	0.0139236
794.856	0.0139437
794.934	0.0139908
795.012	0.0138779
795.090	0.0140508
795.168	0.0139923
795.246	0.0139954
795.325	0.0138926
795.403	0.0140900
795.481	0.0137408
795.559	0.0137579
795.637	0.0139091
795.715	0.0138595
795.793	0.0139250
795.871	0.0139606
795.950	0.0138772
796.028	0.0140095
796.106	0.0138351
796.184	0.0139332
796.262	0.0139168
796.340	0.0139544
796.418	0.0140285
796.496	0.0139771
796.575	0.0138976
796.653	0.0140987
796.731	0.0139848
796.809	0.0139091
796.887	0.0139285
796.965	0.0140239
797.043	0.0139960
797.121	0.0140344
797.200	0.0139793
797.278	0.0139832
797.356	0.0139967
797.434	0.0140565
797.512	0.0140295
797.590	0.0139693
797.668	0.0139962
797.746	0.0140482
797.825	0.0139918
797.903	0.0140127
797.981	0.0139554
798.059	0.0140772
798.137	0.0140962
798.215	0.0140528
798.293	0.0140472
798.371	0.0140471
798.450	0.0140910
798.528	0.0139493
798.606	0.0140044
798.684	0.0139048
798.762	0.0140630
798.840	0.0140344
798.918	0.0140590
798.996	0.0138264
799.075	0.0138425
799.153	0.0139449
799.231	0.0141665
799.309	0.0139577
799.387	0.0138684
799.465	0.0138697
799.543	0.0139587
799.621	0.0140245
799.700	0.0139063
799.778	0.0139724
799.856	0.0139539
799.934	0.0138389
800.012	0.0140034
800.090	0.0137933
800.168	0.0139378
800.246	0.0140129
800.325	0.0139525
800.403	0.0140245
800.481	0.0139242
800.559	0.0137900
800.637	0.0140443
800.715	0.0139993
800.793	0.0140231
800.871	0.0139433
800.950	0.0139574
801.028	0.0139631
801.106	0.0140030
801.184	0.0138622
801.262	0.0139368
801.340	0.0139946
801.418	0.0140128
801.496	0.0141564
801.575	0.0140651
801.653	0.0140645
801.731	0.0140094
801.809	0.0138714
801.887	0.0139411
801.965	0.0139259
802.043	0.0139868
802.121	0.0140378
802.200	0.0140627
802.278	0.0139215
802.356	0.0138439
802.434	0.0139600
802.512	0.0138862
802.590	0.0140553
802.668	0.0139676
802.746	0.0139420
802.825	0.0140174
802.903	0.0140160
802.981	0.0140379
803.059	0.0139230
803.137	0.0139925
803.215	0.0140406
803.293	0.0139271
803.371	0.0139375
803.450	0.0139561
803.528	0.0139751
803.606	0.0138897
803.684	0.0139781
803.762	0.0139997
803.840	0.0138712
803.918	0.0140192
803.996	0.0141647
804.075	0.0139685
804.153	0.0140215
804.231	0.0139309
804.309	0.0139299
804.387	0.0139101
804.465	0.0140096
804.543	0.0139417
804.621	0.0139921
804.700	0.0140063
804.778	0.0139946
804.856	0.0139597
804.934	0.0139498
805.012	0.0140615
805.090	0.0139925
805.168	0.0138929
805.246	0.0139762
805.325	0.0141128
805.403	0.0139510
805.481	0.0140327
805.559	0.0139961
805.637	0.0139248
805.715	0.0139030
805.793	0.0140709
805.871	0.0140453
805.950	0.0138696
806.028	0.0140732
806.106	0.0139957
806.184	0.0140317
806.262	0.0138667
806.340	0.0140663
806.418	0.0139553
806.496	0.0140173
806.575	0.0140685
806.653	0.0140027
806.731	0.0139371
806.809	0.0140582
806.887	0.0138934
806.965	0.0140087
807.043	0.0140568
807.121	0.0139602
807.200	0.0140305
807.278	0.0140247
807.356	0.0140329
807.434	0.0140557
807.512	0.0141042
807.590	0.0140203
807.668	0.0139309
807.746	0.0139938
807.825	0.0139617
807.903	0.0139697
807.981	0.0140934
808.059	0.0140652
808.137	0.0140913
808.215	0.0138788
808.293	0.0140118
808.371	0.0140915
808.450	0.0139172
808.528	0.0139246
808.606	0.0138951
808.684	0.0139878
808.762	0.0140417
808.840	0.0139803
808.918	0.0140319
808.996	0.0140646
809.075	0.0139766
809.153	0.0141306
809.231	0.0140569
809.309	0.0140289
809.387	0.0140416
809.465	0.0141763
809.543	0.0140645
809.621	0.0139528
809.700	0.0140410
809.778	0.0139217
809.856	0.0140121
809.934	0.0139912
810.012	0.0140788
810.090	0.0139375
810.168	0.0138773
810.246	0.0141087
810.325	0.0140464
810.403	0.0139310
810.481	0.0139040
810.559	0.0139377
810.637	0.0140081
810.715	0.0140946
810.793	0.0139148
810.871	0.0140176
810.950	0.0139153
811.028	0.0139746
811.106	0.0138946
811.184	0.0139532
811.262	0.0139066
811.340	0.0139425
811.418	0.0138587
811.496	0.0139129
811.575	0.0139990
811.653	0.0138737
811.731	0.0139277
811.809	0.0139442
811.887	0.0138528
811.965	0.0138470
812.043	0.0140095
812.121	0.0139154
812.200	0.0139627
812.278	0.0138699
812.356	0.0140411
812.434	0.0139873
812.512	0.0138717
812.590	0.0139190
812.668	0.0138906
812.746	0.0140311
812.825	0.0139812
812.903	0.0139374
812.981	0.0139713
813.059	0.0139481
813.137	0.0138559
813.215	0.0138531
813.293	0.0139423
813.371	0.0139249
813.450	0.0140504
813.528	0.0139111
813.606	0.0138778
813.684	0.0140575
813.762	0.0140240
813.840	0.0140682
813.918	0.0139321
813.996	0.0139258
814.075	0.0140000
814.153	0.0141047
814.231	0.0139539
814.309	0.0139056
814.387	0.0139257
814.465	0.0138861
814.543	0.0139808
814.621	0.0140020
814.700	0.0140018
814.778	0.0139039
814.856	0.0139275
814.934	0.0138354
815.012	0.0138847
815.090	0.0138124
815.168	0.0139656
815.246	0.0139300
815.325	0.0137404
815.403	0.0139168
815.481	0.0139696
815.559	0.0139358
815.637	0.0139144
815.715	0.0138598
815.793	0.0139529
815.871	0.0140456
815.950	0.0140034
816.028	0.0139764
816.106	0.0138044
816.184	0.0139361
816.262	0.0139719
816.340	0.0139799
816.418	0.0140237
816.496	0.0138770
816.575	0.0139003
816.653	0.0139448
816.731	0.0139001
816.809	0.0139594
816.887	0.0139191
816.965	0.0138935
817.043	0.0138119
817.121	0.0137511
817.200	0.0138631
817.278	0.0140001
817.356	0.0139954
817.434	0.0139897
817.512	0.0139655
817.590	0.0139877
817.668	0.0139565
817.746	0.0138951
817.825	0.0140192
817.903	0.0140549
817.981	0.0140734
818.059	0.0141415
818.137	0.0140801
818.215	0.0140599
818.293	0.0140341
818.371	0.0140952
818.450	0.0139690
818.528	0.0138163
818.606	0.0139754
818.684	0.0139865
818.762	0.0138076
818.840	0.0138178
818.918	0.0139829
818.996	0.0139656
819.075	0.0140377
819.153	0.0139171
819.231	0.0138625
819.309	0.0137865
819.387	0.0139732
819.465	0.0139832
819.543	0.0138229
819.621	0.0139165
819.700	0.0139034
819.778	0.0139616
819.856	0.0138770
819.934	0.0138948
820.012	0.0139991
820.090	0.0139066
820.168	0.0138400
820.246	0.0140049
820.325	0.0139066
820.403	0.0138700
820.481	0.0139420
820.559	0.0139883
820.637	0.0138538
820.715	0.0138627
820.793	0.0137701
820.871	0.0138618
820.950	0.0138432
821.028	0.0137992
821.106	0.0138788
821.184	0.0139947
821.262	0.0140029
821.340	0.0139376
821.418	0.0138803
821.496	0.0139724
821.575	0.0139713
821.653	0.0139249
821.731	0.0140782
821.809	0.0139716
821.887	0.0138683
821.965	0.0137810
822.043	0.0139108
822.121	0.0139823
822.200	0.0138100
822.278	0.0139289
822.356	0.0139316
822.434	0.0137875
822.512	0.0138772
822.590	0.0138150
822.668	0.0138489
822.746	0.0139592
822.825	0.0138975
822.903	0.0138116
822.981	0.0138727
823.059	0.0139269
823.137	0.0139903
823.215	0.0138400
823.293	0.0140018
823.371	0.0138558
823.450	0.0141165
823.528	0.0139819
823.606	0.0139906
823.684	0.0140636
823.762	0.0141149
823.840	0.0139512
823.918	0.0139157
823.996	0.0140094
824.075	0.0139087
824.153	0.0140065
824.231	0.0140065
824.309	0.0139447
824.387	0.0139253
824.465	0.0139368
824.543	0.0139570
824.621	0.0140718
824.700	0.0139074
824.778	0.0140118
824.856	0.0139009
824.934	0.0138371
825.012	0.0139831
825.090	0.0139881
825.168	0.0140041
825.246	0.0139412
825.325	0.0139326
825.403	0.0139493
825.481	0.0138548
825.559	0.0139631
825.637	0.0139455
825.715	0.0139099
825.793	0.0140224
825.871	0.0139491
825.950	0.0140166
826.028	0.0140794
826.106	0.0140462
826.184	0.0139709
826.262	0.0138303
826.340	0.0139546
826.418	0.0139453
826.496	0.0139209
826.575	0.0139738
826.653	0.0139333
826.731	0.0139623
826.809	0.0139478
826.887	0.0138507
826.965	0.0139465
827.043	0.0139568
827.121	0.0139655
827.200	0.0138549
827.278	0.0139033
827.356	0.0138329
827.434	0.0139287
827.512	0.0139771
827.590	0.0139023
827.668	0.0138320
827.746	0.0140173
827.825	0.0139353
827.903	0.0137554
827.981	0.0138080
828.059	0.0139177
828.137	0.0138135
828.215	0.0138795
828.293	0.0139312
828.371	0.0139085
828.450	0.0139407
828.528	0.0137942
828.606	0.0138425
828.684	0.0140031
828.762	0.0140394
828.840	0.0139462
828.918	0.0139857
828.996	0.0140020
829.075	0.0140489
829.153	0.0138253
829.231	0.0138257
829.309	0.0139745
829.387	0.0139471
829.465	0.0138227
829.543	0.0139015
829.621	0.0138976
829.700	0.0139673
829.778	0.0140106
829.856	0.0138660
829.934	0.0139394
830.012	0.0138731
830.090	0.0140617
830.168	0.0140598
830.246	0.0138499
830.325	0.0139019
830.403	0.0140933
830.481	0.0139941
830.559	0.0138927
830.637	0.0140720
830.715	0.0139867
830.793	0.0139933
830.871	0.0141573
830.950	0.0139861
831.028	0.0138982
831.106	0.0139439
831.184	0.0139658
831.262	0.0139321
831.340	0.0140358
831.418	0.0139656
831.496	0.0140277
831.575	0.0139146
831.653	0.0140599
831.731	0.0139822
831.809	0.0139612
831.887	0.0139846
831.965	0.0139816
832.043	0.0139326
832.121	0.0140017
832.200	0.0140546
832.278	0.0140067
832.356	0.0139961
832.434	0.0140350
832.512	0.0139331
832.590	0.0141170
832.668	0.0142386
832.746	0.0139632
832.825	0.0139755
832.903	0.0140691
832.981	0.0139845
833.059	0.0139590
833.137	0.0139648
833.215	0.0140448
833.293	0.0140418
833.371	0.0138460
833.450	0.0137953
833.528	0.0140016
833.606	0.0139636
833.684	0.0139759
833.762	0.0140401
833.840	0.0138801
833.918	0.0140547
833.996	0.0139609
834.075	0.0140534
834.153	0.0140719
834.231	0.0140144
834.309	0.0140031
834.387	0.0139514
834.465	0.0137971
834.543	0.0138811
834.621	0.0138847
834.700	0.0140385
834.778	0.0137785
834.856	0.0138503
834.934	0.0138780
835.012	0.0138384
835.090	0.0139304
835.168	0.0138848
835.246	0.0138564
835.325	0.0137503
835.403	0.0139113
835.481	0.0140875
835.559	0.0138476
835.637	0.0138165
835.715	0.0140203
835.793	0.0139458
835.871	0.0138291
835.950	0.0138224
836.028	0.0138760
836.106	0.0139462
836.184	0.0140043
836.262	0.0137873
836.340	0.0137912
836.418	0.0138781
836.496	0.0139176
836.575	0.0140131
836.653	0.0139586
836.731	0.0139150
836.809	0.0138653
836.887	0.0138590
836.965	0.0140327
837.043	0.0139879
837.121	0.0138899
837.200	0.0139656
837.278	0.0138876
837.356	0.0139229
837.434	0.0138316
837.512	0.0138405
837.590	0.0139868
837.668	0.0137267
837.746	0.0137448
837.825	0.0139610
837.903	0.0138290
837.981	0.0138808
838.059	0.0138933
838.137	0.0138094
838.215	0.0137973
838.293	0.0139133
838.371	0.0138730
838.450	0.0136695
838.528	0.0138647
838.606	0.0138819
838.684	0.0139111
838.762	0.0138695
838.840	0.0139153
838.918	0.0138781
838.996	0.0138136
839.075	0.0139565
839.153	0.0138313
839.231	0.0138351
839.309	0.0139269
839.387	0.0139081
839.465	0.0138286
839.543	0.0139963
839.621	0.0139094
839.700	0.0139050
839.778	0.0138848
839.856	0.0139371
839.934	0.0138805
840.012	0.0139581
840.090	0.0138895
840.168	0.0138975
840.246	0.0139018
840.325	0.0140182
840.403	0.0137862
840.481	0.0138614
840.559	0.0139605
840.637	0.0138616
840.715	0.0137949
840.793	0.0139117
840.871	0.0139489
840.950	0.0138354
841.028	0.0138078
841.106	0.0140455
841.184	0.0139661
841.262	0.0137683
841.340	0.0138560
841.418	0.0138551
841.496	0.0137880
841.575	0.0139748
841.653	0.0138594
841.731	0.0138047
841.809	0.0139220
841.887	0.0138078
841.965	0.0138007
842.043	0.0139828
842.121	0.0139149
842.200	0.0138495
842.278	0.0139185
842.356	0.0139575
842.434	0.0138614
842.512	0.0139876
842.590	0.0139477
842.668	0.0138213
842.746	0.0138007
842.825	0.0139462
842.903	0.0139700
842.981	0.0139009
843.059	0.0138716
843.137	0.0138469
843.215	0.0139657
843.293	0.0139294
843.371	0.0139839
843.450	0.0139807
843.528	0.0138832
843.606	0.0138643
843.684	0.0139128
843.762	0.0139404
843.840	0.0139229
843.918	0.0141262
843.996	0.0139867
844.075	0.0139477
844.153	0.0139509
844.231	0.0139797
844.309	0.0139983
844.387	0.0139280
844.465	0.0139930
844.543	0.0138670
844.621	0.0139314
844.700	0.0140212
844.778	0.0139350
844.856	0.0139070
844.934	0.0139031
845.012	0.0140044
845.090	0.0139422
845.168	0.0140102
845.246	0.0139707
845.325	0.0139474
845.403	0.0139041
845.481	0.0138972
845.559	0.0140146
845.637	0.0139446
845.715	0.0140942
845.793	0.0138561
845.871	0.0139137
845.950	0.0139520
846.028	0.0139669
846.106	0.0139594
846.184	0.0140590
846.262	0.0140471
846.340	0.0141347
846.418	0.0139719
846.496	0.0141360
846.575	0.0139348
846.653	0.0139788
846.731	0.0140328
846.809	0.0139480
846.887	0.0139771
846.965	0.0139359
847.043	0.0138618
847.121	0.0139335
847.200	0.0139972
847.278	0.0138925
847.356	0.0139863
847.434	0.0139661
847.512	0.0138532
847.590	0.0141028
847.668	0.0138953
847.746	0.0138197
847.825	0.0138522
847.903	0.0140259
847.981	0.0139288
848.059	0.0139084
848.137	0.0139454
848.215	0.0138830
848.293	0.0138890
848.371	0.0138180
848.450	0.0139668
848.528	0.0138887
848.606	0.0138702
848.684	0.0140022
848.762	0.0138490
848.840	0.0139988
848.918	0.0140148
848.996	0.0139993
849.075	0.0140141
849.153	0.0138882
849.231	0.0139990
849.309	0.0140696
849.387	0.0140282
849.465	0.0139526
849.543	0.0138725
849.621	0.0139804
849.700	0.0139697
849.778	0.0140352
849.856	0.0140515
849.934	0.0139410
850.012	0.0139187
850.090	0.0138912
850.168	0.0138846
850.246	0.0139406
850.325	0.0138651
850.403	0.0140237
850.481	0.0139825
850.559	0.0139327
850.637	0.0140415
850.715	0.0138983
850.793	0.0139510
850.871	0.0138635
850.950	0.0139430
851.028	0.0139343
851.106	0.0138308
851.184	0.0140137
851.262	0.0139053
851.340	0.0138454
851.418	0.0138760
851.496	0.0139606
851.575	0.0139155
851.653	0.0138661
851.731	0.0138399
851.809	0.0139900
851.887	0.0141677
851.965	0.0139970
852.043	0.0139050
852.121	0.0140060
852.200	0.0140862
852.278	0.0140866
852.356	0.0140035
852.434	0.0140821
852.512	0.0140648
852.590	0.0140061
852.668	0.0139798
852.746	0.0139873
852.825	0.0139522
852.903	0.0138863
852.981	0.0141055
853.059	0.0139372
853.137	0.0140705
853.215	0.0138748
853.293	0.0139111
853.371	0.0139966
853.450	0.0138946
853.528	0.0138570
853.606	0.0141136
853.684	0.0139409
853.762	0.0140173
853.840	0.0139291
853.918	0.0139351
853.996	0.0139076
854.075	0.0141194
854.153	0.0140971
854.231	0.0139819
854.309	0.0139527
854.387	0.0139814
854.465	0.0139477
854.543	0.0139818
854.621	0.0139410
854.700	0.0140610
854.778	0.0140391
854.856	0.0140073
854.934	0.0140763
855.012	0.0140480
855.090	0.0138394
855.168	0.0139848
855.246	0.0140158
855.325	0.0139588
855.403	0.0139646
855.481	0.0140636
855.559	0.0140880
855.637	0.0139365
855.715	0.0139972
855.793	0.0140136
855.871	0.0141400
855.950	0.0142030
856.028	0.0140068
856.106	0.0139644
856.184	0.0140041
856.262	0.0140720
856.340	0.0140079
856.418	0.0141193
856.496	0.0139140
856.575	0.0139986
856.653	0.0140291
856.731	0.0140247
856.809	0.0140084
856.887	0.0141447
856.965	0.0140440
857.043	0.0139825
857.121	0.0140530
857.200	0.0140462
857.278	0.0138762
857.356	0.0139247
857.434	0.0139640
857.512	0.0140016
857.590	0.0138045
857.668	0.0139831
857.746	0.0141717
857.825	0.0139010
857.903	0.0139031
857.981	0.0139845
858.059	0.0139597
858.137	0.0140115
858.215	0.0139532
858.293	0.0140038
858.371	0.0140144
858.450	0.0139631
858.528	0.0139659
858.606	0.0140958
858.684	0.0141133
858.762	0.0140347
858.840	0.0139503
858.918	0.0139918
858.996	0.0140349
859.075	0.0139582
859.153	0.0138670
859.231	0.0139823
859.309	0.0140097
859.387	0.0139888
859.465	0.0138944
859.543	0.0139403
859.621	0.0139037
859.700	0.0139204
859.778	0.0139671
859.856	0.0140143
859.934	0.0139536
860.012	0.0139346
860.090	0.0140501
860.168	0.0140427
860.246	0.0139889
860.325	0.0139070
860.403	0.0140578
860.481	0.0140550
860.559	0.0139174
860.637	0.0139212
860.715	0.0140535
860.793	0.0140984
860.871	0.0139884
860.950	0.0138815
861.028	0.0139661
861.106	0.0140230
861.184	0.0139500
861.262	0.0140778
861.340	0.0140936
861.418	0.0139441
861.496	0.0138537
861.575	0.0139848
861.653	0.0139765
861.731	0.0139830
861.809	0.0139320
861.887	0.0139255
861.965	0.0141183
862.043	0.0140009
862.121	0.0139053
862.200	0.0139026
862.278	0.0139697
862.356	0.0140506
862.434	0.0139397
862.512	0.0138871
862.590	0.0139230
862.668	0.0139320
862.746	0.0139557
862.825	0.0138837
862.903	0.0138522
862.981	0.0138714
863.059	0.0136993
863.137	0.0139302
863.215	0.0139402
863.293	0.0139389
863.371	0.0138636
863.450	0.0139354
863.528	0.0139307
863.606	0.0137963
863.684	0.0137707
863.762	0.0138586
863.840	0.0139241
863.918	0.0139341
863.996	0.0139801
864.075	0.0138857
864.153	0.0138845
864.231	0.0139979
864.309	0.0140208
864.387	0.0140993
864.465	0.0139281
864.543	0.0139848
864.621	0.0138680
864.700	0.0139596
864.778	0.0139774
864.856	0.0138641
864.934	0.0139825
865.012	0.0140162
865.090	0.0140052
865.168	0.0138653
865.246	0.0139455
865.325	0.0139055
865.403	0.0139924
865.481	0.0140264
865.559	0.0138965
865.637	0.0138986
865.715	0.0139207
865.793	0.0139082
865.871	0.0139289
865.950	0.0140372
866.028	0.0140272
866.106	0.0138810
866.184	0.0138518
866.262	0.0140912
866.340	0.0137644
866.418	0.0139503
866.496	0.0139936
866.575	0.0139578
866.653	0.0140546
866.731	0.0138699
866.809	0.0140171
866.887	0.0139867
866.965	0.0138963
867.043	0.0139247
867.121	0.0140663
867.200	0.0139832
867.278	0.0138496
867.356	0.0139547
867.434	0.0139989
867.512	0.0139676
867.590	0.0138691
867.668	0.0140345
867.746	0.0140755
867.825	0.0139779
867.903	0.0140182
867.981	0.0138394
868.059	0.0138194
868.137	0.0140055
868.215	0.0139906
868.293	0.0138962
868.371	0.0139937
868.450	0.0138263
868.528	0.0140767
868.606	0.0139328
868.684	0.0137925
868.762	0.0139692
868.840	0.0138880
868.918	0.0137819
868.996	0.0139659
869.075	0.0138948
869.153	0.0139317
869.231	0.0139320
869.309	0.0140604
869.387	0.0138315
869.465	0.0140220
869.543	0.0140452
869.621	0.0138938
869.700	0.0139906
869.778	0.0140125
869.856	0.0139999
869.934	0.0139184
870.012	0.0138711
870.090	0.0140000
870.168	0.0139825
870.246	0.0139651
870.325	0.0141177
870.403	0.0139633
870.481	0.0140345
870.559	0.0140273
870.637	0.0139882
870.715	0.0139660
870.793	0.0138644
870.871	0.0138838
870.950	0.0137680
871.028	0.0141218
871.106	0.0138670
871.184	0.0138971
871.262	0.0139604
871.340	0.0138289
871.418	0.0139840
871.496	0.0139393
871.575	0.0140088
871.653	0.0140163
871.731	0.0141080
871.809	0.0139753
871.887	0.0139149
871.965	0.0139388
872.043	0.0140464
872.121	0.0140112
872.200	0.0140189
872.278	0.0140212
872.356	0.0140808
872.434	0.0139676
872.512	0.0138517
872.590	0.0141270
872.668	0.0140459
872.746	0.0140349
872.825	0.0140300
872.903	0.0140613
872.981	0.0140125
873.059	0.0139121
873.137	0.0139750
873.215	0.0140440
873.293	0.0140238
873.371	0.0139069
873.450	0.0139334
873.528	0.0141576
873.606	0.0140510
873.684	0.0139888
873.762	0.0140461
873.840	0.0139645
873.918	0.0140747
873.996	0.0139386
874.075	0.0139552
874.153	0.0139836
874.231	0.0139999
874.309	0.0138686
874.387	0.0138583
874.465	0.0139796
874.543	0.0139747
874.621	0.0138934
874.700	0.0140556
874.778	0.0139928
874.856	0.0139073
874.934	0.0140505
875.012	0.0140388
875.090	0.0139107
875.168	0.0139078
875.246	0.0138891
875.325	0.0139895
875.403	0.0140896
875.481	0.0140739
875.559	0.0139326
875.637	0.0139139
875.715	0.0138949
875.793	0.0139072
875.871	0.0139220
875.950	0.0139352
876.028	0.0137584
876.106	0.0139459
876.184	0.0138217
876.262	0.0138805
876.340	0.0139752
876.418	0.0138722
876.496	0.0139443
876.575	0.0138881
876.653	0.0138725
876.731	0.0140108
876.809	0.0139125
876.887	0.0138879
876.965	0.0140089
877.043	0.0140791
877.121	0.0138963
877.200	0.0139375
877.278	0.0137814
877.356	0.0139735
877.434	0.0138795
877.512	0.0139963
877.590	0.0141103
877.668	0.0140273
877.746	0.0138819
877.825	0.0139347
877.903	0.0140192
877.981	0.0140157
878.059	0.0138811
878.137	0.0139564
878.215	0.0139742
878.293	0.0139486
878.371	0.0139713
878.450	0.0139862
878.528	0.0138773
878.606	0.0140596
878.684	0.0138567
878.762	0.0139244
878.840	0.0140234
878.918	0.0139558
878.996	0.0141012
879.075	0.0140134
879.153	0.0139658
879.231	0.0140394
879.309	0.0139937
879.387	0.0139513
879.465	0.0140248
879.543	0.0141475
879.621	0.0140024
879.700	0.0138903
879.778	0.0140009
879.856	0.0139458
879.934	0.0138629
880.012	0.0140189
880.090	0.0139319
880.168	0.0138346
880.246	0.0139053
880.325	0.0138172
880.403	0.0139545
880.481	0.0139102
880.559	0.0138976
880.637	0.0138222
880.715	0.0139227
880.793	0.0139684
880.871	0.0138903
880.950	0.0139706
881.028	0.0139822
881.106	0.0140202
881.184	0.0139415
881.262	0.0138524
881.340	0.0138110
881.418	0.0139347
881.496	0.0140125
881.575	0.0138187
881.653	0.0139572
881.731	0.0139760
881.809	0.0139781
881.887	0.0140089
881.965	0.0139387
882.043	0.0138753
882.121	0.0140462
882.200	0.0141444
882.278	0.0141397
882.356	0.0140932
882.434	0.0140355
882.512	0.0141578
882.590	0.0140158
882.668	0.0139100
882.746	0.0139581
882.825	0.0141789
882.903	0.0139451
882.981	0.0139977
883.059	0.0140356
883.137	0.0140271
883.215	0.0140427
883.293	0.0139777
883.371	0.0140172
883.450	0.0139742
883.528	0.0140580
883.606	0.0139864
883.684	0.0139966
883.762	0.0139861
883.840	0.0139645
883.918	0.0139267
883.996	0.0138908
884.075	0.0139973
884.153	0.0140179
884.231	0.0138980
884.309	0.0139522
884.387	0.0139706
884.465	0.0139883
884.543	0.0141028
884.621	0.0138745
884.700	0.0140219
884.778	0.0139860
884.856	0.0139470
884.934	0.0138716
885.012	0.0138975
885.090	0.0139458
885.168	0.0139378
885.246	0.0139818
885.325	0.0139317
885.403	0.0139006
885.481	0.0139395
885.559	0.0140591
885.637	0.0140178
885.715	0.0138647
885.793	0.0139940
885.871	0.0140971
885.950	0.0140812
886.028	0.0140730
886.106	0.0140913
886.184	0.0139222
886.262	0.0139773
886.340	0.0139073
886.418	0.0140256
886.496	0.0139623
886.575	0.0139217
886.653	0.0139828
886.731	0.0140433
886.809	0.0139552
886.887	0.0138896
886.965	0.0140113
887.043	0.0139356
887.121	0.0139579
887.200	0.0140105
887.278	0.0139655
887.356	0.0138941
887.434	0.0138126
887.512	0.0139153
887.590	0.0139594
887.668	0.0138892
887.746	0.0138700
887.825	0.0140564
887.903	0.0139783
887.981	0.0138133
888.059	0.0137896
888.137	0.0138467
888.215	0.0139197
888.293	0.0139740
888.371	0.0139337
888.450	0.0139220
888.528	0.0139094
888.606	0.0140433
888.684	0.0141041
888.762	0.0138593
888.840	0.0139355
888.918	0.0140453
888.996	0.0140358
889.075	0.0139554
889.153	0.0139194
889.231	0.0140182
889.309	0.0138725
889.387	0.0139398
889.465	0.0140139
889.543	0.0140070
889.621	0.0139553
889.700	0.0139971
889.778	0.0140313
889.856	0.0139484
889.934	0.0140713
890.012	0.0140202
890.090	0.0140620
890.168	0.0139925
890.246	0.0139098
890.325	0.0140231
890.403	0.0141867
890.481	0.0139201
890.559	0.0138758
890.637	0.0140267
890.715	0.0139021
890.793	0.0139258
890.871	0.0139421
890.950	0.0141188
891.028	0.0138987
891.106	0.0139072
891.184	0.0139001
891.262	0.0141360
891.340	0.0139260
891.418	0.0139362
891.496	0.0139131
891.575	0.0139043
891.653	0.0139008
891.731	0.0139561
891.809	0.0140051
891.887	0.0139342
891.965	0.0140485
892.043	0.0138496
892.121	0.0139336
892.200	0.0140781
892.278	0.0140633
892.356	0.0139501
892.434	0.0140241
892.512	0.0139153
892.590	0.0140234
892.668	0.0139306
892.746	0.0139862
892.825	0.0140833
892.903	0.0140636
892.981	0.0138367
893.059	0.0139050
893.137	0.0139101
893.215	0.0139954
893.293	0.0141074
893.371	0.0138309
893.450	0.0140385
893.528	0.0139745
893.606	0.0139507
893.684	0.0140785
893.762	0.0139257
893.840	0.0140467
893.918	0.0138713
893.996	0.0139244
894.075	0.0140372
894.153	0.0139803
894.231	0.0138670
894.309	0.0139001
894.387	0.0139725
894.465	0.0139786
894.543	0.0138374
894.621	0.0137480
894.700	0.0139563
894.778	0.0138786
894.856	0.0137140
894.934	0.0139272
895.012	0.0138844
895.090	0.0140659
895.168	0.0140424
895.246	0.0138937
895.325	0.0138667
895.403	0.0139108
895.481	0.0138583
895.559	0.0138527
895.637	0.0139979
895.715	0.0138718
895.793	0.0140320
895.871	0.0140487
895.950	0.0139288
896.028	0.0138706
896.106	0.0139385
896.184	0.0139277
896.262	0.0138466
896.340	0.0139758
896.418	0.0139723
896.496	0.0140096
896.575	0.0138744
896.653	0.0138830
896.731	0.0139655
896.809	0.0139170
896.887	0.0138473
896.965	0.0138901
897.043	0.0139015
897.121	0.0138890
897.200	0.0139194
897.278	0.0140142
897.356	0.0138675
897.434	0.0138876
897.512	0.0139780
897.590	0.0139191
897.668	0.0137656
897.746	0.0140331
897.825	0.0137910
897.903	0.0139919
897.981	0.0138883
898.059	0.0139783
898.137	0.0139464
898.215	0.0140154
898.293	0.0139661
898.371	0.0139697
898.450	0.0140800
898.528	0.0137741
898.606	0.0139154
898.684	0.0139427
898.762	0.0138406
898.840	0.0138582
898.918	0.0138002
898.996	0.0139672
899.075	0.0138355
899.153	0.0139600
899.231	0.0140105
899.309	0.0139057
899.387	0.0140230
899.465	0.0139099
899.543	0.0138667
899.621	0.0139201
899.700	0.0140023
899.778	0.0139833
899.856	0.0139414
899.934	0.0138595
900.012	0.0138368
900.090	0.0140919
900.168	0.0140226
900.246	0.0139481
900.325	0.0139594
900.403	0.0139130
900.481	0.0140736
900.559	0.0140453
900.637	0.0140558
900.715	0.0139860
900.793	0.0140998
900.871	0.0140283
900.950	0.0139805
901.028	0.0140260
901.106	0.0139508
901.184	0.0139660
901.262	0.0139738
901.340	0.0139851
901.418	0.0139856
901.496	0.0139272
901.575	0.0140408
901.653	0.0138667
901.731	0.0139321
901.809	0.0139555
901.887	0.0139658
901.965	0.0139759
902.043	0.0140645
902.121	0.0139630
902.200	0.0140088
902.278	0.0140935
902.356	0.0140160
902.434	0.0139516
902.512	0.0141125
902.590	0.0140220
902.668	0.0141066
902.746	0.0140183
902.825	0.0141032
902.903	0.0139883
902.981	0.0139119
903.059	0.0139822
903.137	0.0139536
903.215	0.0139544
903.293	0.0139729
903.371	0.0140439
903.450	0.0140741
903.528	0.0139665
903.606	0.0139974
903.684	0.0141113
903.762	0.0139149
903.840	0.0138878
903.918	0.0139116
903.996	0.0139049
904.075	0.0139712
904.153	0.0140008
904.231	0.0139114
904.309	0.0139554
904.387	0.0139120
904.465	0.0140020
904.543	0.0140456
904.621	0.0139091
904.700	0.0139968
904.778	0.0141590
904.856	0.0139716
904.934	0.0140148
905.012	0.0139566
905.090	0.0140510
905.168	0.0141133
905.246	0.0139043
905.325	0.0140000
905.403	0.0138133
905.481	0.0139803
905.559	0.0140851
905.637	0.0139307
905.715	0.0139398
905.793	0.0138729
905.871	0.0139632
905.950	0.0138940
906.028	0.0139963
906.106	0.0140488
906.184	0.0139277
906.262	0.0139134
906.340	0.0139259
906.418	0.0138695
906.496	0.0140454
906.575	0.0141117
906.653	0.0139067
906.731	0.0139640
906.809	0.0140707
906.887	0.0140830
906.965	0.0139297
907.043	0.0139642
907.121	0.0140587
907.200	0.0138631
907.278	0.0140108
907.356	0.0140769
907.434	0.0138773
907.512	0.0140791
907.590	0.0139590
907.668	0.0140280
907.746	0.0138209
907.825	0.0140118
907.903	0.0139688
907.981	0.0141421
908.059	0.0139767
908.137	0.0139235
908.215	0.0139978
908.293	0.0139737
908.371	0.0138874
908.450	0.0138721
908.528	0.0139452
908.606	0.0138992
908.684	0.0139919
908.762	0.0139880
908.840	0.0138786
908.918	0.0139338
908.996	0.0137885
909.075	0.0138529
909.153	0.0139495
909.231	0.0138701
909.309	0.0138385
909.387	0.0140297
909.465	0.0139833
909.543	0.0140176
909.621	0.0139601
909.700	0.0140265
909.778	0.0138398
909.856	0.0138805
909.934	0.0140331
910.012	0.0140778
910.090	0.0139251
910.168	0.0139008
910.246	0.0139783
910.325	0.0138577
910.403	0.0139573
910.481	0.0138860
910.559	0.0138900
910.637	0.0139528
910.715	0.0140859
910.793	0.0140067
910.871	0.0140393
910.950	0.0140356
911.028	0.0139550
911.106	0.0138568
911.184	0.0140307
911.262	0.0139153
911.340	0.0138509
911.418	0.0140055
911.496	0.0138894
911.575	0.0139027
911.653	0.0140289
911.731	0.0139704
911.809	0.0140907
911.887	0.0138856
911.965	0.0138759
912.043	0.0138970
912.121	0.0138676
912.200	0.0139680
912.278	0.0138535
912.356	0.0138289
912.434	0.0139692
912.512	0.0138435
912.590	0.0139382
912.668	0.0137782
912.746	0.0138300
912.825	0.0138226
912.903	0.0138295
912.981	0.0139272
913.059	0.0139034
913.137	0.0138628
913.215	0.0138136
913.293	0.0138828
913.371	0.0139555
913.450	0.0139661
913.528	0.0138597
913.606	0.0139893
913.684	0.0139638
913.762	0.0138811
913.840	0.0139682
913.918	0.0139109
913.996	0.0141273
914.075	0.0139835
914.153	0.0138115
914.231	0.0140289
914.309	0.0140261
914.387	0.0139244
914.465	0.0138956
914.543	0.0139211
914.621	0.0138934
914.700	0.0137938
914.778	0.0140523
914.856	0.0139764
914.934	0.0138810
915.012	0.0139384
915.090	0.0138397
915.168	0.0139135
915.246	0.0139046
915.325	0.0139892
915.403	0.0139845
915.481	0.0139467
915.559	0.0140766
915.637	0.0139276
915.715	0.0139511
915.793	0.0139597
915.871	0.0139962
915.950	0.0139921
916.028	0.0140456
916.106	0.0140153
916.184	0.0138936
916.262	0.0141531
916.340	0.0140224
916.418	0.0138399
916.496	0.0138950
916.575	0.0139536
916.653	0.0138428
916.731	0.0139655
916.809	0.0139017
916.887	0.0139289
916.965	0.0139101
917.043	0.0137980
917.121	0.0139668
917.200	0.0140902
917.278	0.0139794
917.356	0.0139791
917.434	0.0139495
917.512	0.0139568
917.590	0.0139594
917.668	0.0139454
917.746	0.0139890
917.825	0.0138692
917.903	0.0140855
917.981	0.0139486
918.059	0.0140704
918.137	0.0138545
918.215	0.0138995
918.293	0.0140744
918.371	0.0139337
918.450	0.0139510
918.528	0.0140256
918.606	0.0141600
918.684	0.0139951
918.762	0.0140517
918.840	0.0139795
918.918	0.0139836
918.996	0.0140265
919.075	0.0140255
919.153	0.0140514
919.231	0.0140342
919.309	0.0139086
919.387	0.0140964
919.465	0.0139703
919.543	0.0140337
919.621	0.0140775
919.700	0.0140337
919.778	0.0140191
919.856	0.0140052
919.934	0.0138992
920.012	0.0140838
920.090	0.0140797
920.168	0.0139582
920.246	0.0141116
920.325	0.0141280
920.403	0.0141354
920.481	0.0139375
920.559	0.0139906
920.637	0.0140072
920.715	0.0138777
920.793	0.0138784
920.871	0.0139925
920.950	0.0139704
921.028	0.0139301
921.106	0.0140574
921.184	0.0139673
921.262	0.0140845
921.340	0.0140823
921.418	0.0140083
921.496	0.0140646
921.575	0.0140765
921.653	0.0140613
921.731	0.0139159
921.809	0.0139616
921.887	0.0140298
921.965	0.0139258
922.043	0.0139068
922.121	0.0140557
922.200	0.0140824
922.278	0.0140029
922.356	0.0139914
922.434	0.0139928
922.512	0.0138771
922.590	0.0140632
922.668	0.0139928
922.746	0.0139777
922.825	0.0139180
922.903	0.0138708
922.981	0.0139455
923.059	0.0139279
923.137	0.0140160
923.215	0.0139787
923.293	0.0138313
923.371	0.0139378
923.450	0.0140191
923.528	0.0141051
923.606	0.0140026
923.684	0.0140803
923.762	0.0140075
923.840	0.0140596
923.918	0.0140234
923.996	0.0140486
924.075	0.0138796
924.153	0.0139880
924.231	0.0140631
924.309	0.0139708
924.387	0.0139845
924.465	0.0141129
924.543	0.0139178
924.621	0.0140036
924.700	0.0140738
924.778	0.0140389
924.856	0.0140003
924.934	0.0141472
925.012	0.0140895
925.090	0.0140797
925.168	0.0139912
925.246	0.0140161
925.325	0.0140373
925.403	0.0140073
925.481	0.0139780
925.559	0.0140707
925.637	0.0139854
925.715	0.0139114
925.793	0.0139419
925.871	0.0138914
925.950	0.0139508
926.028	0.0140437
926.106	0.0138425
926.184	0.0139071
926.262	0.0139548
926.340	0.0138837
926.418	0.0139409
926.496	0.0139886
926.575	0.0140461
926.653	0.0139635
926.731	0.0139279
926.809	0.0138606
926.887	0.0141008
926.965	0.0139895
927.043	0.0139120
927.121	0.0138985
927.200	0.0138594
927.278	0.0138319
927.356	0.0138710
927.434	0.0138289
927.512	0.0138702
927.590	0.0139315
927.668	0.0138565
927.746	0.0138779
927.825	0.0138393
927.903	0.0139300
927.981	0.0137984
928.059	0.0138141
928.137	0.0139200
928.215	0.0137304
928.293	0.0137746
928.371	0.0139079
928.450	0.0139315
928.528	0.0139656
928.606	0.0139097
928.684	0.0138374
928.762	0.0140370
928.840	0.0137838
928.918	0.0139358
928.996	0.0138688
929.075	0.0139377
929.153	0.0140637
929.231	0.0140379
929.309	0.0140015
929.387	0.0139975
929.465	0.0138963
929.543	0.0140807
929.621	0.0139265
929.700	0.0139454
929.778	0.0138401
929.856	0.0139555
929.934	0.0139395
930.012	0.0139355
930.090	0.0138428
930.168	0.0137724
930.246	0.0139775
930.325	0.0139375
930.403	0.0138673
930.481	0.0138472
930.559	0.0139613
930.637	0.0139775
930.715	0.0140279
930.793	0.0140215
930.871	0.0137828
930.950	0.0138458
931.028	0.0139160
931.106	0.0138328
931.184	0.0138701
931.262	0.0137643
931.340	0.0138850
931.418	0.0138177
931.496	0.0139292
931.575	0.0137819
931.653	0.0137782
931.731	0.0138806
931.809	0.0138535
931.887	0.0139240
931.965	0.0139286
932.043	0.0140133
932.121	0.0140847
932.200	0.0139217
932.278	0.0139715
932.356	0.0139478
932.434	0.0139854
932.512	0.0139790
932.590	0.0140845
932.668	0.0140704
932.746	0.0139806
932.825	0.0139021
932.903	0.0140249
932.981	0.0141207
933.059	0.0139850
933.137	0.0139983
933.215	0.0140862
933.293	0.0140799
933.371	0.0139091
933.450	0.0139687
933.528	0.0139710
933.606	0.0139930
933.684	0.0140358
933.762	0.0141068
933.840	0.0140845
933.918	0.0139178
933.996	0.0138441
934.075	0.0138695
934.153	0.0140731
934.231	0.0140484
934.309	0.0139327
934.387	0.0140771
934.465	0.0141436
934.543	0.0140805
934.621	0.0140019
934.700	0.0140563
934.778	0.0139328
934.856	0.0141462
934.934	0.0140107
935.012	0.0139208
935.090	0.0140125
935.168	0.0139995
935.246	0.0139010
935.325	0.0140248
935.403	0.0140086
935.481	0.0139565
935.559	0.0139561
935.637	0.0139643
935.715	0.0140722
935.793	0.0138052
935.871	0.0140461
935.950	0.0141026
936.028	0.0141496
936.106	0.0138658
936.184	0.0139793
936.262	0.0139745
936.340	0.0139147
936.418	0.0138078
936.496	0.0140630
936.575	0.0140597
936.653	0.0140539
936.731	0.0139791
936.809	0.0139020
936.887	0.0139353
936.965	0.0140013
937.043	0.0140105
937.121	0.0140636
937.200	0.0140285
937.278	0.0139117
937.356	0.0140534
937.434	0.0139349
937.512	0.0138955
937.590	0.0138838
937.668	0.0138365
937.746	0.0139442
937.825	0.0139744
937.903	0.0139182
937.981	0.0138760
938.059	0.0138986
938.137	0.0140311
938.215	0.0140392
938.293	0.0140004
938.371	0.0139132
938.450	0.0140393
938.528	0.0140212
938.606	0.0139901
938.684	0.0140092
938.762	0.0140395
938.840	0.0140354
938.918	0.0140212
938.996	0.0139644
939.075	0.0139153
939.153	0.0139362
939.231	0.0138749
939.309	0.0138291
939.387	0.0140218
939.465	0.0139304
939.543	0.0138317
939.621	0.0139671
939.700	0.0139828
939.778	0.0137886
939.856	0.0139726
939.934	0.0139365
940.012	0.0138971
940.090	0.0139179
940.168	0.0139465
940.246	0.0139779
940.325	0.0139325
940.403	0.0140205
940.481	0.0141265
940.559	0.0139552
940.637	0.0139907
940.715	0.0138514
940.793	0.0139465
940.871	0.0139724
940.950	0.0139225
941.028	0.0139948
941.106	0.0140227
941.184	0.0140238
941.262	0.0138961
941.340	0.0139148
941.418	0.0139256
941.496	0.0139368
941.575	0.0141677
941.653	0.0140781
941.731	0.0139513
941.809	0.0140066
941.887	0.0139438
941.965	0.0139293
942.043	0.0139111
942.121	0.0138947
942.200	0.0139758
942.278	0.0139637
942.356	0.0139906
942.434	0.0139741
942.512	0.0141365
942.590	0.0139755
942.668	0.0139009
942.746	0.0138379
942.825	0.0139246
942.903	0.0140570
942.981	0.0140733
943.059	0.0139188
943.137	0.0139437
943.215	0.0140289
943.293	0.0139269
943.371	0.0139618
943.450	0.0139777
943.528	0.0139163
943.606	0.0139162
943.684	0.0139082
943.762	0.0139671
943.840	0.0140068
943.918	0.0140179
943.996	0.0139754
944.075	0.0140407
944.153	0.0139767
944.231	0.0140872
944.309	0.0139146
944.387	0.0139325
944.465	0.0140936
944.543	0.0140287
944.621	0.0140859
944.700	0.0141048
944.778	0.0140316
944.856	0.0140628
944.934	0.0140577
945.012	0.0140096
945.090	0.0140011
945.168	0.0141065
945.246	0.0141093
945.325	0.0139114
945.403	0.0138905
945.481	0.0139946
945.559	0.0140086
945.637	0.0140527
945.715	0.0139874
945.793	0.0139713
945.871	0.0141010
945.950	0.0139181
946.028	0.0139582
946.106	0.0139439
946.184	0.0139387
946.262	0.0138815
946.340	0.0138639
946.418	0.0137801
946.496	0.0139827
946.575	0.0138065
946.653	0.0139345
946.731	0.0138355
946.809	0.0139680
946.887	0.0139894
946.965	0.0138663
947.043	0.0140437
947.121	0.0140672
947.200	0.0139468
947.278	0.0139401
947.356	0.0140393
947.434	0.0140186
947.512	0.0139187
947.590	0.0139545
947.668	0.0140620
947.746	0.0139243
947.825	0.0139232
947.903	0.0139961
947.981	0.0140515
948.059	0.0139280
948.137	0.0138744
948.215	0.0139932
948.293	0.0138947
948.371	0.0138911
948.450	0.0140269
948.528	0.0139761
948.606	0.0139227
948.684	0.0141296
948.762	0.0140096
948.840	0.0139128
948.918	0.0139668
948.996	0.0139717
949.075	0.0140815
949.153	0.0139333
949.231	0.0139054
949.309	0.0139639
949.387	0.0140376
949.465	0.0139036
949.543	0.0140053
949.621	0.0139441
949.700	0.0141155
949.778	0.0138586
949.856	0.0138750
949.934	0.0140450
950.012	0.0139606
950.090	0.0139428
950.168	0.0140353
950.246	0.0139891
950.325	0.0138915
950.403	0.0139724
950.481	0.0139223
950.559	0.0138754
950.637	0.0139387
950.715	0.0141186
950.793	0.0139795
950.871	0.0139843
950.950	0.0138828
951.028	0.0138896
951.106	0.0139759
951.184	0.0140353
951.262	0.0140157
951.340	0.0138814
951.418	0.0139551
951.496	0.0140021
951.575	0.0139598
951.653	0.0139611
951.731	0.0140487
951.809	0.0139981
951.887	0.0138660
951.965	0.0139179
952.043	0.0138935
952.121	0.0139998
952.200	0.0141319
952.278	0.0139960
952.356	0.0139373
952.434	0.0140194
952.512	0.0139232
952.590	0.0140472
952.668	0.0140483
952.746	0.0140231
952.825	0.0139010
952.903	0.0139594
952.981	0.0140023
953.059	0.0139983
953.137	0.0139130
953.215	0.0137746
953.293	0.0139452
953.371	0.0139482
953.450	0.0138808
953.528	0.0139474
953.606	0.0140521
953.684	0.0138265
953.762	0.0138519
953.840	0.0140105
953.918	0.0139706
953.996	0.0140357
954.075	0.0138667
954.153	0.0139662
954.231	0.0141109
954.309	0.0140192
954.387	0.0139489
954.465	0.0138609
954.543	0.0139500
954.621	0.0139746
954.700	0.0139744
954.778	0.0140472
954.856	0.0139964
954.934	0.0139990
955.012	0.0138585
955.090	0.0140839
955.168	0.0140527
955.246	0.0138463
955.325	0.0140256
955.403	0.0139791
955.481	0.0139338
955.559	0.0139151
955.637	0.0139610
955.715	0.0139050
955.793	0.0140165
955.871	0.0139069
955.950	0.0139550
956.028	0.0138901
956.106	0.0139852
956.184	0.0140018
956.262	0.0139058
956.340	0.0138518
956.418	0.0138744
956.496	0.0138525
956.575	0.0139091
956.653	0.0138568
956.731	0.0140506
956.809	0.0139812
956.887	0.0138162
956.965	0.0138290
957.043	0.0139371
957.121	0.0138490
957.200	0.0138686
957.278	0.0139632
957.356	0.0139835
957.434	0.0139583
957.512	0.0139442
957.590	0.0138166
957.668	0.0139621
957.746	0.0140868
957.825	0.0140361
957.903	0.0139756
957.981	0.0140360
958.059	0.0139934
958.137	0.0139767
958.215	0.0139469
958.293	0.0138859
958.371	0.0139636
958.450	0.0140312
958.528	0.0139362
958.606	0.0139715
958.684	0.0140092
958.762	0.0140109
958.840	0.0139780
958.918	0.0140221
958.996	0.0140113
959.075	0.0139719
959.153	0.0139921
959.231	0.0140943
959.309	0.0139895
959.387	0.0138480
959.465	0.0140088
959.543	0.0140519
959.621	0.0140453
959.700	0.0139632
959.778	0.0139452
959.856	0.0139790
959.934	0.0139929
960.012	0.0139625
960.090	0.0140414
960.168	0.0139597
960.246	0.0140200
960.325	0.0140104
960.403	0.0139680
960.481	0.0140465
960.559	0.0139465
960.637	0.0139393
960.715	0.0139879
960.793	0.0139658
960.871	0.0141198
960.950	0.0139740
961.028	0.0139986
961.106	0.0139813
961.184	0.0139272
961.262	0.0140818
961.340	0.0139520
961.418	0.0138016
961.496	0.0138828
961.575	0.0138820
961.653	0.0139097
961.731	0.0139759
961.809	0.0139931
961.887	0.0138692
961.965	0.0139674
962.043	0.0140620
962.121	0.0139423
962.200	0.0138528
962.278	0.0141162
962.356	0.0139184
962.434	0.0140594
962.512	0.0141980
962.590	0.0140305
962.668	0.0140041
962.746	0.0140323
962.825	0.0140168
962.903	0.0139868
962.981	0.0139842
963.059	0.0139812
963.137	0.0140720
963.215	0.0139317
963.293	0.0138354
963.371	0.0140106
963.450	0.0140173
963.528	0.0140396
963.606	0.0139671
963.684	0.0139317
963.762	0.0139283
963.840	0.0139434
963.918	0.0139632
963.996	0.0140119
964.075	0.0139356
964.153	0.0140466
964.231	0.0138760
964.309	0.0138382
964.387	0.0140771
964.465	0.0139721
964.543	0.0140103
964.621	0.0139819
964.700	0.0140034
964.778	0.0140809
964.856	0.0141011
964.934	0.0139588
965.012	0.0140429
965.090	0.0140337
965.168	0.0141071
965.246	0.0140795
965.325	0.0140079
965.403	0.0140586
965.481	0.0140080
965.559	0.0140507
965.637	0.0139394
965.715	0.0141341
965.793	0.0139723
965.871	0.0139462
965.950	0.0139251
966.028	0.0139291
966.106	0.0139433
966.184	0.0139471
966.262	0.0139286
966.340	0.0139088
966.418	0.0138842
966.496	0.0138528
966.575	0.0139928
966.653	0.0139629
966.731	0.0140641
966.809	0.0138756
966.887	0.0138927
966.965	0.0138377
967.043	0.0140063
967.121	0.0140408
967.200	0.0139716
967.278	0.0138674
967.356	0.0138538
967.434	0.0139500
967.512	0.0140822
967.590	0.0140365
967.668	0.0140733
967.746	0.0139344
967.825	0.0139758
967.903	0.0138700
967.981	0.0140208
968.059	0.0138644
968.137	0.0140641
968.215	0.0140643
968.293	0.0140973
968.371	0.0140099
968.450	0.0140520
968.528	0.0139790
968.606	0.0140469
968.684	0.0138525
968.762	0.0140546
968.840	0.0139480
968.918	0.0139102
968.996	0.0139421
969.075	0.0140134
969.153	0.0139061
969.231	0.0139235
969.309	0.0139641
969.387	0.0139434
969.465	0.0139480
969.543	0.0139938
969.621	0.0139904
969.700	0.0139936
969.778	0.0138554
969.856	0.0139192
969.934	0.0139364
970.012	0.0139796
970.090	0.0139736
970.168	0.0139134
970.246	0.0139149
970.325	0.0138773
970.403	0.0139431
970.481	0.0139393
970.559	0.0139116
970.637	0.0139182
970.715	0.0138824
970.793	0.0139238
970.871	0.0139734
970.950	0.0139866
971.028	0.0138017
971.106	0.0139835
971.184	0.0140002
971.262	0.0139903
971.340	0.0139701
971.418	0.0139323
971.496	0.0139712
971.575	0.0139048
971.653	0.0140788
971.731	0.0138733
971.809	0.0137286
971.887	0.0140005
971.965	0.0140204
972.043	0.0139128
972.121	0.0138779
972.200	0.0140070
972.278	0.0141183
972.356	0.0140356
972.434	0.0139957
972.512	0.0140771
972.590	0.0140723
972.668	0.0140355
972.746	0.0140292
972.825	0.0140176
972.903	0.0140079
972.981	0.0139473
973.059	0.0138512
973.137	0.0138869
973.215	0.0141114
973.293	0.0140440
973.371	0.0139893
973.450	0.0139497
973.528	0.0140187
973.606	0.0139110
973.684	0.0138798
973.762	0.0140373
973.840	0.0139108
973.918	0.0138825
973.996	0.0139022
974.075	0.0139825
974.153	0.0141067
974.231	0.0140083
974.309	0.0139764
974.387	0.0139862
974.465	0.0139318
974.543	0.0139849
974.621	0.0139102
974.700	0.0138605
974.778	0.0140018
974.856	0.0140294
974.934	0.0139756
975.012	0.0138138
975.090	0.0138789
975.168	0.0139925
975.246	0.0139622
975.325	0.0140332
975.403	0.0140721
975.481	0.0138676
975.559	0.0139423
975.637	0.0138475
975.715	0.0139538
975.793	0.0139542
975.871	0.0138596
975.950	0.0137771
976.028	0.0139504
976.106	0.0139949
976.184	0.0140798
976.262	0.0139429
976.340	0.0139046
976.418	0.0140012
976.496	0.0140099
976.575	0.0137631
976.653	0.0139101
976.731	0.0140160
976.809	0.0140296
976.887	0.0139195
976.965	0.0139909
977.043	0.0139401
977.121	0.0139573
977.200	0.0139632
977.278	0.0139410
977.356	0.0138389
977.434	0.0138819
977.512	0.0138914
977.590	0.0139827
977.668	0.0140276
977.746	0.0140130
977.825	0.0139323
977.903	0.0140900
977.981	0.0139436
978.059	0.0138910
978.137	0.0139407
978.215	0.0139536
978.293	0.0140009
978.371	0.0138509
978.450	0.0139214
978.528	0.0138412
978.606	0.0139242
978.684	0.0139489
978.762	0.0139231
978.840	0.0139429
978.918	0.0139144
978.996	0.0138891
979.075	0.0138361
979.153	0.0139024
979.231	0.0141197
979.309	0.0140264
979.387	0.0139911
979.465	0.0139474
979.543	0.0139999
979.621	0.0139264
979.700	0.0140950
979.778	0.0140090
979.856	0.0140577
979.934	0.0141422
980.012	0.0140681
980.090	0.0140525
980.168	0.0140276
980.246	0.0139651
980.325	0.0139986
980.403	0.0139825
980.481	0.0139915
980.559	0.0138980
980.637	0.0139915
980.715	0.0139632
980.793	0.0138637
980.871	0.0139796
980.950	0.0139658
981.028	0.0138805
981.106	0.0138938
981.184	0.0138788
981.262	0.0139323
981.340	0.0138941
981.418	0.0138884
981.496	0.0139393
981.575	0.0139496
981.653	0.0138964
981.731	0.0139400
981.809	0.0140941
981.887	0.0139114
981.965	0.0139008
982.043	0.0139292
982.121	0.0140249
982.200	0.0140115
982.278	0.0140866
982.356	0.0139984
982.434	0.0140710
982.512	0.0140683
982.590	0.0138048
982.668	0.0139548
982.746	0.0140903
982.825	0.0139854
982.903	0.0138566
982.981	0.0140302
983.059	0.0139095
983.137	0.0139889
983.215	0.0139141
983.293	0.0139447
983.371	0.0141187
983.450	0.0139636
983.528	0.0140256
983.606	0.0140766
983.684	0.0140569
983.762	0.0139277
983.840	0.0139390
983.918	0.0139548
983.996	0.0139414
984.075	0.0140195
984.153	0.0140646
984.231	0.0139815
984.309	0.0139745
984.387	0.0140045
984.465	0.0140854
984.543	0.0139478
984.621	0.0138866
984.700	0.0139439
984.778	0.0140136
984.856	0.0138556
984.934	0.0139371
985.012	0.0139739
985.090	0.0138700
985.168	0.0139796
985.246	0.0139136
985.325	0.0140591
985.403	0.0139421
985.481	0.0139640
985.559	0.0139742
985.637	0.0140197
985.715	0.0140174
985.793	0.0141553
985.871	0.0140478
985.950	0.0140397
986.028	0.0140946
986.106	0.0139669
986.184	0.0139944
986.262	0.0141222
986.340	0.0141883
986.418	0.0140755
986.496	0.0140205
986.575	0.0139335
986.653	0.0141035
986.731	0.0140989
986.809	0.0141346
986.887	0.0141376
986.965	0.0139877
987.043	0.0140231
987.121	0.0140066
987.200	0.0141335
987.278	0.0139491
987.356	0.0140608
987.434	0.0139592
987.512	0.0139494
987.590	0.0141456
987.668	0.0139741
987.746	0.0140257
987.825	0.0141276
987.903	0.0139890
987.981	0.0140234
988.059	0.0139658
988.137	0.0140678
988.215	0.0141618
988.293	0.0140416
988.371	0.0139612
988.450	0.0140207
988.528	0.0140516
988.606	0.0140457
988.684	0.0139264
988.762	0.0140103
988.840	0.0139199
988.918	0.0140138
988.996	0.0139012
989.075	0.0139092
989.153	0.0138953
989.231	0.0140701
989.309	0.0139034
989.387	0.0140125
989.465	0.0140215
989.543	0.0140869
989.621	0.0138678
989.700	0.0140100
989.778	0.0140281
989.856	0.0139780
989.934	0.0139043
990.012	0.0140122
990.090	0.0140295
990.168	0.0139607
990.246	0.0138884
990.325	0.0139535
990.403	0.0140276
990.481	0.0138652
990.559	0.0139598
990.637	0.0139938
990.715	0.0138283
990.793	0.0139175
990.871	0.0139688
990.950	0.0140432
991.028	0.0139321
991.106	0.0139240
991.184	0.0139583
991.262	0.0139866
991.340	0.0138550
991.418	0.0139400
991.496	0.0140388
991.575	0.0140254
991.653	0.0139708
991.731	0.0140265
991.809	0.0140110
991.887	0.0140098
991.965	0.0138902
992.043	0.0139249
992.121	0.0139484
992.200	0.0140186
992.278	0.0140170
992.356	0.0139095
992.434	0.0139491
992.512	0.0139523
992.590	0.0138033
992.668	0.0138481
992.746	0.0139044
992.825	0.0139526
992.903	0.0141191
992.981	0.0137776
993.059	0.0138695
993.137	0.0139256
993.215	0.0138361
993.293	0.0137817
993.371	0.0139767
993.450	0.0140004
993.528	0.0139465
993.606	0.0139411
993.684	0.0139251
993.762	0.0139690
993.840	0.0138330
993.918	0.0140142
993.996	0.0138010
994.075	0.0139507
994.153	0.0138764
994.231	0.0138509
994.309	0.0138093
994.387	0.0139581
994.465	0.0139592
994.543	0.0138985
994.621	0.0140195
994.700	0.0139588
994.778	0.0138861
994.856	0.0139797
994.934	0.0138666
995.012	0.0138970
995.090	0.0138687
995.168	0.0139149
995.246	0.0138254
995.325	0.0139415
995.403	0.0141204
995.481	0.0139207
995.559	0.0139794
995.637	0.0140836
995.715	0.0139133
995.793	0.0138799
995.871	0.0139968
995.950	0.0140779
996.028	0.0140804
996.106	0.0139220
996.184	0.0139201
996.262	0.0139278
996.340	0.0139245
996.418	0.0138639
996.496	0.0139574
996.575	0.0138393
996.653	0.0138241
996.731	0.0138916
996.809	0.0137703
996.887	0.0138764
996.965	0.0140397
997.043	0.0139471
997.121	0.0139622
997.200	0.0139037
997.278	0.0139750
997.356	0.0139734
997.434	0.0140512
997.512	0.0140031
997.590	0.0140022
997.668	0.0140293
997.746	0.0140147
997.825	0.0139408
997.903	0.0140094
997.981	0.0140433
998.059	0.0140705
998.137	0.0139941
998.215	0.0139801
998.293	0.0140066
998.371	0.0141286
998.450	0.0139600
998.528	0.0137955
998.606	0.0138309
998.684	0.0140154
998.762	0.0138400
998.840	0.0139189
998.918	0.0139587
