05/04/2022	20:47:11	Ver.	4.1	UNKNOWN
Optical Delay	679.003072	Delta X		0.078125	Sweeps	1	Scan Rate	0/0
Coordinates	Axis 1	NaN	Axis 2	NaN	Axis 3	NaN	Axis 4	NaN	Axis 5	NaN	Axis 6	0.000000
TX Power	0.000000	RX Power	0.000000

679.003	0.0149270
679.081	0.0149089
679.159	0.0149670
679.237	0.0148603
679.316	0.0149014
679.394	0.0148523
679.472	0.0148477
679.550	0.0150533
679.628	0.0148039
679.706	0.0149168
679.784	0.0148730
679.862	0.0148927
679.941	0.0150404
680.019	0.0149136
680.097	0.0148160
680.175	0.0147677
680.253	0.0149049
680.331	0.0149810
680.409	0.0148129
680.487	0.0148872
680.566	0.0149496
680.644	0.0150067
680.722	0.0149737
680.800	0.0149995
680.878	0.0149053
680.956	0.0149279
681.034	0.0148767
681.112	0.0149411
681.191	0.0149001
681.269	0.0150061
681.347	0.0149946
681.425	0.0149150
681.503	0.0150198
681.581	0.0149959
681.659	0.0149231
681.737	0.0147887
681.816	0.0148859
681.894	0.0149909
681.972	0.0149957
682.050	0.0148933
682.128	0.0148956
682.206	0.0149987
682.284	0.0148782
682.362	0.0149896
682.441	0.0149634
682.519	0.0150205
682.597	0.0151017
682.675	0.0149989
682.753	0.0148605
682.831	0.0148721
682.909	0.0149137
682.987	0.0148744
683.066	0.0149448
683.144	0.0148704
683.222	0.0149046
683.300	0.0147344
683.378	0.0148141
683.456	0.0149629
683.534	0.0150661
683.612	0.0148841
683.691	0.0149464
683.769	0.0150476
683.847	0.0149451
683.925	0.0147747
684.003	0.0149654
684.081	0.0148830
684.159	0.0148738
684.237	0.0149471
684.316	0.0147475
684.394	0.0149156
684.472	0.0148373
684.550	0.0148872
684.628	0.0149977
684.706	0.0148204
684.784	0.0148246
684.862	0.0149547
684.941	0.0149617
685.019	0.0148566
685.097	0.0148465
685.175	0.0149000
685.253	0.0149493
685.331	0.0147902
685.409	0.0148698
685.487	0.0149019
685.566	0.0148471
685.644	0.0148177
685.722	0.0149493
685.800	0.0149741
685.878	0.0150148
685.956	0.0148950
686.034	0.0148713
686.112	0.0149706
686.191	0.0148553
686.269	0.0150035
686.347	0.0149329
686.425	0.0149944
686.503	0.0149267
686.581	0.0149146
686.659	0.0150266
686.737	0.0148995
686.816	0.0149622
686.894	0.0148341
686.972	0.0148516
687.050	0.0148830
687.128	0.0149179
687.206	0.0148267
687.284	0.0149168
687.362	0.0149181
687.441	0.0149202
687.519	0.0148537
687.597	0.0149363
687.675	0.0149460
687.753	0.0148342
687.831	0.0150258
687.909	0.0149001
687.987	0.0149066
688.066	0.0149385
688.144	0.0148457
688.222	0.0150389
688.300	0.0148448
688.378	0.0148608
688.456	0.0148608
688.534	0.0148593
688.612	0.0149865
688.691	0.0148702
688.769	0.0147673
688.847	0.0148707
688.925	0.0150397
689.003	0.0149055
689.081	0.0148389
689.159	0.0148762
689.237	0.0148737
689.316	0.0148554
689.394	0.0149374
689.472	0.0148917
689.550	0.0148967
689.628	0.0148756
689.706	0.0149829
689.784	0.0149071
689.862	0.0149882
689.941	0.0150025
690.019	0.0149046
690.097	0.0149397
690.175	0.0150156
690.253	0.0149660
690.331	0.0148745
690.409	0.0149303
690.487	0.0149686
690.566	0.0149041
690.644	0.0149577
690.722	0.0149585
690.800	0.0149421
690.878	0.0149062
690.956	0.0151051
691.034	0.0150048
691.112	0.0150541
691.191	0.0149107
691.269	0.0148441
691.347	0.0148105
691.425	0.0149526
691.503	0.0149409
691.581	0.0148103
691.659	0.0149081
691.737	0.0150447
691.816	0.0147540
691.894	0.0150330
691.972	0.0150204
692.050	0.0148547
692.128	0.0149184
692.206	0.0149722
692.284	0.0150794
692.362	0.0149673
692.441	0.0148547
692.519	0.0149313
692.597	0.0149425
692.675	0.0149404
692.753	0.0149245
692.831	0.0148312
692.909	0.0148950
692.987	0.0149786
693.066	0.0150375
693.144	0.0149445
693.222	0.0150035
693.300	0.0148449
693.378	0.0148076
693.456	0.0148602
693.534	0.0150535
693.612	0.0149841
693.691	0.0149407
693.769	0.0150110
693.847	0.0149420
693.925	0.0148156
694.003	0.0150917
694.081	0.0150581
694.159	0.0150365
694.237	0.0149605
694.316	0.0149512
694.394	0.0149262
694.472	0.0149717
694.550	0.0149995
694.628	0.0149586
694.706	0.0149657
694.784	0.0148850
694.862	0.0148875
694.941	0.0148424
695.019	0.0149825
695.097	0.0150584
695.175	0.0149620
695.253	0.0148907
695.331	0.0148569
695.409	0.0149987
695.487	0.0149713
695.566	0.0148292
695.644	0.0149832
695.722	0.0148508
695.800	0.0148583
695.878	0.0149551
695.956	0.0150082
696.034	0.0150054
696.112	0.0148713
696.191	0.0148138
696.269	0.0148951
696.347	0.0149862
696.425	0.0149230
696.503	0.0149398
696.581	0.0149328
696.659	0.0149119
696.737	0.0149387
696.816	0.0148416
696.894	0.0148744
696.972	0.0148550
697.050	0.0149496
697.128	0.0149905
697.206	0.0149147
697.284	0.0150391
697.362	0.0149435
697.441	0.0149689
697.519	0.0149303
697.597	0.0148232
697.675	0.0148685
697.753	0.0149562
697.831	0.0149698
697.909	0.0150284
697.987	0.0148931
698.066	0.0148356
698.144	0.0148516
698.222	0.0149928
698.300	0.0149351
698.378	0.0149197
698.456	0.0149026
698.534	0.0148128
698.612	0.0149590
698.691	0.0148631
698.769	0.0148458
698.847	0.0148850
698.925	0.0148980
699.003	0.0148966
699.081	0.0150068
699.159	0.0149451
699.237	0.0150714
699.316	0.0148631
699.394	0.0147825
699.472	0.0149333
699.550	0.0149557
699.628	0.0148708
699.706	0.0149434
699.784	0.0149396
699.862	0.0148107
699.941	0.0149932
700.019	0.0149613
700.097	0.0149615
700.175	0.0148942
700.253	0.0148934
700.331	0.0147535
700.409	0.0149100
700.487	0.0148405
700.566	0.0148643
700.644	0.0149281
700.722	0.0148597
700.800	0.0149065
700.878	0.0148983
700.956	0.0149599
701.034	0.0149667
701.112	0.0148297
701.191	0.0148959
701.269	0.0148586
701.347	0.0150063
701.425	0.0150013
701.503	0.0147863
701.581	0.0150106
701.659	0.0148853
701.737	0.0149692
701.816	0.0149560
701.894	0.0149675
701.972	0.0149417
702.050	0.0149478
702.128	0.0149615
702.206	0.0150313
702.284	0.0149321
702.362	0.0147984
702.441	0.0149774
702.519	0.0148986
702.597	0.0149135
702.675	0.0151065
702.753	0.0149160
702.831	0.0147836
702.909	0.0149934
702.987	0.0149019
703.066	0.0148368
703.144	0.0149538
703.222	0.0149771
703.300	0.0150334
703.378	0.0148364
703.456	0.0148222
703.534	0.0150047
703.612	0.0148460
703.691	0.0149290
703.769	0.0148814
703.847	0.0149178
703.925	0.0150365
704.003	0.0149660
704.081	0.0149405
704.159	0.0148494
704.237	0.0148670
704.316	0.0148032
704.394	0.0149048
704.472	0.0148560
704.550	0.0149376
704.628	0.0150352
704.706	0.0150014
704.784	0.0149052
704.862	0.0150323
704.941	0.0150934
705.019	0.0148140
705.097	0.0147910
705.175	0.0149934
705.253	0.0149721
705.331	0.0149677
705.409	0.0148929
705.487	0.0150912
705.566	0.0150182
705.644	0.0149516
705.722	0.0149350
705.800	0.0150223
705.878	0.0148844
705.956	0.0149483
706.034	0.0149152
706.112	0.0149519
706.191	0.0149324
706.269	0.0149773
706.347	0.0148881
706.425	0.0150610
706.503	0.0149619
706.581	0.0149583
706.659	0.0149751
706.737	0.0149903
706.816	0.0150866
706.894	0.0149126
706.972	0.0149373
707.050	0.0150078
707.128	0.0150407
707.206	0.0150526
707.284	0.0149108
707.362	0.0148873
707.441	0.0148637
707.519	0.0147324
707.597	0.0149406
707.675	0.0150181
707.753	0.0148538
707.831	0.0148080
707.909	0.0150427
707.987	0.0149493
708.066	0.0148371
708.144	0.0149680
708.222	0.0150906
708.300	0.0150240
708.378	0.0148943
708.456	0.0148241
708.534	0.0149558
708.612	0.0149287
708.691	0.0149211
708.769	0.0150147
708.847	0.0148749
708.925	0.0147828
709.003	0.0149239
709.081	0.0149780
709.159	0.0148750
709.237	0.0147575
709.316	0.0148936
709.394	0.0148641
709.472	0.0149120
709.550	0.0150767
709.628	0.0148208
709.706	0.0147698
709.784	0.0149068
709.862	0.0149056
709.941	0.0147356
710.019	0.0148183
710.097	0.0149979
710.175	0.0149755
710.253	0.0149387
710.331	0.0148224
710.409	0.0149497
710.487	0.0149458
710.566	0.0150271
710.644	0.0150516
710.722	0.0147873
710.800	0.0148667
710.878	0.0150494
710.956	0.0149226
711.034	0.0149571
711.112	0.0150566
711.191	0.0149474
711.269	0.0147801
711.347	0.0147788
711.425	0.0149461
711.503	0.0148842
711.581	0.0148066
711.659	0.0147971
711.737	0.0150640
711.816	0.0148907
711.894	0.0149369
711.972	0.0148148
712.050	0.0148639
712.128	0.0149442
712.206	0.0149509
712.284	0.0148730
712.362	0.0148330
712.441	0.0149926
712.519	0.0147669
712.597	0.0148692
712.675	0.0149219
712.753	0.0149223
712.831	0.0149323
712.909	0.0149947
712.987	0.0148830
713.066	0.0148398
713.144	0.0148865
713.222	0.0147275
713.300	0.0149142
713.378	0.0149120
713.456	0.0149418
713.534	0.0150336
713.612	0.0149429
713.691	0.0150555
713.769	0.0151282
713.847	0.0149129
713.925	0.0150710
714.003	0.0151386
714.081	0.0148898
714.159	0.0149384
714.237	0.0150166
714.316	0.0148724
714.394	0.0148952
714.472	0.0149979
714.550	0.0149565
714.628	0.0150126
714.706	0.0150185
714.784	0.0150630
714.862	0.0151053
714.941	0.0149579
715.019	0.0150268
715.097	0.0149568
715.175	0.0148357
715.253	0.0149296
715.331	0.0148692
715.409	0.0148462
715.487	0.0149395
715.566	0.0150439
715.644	0.0150765
715.722	0.0150160
715.800	0.0150101
715.878	0.0148936
715.956	0.0149190
716.034	0.0149643
716.112	0.0150495
716.191	0.0148659
716.269	0.0148956
716.347	0.0149003
716.425	0.0150131
716.503	0.0149274
716.581	0.0148482
716.659	0.0149454
716.737	0.0148951
716.816	0.0149767
716.894	0.0148833
716.972	0.0148681
717.050	0.0149436
717.128	0.0149617
717.206	0.0149517
717.284	0.0148419
717.362	0.0149357
717.441	0.0149400
717.519	0.0148771
717.597	0.0148524
717.675	0.0149299
717.753	0.0149567
717.831	0.0149829
717.909	0.0149632
717.987	0.0148393
718.066	0.0149252
718.144	0.0147996
718.222	0.0148267
718.300	0.0148631
718.378	0.0147265
718.456	0.0148470
718.534	0.0149046
718.612	0.0148583
718.691	0.0149297
718.769	0.0149216
718.847	0.0148775
718.925	0.0149921
719.003	0.0149612
719.081	0.0150768
719.159	0.0149493
719.237	0.0148534
719.316	0.0146936
719.394	0.0147780
719.472	0.0148357
719.550	0.0148081
719.628	0.0149452
719.706	0.0148379
719.784	0.0148428
719.862	0.0148340
719.941	0.0149696
720.019	0.0151354
720.097	0.0150507
720.175	0.0150597
720.253	0.0150513
720.331	0.0150687
720.409	0.0150811
720.487	0.0150700
720.566	0.0150107
720.644	0.0149861
720.722	0.0149060
720.800	0.0149798
720.878	0.0150542
720.956	0.0150162
721.034	0.0149710
721.112	0.0150047
721.191	0.0150171
721.269	0.0150567
721.347	0.0150476
721.425	0.0149156
721.503	0.0148579
721.581	0.0150651
721.659	0.0150259
721.737	0.0149569
721.816	0.0150327
721.894	0.0150367
721.972	0.0149355
722.050	0.0150884
722.128	0.0150417
722.206	0.0148119
722.284	0.0148578
722.362	0.0148901
722.441	0.0148244
722.519	0.0147289
722.597	0.0147855
722.675	0.0147746
722.753	0.0147007
722.831	0.0146120
722.909	0.0147550
722.987	0.0147353
723.066	0.0147462
723.144	0.0148760
723.222	0.0150140
723.300	0.0149387
723.378	0.0148608
723.456	0.0149202
723.534	0.0149815
723.612	0.0150869
723.691	0.0150645
723.769	0.0150605
723.847	0.0150320
723.925	0.0150115
724.003	0.0148868
724.081	0.0150754
724.159	0.0150701
724.237	0.0148660
724.316	0.0150443
724.394	0.0150021
724.472	0.0150462
724.550	0.0151080
724.628	0.0150067
724.706	0.0151157
724.784	0.0150129
724.862	0.0149876
724.941	0.0148697
725.019	0.0149553
725.097	0.0150651
725.175	0.0150844
725.253	0.0149812
725.331	0.0150270
725.409	0.0149825
725.487	0.0149123
725.566	0.0148160
725.644	0.0149149
725.722	0.0148415
725.800	0.0149315
725.878	0.0149844
725.956	0.0149373
726.034	0.0149237
726.112	0.0148463
726.191	0.0147885
726.269	0.0149413
726.347	0.0149301
726.425	0.0150264
726.503	0.0150069
726.581	0.0149940
726.659	0.0149705
726.737	0.0149928
726.816	0.0149939
726.894	0.0149287
726.972	0.0148158
727.050	0.0150928
727.128	0.0149489
727.206	0.0149032
727.284	0.0147836
727.362	0.0147266
727.441	0.0148151
727.519	0.0147724
727.597	0.0146585
727.675	0.0147212
727.753	0.0146615
727.831	0.0147232
727.909	0.0147974
727.987	0.0147688
728.066	0.0148002
728.144	0.0147762
728.222	0.0148308
728.300	0.0148287
728.378	0.0149059
728.456	0.0148288
728.534	0.0148098
728.612	0.0150094
728.691	0.0149622
728.769	0.0148978
728.847	0.0150544
728.925	0.0148447
729.003	0.0148888
729.081	0.0149908
729.159	0.0148727
729.237	0.0149343
729.316	0.0148611
729.394	0.0149371
729.472	0.0149712
729.550	0.0149777
729.628	0.0149233
729.706	0.0148888
729.784	0.0149334
729.862	0.0149210
729.941	0.0150535
730.019	0.0149747
730.097	0.0149481
730.175	0.0149674
730.253	0.0149521
730.331	0.0150577
730.409	0.0150426
730.487	0.0151092
730.566	0.0150127
730.644	0.0149963
730.722	0.0149342
730.800	0.0148976
730.878	0.0149014
730.956	0.0149281
731.034	0.0149578
731.112	0.0149340
731.191	0.0149345
731.269	0.0148809
731.347	0.0149355
731.425	0.0148385
731.503	0.0148723
731.581	0.0147740
731.659	0.0149030
731.737	0.0149239
731.816	0.0149753
731.894	0.0147968
731.972	0.0148862
732.050	0.0149465
732.128	0.0148518
732.206	0.0149711
732.284	0.0148065
732.362	0.0148056
732.441	0.0149088
732.519	0.0149407
732.597	0.0149514
732.675	0.0148403
732.753	0.0147992
732.831	0.0148719
732.909	0.0147986
732.987	0.0147360
733.066	0.0145882
733.144	0.0148169
733.222	0.0150259
733.300	0.0148527
733.378	0.0146999
733.456	0.0148213
733.534	0.0149297
733.612	0.0148680
733.691	0.0147269
733.769	0.0148784
733.847	0.0149005
733.925	0.0147841
734.003	0.0147903
734.081	0.0149628
734.159	0.0149520
734.237	0.0149577
734.316	0.0148646
734.394	0.0148692
734.472	0.0149007
734.550	0.0148540
734.628	0.0148945
734.706	0.0148856
734.784	0.0149632
734.862	0.0148841
734.941	0.0150017
735.019	0.0149718
735.097	0.0148656
735.175	0.0149430
735.253	0.0151492
735.331	0.0149673
735.409	0.0151855
735.487	0.0149873
735.566	0.0150943
735.644	0.0150437
735.722	0.0150551
735.800	0.0149817
735.878	0.0151591
735.956	0.0150610
736.034	0.0151254
736.112	0.0150243
736.191	0.0150792
736.269	0.0150642
736.347	0.0150438
736.425	0.0150428
736.503	0.0150854
736.581	0.0149263
736.659	0.0150137
736.737	0.0150510
736.816	0.0151737
736.894	0.0150784
736.972	0.0150500
737.050	0.0149041
737.128	0.0149419
737.206	0.0148446
737.284	0.0148869
737.362	0.0148470
737.441	0.0148804
737.519	0.0150153
737.597	0.0150108
737.675	0.0150525
737.753	0.0150377
737.831	0.0148559
737.909	0.0149036
737.987	0.0148300
738.066	0.0148392
738.144	0.0150358
738.222	0.0151450
738.300	0.0148589
738.378	0.0149922
738.456	0.0148757
738.534	0.0149627
738.612	0.0150623
738.691	0.0149383
738.769	0.0147810
738.847	0.0149555
738.925	0.0148752
739.003	0.0147794
739.081	0.0148500
739.159	0.0148129
739.237	0.0147608
739.316	0.0146915
739.394	0.0149054
739.472	0.0148103
739.550	0.0148323
739.628	0.0148396
739.706	0.0147429
739.784	0.0148706
739.862	0.0148599
739.941	0.0148975
740.019	0.0149637
740.097	0.0149153
740.175	0.0149738
740.253	0.0149232
740.331	0.0150192
740.409	0.0150860
740.487	0.0150125
740.566	0.0149822
740.644	0.0149393
740.722	0.0150484
740.800	0.0150604
740.878	0.0149772
740.956	0.0150302
741.034	0.0151163
741.112	0.0150462
741.191	0.0150861
741.269	0.0151183
741.347	0.0149687
741.425	0.0149372
741.503	0.0147392
741.581	0.0148404
741.659	0.0149335
741.737	0.0149731
741.816	0.0149083
741.894	0.0149785
741.972	0.0148460
742.050	0.0148857
742.128	0.0149516
742.206	0.0149235
742.284	0.0149730
742.362	0.0148804
742.441	0.0149663
742.519	0.0149186
742.597	0.0149541
742.675	0.0149007
742.753	0.0148076
742.831	0.0149794
742.909	0.0150270
742.987	0.0149052
743.066	0.0148181
743.144	0.0148092
743.222	0.0148522
743.300	0.0147964
743.378	0.0149129
743.456	0.0146400
743.534	0.0147999
743.612	0.0148979
743.691	0.0150266
743.769	0.0149389
743.847	0.0148761
743.925	0.0148817
744.003	0.0147856
744.081	0.0147775
744.159	0.0147160
744.237	0.0148087
744.316	0.0148275
744.394	0.0148575
744.472	0.0147392
744.550	0.0148791
744.628	0.0149471
744.706	0.0149609
744.784	0.0148683
744.862	0.0149075
744.941	0.0148502
745.019	0.0148650
745.097	0.0148954
745.175	0.0148648
745.253	0.0148857
745.331	0.0148794
745.409	0.0149863
745.487	0.0149229
745.566	0.0148241
745.644	0.0149844
745.722	0.0148330
745.800	0.0147718
745.878	0.0149306
745.956	0.0148372
746.034	0.0147235
746.112	0.0147358
746.191	0.0149035
746.269	0.0148325
746.347	0.0149844
746.425	0.0149651
746.503	0.0148795
746.581	0.0148248
746.659	0.0149348
746.737	0.0150047
746.816	0.0148473
746.894	0.0149113
746.972	0.0148981
747.050	0.0149846
747.128	0.0150942
747.206	0.0150436
747.284	0.0150838
747.362	0.0151131
747.441	0.0149934
747.519	0.0147380
747.597	0.0149139
747.675	0.0149043
747.753	0.0150549
747.831	0.0149726
747.909	0.0148677
747.987	0.0149258
748.066	0.0149961
748.144	0.0149328
748.222	0.0149780
748.300	0.0148946
748.378	0.0149162
748.456	0.0149382
748.534	0.0151234
748.612	0.0149490
748.691	0.0149531
748.769	0.0150864
748.847	0.0151009
748.925	0.0151287
749.003	0.0149480
749.081	0.0150510
749.159	0.0149905
749.237	0.0150713
749.316	0.0150885
749.394	0.0150521
749.472	0.0149154
749.550	0.0151115
749.628	0.0150934
749.706	0.0150117
749.784	0.0150636
749.862	0.0150569
749.941	0.0148667
750.019	0.0149873
750.097	0.0150498
750.175	0.0150205
750.253	0.0148640
750.331	0.0149497
750.409	0.0150269
750.487	0.0149754
750.566	0.0149464
750.644	0.0149815
750.722	0.0149906
750.800	0.0149241
750.878	0.0150266
750.956	0.0150705
751.034	0.0150111
751.112	0.0150060
751.191	0.0150169
751.269	0.0148993
751.347	0.0148153
751.425	0.0149306
751.503	0.0150169
751.581	0.0149931
751.659	0.0150504
751.737	0.0148703
751.816	0.0149454
751.894	0.0149329
751.972	0.0148344
752.050	0.0148759
752.128	0.0148777
752.206	0.0148689
752.284	0.0147955
752.362	0.0147955
752.441	0.0148398
752.519	0.0148850
752.597	0.0148954
752.675	0.0149953
752.753	0.0148650
752.831	0.0147679
752.909	0.0148255
752.987	0.0148231
753.066	0.0148177
753.144	0.0148824
753.222	0.0147327
753.300	0.0148314
753.378	0.0149143
753.456	0.0148444
753.534	0.0149673
753.612	0.0149011
753.691	0.0149321
753.769	0.0148700
753.847	0.0149158
753.925	0.0146941
754.003	0.0149453
754.081	0.0147816
754.159	0.0147951
754.237	0.0149072
754.316	0.0148717
754.394	0.0148908
754.472	0.0148292
754.550	0.0149447
754.628	0.0149980
754.706	0.0149084
754.784	0.0149678
754.862	0.0148695
754.941	0.0149288
755.019	0.0148167
755.097	0.0149808
755.175	0.0149973
755.253	0.0149067
755.331	0.0149068
755.409	0.0148672
755.487	0.0147922
755.566	0.0148817
755.644	0.0149508
755.722	0.0147918
755.800	0.0148411
755.878	0.0147666
755.956	0.0149019
756.034	0.0149290
756.112	0.0147847
756.191	0.0148275
756.269	0.0148885
756.347	0.0147847
756.425	0.0146972
756.503	0.0148135
756.581	0.0149889
756.659	0.0148887
756.737	0.0148794
756.816	0.0148565
756.894	0.0147698
756.972	0.0148437
757.050	0.0149384
757.128	0.0149824
757.206	0.0148689
757.284	0.0147413
757.362	0.0147829
757.441	0.0148014
757.519	0.0148462
757.597	0.0147584
757.675	0.0148726
757.753	0.0148849
757.831	0.0148341
757.909	0.0148810
757.987	0.0150415
758.066	0.0147841
758.144	0.0148117
758.222	0.0148186
758.300	0.0148436
758.378	0.0148788
758.456	0.0150168
758.534	0.0148109
758.612	0.0148497
758.691	0.0150885
758.769	0.0149522
758.847	0.0150017
758.925	0.0149055
759.003	0.0150058
759.081	0.0150195
759.159	0.0149709
759.237	0.0149130
759.316	0.0149566
759.394	0.0149374
759.472	0.0150066
759.550	0.0149435
759.628	0.0150109
759.706	0.0150407
759.784	0.0150557
759.862	0.0150748
759.941	0.0151308
760.019	0.0149178
760.097	0.0150249
760.175	0.0150200
760.253	0.0149953
760.331	0.0149922
760.409	0.0150307
760.487	0.0148814
760.566	0.0150069
760.644	0.0149491
760.722	0.0149712
760.800	0.0149426
760.878	0.0148975
760.956	0.0149788
761.034	0.0149932
761.112	0.0149510
761.191	0.0150646
761.269	0.0148097
761.347	0.0148787
761.425	0.0149666
761.503	0.0149590
761.581	0.0147880
761.659	0.0148821
761.737	0.0148714
761.816	0.0149846
761.894	0.0149020
761.972	0.0150694
762.050	0.0150485
762.128	0.0150198
762.206	0.0148679
762.284	0.0148162
762.362	0.0149798
762.441	0.0149113
762.519	0.0149532
762.597	0.0149828
762.675	0.0150164
762.753	0.0148788
762.831	0.0150471
762.909	0.0150189
762.987	0.0149728
763.066	0.0150532
763.144	0.0148199
763.222	0.0148396
763.300	0.0149323
763.378	0.0150777
763.456	0.0150309
763.534	0.0149313
763.612	0.0150028
763.691	0.0150918
763.769	0.0151378
763.847	0.0149277
763.925	0.0150165
764.003	0.0150847
764.081	0.0149857
764.159	0.0149390
764.237	0.0148714
764.316	0.0149928
764.394	0.0150807
764.472	0.0150694
764.550	0.0148335
764.628	0.0149741
764.706	0.0150025
764.784	0.0149837
764.862	0.0150397
764.941	0.0149040
765.019	0.0151315
765.097	0.0150536
765.175	0.0150242
765.253	0.0150898
765.331	0.0150137
765.409	0.0149999
765.487	0.0150148
765.566	0.0149508
765.644	0.0148901
765.722	0.0149174
765.800	0.0149400
765.878	0.0150223
765.956	0.0149239
766.034	0.0147936
766.112	0.0148999
766.191	0.0148454
766.269	0.0149731
766.347	0.0148051
766.425	0.0149471
766.503	0.0149375
766.581	0.0149142
766.659	0.0147395
766.737	0.0147703
766.816	0.0148339
766.894	0.0148380
766.972	0.0147804
767.050	0.0149747
767.128	0.0149779
767.206	0.0147814
767.284	0.0149056
767.362	0.0148831
767.441	0.0149550
767.519	0.0148054
767.597	0.0149268
767.675	0.0148007
767.753	0.0149323
767.831	0.0148657
767.909	0.0149374
767.987	0.0149756
768.066	0.0149137
768.144	0.0149098
768.222	0.0149712
768.300	0.0149265
768.378	0.0148885
768.456	0.0150416
768.534	0.0149331
768.612	0.0148978
768.691	0.0150463
768.769	0.0150027
768.847	0.0150141
768.925	0.0150096
769.003	0.0148837
769.081	0.0149906
769.159	0.0149365
769.237	0.0148249
769.316	0.0149620
769.394	0.0147231
769.472	0.0147886
769.550	0.0148679
769.628	0.0148640
769.706	0.0148937
769.784	0.0147897
769.862	0.0148465
769.941	0.0150040
770.019	0.0150142
770.097	0.0149023
770.175	0.0149614
770.253	0.0149889
770.331	0.0149755
770.409	0.0149503
770.487	0.0150228
770.566	0.0150887
770.644	0.0150814
770.722	0.0149751
770.800	0.0150140
770.878	0.0150430
770.956	0.0149367
771.034	0.0148808
771.112	0.0148828
771.191	0.0149511
771.269	0.0148653
771.347	0.0149597
771.425	0.0150804
771.503	0.0148312
771.581	0.0147750
771.659	0.0150458
771.737	0.0149628
771.816	0.0149121
771.894	0.0149439
771.972	0.0149530
772.050	0.0148659
772.128	0.0148893
772.206	0.0149992
772.284	0.0148515
772.362	0.0148751
772.441	0.0149524
772.519	0.0147765
772.597	0.0149066
772.675	0.0149721
772.753	0.0150198
772.831	0.0150045
772.909	0.0149940
772.987	0.0151024
773.066	0.0149104
773.144	0.0148490
773.222	0.0150030
773.300	0.0149624
773.378	0.0149749
773.456	0.0149526
773.534	0.0149834
773.612	0.0148865
773.691	0.0148033
773.769	0.0148885
773.847	0.0148891
773.925	0.0150888
774.003	0.0149603
774.081	0.0149818
774.159	0.0149668
774.237	0.0149128
774.316	0.0150766
774.394	0.0150592
774.472	0.0148608
774.550	0.0148788
774.628	0.0149269
774.706	0.0148587
774.784	0.0149920
774.862	0.0149961
774.941	0.0150101
775.019	0.0148914
775.097	0.0148721
775.175	0.0149791
775.253	0.0149320
775.331	0.0148943
775.409	0.0150283
775.487	0.0149610
775.566	0.0148946
775.644	0.0149481
775.722	0.0149555
775.800	0.0149873
775.878	0.0148935
775.956	0.0148031
776.034	0.0147952
776.112	0.0148935
776.191	0.0150130
776.269	0.0148892
776.347	0.0147691
776.425	0.0149392
776.503	0.0147538
776.581	0.0148733
776.659	0.0150199
776.737	0.0148429
776.816	0.0148718
776.894	0.0148707
776.972	0.0149090
777.050	0.0149888
777.128	0.0148784
777.206	0.0148669
777.284	0.0148293
777.362	0.0149512
777.441	0.0150018
777.519	0.0149726
777.597	0.0149249
777.675	0.0149507
777.753	0.0148225
777.831	0.0146723
777.909	0.0148724
777.987	0.0148666
778.066	0.0148425
778.144	0.0149314
778.222	0.0148982
778.300	0.0149570
778.378	0.0149758
778.456	0.0150111
778.534	0.0149951
778.612	0.0148180
778.691	0.0146799
778.769	0.0148814
778.847	0.0149541
778.925	0.0149784
779.003	0.0148753
779.081	0.0149092
779.159	0.0149847
779.237	0.0148759
779.316	0.0148739
779.394	0.0148606
779.472	0.0148862
779.550	0.0149875
779.628	0.0149876
779.706	0.0148828
779.784	0.0149490
779.862	0.0148613
779.941	0.0149722
780.019	0.0149447
780.097	0.0149630
780.175	0.0149430
780.253	0.0149466
780.331	0.0149217
780.409	0.0149719
780.487	0.0149291
780.566	0.0148874
780.644	0.0148752
780.722	0.0148212
780.800	0.0148129
780.878	0.0147916
780.956	0.0147575
781.034	0.0147971
781.112	0.0148491
781.191	0.0147926
781.269	0.0148295
781.347	0.0148055
781.425	0.0147446
781.503	0.0148931
781.581	0.0148408
781.659	0.0148870
781.737	0.0148952
781.816	0.0148594
781.894	0.0148698
781.972	0.0149852
782.050	0.0149007
782.128	0.0148138
782.206	0.0148795
782.284	0.0148660
782.362	0.0149369
782.441	0.0148311
782.519	0.0150560
782.597	0.0149239
782.675	0.0149248
782.753	0.0148792
782.831	0.0148870
782.909	0.0148627
782.987	0.0148241
783.066	0.0150117
783.144	0.0149675
783.222	0.0149518
783.300	0.0149915
783.378	0.0149946
783.456	0.0148742
783.534	0.0149535
783.612	0.0148210
783.691	0.0150451
783.769	0.0148728
783.847	0.0148357
783.925	0.0149416
784.003	0.0149434
784.081	0.0148598
784.159	0.0148956
784.237	0.0147548
784.316	0.0149692
784.394	0.0149902
784.472	0.0149312
784.550	0.0148951
784.628	0.0146420
784.706	0.0148991
784.784	0.0149622
784.862	0.0148833
784.941	0.0149326
785.019	0.0149859
785.097	0.0149860
785.175	0.0148859
785.253	0.0148618
785.331	0.0150257
785.409	0.0150420
785.487	0.0149059
785.566	0.0148902
785.644	0.0148720
785.722	0.0149126
785.800	0.0148790
785.878	0.0149149
785.956	0.0149054
786.034	0.0147341
786.112	0.0148525
786.191	0.0149216
786.269	0.0149169
786.347	0.0149083
786.425	0.0148775
786.503	0.0148269
786.581	0.0148144
786.659	0.0148934
786.737	0.0147592
786.816	0.0147974
786.894	0.0148848
786.972	0.0147869
787.050	0.0149931
787.128	0.0149800
787.206	0.0148660
787.284	0.0149098
787.362	0.0149072
787.441	0.0149692
787.519	0.0149986
787.597	0.0147749
787.675	0.0148031
787.753	0.0149126
787.831	0.0149400
787.909	0.0150207
787.987	0.0149340
788.066	0.0150076
788.144	0.0150450
788.222	0.0148846
788.300	0.0150056
788.378	0.0149792
788.456	0.0150046
788.534	0.0151245
788.612	0.0150575
788.691	0.0149763
788.769	0.0149855
788.847	0.0150803
788.925	0.0151205
789.003	0.0150781
789.081	0.0149870
789.159	0.0150249
789.237	0.0149649
789.316	0.0150546
789.394	0.0149953
789.472	0.0149048
789.550	0.0149187
789.628	0.0148411
789.706	0.0149855
789.784	0.0149735
789.862	0.0149235
789.941	0.0150535
790.019	0.0150397
790.097	0.0148976
790.175	0.0151048
790.253	0.0150201
790.331	0.0148948
790.409	0.0148982
790.487	0.0149647
790.566	0.0150280
790.644	0.0150752
790.722	0.0148851
790.800	0.0149869
790.878	0.0148969
790.956	0.0149587
791.034	0.0149641
791.112	0.0149316
791.191	0.0149577
791.269	0.0149764
791.347	0.0149821
791.425	0.0149979
791.503	0.0148237
791.581	0.0148509
791.659	0.0149322
791.737	0.0149985
791.816	0.0149940
791.894	0.0148794
791.972	0.0149585
792.050	0.0149158
792.128	0.0149687
792.206	0.0149925
792.284	0.0150302
792.362	0.0149570
792.441	0.0147417
792.519	0.0148476
792.597	0.0149022
792.675	0.0147708
792.753	0.0148020
792.831	0.0149814
792.909	0.0147472
792.987	0.0147476
793.066	0.0148856
793.144	0.0149506
793.222	0.0149450
793.300	0.0148934
793.378	0.0149581
793.456	0.0149096
793.534	0.0149193
793.612	0.0150014
793.691	0.0147411
793.769	0.0149285
793.847	0.0148238
793.925	0.0149651
794.003	0.0149036
794.081	0.0148264
794.159	0.0148882
794.237	0.0148862
794.316	0.0148321
794.394	0.0149756
794.472	0.0148522
794.550	0.0148531
794.628	0.0149286
794.706	0.0148905
794.784	0.0149435
794.862	0.0149198
794.941	0.0149629
795.019	0.0149978
795.097	0.0147281
795.175	0.0148990
795.253	0.0148466
795.331	0.0148112
795.409	0.0148891
795.487	0.0148382
795.566	0.0149019
795.644	0.0150050
795.722	0.0149540
795.800	0.0146755
795.878	0.0148238
795.956	0.0149356
796.034	0.0147646
796.112	0.0149797
796.191	0.0148423
796.269	0.0147501
796.347	0.0148969
796.425	0.0148362
796.503	0.0148306
796.581	0.0148570
796.659	0.0148987
796.737	0.0150487
796.816	0.0149461
796.894	0.0148873
796.972	0.0148504
797.050	0.0148583
797.128	0.0147945
797.206	0.0148823
797.284	0.0149605
797.362	0.0148083
797.441	0.0149514
797.519	0.0150693
797.597	0.0150334
797.675	0.0148658
797.753	0.0148129
797.831	0.0149368
797.909	0.0148573
797.987	0.0147559
798.066	0.0149799
798.144	0.0149739
798.222	0.0148717
798.300	0.0148385
798.378	0.0148613
798.456	0.0150064
798.534	0.0148444
798.612	0.0147884
798.691	0.0148668
798.769	0.0148988
798.847	0.0149294
798.925	0.0150087
799.003	0.0148534
799.081	0.0148819
799.159	0.0148348
799.237	0.0148729
799.316	0.0149619
799.394	0.0149049
799.472	0.0150035
799.550	0.0150359
799.628	0.0148487
799.706	0.0148969
799.784	0.0151005
799.862	0.0149625
799.941	0.0148750
800.019	0.0148347
800.097	0.0149260
800.175	0.0150825
800.253	0.0149937
800.331	0.0149503
800.409	0.0149284
800.487	0.0149097
800.566	0.0149188
800.644	0.0148421
800.722	0.0147944
800.800	0.0149869
800.878	0.0151507
800.956	0.0150175
801.034	0.0149017
801.112	0.0150375
801.191	0.0149424
801.269	0.0149989
801.347	0.0148893
801.425	0.0147623
801.503	0.0148445
801.581	0.0149235
801.659	0.0148772
801.737	0.0150054
801.816	0.0149322
801.894	0.0148201
801.972	0.0148915
802.050	0.0149233
802.128	0.0148833
802.206	0.0148828
802.284	0.0150480
802.362	0.0150174
802.441	0.0149152
802.519	0.0148599
802.597	0.0149070
802.675	0.0147301
802.753	0.0148880
802.831	0.0149247
802.909	0.0148623
802.987	0.0148347
803.066	0.0148814
803.144	0.0147961
803.222	0.0149561
803.300	0.0149253
803.378	0.0148904
803.456	0.0149468
803.534	0.0148118
803.612	0.0148826
803.691	0.0149886
803.769	0.0150140
803.847	0.0147913
803.925	0.0147865
804.003	0.0148375
804.081	0.0149621
804.159	0.0148826
804.237	0.0147831
804.316	0.0148569
804.394	0.0150103
804.472	0.0149545
804.550	0.0149778
804.628	0.0148183
804.706	0.0147552
804.784	0.0149030
804.862	0.0149081
804.941	0.0148769
805.019	0.0148843
805.097	0.0148717
805.175	0.0147680
805.253	0.0147024
805.331	0.0148252
805.409	0.0147946
805.487	0.0148231
805.566	0.0149273
805.644	0.0148313
805.722	0.0147634
805.800	0.0148249
805.878	0.0148389
805.956	0.0148477
806.034	0.0149314
806.112	0.0148463
806.191	0.0148820
806.269	0.0149644
806.347	0.0148373
806.425	0.0148817
806.503	0.0149239
806.581	0.0149084
806.659	0.0149046
806.737	0.0148467
806.816	0.0148593
806.894	0.0149467
806.972	0.0148707
807.050	0.0149294
807.128	0.0150127
807.206	0.0149374
807.284	0.0149524
807.362	0.0149199
807.441	0.0147790
807.519	0.0149261
807.597	0.0148756
807.675	0.0148768
807.753	0.0149178
807.831	0.0150296
807.909	0.0150345
807.987	0.0148421
808.066	0.0149514
808.144	0.0148960
808.222	0.0148310
808.300	0.0148569
808.378	0.0147631
808.456	0.0148753
808.534	0.0148338
808.612	0.0151302
808.691	0.0149477
808.769	0.0150033
808.847	0.0150935
808.925	0.0147558
809.003	0.0149327
809.081	0.0150438
809.159	0.0149694
809.237	0.0148638
809.316	0.0150305
809.394	0.0150103
809.472	0.0150278
809.550	0.0150336
809.628	0.0150423
809.706	0.0149403
809.784	0.0147691
809.862	0.0150172
809.941	0.0149909
810.019	0.0148695
810.097	0.0149190
810.175	0.0149260
810.253	0.0149414
810.331	0.0149300
810.409	0.0148961
810.487	0.0149996
810.566	0.0148565
810.644	0.0148911
810.722	0.0149000
810.800	0.0149343
810.878	0.0148087
810.956	0.0149155
811.034	0.0149467
811.112	0.0149770
811.191	0.0149922
811.269	0.0148801
811.347	0.0149515
811.425	0.0147846
811.503	0.0148918
811.581	0.0149642
811.659	0.0148751
811.737	0.0150172
811.816	0.0149990
811.894	0.0149347
811.972	0.0148661
812.050	0.0148933
812.128	0.0150607
812.206	0.0149924
812.284	0.0148425
812.362	0.0149126
812.441	0.0148749
812.519	0.0149249
812.597	0.0148792
812.675	0.0148727
812.753	0.0150318
812.831	0.0150701
812.909	0.0150261
812.987	0.0149931
813.066	0.0150111
813.144	0.0148615
813.222	0.0149513
813.300	0.0150122
813.378	0.0149497
813.456	0.0150891
813.534	0.0149660
813.612	0.0148811
813.691	0.0148953
813.769	0.0150220
813.847	0.0149487
813.925	0.0150745
814.003	0.0149568
814.081	0.0149039
814.159	0.0148856
814.237	0.0150018
814.316	0.0149358
814.394	0.0150499
814.472	0.0148952
814.550	0.0147950
814.628	0.0150021
814.706	0.0150261
814.784	0.0149016
814.862	0.0150464
814.941	0.0151486
815.019	0.0149548
815.097	0.0149860
815.175	0.0148962
815.253	0.0150464
815.331	0.0149788
815.409	0.0149615
815.487	0.0149129
815.566	0.0149886
815.644	0.0149919
815.722	0.0150309
815.800	0.0149783
815.878	0.0150840
815.956	0.0149925
816.034	0.0149472
816.112	0.0150169
816.191	0.0150188
816.269	0.0149263
816.347	0.0150089
816.425	0.0150063
816.503	0.0150555
816.581	0.0151668
816.659	0.0148609
816.737	0.0150580
816.816	0.0148463
816.894	0.0149527
816.972	0.0150098
817.050	0.0152192
817.128	0.0149547
817.206	0.0148839
817.284	0.0149998
817.362	0.0150014
817.441	0.0150202
817.519	0.0149445
817.597	0.0149744
817.675	0.0149018
817.753	0.0148945
817.831	0.0149100
817.909	0.0148100
817.987	0.0148808
818.066	0.0149940
818.144	0.0149023
818.222	0.0149656
818.300	0.0149275
818.378	0.0149879
818.456	0.0150079
818.534	0.0149174
818.612	0.0149565
818.691	0.0148991
818.769	0.0148779
818.847	0.0148666
818.925	0.0148910
819.003	0.0149641
819.081	0.0149354
819.159	0.0149016
819.237	0.0148652
819.316	0.0150108
819.394	0.0148382
819.472	0.0148785
819.550	0.0149498
819.628	0.0147682
819.706	0.0149202
819.784	0.0149100
819.862	0.0150108
819.941	0.0149612
820.019	0.0150035
820.097	0.0149882
820.175	0.0148559
820.253	0.0149884
820.331	0.0150630
820.409	0.0148672
820.487	0.0150120
820.566	0.0149001
820.644	0.0149311
820.722	0.0149107
820.800	0.0147822
820.878	0.0150305
820.956	0.0150486
821.034	0.0149172
821.112	0.0148919
821.191	0.0150344
821.269	0.0148797
821.347	0.0149546
821.425	0.0149778
821.503	0.0148257
821.581	0.0149360
821.659	0.0148649
821.737	0.0148402
821.816	0.0149148
821.894	0.0148286
821.972	0.0147840
822.050	0.0149152
822.128	0.0148659
822.206	0.0149007
822.284	0.0148682
822.362	0.0148843
822.441	0.0148827
822.519	0.0150109
822.597	0.0148840
822.675	0.0148607
822.753	0.0148665
822.831	0.0149357
822.909	0.0149097
822.987	0.0148311
823.066	0.0148880
823.144	0.0147176
823.222	0.0147644
823.300	0.0148951
823.378	0.0149142
823.456	0.0150374
823.534	0.0148424
823.612	0.0148460
823.691	0.0147666
823.769	0.0147540
823.847	0.0148369
823.925	0.0149114
824.003	0.0148235
824.081	0.0149117
824.159	0.0148027
824.237	0.0147430
824.316	0.0148732
824.394	0.0148724
824.472	0.0148220
824.550	0.0148780
824.628	0.0148973
824.706	0.0148507
824.784	0.0147841
824.862	0.0148539
824.941	0.0148532
825.019	0.0148367
825.097	0.0147787
825.175	0.0149034
825.253	0.0149181
825.331	0.0147285
825.409	0.0147729
825.487	0.0148236
825.566	0.0149113
825.644	0.0148619
825.722	0.0147327
825.800	0.0147122
825.878	0.0148856
825.956	0.0148677
826.034	0.0148879
826.112	0.0149495
826.191	0.0148792
826.269	0.0149310
826.347	0.0149433
826.425	0.0150616
826.503	0.0149830
826.581	0.0149240
826.659	0.0149263
826.737	0.0149791
826.816	0.0149483
826.894	0.0148280
826.972	0.0149686
827.050	0.0151667
827.128	0.0151397
827.206	0.0149556
827.284	0.0149458
827.362	0.0149404
827.441	0.0149337
827.519	0.0149091
827.597	0.0149608
827.675	0.0149854
827.753	0.0149638
827.831	0.0150022
827.909	0.0148812
827.987	0.0148061
828.066	0.0150064
828.144	0.0149741
828.222	0.0148698
828.300	0.0149268
828.378	0.0149137
828.456	0.0149095
828.534	0.0148045
828.612	0.0147735
828.691	0.0148433
828.769	0.0149061
828.847	0.0149390
828.925	0.0149792
829.003	0.0148286
829.081	0.0149293
829.159	0.0148553
829.237	0.0150568
829.316	0.0147292
829.394	0.0148463
829.472	0.0149013
829.550	0.0148631
829.628	0.0147765
829.706	0.0148100
829.784	0.0148591
829.862	0.0149306
829.941	0.0149680
830.019	0.0150159
830.097	0.0149389
830.175	0.0149635
830.253	0.0147567
830.331	0.0149059
830.409	0.0148975
830.487	0.0149519
830.566	0.0149855
830.644	0.0149820
830.722	0.0150532
830.800	0.0149776
830.878	0.0150796
830.956	0.0148586
831.034	0.0148706
831.112	0.0150896
831.191	0.0148738
831.269	0.0148127
831.347	0.0148576
831.425	0.0149427
831.503	0.0149087
831.581	0.0148438
831.659	0.0148440
831.737	0.0150632
831.816	0.0150924
831.894	0.0148837
831.972	0.0148331
832.050	0.0149009
832.128	0.0149417
832.206	0.0150045
832.284	0.0150108
832.362	0.0149158
832.441	0.0148611
832.519	0.0149671
832.597	0.0149101
832.675	0.0148297
832.753	0.0147985
832.831	0.0149178
832.909	0.0149508
832.987	0.0149659
833.066	0.0148465
833.144	0.0147973
833.222	0.0148943
833.300	0.0149912
833.378	0.0148581
833.456	0.0149320
833.534	0.0148424
833.612	0.0147950
833.691	0.0149747
833.769	0.0148709
833.847	0.0147308
833.925	0.0148927
834.003	0.0149725
834.081	0.0148569
834.159	0.0148138
834.237	0.0147163
834.316	0.0149046
834.394	0.0147776
834.472	0.0148899
834.550	0.0148326
834.628	0.0148644
834.706	0.0148598
834.784	0.0147868
834.862	0.0146861
834.941	0.0149231
835.019	0.0148058
835.097	0.0149400
835.175	0.0148191
835.253	0.0149710
835.331	0.0149306
835.409	0.0149921
835.487	0.0149158
835.566	0.0148372
835.644	0.0149765
835.722	0.0148945
835.800	0.0147453
835.878	0.0149363
835.956	0.0150592
836.034	0.0149362
836.112	0.0148545
836.191	0.0150150
836.269	0.0149604
836.347	0.0149017
836.425	0.0149951
836.503	0.0149676
836.581	0.0149358
836.659	0.0148869
836.737	0.0149921
836.816	0.0150067
836.894	0.0149201
836.972	0.0149332
837.050	0.0150355
837.128	0.0149191
837.206	0.0150195
837.284	0.0151392
837.362	0.0149654
837.441	0.0149664
837.519	0.0149591
837.597	0.0149768
837.675	0.0149407
837.753	0.0150787
837.831	0.0150150
837.909	0.0150205
837.987	0.0150414
838.066	0.0150547
838.144	0.0148871
838.222	0.0150092
838.300	0.0149926
838.378	0.0149380
838.456	0.0149205
838.534	0.0149401
838.612	0.0148713
838.691	0.0150066
838.769	0.0150401
838.847	0.0150301
838.925	0.0150568
839.003	0.0150521
839.081	0.0149074
839.159	0.0149775
839.237	0.0149344
839.316	0.0147966
839.394	0.0149013
839.472	0.0151954
839.550	0.0150004
839.628	0.0149162
839.706	0.0148892
839.784	0.0149393
839.862	0.0150667
839.941	0.0149749
840.019	0.0151046
840.097	0.0149702
840.175	0.0149187
840.253	0.0149654
840.331	0.0149789
840.409	0.0149345
840.487	0.0150098
840.566	0.0148996
840.644	0.0148637
840.722	0.0149561
840.800	0.0149758
840.878	0.0149129
840.956	0.0149482
841.034	0.0149273
841.112	0.0148457
841.191	0.0149743
841.269	0.0149650
841.347	0.0149033
841.425	0.0148584
841.503	0.0149591
841.581	0.0149448
841.659	0.0149435
841.737	0.0149792
841.816	0.0149756
841.894	0.0149431
841.972	0.0148983
842.050	0.0148817
842.128	0.0149693
842.206	0.0149665
842.284	0.0148610
842.362	0.0148062
842.441	0.0148811
842.519	0.0149252
842.597	0.0149759
842.675	0.0148645
842.753	0.0148339
842.831	0.0148722
842.909	0.0147989
842.987	0.0148902
843.066	0.0148789
843.144	0.0148993
843.222	0.0148490
843.300	0.0149507
843.378	0.0149104
843.456	0.0150391
843.534	0.0148569
843.612	0.0148367
843.691	0.0149191
843.769	0.0149269
843.847	0.0149105
843.925	0.0149083
844.003	0.0150472
844.081	0.0150887
844.159	0.0148476
844.237	0.0149409
844.316	0.0149622
844.394	0.0150433
844.472	0.0150031
844.550	0.0150336
844.628	0.0150220
844.706	0.0147865
844.784	0.0149423
844.862	0.0150664
844.941	0.0148707
845.019	0.0149163
845.097	0.0148775
845.175	0.0150248
845.253	0.0149735
845.331	0.0148609
845.409	0.0148544
845.487	0.0150220
845.566	0.0149222
845.644	0.0148436
845.722	0.0148388
845.800	0.0148670
845.878	0.0147887
845.956	0.0148892
846.034	0.0149795
846.112	0.0148143
846.191	0.0148850
846.269	0.0148357
846.347	0.0148407
846.425	0.0149651
846.503	0.0148137
846.581	0.0149250
846.659	0.0147985
846.737	0.0147371
846.816	0.0148207
846.894	0.0148419
846.972	0.0147962
847.050	0.0148098
847.128	0.0147701
847.206	0.0148705
847.284	0.0150179
847.362	0.0149119
847.441	0.0149358
847.519	0.0148847
847.597	0.0150410
847.675	0.0149638
847.753	0.0148283
847.831	0.0149245
847.909	0.0148664
847.987	0.0149249
848.066	0.0148635
848.144	0.0149022
848.222	0.0148801
848.300	0.0148723
848.378	0.0148250
848.456	0.0149261
848.534	0.0148858
848.612	0.0149165
848.691	0.0149707
848.769	0.0150735
848.847	0.0149970
848.925	0.0148743
849.003	0.0148476
849.081	0.0148422
849.159	0.0149229
849.237	0.0148450
849.316	0.0148177
849.394	0.0150394
849.472	0.0149694
849.550	0.0150040
849.628	0.0149136
849.706	0.0149754
849.784	0.0150979
849.862	0.0150658
849.941	0.0149471
850.019	0.0150596
850.097	0.0150380
850.175	0.0148981
850.253	0.0150115
850.331	0.0150529
850.409	0.0148535
850.487	0.0149704
850.566	0.0149883
850.644	0.0149667
850.722	0.0148619
850.800	0.0148699
850.878	0.0149236
850.956	0.0147845
851.034	0.0148481
851.112	0.0150166
851.191	0.0147730
851.269	0.0149100
851.347	0.0150061
851.425	0.0148861
851.503	0.0150198
851.581	0.0149031
851.659	0.0149288
851.737	0.0150134
851.816	0.0148315
851.894	0.0147722
851.972	0.0149671
852.050	0.0148928
852.128	0.0149207
852.206	0.0148190
852.284	0.0149284
852.362	0.0149722
852.441	0.0150446
852.519	0.0148463
852.597	0.0148470
852.675	0.0150124
852.753	0.0148691
852.831	0.0148167
852.909	0.0148824
852.987	0.0148712
853.066	0.0149640
853.144	0.0148493
853.222	0.0149281
853.300	0.0149427
853.378	0.0149529
853.456	0.0147708
853.534	0.0149279
853.612	0.0149065
853.691	0.0148686
853.769	0.0148183
853.847	0.0149567
853.925	0.0149043
854.003	0.0148579
854.081	0.0149983
854.159	0.0149989
854.237	0.0148752
854.316	0.0148558
854.394	0.0149719
854.472	0.0150468
854.550	0.0148358
854.628	0.0150359
854.706	0.0150298
854.784	0.0149285
854.862	0.0149751
854.941	0.0149836
855.019	0.0149466
855.097	0.0149199
855.175	0.0148780
855.253	0.0149041
855.331	0.0148174
855.409	0.0149422
855.487	0.0149505
855.566	0.0148733
855.644	0.0149297
855.722	0.0148744
855.800	0.0148284
855.878	0.0148434
855.956	0.0150310
856.034	0.0149567
856.112	0.0148119
856.191	0.0148962
856.269	0.0149400
856.347	0.0149039
856.425	0.0149260
856.503	0.0148446
856.581	0.0149544
856.659	0.0148825
856.737	0.0149252
856.816	0.0149787
856.894	0.0149050
856.972	0.0149847
857.050	0.0149026
857.128	0.0148833
857.206	0.0150622
857.284	0.0149691
857.362	0.0148282
857.441	0.0148645
857.519	0.0148905
857.597	0.0148543
857.675	0.0150340
857.753	0.0149222
857.831	0.0148813
857.909	0.0148384
857.987	0.0148617
858.066	0.0150053
858.144	0.0149977
858.222	0.0149577
858.300	0.0148804
858.378	0.0148259
858.456	0.0148925
858.534	0.0150053
858.612	0.0149319
858.691	0.0149615
858.769	0.0149054
858.847	0.0148891
858.925	0.0148972
859.003	0.0148515
859.081	0.0150206
859.159	0.0150186
859.237	0.0150009
859.316	0.0149776
859.394	0.0150694
859.472	0.0149269
859.550	0.0149369
859.628	0.0150088
859.706	0.0149956
859.784	0.0148576
859.862	0.0149586
859.941	0.0148927
860.019	0.0150082
860.097	0.0150284
860.175	0.0149653
860.253	0.0149375
860.331	0.0149982
860.409	0.0149524
860.487	0.0148907
860.566	0.0149403
860.644	0.0148243
860.722	0.0148331
860.800	0.0149284
860.878	0.0150018
860.956	0.0149915
861.034	0.0149034
861.112	0.0150079
861.191	0.0149771
861.269	0.0150628
861.347	0.0149963
861.425	0.0148678
861.503	0.0148901
861.581	0.0150305
861.659	0.0150124
861.737	0.0149245
861.816	0.0151160
861.894	0.0149557
861.972	0.0149059
862.050	0.0150613
862.128	0.0149175
862.206	0.0148166
862.284	0.0149370
862.362	0.0149219
862.441	0.0148695
862.519	0.0148785
862.597	0.0150212
862.675	0.0150372
862.753	0.0150314
862.831	0.0148661
862.909	0.0149889
862.987	0.0148888
863.066	0.0148405
863.144	0.0149516
863.222	0.0148993
863.300	0.0150402
863.378	0.0151115
863.456	0.0148524
863.534	0.0150583
863.612	0.0149260
863.691	0.0149415
863.769	0.0150065
863.847	0.0150231
863.925	0.0149174
864.003	0.0149369
864.081	0.0149503
864.159	0.0151286
864.237	0.0149512
864.316	0.0150832
864.394	0.0148702
864.472	0.0148501
864.550	0.0150182
864.628	0.0149763
864.706	0.0149670
864.784	0.0149679
864.862	0.0148579
864.941	0.0150545
865.019	0.0149221
865.097	0.0149738
865.175	0.0150037
865.253	0.0149655
865.331	0.0148063
865.409	0.0148186
865.487	0.0149461
865.566	0.0149870
865.644	0.0149619
865.722	0.0149619
865.800	0.0149500
865.878	0.0149506
865.956	0.0150298
866.034	0.0148593
866.112	0.0150139
866.191	0.0149541
866.269	0.0150114
866.347	0.0148695
866.425	0.0149825
866.503	0.0149412
866.581	0.0148480
866.659	0.0149159
866.737	0.0150517
866.816	0.0149942
866.894	0.0149251
866.972	0.0148343
867.050	0.0148756
867.128	0.0149878
867.206	0.0149409
867.284	0.0149893
867.362	0.0149357
867.441	0.0150095
867.519	0.0149705
867.597	0.0148563
867.675	0.0149577
867.753	0.0149234
867.831	0.0149382
867.909	0.0148429
867.987	0.0147327
868.066	0.0149083
868.144	0.0150060
868.222	0.0149301
868.300	0.0150870
868.378	0.0149334
868.456	0.0148260
868.534	0.0150458
868.612	0.0148755
868.691	0.0149381
868.769	0.0147790
868.847	0.0149377
868.925	0.0149541
869.003	0.0149085
869.081	0.0149886
869.159	0.0149821
869.237	0.0149052
869.316	0.0148569
869.394	0.0148022
869.472	0.0148367
869.550	0.0148547
869.628	0.0148477
869.706	0.0148551
869.784	0.0148785
869.862	0.0148736
869.941	0.0150189
870.019	0.0149342
870.097	0.0148961
870.175	0.0150217
870.253	0.0150055
870.331	0.0149281
870.409	0.0149411
870.487	0.0150104
870.566	0.0148301
870.644	0.0148592
870.722	0.0148364
870.800	0.0148492
870.878	0.0149143
870.956	0.0148453
871.034	0.0150046
871.112	0.0149882
871.191	0.0148510
871.269	0.0148447
871.347	0.0148546
871.425	0.0148698
871.503	0.0148454
871.581	0.0148659
871.659	0.0148277
871.737	0.0149749
871.816	0.0149399
871.894	0.0148740
871.972	0.0148624
872.050	0.0147689
872.128	0.0148891
872.206	0.0148772
872.284	0.0148730
872.362	0.0147997
872.441	0.0147940
872.519	0.0151158
872.597	0.0149435
872.675	0.0148940
872.753	0.0149354
872.831	0.0148690
872.909	0.0148663
872.987	0.0147963
873.066	0.0148898
873.144	0.0148559
873.222	0.0148317
873.300	0.0148570
873.378	0.0148309
873.456	0.0148748
873.534	0.0149432
873.612	0.0149452
873.691	0.0149611
873.769	0.0149375
873.847	0.0149183
873.925	0.0148669
874.003	0.0148377
874.081	0.0148739
874.159	0.0148252
874.237	0.0147815
874.316	0.0149483
874.394	0.0150522
874.472	0.0149804
874.550	0.0148603
874.628	0.0149168
874.706	0.0148706
874.784	0.0150626
874.862	0.0149010
874.941	0.0149097
875.019	0.0149684
875.097	0.0149336
875.175	0.0149266
875.253	0.0149030
875.331	0.0149519
875.409	0.0149758
875.487	0.0150401
875.566	0.0147843
875.644	0.0148730
875.722	0.0149877
875.800	0.0149689
875.878	0.0147318
875.956	0.0148927
876.034	0.0150156
876.112	0.0148241
876.191	0.0148833
876.269	0.0148710
876.347	0.0150171
876.425	0.0148048
876.503	0.0148833
876.581	0.0150819
876.659	0.0149999
876.737	0.0149487
876.816	0.0150547
876.894	0.0148845
876.972	0.0149448
877.050	0.0149503
877.128	0.0150108
877.206	0.0149476
877.284	0.0148849
877.362	0.0150188
877.441	0.0150392
877.519	0.0148946
877.597	0.0150329
877.675	0.0148449
877.753	0.0150372
877.831	0.0150260
877.909	0.0149748
877.987	0.0149277
878.066	0.0149432
878.144	0.0149773
878.222	0.0148987
878.300	0.0149780
878.378	0.0148267
878.456	0.0148159
878.534	0.0148772
878.612	0.0148407
878.691	0.0148685
878.769	0.0149197
878.847	0.0148576
878.925	0.0150446
879.003	0.0148865
879.081	0.0148360
879.159	0.0151351
879.237	0.0150014
879.316	0.0148370
879.394	0.0150597
879.472	0.0151006
879.550	0.0149237
879.628	0.0149074
879.706	0.0150510
879.784	0.0149905
879.862	0.0149604
879.941	0.0150109
880.019	0.0148872
880.097	0.0149184
880.175	0.0149695
880.253	0.0151591
880.331	0.0149606
880.409	0.0150607
880.487	0.0149934
880.566	0.0150098
880.644	0.0149478
880.722	0.0150497
880.800	0.0150552
880.878	0.0149227
880.956	0.0149802
881.034	0.0149439
881.112	0.0148964
881.191	0.0149544
881.269	0.0149511
881.347	0.0149738
881.425	0.0150095
881.503	0.0150980
881.581	0.0148895
881.659	0.0150201
881.737	0.0149741
881.816	0.0149099
881.894	0.0148752
881.972	0.0149827
882.050	0.0149105
882.128	0.0150817
882.206	0.0148854
882.284	0.0147195
882.362	0.0148480
882.441	0.0150309
882.519	0.0150056
882.597	0.0148386
882.675	0.0148855
882.753	0.0149120
882.831	0.0150441
882.909	0.0149510
882.987	0.0148342
883.066	0.0149507
883.144	0.0149677
883.222	0.0148212
883.300	0.0151241
883.378	0.0150094
883.456	0.0148685
883.534	0.0149786
883.612	0.0149306
883.691	0.0149453
883.769	0.0149097
883.847	0.0149152
883.925	0.0149017
884.003	0.0149601
884.081	0.0148808
884.159	0.0149773
884.237	0.0149602
884.316	0.0150525
884.394	0.0151774
884.472	0.0150675
884.550	0.0151092
884.628	0.0149240
884.706	0.0150971
884.784	0.0148710
884.862	0.0151707
884.941	0.0150249
885.019	0.0149112
885.097	0.0151376
885.175	0.0150965
885.253	0.0150051
885.331	0.0150060
885.409	0.0150227
885.487	0.0149633
885.566	0.0149074
885.644	0.0147698
885.722	0.0150305
885.800	0.0150087
885.878	0.0148301
885.956	0.0149879
886.034	0.0149270
886.112	0.0147279
886.191	0.0149999
886.269	0.0150288
886.347	0.0149867
886.425	0.0150198
886.503	0.0149198
886.581	0.0148716
886.659	0.0149386
886.737	0.0147985
886.816	0.0150155
886.894	0.0150066
886.972	0.0149352
887.050	0.0149446
887.128	0.0148882
887.206	0.0149964
887.284	0.0148045
887.362	0.0149113
887.441	0.0147747
887.519	0.0149120
887.597	0.0150890
887.675	0.0148517
887.753	0.0148754
887.831	0.0149896
887.909	0.0150018
887.987	0.0148864
888.066	0.0149445
888.144	0.0150301
888.222	0.0149442
888.300	0.0150214
888.378	0.0148424
888.456	0.0149541
888.534	0.0149370
888.612	0.0150437
888.691	0.0149367
888.769	0.0148927
888.847	0.0150021
888.925	0.0150214
889.003	0.0149458
889.081	0.0148705
889.159	0.0151226
889.237	0.0150474
889.316	0.0149739
889.394	0.0150838
889.472	0.0150763
889.550	0.0148794
889.628	0.0149336
889.706	0.0150751
889.784	0.0149943
889.862	0.0149976
889.941	0.0149119
890.019	0.0149749
890.097	0.0150243
890.175	0.0149868
890.253	0.0149708
890.331	0.0149245
890.409	0.0148845
890.487	0.0150391
890.566	0.0149660
890.644	0.0150441
890.722	0.0149449
890.800	0.0149992
890.878	0.0149785
890.956	0.0147661
891.034	0.0149026
891.112	0.0150979
891.191	0.0149818
891.269	0.0150143
891.347	0.0148817
891.425	0.0149557
891.503	0.0149660
891.581	0.0149097
891.659	0.0148764
891.737	0.0148321
891.816	0.0148700
891.894	0.0150130
891.972	0.0148853
892.050	0.0149624
892.128	0.0149276
892.206	0.0149450
892.284	0.0148592
892.362	0.0150009
892.441	0.0149413
892.519	0.0150169
892.597	0.0150230
892.675	0.0147906
892.753	0.0149475
892.831	0.0149023
892.909	0.0149699
892.987	0.0150312
893.066	0.0149293
893.144	0.0148625
893.222	0.0149429
893.300	0.0150697
893.378	0.0149258
893.456	0.0149082
893.534	0.0150031
893.612	0.0147933
893.691	0.0150262
893.769	0.0150342
893.847	0.0148225
893.925	0.0150268
894.003	0.0148638
894.081	0.0148670
894.159	0.0150089
894.237	0.0149870
894.316	0.0149300
894.394	0.0148834
894.472	0.0149237
894.550	0.0149644
894.628	0.0150307
894.706	0.0149224
894.784	0.0148889
894.862	0.0148659
894.941	0.0149850
895.019	0.0148782
895.097	0.0149133
895.175	0.0149873
895.253	0.0149928
895.331	0.0150502
895.409	0.0148429
895.487	0.0148801
895.566	0.0149668
895.644	0.0148875
895.722	0.0148476
895.800	0.0150224
895.878	0.0148635
895.956	0.0148981
896.034	0.0148447
896.112	0.0149934
896.191	0.0149404
896.269	0.0149122
896.347	0.0148839
896.425	0.0149989
896.503	0.0148901
896.581	0.0149228
896.659	0.0148769
896.737	0.0147861
896.816	0.0149619
896.894	0.0149079
896.972	0.0149641
897.050	0.0149354
897.128	0.0148811
897.206	0.0149081
897.284	0.0150035
897.362	0.0148183
897.441	0.0148965
897.519	0.0147527
897.597	0.0147930
897.675	0.0148782
897.753	0.0150391
897.831	0.0148338
897.909	0.0149661
897.987	0.0148800
898.066	0.0148307
898.144	0.0148917
898.222	0.0149070
898.300	0.0149944
898.378	0.0148137
898.456	0.0149350
898.534	0.0148619
898.612	0.0150428
898.691	0.0149873
898.769	0.0148681
898.847	0.0148496
898.925	0.0148317
899.003	0.0149886
899.081	0.0148180
899.159	0.0149339
899.237	0.0149963
899.316	0.0149978
899.394	0.0149962
899.472	0.0147704
899.550	0.0148260
899.628	0.0150350
899.706	0.0149419
899.784	0.0147982
899.862	0.0148819
899.941	0.0149109
900.019	0.0149316
900.097	0.0149883
900.175	0.0148515
900.253	0.0149616
900.331	0.0149975
900.409	0.0147642
900.487	0.0148349
900.566	0.0149744
900.644	0.0149377
900.722	0.0148667
900.800	0.0148154
900.878	0.0149202
900.956	0.0149223
901.034	0.0148599
901.112	0.0148907
901.191	0.0148936
901.269	0.0147917
901.347	0.0148571
901.425	0.0149983
901.503	0.0148714
901.581	0.0147809
901.659	0.0149297
901.737	0.0149102
901.816	0.0148148
901.894	0.0149322
901.972	0.0149307
902.050	0.0149995
902.128	0.0148632
902.206	0.0148322
902.284	0.0149426
902.362	0.0148341
902.441	0.0147939
902.519	0.0149151
902.597	0.0148933
902.675	0.0149271
902.753	0.0148663
902.831	0.0149847
902.909	0.0149181
902.987	0.0147288
903.066	0.0148772
903.144	0.0149373
903.222	0.0148193
903.300	0.0149419
903.378	0.0150005
903.456	0.0149549
903.534	0.0149287
903.612	0.0149472
903.691	0.0150668
903.769	0.0149395
903.847	0.0148718
903.925	0.0148441
904.003	0.0149298
904.081	0.0149392
904.159	0.0149562
904.237	0.0148606
904.316	0.0148761
904.394	0.0148997
904.472	0.0150064
904.550	0.0148512
904.628	0.0148560
904.706	0.0149030
904.784	0.0150496
904.862	0.0149734
904.941	0.0149599
905.019	0.0149023
905.097	0.0148167
905.175	0.0147745
905.253	0.0150949
905.331	0.0149947
905.409	0.0149284
905.487	0.0149864
905.566	0.0149607
905.644	0.0149994
905.722	0.0148934
905.800	0.0148672
905.878	0.0149571
905.956	0.0149404
906.034	0.0149692
906.112	0.0149326
906.191	0.0150259
906.269	0.0150116
906.347	0.0149299
906.425	0.0150322
906.503	0.0149432
906.581	0.0148972
906.659	0.0148888
906.737	0.0148341
906.816	0.0149969
906.894	0.0149232
906.972	0.0149799
907.050	0.0150726
907.128	0.0148412
907.206	0.0148898
907.284	0.0149892
907.362	0.0150219
907.441	0.0149751
907.519	0.0150061
907.597	0.0149473
907.675	0.0149963
907.753	0.0149494
907.831	0.0151250
907.909	0.0149683
907.987	0.0149603
908.066	0.0149459
908.144	0.0149494
908.222	0.0150320
908.300	0.0148708
908.378	0.0149088
908.456	0.0149660
908.534	0.0149171
908.612	0.0149738
908.691	0.0148948
908.769	0.0149429
908.847	0.0149406
908.925	0.0150511
909.003	0.0148253
909.081	0.0149376
909.159	0.0148928
909.237	0.0149907
909.316	0.0148523
909.394	0.0149009
909.472	0.0149026
909.550	0.0149628
909.628	0.0148912
909.706	0.0149704
909.784	0.0149702
909.862	0.0149366
909.941	0.0149268
910.019	0.0151900
910.097	0.0149509
910.175	0.0148907
910.253	0.0149161
910.331	0.0149098
910.409	0.0149937
910.487	0.0150133
910.566	0.0150176
910.644	0.0150741
910.722	0.0150048
910.800	0.0149652
910.878	0.0149727
910.956	0.0150919
911.034	0.0150024
911.112	0.0149947
911.191	0.0150067
911.269	0.0149880
911.347	0.0150421
911.425	0.0148444
911.503	0.0148502
911.581	0.0148962
911.659	0.0150554
911.737	0.0150687
911.816	0.0150391
911.894	0.0148223
911.972	0.0150031
912.050	0.0149413
912.128	0.0149689
912.206	0.0148475
912.284	0.0149505
912.362	0.0149055
912.441	0.0147729
912.519	0.0148595
912.597	0.0149080
912.675	0.0148779
912.753	0.0149615
912.831	0.0148350
912.909	0.0149397
912.987	0.0149422
913.066	0.0148927
913.144	0.0149258
913.222	0.0149802
913.300	0.0148565
913.378	0.0149649
913.456	0.0150827
913.534	0.0150275
913.612	0.0149741
913.691	0.0149058
913.769	0.0148468
913.847	0.0149317
913.925	0.0148920
914.003	0.0148701
914.081	0.0148623
914.159	0.0147866
914.237	0.0148309
914.316	0.0149783
914.394	0.0148773
914.472	0.0150097
914.550	0.0148439
914.628	0.0148638
914.706	0.0150206
914.784	0.0149693
914.862	0.0149551
914.941	0.0148702
915.019	0.0148304
915.097	0.0151144
915.175	0.0149690
915.253	0.0149747
915.331	0.0151151
915.409	0.0150146
915.487	0.0149852
915.566	0.0149778
915.644	0.0148220
915.722	0.0149647
915.800	0.0149773
915.878	0.0149702
915.956	0.0149728
916.034	0.0149071
916.112	0.0148930
916.191	0.0148681
916.269	0.0150501
916.347	0.0149972
916.425	0.0149228
916.503	0.0148866
916.581	0.0149069
916.659	0.0149920
916.737	0.0149300
916.816	0.0148354
916.894	0.0148536
916.972	0.0149154
917.050	0.0148095
917.128	0.0148493
917.206	0.0147646
917.284	0.0148782
917.362	0.0149979
917.441	0.0149285
917.519	0.0148309
917.597	0.0148012
917.675	0.0148371
917.753	0.0149360
917.831	0.0151125
917.909	0.0148816
917.987	0.0148401
918.066	0.0148956
918.144	0.0147578
918.222	0.0149455
918.300	0.0149286
918.378	0.0148315
918.456	0.0148521
918.534	0.0149941
918.612	0.0149020
918.691	0.0147211
918.769	0.0148692
918.847	0.0148379
918.925	0.0149722
919.003	0.0149555
919.081	0.0149185
919.159	0.0149438
919.237	0.0148753
919.316	0.0149548
919.394	0.0151083
919.472	0.0149196
919.550	0.0149620
919.628	0.0149809
919.706	0.0148273
919.784	0.0149768
919.862	0.0148799
919.941	0.0147445
920.019	0.0148706
920.097	0.0150211
920.175	0.0149391
920.253	0.0148335
920.331	0.0148353
920.409	0.0148581
920.487	0.0148953
920.566	0.0148839
920.644	0.0148949
920.722	0.0149519
920.800	0.0148935
920.878	0.0149147
920.956	0.0149493
921.034	0.0149242
921.112	0.0149330
921.191	0.0147915
921.269	0.0148761
921.347	0.0150559
921.425	0.0148813
921.503	0.0148782
921.581	0.0148920
921.659	0.0148864
921.737	0.0147982
921.816	0.0148188
921.894	0.0149407
921.972	0.0148885
922.050	0.0149539
922.128	0.0148762
922.206	0.0148668
922.284	0.0148141
922.362	0.0147829
922.441	0.0148174
922.519	0.0149475
922.597	0.0148849
922.675	0.0148460
922.753	0.0147638
922.831	0.0149770
922.909	0.0149222
922.987	0.0148239
923.066	0.0148141
923.144	0.0148707
923.222	0.0148730
923.300	0.0146761
923.378	0.0147921
923.456	0.0148434
923.534	0.0148413
923.612	0.0147671
923.691	0.0149141
923.769	0.0150115
923.847	0.0148712
923.925	0.0148634
924.003	0.0148308
924.081	0.0148294
924.159	0.0149011
924.237	0.0149774
924.316	0.0147490
924.394	0.0148292
924.472	0.0148146
924.550	0.0148714
924.628	0.0148390
924.706	0.0149515
924.784	0.0150018
924.862	0.0148314
924.941	0.0148373
925.019	0.0150562
925.097	0.0149444
925.175	0.0148183
925.253	0.0148499
925.331	0.0148872
925.409	0.0150872
925.487	0.0149749
925.566	0.0150362
925.644	0.0148515
925.722	0.0149305
925.800	0.0147444
925.878	0.0148502
925.956	0.0148657
926.034	0.0150378
926.112	0.0149271
926.191	0.0148388
926.269	0.0148662
926.347	0.0148013
926.425	0.0147864
926.503	0.0148768
926.581	0.0148659
926.659	0.0149516
926.737	0.0149671
926.816	0.0149164
926.894	0.0148860
926.972	0.0147810
927.050	0.0148934
927.128	0.0149718
927.206	0.0149413
927.284	0.0148490
927.362	0.0147666
927.441	0.0148219
927.519	0.0147913
927.597	0.0149094
927.675	0.0148183
927.753	0.0147950
927.831	0.0148232
927.909	0.0147459
927.987	0.0147691
928.066	0.0149158
928.144	0.0148621
928.222	0.0148318
928.300	0.0147949
928.378	0.0148197
928.456	0.0147693
928.534	0.0149667
928.612	0.0149986
928.691	0.0149498
928.769	0.0149590
928.847	0.0148190
928.925	0.0148061
929.003	0.0149738
929.081	0.0148972
929.159	0.0148453
929.237	0.0148167
929.316	0.0149080
929.394	0.0148340
929.472	0.0148802
929.550	0.0146997
929.628	0.0146516
929.706	0.0148957
929.784	0.0148035
929.862	0.0148166
929.941	0.0150264
930.019	0.0148147
930.097	0.0148001
930.175	0.0147293
930.253	0.0148049
930.331	0.0147173
930.409	0.0148994
930.487	0.0148960
930.566	0.0149088
930.644	0.0148653
930.722	0.0149207
930.800	0.0150243
930.878	0.0148619
930.956	0.0148670
931.034	0.0148388
931.112	0.0148989
931.191	0.0148987
931.269	0.0149272
931.347	0.0149546
931.425	0.0149429
931.503	0.0148309
931.581	0.0148022
931.659	0.0149142
931.737	0.0149205
931.816	0.0150093
931.894	0.0149873
931.972	0.0148623
932.050	0.0148521
932.128	0.0149667
932.206	0.0149649
932.284	0.0148572
932.362	0.0149205
932.441	0.0149038
932.519	0.0149796
932.597	0.0148251
932.675	0.0148007
932.753	0.0147707
932.831	0.0149386
932.909	0.0150088
932.987	0.0149149
933.066	0.0149174
933.144	0.0149177
933.222	0.0150721
933.300	0.0149421
933.378	0.0149292
933.456	0.0147955
933.534	0.0149660
933.612	0.0149717
933.691	0.0150203
933.769	0.0149555
933.847	0.0149014
933.925	0.0148449
934.003	0.0147691
934.081	0.0149214
934.159	0.0147928
934.237	0.0149078
934.316	0.0149435
934.394	0.0148823
934.472	0.0148159
934.550	0.0148277
934.628	0.0149612
934.706	0.0149031
934.784	0.0149380
934.862	0.0149174
934.941	0.0148761
935.019	0.0148459
935.097	0.0147864
935.175	0.0147869
935.253	0.0147849
935.331	0.0148907
935.409	0.0149493
935.487	0.0148286
935.566	0.0148044
935.644	0.0147894
935.722	0.0147704
935.800	0.0148525
935.878	0.0148771
935.956	0.0147704
936.034	0.0149242
936.112	0.0147895
936.191	0.0147443
936.269	0.0148201
936.347	0.0149133
936.425	0.0150761
936.503	0.0149361
936.581	0.0147962
936.659	0.0148093
936.737	0.0148649
936.816	0.0148936
936.894	0.0149225
936.972	0.0149174
937.050	0.0147298
937.128	0.0148578
937.206	0.0149069
937.284	0.0149943
937.362	0.0148190
937.441	0.0149842
937.519	0.0148069
937.597	0.0148945
937.675	0.0148595
937.753	0.0148794
937.831	0.0148445
937.909	0.0147676
937.987	0.0149109
938.066	0.0148585
938.144	0.0147531
938.222	0.0147285
938.300	0.0149025
938.378	0.0147781
938.456	0.0148148
938.534	0.0148853
938.612	0.0148483
938.691	0.0149530
938.769	0.0147805
938.847	0.0147449
938.925	0.0149358
939.003	0.0149249
939.081	0.0148885
939.159	0.0146524
939.237	0.0149435
939.316	0.0148495
939.394	0.0148686
939.472	0.0149297
939.550	0.0148412
939.628	0.0147556
939.706	0.0147471
939.784	0.0148283
939.862	0.0148709
939.941	0.0149825
940.019	0.0149557
940.097	0.0148484
940.175	0.0147868
940.253	0.0149149
940.331	0.0148474
940.409	0.0149463
940.487	0.0148544
940.566	0.0148661
940.644	0.0148746
940.722	0.0148839
940.800	0.0148655
940.878	0.0148842
940.956	0.0148830
941.034	0.0148333
941.112	0.0147321
941.191	0.0147704
941.269	0.0148862
941.347	0.0148649
941.425	0.0148720
941.503	0.0149329
941.581	0.0148067
941.659	0.0147510
941.737	0.0150140
941.816	0.0150978
941.894	0.0148611
941.972	0.0148098
942.050	0.0148892
942.128	0.0150443
942.206	0.0149059
942.284	0.0148403
942.362	0.0148685
942.441	0.0149332
942.519	0.0149047
942.597	0.0149824
942.675	0.0149038
942.753	0.0148267
942.831	0.0149133
942.909	0.0150900
942.987	0.0149135
943.066	0.0148689
943.144	0.0148498
943.222	0.0149383
943.300	0.0149575
943.378	0.0147932
943.456	0.0148144
943.534	0.0149003
943.612	0.0148605
943.691	0.0148741
943.769	0.0149597
943.847	0.0148888
943.925	0.0149080
944.003	0.0148937
944.081	0.0149469
944.159	0.0149234
944.237	0.0148887
944.316	0.0148118
944.394	0.0149342
944.472	0.0148454
944.550	0.0148663
944.628	0.0150285
944.706	0.0149243
944.784	0.0148556
944.862	0.0149004
944.941	0.0146862
945.019	0.0149404
945.097	0.0148896
945.175	0.0148599
945.253	0.0149309
945.331	0.0148911
945.409	0.0148612
945.487	0.0147116
945.566	0.0149906
945.644	0.0149233
945.722	0.0147460
945.800	0.0148735
945.878	0.0148090
945.956	0.0149342
946.034	0.0148721
946.112	0.0148473
946.191	0.0146485
946.269	0.0148782
946.347	0.0148982
946.425	0.0147640
946.503	0.0147662
946.581	0.0147817
946.659	0.0148872
946.737	0.0147718
946.816	0.0148014
946.894	0.0148303
946.972	0.0147382
947.050	0.0148338
947.128	0.0150344
947.206	0.0149883
947.284	0.0148989
947.362	0.0149216
947.441	0.0147626
947.519	0.0148680
947.597	0.0148044
947.675	0.0148053
947.753	0.0148972
947.831	0.0148543
947.909	0.0149142
947.987	0.0150670
948.066	0.0148536
948.144	0.0148652
948.222	0.0151068
948.300	0.0149685
948.378	0.0148664
948.456	0.0148283
948.534	0.0149527
948.612	0.0147406
948.691	0.0149986
948.769	0.0149468
948.847	0.0149545
948.925	0.0148035
949.003	0.0149666
949.081	0.0149038
949.159	0.0149239
949.237	0.0150207
949.316	0.0148740
949.394	0.0149368
949.472	0.0149672
949.550	0.0148508
949.628	0.0149386
949.706	0.0149869
949.784	0.0147977
949.862	0.0149814
949.941	0.0149487
950.019	0.0147259
950.097	0.0149511
950.175	0.0149929
950.253	0.0149065
950.331	0.0149532
950.409	0.0148701
950.487	0.0148007
950.566	0.0148537
950.644	0.0148469
950.722	0.0148212
950.800	0.0149400
950.878	0.0149035
950.956	0.0149332
951.034	0.0147581
951.112	0.0148524
951.191	0.0148141
951.269	0.0148955
951.347	0.0148805
951.425	0.0148896
951.503	0.0150316
951.581	0.0148954
951.659	0.0147681
951.737	0.0149302
951.816	0.0149385
951.894	0.0148105
951.972	0.0148311
952.050	0.0150213
952.128	0.0148557
952.206	0.0149467
952.284	0.0150055
952.362	0.0148769
952.441	0.0148038
952.519	0.0148734
952.597	0.0149676
952.675	0.0149247
952.753	0.0149028
952.831	0.0149852
952.909	0.0148746
952.987	0.0148693
953.066	0.0148090
953.144	0.0149476
953.222	0.0150251
953.300	0.0149646
953.378	0.0149506
953.456	0.0149875
953.534	0.0150276
953.612	0.0149184
953.691	0.0148275
953.769	0.0149924
953.847	0.0148720
953.925	0.0149890
954.003	0.0150030
954.081	0.0149450
954.159	0.0147807
954.237	0.0147650
954.316	0.0149815
954.394	0.0150943
954.472	0.0149754
954.550	0.0148806
954.628	0.0149103
954.706	0.0148288
954.784	0.0149191
954.862	0.0149299
954.941	0.0149025
955.019	0.0149075
955.097	0.0149725
955.175	0.0148027
955.253	0.0148746
955.331	0.0148439
955.409	0.0150249
955.487	0.0148277
955.566	0.0148587
955.644	0.0148528
955.722	0.0148167
955.800	0.0148553
955.878	0.0150008
955.956	0.0149486
956.034	0.0150243
956.112	0.0150568
956.191	0.0150162
956.269	0.0151044
956.347	0.0150054
956.425	0.0150127
956.503	0.0148668
956.581	0.0148302
956.659	0.0148903
956.737	0.0148534
956.816	0.0149452
956.894	0.0149423
956.972	0.0148721
957.050	0.0150000
957.128	0.0148977
957.206	0.0149512
957.284	0.0150208
957.362	0.0148876
957.441	0.0149265
957.519	0.0150253
957.597	0.0149190
957.675	0.0148922
957.753	0.0149348
957.831	0.0149655
957.909	0.0149445
957.987	0.0148715
958.066	0.0149025
958.144	0.0149155
958.222	0.0148248
958.300	0.0148869
958.378	0.0149923
958.456	0.0147514
958.534	0.0149227
958.612	0.0149682
958.691	0.0149999
958.769	0.0150147
958.847	0.0149533
958.925	0.0149059
959.003	0.0149796
959.081	0.0149492
959.159	0.0149413
959.237	0.0149937
959.316	0.0151148
959.394	0.0149309
959.472	0.0149819
959.550	0.0150902
959.628	0.0150325
959.706	0.0148701
959.784	0.0151413
959.862	0.0149203
959.941	0.0149028
960.019	0.0150404
960.097	0.0149280
960.175	0.0149895
960.253	0.0150539
960.331	0.0150993
960.409	0.0150835
960.487	0.0149764
960.566	0.0149918
960.644	0.0150084
960.722	0.0150014
960.800	0.0149342
960.878	0.0150137
960.956	0.0150635
961.034	0.0150632
961.112	0.0149788
961.191	0.0149613
961.269	0.0149993
961.347	0.0150120
961.425	0.0150440
961.503	0.0149601
961.581	0.0149886
961.659	0.0149993
961.737	0.0148402
961.816	0.0148540
961.894	0.0149376
961.972	0.0151328
962.050	0.0150594
962.128	0.0149162
962.206	0.0149776
962.284	0.0148710
962.362	0.0149995
962.441	0.0149039
962.519	0.0149354
962.597	0.0148221
962.675	0.0150356
962.753	0.0149852
962.831	0.0150209
962.909	0.0149126
962.987	0.0149440
963.066	0.0148712
963.144	0.0150750
963.222	0.0149025
963.300	0.0149367
963.378	0.0151036
963.456	0.0148770
963.534	0.0147976
963.612	0.0148886
963.691	0.0149512
963.769	0.0148469
963.847	0.0150097
963.925	0.0147581
964.003	0.0150378
964.081	0.0148676
964.159	0.0149158
964.237	0.0151051
964.316	0.0148914
964.394	0.0147996
964.472	0.0147897
964.550	0.0149126
964.628	0.0148661
964.706	0.0149139
964.784	0.0148052
964.862	0.0148776
964.941	0.0148631
965.019	0.0148021
965.097	0.0148022
965.175	0.0148833
965.253	0.0149086
965.331	0.0147390
965.409	0.0148432
965.487	0.0148915
965.566	0.0148671
965.644	0.0149060
965.722	0.0149089
965.800	0.0148994
965.878	0.0148589
965.956	0.0148508
966.034	0.0148154
966.112	0.0147573
966.191	0.0148758
966.269	0.0150478
966.347	0.0148680
966.425	0.0148648
966.503	0.0149097
966.581	0.0148166
966.659	0.0148353
966.737	0.0149625
966.816	0.0148830
966.894	0.0149100
966.972	0.0148824
967.050	0.0149240
967.128	0.0148701
967.206	0.0147838
967.284	0.0149120
967.362	0.0149503
967.441	0.0149251
967.519	0.0150858
967.597	0.0148201
967.675	0.0149276
967.753	0.0149853
967.831	0.0148956
967.909	0.0149419
967.987	0.0150938
968.066	0.0149880
968.144	0.0148804
968.222	0.0148289
968.300	0.0149094
968.378	0.0150333
968.456	0.0149652
968.534	0.0148291
968.612	0.0148069
968.691	0.0148679
968.769	0.0149895
968.847	0.0148444
968.925	0.0149516
969.003	0.0149609
969.081	0.0149324
969.159	0.0148621
969.237	0.0149220
969.316	0.0149250
969.394	0.0149808
969.472	0.0149751
969.550	0.0149075
969.628	0.0149854
969.706	0.0147276
969.784	0.0150144
969.862	0.0149815
969.941	0.0149522
970.019	0.0149950
970.097	0.0150153
970.175	0.0149827
970.253	0.0149124
970.331	0.0149994
970.409	0.0147913
970.487	0.0148759
970.566	0.0148866
970.644	0.0148340
970.722	0.0149899
970.800	0.0149147
970.878	0.0149387
970.956	0.0149467
971.034	0.0149397
971.112	0.0149426
971.191	0.0148931
971.269	0.0150272
971.347	0.0149944
971.425	0.0151180
971.503	0.0149316
971.581	0.0148843
971.659	0.0149158
971.737	0.0149242
971.816	0.0148689
971.894	0.0149336
971.972	0.0150157
972.050	0.0149178
972.128	0.0148110
972.206	0.0149267
972.284	0.0147935
972.362	0.0150595
972.441	0.0149680
972.519	0.0148656
972.597	0.0149583
972.675	0.0149181
972.753	0.0150199
972.831	0.0149306
972.909	0.0147951
972.987	0.0148619
973.066	0.0149296
973.144	0.0147820
973.222	0.0148870
973.300	0.0148427
973.378	0.0149944
973.456	0.0149688
973.534	0.0149914
973.612	0.0149839
973.691	0.0149254
973.769	0.0150809
973.847	0.0151168
973.925	0.0149541
974.003	0.0149603
974.081	0.0149823
974.159	0.0149482
974.237	0.0150483
974.316	0.0150303
974.394	0.0149500
974.472	0.0149369
974.550	0.0149290
974.628	0.0150083
974.706	0.0150225
974.784	0.0149109
974.862	0.0150742
974.941	0.0151681
975.019	0.0150188
975.097	0.0150594
975.175	0.0149813
975.253	0.0149133
975.331	0.0147368
975.409	0.0149696
975.487	0.0151180
975.566	0.0148679
975.644	0.0149359
975.722	0.0149815
975.800	0.0151260
975.878	0.0149146
975.956	0.0149905
976.034	0.0149670
976.112	0.0148933
976.191	0.0150632
976.269	0.0149868
976.347	0.0149749
976.425	0.0150491
976.503	0.0149780
976.581	0.0149912
976.659	0.0149297
976.737	0.0147921
976.816	0.0149435
976.894	0.0148834
976.972	0.0148673
977.050	0.0149067
977.128	0.0148949
977.206	0.0149188
977.284	0.0148933
977.362	0.0148653
977.441	0.0149632
977.519	0.0150301
977.597	0.0148161
977.675	0.0148092
977.753	0.0149614
977.831	0.0149413
977.909	0.0149979
977.987	0.0149510
978.066	0.0147463
978.144	0.0148604
978.222	0.0148985
978.300	0.0147873
978.378	0.0149476
978.456	0.0149820
978.534	0.0147984
978.612	0.0149501
978.691	0.0150744
978.769	0.0149965
978.847	0.0148975
978.925	0.0149649
979.003	0.0149342
979.081	0.0150035
979.159	0.0148463
979.237	0.0149725
979.316	0.0148831
979.394	0.0150130
979.472	0.0148997
979.550	0.0148959
979.628	0.0150452
979.706	0.0150558
979.784	0.0149136
979.862	0.0149012
979.941	0.0149365
980.019	0.0149956
980.097	0.0148462
980.175	0.0149151
980.253	0.0149206
980.331	0.0149686
980.409	0.0149318
980.487	0.0150510
980.566	0.0149255
980.644	0.0148656
980.722	0.0150207
980.800	0.0148943
980.878	0.0148674
980.956	0.0150490
981.034	0.0151297
981.112	0.0150799
981.191	0.0150330
981.269	0.0149376
981.347	0.0150485
981.425	0.0150256
981.503	0.0149089
981.581	0.0147692
981.659	0.0149024
981.737	0.0149106
981.816	0.0148937
981.894	0.0148839
981.972	0.0148176
982.050	0.0148535
982.128	0.0149723
982.206	0.0148534
982.284	0.0148480
982.362	0.0148690
982.441	0.0149141
982.519	0.0148135
982.597	0.0148351
982.675	0.0148275
982.753	0.0149062
982.831	0.0148816
982.909	0.0149066
982.987	0.0150106
983.066	0.0149033
983.144	0.0148677
983.222	0.0148584
983.300	0.0149863
983.378	0.0148959
983.456	0.0149179
983.534	0.0149359
983.612	0.0148846
983.691	0.0149245
983.769	0.0149349
983.847	0.0149905
983.925	0.0148477
984.003	0.0148689
984.081	0.0149200
984.159	0.0149661
984.237	0.0149280
984.316	0.0151131
984.394	0.0148903
984.472	0.0148743
984.550	0.0149897
984.628	0.0150317
984.706	0.0149274
984.784	0.0148341
984.862	0.0148652
984.941	0.0150072
985.019	0.0150418
985.097	0.0147780
985.175	0.0149046
985.253	0.0150296
985.331	0.0149779
985.409	0.0149966
985.487	0.0151257
985.566	0.0150262
985.644	0.0148456
985.722	0.0150327
985.800	0.0149433
985.878	0.0149299
985.956	0.0149673
986.034	0.0150448
986.112	0.0150388
986.191	0.0149596
986.269	0.0150303
986.347	0.0149667
986.425	0.0150637
986.503	0.0149787
986.581	0.0150653
986.659	0.0149493
986.737	0.0149963
986.816	0.0150795
986.894	0.0149664
986.972	0.0149448
987.050	0.0149935
987.128	0.0151254
987.206	0.0150642
987.284	0.0149211
987.362	0.0149657
987.441	0.0149328
987.519	0.0150007
987.597	0.0148704
987.675	0.0149781
987.753	0.0148867
987.831	0.0149236
987.909	0.0149668
987.987	0.0150809
988.066	0.0150581
988.144	0.0148791
988.222	0.0149277
988.300	0.0148674
988.378	0.0150423
988.456	0.0150779
988.534	0.0150072
988.612	0.0149415
988.691	0.0149601
988.769	0.0150806
988.847	0.0150714
988.925	0.0150911
989.003	0.0148840
989.081	0.0150841
989.159	0.0149872
989.237	0.0150190
989.316	0.0148840
989.394	0.0149228
989.472	0.0150086
989.550	0.0149008
989.628	0.0151125
989.706	0.0149371
989.784	0.0150575
989.862	0.0149625
989.941	0.0150542
990.019	0.0151103
990.097	0.0149504
990.175	0.0149563
990.253	0.0150725
990.331	0.0150482
990.409	0.0149107
990.487	0.0149339
990.566	0.0149780
990.644	0.0149251
990.722	0.0148917
990.800	0.0148210
990.878	0.0148235
990.956	0.0149559
991.034	0.0149217
991.112	0.0148672
991.191	0.0149120
991.269	0.0148850
991.347	0.0149953
991.425	0.0148829
991.503	0.0148438
991.581	0.0149968
991.659	0.0148017
991.737	0.0149474
991.816	0.0148211
991.894	0.0150622
991.972	0.0148669
992.050	0.0148904
992.128	0.0150054
992.206	0.0149039
992.284	0.0148536
992.362	0.0148408
992.441	0.0150351
992.519	0.0150467
992.597	0.0149333
992.675	0.0148122
992.753	0.0149102
992.831	0.0150578
992.909	0.0149535
992.987	0.0149747
993.066	0.0148748
993.144	0.0148534
993.222	0.0149284
993.300	0.0150252
993.378	0.0149264
993.456	0.0149181
993.534	0.0149663
993.612	0.0149512
993.691	0.0150488
993.769	0.0148299
993.847	0.0148860
993.925	0.0149284
994.003	0.0149651
994.081	0.0150095
994.159	0.0149727
994.237	0.0149445
994.316	0.0149674
994.394	0.0150187
994.472	0.0150175
994.550	0.0150070
994.628	0.0148701
994.706	0.0148705
994.784	0.0150380
994.862	0.0150500
994.941	0.0149113
995.019	0.0149358
995.097	0.0148630
995.175	0.0149191
995.253	0.0149353
995.331	0.0148326
995.409	0.0148744
995.487	0.0150109
995.566	0.0149327
995.644	0.0149893
995.722	0.0149301
995.800	0.0149201
995.878	0.0149418
995.956	0.0149845
996.034	0.0150079
996.112	0.0149754
996.191	0.0149170
996.269	0.0149493
996.347	0.0149898
996.425	0.0150883
996.503	0.0149839
996.581	0.0150282
996.659	0.0150740
996.737	0.0148739
996.816	0.0149016
996.894	0.0149915
996.972	0.0150033
997.050	0.0150595
997.128	0.0148501
997.206	0.0150390
997.284	0.0148866
997.362	0.0149740
997.441	0.0149564
997.519	0.0149567
997.597	0.0149942
997.675	0.0150143
997.753	0.0148312
997.831	0.0149913
997.909	0.0150314
997.987	0.0150731
998.066	0.0149228
998.144	0.0148469
998.222	0.0149888
998.300	0.0149309
998.378	0.0149100
998.456	0.0150219
998.534	0.0149787
998.612	0.0149573
998.691	0.0149669
998.769	0.0149967
998.847	0.0149721
998.925	0.0151090
