05/04/2022	20:48:56	Ver.	4.1	UNKNOWN
Optical Delay	679.003072	Delta X		0.078125	Sweeps	1	Scan Rate	0/0
Coordinates	Axis 1	NaN	Axis 2	NaN	Axis 3	NaN	Axis 4	NaN	Axis 5	NaN	Axis 6	0.000000
TX Power	0.000000	RX Power	0.000000

679.003	0.0140900
679.081	0.0141044
679.159	0.0141634
679.237	0.0141645
679.316	0.0142265
679.394	0.0141448
679.472	0.0140891
679.550	0.0141232
679.628	0.0140966
679.706	0.0141131
679.784	0.0140927
679.862	0.0139552
679.941	0.0140821
680.019	0.0139747
680.097	0.0141511
680.175	0.0140762
680.253	0.0141549
680.331	0.0140324
680.409	0.0140902
680.487	0.0140739
680.566	0.0141403
680.644	0.0139974
680.722	0.0139578
680.800	0.0140298
680.878	0.0141258
680.956	0.0140145
681.034	0.0140163
681.112	0.0140304
681.191	0.0139881
681.269	0.0141019
681.347	0.0140904
681.425	0.0139363
681.503	0.0140186
681.581	0.0141126
681.659	0.0140456
681.737	0.0140105
681.816	0.0141054
681.894	0.0140080
681.972	0.0140606
682.050	0.0141025
682.128	0.0140951
682.206	0.0142001
682.284	0.0140396
682.362	0.0139775
682.441	0.0140485
682.519	0.0140906
682.597	0.0140596
682.675	0.0141294
682.753	0.0140965
682.831	0.0139989
682.909	0.0140520
682.987	0.0140169
683.066	0.0139398
683.144	0.0140293
683.222	0.0140540
683.300	0.0141507
683.378	0.0141457
683.456	0.0140932
683.534	0.0140320
683.612	0.0140740
683.691	0.0140599
683.769	0.0140496
683.847	0.0140565
683.925	0.0140043
684.003	0.0141709
684.081	0.0141351
684.159	0.0140665
684.237	0.0139866
684.316	0.0140005
684.394	0.0140202
684.472	0.0139634
684.550	0.0141370
684.628	0.0141073
684.706	0.0140736
684.784	0.0140921
684.862	0.0139336
684.941	0.0139923
685.019	0.0141285
685.097	0.0141393
685.175	0.0141329
685.253	0.0140536
685.331	0.0140652
685.409	0.0139712
685.487	0.0141225
685.566	0.0141572
685.644	0.0140580
685.722	0.0139778
685.800	0.0141407
685.878	0.0140708
685.956	0.0139788
686.034	0.0140274
686.112	0.0140496
686.191	0.0141393
686.269	0.0140444
686.347	0.0140833
686.425	0.0139413
686.503	0.0140141
686.581	0.0140569
686.659	0.0141987
686.737	0.0140051
686.816	0.0141400
686.894	0.0141338
686.972	0.0140420
687.050	0.0140541
687.128	0.0140781
687.206	0.0141004
687.284	0.0139993
687.362	0.0140358
687.441	0.0140392
687.519	0.0140779
687.597	0.0139907
687.675	0.0139134
687.753	0.0141069
687.831	0.0140649
687.909	0.0141186
687.987	0.0140987
688.066	0.0141370
688.144	0.0141422
688.222	0.0139792
688.300	0.0142036
688.378	0.0140179
688.456	0.0139960
688.534	0.0141408
688.612	0.0140415
688.691	0.0140829
688.769	0.0140429
688.847	0.0141383
688.925	0.0140476
689.003	0.0139921
689.081	0.0141235
689.159	0.0140539
689.237	0.0140205
689.316	0.0140199
689.394	0.0141696
689.472	0.0140129
689.550	0.0141704
689.628	0.0139886
689.706	0.0140051
689.784	0.0141157
689.862	0.0140867
689.941	0.0141887
690.019	0.0140181
690.097	0.0141422
690.175	0.0140064
690.253	0.0140363
690.331	0.0141194
690.409	0.0141338
690.487	0.0139898
690.566	0.0140054
690.644	0.0141276
690.722	0.0140121
690.800	0.0141699
690.878	0.0140410
690.956	0.0140672
691.034	0.0139540
691.112	0.0141014
691.191	0.0139109
691.269	0.0139520
691.347	0.0140084
691.425	0.0140066
691.503	0.0139725
691.581	0.0142415
691.659	0.0140626
691.737	0.0141117
691.816	0.0140335
691.894	0.0141091
691.972	0.0140934
692.050	0.0140327
692.128	0.0140302
692.206	0.0141329
692.284	0.0139783
692.362	0.0140179
692.441	0.0138808
692.519	0.0140133
692.597	0.0141022
692.675	0.0140304
692.753	0.0141151
692.831	0.0140173
692.909	0.0140804
692.987	0.0140280
693.066	0.0141148
693.144	0.0140218
693.222	0.0139957
693.300	0.0141801
693.378	0.0139822
693.456	0.0140342
693.534	0.0141071
693.612	0.0140874
693.691	0.0140637
693.769	0.0141309
693.847	0.0140562
693.925	0.0140755
694.003	0.0140211
694.081	0.0140287
694.159	0.0139878
694.237	0.0141738
694.316	0.0141681
694.394	0.0141525
694.472	0.0141609
694.550	0.0140853
694.628	0.0140939
694.706	0.0140648
694.784	0.0141383
694.862	0.0140887
694.941	0.0140585
695.019	0.0141271
695.097	0.0141305
695.175	0.0141219
695.253	0.0140772
695.331	0.0140504
695.409	0.0140044
695.487	0.0140111
695.566	0.0141298
695.644	0.0140126
695.722	0.0140300
695.800	0.0141330
695.878	0.0140318
695.956	0.0141152
696.034	0.0141565
696.112	0.0141743
696.191	0.0141133
696.269	0.0140501
696.347	0.0140999
696.425	0.0140416
696.503	0.0141153
696.581	0.0140617
696.659	0.0140185
696.737	0.0140635
696.816	0.0141055
696.894	0.0140617
696.972	0.0140800
697.050	0.0140386
697.128	0.0141283
697.206	0.0140244
697.284	0.0141688
697.362	0.0140672
697.441	0.0141776
697.519	0.0141327
697.597	0.0141414
697.675	0.0141634
697.753	0.0140244
697.831	0.0141074
697.909	0.0140936
697.987	0.0139658
698.066	0.0141576
698.144	0.0141685
698.222	0.0141724
698.300	0.0140366
698.378	0.0140252
698.456	0.0141403
698.534	0.0140951
698.612	0.0140311
698.691	0.0140919
698.769	0.0140656
698.847	0.0142452
698.925	0.0141182
699.003	0.0141150
699.081	0.0141267
699.159	0.0140492
699.237	0.0141125
699.316	0.0142263
699.394	0.0139675
699.472	0.0141633
699.550	0.0141082
699.628	0.0139557
699.706	0.0140279
699.784	0.0140200
699.862	0.0140823
699.941	0.0140591
700.019	0.0141633
700.097	0.0140309
700.175	0.0140493
700.253	0.0140978
700.331	0.0139872
700.409	0.0141492
700.487	0.0141956
700.566	0.0141126
700.644	0.0142006
700.722	0.0141387
700.800	0.0140581
700.878	0.0141246
700.956	0.0140889
701.034	0.0139906
701.112	0.0142267
701.191	0.0140803
701.269	0.0140379
701.347	0.0139779
701.425	0.0140685
701.503	0.0140347
701.581	0.0140700
701.659	0.0140034
701.737	0.0140717
701.816	0.0140162
701.894	0.0140951
701.972	0.0142268
702.050	0.0140295
702.128	0.0139666
702.206	0.0139461
702.284	0.0139729
702.362	0.0139611
702.441	0.0139845
702.519	0.0141883
702.597	0.0140540
702.675	0.0138023
702.753	0.0139512
702.831	0.0141119
702.909	0.0141437
702.987	0.0141169
703.066	0.0140228
703.144	0.0140426
703.222	0.0142769
703.300	0.0140459
703.378	0.0140003
703.456	0.0139558
703.534	0.0140659
703.612	0.0139414
703.691	0.0139619
703.769	0.0141359
703.847	0.0140049
703.925	0.0142275
704.003	0.0140437
704.081	0.0141043
704.159	0.0141510
704.237	0.0140075
704.316	0.0140225
704.394	0.0140932
704.472	0.0140490
704.550	0.0140427
704.628	0.0139918
704.706	0.0140743
704.784	0.0139566
704.862	0.0140012
704.941	0.0139732
705.019	0.0140067
705.097	0.0140131
705.175	0.0140190
705.253	0.0139748
705.331	0.0141262
705.409	0.0140533
705.487	0.0141666
705.566	0.0140823
705.644	0.0140356
705.722	0.0140753
705.800	0.0139790
705.878	0.0142074
705.956	0.0141002
706.034	0.0141132
706.112	0.0139771
706.191	0.0139037
706.269	0.0140819
706.347	0.0141867
706.425	0.0141164
706.503	0.0140505
706.581	0.0140034
706.659	0.0139321
706.737	0.0140726
706.816	0.0141718
706.894	0.0141468
706.972	0.0141337
707.050	0.0140996
707.128	0.0141213
707.206	0.0141866
707.284	0.0140782
707.362	0.0141145
707.441	0.0141482
707.519	0.0140554
707.597	0.0141179
707.675	0.0140565
707.753	0.0140880
707.831	0.0141260
707.909	0.0141546
707.987	0.0141085
708.066	0.0140116
708.144	0.0139790
708.222	0.0140437
708.300	0.0139475
708.378	0.0139642
708.456	0.0140504
708.534	0.0140698
708.612	0.0140262
708.691	0.0140290
708.769	0.0141462
708.847	0.0140470
708.925	0.0140171
709.003	0.0139333
709.081	0.0141464
709.159	0.0139011
709.237	0.0139258
709.316	0.0139793
709.394	0.0140411
709.472	0.0140283
709.550	0.0141021
709.628	0.0140678
709.706	0.0140115
709.784	0.0140772
709.862	0.0140166
709.941	0.0139700
710.019	0.0140676
710.097	0.0140829
710.175	0.0140516
710.253	0.0140067
710.331	0.0138660
710.409	0.0140142
710.487	0.0141510
710.566	0.0141187
710.644	0.0140305
710.722	0.0140354
710.800	0.0141022
710.878	0.0140662
710.956	0.0140102
711.034	0.0140684
711.112	0.0141446
711.191	0.0140415
711.269	0.0140302
711.347	0.0140569
711.425	0.0142209
711.503	0.0141882
711.581	0.0141216
711.659	0.0141247
711.737	0.0140798
711.816	0.0141568
711.894	0.0143308
711.972	0.0142036
712.050	0.0140709
712.128	0.0140105
712.206	0.0139980
712.284	0.0140837
712.362	0.0142785
712.441	0.0140281
712.519	0.0140717
712.597	0.0141036
712.675	0.0142331
712.753	0.0140847
712.831	0.0139392
712.909	0.0143163
712.987	0.0141076
713.066	0.0141150
713.144	0.0140170
713.222	0.0140494
713.300	0.0141310
713.378	0.0143204
713.456	0.0141846
713.534	0.0142123
713.612	0.0141229
713.691	0.0141779
713.769	0.0141743
713.847	0.0141172
713.925	0.0140604
714.003	0.0141453
714.081	0.0139719
714.159	0.0141264
714.237	0.0142010
714.316	0.0141832
714.394	0.0140672
714.472	0.0142592
714.550	0.0143506
714.628	0.0142191
714.706	0.0141821
714.784	0.0143082
714.862	0.0143201
714.941	0.0141377
715.019	0.0141290
715.097	0.0140187
715.175	0.0140737
715.253	0.0139657
715.331	0.0140179
715.409	0.0139806
715.487	0.0137941
715.566	0.0139024
715.644	0.0138843
715.722	0.0138881
715.800	0.0139210
715.878	0.0139265
715.956	0.0139675
716.034	0.0139384
716.112	0.0139414
716.191	0.0139795
716.269	0.0139906
716.347	0.0140560
716.425	0.0142310
716.503	0.0142403
716.581	0.0141778
716.659	0.0141853
716.737	0.0141608
716.816	0.0140662
716.894	0.0139462
716.972	0.0139050
717.050	0.0136958
717.128	0.0137034
717.206	0.0138142
717.284	0.0138735
717.362	0.0137439
717.441	0.0138905
717.519	0.0138159
717.597	0.0140315
717.675	0.0140763
717.753	0.0140366
717.831	0.0141936
717.909	0.0141300
717.987	0.0140026
718.066	0.0140637
718.144	0.0140800
718.222	0.0140544
718.300	0.0138761
718.378	0.0138680
718.456	0.0137169
718.534	0.0137354
718.612	0.0136902
718.691	0.0136873
718.769	0.0138803
718.847	0.0140204
718.925	0.0139184
719.003	0.0141159
719.081	0.0141994
719.159	0.0143423
719.237	0.0143877
719.316	0.0144236
719.394	0.0146010
719.472	0.0144755
719.550	0.0145007
719.628	0.0145323
719.706	0.0145642
719.784	0.0145226
719.862	0.0143835
719.941	0.0140860
720.019	0.0141233
720.097	0.0141068
720.175	0.0139843
720.253	0.0138918
720.331	0.0137256
720.409	0.0138517
720.487	0.0137670
720.566	0.0138505
720.644	0.0139327
720.722	0.0138136
720.800	0.0140177
720.878	0.0140177
720.956	0.0140453
721.034	0.0140211
721.112	0.0141742
721.191	0.0141524
721.269	0.0140575
721.347	0.0139996
721.425	0.0139216
721.503	0.0138943
721.581	0.0138185
721.659	0.0137376
721.737	0.0136619
721.816	0.0136729
721.894	0.0138120
721.972	0.0138982
722.050	0.0138518
722.128	0.0140412
722.206	0.0141578
722.284	0.0140924
722.362	0.0142909
722.441	0.0142933
722.519	0.0143589
722.597	0.0143449
722.675	0.0145322
722.753	0.0144272
722.831	0.0143636
722.909	0.0142319
722.987	0.0141734
723.066	0.0141294
723.144	0.0141019
723.222	0.0139434
723.300	0.0140883
723.378	0.0139885
723.456	0.0140024
723.534	0.0139427
723.612	0.0139399
723.691	0.0139877
723.769	0.0140153
723.847	0.0140326
723.925	0.0141746
724.003	0.0141700
724.081	0.0142001
724.159	0.0141208
724.237	0.0142932
724.316	0.0143407
724.394	0.0143000
724.472	0.0141901
724.550	0.0143057
724.628	0.0142685
724.706	0.0141550
724.784	0.0143307
724.862	0.0143007
724.941	0.0142399
725.019	0.0142456
725.097	0.0141344
725.175	0.0140694
725.253	0.0140723
725.331	0.0140926
725.409	0.0140886
725.487	0.0140871
725.566	0.0139969
725.644	0.0142590
725.722	0.0141931
725.800	0.0142471
725.878	0.0141592
725.956	0.0142392
726.034	0.0143239
726.112	0.0141808
726.191	0.0141044
726.269	0.0142254
726.347	0.0141594
726.425	0.0139111
726.503	0.0138657
726.581	0.0140836
726.659	0.0136874
726.737	0.0137698
726.816	0.0137823
726.894	0.0136507
726.972	0.0136607
727.050	0.0137878
727.128	0.0137476
727.206	0.0138035
727.284	0.0137636
727.362	0.0139637
727.441	0.0140614
727.519	0.0140955
727.597	0.0140181
727.675	0.0142093
727.753	0.0142847
727.831	0.0141717
727.909	0.0142914
727.987	0.0142182
728.066	0.0142074
728.144	0.0142091
728.222	0.0141931
728.300	0.0142241
728.378	0.0140692
728.456	0.0141068
728.534	0.0141849
728.612	0.0140524
728.691	0.0139393
728.769	0.0137589
728.847	0.0139203
728.925	0.0141361
729.003	0.0140540
729.081	0.0139420
729.159	0.0141103
729.237	0.0140950
729.316	0.0141065
729.394	0.0141835
729.472	0.0143148
729.550	0.0142344
729.628	0.0141911
729.706	0.0142251
729.784	0.0142828
729.862	0.0141648
729.941	0.0142139
730.019	0.0143036
730.097	0.0140744
730.175	0.0141350
730.253	0.0141504
730.331	0.0141145
730.409	0.0142222
730.487	0.0141010
730.566	0.0142684
730.644	0.0141273
730.722	0.0142075
730.800	0.0140986
730.878	0.0141625
730.956	0.0141172
731.034	0.0141857
731.112	0.0141515
731.191	0.0140694
731.269	0.0141480
731.347	0.0139732
731.425	0.0140843
731.503	0.0141273
731.581	0.0138484
731.659	0.0139630
731.737	0.0139165
731.816	0.0138700
731.894	0.0139342
731.972	0.0140561
732.050	0.0139368
732.128	0.0138807
732.206	0.0138718
732.284	0.0139455
732.362	0.0139259
732.441	0.0139926
732.519	0.0137944
732.597	0.0139024
732.675	0.0139933
732.753	0.0140129
732.831	0.0140240
732.909	0.0139648
732.987	0.0139351
733.066	0.0137798
733.144	0.0138689
733.222	0.0139920
733.300	0.0138612
733.378	0.0138186
733.456	0.0138631
733.534	0.0139658
733.612	0.0139378
733.691	0.0139599
733.769	0.0141183
733.847	0.0140794
733.925	0.0141702
734.003	0.0141384
734.081	0.0141519
734.159	0.0142866
734.237	0.0141491
734.316	0.0142877
734.394	0.0143546
734.472	0.0142799
734.550	0.0144151
734.628	0.0143044
734.706	0.0142601
734.784	0.0142902
734.862	0.0140378
734.941	0.0140304
735.019	0.0141467
735.097	0.0139656
735.175	0.0140891
735.253	0.0140685
735.331	0.0141222
735.409	0.0139922
735.487	0.0140376
735.566	0.0140120
735.644	0.0139437
735.722	0.0140924
735.800	0.0141570
735.878	0.0140044
735.956	0.0140058
736.034	0.0141791
736.112	0.0142139
736.191	0.0141102
736.269	0.0141468
736.347	0.0143056
736.425	0.0142354
736.503	0.0142999
736.581	0.0142928
736.659	0.0142667
736.737	0.0142302
736.816	0.0141263
736.894	0.0141774
736.972	0.0141207
737.050	0.0139962
737.128	0.0139904
737.206	0.0139261
737.284	0.0139219
737.362	0.0138271
737.441	0.0140212
737.519	0.0139342
737.597	0.0138531
737.675	0.0139923
737.753	0.0138355
737.831	0.0139158
737.909	0.0139544
737.987	0.0139236
738.066	0.0139309
738.144	0.0140567
738.222	0.0141350
738.300	0.0140924
738.378	0.0140798
738.456	0.0142086
738.534	0.0141315
738.612	0.0140727
738.691	0.0141000
738.769	0.0140733
738.847	0.0140364
738.925	0.0139619
739.003	0.0140723
739.081	0.0141045
739.159	0.0140817
739.237	0.0140186
739.316	0.0140404
739.394	0.0140048
739.472	0.0139742
739.550	0.0141187
739.628	0.0139104
739.706	0.0140572
739.784	0.0140408
739.862	0.0141171
739.941	0.0141220
740.019	0.0141109
740.097	0.0142130
740.175	0.0142564
740.253	0.0142500
740.331	0.0142017
740.409	0.0141053
740.487	0.0141471
740.566	0.0142365
740.644	0.0141471
740.722	0.0141468
740.800	0.0141804
740.878	0.0142939
740.956	0.0141824
741.034	0.0141233
741.112	0.0141505
741.191	0.0142152
741.269	0.0140636
741.347	0.0140064
741.425	0.0141286
741.503	0.0141990
741.581	0.0139911
741.659	0.0139050
741.737	0.0139723
741.816	0.0138969
741.894	0.0137539
741.972	0.0137988
742.050	0.0139073
742.128	0.0138562
742.206	0.0138931
742.284	0.0139198
742.362	0.0139312
742.441	0.0139798
742.519	0.0141074
742.597	0.0140966
742.675	0.0140842
742.753	0.0141054
742.831	0.0140884
742.909	0.0142098
742.987	0.0141533
743.066	0.0141348
743.144	0.0142429
743.222	0.0142612
743.300	0.0141615
743.378	0.0141891
743.456	0.0141692
743.534	0.0141969
743.612	0.0141534
743.691	0.0142072
743.769	0.0140523
743.847	0.0141673
743.925	0.0141807
744.003	0.0140868
744.081	0.0140407
744.159	0.0140804
744.237	0.0139445
744.316	0.0140224
744.394	0.0141983
744.472	0.0141173
744.550	0.0139434
744.628	0.0140356
744.706	0.0140504
744.784	0.0140221
744.862	0.0140665
744.941	0.0140279
745.019	0.0141856
745.097	0.0140557
745.175	0.0139893
745.253	0.0140992
745.331	0.0140745
745.409	0.0142006
745.487	0.0141898
745.566	0.0142366
745.644	0.0141383
745.722	0.0140784
745.800	0.0141787
745.878	0.0141657
745.956	0.0141928
746.034	0.0141576
746.112	0.0141454
746.191	0.0141431
746.269	0.0140650
746.347	0.0140845
746.425	0.0141870
746.503	0.0140848
746.581	0.0140877
746.659	0.0141324
746.737	0.0142342
746.816	0.0140305
746.894	0.0141474
746.972	0.0141628
747.050	0.0142027
747.128	0.0141675
747.206	0.0141795
747.284	0.0140884
747.362	0.0140840
747.441	0.0140343
747.519	0.0140379
747.597	0.0138758
747.675	0.0139731
747.753	0.0141109
747.831	0.0141606
747.909	0.0140292
747.987	0.0139015
748.066	0.0140216
748.144	0.0140207
748.222	0.0140691
748.300	0.0140484
748.378	0.0141644
748.456	0.0141006
748.534	0.0141084
748.612	0.0141430
748.691	0.0140961
748.769	0.0141299
748.847	0.0141438
748.925	0.0143024
749.003	0.0142668
749.081	0.0140479
749.159	0.0142178
749.237	0.0141048
749.316	0.0142342
749.394	0.0142598
749.472	0.0140990
749.550	0.0140524
749.628	0.0141859
749.706	0.0140387
749.784	0.0139178
749.862	0.0141245
749.941	0.0139964
750.019	0.0140438
750.097	0.0138785
750.175	0.0140137
750.253	0.0139580
750.331	0.0140176
750.409	0.0140409
750.487	0.0141277
750.566	0.0139947
750.644	0.0140993
750.722	0.0141711
750.800	0.0140510
750.878	0.0139928
750.956	0.0140343
751.034	0.0140177
751.112	0.0141675
751.191	0.0139857
751.269	0.0139866
751.347	0.0140812
751.425	0.0141006
751.503	0.0142493
751.581	0.0141268
751.659	0.0141341
751.737	0.0140499
751.816	0.0141617
751.894	0.0141732
751.972	0.0141837
752.050	0.0139394
752.128	0.0141103
752.206	0.0140995
752.284	0.0139917
752.362	0.0140147
752.441	0.0139601
752.519	0.0139491
752.597	0.0139009
752.675	0.0141952
752.753	0.0141132
752.831	0.0141637
752.909	0.0140670
752.987	0.0140302
753.066	0.0140975
753.144	0.0141587
753.222	0.0141394
753.300	0.0141883
753.378	0.0140801
753.456	0.0141408
753.534	0.0141403
753.612	0.0142075
753.691	0.0141211
753.769	0.0141959
753.847	0.0141392
753.925	0.0141302
754.003	0.0140334
754.081	0.0140947
754.159	0.0141335
754.237	0.0138204
754.316	0.0140971
754.394	0.0140239
754.472	0.0142119
754.550	0.0141524
754.628	0.0140235
754.706	0.0141530
754.784	0.0140403
754.862	0.0141071
754.941	0.0142114
755.019	0.0140813
755.097	0.0140714
755.175	0.0141564
755.253	0.0141782
755.331	0.0140731
755.409	0.0140610
755.487	0.0140123
755.566	0.0140455
755.644	0.0141994
755.722	0.0141024
755.800	0.0140549
755.878	0.0141785
755.956	0.0141055
756.034	0.0142491
756.112	0.0141223
756.191	0.0142113
756.269	0.0141672
756.347	0.0141267
756.425	0.0140626
756.503	0.0141174
756.581	0.0139715
756.659	0.0140121
756.737	0.0140521
756.816	0.0142448
756.894	0.0140864
756.972	0.0141068
757.050	0.0140563
757.128	0.0139980
757.206	0.0139627
757.284	0.0140163
757.362	0.0140742
757.441	0.0139553
757.519	0.0140959
757.597	0.0140841
757.675	0.0139465
757.753	0.0140648
757.831	0.0139297
757.909	0.0141140
757.987	0.0140205
758.066	0.0140340
758.144	0.0141000
758.222	0.0141351
758.300	0.0141348
758.378	0.0139587
758.456	0.0140858
758.534	0.0140557
758.612	0.0139697
758.691	0.0142508
758.769	0.0140739
758.847	0.0140794
758.925	0.0141024
759.003	0.0142149
759.081	0.0143290
759.159	0.0142026
759.237	0.0142522
759.316	0.0140594
759.394	0.0140492
759.472	0.0139628
759.550	0.0141159
759.628	0.0142224
759.706	0.0140351
759.784	0.0140342
759.862	0.0140757
759.941	0.0139698
760.019	0.0141353
760.097	0.0139478
760.175	0.0141041
760.253	0.0139795
760.331	0.0140121
760.409	0.0142242
760.487	0.0141591
760.566	0.0141106
760.644	0.0139465
760.722	0.0140086
760.800	0.0140648
760.878	0.0140823
760.956	0.0142150
761.034	0.0142536
761.112	0.0140012
761.191	0.0140392
761.269	0.0139481
761.347	0.0140379
761.425	0.0140549
761.503	0.0140188
761.581	0.0139589
761.659	0.0140092
761.737	0.0139996
761.816	0.0139004
761.894	0.0141203
761.972	0.0140200
762.050	0.0140446
762.128	0.0139845
762.206	0.0140459
762.284	0.0141399
762.362	0.0140799
762.441	0.0139428
762.519	0.0140869
762.597	0.0139819
762.675	0.0139925
762.753	0.0138932
762.831	0.0140021
762.909	0.0141174
762.987	0.0139596
763.066	0.0141259
763.144	0.0139930
763.222	0.0139767
763.300	0.0141297
763.378	0.0141899
763.456	0.0140034
763.534	0.0139584
763.612	0.0140173
763.691	0.0141045
763.769	0.0141021
763.847	0.0141862
763.925	0.0140963
764.003	0.0140767
764.081	0.0139680
764.159	0.0140312
764.237	0.0140839
764.316	0.0140976
764.394	0.0140862
764.472	0.0140709
764.550	0.0140847
764.628	0.0140647
764.706	0.0142237
764.784	0.0141331
764.862	0.0141528
764.941	0.0141566
765.019	0.0140295
765.097	0.0141122
765.175	0.0141051
765.253	0.0141837
765.331	0.0140771
765.409	0.0141284
765.487	0.0140719
765.566	0.0141891
765.644	0.0142763
765.722	0.0141889
765.800	0.0140912
765.878	0.0141830
765.956	0.0141399
766.034	0.0140920
766.112	0.0140883
766.191	0.0141838
766.269	0.0142082
766.347	0.0140160
766.425	0.0140318
766.503	0.0140921
766.581	0.0141140
766.659	0.0140775
766.737	0.0141728
766.816	0.0141450
766.894	0.0141016
766.972	0.0140335
767.050	0.0140058
767.128	0.0141962
767.206	0.0140827
767.284	0.0140802
767.362	0.0140569
767.441	0.0139990
767.519	0.0140309
767.597	0.0141349
767.675	0.0139648
767.753	0.0140868
767.831	0.0140037
767.909	0.0139911
767.987	0.0141496
768.066	0.0140802
768.144	0.0140653
768.222	0.0141667
768.300	0.0140652
768.378	0.0139846
768.456	0.0140794
768.534	0.0141207
768.612	0.0140784
768.691	0.0140647
768.769	0.0140391
768.847	0.0140077
768.925	0.0139577
769.003	0.0140470
769.081	0.0140276
769.159	0.0140018
769.237	0.0141847
769.316	0.0139345
769.394	0.0140044
769.472	0.0139516
769.550	0.0139760
769.628	0.0140942
769.706	0.0140082
769.784	0.0140525
769.862	0.0140591
769.941	0.0141492
770.019	0.0139977
770.097	0.0142955
770.175	0.0142596
770.253	0.0140236
770.331	0.0140289
770.409	0.0140883
770.487	0.0140994
770.566	0.0142439
770.644	0.0141750
770.722	0.0142053
770.800	0.0141116
770.878	0.0139907
770.956	0.0141096
771.034	0.0142288
771.112	0.0140714
771.191	0.0142130
771.269	0.0141808
771.347	0.0142506
771.425	0.0140584
771.503	0.0140672
771.581	0.0141140
771.659	0.0140945
771.737	0.0141540
771.816	0.0141615
771.894	0.0139912
771.972	0.0141220
772.050	0.0139902
772.128	0.0140762
772.206	0.0141239
772.284	0.0141354
772.362	0.0141789
772.441	0.0140221
772.519	0.0140062
772.597	0.0139616
772.675	0.0140360
772.753	0.0140729
772.831	0.0141100
772.909	0.0140009
772.987	0.0141187
773.066	0.0141673
773.144	0.0141321
773.222	0.0140121
773.300	0.0140923
773.378	0.0140543
773.456	0.0141216
773.534	0.0141682
773.612	0.0139491
773.691	0.0141241
773.769	0.0140591
773.847	0.0141893
773.925	0.0142041
774.003	0.0139968
774.081	0.0140032
774.159	0.0139988
774.237	0.0139302
774.316	0.0139555
774.394	0.0140393
774.472	0.0140154
774.550	0.0140148
774.628	0.0141555
774.706	0.0141723
774.784	0.0140623
774.862	0.0141505
774.941	0.0140929
775.019	0.0140155
775.097	0.0141643
775.175	0.0139775
775.253	0.0141372
775.331	0.0140091
775.409	0.0140020
775.487	0.0139567
775.566	0.0140894
775.644	0.0141391
775.722	0.0140484
775.800	0.0139801
775.878	0.0141882
775.956	0.0141796
776.034	0.0139240
776.112	0.0141363
776.191	0.0141533
776.269	0.0140991
776.347	0.0141420
776.425	0.0141435
776.503	0.0141673
776.581	0.0140947
776.659	0.0140725
776.737	0.0140623
776.816	0.0141824
776.894	0.0140620
776.972	0.0139929
777.050	0.0140112
777.128	0.0141882
777.206	0.0140353
777.284	0.0140829
777.362	0.0141136
777.441	0.0140353
777.519	0.0139818
777.597	0.0140118
777.675	0.0141451
777.753	0.0141820
777.831	0.0142184
777.909	0.0141556
777.987	0.0140343
778.066	0.0141215
778.144	0.0141341
778.222	0.0139951
778.300	0.0141513
778.378	0.0142100
778.456	0.0140858
778.534	0.0139999
778.612	0.0140311
778.691	0.0139556
778.769	0.0140503
778.847	0.0140826
778.925	0.0140318
779.003	0.0140974
779.081	0.0140082
779.159	0.0140549
779.237	0.0141288
779.316	0.0141606
779.394	0.0142075
779.472	0.0141743
779.550	0.0140198
779.628	0.0141966
779.706	0.0141647
779.784	0.0141310
779.862	0.0140968
779.941	0.0140327
780.019	0.0142648
780.097	0.0141267
780.175	0.0140659
780.253	0.0140555
780.331	0.0140977
780.409	0.0141908
780.487	0.0140505
780.566	0.0140919
780.644	0.0140924
780.722	0.0142619
780.800	0.0141900
780.878	0.0141399
780.956	0.0141829
781.034	0.0142170
781.112	0.0141146
781.191	0.0141913
781.269	0.0141705
781.347	0.0141930
781.425	0.0141961
781.503	0.0140956
781.581	0.0141817
781.659	0.0141205
781.737	0.0142937
781.816	0.0140948
781.894	0.0139989
781.972	0.0140434
782.050	0.0140623
782.128	0.0142509
782.206	0.0141457
782.284	0.0141959
782.362	0.0141310
782.441	0.0140544
782.519	0.0139793
782.597	0.0139584
782.675	0.0140664
782.753	0.0140759
782.831	0.0140555
782.909	0.0140902
782.987	0.0140861
783.066	0.0140030
783.144	0.0140015
783.222	0.0139329
783.300	0.0140363
783.378	0.0140736
783.456	0.0140281
783.534	0.0139722
783.612	0.0140118
783.691	0.0139567
783.769	0.0139421
783.847	0.0140892
783.925	0.0141303
784.003	0.0140261
784.081	0.0141740
784.159	0.0140823
784.237	0.0138888
784.316	0.0140959
784.394	0.0141055
784.472	0.0140623
784.550	0.0140866
784.628	0.0140843
784.706	0.0141236
784.784	0.0140775
784.862	0.0140645
784.941	0.0142236
785.019	0.0140898
785.097	0.0141383
785.175	0.0141690
785.253	0.0141983
785.331	0.0141619
785.409	0.0141038
785.487	0.0140714
785.566	0.0142414
785.644	0.0141193
785.722	0.0140798
785.800	0.0140623
785.878	0.0142205
785.956	0.0140666
786.034	0.0139989
786.112	0.0141648
786.191	0.0140453
786.269	0.0140735
786.347	0.0140189
786.425	0.0143279
786.503	0.0142066
786.581	0.0142513
786.659	0.0140862
786.737	0.0142179
786.816	0.0143020
786.894	0.0141647
786.972	0.0141348
787.050	0.0141743
787.128	0.0141872
787.206	0.0142425
787.284	0.0142039
787.362	0.0140838
787.441	0.0141103
787.519	0.0141290
787.597	0.0141920
787.675	0.0142792
787.753	0.0141364
787.831	0.0140073
787.909	0.0140657
787.987	0.0139990
788.066	0.0140512
788.144	0.0141823
788.222	0.0140558
788.300	0.0141782
788.378	0.0142014
788.456	0.0142072
788.534	0.0139664
788.612	0.0140922
788.691	0.0141566
788.769	0.0139803
788.847	0.0141219
788.925	0.0141650
789.003	0.0142234
789.081	0.0141264
789.159	0.0141196
789.237	0.0140475
789.316	0.0140714
789.394	0.0141737
789.472	0.0140193
789.550	0.0140558
789.628	0.0141032
789.706	0.0140495
789.784	0.0141309
789.862	0.0140545
789.941	0.0140594
790.019	0.0141743
790.097	0.0139973
790.175	0.0139432
790.253	0.0140304
790.331	0.0140726
790.409	0.0140665
790.487	0.0140279
790.566	0.0141872
790.644	0.0139377
790.722	0.0141236
790.800	0.0140047
790.878	0.0142680
790.956	0.0140659
791.034	0.0141572
791.112	0.0141832
791.191	0.0140292
791.269	0.0140942
791.347	0.0140971
791.425	0.0141033
791.503	0.0140593
791.581	0.0140532
791.659	0.0140765
791.737	0.0141312
791.816	0.0142185
791.894	0.0141463
791.972	0.0140611
792.050	0.0140464
792.128	0.0140907
792.206	0.0141408
792.284	0.0140938
792.362	0.0141477
792.441	0.0141042
792.519	0.0141331
792.597	0.0141407
792.675	0.0141367
792.753	0.0141146
792.831	0.0141280
792.909	0.0139499
792.987	0.0139636
793.066	0.0139210
793.144	0.0140843
793.222	0.0141158
793.300	0.0142622
793.378	0.0141374
793.456	0.0140450
793.534	0.0139935
793.612	0.0141592
793.691	0.0140897
793.769	0.0140981
793.847	0.0140667
793.925	0.0140868
794.003	0.0140282
794.081	0.0140560
794.159	0.0140678
794.237	0.0142553
794.316	0.0141757
794.394	0.0142120
794.472	0.0143247
794.550	0.0141624
794.628	0.0139964
794.706	0.0140434
794.784	0.0140891
794.862	0.0141891
794.941	0.0141412
795.019	0.0141449
795.097	0.0141314
795.175	0.0140302
795.253	0.0140900
795.331	0.0140751
795.409	0.0141218
795.487	0.0140807
795.566	0.0140878
795.644	0.0140559
795.722	0.0141548
795.800	0.0141055
795.878	0.0140247
795.956	0.0140334
796.034	0.0139182
796.112	0.0141357
796.191	0.0141119
796.269	0.0140525
796.347	0.0141143
796.425	0.0140536
796.503	0.0142080
796.581	0.0142210
796.659	0.0141028
796.737	0.0141380
796.816	0.0140306
796.894	0.0140961
796.972	0.0142152
797.050	0.0143607
797.128	0.0142508
797.206	0.0141278
797.284	0.0140726
797.362	0.0141272
797.441	0.0141457
797.519	0.0140584
797.597	0.0142589
797.675	0.0142208
797.753	0.0140593
797.831	0.0140336
797.909	0.0142074
797.987	0.0142513
798.066	0.0140686
798.144	0.0140755
798.222	0.0141206
798.300	0.0140934
798.378	0.0140334
798.456	0.0141061
798.534	0.0140668
798.612	0.0140398
798.691	0.0140621
798.769	0.0140369
798.847	0.0142073
798.925	0.0140090
799.003	0.0139412
799.081	0.0140683
799.159	0.0141687
799.237	0.0140637
799.316	0.0141039
799.394	0.0141418
799.472	0.0140125
799.550	0.0141772
799.628	0.0140503
799.706	0.0139584
799.784	0.0140436
799.862	0.0142181
799.941	0.0142112
800.019	0.0139980
800.097	0.0141045
800.175	0.0140695
800.253	0.0140363
800.331	0.0141409
800.409	0.0140083
800.487	0.0140015
800.566	0.0139993
800.644	0.0141058
800.722	0.0140930
800.800	0.0139944
800.878	0.0140971
800.956	0.0140447
801.034	0.0140506
801.112	0.0141508
801.191	0.0141882
801.269	0.0140859
801.347	0.0140653
801.425	0.0141745
801.503	0.0140903
801.581	0.0140258
801.659	0.0139713
801.737	0.0140909
801.816	0.0141305
801.894	0.0141068
801.972	0.0141615
802.050	0.0140718
802.128	0.0139091
802.206	0.0140974
802.284	0.0139400
802.362	0.0139897
802.441	0.0139548
802.519	0.0140466
802.597	0.0140337
802.675	0.0141227
802.753	0.0141095
802.831	0.0141385
802.909	0.0140958
802.987	0.0140058
803.066	0.0140868
803.144	0.0140430
803.222	0.0140226
803.300	0.0141949
803.378	0.0139315
803.456	0.0139487
803.534	0.0141041
803.612	0.0142473
803.691	0.0140804
803.769	0.0138998
803.847	0.0138867
803.925	0.0140714
804.003	0.0141789
804.081	0.0141734
804.159	0.0140650
804.237	0.0140856
804.316	0.0139977
804.394	0.0139929
804.472	0.0141517
804.550	0.0139690
804.628	0.0140253
804.706	0.0141643
804.784	0.0141045
804.862	0.0140934
804.941	0.0140025
805.019	0.0141826
805.097	0.0140617
805.175	0.0139603
805.253	0.0141978
805.331	0.0141692
805.409	0.0140787
805.487	0.0141004
805.566	0.0140946
805.644	0.0141245
805.722	0.0141822
805.800	0.0140730
805.878	0.0141462
805.956	0.0141074
806.034	0.0142742
806.112	0.0141662
806.191	0.0141129
806.269	0.0140691
806.347	0.0141273
806.425	0.0141750
806.503	0.0140052
806.581	0.0140999
806.659	0.0140815
806.737	0.0141116
806.816	0.0141196
806.894	0.0140860
806.972	0.0142472
807.050	0.0143143
807.128	0.0140874
807.206	0.0140771
807.284	0.0141286
807.362	0.0142594
807.441	0.0141637
807.519	0.0141181
807.597	0.0142316
807.675	0.0141256
807.753	0.0139879
807.831	0.0140252
807.909	0.0140845
807.987	0.0141993
808.066	0.0140322
808.144	0.0141702
808.222	0.0141805
808.300	0.0140379
808.378	0.0141021
808.456	0.0141124
808.534	0.0140434
808.612	0.0141549
808.691	0.0140636
808.769	0.0141871
808.847	0.0141504
808.925	0.0141899
809.003	0.0140855
809.081	0.0139326
809.159	0.0141566
809.237	0.0139850
809.316	0.0139491
809.394	0.0140132
809.472	0.0141717
809.550	0.0141080
809.628	0.0141978
809.706	0.0139845
809.784	0.0139680
809.862	0.0140025
809.941	0.0141755
810.019	0.0141079
810.097	0.0140275
810.175	0.0141576
810.253	0.0140630
810.331	0.0141532
810.409	0.0140485
810.487	0.0141633
810.566	0.0140164
810.644	0.0139783
810.722	0.0142418
810.800	0.0140481
810.878	0.0140767
810.956	0.0140881
811.034	0.0140473
811.112	0.0141260
811.191	0.0141066
811.269	0.0139159
811.347	0.0140562
811.425	0.0141527
811.503	0.0139210
811.581	0.0140828
811.659	0.0140571
811.737	0.0141640
811.816	0.0141562
811.894	0.0140088
811.972	0.0140369
812.050	0.0139510
812.128	0.0140546
812.206	0.0141295
812.284	0.0141784
812.362	0.0140660
812.441	0.0139523
812.519	0.0140784
812.597	0.0141400
812.675	0.0139449
812.753	0.0141422
812.831	0.0141232
812.909	0.0140804
812.987	0.0141059
813.066	0.0140512
813.144	0.0141225
813.222	0.0140309
813.300	0.0140229
813.378	0.0141531
813.456	0.0140215
813.534	0.0141526
813.612	0.0140859
813.691	0.0140498
813.769	0.0140321
813.847	0.0140118
813.925	0.0140000
814.003	0.0141058
814.081	0.0140709
814.159	0.0140044
814.237	0.0140617
814.316	0.0139686
814.394	0.0138700
814.472	0.0139637
814.550	0.0139929
814.628	0.0139304
814.706	0.0140466
814.784	0.0140868
814.862	0.0139928
814.941	0.0141187
815.019	0.0140211
815.097	0.0140479
815.175	0.0139539
815.253	0.0140316
815.331	0.0139845
815.409	0.0140392
815.487	0.0140977
815.566	0.0139740
815.644	0.0140553
815.722	0.0139750
815.800	0.0141476
815.878	0.0139653
815.956	0.0140930
816.034	0.0140177
816.112	0.0140351
816.191	0.0140891
816.269	0.0139707
816.347	0.0139420
816.425	0.0140701
816.503	0.0141396
816.581	0.0140342
816.659	0.0141135
816.737	0.0141686
816.816	0.0141802
816.894	0.0140450
816.972	0.0141139
817.050	0.0140910
817.128	0.0140012
817.206	0.0141220
817.284	0.0139614
817.362	0.0139694
817.441	0.0140884
817.519	0.0140276
817.597	0.0138839
817.675	0.0140823
817.753	0.0141360
817.831	0.0140616
817.909	0.0140600
817.987	0.0140834
818.066	0.0140382
818.144	0.0139996
818.222	0.0142346
818.300	0.0142729
818.378	0.0141780
818.456	0.0140794
818.534	0.0141007
818.612	0.0141042
818.691	0.0141587
818.769	0.0140565
818.847	0.0140755
818.925	0.0140389
819.003	0.0140690
819.081	0.0140386
819.159	0.0141042
819.237	0.0140430
819.316	0.0139761
819.394	0.0139425
819.472	0.0141302
819.550	0.0140433
819.628	0.0141269
819.706	0.0141031
819.784	0.0140530
819.862	0.0140543
819.941	0.0141119
820.019	0.0141000
820.097	0.0141147
820.175	0.0140340
820.253	0.0140741
820.331	0.0140887
820.409	0.0140863
820.487	0.0141367
820.566	0.0140924
820.644	0.0140441
820.722	0.0139968
820.800	0.0140800
820.878	0.0140179
820.956	0.0139675
821.034	0.0141654
821.112	0.0139654
821.191	0.0139806
821.269	0.0142764
821.347	0.0141175
821.425	0.0139976
821.503	0.0139945
821.581	0.0139282
821.659	0.0140099
821.737	0.0140628
821.816	0.0140536
821.894	0.0140295
821.972	0.0139558
822.050	0.0140488
822.128	0.0142101
822.206	0.0139146
822.284	0.0140523
822.362	0.0140424
822.441	0.0139600
822.519	0.0140440
822.597	0.0140697
822.675	0.0140833
822.753	0.0139534
822.831	0.0139607
822.909	0.0140837
822.987	0.0139776
823.066	0.0140540
823.144	0.0140155
823.222	0.0139670
823.300	0.0140062
823.378	0.0141116
823.456	0.0138928
823.534	0.0140227
823.612	0.0140086
823.691	0.0139172
823.769	0.0140025
823.847	0.0141666
823.925	0.0139848
824.003	0.0139434
824.081	0.0140050
824.159	0.0141489
824.237	0.0139468
824.316	0.0140510
824.394	0.0140778
824.472	0.0140275
824.550	0.0140841
824.628	0.0140445
824.706	0.0141480
824.784	0.0140731
824.862	0.0141349
824.941	0.0140987
825.019	0.0140186
825.097	0.0141068
825.175	0.0140549
825.253	0.0140630
825.331	0.0140331
825.409	0.0141932
825.487	0.0140679
825.566	0.0141176
825.644	0.0141538
825.722	0.0140218
825.800	0.0140794
825.878	0.0142141
825.956	0.0141297
826.034	0.0141253
826.112	0.0141055
826.191	0.0141251
826.269	0.0142095
826.347	0.0144013
826.425	0.0141098
826.503	0.0140795
826.581	0.0141968
826.659	0.0141336
826.737	0.0140862
826.816	0.0140965
826.894	0.0141369
826.972	0.0140805
827.050	0.0142057
827.128	0.0143313
827.206	0.0141589
827.284	0.0142420
827.362	0.0142503
827.441	0.0141194
827.519	0.0142424
827.597	0.0140047
827.675	0.0141595
827.753	0.0142760
827.831	0.0143019
827.909	0.0140945
827.987	0.0140785
828.066	0.0141672
828.144	0.0140059
828.222	0.0141578
828.300	0.0141696
828.378	0.0140798
828.456	0.0140829
828.534	0.0141390
828.612	0.0141557
828.691	0.0141379
828.769	0.0141724
828.847	0.0140616
828.925	0.0141491
829.003	0.0142355
829.081	0.0141047
829.159	0.0140150
829.237	0.0139790
829.316	0.0140673
829.394	0.0141760
829.472	0.0140784
829.550	0.0140647
829.628	0.0141637
829.706	0.0142416
829.784	0.0141454
829.862	0.0140349
829.941	0.0141072
830.019	0.0141407
830.097	0.0141750
830.175	0.0140703
830.253	0.0142055
830.331	0.0140774
830.409	0.0140533
830.487	0.0141582
830.566	0.0141958
830.644	0.0141757
830.722	0.0140893
830.800	0.0141754
830.878	0.0141987
830.956	0.0140273
831.034	0.0141159
831.112	0.0140882
831.191	0.0140234
831.269	0.0140076
831.347	0.0140697
831.425	0.0141290
831.503	0.0140059
831.581	0.0138828
831.659	0.0138824
831.737	0.0140879
831.816	0.0139571
831.894	0.0139848
831.972	0.0139738
832.050	0.0140139
832.128	0.0138892
832.206	0.0141711
832.284	0.0141380
832.362	0.0139790
832.441	0.0140331
832.519	0.0139983
832.597	0.0141027
832.675	0.0139896
832.753	0.0140000
832.831	0.0140040
832.909	0.0141035
832.987	0.0141406
833.066	0.0141164
833.144	0.0139757
833.222	0.0140159
833.300	0.0139094
833.378	0.0140353
833.456	0.0139680
833.534	0.0140285
833.612	0.0140015
833.691	0.0140603
833.769	0.0140540
833.847	0.0140137
833.925	0.0140643
834.003	0.0140508
834.081	0.0140887
834.159	0.0140563
834.237	0.0139443
834.316	0.0140375
834.394	0.0139071
834.472	0.0140518
834.550	0.0140587
834.628	0.0139311
834.706	0.0140867
834.784	0.0140382
834.862	0.0140825
834.941	0.0141196
835.019	0.0139404
835.097	0.0139690
835.175	0.0140374
835.253	0.0140092
835.331	0.0142298
835.409	0.0141521
835.487	0.0139631
835.566	0.0141000
835.644	0.0140094
835.722	0.0140458
835.800	0.0139684
835.878	0.0141106
835.956	0.0140594
836.034	0.0140909
836.112	0.0140649
836.191	0.0140524
836.269	0.0140065
836.347	0.0141104
836.425	0.0139748
836.503	0.0139571
836.581	0.0141036
836.659	0.0141065
836.737	0.0140272
836.816	0.0140997
836.894	0.0140661
836.972	0.0140604
837.050	0.0140894
837.128	0.0141106
837.206	0.0142065
837.284	0.0140950
837.362	0.0142387
837.441	0.0141314
837.519	0.0141711
837.597	0.0141384
837.675	0.0141716
837.753	0.0141792
837.831	0.0140742
837.909	0.0141778
837.987	0.0141845
838.066	0.0141299
838.144	0.0140669
838.222	0.0140736
838.300	0.0140885
838.378	0.0141877
838.456	0.0140929
838.534	0.0140752
838.612	0.0140110
838.691	0.0141217
838.769	0.0140844
838.847	0.0140170
838.925	0.0140947
839.003	0.0141621
839.081	0.0139806
839.159	0.0140151
839.237	0.0140376
839.316	0.0140183
839.394	0.0141193
839.472	0.0141291
839.550	0.0140884
839.628	0.0141090
839.706	0.0141215
839.784	0.0139921
839.862	0.0139861
839.941	0.0140133
840.019	0.0139548
840.097	0.0139737
840.175	0.0139750
840.253	0.0140636
840.331	0.0141124
840.409	0.0140800
840.487	0.0141678
840.566	0.0140005
840.644	0.0140388
840.722	0.0141557
840.800	0.0141730
840.878	0.0139453
840.956	0.0140430
841.034	0.0140690
841.112	0.0141183
841.191	0.0141031
841.269	0.0141205
841.347	0.0139988
841.425	0.0140842
841.503	0.0140467
841.581	0.0140641
841.659	0.0140951
841.737	0.0140707
841.816	0.0138499
841.894	0.0139408
841.972	0.0140694
842.050	0.0141176
842.128	0.0141091
842.206	0.0140919
842.284	0.0140944
842.362	0.0139585
842.441	0.0140915
842.519	0.0139929
842.597	0.0139825
842.675	0.0139931
842.753	0.0140777
842.831	0.0140697
842.909	0.0139442
842.987	0.0140277
843.066	0.0140745
843.144	0.0140456
843.222	0.0140012
843.300	0.0140457
843.378	0.0140714
843.456	0.0140909
843.534	0.0140059
843.612	0.0140356
843.691	0.0140607
843.769	0.0140285
843.847	0.0139932
843.925	0.0139607
844.003	0.0139489
844.081	0.0140077
844.159	0.0139231
844.237	0.0140546
844.316	0.0139710
844.394	0.0139926
844.472	0.0139948
844.550	0.0140999
844.628	0.0140519
844.706	0.0140688
844.784	0.0141956
844.862	0.0141611
844.941	0.0139766
845.019	0.0139544
845.097	0.0141039
845.175	0.0141994
845.253	0.0139574
845.331	0.0139524
845.409	0.0140897
845.487	0.0140883
845.566	0.0140973
845.644	0.0140057
845.722	0.0140189
845.800	0.0140244
845.878	0.0141504
845.956	0.0139437
846.034	0.0140860
846.112	0.0141647
846.191	0.0140652
846.269	0.0140777
846.347	0.0141468
846.425	0.0141365
846.503	0.0140788
846.581	0.0139410
846.659	0.0141986
846.737	0.0141359
846.816	0.0140844
846.894	0.0140651
846.972	0.0140615
847.050	0.0139816
847.128	0.0140150
847.206	0.0141798
847.284	0.0142461
847.362	0.0141683
847.441	0.0140325
847.519	0.0140311
847.597	0.0142845
847.675	0.0141660
847.753	0.0140993
847.831	0.0141772
847.909	0.0141856
847.987	0.0140349
848.066	0.0140914
848.144	0.0140697
848.222	0.0141666
848.300	0.0142259
848.378	0.0141879
848.456	0.0141653
848.534	0.0141935
848.612	0.0141441
848.691	0.0141559
848.769	0.0141866
848.847	0.0140809
848.925	0.0142103
849.003	0.0141915
849.081	0.0140498
849.159	0.0141483
849.237	0.0142522
849.316	0.0141418
849.394	0.0141377
849.472	0.0140588
849.550	0.0140784
849.628	0.0141215
849.706	0.0141547
849.784	0.0140761
849.862	0.0139282
849.941	0.0140443
850.019	0.0139529
850.097	0.0140257
850.175	0.0140830
850.253	0.0141327
850.331	0.0142702
850.409	0.0140614
850.487	0.0140899
850.566	0.0141368
850.644	0.0141084
850.722	0.0140078
850.800	0.0141223
850.878	0.0141471
850.956	0.0141177
851.034	0.0141420
851.112	0.0140851
851.191	0.0140253
851.269	0.0140416
851.347	0.0140701
851.425	0.0140101
851.503	0.0141176
851.581	0.0140594
851.659	0.0140926
851.737	0.0141562
851.816	0.0140438
851.894	0.0140855
851.972	0.0140427
852.050	0.0140839
852.128	0.0141429
852.206	0.0139173
852.284	0.0140761
852.362	0.0140925
852.441	0.0141074
852.519	0.0140425
852.597	0.0139842
852.675	0.0140981
852.753	0.0141731
852.831	0.0140675
852.909	0.0139427
852.987	0.0141521
853.066	0.0141518
853.144	0.0139409
853.222	0.0140385
853.300	0.0140895
853.378	0.0140616
853.456	0.0140750
853.534	0.0140966
853.612	0.0141658
853.691	0.0141056
853.769	0.0141417
853.847	0.0140716
853.925	0.0139732
854.003	0.0140918
854.081	0.0140498
854.159	0.0140963
854.237	0.0141595
854.316	0.0141451
854.394	0.0142536
854.472	0.0139542
854.550	0.0141106
854.628	0.0142081
854.706	0.0141301
854.784	0.0140881
854.862	0.0140955
854.941	0.0140852
855.019	0.0140925
855.097	0.0140987
855.175	0.0140985
855.253	0.0140202
855.331	0.0140623
855.409	0.0140862
855.487	0.0141692
855.566	0.0140538
855.644	0.0141573
855.722	0.0143129
855.800	0.0141810
855.878	0.0140890
855.956	0.0141069
856.034	0.0140710
856.112	0.0140711
856.191	0.0141419
856.269	0.0140196
856.347	0.0139799
856.425	0.0141268
856.503	0.0141636
856.581	0.0140596
856.659	0.0140372
856.737	0.0138819
856.816	0.0139089
856.894	0.0140364
856.972	0.0140562
857.050	0.0140665
857.128	0.0141416
857.206	0.0139816
857.284	0.0139825
857.362	0.0141389
857.441	0.0140688
857.519	0.0139802
857.597	0.0141220
857.675	0.0140200
857.753	0.0140847
857.831	0.0141277
857.909	0.0139992
857.987	0.0140832
858.066	0.0141090
858.144	0.0140556
858.222	0.0142557
858.300	0.0140401
858.378	0.0141721
858.456	0.0140427
858.534	0.0141536
858.612	0.0140576
858.691	0.0140820
858.769	0.0142040
858.847	0.0142583
858.925	0.0141653
859.003	0.0142088
859.081	0.0141510
859.159	0.0142567
859.237	0.0139918
859.316	0.0140980
859.394	0.0141811
859.472	0.0141154
859.550	0.0142198
859.628	0.0141288
859.706	0.0142058
859.784	0.0141463
859.862	0.0140047
859.941	0.0142651
860.019	0.0141222
860.097	0.0141125
860.175	0.0140890
860.253	0.0140841
860.331	0.0142004
860.409	0.0142717
860.487	0.0140211
860.566	0.0142134
860.644	0.0142052
860.722	0.0141063
860.800	0.0140181
860.878	0.0139908
860.956	0.0140724
861.034	0.0141817
861.112	0.0141846
861.191	0.0139646
861.269	0.0139845
861.347	0.0139954
861.425	0.0141228
861.503	0.0140145
861.581	0.0142086
861.659	0.0140578
861.737	0.0141861
861.816	0.0141709
861.894	0.0141546
861.972	0.0142194
862.050	0.0140288
862.128	0.0141125
862.206	0.0141504
862.284	0.0140330
862.362	0.0140829
862.441	0.0142097
862.519	0.0142617
862.597	0.0140941
862.675	0.0140463
862.753	0.0140744
862.831	0.0141899
862.909	0.0141446
862.987	0.0139979
863.066	0.0140630
863.144	0.0142261
863.222	0.0141480
863.300	0.0141156
863.378	0.0139640
863.456	0.0141634
863.534	0.0139706
863.612	0.0141255
863.691	0.0143201
863.769	0.0140368
863.847	0.0139406
863.925	0.0141230
864.003	0.0140521
864.081	0.0139048
864.159	0.0139935
864.237	0.0140830
864.316	0.0140735
864.394	0.0140411
864.472	0.0141342
864.550	0.0140160
864.628	0.0141102
864.706	0.0139748
864.784	0.0140073
864.862	0.0141160
864.941	0.0140545
865.019	0.0141291
865.097	0.0140258
865.175	0.0141264
865.253	0.0141325
865.331	0.0141608
865.409	0.0140747
865.487	0.0140536
865.566	0.0140221
865.644	0.0140316
865.722	0.0141475
865.800	0.0140187
865.878	0.0141353
865.956	0.0140044
866.034	0.0140520
866.112	0.0140916
866.191	0.0141259
866.269	0.0141025
866.347	0.0140376
866.425	0.0141013
866.503	0.0140479
866.581	0.0140837
866.659	0.0140927
866.737	0.0140585
866.816	0.0139880
866.894	0.0141369
866.972	0.0141476
867.050	0.0139552
867.128	0.0140636
867.206	0.0140898
867.284	0.0140755
867.362	0.0142229
867.441	0.0141779
867.519	0.0140927
867.597	0.0140106
867.675	0.0140839
867.753	0.0141022
867.831	0.0141817
867.909	0.0140946
867.987	0.0140975
868.066	0.0141743
868.144	0.0140145
868.222	0.0142165
868.300	0.0141650
868.378	0.0141927
868.456	0.0140638
868.534	0.0141141
868.612	0.0139890
868.691	0.0140148
868.769	0.0141573
868.847	0.0140773
868.925	0.0140145
869.003	0.0142360
869.081	0.0141152
869.159	0.0140244
869.237	0.0141033
869.316	0.0140408
869.394	0.0139987
869.472	0.0140109
869.550	0.0140367
869.628	0.0142902
869.706	0.0141168
869.784	0.0141712
869.862	0.0141431
869.941	0.0142263
870.019	0.0141608
870.097	0.0139964
870.175	0.0141059
870.253	0.0140855
870.331	0.0141296
870.409	0.0140443
870.487	0.0141184
870.566	0.0141102
870.644	0.0139394
870.722	0.0141428
870.800	0.0142164
870.878	0.0141106
870.956	0.0140863
871.034	0.0141091
871.112	0.0141268
871.191	0.0141079
871.269	0.0141089
871.347	0.0139803
871.425	0.0141679
871.503	0.0141913
871.581	0.0141429
871.659	0.0140355
871.737	0.0140240
871.816	0.0140411
871.894	0.0140936
871.972	0.0141006
872.050	0.0140759
872.128	0.0140597
872.206	0.0141861
872.284	0.0141069
872.362	0.0140290
872.441	0.0140923
872.519	0.0142036
872.597	0.0141537
872.675	0.0140339
872.753	0.0140417
872.831	0.0141979
872.909	0.0142349
872.987	0.0141385
873.066	0.0140806
873.144	0.0140149
873.222	0.0142594
873.300	0.0140754
873.378	0.0140716
873.456	0.0142041
873.534	0.0140916
873.612	0.0141055
873.691	0.0141536
873.769	0.0140087
873.847	0.0141956
873.925	0.0140878
874.003	0.0141471
874.081	0.0141858
874.159	0.0140994
874.237	0.0140318
874.316	0.0140551
874.394	0.0141548
874.472	0.0141874
874.550	0.0141121
874.628	0.0141357
874.706	0.0141174
874.784	0.0140820
874.862	0.0141079
874.941	0.0141821
875.019	0.0141013
875.097	0.0140553
875.175	0.0140132
875.253	0.0140257
875.331	0.0141763
875.409	0.0141354
875.487	0.0142180
875.566	0.0141424
875.644	0.0141654
875.722	0.0141339
875.800	0.0140314
875.878	0.0141319
875.956	0.0141712
876.034	0.0142575
876.112	0.0142417
876.191	0.0142312
876.269	0.0140732
876.347	0.0141132
876.425	0.0141490
876.503	0.0142059
876.581	0.0141762
876.659	0.0140238
876.737	0.0141503
876.816	0.0141941
876.894	0.0142033
876.972	0.0141508
877.050	0.0140568
877.128	0.0141644
877.206	0.0141809
877.284	0.0140668
877.362	0.0140578
877.441	0.0140315
877.519	0.0141000
877.597	0.0139658
877.675	0.0141824
877.753	0.0141406
877.831	0.0140401
877.909	0.0139914
877.987	0.0140874
878.066	0.0142449
878.144	0.0140469
878.222	0.0140826
878.300	0.0141779
878.378	0.0140548
878.456	0.0141662
878.534	0.0140678
878.612	0.0141618
878.691	0.0140482
878.769	0.0140261
878.847	0.0142138
878.925	0.0142741
879.003	0.0140807
879.081	0.0141552
879.159	0.0140863
879.237	0.0141345
879.316	0.0140919
879.394	0.0142245
879.472	0.0142102
879.550	0.0139454
879.628	0.0140411
879.706	0.0141119
879.784	0.0141386
879.862	0.0140163
879.941	0.0140722
880.019	0.0140184
880.097	0.0139658
880.175	0.0141806
880.253	0.0141585
880.331	0.0140446
880.409	0.0142363
880.487	0.0139607
880.566	0.0140481
880.644	0.0140794
880.722	0.0141262
880.800	0.0140576
880.878	0.0141555
880.956	0.0140947
881.034	0.0140364
881.112	0.0141746
881.191	0.0142112
881.269	0.0140899
881.347	0.0140592
881.425	0.0139659
881.503	0.0140886
881.581	0.0140160
881.659	0.0140522
881.737	0.0139866
881.816	0.0140614
881.894	0.0140541
881.972	0.0141215
882.050	0.0140919
882.128	0.0141514
882.206	0.0140323
882.284	0.0140631
882.362	0.0141154
882.441	0.0142032
882.519	0.0139988
882.597	0.0140941
882.675	0.0139606
882.753	0.0140599
882.831	0.0141151
882.909	0.0139305
882.987	0.0141222
883.066	0.0140894
883.144	0.0140844
883.222	0.0141856
883.300	0.0140872
883.378	0.0140637
883.456	0.0141750
883.534	0.0141002
883.612	0.0141749
883.691	0.0140797
883.769	0.0140599
883.847	0.0141689
883.925	0.0141637
884.003	0.0141825
884.081	0.0141951
884.159	0.0140162
884.237	0.0140504
884.316	0.0142421
884.394	0.0139999
884.472	0.0140934
884.550	0.0141361
884.628	0.0141685
884.706	0.0141566
884.784	0.0140902
884.862	0.0139076
884.941	0.0140502
885.019	0.0141396
885.097	0.0140917
885.175	0.0140315
885.253	0.0140649
885.331	0.0140432
885.409	0.0142413
885.487	0.0141087
885.566	0.0140469
885.644	0.0140459
885.722	0.0140897
885.800	0.0141199
885.878	0.0140279
885.956	0.0140551
886.034	0.0141767
886.112	0.0141173
886.191	0.0141839
886.269	0.0140466
886.347	0.0141649
886.425	0.0141403
886.503	0.0140157
886.581	0.0142582
886.659	0.0139617
886.737	0.0140162
886.816	0.0140470
886.894	0.0140755
886.972	0.0141808
887.050	0.0141701
887.128	0.0139961
887.206	0.0139883
887.284	0.0140339
887.362	0.0140948
887.441	0.0141069
887.519	0.0139109
887.597	0.0141532
887.675	0.0141121
887.753	0.0139843
887.831	0.0139941
887.909	0.0141307
887.987	0.0140303
888.066	0.0141310
888.144	0.0140631
888.222	0.0141174
888.300	0.0140557
888.378	0.0140703
888.456	0.0140232
888.534	0.0140192
888.612	0.0142139
888.691	0.0141951
888.769	0.0141356
888.847	0.0141618
888.925	0.0141813
889.003	0.0140307
889.081	0.0141328
889.159	0.0141389
889.237	0.0140548
889.316	0.0141177
889.394	0.0140440
889.472	0.0140509
889.550	0.0139608
889.628	0.0142091
889.706	0.0141607
889.784	0.0141898
889.862	0.0141096
889.941	0.0141224
890.019	0.0140273
890.097	0.0140737
890.175	0.0140054
890.253	0.0141650
890.331	0.0141962
890.409	0.0140575
890.487	0.0141119
890.566	0.0140475
890.644	0.0140717
890.722	0.0140294
890.800	0.0141103
890.878	0.0141364
890.956	0.0140744
891.034	0.0141260
891.112	0.0140787
891.191	0.0141782
891.269	0.0141222
891.347	0.0141457
891.425	0.0140203
891.503	0.0139921
891.581	0.0140370
891.659	0.0140291
891.737	0.0139921
891.816	0.0141805
891.894	0.0140820
891.972	0.0141091
892.050	0.0140768
892.128	0.0141225
892.206	0.0141214
892.284	0.0140630
892.362	0.0140524
892.441	0.0141266
892.519	0.0139794
892.597	0.0140026
892.675	0.0139829
892.753	0.0140703
892.831	0.0140511
892.909	0.0140566
892.987	0.0140171
893.066	0.0139392
893.144	0.0140420
893.222	0.0141554
893.300	0.0140293
893.378	0.0142249
893.456	0.0140700
893.534	0.0140680
893.612	0.0139881
893.691	0.0139651
893.769	0.0140285
893.847	0.0141381
893.925	0.0140347
894.003	0.0140367
894.081	0.0140772
894.159	0.0140278
894.237	0.0141597
894.316	0.0139731
894.394	0.0140379
894.472	0.0140509
894.550	0.0140096
894.628	0.0141025
894.706	0.0140921
894.784	0.0140231
894.862	0.0141025
894.941	0.0139790
895.019	0.0139188
895.097	0.0140907
895.175	0.0140259
895.253	0.0140159
895.331	0.0139493
895.409	0.0140289
895.487	0.0141290
895.566	0.0140451
895.644	0.0139616
895.722	0.0139630
895.800	0.0140827
895.878	0.0141721
895.956	0.0142238
896.034	0.0139640
896.112	0.0141232
896.191	0.0141351
896.269	0.0141086
896.347	0.0141936
896.425	0.0141336
896.503	0.0139789
896.581	0.0139841
896.659	0.0141201
896.737	0.0141103
896.816	0.0141569
896.894	0.0141088
896.972	0.0141082
897.050	0.0140548
897.128	0.0139455
897.206	0.0141501
897.284	0.0140300
897.362	0.0142324
897.441	0.0141225
897.519	0.0141322
897.597	0.0141620
897.675	0.0142181
897.753	0.0141678
897.831	0.0141734
897.909	0.0141559
897.987	0.0141858
898.066	0.0140555
898.144	0.0141165
898.222	0.0140947
898.300	0.0142213
898.378	0.0142033
898.456	0.0141461
898.534	0.0141732
898.612	0.0141246
898.691	0.0140992
898.769	0.0142184
898.847	0.0142150
898.925	0.0141357
899.003	0.0140616
899.081	0.0140247
899.159	0.0142104
899.237	0.0141732
899.316	0.0140800
899.394	0.0141230
899.472	0.0139835
899.550	0.0141653
899.628	0.0142678
899.706	0.0142239
899.784	0.0142525
899.862	0.0140530
899.941	0.0140002
900.019	0.0142480
900.097	0.0140865
900.175	0.0141574
900.253	0.0141833
900.331	0.0140594
900.409	0.0142456
900.487	0.0141648
900.566	0.0140933
900.644	0.0142318
900.722	0.0140713
900.800	0.0141567
900.878	0.0141585
900.956	0.0141377
901.034	0.0142417
901.112	0.0141644
901.191	0.0142085
901.269	0.0139980
901.347	0.0139677
901.425	0.0140495
901.503	0.0140527
901.581	0.0141222
901.659	0.0141589
901.737	0.0141082
901.816	0.0140006
901.894	0.0139323
901.972	0.0141157
902.050	0.0141506
902.128	0.0140567
902.206	0.0140693
902.284	0.0141319
902.362	0.0139816
902.441	0.0140242
902.519	0.0141032
902.597	0.0140419
902.675	0.0139136
902.753	0.0141162
902.831	0.0140803
902.909	0.0140281
902.987	0.0141460
903.066	0.0140162
903.144	0.0140374
903.222	0.0139591
903.300	0.0139573
903.378	0.0139249
903.456	0.0140438
903.534	0.0140491
903.612	0.0139902
903.691	0.0140488
903.769	0.0141427
903.847	0.0140125
903.925	0.0140325
904.003	0.0140609
904.081	0.0140920
904.159	0.0141026
904.237	0.0141328
904.316	0.0139561
904.394	0.0139591
904.472	0.0140426
904.550	0.0140745
904.628	0.0139922
904.706	0.0140794
904.784	0.0139630
904.862	0.0140564
904.941	0.0141344
905.019	0.0140732
905.097	0.0140931
905.175	0.0141216
905.253	0.0140897
905.331	0.0140091
905.409	0.0141175
905.487	0.0140255
905.566	0.0141946
905.644	0.0141275
905.722	0.0141156
905.800	0.0139219
905.878	0.0140569
905.956	0.0139872
906.034	0.0140989
906.112	0.0142393
906.191	0.0140361
906.269	0.0141336
906.347	0.0141537
906.425	0.0140668
906.503	0.0140578
906.581	0.0142562
906.659	0.0141209
906.737	0.0140515
906.816	0.0139835
906.894	0.0141865
906.972	0.0140621
907.050	0.0141567
907.128	0.0141342
907.206	0.0141304
907.284	0.0140823
907.362	0.0141741
907.441	0.0142075
907.519	0.0141183
907.597	0.0141021
907.675	0.0140020
907.753	0.0141264
907.831	0.0141447
907.909	0.0140123
907.987	0.0141021
908.066	0.0140097
908.144	0.0140486
908.222	0.0140845
908.300	0.0140913
908.378	0.0140561
908.456	0.0141122
908.534	0.0142099
908.612	0.0141691
908.691	0.0141132
908.769	0.0141969
908.847	0.0141521
908.925	0.0142374
909.003	0.0142814
909.081	0.0141402
909.159	0.0141842
909.237	0.0141936
909.316	0.0141561
909.394	0.0141777
909.472	0.0140955
909.550	0.0141091
909.628	0.0142392
909.706	0.0140842
909.784	0.0141361
909.862	0.0141082
909.941	0.0141073
910.019	0.0140914
910.097	0.0140505
910.175	0.0140979
910.253	0.0141357
910.331	0.0140816
910.409	0.0140323
910.487	0.0142110
910.566	0.0140141
910.644	0.0141283
910.722	0.0141829
910.800	0.0140729
910.878	0.0140005
910.956	0.0141035
911.034	0.0141419
911.112	0.0141669
911.191	0.0140936
911.269	0.0139639
911.347	0.0140701
911.425	0.0141711
911.503	0.0141507
911.581	0.0140931
911.659	0.0141798
911.737	0.0140868
911.816	0.0139758
911.894	0.0141476
911.972	0.0140993
912.050	0.0141100
912.128	0.0140710
912.206	0.0139957
912.284	0.0139948
912.362	0.0140596
912.441	0.0141309
912.519	0.0140602
912.597	0.0139816
912.675	0.0140853
912.753	0.0141557
912.831	0.0139413
912.909	0.0141097
912.987	0.0139468
913.066	0.0140875
913.144	0.0141098
913.222	0.0140714
913.300	0.0140434
913.378	0.0142075
913.456	0.0139867
913.534	0.0138830
913.612	0.0140312
913.691	0.0141724
913.769	0.0141927
913.847	0.0141287
913.925	0.0141371
914.003	0.0140446
914.081	0.0141665
914.159	0.0140352
914.237	0.0140903
914.316	0.0140217
914.394	0.0141098
914.472	0.0140282
914.550	0.0139379
914.628	0.0139852
914.706	0.0140619
914.784	0.0139192
914.862	0.0139828
914.941	0.0141110
915.019	0.0139790
915.097	0.0141450
915.175	0.0141656
915.253	0.0140931
915.331	0.0139526
915.409	0.0141553
915.487	0.0139941
915.566	0.0140305
915.644	0.0140922
915.722	0.0140612
915.800	0.0141277
915.878	0.0140124
915.956	0.0140334
916.034	0.0140993
916.112	0.0141618
916.191	0.0140102
916.269	0.0139637
916.347	0.0140367
916.425	0.0140635
916.503	0.0141928
916.581	0.0140268
916.659	0.0139963
916.737	0.0141119
916.816	0.0141199
916.894	0.0140177
916.972	0.0140272
917.050	0.0140609
917.128	0.0141663
917.206	0.0138961
917.284	0.0140348
917.362	0.0139933
917.441	0.0140540
917.519	0.0141109
917.597	0.0141836
917.675	0.0140466
917.753	0.0140576
917.831	0.0140992
917.909	0.0140239
917.987	0.0141093
918.066	0.0139767
918.144	0.0140982
918.222	0.0139947
918.300	0.0139550
918.378	0.0140405
918.456	0.0141152
918.534	0.0140486
918.612	0.0140784
918.691	0.0141568
918.769	0.0141194
918.847	0.0141227
918.925	0.0140788
919.003	0.0142171
919.081	0.0140073
919.159	0.0141322
919.237	0.0140557
919.316	0.0139790
919.394	0.0141003
919.472	0.0141835
919.550	0.0140526
919.628	0.0139926
919.706	0.0140649
919.784	0.0140536
919.862	0.0141113
919.941	0.0141722
920.019	0.0140575
920.097	0.0141071
920.175	0.0140240
920.253	0.0142013
920.331	0.0141092
920.409	0.0140036
920.487	0.0140475
920.566	0.0140493
920.644	0.0141553
920.722	0.0141751
920.800	0.0141071
920.878	0.0140620
920.956	0.0141978
921.034	0.0140615
921.112	0.0141000
921.191	0.0141688
921.269	0.0141267
921.347	0.0140160
921.425	0.0140233
921.503	0.0140610
921.581	0.0140273
921.659	0.0140147
921.737	0.0140053
921.816	0.0140679
921.894	0.0141151
921.972	0.0140610
922.050	0.0140775
922.128	0.0143330
922.206	0.0141619
922.284	0.0141098
922.362	0.0140311
922.441	0.0140540
922.519	0.0141780
922.597	0.0141613
922.675	0.0141085
922.753	0.0140759
922.831	0.0140939
922.909	0.0141367
922.987	0.0141630
923.066	0.0140873
923.144	0.0140434
923.222	0.0140504
923.300	0.0139494
923.378	0.0141005
923.456	0.0140315
923.534	0.0139028
923.612	0.0141570
923.691	0.0140598
923.769	0.0138568
923.847	0.0141778
923.925	0.0142032
924.003	0.0140263
924.081	0.0142140
924.159	0.0142376
924.237	0.0140678
924.316	0.0141441
924.394	0.0142545
924.472	0.0141055
924.550	0.0141029
924.628	0.0139546
924.706	0.0139556
924.784	0.0141199
924.862	0.0140721
924.941	0.0141118
925.019	0.0141507
925.097	0.0141121
925.175	0.0140580
925.253	0.0141122
925.331	0.0140359
925.409	0.0140437
925.487	0.0141180
925.566	0.0140722
925.644	0.0139433
925.722	0.0140656
925.800	0.0141327
925.878	0.0141026
925.956	0.0140928
926.034	0.0140017
926.112	0.0141428
926.191	0.0140806
926.269	0.0141137
926.347	0.0140104
926.425	0.0140445
926.503	0.0140189
926.581	0.0140571
926.659	0.0140005
926.737	0.0139668
926.816	0.0140896
926.894	0.0140871
926.972	0.0141413
927.050	0.0140991
927.128	0.0141786
927.206	0.0140123
927.284	0.0140309
927.362	0.0141324
927.441	0.0140411
927.519	0.0140688
927.597	0.0140535
927.675	0.0142750
927.753	0.0141360
927.831	0.0140190
927.909	0.0141176
927.987	0.0141056
928.066	0.0142761
928.144	0.0141848
928.222	0.0141285
928.300	0.0142501
928.378	0.0142188
928.456	0.0141836
928.534	0.0141121
928.612	0.0142283
928.691	0.0141167
928.769	0.0141551
928.847	0.0140840
928.925	0.0139903
929.003	0.0141582
929.081	0.0139873
929.159	0.0139598
929.237	0.0140759
929.316	0.0140663
929.394	0.0141828
929.472	0.0141874
929.550	0.0139871
929.628	0.0141420
929.706	0.0141348
929.784	0.0141878
929.862	0.0141019
929.941	0.0141508
930.019	0.0140361
930.097	0.0141121
930.175	0.0141025
930.253	0.0142085
930.331	0.0142361
930.409	0.0141396
930.487	0.0141792
930.566	0.0142160
930.644	0.0140634
930.722	0.0140630
930.800	0.0141300
930.878	0.0140936
930.956	0.0140442
931.034	0.0139919
931.112	0.0140620
931.191	0.0141052
931.269	0.0141691
931.347	0.0142339
931.425	0.0140749
931.503	0.0141013
931.581	0.0141010
931.659	0.0140854
931.737	0.0142274
931.816	0.0140357
931.894	0.0140038
931.972	0.0141372
932.050	0.0141119
932.128	0.0139969
932.206	0.0140413
932.284	0.0141778
932.362	0.0140824
932.441	0.0140976
932.519	0.0140533
932.597	0.0140939
932.675	0.0140450
932.753	0.0141550
932.831	0.0142593
932.909	0.0140896
932.987	0.0140485
933.066	0.0140189
933.144	0.0140740
933.222	0.0140982
933.300	0.0141085
933.378	0.0140208
933.456	0.0141962
933.534	0.0143195
933.612	0.0141575
933.691	0.0140778
933.769	0.0140754
933.847	0.0141006
933.925	0.0140320
934.003	0.0139441
934.081	0.0141257
934.159	0.0141354
934.237	0.0139612
934.316	0.0140510
934.394	0.0140913
934.472	0.0139077
934.550	0.0138947
934.628	0.0140202
934.706	0.0138990
934.784	0.0140869
934.862	0.0139467
934.941	0.0139267
935.019	0.0140940
935.097	0.0139376
935.175	0.0141373
935.253	0.0141013
935.331	0.0141068
935.409	0.0140326
935.487	0.0141472
935.566	0.0140546
935.644	0.0141289
935.722	0.0141698
935.800	0.0141084
935.878	0.0140901
935.956	0.0140184
936.034	0.0141242
936.112	0.0141175
936.191	0.0140281
936.269	0.0141248
936.347	0.0141274
936.425	0.0141642
936.503	0.0140704
936.581	0.0140116
936.659	0.0139500
936.737	0.0140510
936.816	0.0141453
936.894	0.0139086
936.972	0.0139376
937.050	0.0141359
937.128	0.0141197
937.206	0.0140121
937.284	0.0139304
937.362	0.0140369
937.441	0.0141141
937.519	0.0142777
937.597	0.0140864
937.675	0.0140868
937.753	0.0141565
937.831	0.0139661
937.909	0.0140662
937.987	0.0141426
938.066	0.0139476
938.144	0.0140247
938.222	0.0140672
938.300	0.0140161
938.378	0.0140585
938.456	0.0141412
938.534	0.0141240
938.612	0.0140322
938.691	0.0139347
938.769	0.0139646
938.847	0.0141380
938.925	0.0141982
939.003	0.0140974
939.081	0.0140963
939.159	0.0141077
939.237	0.0140336
939.316	0.0141030
939.394	0.0139713
939.472	0.0140083
939.550	0.0140272
939.628	0.0140582
939.706	0.0139799
939.784	0.0141808
939.862	0.0140651
939.941	0.0141550
940.019	0.0141687
940.097	0.0140785
940.175	0.0140525
940.253	0.0140012
940.331	0.0141875
940.409	0.0141600
940.487	0.0140968
940.566	0.0143317
940.644	0.0141252
940.722	0.0140562
940.800	0.0140128
940.878	0.0141982
940.956	0.0140977
941.034	0.0141125
941.112	0.0141035
941.191	0.0139910
941.269	0.0140386
941.347	0.0141067
941.425	0.0139820
941.503	0.0140665
941.581	0.0140773
941.659	0.0141394
941.737	0.0140261
941.816	0.0140826
941.894	0.0141145
941.972	0.0140966
942.050	0.0140434
942.128	0.0141650
942.206	0.0140784
942.284	0.0140338
942.362	0.0141033
942.441	0.0140961
942.519	0.0142069
942.597	0.0142073
942.675	0.0141269
942.753	0.0140098
942.831	0.0140955
942.909	0.0142410
942.987	0.0141192
943.066	0.0141383
943.144	0.0141281
943.222	0.0141151
943.300	0.0140604
943.378	0.0141103
943.456	0.0142575
943.534	0.0142874
943.612	0.0141078
943.691	0.0141268
943.769	0.0141238
943.847	0.0139503
943.925	0.0141344
944.003	0.0140663
944.081	0.0141383
944.159	0.0141559
944.237	0.0141548
944.316	0.0139887
944.394	0.0139915
944.472	0.0141023
944.550	0.0141158
944.628	0.0139508
944.706	0.0139074
944.784	0.0140767
944.862	0.0139917
944.941	0.0140859
945.019	0.0139653
945.097	0.0140559
945.175	0.0139463
945.253	0.0140087
945.331	0.0141131
945.409	0.0139519
945.487	0.0139686
945.566	0.0140491
945.644	0.0140540
945.722	0.0139307
945.800	0.0139789
945.878	0.0138861
945.956	0.0139216
946.034	0.0141460
946.112	0.0141524
946.191	0.0139393
946.269	0.0140753
946.347	0.0139886
946.425	0.0141126
946.503	0.0139063
946.581	0.0139874
946.659	0.0140900
946.737	0.0140565
946.816	0.0139717
946.894	0.0140915
946.972	0.0141127
947.050	0.0140742
947.128	0.0140702
947.206	0.0139674
947.284	0.0140218
947.362	0.0140329
947.441	0.0141932
947.519	0.0140926
947.597	0.0140026
947.675	0.0141076
947.753	0.0139795
947.831	0.0138941
947.909	0.0140561
947.987	0.0140279
948.066	0.0140148
948.144	0.0140773
948.222	0.0141011
948.300	0.0140207
948.378	0.0141444
948.456	0.0141193
948.534	0.0141338
948.612	0.0140641
948.691	0.0139536
948.769	0.0141435
948.847	0.0141613
948.925	0.0140799
949.003	0.0140225
949.081	0.0140302
949.159	0.0140913
949.237	0.0140646
949.316	0.0141689
949.394	0.0141623
949.472	0.0140735
949.550	0.0140271
949.628	0.0140264
949.706	0.0141715
949.784	0.0141545
949.862	0.0141222
949.941	0.0141551
950.019	0.0142328
950.097	0.0141503
950.175	0.0141939
950.253	0.0140400
950.331	0.0141020
950.409	0.0141986
950.487	0.0139950
950.566	0.0142208
950.644	0.0142094
950.722	0.0140770
950.800	0.0140138
950.878	0.0141476
950.956	0.0142145
951.034	0.0141609
951.112	0.0141069
951.191	0.0141154
951.269	0.0140468
951.347	0.0140650
951.425	0.0139220
951.503	0.0141132
951.581	0.0141269
951.659	0.0141381
951.737	0.0142352
951.816	0.0141080
951.894	0.0141669
951.972	0.0141885
952.050	0.0140726
952.128	0.0141966
952.206	0.0140617
952.284	0.0141518
952.362	0.0140652
952.441	0.0141332
952.519	0.0141544
952.597	0.0141814
952.675	0.0141082
952.753	0.0140849
952.831	0.0142381
952.909	0.0141510
952.987	0.0140919
953.066	0.0140695
953.144	0.0141051
953.222	0.0141380
953.300	0.0140363
953.378	0.0141122
953.456	0.0141418
953.534	0.0141802
953.612	0.0141718
953.691	0.0142076
953.769	0.0141963
953.847	0.0142249
953.925	0.0142635
954.003	0.0142850
954.081	0.0141944
954.159	0.0140255
954.237	0.0141077
954.316	0.0141792
954.394	0.0141786
954.472	0.0140750
954.550	0.0141057
954.628	0.0140576
954.706	0.0140821
954.784	0.0139765
954.862	0.0141549
954.941	0.0141547
955.019	0.0140763
955.097	0.0140604
955.175	0.0141685
955.253	0.0143320
955.331	0.0141917
955.409	0.0140088
955.487	0.0141279
955.566	0.0140956
955.644	0.0139484
955.722	0.0141541
955.800	0.0140646
955.878	0.0140482
955.956	0.0140352
956.034	0.0140621
956.112	0.0141733
956.191	0.0140479
956.269	0.0140900
956.347	0.0141122
956.425	0.0140710
956.503	0.0141694
956.581	0.0141929
956.659	0.0141817
956.737	0.0141612
956.816	0.0140162
956.894	0.0140555
956.972	0.0140982
957.050	0.0141635
957.128	0.0140861
957.206	0.0140350
957.284	0.0141724
957.362	0.0141831
957.441	0.0141394
957.519	0.0141227
957.597	0.0141476
957.675	0.0141330
957.753	0.0139093
957.831	0.0142438
957.909	0.0141155
957.987	0.0140986
958.066	0.0141451
958.144	0.0142072
958.222	0.0142822
958.300	0.0141235
958.378	0.0140565
958.456	0.0141331
958.534	0.0140913
958.612	0.0139930
958.691	0.0140620
958.769	0.0141162
958.847	0.0139971
958.925	0.0141111
959.003	0.0142027
959.081	0.0140326
959.159	0.0140807
959.237	0.0140894
959.316	0.0140513
959.394	0.0141055
959.472	0.0141599
959.550	0.0140551
959.628	0.0140914
959.706	0.0141370
959.784	0.0141662
959.862	0.0141883
959.941	0.0140912
960.019	0.0140861
960.097	0.0140784
960.175	0.0142967
960.253	0.0141296
960.331	0.0140810
960.409	0.0140858
960.487	0.0141489
960.566	0.0140543
960.644	0.0139992
960.722	0.0142133
960.800	0.0141141
960.878	0.0138815
960.956	0.0141167
961.034	0.0141712
961.112	0.0140901
961.191	0.0139144
961.269	0.0139492
961.347	0.0139935
961.425	0.0139591
961.503	0.0140333
961.581	0.0140914
961.659	0.0140413
961.737	0.0139816
961.816	0.0140765
961.894	0.0139522
961.972	0.0139381
962.050	0.0140105
962.128	0.0140456
962.206	0.0140640
962.284	0.0140462
962.362	0.0140720
962.441	0.0139854
962.519	0.0141569
962.597	0.0142004
962.675	0.0141311
962.753	0.0140675
962.831	0.0140015
962.909	0.0140372
962.987	0.0140411
963.066	0.0140544
963.144	0.0140685
963.222	0.0140569
963.300	0.0140478
963.378	0.0141322
963.456	0.0142198
963.534	0.0141502
963.612	0.0142870
963.691	0.0140280
963.769	0.0141277
963.847	0.0141404
963.925	0.0142644
964.003	0.0141068
964.081	0.0141230
964.159	0.0141505
964.237	0.0141722
964.316	0.0142434
964.394	0.0141505
964.472	0.0141402
964.550	0.0140883
964.628	0.0140891
964.706	0.0141180
964.784	0.0140360
964.862	0.0140518
964.941	0.0141595
965.019	0.0141402
965.097	0.0142373
965.175	0.0141792
965.253	0.0141111
965.331	0.0141686
965.409	0.0142083
965.487	0.0140741
965.566	0.0141621
965.644	0.0140083
965.722	0.0142345
965.800	0.0140403
965.878	0.0142364
965.956	0.0141417
966.034	0.0141470
966.112	0.0142665
966.191	0.0141564
966.269	0.0140836
966.347	0.0140541
966.425	0.0140125
966.503	0.0141790
966.581	0.0140780
966.659	0.0140582
966.737	0.0140505
966.816	0.0141438
966.894	0.0140986
966.972	0.0141204
967.050	0.0139632
967.128	0.0141311
967.206	0.0141236
967.284	0.0140633
967.362	0.0140363
967.441	0.0140527
967.519	0.0141460
967.597	0.0141875
967.675	0.0142186
967.753	0.0140049
967.831	0.0141259
967.909	0.0141698
967.987	0.0140968
968.066	0.0142418
968.144	0.0142097
968.222	0.0141344
968.300	0.0142335
968.378	0.0140941
968.456	0.0141624
968.534	0.0141543
968.612	0.0141304
968.691	0.0140755
968.769	0.0141284
968.847	0.0141598
968.925	0.0140351
969.003	0.0139953
969.081	0.0142278
969.159	0.0142604
969.237	0.0141062
969.316	0.0141845
969.394	0.0140389
969.472	0.0141235
969.550	0.0142036
969.628	0.0139662
969.706	0.0141070
969.784	0.0141145
969.862	0.0141692
969.941	0.0140569
970.019	0.0140136
970.097	0.0141084
970.175	0.0140458
970.253	0.0140652
970.331	0.0141084
970.409	0.0142116
970.487	0.0140854
970.566	0.0140800
970.644	0.0140699
970.722	0.0140843
970.800	0.0139742
970.878	0.0140848
970.956	0.0140598
971.034	0.0140981
971.112	0.0140664
971.191	0.0140971
971.269	0.0141527
971.347	0.0141235
971.425	0.0140049
971.503	0.0139095
971.581	0.0141978
971.659	0.0140257
971.737	0.0140963
971.816	0.0141451
971.894	0.0140207
971.972	0.0141010
972.050	0.0141215
972.128	0.0140163
972.206	0.0139946
972.284	0.0141132
972.362	0.0140727
972.441	0.0140548
972.519	0.0138113
972.597	0.0139877
972.675	0.0140144
972.753	0.0140874
972.831	0.0141200
972.909	0.0139531
972.987	0.0140997
973.066	0.0141816
973.144	0.0140205
973.222	0.0139873
973.300	0.0140475
973.378	0.0140701
973.456	0.0139957
973.534	0.0142338
973.612	0.0141553
973.691	0.0140497
973.769	0.0141474
973.847	0.0142336
973.925	0.0141757
974.003	0.0141419
974.081	0.0141525
974.159	0.0141093
974.237	0.0141552
974.316	0.0141450
974.394	0.0140382
974.472	0.0140922
974.550	0.0140566
974.628	0.0142017
974.706	0.0140578
974.784	0.0140266
974.862	0.0140517
974.941	0.0140544
975.019	0.0140994
975.097	0.0141234
975.175	0.0140282
975.253	0.0140641
975.331	0.0141467
975.409	0.0142130
975.487	0.0140897
975.566	0.0142366
975.644	0.0141212
975.722	0.0141538
975.800	0.0141959
975.878	0.0141458
975.956	0.0141348
976.034	0.0141693
976.112	0.0141508
976.191	0.0140464
976.269	0.0140896
976.347	0.0141738
976.425	0.0141633
976.503	0.0140587
976.581	0.0141360
976.659	0.0142376
976.737	0.0140952
976.816	0.0141709
976.894	0.0141838
976.972	0.0140964
977.050	0.0140773
977.128	0.0141256
977.206	0.0141140
977.284	0.0140657
977.362	0.0142149
977.441	0.0142278
977.519	0.0140260
977.597	0.0141391
977.675	0.0141171
977.753	0.0142057
977.831	0.0141348
977.909	0.0141611
977.987	0.0141425
978.066	0.0140627
978.144	0.0141115
978.222	0.0141368
978.300	0.0141685
978.378	0.0142163
978.456	0.0140549
978.534	0.0140292
978.612	0.0142755
978.691	0.0141815
978.769	0.0143281
978.847	0.0142604
978.925	0.0141040
979.003	0.0141827
979.081	0.0141166
979.159	0.0142351
979.237	0.0141457
979.316	0.0141852
979.394	0.0141537
979.472	0.0140948
979.550	0.0141154
979.628	0.0140899
979.706	0.0141073
979.784	0.0142274
979.862	0.0141539
979.941	0.0141521
980.019	0.0141366
980.097	0.0141389
980.175	0.0143034
980.253	0.0141536
980.331	0.0141615
980.409	0.0139925
980.487	0.0140999
980.566	0.0140869
980.644	0.0141648
980.722	0.0140291
980.800	0.0141197
980.878	0.0141492
980.956	0.0140406
981.034	0.0141908
981.112	0.0140435
981.191	0.0141074
981.269	0.0140611
981.347	0.0142030
981.425	0.0141800
981.503	0.0141257
981.581	0.0141577
981.659	0.0141594
981.737	0.0140051
981.816	0.0140985
981.894	0.0140580
981.972	0.0140668
982.050	0.0140063
982.128	0.0140685
982.206	0.0139902
982.284	0.0141241
982.362	0.0140488
982.441	0.0140676
982.519	0.0140921
982.597	0.0140264
982.675	0.0141320
982.753	0.0141833
982.831	0.0139449
982.909	0.0140520
982.987	0.0140375
983.066	0.0140912
983.144	0.0140508
983.222	0.0142929
983.300	0.0142232
983.378	0.0141796
983.456	0.0140497
983.534	0.0139868
983.612	0.0141470
983.691	0.0140340
983.769	0.0141564
983.847	0.0141995
983.925	0.0143340
984.003	0.0141284
984.081	0.0140198
984.159	0.0140719
984.237	0.0140871
984.316	0.0140958
984.394	0.0141246
984.472	0.0141135
984.550	0.0140059
984.628	0.0141481
984.706	0.0141099
984.784	0.0141762
984.862	0.0140986
984.941	0.0142500
985.019	0.0142494
985.097	0.0141231
985.175	0.0141504
985.253	0.0141122
985.331	0.0140479
985.409	0.0140598
985.487	0.0141570
985.566	0.0140698
985.644	0.0140431
985.722	0.0140728
985.800	0.0140998
985.878	0.0139691
985.956	0.0142188
986.034	0.0140058
986.112	0.0139535
986.191	0.0139735
986.269	0.0140600
986.347	0.0141442
986.425	0.0141001
986.503	0.0140965
986.581	0.0141750
986.659	0.0141981
986.737	0.0141615
986.816	0.0141601
986.894	0.0141232
986.972	0.0142038
987.050	0.0141358
987.128	0.0140893
987.206	0.0141578
987.284	0.0140282
987.362	0.0140569
987.441	0.0139644
987.519	0.0141400
987.597	0.0141595
987.675	0.0141114
987.753	0.0141941
987.831	0.0140932
987.909	0.0140960
987.987	0.0140897
988.066	0.0141293
988.144	0.0140828
988.222	0.0140462
988.300	0.0142226
988.378	0.0140898
988.456	0.0141224
988.534	0.0141087
988.612	0.0142168
988.691	0.0140719
988.769	0.0141005
988.847	0.0141048
988.925	0.0140400
989.003	0.0141920
989.081	0.0140678
989.159	0.0141210
989.237	0.0141054
989.316	0.0140370
989.394	0.0141027
989.472	0.0142011
989.550	0.0139827
989.628	0.0139001
989.706	0.0140799
989.784	0.0140712
989.862	0.0140591
989.941	0.0140723
990.019	0.0139973
990.097	0.0140246
990.175	0.0140540
990.253	0.0140572
990.331	0.0139697
990.409	0.0140272
990.487	0.0140384
990.566	0.0140116
990.644	0.0140285
990.722	0.0141305
990.800	0.0139616
990.878	0.0140488
990.956	0.0141537
991.034	0.0141480
991.112	0.0140471
991.191	0.0142370
991.269	0.0140736
991.347	0.0141468
991.425	0.0141853
991.503	0.0140472
991.581	0.0141305
991.659	0.0141531
991.737	0.0140374
991.816	0.0140271
991.894	0.0142272
991.972	0.0139774
992.050	0.0139787
992.128	0.0141147
992.206	0.0141172
992.284	0.0141283
992.362	0.0139736
992.441	0.0140144
992.519	0.0140226
992.597	0.0141602
992.675	0.0141843
992.753	0.0138951
992.831	0.0139278
992.909	0.0141453
992.987	0.0141328
993.066	0.0142269
993.144	0.0140347
993.222	0.0140893
993.300	0.0139144
993.378	0.0141121
993.456	0.0139935
993.534	0.0140215
993.612	0.0141212
993.691	0.0141048
993.769	0.0140574
993.847	0.0141560
993.925	0.0140592
994.003	0.0140797
994.081	0.0139941
994.159	0.0141014
994.237	0.0141386
994.316	0.0143736
994.394	0.0140772
994.472	0.0141145
994.550	0.0140701
994.628	0.0140055
994.706	0.0140060
994.784	0.0140420
994.862	0.0142062
994.941	0.0140717
995.019	0.0140423
995.097	0.0139989
995.175	0.0140536
995.253	0.0139955
995.331	0.0141198
995.409	0.0139827
995.487	0.0140326
995.566	0.0140488
995.644	0.0141325
995.722	0.0141757
995.800	0.0140702
995.878	0.0141486
995.956	0.0141084
996.034	0.0141204
996.112	0.0140146
996.191	0.0140517
996.269	0.0141026
996.347	0.0140794
996.425	0.0139159
996.503	0.0140003
996.581	0.0139436
996.659	0.0140326
996.737	0.0140530
996.816	0.0140791
996.894	0.0140763
996.972	0.0142519
997.050	0.0141183
997.128	0.0140691
997.206	0.0141755
997.284	0.0140543
997.362	0.0140668
997.441	0.0141586
997.519	0.0141497
997.597	0.0141064
997.675	0.0140849
997.753	0.0140202
997.831	0.0141531
997.909	0.0142520
997.987	0.0140765
998.066	0.0140115
998.144	0.0140743
998.222	0.0141443
998.300	0.0140724
998.378	0.0139293
998.456	0.0140550
998.534	0.0140285
998.612	0.0140369
998.691	0.0140512
998.769	0.0140536
998.847	0.0141035
998.925	0.0139480
