05/07/2022	17:03:36	Ver.	4.1	UNKNOWN
Optical Delay	639.989416	Delta X		0.078125	Sweeps	1	Scan Rate	0/0
Coordinates	Axis 1	NaN	Axis 2	NaN	Axis 3	NaN	Axis 4	NaN	Axis 5	NaN	Axis 6	0.000000
TX Power	0.000000	RX Power	0.000000

639.989	0.0129300
640.068	0.0128695
640.146	0.0129029
640.224	0.0128856
640.302	0.0130484
640.380	0.0131042
640.458	0.0129828
640.536	0.0128355
640.614	0.0130474
640.693	0.0131111
640.771	0.0128629
640.849	0.0129360
640.927	0.0128718
641.005	0.0128992
641.083	0.0129976
641.161	0.0129246
641.239	0.0130038
641.318	0.0130051
641.396	0.0130000
641.474	0.0130379
641.552	0.0130652
641.630	0.0129076
641.708	0.0129603
641.786	0.0129521
641.864	0.0129218
641.943	0.0129159
642.021	0.0129182
642.099	0.0130218
642.177	0.0129369
642.255	0.0129664
642.333	0.0128427
642.411	0.0128191
642.489	0.0128676
642.568	0.0128715
642.646	0.0128380
642.724	0.0129066
642.802	0.0128035
642.880	0.0129672
642.958	0.0128633
643.036	0.0127669
643.114	0.0128722
643.193	0.0130270
643.271	0.0127826
643.349	0.0129303
643.427	0.0129933
643.505	0.0129710
643.583	0.0128952
643.661	0.0130392
643.739	0.0129004
643.818	0.0129908
643.896	0.0128743
643.974	0.0129015
644.052	0.0128707
644.130	0.0129325
644.208	0.0130216
644.286	0.0129716
644.364	0.0128798
644.443	0.0129601
644.521	0.0127403
644.599	0.0128650
644.677	0.0129309
644.755	0.0129261
644.833	0.0129227
644.911	0.0128993
644.989	0.0128990
645.068	0.0129852
645.146	0.0128888
645.224	0.0128986
645.302	0.0129293
645.380	0.0128241
645.458	0.0128458
645.536	0.0129383
645.614	0.0128699
645.693	0.0128594
645.771	0.0131094
645.849	0.0129369
645.927	0.0127520
646.005	0.0128873
646.083	0.0128805
646.161	0.0128809
646.239	0.0129061
646.318	0.0128538
646.396	0.0128782
646.474	0.0128999
646.552	0.0128855
646.630	0.0129586
646.708	0.0129853
646.786	0.0128856
646.864	0.0129263
646.943	0.0128408
647.021	0.0128992
647.099	0.0128043
647.177	0.0128922
647.255	0.0129014
647.333	0.0129085
647.411	0.0129699
647.489	0.0128532
647.568	0.0129255
647.646	0.0128963
647.724	0.0128793
647.802	0.0129282
647.880	0.0129782
647.958	0.0129230
648.036	0.0129903
648.114	0.0129803
648.193	0.0128962
648.271	0.0129388
648.349	0.0128324
648.427	0.0128963
648.505	0.0129998
648.583	0.0128979
648.661	0.0128284
648.739	0.0129180
648.818	0.0129518
648.896	0.0128598
648.974	0.0129015
649.052	0.0128130
649.130	0.0128828
649.208	0.0130120
649.286	0.0128664
649.364	0.0129120
649.443	0.0129592
649.521	0.0128676
649.599	0.0128213
649.677	0.0128610
649.755	0.0129152
649.833	0.0128355
649.911	0.0129972
649.989	0.0129767
650.068	0.0129814
650.146	0.0129388
650.224	0.0129533
650.302	0.0128860
650.380	0.0128642
650.458	0.0129627
650.536	0.0128295
650.614	0.0129128
650.693	0.0130288
650.771	0.0127786
650.849	0.0127280
650.927	0.0129433
651.005	0.0129540
651.083	0.0128562
651.161	0.0128037
651.239	0.0128193
651.318	0.0128587
651.396	0.0127935
651.474	0.0128978
651.552	0.0129546
651.630	0.0130154
651.708	0.0129220
651.786	0.0128587
651.864	0.0128441
651.943	0.0129861
652.021	0.0129498
652.099	0.0127962
652.177	0.0129102
652.255	0.0129091
652.333	0.0129449
652.411	0.0128922
652.489	0.0129359
652.568	0.0129379
652.646	0.0129596
652.724	0.0129301
652.802	0.0129383
652.880	0.0130434
652.958	0.0129661
653.036	0.0128393
653.114	0.0129441
653.193	0.0129345
653.271	0.0130074
653.349	0.0129478
653.427	0.0129069
653.505	0.0128937
653.583	0.0128976
653.661	0.0129933
653.739	0.0129837
653.818	0.0128912
653.896	0.0129665
653.974	0.0129753
654.052	0.0129438
654.130	0.0129111
654.208	0.0127943
654.286	0.0129242
654.364	0.0128687
654.443	0.0128204
654.521	0.0129842
654.599	0.0128497
654.677	0.0129541
654.755	0.0129683
654.833	0.0128832
654.911	0.0127845
654.989	0.0130131
655.068	0.0129194
655.146	0.0129675
655.224	0.0130116
655.302	0.0129229
655.380	0.0128590
655.458	0.0129872
655.536	0.0128139
655.614	0.0129753
655.693	0.0130527
655.771	0.0129453
655.849	0.0127653
655.927	0.0129015
656.005	0.0128954
656.083	0.0129485
656.161	0.0129175
656.239	0.0129111
656.318	0.0129556
656.396	0.0128772
656.474	0.0129546
656.552	0.0128992
656.630	0.0129026
656.708	0.0128722
656.786	0.0127681
656.864	0.0129023
656.943	0.0129243
657.021	0.0130492
657.099	0.0129681
657.177	0.0128700
657.255	0.0128554
657.333	0.0128783
657.411	0.0128324
657.489	0.0128252
657.568	0.0128820
657.646	0.0129727
657.724	0.0129455
657.802	0.0128889
657.880	0.0128546
657.958	0.0128941
658.036	0.0129965
658.114	0.0129682
658.193	0.0129181
658.271	0.0127135
658.349	0.0129323
658.427	0.0130038
658.505	0.0129013
658.583	0.0128386
658.661	0.0129562
658.739	0.0129236
658.818	0.0130536
658.896	0.0127184
658.974	0.0127945
659.052	0.0129095
659.130	0.0130386
659.208	0.0129427
659.286	0.0127273
659.364	0.0128185
659.443	0.0128876
659.521	0.0129185
659.599	0.0128828
659.677	0.0129659
659.755	0.0127814
659.833	0.0129267
659.911	0.0129099
659.989	0.0129237
660.068	0.0128464
660.146	0.0128696
660.224	0.0128554
660.302	0.0129745
660.380	0.0129590
660.458	0.0129008
660.536	0.0127253
660.614	0.0127671
660.693	0.0129827
660.771	0.0128592
660.849	0.0129463
660.927	0.0128076
661.005	0.0127574
661.083	0.0128732
661.161	0.0128007
661.239	0.0128046
661.318	0.0128234
661.396	0.0128185
661.474	0.0128806
661.552	0.0128167
661.630	0.0127552
661.708	0.0128851
661.786	0.0128921
661.864	0.0128467
661.943	0.0128758
662.021	0.0128271
662.099	0.0129066
662.177	0.0128014
662.255	0.0128125
662.333	0.0127731
662.411	0.0128568
662.489	0.0129084
662.568	0.0128998
662.646	0.0130328
662.724	0.0129143
662.802	0.0129689
662.880	0.0130322
662.958	0.0128593
663.036	0.0128120
663.114	0.0129527
663.193	0.0129472
663.271	0.0129644
663.349	0.0129621
663.427	0.0128360
663.505	0.0129003
663.583	0.0127565
663.661	0.0128770
663.739	0.0129198
663.818	0.0129136
663.896	0.0128333
663.974	0.0128785
664.052	0.0127840
664.130	0.0128968
664.208	0.0129167
664.286	0.0129282
664.364	0.0129871
664.443	0.0128516
664.521	0.0128703
664.599	0.0128380
664.677	0.0129152
664.755	0.0128763
664.833	0.0129339
664.911	0.0129626
664.989	0.0129174
665.068	0.0128693
665.146	0.0130758
665.224	0.0127968
665.302	0.0128923
665.380	0.0129416
665.458	0.0128597
665.536	0.0128117
665.614	0.0128895
665.693	0.0128722
665.771	0.0128229
665.849	0.0129535
665.927	0.0128711
666.005	0.0128947
666.083	0.0129076
666.161	0.0128568
666.239	0.0128531
666.318	0.0129206
666.396	0.0128745
666.474	0.0127977
666.552	0.0128317
666.630	0.0128458
666.708	0.0128890
666.786	0.0127573
666.864	0.0128452
666.943	0.0128821
667.021	0.0126647
667.099	0.0127774
667.177	0.0129575
667.255	0.0128731
667.333	0.0127527
667.411	0.0128318
667.489	0.0128957
667.568	0.0128487
667.646	0.0127948
667.724	0.0127810
667.802	0.0128001
667.880	0.0128029
667.958	0.0128170
668.036	0.0128147
668.114	0.0129405
668.193	0.0127521
668.271	0.0129626
668.349	0.0129380
668.427	0.0128976
668.505	0.0128448
668.583	0.0129333
668.661	0.0128451
668.739	0.0129578
668.818	0.0128976
668.896	0.0128397
668.974	0.0129106
669.052	0.0129717
669.130	0.0129700
669.208	0.0129096
669.286	0.0128401
669.364	0.0128602
669.443	0.0129041
669.521	0.0128736
669.599	0.0129696
669.677	0.0129487
669.755	0.0129485
669.833	0.0128797
669.911	0.0128519
669.989	0.0128075
670.068	0.0129004
670.146	0.0128481
670.224	0.0129365
670.302	0.0128609
670.380	0.0129934
670.458	0.0130034
670.536	0.0131188
670.614	0.0129451
670.693	0.0129301
670.771	0.0128514
670.849	0.0129054
670.927	0.0130608
671.005	0.0130171
671.083	0.0129440
671.161	0.0129980
671.239	0.0129586
671.318	0.0129061
671.396	0.0129321
671.474	0.0130838
671.552	0.0130849
671.630	0.0130391
671.708	0.0128993
671.786	0.0129590
671.864	0.0128648
671.943	0.0131216
672.021	0.0130696
672.099	0.0130297
672.177	0.0129384
672.255	0.0129108
672.333	0.0129951
672.411	0.0130943
672.489	0.0131097
672.568	0.0130791
672.646	0.0129624
672.724	0.0129712
672.802	0.0130455
672.880	0.0129301
672.958	0.0130124
673.036	0.0130545
673.114	0.0131001
673.193	0.0129292
673.271	0.0129473
673.349	0.0130463
673.427	0.0130193
673.505	0.0130009
673.583	0.0128974
673.661	0.0130568
673.739	0.0131195
673.818	0.0129774
673.896	0.0128960
673.974	0.0129809
674.052	0.0129207
674.130	0.0128445
674.208	0.0131215
674.286	0.0130338
674.364	0.0130467
674.443	0.0130493
674.521	0.0129671
674.599	0.0128988
674.677	0.0130112
674.755	0.0129625
674.833	0.0130395
674.911	0.0129726
674.989	0.0129568
675.068	0.0128832
675.146	0.0130403
675.224	0.0129694
675.302	0.0129655
675.380	0.0128513
675.458	0.0129144
675.536	0.0129549
675.614	0.0128823
675.693	0.0128434
675.771	0.0129092
675.849	0.0127567
675.927	0.0129539
676.005	0.0129430
676.083	0.0129547
676.161	0.0128124
676.239	0.0128693
676.318	0.0129533
676.396	0.0128594
676.474	0.0129453
676.552	0.0130155
676.630	0.0129698
676.708	0.0129135
676.786	0.0128379
676.864	0.0129632
676.943	0.0130449
677.021	0.0130020
677.099	0.0128994
677.177	0.0128711
677.255	0.0129877
677.333	0.0129873
677.411	0.0128862
677.489	0.0130016
677.568	0.0128297
677.646	0.0127482
677.724	0.0129041
677.802	0.0128764
677.880	0.0128419
677.958	0.0128412
678.036	0.0128918
678.114	0.0127664
678.193	0.0128196
678.271	0.0127739
678.349	0.0127882
678.427	0.0127979
678.505	0.0128574
678.583	0.0127595
678.661	0.0127202
678.739	0.0127924
678.818	0.0128786
678.896	0.0128400
678.974	0.0128442
679.052	0.0126983
679.130	0.0129414
679.208	0.0129174
679.286	0.0128660
679.364	0.0127174
679.443	0.0127817
679.521	0.0128297
679.599	0.0127591
679.677	0.0128612
679.755	0.0128385
679.833	0.0126871
679.911	0.0127642
679.989	0.0128693
680.068	0.0128214
680.146	0.0127413
680.224	0.0129042
680.302	0.0129728
680.380	0.0128158
680.458	0.0129702
680.536	0.0129448
680.614	0.0128025
680.693	0.0129635
680.771	0.0129140
680.849	0.0128846
680.927	0.0129975
681.005	0.0128523
681.083	0.0128935
681.161	0.0129675
681.239	0.0129919
681.318	0.0129237
681.396	0.0127857
681.474	0.0129115
681.552	0.0129008
681.630	0.0130167
681.708	0.0129389
681.786	0.0130030
681.864	0.0129415
681.943	0.0128280
682.021	0.0129175
682.099	0.0129470
682.177	0.0129594
682.255	0.0129313
682.333	0.0128470
682.411	0.0128839
682.489	0.0130253
682.568	0.0128992
682.646	0.0129903
682.724	0.0129270
682.802	0.0128913
682.880	0.0129321
682.958	0.0130634
683.036	0.0128314
683.114	0.0130817
683.193	0.0128707
683.271	0.0129215
683.349	0.0129755
683.427	0.0129411
683.505	0.0129604
683.583	0.0129587
683.661	0.0129080
683.739	0.0128363
683.818	0.0128954
683.896	0.0129765
683.974	0.0130534
684.052	0.0131001
684.130	0.0130514
684.208	0.0131353
684.286	0.0129564
684.364	0.0129540
684.443	0.0129178
684.521	0.0128262
684.599	0.0127478
684.677	0.0126603
684.755	0.0126554
684.833	0.0126561
684.911	0.0128054
684.989	0.0127123
685.068	0.0129942
685.146	0.0131703
685.224	0.0133971
685.302	0.0134400
685.380	0.0135101
685.458	0.0135696
685.536	0.0136857
685.614	0.0137135
685.693	0.0135372
685.771	0.0133224
685.849	0.0132941
685.927	0.0130336
686.005	0.0127191
686.083	0.0126171
686.161	0.0122549
686.239	0.0120660
686.318	0.0119254
686.396	0.0118102
686.474	0.0116791
686.552	0.0117273
686.630	0.0120690
686.708	0.0122814
686.786	0.0126591
686.864	0.0128517
686.943	0.0130196
687.021	0.0134654
687.099	0.0137960
687.177	0.0139807
687.255	0.0141045
687.333	0.0143566
687.411	0.0143819
687.489	0.0141549
687.568	0.0140314
687.646	0.0138630
687.724	0.0136753
687.802	0.0132615
687.880	0.0128358
687.958	0.0124165
688.036	0.0122700
688.114	0.0118068
688.193	0.0115590
688.271	0.0113289
688.349	0.0112270
688.427	0.0110579
688.505	0.0111380
688.583	0.0113437
688.661	0.0115228
688.739	0.0117488
688.818	0.0120706
688.896	0.0124585
688.974	0.0127889
689.052	0.0132106
689.130	0.0135774
689.208	0.0140248
689.286	0.0140714
689.364	0.0143803
689.443	0.0146126
689.521	0.0145448
689.599	0.0145052
689.677	0.0144512
689.755	0.0143391
689.833	0.0141097
689.911	0.0138882
689.989	0.0136090
690.068	0.0134168
690.146	0.0130964
690.224	0.0127829
690.302	0.0124902
690.380	0.0124163
690.458	0.0122602
690.536	0.0120320
690.614	0.0118356
690.693	0.0117882
690.771	0.0117429
690.849	0.0117317
690.927	0.0118110
691.005	0.0119431
691.083	0.0119599
691.161	0.0121118
691.239	0.0121461
691.318	0.0123358
691.396	0.0124335
691.474	0.0124967
691.552	0.0124945
691.630	0.0127654
691.708	0.0127567
691.786	0.0125693
691.864	0.0127161
691.943	0.0128075
692.021	0.0128607
692.099	0.0130137
692.177	0.0129242
692.255	0.0131737
692.333	0.0132433
692.411	0.0133273
692.489	0.0135237
692.568	0.0136355
692.646	0.0135870
692.724	0.0137997
692.802	0.0138035
692.880	0.0139062
692.958	0.0138103
693.036	0.0136409
693.114	0.0134151
693.193	0.0133880
693.271	0.0132548
693.349	0.0130649
693.427	0.0129045
693.505	0.0127016
693.583	0.0126414
693.661	0.0123657
693.739	0.0121899
693.818	0.0120322
693.896	0.0119504
693.974	0.0119852
694.052	0.0117431
694.130	0.0117773
694.208	0.0118105
694.286	0.0117426
694.364	0.0120336
694.443	0.0120570
694.521	0.0121590
694.599	0.0124162
694.677	0.0125706
694.755	0.0128057
694.833	0.0128232
694.911	0.0130455
694.989	0.0132836
695.068	0.0133584
695.146	0.0133768
695.224	0.0135441
695.302	0.0135591
695.380	0.0136644
695.458	0.0137171
695.536	0.0137305
695.614	0.0136816
695.693	0.0138205
695.771	0.0136649
695.849	0.0137536
695.927	0.0136505
696.005	0.0134864
696.083	0.0133839
696.161	0.0133289
696.239	0.0131962
696.318	0.0131337
696.396	0.0129319
696.474	0.0128594
696.552	0.0127593
696.630	0.0126494
696.708	0.0125283
696.786	0.0125495
696.864	0.0126461
696.943	0.0125517
697.021	0.0124825
697.099	0.0124636
697.177	0.0126260
697.255	0.0126232
697.333	0.0125809
697.411	0.0127119
697.489	0.0127711
697.568	0.0129670
697.646	0.0130655
697.724	0.0132258
697.802	0.0132500
697.880	0.0132849
697.958	0.0132637
698.036	0.0133260
698.114	0.0132790
698.193	0.0134068
698.271	0.0132939
698.349	0.0130891
698.427	0.0130576
698.505	0.0128536
698.583	0.0126930
698.661	0.0126393
698.739	0.0125169
698.818	0.0123931
698.896	0.0122170
698.974	0.0123086
699.052	0.0123417
699.130	0.0121931
699.208	0.0121010
699.286	0.0120679
699.364	0.0121436
699.443	0.0121642
699.521	0.0120982
699.599	0.0122556
699.677	0.0124088
699.755	0.0126277
699.833	0.0127491
699.911	0.0128970
699.989	0.0130963
700.068	0.0132184
700.146	0.0135519
700.224	0.0136439
700.302	0.0138870
700.380	0.0138306
700.458	0.0140198
700.536	0.0139693
700.614	0.0141711
700.693	0.0142518
700.771	0.0142117
700.849	0.0140797
700.927	0.0140406
701.005	0.0138792
701.083	0.0139439
701.161	0.0137433
701.239	0.0135431
701.318	0.0133646
701.396	0.0131040
701.474	0.0130688
701.552	0.0129493
701.630	0.0127626
701.708	0.0125211
701.786	0.0122733
701.864	0.0121967
701.943	0.0120811
702.021	0.0119184
702.099	0.0117703
702.177	0.0117752
702.255	0.0116582
702.333	0.0116107
702.411	0.0117641
702.489	0.0117136
702.568	0.0117027
702.646	0.0116415
702.724	0.0116318
702.802	0.0118249
702.880	0.0119364
702.958	0.0119493
703.036	0.0122105
703.114	0.0121406
703.193	0.0123613
703.271	0.0123927
703.349	0.0125858
703.427	0.0126976
703.505	0.0128027
703.583	0.0130308
703.661	0.0132401
703.739	0.0133244
703.818	0.0134683
703.896	0.0136270
703.974	0.0136562
704.052	0.0137030
704.130	0.0138468
704.208	0.0138531
704.286	0.0138441
704.364	0.0138288
704.443	0.0138147
704.521	0.0138919
704.599	0.0139443
704.677	0.0137689
704.755	0.0138690
704.833	0.0137359
704.911	0.0133961
704.989	0.0134775
705.068	0.0132452
705.146	0.0132833
705.224	0.0130208
705.302	0.0128501
705.380	0.0128109
705.458	0.0128264
705.536	0.0125955
705.614	0.0125995
705.693	0.0125492
705.771	0.0126374
705.849	0.0126214
705.927	0.0126341
706.005	0.0124596
706.083	0.0126356
706.161	0.0126053
706.239	0.0125270
706.318	0.0124829
706.396	0.0125369
706.474	0.0125791
706.552	0.0124503
706.630	0.0124277
706.708	0.0122531
706.786	0.0121761
706.864	0.0122976
706.943	0.0121960
707.021	0.0121362
707.099	0.0120932
707.177	0.0120618
707.255	0.0121867
707.333	0.0120670
707.411	0.0121303
707.489	0.0123014
707.568	0.0123686
707.646	0.0124659
707.724	0.0127342
707.802	0.0128199
707.880	0.0128192
707.958	0.0129023
708.036	0.0131052
708.114	0.0131215
708.193	0.0132019
708.271	0.0133901
708.349	0.0133741
708.427	0.0133531
708.505	0.0135040
708.583	0.0134717
708.661	0.0135741
708.739	0.0136343
708.818	0.0135701
708.896	0.0136655
708.974	0.0136388
709.052	0.0137391
709.130	0.0137120
709.208	0.0135699
709.286	0.0136944
709.364	0.0138341
709.443	0.0137595
709.521	0.0137027
709.599	0.0136971
709.677	0.0135929
709.755	0.0135879
709.833	0.0136378
709.911	0.0136207
709.989	0.0132915
710.068	0.0133849
710.146	0.0132234
710.224	0.0131496
710.302	0.0129430
710.380	0.0129192
710.458	0.0128066
710.536	0.0127261
710.614	0.0125858
710.693	0.0125736
710.771	0.0123856
710.849	0.0123340
710.927	0.0122426
711.005	0.0121220
711.083	0.0122601
711.161	0.0122176
711.239	0.0121130
711.318	0.0121606
711.396	0.0121713
711.474	0.0121187
711.552	0.0121622
711.630	0.0122984
711.708	0.0122015
711.786	0.0121478
711.864	0.0124317
711.943	0.0123045
712.021	0.0124323
712.099	0.0124538
712.177	0.0125271
712.255	0.0126447
712.333	0.0128164
712.411	0.0126170
712.489	0.0127103
712.568	0.0128472
712.646	0.0129041
712.724	0.0129204
712.802	0.0131007
712.880	0.0132392
712.958	0.0131769
713.036	0.0133403
713.114	0.0133846
713.193	0.0133775
713.271	0.0135449
713.349	0.0135136
713.427	0.0135752
713.505	0.0135090
713.583	0.0136291
713.661	0.0137365
713.739	0.0137311
713.818	0.0137475
713.896	0.0138487
713.974	0.0138755
714.052	0.0139291
714.130	0.0137442
714.208	0.0136405
714.286	0.0135758
714.364	0.0136243
714.443	0.0135635
714.521	0.0133929
714.599	0.0133694
714.677	0.0133441
714.755	0.0132176
714.833	0.0129662
714.911	0.0128393
714.989	0.0127667
715.068	0.0127825
715.146	0.0126772
715.224	0.0125117
715.302	0.0125806
715.380	0.0123971
715.458	0.0123978
715.536	0.0123531
715.614	0.0122424
715.693	0.0122010
715.771	0.0121285
715.849	0.0121613
715.927	0.0120601
716.005	0.0121829
716.083	0.0122661
716.161	0.0121194
716.239	0.0119960
716.318	0.0120188
716.396	0.0122447
716.474	0.0123189
716.552	0.0121763
716.630	0.0121976
716.708	0.0121249
716.786	0.0123295
716.864	0.0123897
716.943	0.0123353
717.021	0.0124464
717.099	0.0124252
717.177	0.0124952
717.255	0.0126093
717.333	0.0126809
717.411	0.0128886
717.489	0.0128107
717.568	0.0128620
717.646	0.0128610
717.724	0.0129413
717.802	0.0129961
717.880	0.0131140
717.958	0.0132024
718.036	0.0132282
718.114	0.0133220
718.193	0.0133602
718.271	0.0134932
718.349	0.0135768
718.427	0.0135789
718.505	0.0135631
718.583	0.0135265
718.661	0.0136730
718.739	0.0137077
718.818	0.0136681
718.896	0.0137747
718.974	0.0136292
719.052	0.0135937
719.130	0.0134766
719.208	0.0135481
719.286	0.0133841
719.364	0.0132340
719.443	0.0132709
719.521	0.0129181
719.599	0.0128751
719.677	0.0127826
719.755	0.0126177
719.833	0.0124486
719.911	0.0124770
719.989	0.0124315
720.068	0.0123035
720.146	0.0121331
720.224	0.0122610
720.302	0.0121538
720.380	0.0121567
720.458	0.0123555
720.536	0.0125526
720.614	0.0124326
720.693	0.0124376
720.771	0.0125974
720.849	0.0126914
720.927	0.0127616
721.005	0.0128623
721.083	0.0129443
721.161	0.0129228
721.239	0.0131163
721.318	0.0129411
721.396	0.0129520
721.474	0.0130120
721.552	0.0129736
721.630	0.0129802
721.708	0.0129569
721.786	0.0128724
721.864	0.0128144
721.943	0.0127597
722.021	0.0127248
722.099	0.0128101
722.177	0.0126107
722.255	0.0125690
722.333	0.0124733
722.411	0.0123636
722.489	0.0124590
722.568	0.0124800
722.646	0.0124937
722.724	0.0124249
722.802	0.0125446
722.880	0.0126360
722.958	0.0125278
723.036	0.0124285
723.114	0.0126389
723.193	0.0127486
723.271	0.0129018
723.349	0.0129613
723.427	0.0130679
723.505	0.0131296
723.583	0.0131618
723.661	0.0133432
723.739	0.0133936
723.818	0.0137329
723.896	0.0137986
723.974	0.0136534
724.052	0.0137205
724.130	0.0138093
724.208	0.0138501
724.286	0.0138457
724.364	0.0138432
724.443	0.0136977
724.521	0.0134809
724.599	0.0136264
724.677	0.0133763
724.755	0.0132685
724.833	0.0131291
724.911	0.0130766
724.989	0.0130138
725.068	0.0127179
725.146	0.0125354
725.224	0.0125832
725.302	0.0124966
725.380	0.0122785
725.458	0.0123354
725.536	0.0123611
725.614	0.0122839
725.693	0.0122462
725.771	0.0122569
725.849	0.0122785
725.927	0.0124431
726.005	0.0124497
726.083	0.0125824
726.161	0.0126501
726.239	0.0127816
726.318	0.0127863
726.396	0.0128312
726.474	0.0128527
726.552	0.0128796
726.630	0.0129330
726.708	0.0128108
726.786	0.0129057
726.864	0.0128171
726.943	0.0127701
727.021	0.0127482
727.099	0.0127186
727.177	0.0125983
727.255	0.0125362
727.333	0.0126509
727.411	0.0124594
727.489	0.0124746
727.568	0.0123098
727.646	0.0124426
727.724	0.0123687
727.802	0.0123504
727.880	0.0123162
727.958	0.0123688
728.036	0.0124418
728.114	0.0124342
728.193	0.0125218
728.271	0.0126377
728.349	0.0126554
728.427	0.0128465
728.505	0.0128350
728.583	0.0129307
728.661	0.0130440
728.739	0.0132875
728.818	0.0134332
728.896	0.0134977
728.974	0.0134559
729.052	0.0137389
729.130	0.0138071
729.208	0.0138039
729.286	0.0138075
729.364	0.0138423
729.443	0.0137721
729.521	0.0136535
729.599	0.0135344
729.677	0.0134541
729.755	0.0134998
729.833	0.0131281
729.911	0.0129131
729.989	0.0128353
730.068	0.0128210
730.146	0.0126668
730.224	0.0126707
730.302	0.0124107
730.380	0.0122643
730.458	0.0122578
730.536	0.0121626
730.614	0.0121622
730.693	0.0120043
730.771	0.0120742
730.849	0.0120272
730.927	0.0120877
731.005	0.0120222
731.083	0.0120326
731.161	0.0123330
731.239	0.0124190
731.318	0.0127395
731.396	0.0127673
731.474	0.0127752
731.552	0.0128963
731.630	0.0130477
731.708	0.0132859
731.786	0.0132669
731.864	0.0133398
731.943	0.0136597
732.021	0.0135989
732.099	0.0134612
732.177	0.0135841
732.255	0.0136575
732.333	0.0137293
732.411	0.0135566
732.489	0.0136395
732.568	0.0133582
732.646	0.0132435
732.724	0.0131416
732.802	0.0132565
732.880	0.0130024
732.958	0.0128746
733.036	0.0127990
733.114	0.0127850
733.193	0.0126841
733.271	0.0123534
733.349	0.0124213
733.427	0.0123940
733.505	0.0124216
733.583	0.0123815
733.661	0.0122543
733.739	0.0123042
733.818	0.0124467
733.896	0.0123734
733.974	0.0124180
734.052	0.0124043
734.130	0.0125788
734.208	0.0126637
734.286	0.0125898
734.364	0.0126438
734.443	0.0129021
734.521	0.0128703
734.599	0.0129751
734.677	0.0130348
734.755	0.0132582
734.833	0.0133054
734.911	0.0133703
734.989	0.0133634
735.068	0.0134035
735.146	0.0135303
735.224	0.0135091
735.302	0.0135533
735.380	0.0134528
735.458	0.0134650
735.536	0.0134334
735.614	0.0133698
735.693	0.0134039
735.771	0.0133453
735.849	0.0131763
735.927	0.0131886
736.005	0.0130820
736.083	0.0129996
736.161	0.0129785
736.239	0.0127151
736.318	0.0126766
736.396	0.0127705
736.474	0.0128495
736.552	0.0126400
736.630	0.0125740
736.708	0.0125593
736.786	0.0124764
736.864	0.0127139
736.943	0.0127345
737.021	0.0127375
737.099	0.0126926
737.177	0.0126629
737.255	0.0127992
737.333	0.0128787
737.411	0.0127101
737.489	0.0127486
737.568	0.0127492
737.646	0.0127779
737.724	0.0130224
737.802	0.0129173
737.880	0.0129163
737.958	0.0129527
738.036	0.0130208
738.114	0.0128879
738.193	0.0130284
738.271	0.0129762
738.349	0.0133177
738.427	0.0131315
738.505	0.0129654
738.583	0.0131022
738.661	0.0130743
738.739	0.0131274
738.818	0.0130149
738.896	0.0130027
738.974	0.0129326
739.052	0.0129618
739.130	0.0128535
739.208	0.0128047
739.286	0.0128036
739.364	0.0127850
739.443	0.0128123
739.521	0.0126517
739.599	0.0128111
739.677	0.0128848
739.755	0.0127976
739.833	0.0128059
739.911	0.0128291
739.989	0.0127536
740.068	0.0128890
740.146	0.0128322
740.224	0.0129050
740.302	0.0129057
740.380	0.0128934
740.458	0.0129244
740.536	0.0129707
740.614	0.0131396
740.693	0.0129784
740.771	0.0128980
740.849	0.0128975
740.927	0.0130339
741.005	0.0131082
741.083	0.0130561
741.161	0.0130891
741.239	0.0132477
741.318	0.0130392
741.396	0.0130250
741.474	0.0133039
741.552	0.0132010
741.630	0.0132149
741.708	0.0131193
741.786	0.0131437
741.864	0.0131330
741.943	0.0129453
742.021	0.0130207
742.099	0.0128729
742.177	0.0128419
742.255	0.0128593
742.333	0.0127898
742.411	0.0126748
742.489	0.0127818
742.568	0.0127727
742.646	0.0126866
742.724	0.0127760
742.802	0.0126495
742.880	0.0125954
742.958	0.0126764
743.036	0.0128279
743.114	0.0127139
743.193	0.0128053
743.271	0.0127319
743.349	0.0127070
743.427	0.0128182
743.505	0.0129746
743.583	0.0129137
743.661	0.0129904
743.739	0.0130200
743.818	0.0130302
743.896	0.0130682
743.974	0.0131197
744.052	0.0132324
744.130	0.0130943
744.208	0.0133924
744.286	0.0131953
744.364	0.0131786
744.443	0.0131693
744.521	0.0131027
744.599	0.0129987
744.677	0.0130399
744.755	0.0129794
744.833	0.0130793
744.911	0.0128609
744.989	0.0128279
745.068	0.0127644
745.146	0.0126360
745.224	0.0126650
745.302	0.0126288
745.380	0.0124883
745.458	0.0123964
745.536	0.0124204
745.614	0.0126433
745.693	0.0124895
745.771	0.0124580
745.849	0.0125260
745.927	0.0124975
746.005	0.0124821
746.083	0.0126009
746.161	0.0124890
746.239	0.0125390
746.318	0.0124884
746.396	0.0127192
746.474	0.0126792
746.552	0.0127213
746.630	0.0128109
746.708	0.0128760
746.786	0.0130487
746.864	0.0130824
746.943	0.0130885
747.021	0.0133706
747.099	0.0133723
747.177	0.0132839
747.255	0.0133411
747.333	0.0133414
747.411	0.0134921
747.489	0.0134325
747.568	0.0134039
747.646	0.0133502
747.724	0.0133513
747.802	0.0131839
747.880	0.0133368
747.958	0.0131899
748.036	0.0131690
748.114	0.0131408
748.193	0.0129812
748.271	0.0128511
748.349	0.0129115
748.427	0.0126648
748.505	0.0127027
748.583	0.0126633
748.661	0.0125186
748.739	0.0124654
748.818	0.0124924
748.896	0.0127010
748.974	0.0124956
749.052	0.0125963
749.130	0.0126624
749.208	0.0127307
749.286	0.0125706
749.364	0.0127080
749.443	0.0127089
749.521	0.0128098
749.599	0.0128111
749.677	0.0129205
749.755	0.0129460
749.833	0.0130718
749.911	0.0129783
749.989	0.0131524
750.068	0.0133308
750.146	0.0133141
750.224	0.0133522
750.302	0.0132788
750.380	0.0133312
750.458	0.0132749
750.536	0.0133199
750.614	0.0132855
750.693	0.0134190
750.771	0.0132719
750.849	0.0133566
750.927	0.0133380
751.005	0.0131338
751.083	0.0129715
751.161	0.0129952
751.239	0.0128906
751.318	0.0129297
751.396	0.0127153
751.474	0.0126939
751.552	0.0125887
751.630	0.0124670
751.708	0.0125803
751.786	0.0124677
751.864	0.0124470
751.943	0.0124123
752.021	0.0123489
752.099	0.0123936
752.177	0.0125306
752.255	0.0124841
752.333	0.0125991
752.411	0.0125481
752.489	0.0125924
752.568	0.0127227
752.646	0.0126348
752.724	0.0127614
752.802	0.0127329
752.880	0.0129079
752.958	0.0130209
753.036	0.0129972
753.114	0.0131507
753.193	0.0130495
753.271	0.0130218
753.349	0.0131229
753.427	0.0132196
753.505	0.0131577
753.583	0.0131274
753.661	0.0131190
753.739	0.0131351
753.818	0.0131627
753.896	0.0130382
753.974	0.0130934
754.052	0.0130059
754.130	0.0130358
754.208	0.0129618
754.286	0.0129763
754.364	0.0129446
754.443	0.0128064
754.521	0.0127850
754.599	0.0126928
754.677	0.0127170
754.755	0.0127392
754.833	0.0128477
754.911	0.0127592
754.989	0.0127994
755.068	0.0128989
755.146	0.0128358
755.224	0.0127451
755.302	0.0129205
755.380	0.0129194
755.458	0.0131042
755.536	0.0131355
755.614	0.0130807
755.693	0.0131472
755.771	0.0131630
755.849	0.0130936
755.927	0.0131099
756.005	0.0130499
756.083	0.0131438
756.161	0.0131171
756.239	0.0129353
756.318	0.0131802
756.396	0.0131464
756.474	0.0129671
756.552	0.0129723
756.630	0.0131716
756.708	0.0130482
756.786	0.0128750
756.864	0.0129334
756.943	0.0128271
757.021	0.0128649
757.099	0.0129424
757.177	0.0128366
757.255	0.0127120
757.333	0.0126954
757.411	0.0127016
757.489	0.0126234
757.568	0.0125506
757.646	0.0124618
757.724	0.0125671
757.802	0.0123735
757.880	0.0124075
757.958	0.0123720
758.036	0.0123066
758.114	0.0122967
758.193	0.0125275
758.271	0.0123565
758.349	0.0125420
758.427	0.0125875
758.505	0.0125475
758.583	0.0126435
758.661	0.0128667
758.739	0.0127669
758.818	0.0130138
758.896	0.0129684
758.974	0.0128496
759.052	0.0131877
759.130	0.0130825
759.208	0.0131422
759.286	0.0132563
759.364	0.0132331
759.443	0.0132719
759.521	0.0132536
759.599	0.0132195
759.677	0.0133119
759.755	0.0133817
759.833	0.0133632
759.911	0.0133550
759.989	0.0132983
760.068	0.0132867
760.146	0.0133327
760.224	0.0133676
760.302	0.0133835
760.380	0.0133289
760.458	0.0133526
760.536	0.0132896
760.614	0.0132446
760.693	0.0133399
760.771	0.0132265
760.849	0.0132008
760.927	0.0132584
761.005	0.0133315
761.083	0.0132469
761.161	0.0132318
761.239	0.0131338
761.318	0.0130718
761.396	0.0130415
761.474	0.0129850
761.552	0.0129885
761.630	0.0129050
761.708	0.0128374
761.786	0.0128790
761.864	0.0127359
761.943	0.0126541
762.021	0.0127879
762.099	0.0126624
762.177	0.0126436
762.255	0.0126159
762.333	0.0126466
762.411	0.0128201
762.489	0.0126837
762.568	0.0127461
762.646	0.0127203
762.724	0.0127927
762.802	0.0127634
762.880	0.0128722
762.958	0.0129925
763.036	0.0128890
763.114	0.0129021
763.193	0.0128778
763.271	0.0128276
763.349	0.0129477
763.427	0.0129357
763.505	0.0126517
763.583	0.0127062
763.661	0.0126806
763.739	0.0126835
763.818	0.0126754
763.896	0.0125701
763.974	0.0125845
764.052	0.0124949
764.130	0.0125291
764.208	0.0125903
764.286	0.0124352
764.364	0.0123061
764.443	0.0125282
764.521	0.0123919
764.599	0.0124782
764.677	0.0125223
764.755	0.0124400
764.833	0.0125838
764.911	0.0124892
764.989	0.0125792
765.068	0.0125843
765.146	0.0127402
765.224	0.0127288
765.302	0.0128162
765.380	0.0128371
765.458	0.0129779
765.536	0.0130540
765.614	0.0131993
765.693	0.0133003
765.771	0.0133205
765.849	0.0132476
765.927	0.0135287
766.005	0.0134773
766.083	0.0135524
766.161	0.0136702
766.239	0.0136736
766.318	0.0137318
766.396	0.0136877
766.474	0.0135431
766.552	0.0137681
766.630	0.0134949
766.708	0.0134789
766.786	0.0135896
766.864	0.0133774
766.943	0.0133701
767.021	0.0132014
767.099	0.0133072
767.177	0.0128191
767.255	0.0129333
767.333	0.0128936
767.411	0.0127713
767.489	0.0126951
767.568	0.0126699
767.646	0.0125529
767.724	0.0125507
767.802	0.0125259
767.880	0.0125022
767.958	0.0125281
768.036	0.0124512
768.114	0.0123232
768.193	0.0125285
768.271	0.0126168
768.349	0.0124969
768.427	0.0127123
768.505	0.0126527
768.583	0.0125427
768.661	0.0126862
768.739	0.0126801
768.818	0.0128288
768.896	0.0127296
768.974	0.0128063
769.052	0.0129398
769.130	0.0130247
769.208	0.0129419
769.286	0.0129383
769.364	0.0127783
769.443	0.0130519
769.521	0.0130924
769.599	0.0130817
769.677	0.0129538
769.755	0.0130908
769.833	0.0129215
769.911	0.0129349
769.989	0.0129393
770.068	0.0129909
770.146	0.0129501
770.224	0.0129033
770.302	0.0128594
770.380	0.0128658
770.458	0.0130296
770.536	0.0129404
770.614	0.0129878
770.693	0.0128777
770.771	0.0130065
770.849	0.0131441
770.927	0.0128741
771.005	0.0129644
771.083	0.0131906
771.161	0.0130143
771.239	0.0129728
771.318	0.0131791
771.396	0.0132046
771.474	0.0132205
771.552	0.0130634
771.630	0.0133281
771.708	0.0133225
771.786	0.0131406
771.864	0.0131936
771.943	0.0132584
772.021	0.0131742
772.099	0.0131699
772.177	0.0131213
772.255	0.0131396
772.333	0.0130014
772.411	0.0130452
772.489	0.0131879
772.568	0.0129317
772.646	0.0130386
772.724	0.0129408
772.802	0.0129355
772.880	0.0129113
772.958	0.0127780
773.036	0.0125898
773.114	0.0126521
773.193	0.0126319
773.271	0.0127870
773.349	0.0126530
773.427	0.0125577
773.505	0.0125342
773.583	0.0126517
773.661	0.0126357
773.739	0.0126522
773.818	0.0126213
773.896	0.0126700
773.974	0.0127008
774.052	0.0126394
774.130	0.0127167
774.208	0.0128994
774.286	0.0129294
774.364	0.0129051
774.443	0.0127657
774.521	0.0129367
774.599	0.0129055
774.677	0.0129382
774.755	0.0129001
774.833	0.0130054
774.911	0.0130199
774.989	0.0129514
775.068	0.0130507
775.146	0.0131312
775.224	0.0129301
775.302	0.0129665
775.380	0.0129449
775.458	0.0131296
775.536	0.0130648
775.614	0.0128747
775.693	0.0128867
775.771	0.0129453
775.849	0.0130039
775.927	0.0129916
776.005	0.0129373
776.083	0.0130157
776.161	0.0129405
776.239	0.0128835
776.318	0.0128766
776.396	0.0127489
776.474	0.0128318
776.552	0.0128882
776.630	0.0127686
776.708	0.0128058
776.786	0.0127145
776.864	0.0128088
776.943	0.0128616
777.021	0.0128032
777.099	0.0128527
777.177	0.0128416
777.255	0.0130006
777.333	0.0128609
777.411	0.0128941
777.489	0.0129280
777.568	0.0129933
777.646	0.0128733
777.724	0.0128258
777.802	0.0129102
777.880	0.0128429
777.958	0.0127280
778.036	0.0128625
778.114	0.0128932
778.193	0.0127702
778.271	0.0127032
778.349	0.0127852
778.427	0.0126966
778.505	0.0129650
778.583	0.0128864
778.661	0.0128512
778.739	0.0129230
778.818	0.0128571
778.896	0.0129341
778.974	0.0129372
779.052	0.0131548
779.130	0.0131782
779.208	0.0130232
779.286	0.0131374
779.364	0.0131050
779.443	0.0131496
779.521	0.0133099
779.599	0.0130500
779.677	0.0131537
779.755	0.0130760
779.833	0.0131632
779.911	0.0131378
779.989	0.0130596
780.068	0.0132092
780.146	0.0130808
780.224	0.0130807
780.302	0.0129446
780.380	0.0130092
780.458	0.0131564
780.536	0.0129147
780.614	0.0129311
780.693	0.0129769
780.771	0.0130439
780.849	0.0129852
780.927	0.0129694
781.005	0.0130443
781.083	0.0128783
781.161	0.0128383
781.239	0.0129946
781.318	0.0128493
781.396	0.0128370
781.474	0.0130534
781.552	0.0129906
781.630	0.0127942
781.708	0.0129089
781.786	0.0128905
781.864	0.0129314
781.943	0.0128172
782.021	0.0129474
782.099	0.0128741
782.177	0.0127364
782.255	0.0128193
782.333	0.0128230
782.411	0.0127866
782.489	0.0127253
782.568	0.0126269
782.646	0.0127177
782.724	0.0127058
782.802	0.0127161
782.880	0.0126468
782.958	0.0126154
783.036	0.0128139
783.114	0.0128783
783.193	0.0128011
783.271	0.0128250
783.349	0.0127876
783.427	0.0126025
783.505	0.0127817
783.583	0.0127307
783.661	0.0127219
783.739	0.0127959
783.818	0.0128128
783.896	0.0128220
783.974	0.0127203
784.052	0.0128753
784.130	0.0127972
784.208	0.0129877
784.286	0.0129790
784.364	0.0129955
784.443	0.0129409
784.521	0.0129245
784.599	0.0131519
784.677	0.0130651
784.755	0.0129673
784.833	0.0130834
784.911	0.0129515
784.989	0.0131090
785.068	0.0131283
785.146	0.0130804
785.224	0.0129642
785.302	0.0130286
785.380	0.0129190
785.458	0.0128854
785.536	0.0129964
785.614	0.0129007
785.693	0.0129173
785.771	0.0127858
785.849	0.0128838
785.927	0.0130229
786.005	0.0129662
786.083	0.0128535
786.161	0.0129596
786.239	0.0130266
786.318	0.0128806
786.396	0.0128493
786.474	0.0127426
786.552	0.0128123
786.630	0.0129466
786.708	0.0128736
786.786	0.0126702
786.864	0.0128673
786.943	0.0126917
787.021	0.0126337
787.099	0.0128210
787.177	0.0126250
787.255	0.0127890
787.333	0.0127193
787.411	0.0126273
787.489	0.0128126
787.568	0.0127929
787.646	0.0126300
787.724	0.0127287
787.802	0.0126814
787.880	0.0127839
787.958	0.0127315
788.036	0.0128541
788.114	0.0128337
788.193	0.0128605
788.271	0.0130461
788.349	0.0131255
788.427	0.0129469
788.505	0.0130266
788.583	0.0131120
788.661	0.0129942
788.739	0.0130679
788.818	0.0131253
788.896	0.0131618
788.974	0.0130688
789.052	0.0131356
789.130	0.0132359
789.208	0.0130654
789.286	0.0130350
789.364	0.0129725
789.443	0.0128575
789.521	0.0128755
789.599	0.0129675
789.677	0.0128604
789.755	0.0128475
789.833	0.0127189
789.911	0.0127136
789.989	0.0127798
790.068	0.0128455
790.146	0.0127052
790.224	0.0127724
790.302	0.0126290
790.380	0.0126332
790.458	0.0126400
790.536	0.0127773
790.614	0.0126502
790.693	0.0126035
790.771	0.0127159
790.849	0.0126766
790.927	0.0126494
791.005	0.0127472
791.083	0.0128001
791.161	0.0128598
791.239	0.0129781
791.318	0.0130190
791.396	0.0129601
791.474	0.0129913
791.552	0.0129723
791.630	0.0130005
791.708	0.0130941
791.786	0.0129951
791.864	0.0129054
791.943	0.0129813
792.021	0.0129986
792.099	0.0132251
792.177	0.0132647
792.255	0.0132909
792.333	0.0132605
792.411	0.0132512
792.489	0.0132635
792.568	0.0132832
792.646	0.0132487
792.724	0.0133051
792.802	0.0131078
792.880	0.0132752
792.958	0.0130578
793.036	0.0130367
793.114	0.0132068
793.193	0.0130122
793.271	0.0130081
793.349	0.0129039
793.427	0.0126958
793.505	0.0128407
793.583	0.0128786
793.661	0.0127068
793.739	0.0125870
793.818	0.0128115
793.896	0.0127882
793.974	0.0126716
794.052	0.0128115
794.130	0.0128532
794.208	0.0127245
794.286	0.0128802
794.364	0.0129012
794.443	0.0127862
794.521	0.0128976
794.599	0.0128947
794.677	0.0128491
794.755	0.0128052
794.833	0.0125832
794.911	0.0127477
794.989	0.0127412
795.068	0.0126082
795.146	0.0124897
795.224	0.0125342
795.302	0.0125569
795.380	0.0126069
795.458	0.0124229
795.536	0.0122581
795.614	0.0123413
795.693	0.0123950
795.771	0.0123611
795.849	0.0122980
795.927	0.0123202
796.005	0.0123782
796.083	0.0123441
796.161	0.0122948
796.239	0.0125723
796.318	0.0125641
796.396	0.0125759
796.474	0.0126393
796.552	0.0127321
796.630	0.0127905
796.708	0.0127714
796.786	0.0129138
796.864	0.0129941
796.943	0.0131883
797.021	0.0131629
797.099	0.0133041
797.177	0.0132520
797.255	0.0133223
797.333	0.0133098
797.411	0.0133022
797.489	0.0133189
797.568	0.0133745
797.646	0.0133779
797.724	0.0134270
797.802	0.0133211
797.880	0.0132819
797.958	0.0131899
798.036	0.0133303
798.114	0.0131311
798.193	0.0131200
798.271	0.0132598
798.349	0.0132011
798.427	0.0131842
798.505	0.0132181
798.583	0.0131894
798.661	0.0131857
798.739	0.0131850
798.818	0.0131770
798.896	0.0130204
798.974	0.0131756
799.052	0.0131126
799.130	0.0130663
799.208	0.0129640
799.286	0.0130365
799.364	0.0130096
799.443	0.0129958
799.521	0.0128909
799.599	0.0129653
799.677	0.0127444
799.755	0.0128667
799.833	0.0125987
799.911	0.0129487
799.989	0.0125818
800.068	0.0126837
800.146	0.0126788
800.224	0.0127574
800.302	0.0126980
800.380	0.0127117
800.458	0.0126678
800.536	0.0127334
800.614	0.0128616
800.693	0.0126961
800.771	0.0128640
800.849	0.0128062
800.927	0.0128764
801.005	0.0128477
801.083	0.0129427
801.161	0.0129844
801.239	0.0129153
801.318	0.0128741
801.396	0.0130009
801.474	0.0131247
801.552	0.0129963
801.630	0.0129543
801.708	0.0129411
801.786	0.0130157
801.864	0.0128178
801.943	0.0130218
802.021	0.0130546
802.099	0.0130424
802.177	0.0128128
802.255	0.0127638
802.333	0.0129117
802.411	0.0129564
802.489	0.0129184
802.568	0.0128497
802.646	0.0128210
802.724	0.0129108
802.802	0.0129063
802.880	0.0128926
802.958	0.0129630
803.036	0.0130103
803.114	0.0130904
803.193	0.0128658
803.271	0.0127381
803.349	0.0128657
803.427	0.0128056
803.505	0.0127716
803.583	0.0128689
803.661	0.0129221
803.739	0.0129450
803.818	0.0128530
803.896	0.0128307
803.974	0.0128036
804.052	0.0126942
804.130	0.0128360
804.208	0.0128224
804.286	0.0127636
804.364	0.0127401
804.443	0.0128671
804.521	0.0129073
804.599	0.0128213
804.677	0.0128122
804.755	0.0129147
804.833	0.0129044
804.911	0.0131019
804.989	0.0129353
805.068	0.0129726
805.146	0.0129889
805.224	0.0130672
805.302	0.0129328
805.380	0.0130672
805.458	0.0131259
805.536	0.0129638
805.614	0.0130168
805.693	0.0131038
805.771	0.0130318
805.849	0.0131261
805.927	0.0130029
806.005	0.0129977
806.083	0.0129528
806.161	0.0129478
806.239	0.0128056
806.318	0.0129489
806.396	0.0129509
806.474	0.0127847
806.552	0.0129621
806.630	0.0130059
806.708	0.0128177
806.786	0.0128899
806.864	0.0128606
806.943	0.0127012
807.021	0.0128233
807.099	0.0127083
807.177	0.0127597
807.255	0.0126617
807.333	0.0128125
807.411	0.0127333
807.489	0.0128009
807.568	0.0127193
807.646	0.0127641
807.724	0.0127811
807.802	0.0128213
807.880	0.0129295
807.958	0.0130296
808.036	0.0129938
808.114	0.0129653
808.193	0.0129686
808.271	0.0130433
808.349	0.0131383
808.427	0.0130289
808.505	0.0129671
808.583	0.0130825
808.661	0.0130430
808.739	0.0129005
808.818	0.0129069
808.896	0.0129067
808.974	0.0128696
809.052	0.0129061
809.130	0.0128194
809.208	0.0129420
809.286	0.0129143
809.364	0.0127718
809.443	0.0128882
809.521	0.0129127
809.599	0.0128419
809.677	0.0130045
809.755	0.0128735
809.833	0.0128922
809.911	0.0128079
809.989	0.0129390
810.068	0.0129058
810.146	0.0128811
810.224	0.0128977
810.302	0.0130315
810.380	0.0128492
810.458	0.0127651
810.536	0.0129118
810.614	0.0128111
810.693	0.0127957
810.771	0.0126272
810.849	0.0126583
810.927	0.0126715
811.005	0.0128639
811.083	0.0125839
811.161	0.0126949
811.239	0.0126463
811.318	0.0126424
811.396	0.0126756
811.474	0.0126900
811.552	0.0127232
811.630	0.0127956
811.708	0.0127896
811.786	0.0128177
811.864	0.0129088
811.943	0.0129977
812.021	0.0129243
812.099	0.0129865
812.177	0.0127940
812.255	0.0129583
812.333	0.0131367
812.411	0.0130984
812.489	0.0129666
812.568	0.0131054
812.646	0.0130281
812.724	0.0130659
812.802	0.0130025
812.880	0.0129964
812.958	0.0130083
813.036	0.0130016
813.114	0.0131499
813.193	0.0129514
813.271	0.0130188
813.349	0.0130791
813.427	0.0129992
813.505	0.0127852
813.583	0.0130244
813.661	0.0129762
813.739	0.0129762
813.818	0.0129697
813.896	0.0129256
813.974	0.0129709
814.052	0.0129150
814.130	0.0127634
814.208	0.0128527
814.286	0.0129214
814.364	0.0128481
814.443	0.0127052
814.521	0.0127010
814.599	0.0128294
814.677	0.0127135
814.755	0.0126382
814.833	0.0124418
814.911	0.0126286
814.989	0.0125403
815.068	0.0126237
815.146	0.0125130
815.224	0.0124811
815.302	0.0125475
815.380	0.0125542
815.458	0.0125876
815.536	0.0126107
815.614	0.0126649
815.693	0.0125460
815.771	0.0126366
815.849	0.0127213
815.927	0.0127435
816.005	0.0128297
816.083	0.0127081
816.161	0.0129713
816.239	0.0129839
816.318	0.0129169
816.396	0.0128900
816.474	0.0129756
816.552	0.0128391
816.630	0.0129349
816.708	0.0127880
816.786	0.0128829
816.864	0.0129532
816.943	0.0129073
817.021	0.0127724
817.099	0.0129473
817.177	0.0128228
817.255	0.0128698
817.333	0.0128911
817.411	0.0128864
817.489	0.0128599
817.568	0.0128766
817.646	0.0129539
817.724	0.0129537
817.802	0.0130218
817.880	0.0128197
817.958	0.0129873
818.036	0.0130914
818.114	0.0129911
818.193	0.0130480
818.271	0.0130268
818.349	0.0129328
818.427	0.0130428
818.505	0.0129946
818.583	0.0132336
818.661	0.0131552
818.739	0.0130489
818.818	0.0130672
818.896	0.0131023
818.974	0.0130444
819.052	0.0130122
819.130	0.0131178
819.208	0.0130096
819.286	0.0130515
819.364	0.0130237
819.443	0.0127916
819.521	0.0128149
819.599	0.0127864
819.677	0.0128825
819.755	0.0128049
819.833	0.0127966
819.911	0.0127238
819.989	0.0125491
820.068	0.0126179
820.146	0.0125983
820.224	0.0125530
820.302	0.0126004
820.380	0.0125620
820.458	0.0125861
820.536	0.0124494
820.614	0.0126093
820.693	0.0126370
820.771	0.0125963
820.849	0.0125684
820.927	0.0126617
821.005	0.0126733
821.083	0.0128922
821.161	0.0128547
821.239	0.0127964
821.318	0.0128491
821.396	0.0129660
821.474	0.0130503
821.552	0.0129034
821.630	0.0129559
821.708	0.0130505
821.786	0.0128145
821.864	0.0129753
821.943	0.0130406
822.021	0.0130119
822.099	0.0129471
822.177	0.0128690
822.255	0.0130435
822.333	0.0129696
822.411	0.0130819
822.489	0.0129080
822.568	0.0128787
822.646	0.0128263
822.724	0.0129575
822.802	0.0128210
822.880	0.0128008
822.958	0.0128705
823.036	0.0129056
823.114	0.0128244
823.193	0.0127828
823.271	0.0128708
823.349	0.0127894
823.427	0.0127513
823.505	0.0129585
823.583	0.0128587
823.661	0.0127876
823.739	0.0128946
823.818	0.0128502
823.896	0.0128165
823.974	0.0128760
824.052	0.0128023
824.130	0.0128587
824.208	0.0130040
824.286	0.0128989
824.364	0.0128044
824.443	0.0129961
824.521	0.0129343
824.599	0.0127728
824.677	0.0128250
824.755	0.0128573
824.833	0.0126701
824.911	0.0126663
824.989	0.0127122
825.068	0.0126936
825.146	0.0126820
825.224	0.0125960
825.302	0.0126574
825.380	0.0127824
825.458	0.0125949
825.536	0.0126801
825.614	0.0126964
825.693	0.0126633
825.771	0.0126515
825.849	0.0128107
825.927	0.0127115
826.005	0.0126949
826.083	0.0127400
826.161	0.0127954
826.239	0.0129486
826.318	0.0129086
826.396	0.0130522
826.474	0.0131208
826.552	0.0129254
826.630	0.0130747
826.708	0.0131039
826.786	0.0130737
826.864	0.0131853
826.943	0.0131613
827.021	0.0130579
827.099	0.0131123
827.177	0.0131261
827.255	0.0131415
827.333	0.0131240
827.411	0.0133082
827.489	0.0130322
827.568	0.0130691
827.646	0.0130688
827.724	0.0131684
827.802	0.0132066
827.880	0.0131039
827.958	0.0131647
828.036	0.0131824
828.114	0.0131480
828.193	0.0132010
828.271	0.0131564
828.349	0.0131372
828.427	0.0130549
828.505	0.0130701
828.583	0.0131005
828.661	0.0130315
828.739	0.0129369
828.818	0.0129276
828.896	0.0129591
828.974	0.0128609
829.052	0.0127990
829.130	0.0128611
829.208	0.0128473
829.286	0.0128272
829.364	0.0126794
829.443	0.0128807
829.521	0.0127335
829.599	0.0126801
829.677	0.0126947
829.755	0.0127930
829.833	0.0125092
829.911	0.0125510
829.989	0.0126048
830.068	0.0126260
830.146	0.0126189
830.224	0.0125520
830.302	0.0126939
830.380	0.0126938
830.458	0.0126691
830.536	0.0126973
830.614	0.0126670
830.693	0.0127715
830.771	0.0129510
830.849	0.0127138
830.927	0.0128070
831.005	0.0129025
831.083	0.0129179
831.161	0.0129505
831.239	0.0129551
831.318	0.0129525
831.396	0.0131689
831.474	0.0130056
831.552	0.0132461
831.630	0.0131989
831.708	0.0132555
831.786	0.0132442
831.864	0.0132656
831.943	0.0132710
832.021	0.0133313
832.099	0.0134293
832.177	0.0133627
832.255	0.0133808
832.333	0.0133783
832.411	0.0132852
832.489	0.0132803
832.568	0.0132551
832.646	0.0132139
832.724	0.0132475
832.802	0.0131985
832.880	0.0131654
832.958	0.0130962
833.036	0.0130055
833.114	0.0130999
833.193	0.0128685
833.271	0.0128252
833.349	0.0129566
833.427	0.0129598
833.505	0.0128203
833.583	0.0128372
833.661	0.0127690
833.739	0.0126856
833.818	0.0126627
833.896	0.0127007
833.974	0.0126949
834.052	0.0128031
834.130	0.0126825
834.208	0.0126785
834.286	0.0128018
834.364	0.0126233
834.443	0.0127036
834.521	0.0126653
834.599	0.0127838
834.677	0.0127353
834.755	0.0126827
834.833	0.0126466
834.911	0.0125661
834.989	0.0127850
835.068	0.0126162
835.146	0.0127216
835.224	0.0126050
835.302	0.0125495
835.380	0.0127360
835.458	0.0125941
835.536	0.0127133
835.614	0.0127599
835.693	0.0127632
835.771	0.0126655
835.849	0.0127491
835.927	0.0125670
836.005	0.0127386
836.083	0.0127170
836.161	0.0128361
836.239	0.0128615
836.318	0.0127550
836.396	0.0128743
836.474	0.0128739
836.552	0.0130806
836.630	0.0131751
836.708	0.0130459
836.786	0.0129699
836.864	0.0130444
836.943	0.0131415
837.021	0.0131465
837.099	0.0131632
837.177	0.0130896
837.255	0.0132733
837.333	0.0133682
837.411	0.0132581
837.489	0.0134026
837.568	0.0133218
837.646	0.0132143
837.724	0.0133601
837.802	0.0133724
837.880	0.0133151
837.958	0.0132637
838.036	0.0132416
838.114	0.0133089
838.193	0.0133119
838.271	0.0132249
838.349	0.0133221
838.427	0.0133271
838.505	0.0130328
838.583	0.0130479
838.661	0.0130307
838.739	0.0129949
838.818	0.0131620
838.896	0.0130188
838.974	0.0130172
839.052	0.0128208
839.130	0.0128563
839.208	0.0128928
839.286	0.0128741
839.364	0.0128089
839.443	0.0128680
839.521	0.0128612
839.599	0.0126587
839.677	0.0128208
839.755	0.0128133
839.833	0.0127374
839.911	0.0127627
839.989	0.0127805
840.068	0.0126997
840.146	0.0127551
840.224	0.0127096
840.302	0.0128310
840.380	0.0129148
840.458	0.0127105
840.536	0.0128078
840.614	0.0128864
840.693	0.0128687
840.771	0.0126506
840.849	0.0128535
840.927	0.0128182
841.005	0.0126688
841.083	0.0128493
841.161	0.0128749
841.239	0.0130360
841.318	0.0127914
841.396	0.0126893
841.474	0.0128796
841.552	0.0128507
841.630	0.0129570
841.708	0.0130365
841.786	0.0130304
841.864	0.0127993
841.943	0.0128588
842.021	0.0129184
842.099	0.0129994
842.177	0.0129493
842.255	0.0127689
842.333	0.0130404
842.411	0.0130685
842.489	0.0129566
842.568	0.0128985
842.646	0.0130570
842.724	0.0130518
842.802	0.0128717
842.880	0.0128745
842.958	0.0129758
843.036	0.0129065
843.114	0.0128253
843.193	0.0128921
843.271	0.0127845
843.349	0.0127253
843.427	0.0128279
843.505	0.0128323
843.583	0.0128713
843.661	0.0127717
843.739	0.0128729
843.818	0.0129768
843.896	0.0127510
843.974	0.0127055
844.052	0.0127659
844.130	0.0127207
844.208	0.0129355
844.286	0.0127709
844.364	0.0129306
844.443	0.0128525
844.521	0.0128606
844.599	0.0127195
844.677	0.0129823
844.755	0.0130203
844.833	0.0128343
844.911	0.0128606
844.989	0.0127498
845.068	0.0129628
845.146	0.0129246
845.224	0.0130207
845.302	0.0129383
845.380	0.0129626
845.458	0.0129250
845.536	0.0129359
845.614	0.0130052
845.693	0.0129633
845.771	0.0129552
845.849	0.0131269
845.927	0.0129050
846.005	0.0129300
846.083	0.0129423
846.161	0.0129750
846.239	0.0130393
846.318	0.0128908
846.396	0.0129790
846.474	0.0128130
846.552	0.0129858
846.630	0.0128579
846.708	0.0128400
846.786	0.0129077
846.864	0.0128281
846.943	0.0129635
847.021	0.0129459
847.099	0.0128485
847.177	0.0129516
847.255	0.0126833
847.333	0.0127592
847.411	0.0127123
847.489	0.0126970
847.568	0.0127714
847.646	0.0127091
847.724	0.0127014
847.802	0.0127311
847.880	0.0127454
847.958	0.0127242
848.036	0.0127151
848.114	0.0127782
848.193	0.0127824
848.271	0.0128535
848.349	0.0126588
848.427	0.0126214
848.505	0.0129125
848.583	0.0128214
848.661	0.0128065
848.739	0.0128747
848.818	0.0129437
848.896	0.0127592
848.974	0.0128321
849.052	0.0128710
849.130	0.0128780
849.208	0.0128658
849.286	0.0128767
849.364	0.0131377
849.443	0.0129613
849.521	0.0128529
849.599	0.0127790
849.677	0.0129285
849.755	0.0129852
849.833	0.0130996
849.911	0.0130566
849.989	0.0130487
850.068	0.0129881
850.146	0.0131829
850.224	0.0132689
850.302	0.0129816
850.380	0.0130135
850.458	0.0130249
850.536	0.0132720
850.614	0.0132504
850.693	0.0133308
850.771	0.0131301
850.849	0.0130598
850.927	0.0132722
851.005	0.0131840
851.083	0.0130549
851.161	0.0131316
851.239	0.0131627
851.318	0.0129580
851.396	0.0132111
851.474	0.0130860
851.552	0.0129139
851.630	0.0128802
851.708	0.0129431
851.786	0.0129433
851.864	0.0127249
851.943	0.0129610
852.021	0.0128677
852.099	0.0129107
852.177	0.0129148
852.255	0.0129066
852.333	0.0128615
852.411	0.0130687
852.489	0.0128758
852.568	0.0130174
852.646	0.0130041
852.724	0.0129439
852.802	0.0129415
852.880	0.0129203
852.958	0.0130175
853.036	0.0128396
853.114	0.0128108
853.193	0.0129756
853.271	0.0129316
853.349	0.0128969
853.427	0.0129327
853.505	0.0129285
853.583	0.0128715
853.661	0.0127005
853.739	0.0128769
853.818	0.0128613
853.896	0.0128883
853.974	0.0128012
854.052	0.0127037
854.130	0.0127454
854.208	0.0127666
854.286	0.0129092
854.364	0.0127688
854.443	0.0127969
854.521	0.0128574
854.599	0.0128168
854.677	0.0128516
854.755	0.0128934
854.833	0.0129333
854.911	0.0128492
854.989	0.0128056
855.068	0.0129388
855.146	0.0127757
855.224	0.0128738
855.302	0.0129732
855.380	0.0129549
855.458	0.0127914
855.536	0.0128065
855.614	0.0129015
855.693	0.0129573
855.771	0.0129340
855.849	0.0128921
855.927	0.0129407
856.005	0.0129041
856.083	0.0129779
856.161	0.0127853
856.239	0.0128548
856.318	0.0129126
856.396	0.0129288
856.474	0.0127776
856.552	0.0128722
856.630	0.0128752
856.708	0.0128938
856.786	0.0128625
856.864	0.0130250
856.943	0.0130556
857.021	0.0128680
857.099	0.0129036
857.177	0.0131013
857.255	0.0130405
857.333	0.0129390
857.411	0.0129882
857.489	0.0131178
857.568	0.0130616
857.646	0.0130225
857.724	0.0130704
857.802	0.0129649
857.880	0.0129970
857.958	0.0130489
858.036	0.0130608
858.114	0.0131173
858.193	0.0130039
858.271	0.0129957
858.349	0.0130510
858.427	0.0130743
858.505	0.0130441
858.583	0.0128474
858.661	0.0130054
858.739	0.0130444
858.818	0.0129374
858.896	0.0129781
858.974	0.0128817
859.052	0.0129847
859.130	0.0128458
859.208	0.0128181
859.286	0.0129311
859.364	0.0129792
859.443	0.0128487
859.521	0.0128988
859.599	0.0129032
859.677	0.0129565
859.755	0.0128034
859.833	0.0130285
859.911	0.0129044
859.989	0.0129642
860.068	0.0129616
860.146	0.0129341
860.224	0.0129619
860.302	0.0128321
860.380	0.0126038
860.458	0.0127835
860.536	0.0127576
860.614	0.0126064
860.693	0.0128230
860.771	0.0126888
860.849	0.0125612
860.927	0.0126527
861.005	0.0126059
861.083	0.0126571
861.161	0.0126389
861.239	0.0125828
861.318	0.0126971
861.396	0.0126358
861.474	0.0127148
861.552	0.0127170
861.630	0.0126476
861.708	0.0128117
861.786	0.0129670
861.864	0.0128836
861.943	0.0129547
862.021	0.0131004
862.099	0.0130976
862.177	0.0131181
862.255	0.0131376
862.333	0.0131291
862.411	0.0130425
862.489	0.0132085
862.568	0.0131446
862.646	0.0133146
862.724	0.0132039
862.802	0.0132754
862.880	0.0132942
862.958	0.0132468
863.036	0.0132239
863.114	0.0132349
863.193	0.0132603
863.271	0.0131999
863.349	0.0130774
863.427	0.0130795
863.505	0.0130171
863.583	0.0131647
863.661	0.0131242
863.739	0.0130724
863.818	0.0130541
863.896	0.0130714
863.974	0.0129514
864.052	0.0129686
864.130	0.0129205
864.208	0.0128888
864.286	0.0129487
864.364	0.0128792
864.443	0.0128703
864.521	0.0127922
864.599	0.0128387
864.677	0.0128192
864.755	0.0127345
864.833	0.0128017
864.911	0.0128663
864.989	0.0127343
865.068	0.0127965
865.146	0.0127774
865.224	0.0127192
865.302	0.0125217
865.380	0.0127356
865.458	0.0126646
865.536	0.0126991
865.614	0.0127901
865.693	0.0126243
865.771	0.0125970
865.849	0.0125282
865.927	0.0125612
866.005	0.0126638
866.083	0.0127489
866.161	0.0126500
866.239	0.0126552
866.318	0.0126713
866.396	0.0125692
866.474	0.0126403
866.552	0.0127388
866.630	0.0127705
866.708	0.0127068
866.786	0.0127637
866.864	0.0128432
866.943	0.0128638
867.021	0.0129544
867.099	0.0128497
867.177	0.0129034
867.255	0.0130168
867.333	0.0130853
867.411	0.0130122
867.489	0.0130498
867.568	0.0129739
867.646	0.0131356
867.724	0.0131248
867.802	0.0130264
867.880	0.0130061
867.958	0.0130655
868.036	0.0130937
868.114	0.0131164
868.193	0.0130979
868.271	0.0132207
868.349	0.0130718
868.427	0.0130949
868.505	0.0132010
868.583	0.0131419
868.661	0.0131064
868.739	0.0130816
868.818	0.0131129
868.896	0.0132085
868.974	0.0130280
869.052	0.0131024
869.130	0.0131200
869.208	0.0130951
869.286	0.0130458
869.364	0.0130914
869.443	0.0130733
869.521	0.0130501
869.599	0.0131386
869.677	0.0131203
869.755	0.0128545
869.833	0.0130494
869.911	0.0130684
869.989	0.0129761
870.068	0.0129398
870.146	0.0129675
870.224	0.0130699
870.302	0.0127351
870.380	0.0129405
870.458	0.0128357
870.536	0.0127934
870.614	0.0128963
870.693	0.0128323
870.771	0.0127531
870.849	0.0128956
870.927	0.0128791
871.005	0.0127001
871.083	0.0126841
871.161	0.0127511
871.239	0.0127708
871.318	0.0126479
871.396	0.0128983
871.474	0.0128688
871.552	0.0127505
871.630	0.0127606
871.708	0.0128415
871.786	0.0128625
871.864	0.0127140
871.943	0.0128257
872.021	0.0128185
872.099	0.0127313
872.177	0.0126349
872.255	0.0127298
872.333	0.0127460
872.411	0.0128190
872.489	0.0127459
872.568	0.0128016
872.646	0.0128628
872.724	0.0127026
872.802	0.0128196
872.880	0.0128022
872.958	0.0127802
873.036	0.0128779
873.114	0.0127559
873.193	0.0128927
873.271	0.0129112
873.349	0.0128339
873.427	0.0128589
873.505	0.0130825
873.583	0.0130075
873.661	0.0129183
873.739	0.0130001
873.818	0.0128476
873.896	0.0129452
873.974	0.0131554
874.052	0.0129379
874.130	0.0130441
874.208	0.0130633
874.286	0.0131257
874.364	0.0131075
874.443	0.0131268
874.521	0.0131400
874.599	0.0130231
874.677	0.0131753
874.755	0.0132391
874.833	0.0130565
874.911	0.0130531
874.989	0.0130975
875.068	0.0130795
875.146	0.0131797
875.224	0.0131308
875.302	0.0130437
875.380	0.0131616
875.458	0.0130817
875.536	0.0131720
875.614	0.0131679
875.693	0.0130706
875.771	0.0129694
875.849	0.0130518
875.927	0.0129376
876.005	0.0130309
876.083	0.0130277
876.161	0.0129655
876.239	0.0128403
876.318	0.0128282
876.396	0.0128461
876.474	0.0127765
876.552	0.0127165
876.630	0.0128021
876.708	0.0126592
876.786	0.0128200
876.864	0.0127103
876.943	0.0126569
877.021	0.0127487
877.099	0.0126165
877.177	0.0126856
877.255	0.0127440
877.333	0.0127259
877.411	0.0128525
877.489	0.0126264
877.568	0.0126607
877.646	0.0127612
877.724	0.0125778
877.802	0.0125474
877.880	0.0125357
877.958	0.0125123
878.036	0.0126561
878.114	0.0125246
878.193	0.0124366
878.271	0.0125346
878.349	0.0125318
878.427	0.0125744
878.505	0.0125131
878.583	0.0125845
878.661	0.0127885
878.739	0.0127991
878.818	0.0128838
878.896	0.0128252
878.974	0.0129336
879.052	0.0129419
879.130	0.0129459
879.208	0.0130788
879.286	0.0131080
879.364	0.0130052
879.443	0.0129745
879.521	0.0130551
879.599	0.0129259
879.677	0.0128718
879.755	0.0128170
879.833	0.0128785
879.911	0.0128550
879.989	0.0128939
880.068	0.0129201
880.146	0.0128397
880.224	0.0128111
880.302	0.0129595
880.380	0.0129011
880.458	0.0130795
880.536	0.0130632
880.614	0.0130463
880.693	0.0131404
880.771	0.0132185
880.849	0.0131605
880.927	0.0131477
881.005	0.0130579
881.083	0.0132423
881.161	0.0133007
881.239	0.0132597
881.318	0.0133046
881.396	0.0131917
881.474	0.0131245
881.552	0.0131243
881.630	0.0129990
881.708	0.0129775
881.786	0.0129344
881.864	0.0129413
881.943	0.0128022
882.021	0.0128347
882.099	0.0126299
882.177	0.0125589
882.255	0.0126683
882.333	0.0128713
882.411	0.0128461
882.489	0.0126998
882.568	0.0125604
882.646	0.0127005
882.724	0.0126534
882.802	0.0125858
882.880	0.0126638
882.958	0.0126247
883.036	0.0127101
883.114	0.0127044
883.193	0.0126940
883.271	0.0127534
883.349	0.0127280
883.427	0.0128260
883.505	0.0128050
883.583	0.0126122
883.661	0.0126479
883.739	0.0127487
883.818	0.0126491
883.896	0.0126962
883.974	0.0127548
884.052	0.0128608
884.130	0.0127912
884.208	0.0127616
884.286	0.0127155
884.364	0.0127907
884.443	0.0127296
884.521	0.0127927
884.599	0.0127483
884.677	0.0126946
884.755	0.0126882
884.833	0.0127420
884.911	0.0127979
884.989	0.0128914
885.068	0.0128810
885.146	0.0128210
885.224	0.0127887
885.302	0.0128480
885.380	0.0129801
885.458	0.0129144
885.536	0.0128886
885.614	0.0130367
885.693	0.0130386
885.771	0.0130077
885.849	0.0130366
885.927	0.0129568
886.005	0.0128552
886.083	0.0129243
886.161	0.0130649
886.239	0.0128899
886.318	0.0129414
886.396	0.0129881
886.474	0.0130523
886.552	0.0129859
886.630	0.0129874
886.708	0.0129559
886.786	0.0130947
886.864	0.0130327
886.943	0.0129089
887.021	0.0127797
887.099	0.0130944
887.177	0.0130431
887.255	0.0129657
887.333	0.0130740
887.411	0.0128683
887.489	0.0128452
887.568	0.0128593
887.646	0.0128463
887.724	0.0126886
887.802	0.0129349
887.880	0.0127605
887.958	0.0127250
888.036	0.0127346
888.114	0.0126489
888.193	0.0127967
888.271	0.0128015
888.349	0.0126171
888.427	0.0126598
888.505	0.0127856
888.583	0.0127949
888.661	0.0126279
888.739	0.0127499
888.818	0.0127936
888.896	0.0128477
888.974	0.0127782
889.052	0.0127357
889.130	0.0128393
889.208	0.0127940
889.286	0.0127206
889.364	0.0128767
889.443	0.0128201
889.521	0.0127557
889.599	0.0127576
889.677	0.0126672
889.755	0.0128403
889.833	0.0128442
889.911	0.0126557
889.989	0.0126432
890.068	0.0126520
890.146	0.0126616
890.224	0.0126128
890.302	0.0125098
890.380	0.0126830
890.458	0.0125710
890.536	0.0127141
890.614	0.0127058
890.693	0.0126076
890.771	0.0125354
890.849	0.0125509
890.927	0.0126095
891.005	0.0126709
891.083	0.0127033
891.161	0.0128999
891.239	0.0128841
891.318	0.0128318
891.396	0.0128246
891.474	0.0128894
891.552	0.0128414
891.630	0.0129082
891.708	0.0129363
891.786	0.0129938
891.864	0.0131741
891.943	0.0130597
892.021	0.0131685
892.099	0.0129876
892.177	0.0131807
892.255	0.0131137
892.333	0.0132098
892.411	0.0131432
892.489	0.0132326
892.568	0.0132245
892.646	0.0132286
892.724	0.0131886
892.802	0.0130685
892.880	0.0132484
892.958	0.0130376
893.036	0.0131350
893.114	0.0130845
893.193	0.0130318
893.271	0.0130667
893.349	0.0130643
893.427	0.0129243
893.505	0.0130270
893.583	0.0130447
893.661	0.0129483
893.739	0.0130446
893.818	0.0129794
893.896	0.0129498
893.974	0.0130022
894.052	0.0129638
894.130	0.0130133
894.208	0.0130878
894.286	0.0129286
894.364	0.0130251
894.443	0.0129640
894.521	0.0129444
894.599	0.0129142
894.677	0.0129204
894.755	0.0129430
894.833	0.0130246
894.911	0.0129431
894.989	0.0129285
895.068	0.0128582
895.146	0.0127459
895.224	0.0128806
895.302	0.0128196
895.380	0.0127247
895.458	0.0128100
895.536	0.0128538
895.614	0.0128485
895.693	0.0127912
895.771	0.0128728
895.849	0.0128480
895.927	0.0128503
896.005	0.0127366
896.083	0.0128030
896.161	0.0127834
896.239	0.0128088
896.318	0.0126836
896.396	0.0128445
896.474	0.0128058
896.552	0.0127341
896.630	0.0127131
896.708	0.0127686
896.786	0.0127597
896.864	0.0126625
896.943	0.0129192
897.021	0.0126754
897.099	0.0128233
897.177	0.0127445
897.255	0.0127145
897.333	0.0128353
897.411	0.0128139
897.489	0.0127836
897.568	0.0126439
897.646	0.0126652
897.724	0.0127929
897.802	0.0127274
897.880	0.0129649
897.958	0.0127296
898.036	0.0127364
898.114	0.0127940
898.193	0.0126735
898.271	0.0127454
898.349	0.0127862
898.427	0.0128603
898.505	0.0127512
898.583	0.0126829
898.661	0.0129473
898.739	0.0128532
898.818	0.0128595
898.896	0.0126907
898.974	0.0127403
899.052	0.0129523
899.130	0.0129525
899.208	0.0129472
899.286	0.0129649
899.364	0.0129357
899.443	0.0130106
899.521	0.0129395
899.599	0.0129188
899.677	0.0130223
899.755	0.0129567
899.833	0.0131665
899.911	0.0131197
899.989	0.0131819
900.068	0.0130685
900.146	0.0130672
900.224	0.0130051
900.302	0.0128772
900.380	0.0128728
900.458	0.0128973
900.536	0.0130319
900.614	0.0129350
900.693	0.0128085
900.771	0.0128648
900.849	0.0128021
900.927	0.0129755
901.005	0.0129562
901.083	0.0129481
901.161	0.0129505
901.239	0.0128656
901.318	0.0129037
901.396	0.0128302
901.474	0.0128244
901.552	0.0128894
901.630	0.0128080
901.708	0.0128942
901.786	0.0129595
901.864	0.0128107
901.943	0.0127319
902.021	0.0129567
902.099	0.0129351
902.177	0.0127835
902.255	0.0128191
902.333	0.0128210
902.411	0.0129457
902.489	0.0128026
902.568	0.0127712
902.646	0.0128438
902.724	0.0127541
902.802	0.0127360
902.880	0.0127871
902.958	0.0127661
903.036	0.0126826
903.114	0.0127671
903.193	0.0129141
903.271	0.0127317
903.349	0.0128881
903.427	0.0130072
903.505	0.0129381
903.583	0.0129080
903.661	0.0129472
903.739	0.0127617
903.818	0.0129359
903.896	0.0129351
903.974	0.0128596
904.052	0.0128282
904.130	0.0129536
904.208	0.0128196
904.286	0.0128124
904.364	0.0129126
904.443	0.0128563
904.521	0.0129768
904.599	0.0129535
904.677	0.0129005
904.755	0.0129276
904.833	0.0129027
904.911	0.0130370
904.989	0.0129282
905.068	0.0129248
905.146	0.0128304
905.224	0.0128194
905.302	0.0130128
905.380	0.0129235
905.458	0.0129366
905.536	0.0127849
905.614	0.0127837
905.693	0.0128791
905.771	0.0127976
905.849	0.0126413
905.927	0.0128023
906.005	0.0127538
906.083	0.0127024
906.161	0.0128116
906.239	0.0126463
906.318	0.0127753
906.396	0.0127364
906.474	0.0127061
906.552	0.0126837
906.630	0.0127189
906.708	0.0127438
906.786	0.0127410
906.864	0.0126707
906.943	0.0127469
907.021	0.0128400
907.099	0.0128648
907.177	0.0129327
907.255	0.0129120
907.333	0.0130178
907.411	0.0130281
907.489	0.0129054
907.568	0.0129861
907.646	0.0129462
907.724	0.0129614
907.802	0.0129846
907.880	0.0129438
907.958	0.0129398
908.036	0.0129145
908.114	0.0129802
908.193	0.0128592
908.271	0.0128285
908.349	0.0129771
908.427	0.0129406
908.505	0.0129816
908.583	0.0127295
908.661	0.0126713
908.739	0.0128262
908.818	0.0127793
908.896	0.0126323
908.974	0.0127078
909.052	0.0126664
909.130	0.0127081
909.208	0.0126718
909.286	0.0126633
909.364	0.0126356
909.443	0.0125775
909.521	0.0125826
909.599	0.0127367
909.677	0.0128269
909.755	0.0127456
909.833	0.0126686
909.911	0.0127923
909.989	0.0128458
910.068	0.0127431
910.146	0.0128931
910.224	0.0128197
910.302	0.0127560
910.380	0.0128255
910.458	0.0129428
910.536	0.0127964
910.614	0.0129402
910.693	0.0128944
910.771	0.0128381
910.849	0.0128914
910.927	0.0128600
911.005	0.0128626
911.083	0.0129051
911.161	0.0128049
911.239	0.0127877
911.318	0.0128275
911.396	0.0128642
911.474	0.0127948
911.552	0.0128989
911.630	0.0128179
911.708	0.0127493
911.786	0.0127110
911.864	0.0126746
911.943	0.0126784
912.021	0.0128883
912.099	0.0127051
912.177	0.0128433
912.255	0.0128680
912.333	0.0128605
912.411	0.0127482
912.489	0.0126914
912.568	0.0128298
912.646	0.0129385
912.724	0.0128326
912.802	0.0129285
912.880	0.0129076
912.958	0.0129872
913.036	0.0129068
913.114	0.0127841
913.193	0.0130453
913.271	0.0130479
913.349	0.0128949
913.427	0.0130509
913.505	0.0128405
913.583	0.0128761
913.661	0.0129536
913.739	0.0129764
913.818	0.0129915
913.896	0.0129629
913.974	0.0129345
914.052	0.0129437
914.130	0.0129628
914.208	0.0130885
914.286	0.0128625
914.364	0.0128199
914.443	0.0128696
914.521	0.0129652
914.599	0.0128681
914.677	0.0129884
914.755	0.0127668
914.833	0.0127753
914.911	0.0126904
914.989	0.0127471
915.068	0.0129031
915.146	0.0128682
915.224	0.0127524
915.302	0.0129453
915.380	0.0127975
915.458	0.0128341
915.536	0.0128652
915.614	0.0129793
915.693	0.0128528
915.771	0.0129569
915.849	0.0129878
915.927	0.0130617
916.005	0.0130175
916.083	0.0131008
916.161	0.0130450
916.239	0.0128345
916.318	0.0130450
916.396	0.0131509
916.474	0.0130614
916.552	0.0129830
916.630	0.0129691
916.708	0.0130408
916.786	0.0130076
916.864	0.0130103
916.943	0.0129410
917.021	0.0127402
917.099	0.0128160
917.177	0.0128000
917.255	0.0129160
917.333	0.0128157
917.411	0.0130357
917.489	0.0127694
917.568	0.0128761
917.646	0.0127997
917.724	0.0127395
917.802	0.0126671
917.880	0.0128089
917.958	0.0127677
918.036	0.0126958
918.114	0.0126736
918.193	0.0127096
918.271	0.0127068
918.349	0.0126294
918.427	0.0126847
918.505	0.0127299
918.583	0.0129290
918.661	0.0128741
918.739	0.0129329
918.818	0.0129562
918.896	0.0128238
918.974	0.0128909
919.052	0.0129043
919.130	0.0130593
919.208	0.0128933
919.286	0.0128863
919.364	0.0130611
919.443	0.0129545
919.521	0.0130012
919.599	0.0129391
919.677	0.0129436
919.755	0.0129801
919.833	0.0128905
919.911	0.0129729
919.989	0.0130302
920.068	0.0129594
920.146	0.0129393
920.224	0.0129337
920.302	0.0128212
920.380	0.0128202
920.458	0.0129202
920.536	0.0129639
920.614	0.0129517
920.693	0.0129049
920.771	0.0128743
920.849	0.0130029
920.927	0.0129947
921.005	0.0128717
921.083	0.0127483
921.161	0.0128196
921.239	0.0129757
921.318	0.0130726
921.396	0.0129823
921.474	0.0128960
921.552	0.0128511
921.630	0.0129018
921.708	0.0128844
921.786	0.0129113
921.864	0.0129773
921.943	0.0128354
922.021	0.0128955
922.099	0.0128692
922.177	0.0128329
922.255	0.0128414
922.333	0.0126985
922.411	0.0127804
922.489	0.0127286
922.568	0.0126523
922.646	0.0126552
922.724	0.0126651
922.802	0.0126899
922.880	0.0127290
922.958	0.0126295
923.036	0.0127003
923.114	0.0129004
923.193	0.0128217
923.271	0.0128318
923.349	0.0127632
923.427	0.0129007
923.505	0.0128480
923.583	0.0128139
923.661	0.0128456
923.739	0.0128542
923.818	0.0129430
923.896	0.0130235
923.974	0.0129424
924.052	0.0129050
924.130	0.0129522
924.208	0.0128838
924.286	0.0129510
924.364	0.0129215
924.443	0.0130158
924.521	0.0129825
924.599	0.0129087
924.677	0.0128139
924.755	0.0128716
924.833	0.0129015
924.911	0.0127570
924.989	0.0129277
925.068	0.0129185
925.146	0.0129752
925.224	0.0129649
925.302	0.0127865
925.380	0.0128020
925.458	0.0129465
925.536	0.0128421
925.614	0.0129373
925.693	0.0130929
925.771	0.0129452
925.849	0.0129080
925.927	0.0129887
926.005	0.0128759
926.083	0.0130056
926.161	0.0130155
926.239	0.0128239
926.318	0.0129160
926.396	0.0127866
926.474	0.0127592
926.552	0.0128455
926.630	0.0128826
926.708	0.0127769
926.786	0.0128599
926.864	0.0129018
926.943	0.0129880
927.021	0.0128993
927.099	0.0128336
927.177	0.0128897
927.255	0.0128641
927.333	0.0129150
927.411	0.0129836
927.489	0.0128127
927.568	0.0129779
927.646	0.0130454
927.724	0.0129009
927.802	0.0128248
927.880	0.0128550
927.958	0.0127204
928.036	0.0129106
928.114	0.0128476
928.193	0.0128319
928.271	0.0128926
928.349	0.0129666
928.427	0.0128947
928.505	0.0129026
928.583	0.0129043
928.661	0.0128830
928.739	0.0128638
928.818	0.0129105
928.896	0.0127100
928.974	0.0127714
929.052	0.0128864
929.130	0.0128595
929.208	0.0128474
929.286	0.0129230
929.364	0.0128984
929.443	0.0129528
929.521	0.0129186
929.599	0.0129870
929.677	0.0129543
929.755	0.0129327
929.833	0.0129845
929.911	0.0129733
929.989	0.0128951
930.068	0.0129610
930.146	0.0130241
930.224	0.0130270
930.302	0.0130584
930.380	0.0130318
930.458	0.0129550
930.536	0.0129140
930.614	0.0130270
930.693	0.0129758
930.771	0.0129964
930.849	0.0128700
930.927	0.0129240
931.005	0.0127950
931.083	0.0127960
931.161	0.0128790
931.239	0.0129901
931.318	0.0128484
931.396	0.0128040
931.474	0.0128436
931.552	0.0129561
931.630	0.0129406
931.708	0.0129531
931.786	0.0128327
931.864	0.0129428
931.943	0.0130009
932.021	0.0131013
932.099	0.0130958
932.177	0.0130476
932.255	0.0129231
932.333	0.0129681
932.411	0.0129887
932.489	0.0129169
932.568	0.0129086
932.646	0.0130000
932.724	0.0128434
932.802	0.0127605
932.880	0.0128378
932.958	0.0128125
933.036	0.0128645
933.114	0.0128704
933.193	0.0128043
933.271	0.0127328
933.349	0.0128346
933.427	0.0128915
933.505	0.0130360
933.583	0.0129888
933.661	0.0129819
933.739	0.0129668
933.818	0.0129960
933.896	0.0129616
933.974	0.0131135
934.052	0.0130381
934.130	0.0129550
934.208	0.0129287
934.286	0.0130463
934.364	0.0130018
934.443	0.0129372
934.521	0.0129897
934.599	0.0129247
934.677	0.0130123
934.755	0.0128310
934.833	0.0130204
934.911	0.0131369
934.989	0.0130114
935.068	0.0128580
935.146	0.0128831
935.224	0.0128684
935.302	0.0129424
935.380	0.0129866
935.458	0.0130010
935.536	0.0130540
935.614	0.0129957
935.693	0.0129538
935.771	0.0129422
935.849	0.0130405
935.927	0.0129923
936.005	0.0129240
936.083	0.0130183
936.161	0.0130652
936.239	0.0130099
936.318	0.0129345
936.396	0.0129257
936.474	0.0129070
936.552	0.0128291
936.630	0.0129507
936.708	0.0130441
936.786	0.0129543
936.864	0.0129694
936.943	0.0128816
937.021	0.0127502
937.099	0.0128108
937.177	0.0128909
937.255	0.0126068
937.333	0.0128075
937.411	0.0128909
937.489	0.0128201
937.568	0.0129520
937.646	0.0128236
937.724	0.0126812
937.802	0.0128555
937.880	0.0129439
937.958	0.0128384
938.036	0.0128577
938.114	0.0129678
938.193	0.0129037
938.271	0.0129802
938.349	0.0128146
938.427	0.0130047
938.505	0.0129789
938.583	0.0129616
938.661	0.0130614
938.739	0.0128944
938.818	0.0129796
938.896	0.0130782
938.974	0.0130516
939.052	0.0130953
939.130	0.0129975
939.208	0.0129787
939.286	0.0130711
939.364	0.0130961
939.443	0.0129971
939.521	0.0130773
939.599	0.0129450
939.677	0.0129353
939.755	0.0129739
939.833	0.0128638
939.911	0.0129048
939.989	0.0129601
940.068	0.0129942
940.146	0.0129496
940.224	0.0129209
940.302	0.0128246
940.380	0.0128548
940.458	0.0127722
940.536	0.0127745
940.614	0.0127678
940.693	0.0128413
940.771	0.0128576
940.849	0.0127511
940.927	0.0127982
941.005	0.0129540
941.083	0.0128966
941.161	0.0128229
941.239	0.0128911
941.318	0.0129232
941.396	0.0129095
941.474	0.0129782
941.552	0.0130318
941.630	0.0130415
941.708	0.0130517
941.786	0.0129948
941.864	0.0130829
941.943	0.0131503
942.021	0.0130618
942.099	0.0131429
942.177	0.0131819
942.255	0.0131583
942.333	0.0129788
942.411	0.0129477
942.489	0.0130547
942.568	0.0131033
942.646	0.0130525
942.724	0.0130789
942.802	0.0130322
942.880	0.0131039
942.958	0.0131512
943.036	0.0129444
943.114	0.0129253
943.193	0.0130828
943.271	0.0129747
943.349	0.0129745
943.427	0.0131037
943.505	0.0128698
943.583	0.0128651
943.661	0.0129247
943.739	0.0129250
943.818	0.0130271
943.896	0.0129976
943.974	0.0129045
944.052	0.0130788
944.130	0.0129815
944.208	0.0129256
944.286	0.0130759
944.364	0.0130662
944.443	0.0130193
944.521	0.0130662
944.599	0.0129415
944.677	0.0130954
944.755	0.0132664
944.833	0.0129227
944.911	0.0131269
944.989	0.0131807
945.068	0.0131393
945.146	0.0130382
945.224	0.0130246
945.302	0.0129510
945.380	0.0129617
945.458	0.0128679
945.536	0.0129646
945.614	0.0130325
945.693	0.0131024
945.771	0.0130518
945.849	0.0130167
945.927	0.0129415
946.005	0.0129353
946.083	0.0129274
946.161	0.0129095
946.239	0.0129108
946.318	0.0129502
946.396	0.0129084
946.474	0.0129315
946.552	0.0129177
946.630	0.0129259
946.708	0.0128485
946.786	0.0129865
946.864	0.0129265
946.943	0.0129070
947.021	0.0129507
947.099	0.0130122
947.177	0.0130616
947.255	0.0130774
947.333	0.0131080
947.411	0.0129739
947.489	0.0130315
947.568	0.0130080
947.646	0.0131181
947.724	0.0129919
947.802	0.0130577
947.880	0.0130762
947.958	0.0130570
948.036	0.0130834
948.114	0.0131320
948.193	0.0131125
948.271	0.0129500
948.349	0.0130170
948.427	0.0129849
948.505	0.0129027
948.583	0.0129177
948.661	0.0130151
948.739	0.0129142
948.818	0.0128916
948.896	0.0127973
948.974	0.0128922
949.052	0.0128978
949.130	0.0129202
949.208	0.0127773
949.286	0.0125916
949.364	0.0126643
949.443	0.0128290
949.521	0.0127765
949.599	0.0127942
949.677	0.0126235
949.755	0.0124851
949.833	0.0125501
949.911	0.0125687
949.989	0.0126766
950.068	0.0126244
950.146	0.0127724
950.224	0.0126830
950.302	0.0127093
950.380	0.0128123
950.458	0.0127641
950.536	0.0128659
950.614	0.0129813
950.693	0.0129022
950.771	0.0128658
950.849	0.0130111
950.927	0.0130071
951.005	0.0130277
951.083	0.0129601
951.161	0.0128707
951.239	0.0128268
951.318	0.0127485
951.396	0.0129326
951.474	0.0129100
951.552	0.0129058
951.630	0.0128541
951.708	0.0128692
951.786	0.0128993
951.864	0.0130110
951.943	0.0130293
952.021	0.0130381
952.099	0.0129144
952.177	0.0130360
952.255	0.0129788
952.333	0.0129117
952.411	0.0130901
952.489	0.0129971
952.568	0.0130785
952.646	0.0130290
952.724	0.0128782
952.802	0.0129381
952.880	0.0129510
952.958	0.0129159
953.036	0.0128947
953.114	0.0129614
953.193	0.0128120
953.271	0.0129787
953.349	0.0129254
953.427	0.0128355
953.505	0.0130152
953.583	0.0130616
953.661	0.0129938
953.739	0.0128883
953.818	0.0129634
953.896	0.0128719
953.974	0.0129325
954.052	0.0129887
954.130	0.0127874
954.208	0.0128273
954.286	0.0129072
954.364	0.0128408
954.443	0.0127877
954.521	0.0129359
954.599	0.0129015
954.677	0.0128406
954.755	0.0129944
954.833	0.0130618
954.911	0.0131459
954.989	0.0130573
955.068	0.0131643
955.146	0.0131399
955.224	0.0130521
955.302	0.0131158
955.380	0.0129552
955.458	0.0129549
955.536	0.0129839
955.614	0.0129353
955.693	0.0128941
955.771	0.0127465
955.849	0.0127365
955.927	0.0125966
956.005	0.0126093
956.083	0.0127150
956.161	0.0127625
956.239	0.0126491
956.318	0.0125385
956.396	0.0127178
956.474	0.0128130
956.552	0.0129716
956.630	0.0127505
956.708	0.0129888
956.786	0.0130861
956.864	0.0129836
956.943	0.0130544
957.021	0.0132001
957.099	0.0131435
957.177	0.0130860
957.255	0.0129803
957.333	0.0131574
957.411	0.0130494
957.489	0.0129433
957.568	0.0128571
957.646	0.0129011
957.724	0.0128023
957.802	0.0128583
957.880	0.0128750
957.958	0.0127298
958.036	0.0125753
958.114	0.0126793
958.193	0.0126799
958.271	0.0128021
958.349	0.0128497
958.427	0.0128082
958.505	0.0126767
958.583	0.0127547
958.661	0.0128822
958.739	0.0127570
958.818	0.0129489
958.896	0.0129240
958.974	0.0130590
959.052	0.0129057
959.130	0.0131145
959.208	0.0130298
959.286	0.0129523
959.364	0.0130169
959.443	0.0129959
959.521	0.0130516
959.599	0.0130643
959.677	0.0130283
959.755	0.0130025
959.833	0.0128532
959.911	0.0128630
