05/07/2022	17:17:22	Ver.	4.1	UNKNOWN
Optical Delay	639.989416	Delta X		0.078125	Sweeps	1	Scan Rate	0/0
Coordinates	Axis 1	NaN	Axis 2	NaN	Axis 3	NaN	Axis 4	NaN	Axis 5	NaN	Axis 6	0.000000
TX Power	0.000000	RX Power	0.000000

639.989	0.0126850
640.068	0.0127541
640.146	0.0127094
640.224	0.0126331
640.302	0.0127128
640.380	0.0127340
640.458	0.0126588
640.536	0.0127496
640.614	0.0126590
640.693	0.0126505
640.771	0.0126706
640.849	0.0128506
640.927	0.0127305
641.005	0.0126997
641.083	0.0127680
641.161	0.0126978
641.239	0.0127254
641.318	0.0126508
641.396	0.0127156
641.474	0.0127152
641.552	0.0126608
641.630	0.0128245
641.708	0.0127518
641.786	0.0125970
641.864	0.0126614
641.943	0.0127516
642.021	0.0126148
642.099	0.0125327
642.177	0.0127817
642.255	0.0127338
642.333	0.0127654
642.411	0.0127614
642.489	0.0126202
642.568	0.0126734
642.646	0.0126543
642.724	0.0128146
642.802	0.0125984
642.880	0.0126303
642.958	0.0126727
643.036	0.0126364
643.114	0.0125815
643.193	0.0126545
643.271	0.0127249
643.349	0.0127113
643.427	0.0126447
643.505	0.0126524
643.583	0.0127290
643.661	0.0125862
643.739	0.0127508
643.818	0.0127195
643.896	0.0127055
643.974	0.0126579
644.052	0.0128042
644.130	0.0127925
644.208	0.0126265
644.286	0.0126771
644.364	0.0128071
644.443	0.0127274
644.521	0.0127737
644.599	0.0125875
644.677	0.0126166
644.755	0.0126655
644.833	0.0127360
644.911	0.0128257
644.989	0.0127915
645.068	0.0127966
645.146	0.0129386
645.224	0.0127293
645.302	0.0127846
645.380	0.0127894
645.458	0.0128071
645.536	0.0127303
645.614	0.0127064
645.693	0.0127914
645.771	0.0128152
645.849	0.0128165
645.927	0.0126535
646.005	0.0127074
646.083	0.0126222
646.161	0.0126154
646.239	0.0127178
646.318	0.0128268
646.396	0.0127946
646.474	0.0128582
646.552	0.0127666
646.630	0.0127603
646.708	0.0128143
646.786	0.0128135
646.864	0.0127235
646.943	0.0126951
647.021	0.0128680
647.099	0.0128032
647.177	0.0128504
647.255	0.0127904
647.333	0.0127397
647.411	0.0126189
647.489	0.0128216
647.568	0.0127621
647.646	0.0128151
647.724	0.0128103
647.802	0.0127083
647.880	0.0127178
647.958	0.0127988
648.036	0.0127010
648.114	0.0127239
648.193	0.0127019
648.271	0.0126441
648.349	0.0127013
648.427	0.0126974
648.505	0.0126976
648.583	0.0127177
648.661	0.0127097
648.739	0.0128834
648.818	0.0125627
648.896	0.0128012
648.974	0.0126917
649.052	0.0126451
649.130	0.0128171
649.208	0.0128326
649.286	0.0127769
649.364	0.0128284
649.443	0.0126154
649.521	0.0126567
649.599	0.0127534
649.677	0.0127341
649.755	0.0127473
649.833	0.0126894
649.911	0.0127990
649.989	0.0126282
650.068	0.0126661
650.146	0.0127802
650.224	0.0125328
650.302	0.0126292
650.380	0.0128060
650.458	0.0127428
650.536	0.0127162
650.614	0.0127266
650.693	0.0127602
650.771	0.0127352
650.849	0.0127162
650.927	0.0126408
651.005	0.0128210
651.083	0.0127683
651.161	0.0127847
651.239	0.0128122
651.318	0.0127706
651.396	0.0128197
651.474	0.0127502
651.552	0.0128239
651.630	0.0128082
651.708	0.0127864
651.786	0.0126483
651.864	0.0128043
651.943	0.0128362
652.021	0.0128217
652.099	0.0127377
652.177	0.0126453
652.255	0.0127747
652.333	0.0126491
652.411	0.0128489
652.489	0.0128529
652.568	0.0126843
652.646	0.0128128
652.724	0.0126612
652.802	0.0126365
652.880	0.0128950
652.958	0.0127795
653.036	0.0127540
653.114	0.0127237
653.193	0.0127230
653.271	0.0126436
653.349	0.0126711
653.427	0.0126842
653.505	0.0127163
653.583	0.0127637
653.661	0.0125920
653.739	0.0126266
653.818	0.0126102
653.896	0.0127945
653.974	0.0126814
654.052	0.0127448
654.130	0.0127058
654.208	0.0126912
654.286	0.0127088
654.364	0.0128143
654.443	0.0126448
654.521	0.0127364
654.599	0.0127370
654.677	0.0127058
654.755	0.0126917
654.833	0.0127241
654.911	0.0125979
654.989	0.0126728
655.068	0.0126926
655.146	0.0127071
655.224	0.0126832
655.302	0.0126958
655.380	0.0126766
655.458	0.0127608
655.536	0.0128316
655.614	0.0126530
655.693	0.0127285
655.771	0.0126700
655.849	0.0128553
655.927	0.0127055
656.005	0.0127867
656.083	0.0127019
656.161	0.0127863
656.239	0.0126460
656.318	0.0126507
656.396	0.0127523
656.474	0.0127743
656.552	0.0127036
656.630	0.0126385
656.708	0.0126890
656.786	0.0127110
656.864	0.0125813
656.943	0.0126718
657.021	0.0127177
657.099	0.0127817
657.177	0.0126756
657.255	0.0128442
657.333	0.0126306
657.411	0.0127273
657.489	0.0125755
657.568	0.0125597
657.646	0.0127307
657.724	0.0127404
657.802	0.0127558
657.880	0.0126181
657.958	0.0126856
658.036	0.0125981
658.114	0.0126998
658.193	0.0127412
658.271	0.0126218
658.349	0.0127159
658.427	0.0126823
658.505	0.0126479
658.583	0.0127155
658.661	0.0126867
658.739	0.0126675
658.818	0.0127439
658.896	0.0126885
658.974	0.0126517
659.052	0.0127309
659.130	0.0127753
659.208	0.0127533
659.286	0.0127564
659.364	0.0127715
659.443	0.0126837
659.521	0.0126503
659.599	0.0127422
659.677	0.0126947
659.755	0.0125942
659.833	0.0127176
659.911	0.0127791
659.989	0.0128107
660.068	0.0127248
660.146	0.0127312
660.224	0.0127393
660.302	0.0127309
660.380	0.0128434
660.458	0.0127836
660.536	0.0126888
660.614	0.0125465
660.693	0.0126780
660.771	0.0126476
660.849	0.0127573
660.927	0.0127027
661.005	0.0127381
661.083	0.0127850
661.161	0.0127455
661.239	0.0127393
661.318	0.0126231
661.396	0.0126728
661.474	0.0127308
661.552	0.0127004
661.630	0.0126029
661.708	0.0127155
661.786	0.0126772
661.864	0.0127367
661.943	0.0126714
662.021	0.0126257
662.099	0.0127384
662.177	0.0126720
662.255	0.0126077
662.333	0.0126984
662.411	0.0127808
662.489	0.0127495
662.568	0.0127428
662.646	0.0126646
662.724	0.0127020
662.802	0.0127351
662.880	0.0126419
662.958	0.0126821
663.036	0.0127494
663.114	0.0126745
663.193	0.0126630
663.271	0.0125396
663.349	0.0126367
663.427	0.0126831
663.505	0.0126110
663.583	0.0126337
663.661	0.0126270
663.739	0.0127032
663.818	0.0128371
663.896	0.0127501
663.974	0.0126805
664.052	0.0126856
664.130	0.0127037
664.208	0.0126392
664.286	0.0127868
664.364	0.0128160
664.443	0.0126447
664.521	0.0127055
664.599	0.0126542
664.677	0.0128058
664.755	0.0126217
664.833	0.0127991
664.911	0.0127013
664.989	0.0125874
665.068	0.0125285
665.146	0.0126706
665.224	0.0126096
665.302	0.0127116
665.380	0.0126224
665.458	0.0125552
665.536	0.0128101
665.614	0.0126389
665.693	0.0126917
665.771	0.0127271
665.849	0.0127082
665.927	0.0126722
666.005	0.0124606
666.083	0.0123698
666.161	0.0124917
666.239	0.0125349
666.318	0.0126857
666.396	0.0127004
666.474	0.0125530
666.552	0.0126443
666.630	0.0127197
666.708	0.0127085
666.786	0.0127268
666.864	0.0128283
666.943	0.0127181
667.021	0.0128642
667.099	0.0128191
667.177	0.0128344
667.255	0.0128484
667.333	0.0127231
667.411	0.0126492
667.489	0.0128107
667.568	0.0125970
667.646	0.0125468
667.724	0.0124578
667.802	0.0123807
667.880	0.0126046
667.958	0.0124496
668.036	0.0127603
668.114	0.0126257
668.193	0.0124431
668.271	0.0124751
668.349	0.0125187
668.427	0.0127022
668.505	0.0125587
668.583	0.0126213
668.661	0.0126749
668.739	0.0126731
668.818	0.0127786
668.896	0.0127969
668.974	0.0127673
669.052	0.0129632
669.130	0.0128692
669.208	0.0127956
669.286	0.0129455
669.364	0.0128978
669.443	0.0129430
669.521	0.0129417
669.599	0.0130866
669.677	0.0129839
669.755	0.0129002
669.833	0.0129137
669.911	0.0128712
669.989	0.0128304
670.068	0.0127158
670.146	0.0125960
670.224	0.0123787
670.302	0.0123077
670.380	0.0122961
670.458	0.0122564
670.536	0.0123126
670.614	0.0119427
670.693	0.0120921
670.771	0.0121696
670.849	0.0121748
670.927	0.0122334
671.005	0.0123508
671.083	0.0125195
671.161	0.0126231
671.239	0.0126708
671.318	0.0127978
671.396	0.0128490
671.474	0.0128913
671.552	0.0129327
671.630	0.0131563
671.708	0.0131509
671.786	0.0132236
671.864	0.0134024
671.943	0.0133215
672.021	0.0132594
672.099	0.0132472
672.177	0.0133176
672.255	0.0132796
672.333	0.0131767
672.411	0.0130743
672.489	0.0129848
672.568	0.0129863
672.646	0.0129903
672.724	0.0127081
672.802	0.0125110
672.880	0.0124702
672.958	0.0123440
673.036	0.0121305
673.114	0.0120335
673.193	0.0119728
673.271	0.0117995
673.349	0.0118916
673.427	0.0119711
673.505	0.0119328
673.583	0.0118716
673.661	0.0119997
673.739	0.0122707
673.818	0.0123203
673.896	0.0122897
673.974	0.0124277
674.052	0.0126028
674.130	0.0126508
674.208	0.0127670
674.286	0.0128915
674.364	0.0129623
674.443	0.0130524
674.521	0.0131898
674.599	0.0130686
674.677	0.0134444
674.755	0.0134068
674.833	0.0134151
674.911	0.0134731
674.989	0.0136564
675.068	0.0137086
675.146	0.0136546
675.224	0.0135204
675.302	0.0133213
675.380	0.0133908
675.458	0.0131160
675.536	0.0129712
675.614	0.0128115
675.693	0.0125951
675.771	0.0123145
675.849	0.0123355
675.927	0.0119995
676.005	0.0119739
676.083	0.0118769
676.161	0.0118052
676.239	0.0118416
676.318	0.0117905
676.396	0.0118772
676.474	0.0118688
676.552	0.0121028
676.630	0.0122246
676.708	0.0124877
676.786	0.0124015
676.864	0.0124843
676.943	0.0127833
677.021	0.0128486
677.099	0.0130868
677.177	0.0132344
677.255	0.0133134
677.333	0.0134825
677.411	0.0135784
677.489	0.0135467
677.568	0.0135400
677.646	0.0135011
677.724	0.0134072
677.802	0.0131416
677.880	0.0130432
677.958	0.0130347
678.036	0.0126170
678.114	0.0125462
678.193	0.0123227
678.271	0.0121959
678.349	0.0118934
678.427	0.0116956
678.505	0.0119186
678.583	0.0117650
678.661	0.0117728
678.739	0.0115993
678.818	0.0118519
678.896	0.0119247
678.974	0.0121831
679.052	0.0121592
679.130	0.0121593
679.208	0.0123961
679.286	0.0124522
679.364	0.0126974
679.443	0.0128673
679.521	0.0129704
679.599	0.0132530
679.677	0.0135464
679.755	0.0137362
679.833	0.0136482
679.911	0.0137002
679.989	0.0138654
680.068	0.0140440
680.146	0.0140694
680.224	0.0141067
680.302	0.0141944
680.380	0.0140925
680.458	0.0139087
680.536	0.0137862
680.614	0.0137116
680.693	0.0134374
680.771	0.0133067
680.849	0.0130653
680.927	0.0128747
681.005	0.0125153
681.083	0.0122281
681.161	0.0120190
681.239	0.0119315
681.318	0.0117519
681.396	0.0114576
681.474	0.0113203
681.552	0.0112518
681.630	0.0111189
681.708	0.0109675
681.786	0.0109850
681.864	0.0109379
681.943	0.0110754
682.021	0.0111795
682.099	0.0111964
682.177	0.0112634
682.255	0.0114321
682.333	0.0115005
682.411	0.0119254
682.489	0.0121939
682.568	0.0124241
682.646	0.0125971
682.724	0.0129521
682.802	0.0133423
682.880	0.0134491
682.958	0.0137622
683.036	0.0138946
683.114	0.0140623
683.193	0.0142152
683.271	0.0144371
683.349	0.0144411
683.427	0.0144582
683.505	0.0143324
683.583	0.0143040
683.661	0.0143330
683.739	0.0140952
683.818	0.0139054
683.896	0.0139303
683.974	0.0137564
684.052	0.0135732
684.130	0.0134856
684.208	0.0135785
684.286	0.0134081
684.364	0.0130936
684.443	0.0131374
684.521	0.0131587
684.599	0.0130303
684.677	0.0128795
684.755	0.0126240
684.833	0.0122788
684.911	0.0122608
684.989	0.0119879
685.068	0.0118351
685.146	0.0117841
685.224	0.0116269
685.302	0.0114862
685.380	0.0113276
685.458	0.0112536
685.536	0.0111966
685.614	0.0112185
685.693	0.0111670
685.771	0.0112476
685.849	0.0112820
685.927	0.0113123
686.005	0.0113528
686.083	0.0112751
686.161	0.0112720
686.239	0.0116148
686.318	0.0116427
686.396	0.0114870
686.474	0.0116681
686.552	0.0117457
686.630	0.0117505
686.708	0.0117533
686.786	0.0119965
686.864	0.0121770
686.943	0.0122395
687.021	0.0124255
687.099	0.0126846
687.177	0.0130674
687.255	0.0133956
687.333	0.0134875
687.411	0.0139867
687.489	0.0141934
687.568	0.0145108
687.646	0.0148986
687.724	0.0152489
687.802	0.0154408
687.880	0.0156458
687.958	0.0158858
688.036	0.0160741
688.114	0.0159525
688.193	0.0160550
688.271	0.0158511
688.349	0.0157260
688.427	0.0154662
688.505	0.0150094
688.583	0.0147326
688.661	0.0142706
688.739	0.0136522
688.818	0.0131905
688.896	0.0125498
688.974	0.0119221
689.052	0.0114776
689.130	0.0109804
689.208	0.0105604
689.286	0.0101718
689.364	0.00983002
689.443	0.00943138
689.521	0.00918839
689.599	0.00918915
689.677	0.00911713
689.755	0.00921013
689.833	0.00920006
689.911	0.00950989
689.989	0.00972504
690.068	0.00983543
690.146	0.00992645
690.224	0.0103666
690.302	0.0106909
690.380	0.0109396
690.458	0.0112695
690.536	0.0116593
690.614	0.0119245
690.693	0.0123587
690.771	0.0127733
690.849	0.0130122
690.927	0.0132903
691.005	0.0137701
691.083	0.0140832
691.161	0.0142793
691.239	0.0143993
691.318	0.0146073
691.396	0.0147902
691.474	0.0149216
691.552	0.0149898
691.630	0.0151897
691.708	0.0151854
691.786	0.0150968
691.864	0.0150203
691.943	0.0150202
692.021	0.0149244
692.099	0.0148061
692.177	0.0143699
692.255	0.0143401
692.333	0.0140214
692.411	0.0136626
692.489	0.0134666
692.568	0.0131841
692.646	0.0129433
692.724	0.0127182
692.802	0.0124596
692.880	0.0123666
692.958	0.0122313
693.036	0.0121711
693.114	0.0119604
693.193	0.0121203
693.271	0.0121911
693.349	0.0121321
693.427	0.0120075
693.505	0.0121539
693.583	0.0122620
693.661	0.0122758
693.739	0.0121374
693.818	0.0122465
693.896	0.0121344
693.974	0.0121559
694.052	0.0120815
694.130	0.0119630
694.208	0.0119064
694.286	0.0117809
694.364	0.0117113
694.443	0.0116091
694.521	0.0115575
694.599	0.0116013
694.677	0.0115331
694.755	0.0115091
694.833	0.0114952
694.911	0.0114129
694.989	0.0114072
695.068	0.0114792
695.146	0.0116640
695.224	0.0116419
695.302	0.0116400
695.380	0.0117660
695.458	0.0117387
695.536	0.0118223
695.614	0.0119221
695.693	0.0119798
695.771	0.0121173
695.849	0.0122618
695.927	0.0125214
696.005	0.0127006
696.083	0.0128960
696.161	0.0129800
696.239	0.0131586
696.318	0.0135596
696.396	0.0136783
696.474	0.0138187
696.552	0.0138884
696.630	0.0140489
696.708	0.0141228
696.786	0.0141277
696.864	0.0140819
696.943	0.0141974
697.021	0.0143498
697.099	0.0140912
697.177	0.0140971
697.255	0.0140154
697.333	0.0138026
697.411	0.0135738
697.489	0.0133820
697.568	0.0133786
697.646	0.0133484
697.724	0.0130221
697.802	0.0130378
697.880	0.0128597
697.958	0.0127403
698.036	0.0127963
698.114	0.0127477
698.193	0.0128081
698.271	0.0126648
698.349	0.0127531
698.427	0.0127068
698.505	0.0126604
698.583	0.0126638
698.661	0.0127210
698.739	0.0127644
698.818	0.0127991
698.896	0.0128721
698.974	0.0129695
699.052	0.0130515
699.130	0.0128912
699.208	0.0129763
699.286	0.0130182
699.364	0.0129327
699.443	0.0127782
699.521	0.0127788
699.599	0.0127573
699.677	0.0126354
699.755	0.0125256
699.833	0.0124215
699.911	0.0120774
699.989	0.0118261
700.068	0.0117265
700.146	0.0113268
700.224	0.0112604
700.302	0.0110298
700.380	0.0106023
700.458	0.0104871
700.536	0.0102115
700.614	0.0100024
700.693	0.00984108
700.771	0.00984680
700.849	0.00981819
700.927	0.00998878
701.005	0.00974075
701.083	0.00987549
701.161	0.0102413
701.239	0.0106289
701.318	0.0107746
701.396	0.0113209
701.474	0.0118507
701.552	0.0122662
701.630	0.0126957
701.708	0.0133560
701.786	0.0139532
701.864	0.0142774
701.943	0.0147356
702.021	0.0152159
702.099	0.0156330
702.177	0.0158828
702.255	0.0162916
702.333	0.0163969
702.411	0.0163177
702.489	0.0165694
702.568	0.0165704
702.646	0.0166900
702.724	0.0166562
702.802	0.0164618
702.880	0.0161814
702.958	0.0158943
703.036	0.0158539
703.114	0.0154516
703.193	0.0150220
703.271	0.0146197
703.349	0.0139954
703.427	0.0136887
703.505	0.0129971
703.583	0.0125139
703.661	0.0119462
703.739	0.0113046
703.818	0.0108163
703.896	0.0103768
703.974	0.0101255
704.052	0.00993042
704.130	0.00979149
704.208	0.00969261
704.286	0.00973824
704.364	0.00991837
704.443	0.0100519
704.521	0.0101088
704.599	0.0103288
704.677	0.0106542
704.755	0.0108111
704.833	0.0110909
704.911	0.0113777
704.989	0.0115220
705.068	0.0117175
705.146	0.0121054
705.224	0.0122636
705.302	0.0122906
705.380	0.0124125
705.458	0.0126523
705.536	0.0125993
705.614	0.0126750
705.693	0.0126159
705.771	0.0125403
705.849	0.0124914
705.927	0.0124760
706.005	0.0124972
706.083	0.0118670
706.161	0.0118802
706.239	0.0118663
706.318	0.0116096
706.396	0.0112917
706.474	0.0113294
706.552	0.0112856
706.630	0.0112856
706.708	0.0112728
706.786	0.0115188
706.864	0.0116206
706.943	0.0117753
707.021	0.0120948
707.099	0.0125032
707.177	0.0130060
707.255	0.0134196
707.333	0.0139439
707.411	0.0144192
707.489	0.0150056
707.568	0.0156530
707.646	0.0158175
707.724	0.0164171
707.802	0.0166483
707.880	0.0168468
707.958	0.0168736
708.036	0.0170467
708.114	0.0169147
708.193	0.0168477
708.271	0.0165094
708.349	0.0162747
708.427	0.0159233
708.505	0.0154462
708.583	0.0150013
708.661	0.0146027
708.739	0.0139340
708.818	0.0134477
708.896	0.0128522
708.974	0.0123644
709.052	0.0118874
709.130	0.0114384
709.208	0.0109724
709.286	0.0105717
709.364	0.0102027
709.443	0.00970352
709.521	0.00958527
709.599	0.00937340
709.677	0.00922279
709.755	0.00916191
709.833	0.00903641
709.911	0.00924263
709.989	0.00936127
710.068	0.00965385
710.146	0.00994942
710.224	0.0102105
710.302	0.0105151
710.380	0.0111872
710.458	0.0117242
710.536	0.0120121
710.614	0.0122678
710.693	0.0126551
710.771	0.0130604
710.849	0.0133034
710.927	0.0134109
711.005	0.0135564
711.083	0.0136036
711.161	0.0137021
711.239	0.0134562
711.318	0.0134861
711.396	0.0134760
711.474	0.0133159
711.552	0.0131836
711.630	0.0129900
711.708	0.0127740
711.786	0.0127876
711.864	0.0127824
711.943	0.0125079
712.021	0.0122141
712.099	0.0121530
712.177	0.0121149
712.255	0.0120372
712.333	0.0119798
712.411	0.0121278
712.489	0.0121357
712.568	0.0123147
712.646	0.0125227
712.724	0.0128632
712.802	0.0130610
712.880	0.0133407
712.958	0.0136937
713.036	0.0138318
713.114	0.0141467
713.193	0.0146260
713.271	0.0147138
713.349	0.0149290
713.427	0.0149931
713.505	0.0151230
713.583	0.0153205
713.661	0.0151260
713.739	0.0151123
713.818	0.0148756
713.896	0.0146870
713.974	0.0144530
714.052	0.0143861
714.130	0.0140750
714.208	0.0136813
714.286	0.0135986
714.364	0.0133221
714.443	0.0130429
714.521	0.0127431
714.599	0.0125789
714.677	0.0122523
714.755	0.0120200
714.833	0.0117417
714.911	0.0114048
714.989	0.0113825
715.068	0.0110858
715.146	0.0109776
715.224	0.0108089
715.302	0.0106900
715.380	0.0104817
715.458	0.0105558
715.536	0.0104769
715.614	0.0105309
715.693	0.0106367
715.771	0.0106728
715.849	0.0107690
715.927	0.0108626
716.005	0.0114525
716.083	0.0116786
716.161	0.0117786
716.239	0.0123945
716.318	0.0127632
716.396	0.0131277
716.474	0.0133892
716.552	0.0134769
716.630	0.0139508
716.708	0.0140942
716.786	0.0140768
716.864	0.0141646
716.943	0.0142436
717.021	0.0143141
717.099	0.0138220
717.177	0.0136816
717.255	0.0135464
717.333	0.0133736
717.411	0.0129771
717.489	0.0127494
717.568	0.0123930
717.646	0.0119938
717.724	0.0118586
717.802	0.0115353
717.880	0.0109951
717.958	0.0106658
718.036	0.0104736
718.114	0.0103870
718.193	0.0103054
718.271	0.0101573
718.349	0.0102741
718.427	0.0103436
718.505	0.0106882
718.583	0.0110627
718.661	0.0113358
718.739	0.0119173
718.818	0.0123602
718.896	0.0128239
718.974	0.0133690
719.052	0.0140220
719.130	0.0145461
719.208	0.0149474
719.286	0.0154864
719.364	0.0158936
719.443	0.0161741
719.521	0.0164047
719.599	0.0166962
719.677	0.0165904
719.755	0.0166270
719.833	0.0166477
719.911	0.0165111
719.989	0.0164025
720.068	0.0160114
720.146	0.0156950
720.224	0.0153810
720.302	0.0151092
720.380	0.0147630
720.458	0.0141798
720.536	0.0136497
720.614	0.0130938
720.693	0.0126924
720.771	0.0120406
720.849	0.0114514
720.927	0.0111415
721.005	0.0106941
721.083	0.0102540
721.161	0.00983116
721.239	0.00945175
721.318	0.00926689
721.396	0.00911774
721.474	0.00904381
721.552	0.00910667
721.630	0.00916222
721.708	0.00917671
721.786	0.00932419
721.864	0.00977135
721.943	0.0100480
722.021	0.0102978
722.099	0.0106702
722.177	0.0110226
722.255	0.0115937
722.333	0.0119677
722.411	0.0124242
722.489	0.0127023
722.568	0.0129476
722.646	0.0132377
722.724	0.0136011
722.802	0.0135826
722.880	0.0135336
722.958	0.0137794
723.036	0.0137000
723.114	0.0137462
723.193	0.0136417
723.271	0.0135728
723.349	0.0132200
723.427	0.0133128
723.505	0.0130100
723.583	0.0125603
723.661	0.0123988
723.739	0.0122574
723.818	0.0120283
723.896	0.0118192
723.974	0.0116517
724.052	0.0114342
724.130	0.0113715
724.208	0.0115284
724.286	0.0116199
724.364	0.0117421
724.443	0.0119778
724.521	0.0122354
724.599	0.0127173
724.677	0.0130873
724.755	0.0133891
724.833	0.0137511
724.911	0.0141604
724.989	0.0144168
725.068	0.0148235
725.146	0.0152464
725.224	0.0155988
725.302	0.0157132
725.380	0.0159779
725.458	0.0161476
725.536	0.0161080
725.614	0.0160798
725.693	0.0160206
725.771	0.0158033
725.849	0.0155743
725.927	0.0153048
726.005	0.0149965
726.083	0.0146739
726.161	0.0142580
726.239	0.0138416
726.318	0.0135812
726.396	0.0131104
726.474	0.0128593
726.552	0.0124406
726.630	0.0119047
726.708	0.0116891
726.786	0.0114259
726.864	0.0111968
726.943	0.0107135
727.021	0.0104724
727.099	0.0102469
727.177	0.0101380
727.255	0.00986084
727.333	0.00994095
727.411	0.00984230
727.489	0.00981087
727.568	0.0100842
727.646	0.0101219
727.724	0.0102442
727.802	0.0103975
727.880	0.0107432
727.958	0.0109836
728.036	0.0112108
728.114	0.0116032
728.193	0.0118239
728.271	0.0121618
728.349	0.0123476
728.427	0.0123849
728.505	0.0127111
728.583	0.0129054
728.661	0.0129636
728.739	0.0131182
728.818	0.0131230
728.896	0.0132204
728.974	0.0132208
729.052	0.0130949
729.130	0.0131583
729.208	0.0130022
729.286	0.0129813
729.364	0.0129417
729.443	0.0125843
729.521	0.0124830
729.599	0.0125998
729.677	0.0122514
729.755	0.0120939
729.833	0.0119887
729.911	0.0120000
729.989	0.0119496
730.068	0.0119822
730.146	0.0118920
730.224	0.0119285
730.302	0.0122358
730.380	0.0125406
730.458	0.0126787
730.536	0.0130634
730.614	0.0134566
730.693	0.0137047
730.771	0.0140813
730.849	0.0144280
730.927	0.0148097
731.005	0.0150568
731.083	0.0157000
731.161	0.0158188
731.239	0.0159892
731.318	0.0161995
731.396	0.0163596
731.474	0.0162909
731.552	0.0162847
731.630	0.0162819
731.708	0.0161516
731.786	0.0158648
731.864	0.0156792
731.943	0.0152604
732.021	0.0147488
732.099	0.0144552
732.177	0.0140076
732.255	0.0134755
732.333	0.0130491
732.411	0.0124319
732.489	0.0120522
732.568	0.0115257
732.646	0.0111061
732.724	0.0107603
732.802	0.0103126
732.880	0.0101553
732.958	0.00991348
733.036	0.00977524
733.114	0.00945198
733.193	0.00955750
733.271	0.00930260
733.349	0.00939064
733.427	0.00952225
733.505	0.00970207
733.583	0.00981285
733.661	0.00981453
733.739	0.0102463
733.818	0.0104605
733.896	0.0108014
733.974	0.0110448
734.052	0.0114488
734.130	0.0116895
734.208	0.0120138
734.286	0.0120497
734.364	0.0124319
734.443	0.0124850
734.521	0.0125685
734.599	0.0127773
734.677	0.0130241
734.755	0.0130396
734.833	0.0132119
734.911	0.0132724
734.989	0.0132034
735.068	0.0133167
735.146	0.0135476
735.224	0.0134584
735.302	0.0133447
735.380	0.0134026
735.458	0.0134995
735.536	0.0132644
735.614	0.0133423
735.693	0.0131165
735.771	0.0129646
735.849	0.0129638
735.927	0.0129646
736.005	0.0127929
736.083	0.0126678
736.161	0.0126947
736.239	0.0127460
736.318	0.0128404
736.396	0.0128624
736.474	0.0130303
736.552	0.0132283
736.630	0.0133668
736.708	0.0135049
736.786	0.0136301
736.864	0.0139246
736.943	0.0142628
737.021	0.0144680
737.099	0.0145464
737.177	0.0146373
737.255	0.0148950
737.333	0.0149896
737.411	0.0150674
737.489	0.0151073
737.568	0.0151093
737.646	0.0151205
737.724	0.0149503
737.802	0.0148479
737.880	0.0147014
737.958	0.0145595
738.036	0.0142458
738.114	0.0139789
738.193	0.0137093
738.271	0.0134248
738.349	0.0131319
738.427	0.0128587
738.505	0.0124512
738.583	0.0121484
738.661	0.0117730
738.739	0.0114727
738.818	0.0112150
738.896	0.0109172
738.974	0.0107587
739.052	0.0104404
739.130	0.0104842
739.208	0.0103740
739.286	0.0102370
739.364	0.0101661
739.443	0.0101968
739.521	0.0102459
739.599	0.0103315
739.677	0.0102983
739.755	0.0104172
739.833	0.0107358
739.911	0.0107378
739.989	0.0107829
740.068	0.0108880
740.146	0.0111665
740.224	0.0112739
740.302	0.0113324
740.380	0.0115930
740.458	0.0117551
740.536	0.0118761
740.614	0.0121063
740.693	0.0121230
740.771	0.0123238
740.849	0.0125964
740.927	0.0128255
741.005	0.0128947
741.083	0.0130920
741.161	0.0132611
741.239	0.0133220
741.318	0.0134900
741.396	0.0135652
741.474	0.0137012
741.552	0.0137209
741.630	0.0137120
741.708	0.0137984
741.786	0.0136498
741.864	0.0137741
741.943	0.0137350
742.021	0.0136659
742.099	0.0136870
742.177	0.0136742
742.255	0.0137482
742.333	0.0137334
742.411	0.0137615
742.489	0.0136343
742.568	0.0136076
742.646	0.0137418
742.724	0.0139610
742.802	0.0139307
742.880	0.0138872
742.958	0.0140224
743.036	0.0141967
743.114	0.0142373
743.193	0.0141792
743.271	0.0143471
743.349	0.0142103
743.427	0.0142552
743.505	0.0143464
743.583	0.0140892
743.661	0.0140864
743.739	0.0139167
743.818	0.0137817
743.896	0.0136517
743.974	0.0133104
744.052	0.0131789
744.130	0.0130259
744.208	0.0129226
744.286	0.0127214
744.364	0.0124853
744.443	0.0123562
744.521	0.0121413
744.599	0.0119637
744.677	0.0117970
744.755	0.0116383
744.833	0.0115622
744.911	0.0114966
744.989	0.0113978
745.068	0.0112473
745.146	0.0111893
745.224	0.0111633
745.302	0.0112676
745.380	0.0112920
745.458	0.0112670
745.536	0.0111407
745.614	0.0112789
745.693	0.0114944
745.771	0.0116172
745.849	0.0114894
745.927	0.0115713
746.005	0.0117363
746.083	0.0118665
746.161	0.0118803
746.239	0.0118356
746.318	0.0119775
746.396	0.0118560
746.474	0.0117715
746.552	0.0119638
746.630	0.0120165
746.708	0.0119720
746.786	0.0121447
746.864	0.0122695
746.943	0.0122427
747.021	0.0123428
747.099	0.0124773
747.177	0.0124726
747.255	0.0127197
747.333	0.0128355
747.411	0.0128941
747.489	0.0130209
747.568	0.0131532
747.646	0.0132661
747.724	0.0133954
747.802	0.0134903
747.880	0.0134725
747.958	0.0135178
748.036	0.0137146
748.114	0.0138041
748.193	0.0137100
748.271	0.0137740
748.349	0.0138106
748.427	0.0137146
748.505	0.0138771
748.583	0.0138841
748.661	0.0139537
748.739	0.0139316
748.818	0.0140006
748.896	0.0141348
748.974	0.0140681
749.052	0.0140268
749.130	0.0140103
749.208	0.0140289
749.286	0.0140929
749.364	0.0139911
749.443	0.0138910
749.521	0.0138000
749.599	0.0137244
749.677	0.0134715
749.755	0.0133047
749.833	0.0133466
749.911	0.0130967
749.989	0.0128731
750.068	0.0127108
750.146	0.0127451
750.224	0.0126357
750.302	0.0124807
750.380	0.0124036
750.458	0.0123973
750.536	0.0122668
750.614	0.0122791
750.693	0.0122438
750.771	0.0121902
750.849	0.0121426
750.927	0.0120480
751.005	0.0120164
751.083	0.0121348
751.161	0.0120598
751.239	0.0120187
751.318	0.0119569
751.396	0.0118078
751.474	0.0119653
751.552	0.0120573
751.630	0.0120050
751.708	0.0121859
751.786	0.0122121
751.864	0.0121462
751.943	0.0121541
752.021	0.0120525
752.099	0.0121947
752.177	0.0120106
752.255	0.0120148
752.333	0.0119324
752.411	0.0118175
752.489	0.0117097
752.568	0.0116472
752.646	0.0115681
752.724	0.0116459
752.802	0.0115432
752.880	0.0116545
752.958	0.0117387
753.036	0.0118365
753.114	0.0120192
753.193	0.0121116
753.271	0.0122340
753.349	0.0123225
753.427	0.0126123
753.505	0.0128301
753.583	0.0128364
753.661	0.0130479
753.739	0.0133012
753.818	0.0133743
753.896	0.0134419
753.974	0.0134910
754.052	0.0134362
754.130	0.0134492
754.208	0.0134756
754.286	0.0136073
754.364	0.0137399
754.443	0.0135905
754.521	0.0136210
754.599	0.0136780
754.677	0.0134158
754.755	0.0137112
754.833	0.0136948
754.911	0.0136914
754.989	0.0138320
755.068	0.0138102
755.146	0.0139665
755.224	0.0138474
755.302	0.0138891
755.380	0.0137495
755.458	0.0138087
755.536	0.0137960
755.614	0.0137292
755.693	0.0135558
755.771	0.0133935
755.849	0.0133006
755.927	0.0132117
756.005	0.0130093
756.083	0.0129589
756.161	0.0128885
756.239	0.0127290
756.318	0.0126324
756.396	0.0126436
756.474	0.0123972
756.552	0.0123946
756.630	0.0123627
756.708	0.0125362
756.786	0.0124226
756.864	0.0125055
756.943	0.0124407
757.021	0.0123605
757.099	0.0124882
757.177	0.0125510
757.255	0.0125434
757.333	0.0124084
757.411	0.0124030
757.489	0.0125277
757.568	0.0124757
757.646	0.0123557
757.724	0.0124050
757.802	0.0124688
757.880	0.0124589
757.958	0.0124300
758.036	0.0124099
758.114	0.0122298
758.193	0.0123116
758.271	0.0122432
758.349	0.0120119
758.427	0.0118581
758.505	0.0118451
758.583	0.0118290
758.661	0.0117266
758.739	0.0115170
758.818	0.0116782
758.896	0.0116489
758.974	0.0114325
759.052	0.0116189
759.130	0.0117242
759.208	0.0117607
759.286	0.0117778
759.364	0.0119659
759.443	0.0119914
759.521	0.0120570
759.599	0.0122256
759.677	0.0122926
759.755	0.0123428
759.833	0.0123347
759.911	0.0124933
759.989	0.0126112
760.068	0.0129202
760.146	0.0130641
760.224	0.0130642
760.302	0.0131194
760.380	0.0133843
760.458	0.0134840
760.536	0.0136036
760.614	0.0137767
760.693	0.0138289
760.771	0.0138574
760.849	0.0139764
760.927	0.0142030
761.005	0.0141889
761.083	0.0140934
761.161	0.0141598
761.239	0.0141734
761.318	0.0140675
761.396	0.0140023
761.474	0.0139539
761.552	0.0137613
761.630	0.0138123
761.708	0.0135411
761.786	0.0136319
761.864	0.0132877
761.943	0.0130278
762.021	0.0129666
762.099	0.0128915
762.177	0.0127818
762.255	0.0126228
762.333	0.0125854
762.411	0.0125845
762.489	0.0124906
762.568	0.0123856
762.646	0.0123139
762.724	0.0121873
762.802	0.0121905
762.880	0.0121053
762.958	0.0120241
763.036	0.0121226
763.114	0.0121113
763.193	0.0121690
763.271	0.0121902
763.349	0.0121522
763.427	0.0121832
763.505	0.0122498
763.583	0.0123893
763.661	0.0124918
763.739	0.0125793
763.818	0.0126665
763.896	0.0127106
763.974	0.0125788
764.052	0.0127257
764.130	0.0127692
764.208	0.0127036
764.286	0.0127572
764.364	0.0126477
764.443	0.0125445
764.521	0.0124023
764.599	0.0125101
764.677	0.0122968
764.755	0.0123307
764.833	0.0122602
764.911	0.0122908
764.989	0.0120830
765.068	0.0119758
765.146	0.0119705
765.224	0.0120058
765.302	0.0120374
765.380	0.0120487
765.458	0.0119552
765.536	0.0120290
765.614	0.0119960
765.693	0.0121960
765.771	0.0122021
765.849	0.0121743
765.927	0.0123011
766.005	0.0123308
766.083	0.0124818
766.161	0.0126134
766.239	0.0126126
766.318	0.0127666
766.396	0.0129396
766.474	0.0129214
766.552	0.0129047
766.630	0.0131171
766.708	0.0132848
766.786	0.0131737
766.864	0.0133086
766.943	0.0133227
767.021	0.0135799
767.099	0.0137072
767.177	0.0137486
767.255	0.0138032
767.333	0.0137838
767.411	0.0137160
767.489	0.0137868
767.568	0.0137585
767.646	0.0136775
767.724	0.0135867
767.802	0.0135226
767.880	0.0134257
767.958	0.0133145
768.036	0.0132938
768.114	0.0132225
768.193	0.0131706
768.271	0.0129465
768.349	0.0130150
768.427	0.0128945
768.505	0.0128840
768.583	0.0128847
768.661	0.0126975
768.739	0.0126994
768.818	0.0124424
768.896	0.0125210
768.974	0.0125323
769.052	0.0123739
769.130	0.0124746
769.208	0.0124963
769.286	0.0124485
769.364	0.0124146
769.443	0.0124068
769.521	0.0122768
769.599	0.0124393
769.677	0.0123943
769.755	0.0123975
769.833	0.0124073
769.911	0.0124795
769.989	0.0124998
770.068	0.0124923
770.146	0.0125601
770.224	0.0125456
770.302	0.0124278
770.380	0.0125735
770.458	0.0124933
770.536	0.0124761
770.614	0.0125431
770.693	0.0126741
770.771	0.0125361
770.849	0.0126235
770.927	0.0126436
771.005	0.0125605
771.083	0.0125668
771.161	0.0125955
771.239	0.0126083
771.318	0.0125943
771.396	0.0123165
771.474	0.0123803
771.552	0.0124554
771.630	0.0124657
771.708	0.0123517
771.786	0.0123758
771.864	0.0123537
771.943	0.0123553
772.021	0.0122130
772.099	0.0122523
772.177	0.0122157
772.255	0.0122816
772.333	0.0123415
772.411	0.0123091
772.489	0.0123015
772.568	0.0124060
772.646	0.0124586
772.724	0.0124911
772.802	0.0126169
772.880	0.0127525
772.958	0.0127660
773.036	0.0127207
773.114	0.0128568
773.193	0.0129484
773.271	0.0128468
773.349	0.0131902
773.427	0.0131319
773.505	0.0131142
773.583	0.0132657
773.661	0.0132619
773.739	0.0133092
773.818	0.0132967
773.896	0.0134035
773.974	0.0132721
774.052	0.0131194
774.130	0.0131308
774.208	0.0132623
774.286	0.0131492
774.364	0.0131185
774.443	0.0132768
774.521	0.0131266
774.599	0.0129623
774.677	0.0130967
774.755	0.0130661
774.833	0.0129211
774.911	0.0129936
774.989	0.0130241
775.068	0.0127644
775.146	0.0128161
775.224	0.0127610
775.302	0.0127383
775.380	0.0127926
775.458	0.0126141
775.536	0.0127315
775.614	0.0126601
775.693	0.0127132
775.771	0.0126585
775.849	0.0125961
775.927	0.0128042
776.005	0.0127254
776.083	0.0128206
776.161	0.0127739
776.239	0.0126410
776.318	0.0126928
776.396	0.0127559
776.474	0.0126974
776.552	0.0126332
776.630	0.0126942
776.708	0.0124846
776.786	0.0128558
776.864	0.0126337
776.943	0.0126471
777.021	0.0127351
777.099	0.0126689
777.177	0.0125480
777.255	0.0126086
777.333	0.0125806
777.411	0.0125500
777.489	0.0125256
777.568	0.0123866
777.646	0.0123595
777.724	0.0123846
777.802	0.0124361
777.880	0.0123096
777.958	0.0121406
778.036	0.0121399
778.114	0.0122375
778.193	0.0122153
778.271	0.0120616
778.349	0.0120268
778.427	0.0121202
778.505	0.0119440
778.583	0.0118858
778.661	0.0118703
778.739	0.0119962
778.818	0.0121033
778.896	0.0120245
778.974	0.0121733
779.052	0.0122697
779.130	0.0122161
779.208	0.0124521
779.286	0.0125176
779.364	0.0124739
779.443	0.0126835
779.521	0.0127995
779.599	0.0128128
779.677	0.0129832
779.755	0.0130778
779.833	0.0129790
779.911	0.0132259
779.989	0.0132301
780.068	0.0132961
780.146	0.0132855
780.224	0.0133385
780.302	0.0133135
780.380	0.0133896
780.458	0.0133165
780.536	0.0134238
780.614	0.0132278
780.693	0.0133575
780.771	0.0134179
780.849	0.0132350
780.927	0.0131725
781.005	0.0131629
781.083	0.0130609
781.161	0.0132098
781.239	0.0131624
781.318	0.0130817
781.396	0.0129600
781.474	0.0129662
781.552	0.0129697
781.630	0.0128532
781.708	0.0128915
781.786	0.0129643
781.864	0.0128805
781.943	0.0129106
782.021	0.0129235
782.099	0.0128336
782.177	0.0127505
782.255	0.0128709
782.333	0.0127731
782.411	0.0126706
782.489	0.0127234
782.568	0.0125589
782.646	0.0125153
782.724	0.0125984
782.802	0.0123996
782.880	0.0124416
782.958	0.0122978
783.036	0.0124079
783.114	0.0123386
783.193	0.0121397
783.271	0.0121889
783.349	0.0121408
783.427	0.0122266
783.505	0.0123254
783.583	0.0123332
783.661	0.0121682
783.739	0.0123887
783.818	0.0124091
783.896	0.0124625
783.974	0.0123608
784.052	0.0124770
784.130	0.0125436
784.208	0.0126683
784.286	0.0125115
784.364	0.0126678
784.443	0.0126318
784.521	0.0125662
784.599	0.0125504
784.677	0.0123639
784.755	0.0124936
784.833	0.0124948
784.911	0.0124629
784.989	0.0123929
785.068	0.0124150
785.146	0.0123712
785.224	0.0123885
785.302	0.0123180
785.380	0.0123846
785.458	0.0124584
785.536	0.0124926
785.614	0.0123576
785.693	0.0124334
785.771	0.0125000
785.849	0.0125673
785.927	0.0124705
786.005	0.0126382
786.083	0.0127423
786.161	0.0126972
786.239	0.0126833
786.318	0.0127215
786.396	0.0127064
786.474	0.0128347
786.552	0.0126717
786.630	0.0129307
786.708	0.0130498
786.786	0.0127511
786.864	0.0128166
786.943	0.0128886
787.021	0.0128317
787.099	0.0129308
787.177	0.0130035
787.255	0.0129977
787.333	0.0130083
787.411	0.0131130
787.489	0.0129388
787.568	0.0131303
787.646	0.0131464
787.724	0.0130589
787.802	0.0129836
787.880	0.0130440
787.958	0.0130730
788.036	0.0130564
788.114	0.0130856
788.193	0.0131854
788.271	0.0130791
788.349	0.0130222
788.427	0.0129537
788.505	0.0129761
788.583	0.0129498
788.661	0.0129672
788.739	0.0128091
788.818	0.0128336
788.896	0.0128427
788.974	0.0126803
789.052	0.0126755
789.130	0.0126358
789.208	0.0125385
789.286	0.0125067
789.364	0.0123725
789.443	0.0125343
789.521	0.0126530
789.599	0.0124721
789.677	0.0124900
789.755	0.0123244
789.833	0.0124577
789.911	0.0125209
789.989	0.0124022
790.068	0.0124407
790.146	0.0127028
790.224	0.0124655
790.302	0.0123419
790.380	0.0125012
790.458	0.0124380
790.536	0.0125605
790.614	0.0125185
790.693	0.0124576
790.771	0.0124144
790.849	0.0123281
790.927	0.0123912
791.005	0.0124111
791.083	0.0123476
791.161	0.0122227
791.239	0.0122210
791.318	0.0120947
791.396	0.0122456
791.474	0.0120787
791.552	0.0120576
791.630	0.0123577
791.708	0.0122620
791.786	0.0122232
791.864	0.0122253
791.943	0.0122788
792.021	0.0124125
792.099	0.0124524
792.177	0.0125687
792.255	0.0125372
792.333	0.0125972
792.411	0.0126630
792.489	0.0126581
792.568	0.0129574
792.646	0.0129613
792.724	0.0129353
792.802	0.0131389
792.880	0.0129630
792.958	0.0132057
793.036	0.0132053
793.114	0.0131238
793.193	0.0132106
793.271	0.0132731
793.349	0.0130685
793.427	0.0131134
793.505	0.0131535
793.583	0.0132450
793.661	0.0130885
793.739	0.0131495
793.818	0.0129445
793.896	0.0131021
793.974	0.0131403
794.052	0.0129464
794.130	0.0130631
794.208	0.0129404
794.286	0.0130119
794.364	0.0129827
794.443	0.0129620
794.521	0.0128587
794.599	0.0128551
794.677	0.0128504
794.755	0.0128298
794.833	0.0127676
794.911	0.0128320
794.989	0.0127451
795.068	0.0127802
795.146	0.0126122
795.224	0.0126595
795.302	0.0128088
795.380	0.0127132
795.458	0.0126919
795.536	0.0127452
795.614	0.0128175
795.693	0.0126611
795.771	0.0127779
795.849	0.0126976
795.927	0.0128283
796.005	0.0126611
796.083	0.0126543
796.161	0.0125668
796.239	0.0126784
796.318	0.0126379
796.396	0.0126275
796.474	0.0125401
796.552	0.0124643
796.630	0.0124835
796.708	0.0124899
796.786	0.0123851
796.864	0.0123842
796.943	0.0123473
797.021	0.0123465
797.099	0.0122684
797.177	0.0122346
797.255	0.0122617
797.333	0.0122115
797.411	0.0122748
797.489	0.0121876
797.568	0.0120778
797.646	0.0120599
797.724	0.0121210
797.802	0.0121861
797.880	0.0123548
797.958	0.0122143
798.036	0.0122511
798.114	0.0122818
798.193	0.0123932
798.271	0.0125014
798.349	0.0124982
798.427	0.0125187
798.505	0.0126024
798.583	0.0127292
798.661	0.0127055
798.739	0.0128148
798.818	0.0128435
798.896	0.0128509
798.974	0.0128415
799.052	0.0129353
799.130	0.0128806
799.208	0.0132310
799.286	0.0132022
799.364	0.0131589
799.443	0.0132050
799.521	0.0131984
799.599	0.0134485
799.677	0.0134531
799.755	0.0134231
799.833	0.0133607
799.911	0.0133126
799.989	0.0133532
800.068	0.0133568
800.146	0.0135075
800.224	0.0131700
800.302	0.0132156
800.380	0.0132829
800.458	0.0132841
800.536	0.0131204
800.614	0.0131403
800.693	0.0130202
800.771	0.0129950
800.849	0.0129106
800.927	0.0127454
801.005	0.0125976
801.083	0.0127802
801.161	0.0126790
801.239	0.0123965
801.318	0.0126028
801.396	0.0124467
801.474	0.0124724
801.552	0.0124751
801.630	0.0124104
801.708	0.0123504
801.786	0.0123935
801.864	0.0122195
801.943	0.0123856
802.021	0.0123399
802.099	0.0121456
802.177	0.0122453
802.255	0.0122830
802.333	0.0123481
802.411	0.0123256
802.489	0.0121420
802.568	0.0121572
802.646	0.0122218
802.724	0.0120963
802.802	0.0121703
802.880	0.0121248
802.958	0.0121745
803.036	0.0122092
803.114	0.0122942
803.193	0.0124033
803.271	0.0123685
803.349	0.0123495
803.427	0.0125171
803.505	0.0126095
803.583	0.0125871
803.661	0.0127687
803.739	0.0128252
803.818	0.0128558
803.896	0.0128224
803.974	0.0130487
804.052	0.0129549
804.130	0.0129285
804.208	0.0130283
804.286	0.0131579
804.364	0.0131500
804.443	0.0131577
804.521	0.0132619
804.599	0.0132198
804.677	0.0130547
804.755	0.0131642
804.833	0.0131802
804.911	0.0130436
804.989	0.0129795
805.068	0.0129786
805.146	0.0129420
805.224	0.0128586
805.302	0.0130276
805.380	0.0129552
805.458	0.0128166
805.536	0.0129422
805.614	0.0128143
805.693	0.0129089
805.771	0.0128606
805.849	0.0128660
805.927	0.0127834
806.005	0.0126352
806.083	0.0127296
806.161	0.0127576
806.239	0.0127365
806.318	0.0126672
806.396	0.0126076
806.474	0.0126398
806.552	0.0126318
806.630	0.0126759
806.708	0.0124844
806.786	0.0125108
806.864	0.0125012
806.943	0.0125163
807.021	0.0124762
807.099	0.0123869
807.177	0.0124406
807.255	0.0124357
807.333	0.0123845
807.411	0.0123806
807.489	0.0123805
807.568	0.0124688
807.646	0.0123862
807.724	0.0125185
807.802	0.0124822
807.880	0.0124697
807.958	0.0125083
808.036	0.0123913
808.114	0.0126585
808.193	0.0125352
808.271	0.0124747
808.349	0.0126293
808.427	0.0126554
808.505	0.0125938
808.583	0.0126139
808.661	0.0126576
808.739	0.0126793
808.818	0.0127046
808.896	0.0128013
808.974	0.0126918
809.052	0.0127066
809.130	0.0127697
809.208	0.0127550
809.286	0.0129190
809.364	0.0130417
809.443	0.0129688
809.521	0.0129300
809.599	0.0128793
809.677	0.0132581
809.755	0.0130044
809.833	0.0130357
809.911	0.0131062
809.989	0.0131188
810.068	0.0131297
810.146	0.0130784
810.224	0.0130313
810.302	0.0130056
810.380	0.0131013
810.458	0.0131077
810.536	0.0129061
810.614	0.0129355
810.693	0.0127807
810.771	0.0129441
810.849	0.0129514
810.927	0.0127877
811.005	0.0126833
811.083	0.0126808
811.161	0.0126878
811.239	0.0125842
811.318	0.0125615
811.396	0.0126198
811.474	0.0124741
811.552	0.0122695
811.630	0.0123185
811.708	0.0123820
811.786	0.0124443
811.864	0.0122723
811.943	0.0121729
812.021	0.0119923
812.099	0.0121863
812.177	0.0121091
812.255	0.0122289
812.333	0.0121404
812.411	0.0120265
812.489	0.0121112
812.568	0.0122420
812.646	0.0122759
812.724	0.0123008
812.802	0.0123303
812.880	0.0123177
812.958	0.0124100
813.036	0.0124632
813.114	0.0124439
813.193	0.0125854
813.271	0.0125366
813.349	0.0126720
813.427	0.0126407
813.505	0.0127126
813.583	0.0127510
813.661	0.0127682
813.739	0.0128415
813.818	0.0127805
813.896	0.0128177
813.974	0.0128876
814.052	0.0128315
814.130	0.0127624
814.208	0.0128049
814.286	0.0129935
814.364	0.0128369
814.443	0.0128543
814.521	0.0128998
814.599	0.0128161
814.677	0.0128490
814.755	0.0126809
814.833	0.0127232
814.911	0.0128568
814.989	0.0128425
815.068	0.0127569
815.146	0.0126279
815.224	0.0127616
815.302	0.0127303
815.380	0.0128783
815.458	0.0129215
815.536	0.0128944
815.614	0.0129770
815.693	0.0128322
815.771	0.0130600
815.849	0.0130695
815.927	0.0129793
816.005	0.0130941
816.083	0.0132020
816.161	0.0131768
816.239	0.0133039
816.318	0.0132253
816.396	0.0131115
816.474	0.0132313
816.552	0.0132558
816.630	0.0133042
816.708	0.0131684
816.786	0.0130601
816.864	0.0131583
816.943	0.0130072
817.021	0.0131324
817.099	0.0128235
817.177	0.0129897
817.255	0.0129250
817.333	0.0125768
817.411	0.0128371
817.489	0.0126194
817.568	0.0125672
817.646	0.0125244
817.724	0.0124678
817.802	0.0124112
817.880	0.0123843
817.958	0.0121204
818.036	0.0121572
818.114	0.0121866
818.193	0.0120762
818.271	0.0120119
818.349	0.0119899
818.427	0.0119449
818.505	0.0119755
818.583	0.0119981
818.661	0.0117594
818.739	0.0119155
818.818	0.0120245
818.896	0.0121194
818.974	0.0121344
819.052	0.0122170
819.130	0.0121255
819.208	0.0123811
819.286	0.0124372
819.364	0.0122630
819.443	0.0124767
819.521	0.0126469
819.599	0.0127708
819.677	0.0127195
819.755	0.0127074
819.833	0.0128398
819.911	0.0129494
819.989	0.0129733
820.068	0.0129606
820.146	0.0129326
820.224	0.0130901
820.302	0.0129615
820.380	0.0129154
820.458	0.0129655
820.536	0.0131068
820.614	0.0130312
820.693	0.0129914
820.771	0.0129716
820.849	0.0129842
820.927	0.0131724
821.005	0.0130181
821.083	0.0131333
821.161	0.0129128
821.239	0.0130212
821.318	0.0130786
821.396	0.0131011
821.474	0.0130544
821.552	0.0130902
821.630	0.0130186
821.708	0.0131214
821.786	0.0131364
821.864	0.0131207
821.943	0.0130940
822.021	0.0131715
822.099	0.0130946
822.177	0.0131811
822.255	0.0132523
822.333	0.0131812
822.411	0.0131427
822.489	0.0131734
822.568	0.0130462
822.646	0.0132307
822.724	0.0129687
822.802	0.0128827
822.880	0.0129729
822.958	0.0128756
823.036	0.0128576
823.114	0.0126617
823.193	0.0127053
823.271	0.0124364
823.349	0.0123194
823.427	0.0122417
823.505	0.0122344
823.583	0.0120805
823.661	0.0121410
823.739	0.0120707
823.818	0.0118832
823.896	0.0121029
823.974	0.0120132
824.052	0.0119864
824.130	0.0120493
824.208	0.0120547
824.286	0.0121349
824.364	0.0120636
824.443	0.0121936
824.521	0.0122243
824.599	0.0120820
824.677	0.0123077
824.755	0.0123280
824.833	0.0124538
824.911	0.0123717
824.989	0.0124803
825.068	0.0124190
825.146	0.0124939
825.224	0.0125359
825.302	0.0124605
825.380	0.0126567
825.458	0.0127840
825.536	0.0127501
825.614	0.0126929
825.693	0.0127208
825.771	0.0128587
825.849	0.0128386
825.927	0.0129491
826.005	0.0128481
826.083	0.0127396
826.161	0.0129357
826.239	0.0129449
826.318	0.0130328
826.396	0.0128867
826.474	0.0128399
826.552	0.0127993
826.630	0.0128226
826.708	0.0129636
826.786	0.0128163
826.864	0.0128605
826.943	0.0129548
827.021	0.0129943
827.099	0.0130024
827.177	0.0129900
827.255	0.0129245
827.333	0.0128540
827.411	0.0129653
827.489	0.0131203
827.568	0.0132767
827.646	0.0130458
827.724	0.0132371
827.802	0.0132982
827.880	0.0132903
827.958	0.0132064
828.036	0.0133893
828.114	0.0132133
828.193	0.0133820
828.271	0.0132624
828.349	0.0132246
828.427	0.0130802
828.505	0.0131269
828.583	0.0130801
828.661	0.0132768
828.739	0.0130229
828.818	0.0129142
828.896	0.0129158
828.974	0.0130380
829.052	0.0127205
829.130	0.0127079
829.208	0.0126846
829.286	0.0125155
829.364	0.0126575
829.443	0.0124225
829.521	0.0122538
829.599	0.0122512
829.677	0.0122048
829.755	0.0122211
829.833	0.0122918
829.911	0.0121687
829.989	0.0122151
830.068	0.0120888
830.146	0.0121800
830.224	0.0122059
830.302	0.0121535
830.380	0.0120921
830.458	0.0120482
830.536	0.0120923
830.614	0.0122091
830.693	0.0122202
830.771	0.0122106
830.849	0.0121745
830.927	0.0122713
831.005	0.0122729
831.083	0.0124574
831.161	0.0125434
831.239	0.0125157
831.318	0.0125605
831.396	0.0124690
831.474	0.0127346
831.552	0.0127758
831.630	0.0128113
831.708	0.0127987
831.786	0.0128387
831.864	0.0129175
831.943	0.0130151
832.021	0.0128688
832.099	0.0129086
832.177	0.0131387
832.255	0.0130190
832.333	0.0128592
832.411	0.0128832
832.489	0.0129365
832.568	0.0129707
832.646	0.0129137
832.724	0.0129608
832.802	0.0129389
832.880	0.0128452
832.958	0.0128948
833.036	0.0129095
833.114	0.0129012
833.193	0.0129539
833.271	0.0129961
833.349	0.0130686
833.427	0.0130366
833.505	0.0130304
833.583	0.0128681
833.661	0.0130315
833.739	0.0130719
833.818	0.0130068
833.896	0.0129842
833.974	0.0131425
834.052	0.0130515
834.130	0.0130452
834.208	0.0129814
834.286	0.0130090
834.364	0.0129830
834.443	0.0130590
834.521	0.0129894
834.599	0.0129744
834.677	0.0129886
834.755	0.0128087
834.833	0.0129128
834.911	0.0128465
834.989	0.0128252
835.068	0.0126797
835.146	0.0126770
835.224	0.0126976
835.302	0.0126301
835.380	0.0126953
835.458	0.0125176
835.536	0.0124359
835.614	0.0124519
835.693	0.0124683
835.771	0.0124550
835.849	0.0123331
835.927	0.0123225
836.005	0.0123981
836.083	0.0123412
836.161	0.0123597
836.239	0.0122618
836.318	0.0122456
836.396	0.0121887
836.474	0.0122554
836.552	0.0123682
836.630	0.0122496
836.708	0.0122495
836.786	0.0124857
836.864	0.0123192
836.943	0.0123993
837.021	0.0124170
837.099	0.0124474
837.177	0.0125720
837.255	0.0125190
837.333	0.0125465
837.411	0.0125436
837.489	0.0127330
837.568	0.0127193
837.646	0.0126875
837.724	0.0128872
837.802	0.0127703
837.880	0.0128914
837.958	0.0128813
838.036	0.0130065
838.114	0.0128113
838.193	0.0127901
838.271	0.0129349
838.349	0.0128805
838.427	0.0128041
838.505	0.0126816
838.583	0.0127816
838.661	0.0126488
838.739	0.0126785
838.818	0.0126694
838.896	0.0125646
838.974	0.0127337
839.052	0.0126295
839.130	0.0127097
839.208	0.0126891
839.286	0.0127243
839.364	0.0128163
839.443	0.0128315
839.521	0.0128337
839.599	0.0129637
839.677	0.0129005
839.755	0.0130234
839.833	0.0130337
839.911	0.0129767
839.989	0.0132615
840.068	0.0131889
840.146	0.0131734
840.224	0.0132811
840.302	0.0131993
840.380	0.0131444
840.458	0.0130920
840.536	0.0132233
840.614	0.0130337
840.693	0.0131663
840.771	0.0129617
840.849	0.0129684
840.927	0.0130817
841.005	0.0129214
841.083	0.0128874
841.161	0.0127209
841.239	0.0127734
841.318	0.0128240
841.396	0.0126720
841.474	0.0126074
841.552	0.0126096
841.630	0.0126808
841.708	0.0124275
841.786	0.0124263
841.864	0.0124009
841.943	0.0124000
842.021	0.0125550
842.099	0.0123423
842.177	0.0123463
842.255	0.0122712
842.333	0.0123132
842.411	0.0123659
842.489	0.0123834
842.568	0.0122950
842.646	0.0123546
842.724	0.0122841
842.802	0.0123344
842.880	0.0123923
842.958	0.0123401
843.036	0.0125214
843.114	0.0125236
843.193	0.0123927
843.271	0.0124275
843.349	0.0126066
843.427	0.0125759
843.505	0.0126204
843.583	0.0126922
843.661	0.0126353
843.739	0.0126265
843.818	0.0127077
843.896	0.0127148
843.974	0.0128429
844.052	0.0127200
844.130	0.0126347
844.208	0.0126753
844.286	0.0128386
844.364	0.0127543
844.443	0.0128465
844.521	0.0128056
844.599	0.0127869
844.677	0.0127521
844.755	0.0128300
844.833	0.0128133
844.911	0.0128583
844.989	0.0127570
845.068	0.0127531
845.146	0.0128490
845.224	0.0129102
845.302	0.0129581
845.380	0.0130115
845.458	0.0128137
845.536	0.0129029
845.614	0.0129202
845.693	0.0129725
845.771	0.0129718
845.849	0.0131125
845.927	0.0130453
846.005	0.0129151
846.083	0.0130761
846.161	0.0130712
846.239	0.0129610
846.318	0.0129946
846.396	0.0130270
846.474	0.0130976
846.552	0.0129741
846.630	0.0129263
846.708	0.0128759
846.786	0.0127778
846.864	0.0129275
846.943	0.0129298
847.021	0.0128883
847.099	0.0127482
847.177	0.0127205
847.255	0.0128606
847.333	0.0128286
847.411	0.0126304
847.489	0.0126341
847.568	0.0127987
847.646	0.0124931
847.724	0.0126109
847.802	0.0126730
847.880	0.0125710
847.958	0.0123397
848.036	0.0124892
848.114	0.0124547
848.193	0.0124359
848.271	0.0123578
848.349	0.0123766
848.427	0.0124721
848.505	0.0123846
848.583	0.0123645
848.661	0.0124003
848.739	0.0122231
848.818	0.0124350
848.896	0.0124037
848.974	0.0125046
849.052	0.0124072
849.130	0.0125482
849.208	0.0125185
849.286	0.0125819
849.364	0.0127772
849.443	0.0126914
849.521	0.0127541
849.599	0.0127988
849.677	0.0127341
849.755	0.0128944
849.833	0.0128703
849.911	0.0128353
849.989	0.0128535
850.068	0.0129620
850.146	0.0130006
850.224	0.0128782
850.302	0.0129597
850.380	0.0130625
850.458	0.0129626
850.536	0.0129190
850.614	0.0129030
850.693	0.0128622
850.771	0.0129511
850.849	0.0129581
850.927	0.0129308
851.005	0.0128659
851.083	0.0129792
851.161	0.0128531
851.239	0.0128327
851.318	0.0128537
851.396	0.0128506
851.474	0.0128156
851.552	0.0128983
851.630	0.0129448
851.708	0.0128045
851.786	0.0128054
851.864	0.0127587
851.943	0.0129717
852.021	0.0126832
852.099	0.0129340
852.177	0.0127676
852.255	0.0128607
852.333	0.0129348
852.411	0.0130358
852.489	0.0129606
852.568	0.0128522
852.646	0.0128426
852.724	0.0127907
852.802	0.0129278
852.880	0.0127500
852.958	0.0127483
853.036	0.0127108
853.114	0.0125983
853.193	0.0127271
853.271	0.0126479
853.349	0.0125869
853.427	0.0126534
853.505	0.0125997
853.583	0.0126162
853.661	0.0125079
853.739	0.0124984
853.818	0.0124558
853.896	0.0125378
853.974	0.0124920
854.052	0.0124612
854.130	0.0126195
854.208	0.0125807
854.286	0.0126000
854.364	0.0125888
854.443	0.0128069
854.521	0.0126555
854.599	0.0127415
854.677	0.0127557
854.755	0.0126070
854.833	0.0127686
854.911	0.0126692
854.989	0.0125484
855.068	0.0127703
855.146	0.0127689
855.224	0.0126966
855.302	0.0127472
855.380	0.0127499
855.458	0.0125591
855.536	0.0126067
855.614	0.0126213
855.693	0.0126637
855.771	0.0127438
855.849	0.0126923
855.927	0.0125392
856.005	0.0126563
856.083	0.0126523
856.161	0.0126393
856.239	0.0126967
856.318	0.0125755
856.396	0.0125584
856.474	0.0126497
856.552	0.0126293
856.630	0.0126146
856.708	0.0126598
856.786	0.0127884
856.864	0.0125873
856.943	0.0125883
857.021	0.0128195
857.099	0.0128196
857.177	0.0127457
857.255	0.0127475
857.333	0.0129334
857.411	0.0129749
857.489	0.0128436
857.568	0.0129362
857.646	0.0127515
857.724	0.0129568
857.802	0.0129758
857.880	0.0129240
857.958	0.0128948
858.036	0.0130084
858.114	0.0129832
858.193	0.0130540
858.271	0.0129755
858.349	0.0130207
858.427	0.0130431
858.505	0.0129871
858.583	0.0130205
858.661	0.0130295
858.739	0.0130374
858.818	0.0128912
858.896	0.0129762
858.974	0.0127844
859.052	0.0127620
859.130	0.0128781
859.208	0.0127029
859.286	0.0125974
859.364	0.0125355
859.443	0.0125616
859.521	0.0126250
859.599	0.0125102
859.677	0.0124472
859.755	0.0125851
859.833	0.0124771
859.911	0.0123920
859.989	0.0124432
860.068	0.0124072
860.146	0.0125577
860.224	0.0123946
860.302	0.0124418
860.380	0.0124903
860.458	0.0123801
860.536	0.0124612
860.614	0.0126179
860.693	0.0126287
860.771	0.0125828
860.849	0.0125880
860.927	0.0125188
861.005	0.0125842
861.083	0.0125517
861.161	0.0124900
861.239	0.0126501
861.318	0.0126556
861.396	0.0126012
861.474	0.0125657
861.552	0.0126928
861.630	0.0126506
861.708	0.0127121
861.786	0.0127090
861.864	0.0125896
861.943	0.0125262
862.021	0.0125582
862.099	0.0125897
862.177	0.0124870
862.255	0.0126008
862.333	0.0125674
862.411	0.0126685
862.489	0.0126655
862.568	0.0126426
862.646	0.0127074
862.724	0.0127406
862.802	0.0128410
862.880	0.0128425
862.958	0.0127964
863.036	0.0127255
863.114	0.0129376
863.193	0.0127930
863.271	0.0129931
863.349	0.0130699
863.427	0.0130213
863.505	0.0129363
863.583	0.0128894
863.661	0.0131310
863.739	0.0129888
863.818	0.0130490
863.896	0.0130714
863.974	0.0130187
864.052	0.0129616
864.130	0.0130843
864.208	0.0130735
864.286	0.0130600
864.364	0.0129898
864.443	0.0129908
864.521	0.0129448
864.599	0.0130057
864.677	0.0128768
864.755	0.0128201
864.833	0.0127531
864.911	0.0128107
864.989	0.0126648
865.068	0.0126822
865.146	0.0126903
865.224	0.0126654
865.302	0.0126493
865.380	0.0125740
865.458	0.0126470
865.536	0.0126579
865.614	0.0126257
865.693	0.0123385
865.771	0.0125275
865.849	0.0125719
865.927	0.0125552
866.005	0.0124611
866.083	0.0124021
866.161	0.0125066
866.239	0.0125452
866.318	0.0125056
866.396	0.0125131
866.474	0.0124224
866.552	0.0127010
866.630	0.0125688
866.708	0.0124828
866.786	0.0126045
866.864	0.0125362
866.943	0.0126283
867.021	0.0125702
867.099	0.0126190
867.177	0.0126450
867.255	0.0125686
867.333	0.0126395
867.411	0.0124838
867.489	0.0124782
867.568	0.0124267
867.646	0.0124426
867.724	0.0124734
867.802	0.0124814
867.880	0.0123862
867.958	0.0123946
868.036	0.0126727
868.114	0.0126349
868.193	0.0127576
868.271	0.0126318
868.349	0.0126319
868.427	0.0128017
868.505	0.0129638
868.583	0.0127792
868.661	0.0127274
868.739	0.0129247
868.818	0.0129414
868.896	0.0129488
868.974	0.0129000
869.052	0.0130804
869.130	0.0129929
869.208	0.0130193
869.286	0.0131822
869.364	0.0130315
869.443	0.0129788
869.521	0.0129513
869.599	0.0129540
869.677	0.0129524
869.755	0.0128205
869.833	0.0128429
869.911	0.0129760
869.989	0.0128296
870.068	0.0126762
870.146	0.0126702
870.224	0.0127275
870.302	0.0127242
870.380	0.0126764
870.458	0.0127533
870.536	0.0127396
870.614	0.0127407
870.693	0.0128085
870.771	0.0128304
870.849	0.0127766
870.927	0.0127539
871.005	0.0127571
871.083	0.0126528
871.161	0.0126749
871.239	0.0126797
871.318	0.0126060
871.396	0.0125181
871.474	0.0126768
871.552	0.0126534
871.630	0.0125534
871.708	0.0126482
871.786	0.0126391
871.864	0.0125182
871.943	0.0125830
872.021	0.0126093
872.099	0.0125148
872.177	0.0124938
872.255	0.0125947
872.333	0.0125130
872.411	0.0125297
872.489	0.0125527
872.568	0.0125218
872.646	0.0124267
872.724	0.0124924
872.802	0.0124383
872.880	0.0124947
872.958	0.0124643
873.036	0.0125691
873.114	0.0126557
873.193	0.0126160
873.271	0.0124574
873.349	0.0125101
873.427	0.0124695
873.505	0.0124989
873.583	0.0125523
873.661	0.0125280
873.739	0.0126524
873.818	0.0125913
873.896	0.0126862
873.974	0.0126835
874.052	0.0125410
874.130	0.0127051
874.208	0.0127406
874.286	0.0127805
874.364	0.0126938
874.443	0.0127018
874.521	0.0127342
874.599	0.0127382
874.677	0.0127168
874.755	0.0128269
874.833	0.0128551
874.911	0.0127850
874.989	0.0129797
875.068	0.0129303
875.146	0.0128303
875.224	0.0129330
875.302	0.0128958
875.380	0.0129249
875.458	0.0129066
875.536	0.0129507
875.614	0.0129896
875.693	0.0129852
875.771	0.0129614
875.849	0.0129156
875.927	0.0129020
876.005	0.0129768
876.083	0.0129847
876.161	0.0129996
876.239	0.0130367
876.318	0.0128511
876.396	0.0128513
876.474	0.0129787
876.552	0.0130424
876.630	0.0129544
876.708	0.0128458
876.786	0.0127905
876.864	0.0127837
876.943	0.0126508
877.021	0.0125600
877.099	0.0125323
877.177	0.0126758
877.255	0.0125874
877.333	0.0125230
877.411	0.0125478
877.489	0.0123142
877.568	0.0122626
877.646	0.0124227
877.724	0.0123833
877.802	0.0123745
877.880	0.0123550
877.958	0.0122952
878.036	0.0123461
878.114	0.0123810
878.193	0.0124097
878.271	0.0125201
878.349	0.0124062
878.427	0.0125629
878.505	0.0125161
878.583	0.0125120
878.661	0.0126829
878.739	0.0125568
878.818	0.0126846
878.896	0.0127141
878.974	0.0125740
879.052	0.0127163
879.130	0.0128474
879.208	0.0128320
879.286	0.0128793
879.364	0.0130311
879.443	0.0130156
879.521	0.0129852
879.599	0.0128706
879.677	0.0129009
879.755	0.0130286
879.833	0.0129366
879.911	0.0128873
879.989	0.0128568
880.068	0.0129042
880.146	0.0127329
880.224	0.0126727
880.302	0.0127261
880.380	0.0125909
880.458	0.0127215
880.536	0.0126105
880.614	0.0123948
880.693	0.0125900
880.771	0.0123945
880.849	0.0124511
880.927	0.0125613
881.005	0.0124253
881.083	0.0123109
881.161	0.0124868
881.239	0.0123183
881.318	0.0125053
881.396	0.0124220
881.474	0.0126443
881.552	0.0126045
881.630	0.0127688
881.708	0.0127422
881.786	0.0126811
881.864	0.0128999
881.943	0.0129317
882.021	0.0129274
882.099	0.0129478
882.177	0.0129585
882.255	0.0129500
882.333	0.0130745
882.411	0.0129482
882.489	0.0130826
882.568	0.0128712
882.646	0.0128826
882.724	0.0129915
882.802	0.0129433
882.880	0.0128268
882.958	0.0128284
883.036	0.0127757
883.114	0.0128149
883.193	0.0128409
883.271	0.0127133
883.349	0.0127451
883.427	0.0126849
883.505	0.0127475
883.583	0.0127397
883.661	0.0126933
883.739	0.0126641
883.818	0.0125998
883.896	0.0127234
883.974	0.0126557
884.052	0.0126718
884.130	0.0127627
884.208	0.0127139
884.286	0.0126377
884.364	0.0127487
884.443	0.0126988
884.521	0.0126530
884.599	0.0126225
884.677	0.0127870
884.755	0.0125839
884.833	0.0127956
884.911	0.0127958
884.989	0.0127361
885.068	0.0126883
885.146	0.0125642
885.224	0.0124652
885.302	0.0125300
885.380	0.0124061
885.458	0.0125058
885.536	0.0125158
885.614	0.0124180
885.693	0.0124614
885.771	0.0125768
885.849	0.0126452
885.927	0.0125001
886.005	0.0125976
886.083	0.0124771
886.161	0.0125945
886.239	0.0127528
886.318	0.0126130
886.396	0.0126861
886.474	0.0127030
886.552	0.0127322
886.630	0.0129963
886.708	0.0127462
886.786	0.0128904
886.864	0.0127425
886.943	0.0128113
887.021	0.0130771
887.099	0.0128666
887.177	0.0129285
887.255	0.0129212
887.333	0.0130044
887.411	0.0129082
887.489	0.0129308
887.568	0.0129180
887.646	0.0129202
887.724	0.0128008
887.802	0.0129733
887.880	0.0127080
887.958	0.0127504
888.036	0.0127399
888.114	0.0126829
888.193	0.0127372
888.271	0.0128627
888.349	0.0127541
888.427	0.0125841
888.505	0.0126063
888.583	0.0125752
888.661	0.0126206
888.739	0.0128519
888.818	0.0125446
888.896	0.0125220
888.974	0.0126357
889.052	0.0126718
889.130	0.0126093
889.208	0.0126984
889.286	0.0128128
889.364	0.0127229
889.443	0.0125573
889.521	0.0127490
889.599	0.0127727
889.677	0.0127324
889.755	0.0126311
889.833	0.0128236
889.911	0.0128341
889.989	0.0128101
890.068	0.0127095
890.146	0.0128067
890.224	0.0127847
890.302	0.0128542
890.380	0.0127551
890.458	0.0127055
890.536	0.0126945
890.614	0.0127824
890.693	0.0127834
890.771	0.0126951
890.849	0.0126714
890.927	0.0127289
891.005	0.0127052
891.083	0.0126646
891.161	0.0125857
891.239	0.0126241
891.318	0.0126239
891.396	0.0126983
891.474	0.0127076
891.552	0.0126397
891.630	0.0125012
891.708	0.0127037
891.786	0.0127505
891.864	0.0125811
891.943	0.0126209
892.021	0.0125703
892.099	0.0125932
892.177	0.0125448
892.255	0.0126046
892.333	0.0126251
892.411	0.0125071
892.489	0.0126261
892.568	0.0125272
892.646	0.0125024
892.724	0.0125837
892.802	0.0124272
892.880	0.0125966
892.958	0.0126849
893.036	0.0125027
893.114	0.0124963
893.193	0.0126509
893.271	0.0125906
893.349	0.0125288
893.427	0.0126735
893.505	0.0126399
893.583	0.0127106
893.661	0.0128328
893.739	0.0128833
893.818	0.0128545
893.896	0.0129081
893.974	0.0128531
894.052	0.0128188
894.130	0.0129451
894.208	0.0130798
894.286	0.0129510
894.364	0.0128957
894.443	0.0129113
894.521	0.0129079
894.599	0.0128607
894.677	0.0128027
894.755	0.0128408
894.833	0.0128988
894.911	0.0127602
894.989	0.0129876
895.068	0.0127304
895.146	0.0128532
895.224	0.0126874
895.302	0.0127076
895.380	0.0125752
895.458	0.0125947
895.536	0.0125964
895.614	0.0127341
895.693	0.0124302
895.771	0.0126152
895.849	0.0125228
895.927	0.0126081
896.005	0.0126731
896.083	0.0125795
896.161	0.0126148
896.239	0.0126173
896.318	0.0125011
896.396	0.0126359
896.474	0.0126677
896.552	0.0127525
896.630	0.0127037
896.708	0.0127435
896.786	0.0127665
896.864	0.0127191
896.943	0.0125887
897.021	0.0127301
897.099	0.0126981
897.177	0.0126276
897.255	0.0126137
897.333	0.0125241
897.411	0.0125526
897.489	0.0126887
897.568	0.0126490
897.646	0.0124035
897.724	0.0124825
897.802	0.0125079
897.880	0.0125679
897.958	0.0126504
898.036	0.0125228
898.114	0.0126431
898.193	0.0126768
898.271	0.0128294
898.349	0.0127466
898.427	0.0127050
898.505	0.0127666
898.583	0.0126977
898.661	0.0128780
898.739	0.0127821
898.818	0.0128233
898.896	0.0126913
898.974	0.0127615
899.052	0.0127389
899.130	0.0128130
899.208	0.0128580
899.286	0.0128027
899.364	0.0128478
899.443	0.0127937
899.521	0.0128413
899.599	0.0128036
899.677	0.0126712
899.755	0.0126534
899.833	0.0126819
899.911	0.0126720
899.989	0.0126826
900.068	0.0126315
900.146	0.0124757
900.224	0.0126103
900.302	0.0126797
900.380	0.0126165
900.458	0.0125822
900.536	0.0126230
900.614	0.0125467
900.693	0.0124555
900.771	0.0125275
900.849	0.0125337
900.927	0.0124673
901.005	0.0126326
901.083	0.0125865
901.161	0.0125851
901.239	0.0124429
901.318	0.0126088
901.396	0.0127335
901.474	0.0127880
901.552	0.0127245
901.630	0.0126028
901.708	0.0127020
901.786	0.0127183
901.864	0.0128474
901.943	0.0127233
902.021	0.0126383
902.099	0.0127926
902.177	0.0127750
902.255	0.0127704
902.333	0.0126565
902.411	0.0125945
902.489	0.0127456
902.568	0.0127250
902.646	0.0126083
902.724	0.0127570
902.802	0.0125932
902.880	0.0126904
902.958	0.0126618
903.036	0.0126453
903.114	0.0126885
903.193	0.0126804
903.271	0.0126116
903.349	0.0126492
903.427	0.0127670
903.505	0.0128418
903.583	0.0127924
903.661	0.0127625
903.739	0.0127497
903.818	0.0128320
903.896	0.0126895
903.974	0.0126332
904.052	0.0126852
904.130	0.0129093
904.208	0.0126506
904.286	0.0126979
904.364	0.0128962
904.443	0.0128832
904.521	0.0129032
904.599	0.0129030
904.677	0.0127574
904.755	0.0128254
904.833	0.0128610
904.911	0.0128345
904.989	0.0128359
905.068	0.0128429
905.146	0.0127183
905.224	0.0126963
905.302	0.0127258
905.380	0.0125791
905.458	0.0125462
905.536	0.0127814
905.614	0.0124716
905.693	0.0125182
905.771	0.0124761
905.849	0.0124548
905.927	0.0125895
906.005	0.0125839
906.083	0.0125156
906.161	0.0124488
906.239	0.0125081
906.318	0.0125793
906.396	0.0125577
906.474	0.0125669
906.552	0.0125996
906.630	0.0127412
906.708	0.0126155
906.786	0.0126669
906.864	0.0127264
906.943	0.0127072
907.021	0.0126910
907.099	0.0125951
907.177	0.0126231
907.255	0.0125375
907.333	0.0125764
907.411	0.0126936
907.489	0.0126529
907.568	0.0125496
907.646	0.0125577
907.724	0.0125871
907.802	0.0125355
907.880	0.0126596
907.958	0.0127092
908.036	0.0126425
908.114	0.0126180
908.193	0.0127335
908.271	0.0127940
908.349	0.0128941
908.427	0.0128236
908.505	0.0128571
908.583	0.0129412
908.661	0.0129709
908.739	0.0130467
908.818	0.0130025
908.896	0.0130395
908.974	0.0130859
909.052	0.0130193
909.130	0.0129746
909.208	0.0131105
909.286	0.0131451
909.364	0.0129986
909.443	0.0129075
909.521	0.0127878
909.599	0.0127650
909.677	0.0128129
909.755	0.0127245
909.833	0.0126831
909.911	0.0128334
909.989	0.0128177
910.068	0.0127688
910.146	0.0126758
910.224	0.0126342
910.302	0.0126344
910.380	0.0127529
910.458	0.0125507
910.536	0.0127222
910.614	0.0126541
910.693	0.0126340
910.771	0.0127772
910.849	0.0127189
910.927	0.0129185
911.005	0.0128639
911.083	0.0127406
911.161	0.0127830
911.239	0.0127412
911.318	0.0127184
911.396	0.0127752
911.474	0.0126205
911.552	0.0126569
911.630	0.0126836
911.708	0.0126437
911.786	0.0125956
911.864	0.0126954
911.943	0.0127824
912.021	0.0126551
912.099	0.0126020
912.177	0.0125119
912.255	0.0125985
912.333	0.0125598
912.411	0.0125686
912.489	0.0126089
912.568	0.0125360
912.646	0.0125394
912.724	0.0126476
912.802	0.0124797
912.880	0.0124892
912.958	0.0126055
913.036	0.0126440
913.114	0.0125933
913.193	0.0125250
913.271	0.0125209
913.349	0.0125819
913.427	0.0124913
913.505	0.0125264
913.583	0.0126149
913.661	0.0127758
913.739	0.0126886
913.818	0.0127451
913.896	0.0128114
913.974	0.0127985
914.052	0.0128527
914.130	0.0129211
914.208	0.0128492
914.286	0.0129111
914.364	0.0129852
914.443	0.0130451
914.521	0.0129514
914.599	0.0129434
914.677	0.0130154
914.755	0.0131015
914.833	0.0130575
914.911	0.0129833
914.989	0.0129637
915.068	0.0130377
915.146	0.0128522
915.224	0.0128422
915.302	0.0130942
915.380	0.0128376
915.458	0.0128054
915.536	0.0127991
915.614	0.0126068
915.693	0.0127126
915.771	0.0126527
915.849	0.0126407
915.927	0.0126799
916.005	0.0126421
916.083	0.0125788
916.161	0.0124967
916.239	0.0126740
916.318	0.0126580
916.396	0.0125550
916.474	0.0126609
916.552	0.0126988
916.630	0.0125484
916.708	0.0128307
916.786	0.0128384
916.864	0.0126498
916.943	0.0124745
917.021	0.0126931
917.099	0.0127192
917.177	0.0126870
917.255	0.0126765
917.333	0.0126897
917.411	0.0125357
917.489	0.0125459
917.568	0.0125592
917.646	0.0126426
917.724	0.0125620
917.802	0.0126488
917.880	0.0126716
917.958	0.0125814
918.036	0.0124164
918.114	0.0125548
918.193	0.0126276
918.271	0.0124513
918.349	0.0126355
918.427	0.0124863
918.505	0.0124728
918.583	0.0126021
918.661	0.0125813
918.739	0.0126052
918.818	0.0124263
918.896	0.0127071
918.974	0.0125945
919.052	0.0125681
919.130	0.0126643
919.208	0.0127389
919.286	0.0128040
919.364	0.0127547
919.443	0.0127919
919.521	0.0128182
919.599	0.0127895
919.677	0.0127933
919.755	0.0128521
919.833	0.0129611
919.911	0.0129498
919.989	0.0129535
920.068	0.0128996
920.146	0.0129382
920.224	0.0130919
920.302	0.0131267
920.380	0.0128801
920.458	0.0129942
920.536	0.0129906
920.614	0.0130267
920.693	0.0129977
920.771	0.0130487
920.849	0.0129804
920.927	0.0129010
921.005	0.0129309
921.083	0.0128594
921.161	0.0127993
921.239	0.0127464
921.318	0.0127843
921.396	0.0129616
921.474	0.0126335
921.552	0.0127873
921.630	0.0127435
921.708	0.0126546
921.786	0.0125857
921.864	0.0126302
921.943	0.0124104
922.021	0.0124686
922.099	0.0123499
922.177	0.0123964
922.255	0.0123665
922.333	0.0124380
922.411	0.0125365
922.489	0.0124394
922.568	0.0124822
922.646	0.0125392
922.724	0.0125632
922.802	0.0127009
922.880	0.0127306
922.958	0.0126830
923.036	0.0126608
923.114	0.0126665
923.193	0.0127870
923.271	0.0126894
923.349	0.0126936
923.427	0.0127744
923.505	0.0128082
923.583	0.0126614
923.661	0.0128314
923.739	0.0126297
923.818	0.0126340
923.896	0.0125890
923.974	0.0127966
924.052	0.0125848
924.130	0.0126348
924.208	0.0124590
924.286	0.0123515
924.364	0.0125151
924.443	0.0123286
924.521	0.0124632
924.599	0.0125326
924.677	0.0123764
924.755	0.0123235
924.833	0.0124440
924.911	0.0124824
924.989	0.0125521
925.068	0.0124411
925.146	0.0123533
925.224	0.0125690
925.302	0.0126270
925.380	0.0125143
925.458	0.0125333
925.536	0.0126564
925.614	0.0125796
925.693	0.0127573
925.771	0.0127670
925.849	0.0127823
925.927	0.0128297
926.005	0.0129733
926.083	0.0129783
926.161	0.0129953
926.239	0.0129543
926.318	0.0129284
926.396	0.0130346
926.474	0.0131808
926.552	0.0131127
926.630	0.0131125
926.708	0.0129692
926.786	0.0131174
926.864	0.0130531
926.943	0.0130508
927.021	0.0130508
927.099	0.0130609
927.177	0.0130087
927.255	0.0128811
927.333	0.0129490
927.411	0.0128240
927.489	0.0126694
927.568	0.0127419
927.646	0.0127084
927.724	0.0126923
927.802	0.0125153
927.880	0.0123721
927.958	0.0124326
928.036	0.0123942
928.114	0.0123627
928.193	0.0123392
928.271	0.0124712
928.349	0.0124181
928.427	0.0123915
928.505	0.0125014
928.583	0.0124037
928.661	0.0124902
928.739	0.0124953
928.818	0.0125009
928.896	0.0125356
928.974	0.0125177
929.052	0.0125021
929.130	0.0126095
929.208	0.0126958
929.286	0.0125928
929.364	0.0126357
929.443	0.0127721
929.521	0.0127969
929.599	0.0127355
929.677	0.0127124
929.755	0.0127499
929.833	0.0127172
929.911	0.0128544
929.989	0.0126818
930.068	0.0127139
930.146	0.0128219
930.224	0.0127699
930.302	0.0128096
930.380	0.0126759
930.458	0.0127335
930.536	0.0127474
930.614	0.0127441
930.693	0.0125600
930.771	0.0126521
930.849	0.0125747
930.927	0.0125780
931.005	0.0127141
931.083	0.0126105
931.161	0.0126394
931.239	0.0127375
931.318	0.0126495
931.396	0.0126202
931.474	0.0126768
931.552	0.0128683
931.630	0.0125969
931.708	0.0127216
931.786	0.0128894
931.864	0.0129362
931.943	0.0130070
932.021	0.0129704
932.099	0.0130225
932.177	0.0128149
932.255	0.0129213
932.333	0.0131178
932.411	0.0130101
932.489	0.0128624
932.568	0.0129771
932.646	0.0131086
932.724	0.0130573
932.802	0.0131249
932.880	0.0130901
932.958	0.0130429
933.036	0.0129951
933.114	0.0130188
933.193	0.0129923
933.271	0.0128699
933.349	0.0128048
933.427	0.0127824
933.505	0.0127758
933.583	0.0127150
933.661	0.0126633
933.739	0.0125664
933.818	0.0125291
933.896	0.0125060
933.974	0.0124731
934.052	0.0123996
934.130	0.0124626
934.208	0.0123824
934.286	0.0123391
934.364	0.0123316
934.443	0.0124552
934.521	0.0124959
934.599	0.0126604
934.677	0.0125290
934.755	0.0127141
934.833	0.0127345
934.911	0.0126154
934.989	0.0126013
935.068	0.0127290
935.146	0.0127168
935.224	0.0128690
935.302	0.0127583
935.380	0.0129279
935.458	0.0127615
935.536	0.0127454
935.614	0.0126147
935.693	0.0127921
935.771	0.0128127
935.849	0.0126250
935.927	0.0126450
936.005	0.0124741
936.083	0.0126037
936.161	0.0126369
936.239	0.0124963
936.318	0.0126105
936.396	0.0127943
936.474	0.0126160
936.552	0.0126445
936.630	0.0126012
936.708	0.0126360
936.786	0.0127494
936.864	0.0128099
936.943	0.0127180
937.021	0.0127737
937.099	0.0127557
937.177	0.0126017
937.255	0.0127435
937.333	0.0127693
937.411	0.0127934
937.489	0.0126663
937.568	0.0128675
937.646	0.0128335
937.724	0.0129730
937.802	0.0130285
937.880	0.0128717
937.958	0.0130653
938.036	0.0129375
938.114	0.0130505
938.193	0.0130021
938.271	0.0131282
938.349	0.0130621
938.427	0.0130774
938.505	0.0130489
938.583	0.0129404
938.661	0.0130149
938.739	0.0130045
938.818	0.0129488
938.896	0.0129448
938.974	0.0130639
939.052	0.0127251
939.130	0.0128542
939.208	0.0127260
939.286	0.0127854
939.364	0.0127529
939.443	0.0126778
939.521	0.0126663
939.599	0.0126223
939.677	0.0125356
939.755	0.0125262
939.833	0.0125624
939.911	0.0124437
939.989	0.0122620
940.068	0.0124602
940.146	0.0125272
940.224	0.0123909
940.302	0.0124397
940.380	0.0124330
940.458	0.0125555
940.536	0.0124804
940.614	0.0126227
940.693	0.0124735
940.771	0.0125435
940.849	0.0126702
940.927	0.0128308
941.005	0.0127338
941.083	0.0128421
941.161	0.0127115
941.239	0.0126908
941.318	0.0126595
941.396	0.0126525
941.474	0.0127455
941.552	0.0128091
941.630	0.0127422
941.708	0.0126942
941.786	0.0125446
941.864	0.0126052
941.943	0.0125956
942.021	0.0126316
942.099	0.0127087
942.177	0.0126069
942.255	0.0124806
942.333	0.0125365
942.411	0.0126057
942.489	0.0125143
942.568	0.0125378
942.646	0.0124724
942.724	0.0125825
942.802	0.0125253
942.880	0.0126376
942.958	0.0125831
943.036	0.0126486
943.114	0.0128336
943.193	0.0126963
943.271	0.0127294
943.349	0.0128674
943.427	0.0128093
943.505	0.0128474
943.583	0.0128415
943.661	0.0128358
943.739	0.0127705
943.818	0.0128577
943.896	0.0129581
943.974	0.0129665
944.052	0.0129321
944.130	0.0129747
944.208	0.0128893
944.286	0.0128324
944.364	0.0129870
944.443	0.0130526
944.521	0.0128779
944.599	0.0128177
944.677	0.0129827
944.755	0.0128858
944.833	0.0128020
944.911	0.0128333
944.989	0.0128583
945.068	0.0128446
945.146	0.0128351
945.224	0.0127802
945.302	0.0127541
945.380	0.0126813
945.458	0.0127724
945.536	0.0127163
945.614	0.0126819
945.693	0.0125546
945.771	0.0126598
945.849	0.0125671
945.927	0.0125674
946.005	0.0125543
946.083	0.0125619
946.161	0.0125673
946.239	0.0125258
946.318	0.0126141
946.396	0.0125875
946.474	0.0126088
946.552	0.0127905
946.630	0.0126974
946.708	0.0127394
946.786	0.0126253
946.864	0.0127402
946.943	0.0127739
947.021	0.0127284
947.099	0.0128555
947.177	0.0128321
947.255	0.0127628
947.333	0.0127988
947.411	0.0126323
947.489	0.0127390
947.568	0.0128864
947.646	0.0126700
947.724	0.0125940
947.802	0.0127333
947.880	0.0126674
947.958	0.0125546
948.036	0.0127042
948.114	0.0125740
948.193	0.0125539
948.271	0.0126137
948.349	0.0127077
948.427	0.0126981
948.505	0.0125716
948.583	0.0125634
948.661	0.0127838
948.739	0.0128683
948.818	0.0126968
948.896	0.0128669
948.974	0.0127357
949.052	0.0130008
949.130	0.0129913
949.208	0.0128146
949.286	0.0127461
949.364	0.0129308
949.443	0.0128735
949.521	0.0128919
949.599	0.0129354
949.677	0.0129325
949.755	0.0127940
949.833	0.0128397
949.911	0.0128329
949.989	0.0127444
950.068	0.0126738
950.146	0.0126418
950.224	0.0126247
950.302	0.0127203
950.380	0.0126198
950.458	0.0126650
950.536	0.0126354
950.614	0.0125424
950.693	0.0126269
950.771	0.0126544
950.849	0.0126421
950.927	0.0126369
951.005	0.0126682
951.083	0.0127690
951.161	0.0126584
951.239	0.0129456
951.318	0.0128390
951.396	0.0128600
951.474	0.0128483
951.552	0.0128099
951.630	0.0128693
951.708	0.0129373
951.786	0.0129750
951.864	0.0127702
951.943	0.0128667
952.021	0.0128271
952.099	0.0128735
952.177	0.0127959
952.255	0.0127479
952.333	0.0127254
952.411	0.0126979
952.489	0.0127052
952.568	0.0127440
952.646	0.0126594
952.724	0.0126599
952.802	0.0125849
952.880	0.0125540
952.958	0.0126559
953.036	0.0126588
953.114	0.0124644
953.193	0.0125804
953.271	0.0124854
953.349	0.0125173
953.427	0.0124193
953.505	0.0124511
953.583	0.0126018
953.661	0.0126448
953.739	0.0124938
953.818	0.0124952
953.896	0.0125397
953.974	0.0125891
954.052	0.0125642
954.130	0.0126022
954.208	0.0125052
954.286	0.0126016
954.364	0.0125677
954.443	0.0124712
954.521	0.0126852
954.599	0.0126280
954.677	0.0127621
954.755	0.0128468
954.833	0.0128355
954.911	0.0127786
954.989	0.0128033
955.068	0.0128144
955.146	0.0128370
955.224	0.0130061
955.302	0.0129541
955.380	0.0127933
955.458	0.0127167
955.536	0.0130627
955.614	0.0130428
955.693	0.0130885
955.771	0.0129894
955.849	0.0129965
955.927	0.0129541
956.005	0.0127819
956.083	0.0129613
956.161	0.0128481
956.239	0.0126956
956.318	0.0127993
956.396	0.0127831
956.474	0.0127384
956.552	0.0128085
956.630	0.0127237
956.708	0.0127384
956.786	0.0126769
956.864	0.0128230
956.943	0.0126958
957.021	0.0128136
957.099	0.0128243
957.177	0.0128152
957.255	0.0128519
957.333	0.0129108
957.411	0.0126732
957.489	0.0127489
957.568	0.0128130
957.646	0.0128066
957.724	0.0128352
957.802	0.0128857
957.880	0.0127439
957.958	0.0128754
958.036	0.0127829
958.114	0.0128814
958.193	0.0127047
958.271	0.0127918
958.349	0.0127905
958.427	0.0127472
958.505	0.0126796
958.583	0.0125860
958.661	0.0127809
958.739	0.0126574
958.818	0.0126366
958.896	0.0126960
958.974	0.0127187
959.052	0.0127000
959.130	0.0125660
959.208	0.0126265
959.286	0.0126158
959.364	0.0124834
959.443	0.0125010
959.521	0.0125196
959.599	0.0125459
959.677	0.0125937
959.755	0.0125220
959.833	0.0123698
959.911	0.0125349
