05/28/2022	14:38:42	Ver.	4.1	UNKNOWN
Optical Delay	599.988409	Delta X		0.078125	Sweeps	1	Scan Rate	0/0
Coordinates	Axis 1	NaN	Axis 2	NaN	Axis 3	NaN	Axis 4	NaN	Axis 5	NaN	Axis 6	0.000000
TX Power	0.000000	RX Power	0.000000

599.988	0.0145740
600.067	0.0146542
600.145	0.0144793
600.223	0.0144770
600.301	0.0144195
600.379	0.0144894
600.457	0.0145875
600.535	0.0144616
600.613	0.0145114
600.692	0.0145276
600.770	0.0144167
600.848	0.0144363
600.926	0.0143474
601.004	0.0144614
601.082	0.0145254
601.160	0.0143356
601.238	0.0144040
601.317	0.0144161
601.395	0.0143765
601.473	0.0144543
601.551	0.0144482
601.629	0.0144882
601.707	0.0145245
601.785	0.0144121
601.863	0.0144688
601.942	0.0143926
602.020	0.0144519
602.098	0.0144608
602.176	0.0144791
602.254	0.0144277
602.332	0.0144918
602.410	0.0143549
602.488	0.0145271
602.567	0.0145298
602.645	0.0142973
602.723	0.0145262
602.801	0.0144861
602.879	0.0144284
602.957	0.0144861
603.035	0.0146213
603.113	0.0144838
603.192	0.0143472
603.270	0.0144187
603.348	0.0143668
603.426	0.0143555
603.504	0.0144453
603.582	0.0144952
603.660	0.0144461
603.738	0.0144120
603.817	0.0144452
603.895	0.0145012
603.973	0.0143750
604.051	0.0143753
604.129	0.0144362
604.207	0.0143938
604.285	0.0143279
604.363	0.0142456
604.442	0.0142522
604.520	0.0142453
604.598	0.0143018
604.676	0.0143834
604.754	0.0142645
604.832	0.0142185
604.910	0.0142376
604.988	0.0142421
605.067	0.0142641
605.145	0.0142484
605.223	0.0141221
605.301	0.0142313
605.379	0.0143131
605.457	0.0140369
605.535	0.0142012
605.613	0.0142036
605.692	0.0142416
605.770	0.0143444
605.848	0.0142833
605.926	0.0143690
606.004	0.0143369
606.082	0.0142524
606.160	0.0142774
606.238	0.0141605
606.317	0.0143945
606.395	0.0141711
606.473	0.0143727
606.551	0.0142606
606.629	0.0143256
606.707	0.0144408
606.785	0.0143379
606.863	0.0143262
606.942	0.0144719
607.020	0.0143336
607.098	0.0143216
607.176	0.0143874
607.254	0.0144858
607.332	0.0143832
607.410	0.0143838
607.488	0.0143055
607.567	0.0144349
607.645	0.0145316
607.723	0.0144939
607.801	0.0144001
607.879	0.0144092
607.957	0.0144427
608.035	0.0144232
608.113	0.0144112
608.192	0.0144823
608.270	0.0145630
608.348	0.0145655
608.426	0.0144938
608.504	0.0143649
608.582	0.0145705
608.660	0.0146162
608.738	0.0145656
608.817	0.0145459
608.895	0.0144922
608.973	0.0145830
609.051	0.0146037
609.129	0.0144588
609.207	0.0146284
609.285	0.0145289
609.363	0.0145086
609.442	0.0145536
609.520	0.0145824
609.598	0.0144918
609.676	0.0143538
609.754	0.0145451
609.832	0.0146624
609.910	0.0145244
609.988	0.0146011
610.067	0.0145784
610.145	0.0145466
610.223	0.0145164
610.301	0.0144209
610.379	0.0144794
610.457	0.0144855
610.535	0.0143022
610.613	0.0144573
610.692	0.0145596
610.770	0.0144058
610.848	0.0144636
610.926	0.0144135
611.004	0.0145332
611.082	0.0144225
611.160	0.0144497
611.238	0.0144468
611.317	0.0144374
611.395	0.0144820
611.473	0.0144456
611.551	0.0144122
611.629	0.0144384
611.707	0.0145454
611.785	0.0145306
611.863	0.0144245
611.942	0.0144411
612.020	0.0143824
612.098	0.0143701
612.176	0.0144175
612.254	0.0144415
612.332	0.0144209
612.410	0.0143278
612.488	0.0143185
612.567	0.0142933
612.645	0.0141822
612.723	0.0143092
612.801	0.0143349
612.879	0.0142034
612.957	0.0143479
613.035	0.0142095
613.113	0.0141617
613.192	0.0143646
613.270	0.0142921
613.348	0.0142535
613.426	0.0141812
613.504	0.0143558
613.582	0.0143330
613.660	0.0143719
613.738	0.0143550
613.817	0.0143636
613.895	0.0142490
613.973	0.0143773
614.051	0.0143595
614.129	0.0145369
614.207	0.0145271
614.285	0.0144685
614.363	0.0143715
614.442	0.0145162
614.520	0.0144549
614.598	0.0144516
614.676	0.0143255
614.754	0.0144856
614.832	0.0144122
614.910	0.0143417
614.988	0.0145004
615.067	0.0144224
615.145	0.0144970
615.223	0.0144134
615.301	0.0144745
615.379	0.0144495
615.457	0.0143793
615.535	0.0145197
615.613	0.0146098
615.692	0.0145157
615.770	0.0144219
615.848	0.0146467
615.926	0.0143951
616.004	0.0144125
616.082	0.0144672
616.160	0.0144948
616.238	0.0144182
616.317	0.0144360
616.395	0.0145211
616.473	0.0143914
616.551	0.0143127
616.629	0.0143506
616.707	0.0144412
616.785	0.0143974
616.863	0.0144917
616.942	0.0143641
617.020	0.0143452
617.098	0.0144230
617.176	0.0142794
617.254	0.0142899
617.332	0.0143444
617.410	0.0144463
617.488	0.0142728
617.567	0.0143492
617.645	0.0145427
617.723	0.0144575
617.801	0.0144582
617.879	0.0143540
617.957	0.0143689
618.035	0.0143987
618.113	0.0143204
618.192	0.0145032
618.270	0.0143073
618.348	0.0143729
618.426	0.0145063
618.504	0.0144076
618.582	0.0144659
618.660	0.0144125
618.738	0.0144499
618.817	0.0145490
618.895	0.0143975
618.973	0.0146249
619.051	0.0144701
619.129	0.0146272
619.207	0.0145154
619.285	0.0145747
619.363	0.0147115
619.442	0.0145728
619.520	0.0145432
619.598	0.0146914
619.676	0.0147144
619.754	0.0148191
619.832	0.0147728
619.910	0.0146757
619.988	0.0145287
620.067	0.0146952
620.145	0.0146021
620.223	0.0145471
620.301	0.0144463
620.379	0.0145096
620.457	0.0144800
620.535	0.0145238
620.613	0.0143353
620.692	0.0143595
620.770	0.0144623
620.848	0.0143752
620.926	0.0146317
621.004	0.0145273
621.082	0.0144903
621.160	0.0144035
621.238	0.0144598
621.317	0.0143110
621.395	0.0143602
621.473	0.0142600
621.551	0.0143245
621.629	0.0142033
621.707	0.0141933
621.785	0.0143140
621.863	0.0140930
621.942	0.0142185
622.020	0.0143513
622.098	0.0141537
622.176	0.0144923
622.254	0.0143192
622.332	0.0144335
622.410	0.0145660
622.488	0.0144076
622.567	0.0145558
622.645	0.0148103
622.723	0.0147799
622.801	0.0146220
622.879	0.0147244
622.957	0.0146437
623.035	0.0146215
623.113	0.0145029
623.192	0.0146046
623.270	0.0146820
623.348	0.0145561
623.426	0.0144377
623.504	0.0145415
623.582	0.0145497
623.660	0.0144694
623.738	0.0144621
623.817	0.0144688
623.895	0.0145839
623.973	0.0143301
624.051	0.0144369
624.129	0.0143616
624.207	0.0144500
624.285	0.0144263
624.363	0.0142760
624.442	0.0144316
624.520	0.0144202
624.598	0.0144535
624.676	0.0143466
624.754	0.0142011
624.832	0.0144167
624.910	0.0143888
624.988	0.0143699
625.067	0.0144466
625.145	0.0144307
625.223	0.0144042
625.301	0.0145284
625.379	0.0145267
625.457	0.0145444
625.535	0.0146521
625.613	0.0145200
625.692	0.0145619
625.770	0.0146790
625.848	0.0145840
625.926	0.0146524
626.004	0.0146819
626.082	0.0146732
626.160	0.0146316
626.238	0.0144958
626.317	0.0146484
626.395	0.0146495
626.473	0.0145244
626.551	0.0145621
626.629	0.0145507
626.707	0.0145781
626.785	0.0144517
626.863	0.0145390
626.942	0.0145227
627.020	0.0146888
627.098	0.0145588
627.176	0.0145005
627.254	0.0145641
627.332	0.0144710
627.410	0.0145696
627.488	0.0144667
627.567	0.0146232
627.645	0.0146091
627.723	0.0147186
627.801	0.0146046
627.879	0.0145557
627.957	0.0147137
628.035	0.0146872
628.113	0.0148291
628.192	0.0147462
628.270	0.0147299
628.348	0.0147802
628.426	0.0147105
628.504	0.0148335
628.582	0.0147292
628.660	0.0145880
628.738	0.0146660
628.817	0.0146554
628.895	0.0146136
628.973	0.0146709
629.051	0.0146507
629.129	0.0145287
629.207	0.0144135
629.285	0.0145552
629.363	0.0145225
629.442	0.0143138
629.520	0.0143654
629.598	0.0141285
629.676	0.0142039
629.754	0.0142929
629.832	0.0142624
629.910	0.0142371
629.988	0.0142012
630.067	0.0141695
630.145	0.0144208
630.223	0.0143913
630.301	0.0144554
630.379	0.0142937
630.457	0.0143697
630.535	0.0144515
630.613	0.0145466
630.692	0.0144862
630.770	0.0146202
630.848	0.0146419
630.926	0.0144764
631.004	0.0146397
631.082	0.0146119
631.160	0.0145491
631.238	0.0145026
631.317	0.0145258
631.395	0.0144090
631.473	0.0146304
631.551	0.0144382
631.629	0.0144298
631.707	0.0145454
631.785	0.0144077
631.863	0.0144778
631.942	0.0143801
632.020	0.0143783
632.098	0.0143798
632.176	0.0143713
632.254	0.0143935
632.332	0.0143681
632.410	0.0143408
632.488	0.0145522
632.567	0.0145091
632.645	0.0145137
632.723	0.0145552
632.801	0.0144823
632.879	0.0146250
632.957	0.0144798
633.035	0.0147103
633.113	0.0145978
633.192	0.0146915
633.270	0.0144758
633.348	0.0146319
633.426	0.0147188
633.504	0.0146659
633.582	0.0146112
633.660	0.0145475
633.738	0.0145238
633.817	0.0144286
633.895	0.0145094
633.973	0.0146072
634.051	0.0143489
634.129	0.0145029
634.207	0.0143953
634.285	0.0145084
634.363	0.0143483
634.442	0.0144379
634.520	0.0144298
634.598	0.0143553
634.676	0.0142079
634.754	0.0142844
634.832	0.0143191
634.910	0.0142042
634.988	0.0142873
635.067	0.0142271
635.145	0.0142047
635.223	0.0143336
635.301	0.0142941
635.379	0.0142406
635.457	0.0143202
635.535	0.0143607
635.613	0.0142216
635.692	0.0143762
635.770	0.0145119
635.848	0.0143867
635.926	0.0146381
636.004	0.0144082
636.082	0.0144066
636.160	0.0145673
636.238	0.0143406
636.317	0.0143544
636.395	0.0144311
636.473	0.0145077
636.551	0.0145429
636.629	0.0144806
636.707	0.0144627
636.785	0.0145257
636.863	0.0144829
636.942	0.0144952
637.020	0.0145539
637.098	0.0145905
637.176	0.0146359
637.254	0.0146329
637.332	0.0145974
637.410	0.0146245
637.488	0.0147021
637.567	0.0146470
637.645	0.0145190
637.723	0.0144543
637.801	0.0146647
637.879	0.0145689
637.957	0.0143781
638.035	0.0143858
638.113	0.0143473
638.192	0.0143751
638.270	0.0143107
638.348	0.0142358
638.426	0.0143572
638.504	0.0143097
638.582	0.0142167
638.660	0.0142917
638.738	0.0142393
638.817	0.0142141
638.895	0.0142908
638.973	0.0143362
639.051	0.0142235
639.129	0.0142063
639.207	0.0143611
639.285	0.0143463
639.363	0.0142974
639.442	0.0143097
639.520	0.0142883
639.598	0.0142949
639.676	0.0143771
639.754	0.0142695
639.832	0.0143722
639.910	0.0143582
639.988	0.0143266
640.067	0.0144041
640.145	0.0142596
640.223	0.0142127
640.301	0.0142874
640.379	0.0144701
640.457	0.0142979
640.535	0.0143417
640.613	0.0143580
640.692	0.0145856
640.770	0.0143832
640.848	0.0143186
640.926	0.0144432
641.004	0.0144492
641.082	0.0144037
641.160	0.0143705
641.238	0.0143994
641.317	0.0143463
641.395	0.0144243
641.473	0.0143880
641.551	0.0144694
641.629	0.0143436
641.707	0.0144149
641.785	0.0144677
641.863	0.0143819
641.942	0.0145930
642.020	0.0144904
642.098	0.0143843
642.176	0.0144511
642.254	0.0144785
642.332	0.0144231
642.410	0.0143488
642.488	0.0143068
642.567	0.0143427
642.645	0.0142866
642.723	0.0143173
642.801	0.0143115
642.879	0.0142365
642.957	0.0141715
643.035	0.0141376
643.113	0.0141063
643.192	0.0141713
643.270	0.0140989
643.348	0.0142043
643.426	0.0139983
643.504	0.0141667
643.582	0.0140954
643.660	0.0143398
643.738	0.0143231
643.817	0.0142011
643.895	0.0142028
643.973	0.0144814
644.051	0.0143936
644.129	0.0143884
644.207	0.0143473
644.285	0.0142846
644.363	0.0141367
644.442	0.0143104
644.520	0.0144856
644.598	0.0145193
644.676	0.0145154
644.754	0.0145150
644.832	0.0144080
644.910	0.0143613
644.988	0.0143567
645.067	0.0144360
645.145	0.0144723
645.223	0.0145607
645.301	0.0145699
645.379	0.0146348
645.457	0.0144066
645.535	0.0146420
645.613	0.0146490
645.692	0.0147227
645.770	0.0145907
645.848	0.0146516
645.926	0.0148846
646.004	0.0147500
646.082	0.0146679
646.160	0.0147495
646.238	0.0147363
646.317	0.0147454
646.395	0.0148883
646.473	0.0148026
646.551	0.0147118
646.629	0.0148244
646.707	0.0145763
646.785	0.0148124
646.863	0.0148481
646.942	0.0148429
647.020	0.0147153
647.098	0.0148579
647.176	0.0146522
647.254	0.0146910
647.332	0.0148008
647.410	0.0148715
647.488	0.0147788
647.567	0.0146450
647.645	0.0147141
647.723	0.0146377
647.801	0.0145364
647.879	0.0145766
647.957	0.0146008
648.035	0.0146110
648.113	0.0146182
648.192	0.0146911
648.270	0.0146019
648.348	0.0145047
648.426	0.0146677
648.504	0.0145935
648.582	0.0145608
648.660	0.0144156
648.738	0.0144470
648.817	0.0146115
648.895	0.0145862
648.973	0.0146535
649.051	0.0146049
649.129	0.0146111
649.207	0.0144530
649.285	0.0145811
649.363	0.0145689
649.442	0.0144548
649.520	0.0145654
649.598	0.0145178
649.676	0.0145566
649.754	0.0145676
649.832	0.0145782
649.910	0.0144698
649.988	0.0143888
650.067	0.0144061
650.145	0.0144282
650.223	0.0144477
650.301	0.0142986
650.379	0.0144606
650.457	0.0142722
650.535	0.0142579
650.613	0.0142369
650.692	0.0141980
650.770	0.0141980
650.848	0.0141650
650.926	0.0140072
651.004	0.0141055
651.082	0.0141241
651.160	0.0141620
651.238	0.0139624
651.317	0.0138686
651.395	0.0139642
651.473	0.0141210
651.551	0.0141817
651.629	0.0140427
651.707	0.0141180
651.785	0.0141225
651.863	0.0142422
651.942	0.0143595
652.020	0.0143132
652.098	0.0143276
652.176	0.0144227
652.254	0.0144727
652.332	0.0144260
652.410	0.0145272
652.488	0.0144749
652.567	0.0144035
652.645	0.0144718
652.723	0.0143512
652.801	0.0144009
652.879	0.0144087
652.957	0.0142082
653.035	0.0142300
653.113	0.0143644
653.192	0.0143251
653.270	0.0142298
653.348	0.0142750
653.426	0.0143040
653.504	0.0143065
653.582	0.0143861
653.660	0.0142733
653.738	0.0142322
653.817	0.0145123
653.895	0.0144707
653.973	0.0144347
654.051	0.0145667
654.129	0.0145754
654.207	0.0145594
654.285	0.0146761
654.363	0.0146593
654.442	0.0146722
654.520	0.0145795
654.598	0.0146066
654.676	0.0146092
654.754	0.0146231
654.832	0.0145488
654.910	0.0146692
654.988	0.0145939
655.067	0.0143924
655.145	0.0145193
655.223	0.0144730
655.301	0.0144246
655.379	0.0143678
655.457	0.0144669
655.535	0.0143025
655.613	0.0142931
655.692	0.0141843
655.770	0.0143033
655.848	0.0142422
655.926	0.0141933
656.004	0.0142822
656.082	0.0143510
656.160	0.0142289
656.238	0.0142436
656.317	0.0143569
656.395	0.0142691
656.473	0.0143230
656.551	0.0143893
656.629	0.0144062
656.707	0.0143754
656.785	0.0143560
656.863	0.0144024
656.942	0.0142783
657.020	0.0143562
657.098	0.0144453
657.176	0.0144203
657.254	0.0144753
657.332	0.0144859
657.410	0.0143502
657.488	0.0144254
657.567	0.0144198
657.645	0.0144034
657.723	0.0144891
657.801	0.0143653
657.879	0.0144505
657.957	0.0143179
658.035	0.0145229
658.113	0.0144253
658.192	0.0144180
658.270	0.0143894
658.348	0.0145354
658.426	0.0146527
658.504	0.0145904
658.582	0.0144953
658.660	0.0144508
658.738	0.0145018
658.817	0.0145143
658.895	0.0145401
658.973	0.0143469
659.051	0.0144223
659.129	0.0146111
659.207	0.0144110
659.285	0.0144351
659.363	0.0144340
659.442	0.0144624
659.520	0.0143243
659.598	0.0145258
659.676	0.0144305
659.754	0.0142993
659.832	0.0144082
659.910	0.0142506
659.988	0.0143722
660.067	0.0143515
660.145	0.0142194
660.223	0.0141692
660.301	0.0142372
660.379	0.0142104
660.457	0.0140816
660.535	0.0141751
660.613	0.0141930
660.692	0.0141029
660.770	0.0142372
660.848	0.0141224
660.926	0.0141230
661.004	0.0141941
661.082	0.0142541
661.160	0.0140714
661.238	0.0143204
661.317	0.0142706
661.395	0.0143259
661.473	0.0141850
661.551	0.0142088
661.629	0.0141165
661.707	0.0140167
661.785	0.0141559
661.863	0.0141703
661.942	0.0142142
662.020	0.0141222
662.098	0.0142474
662.176	0.0141894
662.254	0.0143487
662.332	0.0143233
662.410	0.0143245
662.488	0.0142690
662.567	0.0143317
662.645	0.0145216
662.723	0.0144486
662.801	0.0144978
662.879	0.0145353
662.957	0.0145803
663.035	0.0144752
663.113	0.0145025
663.192	0.0144999
663.270	0.0143586
663.348	0.0143900
663.426	0.0142982
663.504	0.0144069
663.582	0.0143420
663.660	0.0142434
663.738	0.0142394
663.817	0.0142992
663.895	0.0141996
663.973	0.0143200
664.051	0.0143835
664.129	0.0141953
664.207	0.0143549
664.285	0.0144265
664.363	0.0142444
664.442	0.0142571
664.520	0.0142882
664.598	0.0143397
664.676	0.0142900
664.754	0.0143854
664.832	0.0144913
664.910	0.0142307
664.988	0.0143265
665.067	0.0143839
665.145	0.0143385
665.223	0.0144149
665.301	0.0142744
665.379	0.0142940
665.457	0.0142924
665.535	0.0142378
665.613	0.0142914
665.692	0.0142281
665.770	0.0141877
665.848	0.0143023
665.926	0.0143348
666.004	0.0142572
666.082	0.0142084
666.160	0.0142322
666.238	0.0142963
666.317	0.0143588
666.395	0.0143797
666.473	0.0143178
666.551	0.0143172
666.629	0.0143375
666.707	0.0143562
666.785	0.0144019
666.863	0.0142593
666.942	0.0144502
667.020	0.0143167
667.098	0.0142340
667.176	0.0144975
667.254	0.0143996
667.332	0.0144858
667.410	0.0145474
667.488	0.0145384
667.567	0.0143358
667.645	0.0145406
667.723	0.0145766
667.801	0.0145352
667.879	0.0144815
667.957	0.0145260
668.035	0.0145607
668.113	0.0145143
668.192	0.0145558
668.270	0.0145151
668.348	0.0143883
668.426	0.0144764
668.504	0.0143942
668.582	0.0144843
668.660	0.0144216
668.738	0.0145141
668.817	0.0144058
668.895	0.0144194
668.973	0.0145332
669.051	0.0144552
669.129	0.0143910
669.207	0.0143935
669.285	0.0144839
669.363	0.0145752
669.442	0.0145201
669.520	0.0143510
669.598	0.0144556
669.676	0.0145275
669.754	0.0146485
669.832	0.0145207
669.910	0.0144572
669.988	0.0146959
670.067	0.0145525
670.145	0.0145266
670.223	0.0145139
670.301	0.0146193
670.379	0.0146246
670.457	0.0145459
670.535	0.0146133
670.613	0.0145653
670.692	0.0144156
670.770	0.0143887
670.848	0.0145426
670.926	0.0145489
671.004	0.0142929
671.082	0.0144561
671.160	0.0143745
671.238	0.0142894
671.317	0.0143956
671.395	0.0144913
671.473	0.0143629
671.551	0.0143671
671.629	0.0145541
671.707	0.0143295
671.785	0.0144613
671.863	0.0144641
671.942	0.0143449
672.020	0.0144337
672.098	0.0143524
672.176	0.0143394
672.254	0.0142978
672.332	0.0143232
672.410	0.0144044
672.488	0.0142626
672.567	0.0143322
672.645	0.0143296
672.723	0.0142767
672.801	0.0141806
672.879	0.0143002
672.957	0.0143053
673.035	0.0143481
673.113	0.0143154
673.192	0.0141399
673.270	0.0142275
673.348	0.0142374
673.426	0.0140766
673.504	0.0142878
673.582	0.0141956
673.660	0.0142923
673.738	0.0142165
673.817	0.0142078
673.895	0.0142899
673.973	0.0142718
674.051	0.0143960
674.129	0.0144202
674.207	0.0144353
674.285	0.0144756
674.363	0.0145646
674.442	0.0144334
674.520	0.0144529
674.598	0.0144236
674.676	0.0144804
674.754	0.0145950
674.832	0.0144503
674.910	0.0143638
674.988	0.0144323
675.067	0.0143674
675.145	0.0143091
675.223	0.0143083
675.301	0.0143697
675.379	0.0142224
675.457	0.0144395
675.535	0.0143127
675.613	0.0143913
675.692	0.0142324
675.770	0.0141701
675.848	0.0143680
675.926	0.0142370
676.004	0.0141435
676.082	0.0142601
676.160	0.0142505
676.238	0.0141779
676.317	0.0143403
676.395	0.0142535
676.473	0.0142107
676.551	0.0142369
676.629	0.0144391
676.707	0.0143687
676.785	0.0145103
676.863	0.0144289
676.942	0.0144341
677.020	0.0144436
677.098	0.0143884
677.176	0.0146390
677.254	0.0147081
677.332	0.0147053
677.410	0.0145982
677.488	0.0147874
677.567	0.0149590
677.645	0.0149703
677.723	0.0147484
677.801	0.0148650
677.879	0.0149086
677.957	0.0149175
678.035	0.0150109
678.113	0.0149702
678.192	0.0148923
678.270	0.0148724
678.348	0.0147770
678.426	0.0146196
678.504	0.0147186
678.582	0.0146466
678.660	0.0145618
678.738	0.0145302
678.817	0.0145515
678.895	0.0144640
678.973	0.0144517
679.051	0.0144222
679.129	0.0144457
679.207	0.0143999
679.285	0.0141846
679.363	0.0141836
679.442	0.0142760
679.520	0.0142435
679.598	0.0141812
679.676	0.0140724
679.754	0.0141608
679.832	0.0141931
679.910	0.0142062
679.988	0.0141339
680.067	0.0141002
680.145	0.0141273
680.223	0.0142235
680.301	0.0142720
680.379	0.0141718
680.457	0.0142309
680.535	0.0143272
680.613	0.0142519
680.692	0.0142873
680.770	0.0143370
680.848	0.0143651
680.926	0.0144082
681.004	0.0144286
681.082	0.0143579
681.160	0.0144363
681.238	0.0147215
681.317	0.0144669
681.395	0.0144969
681.473	0.0146477
681.551	0.0145992
681.629	0.0144911
681.707	0.0146989
681.785	0.0146767
681.863	0.0146245
681.942	0.0146337
682.020	0.0146677
682.098	0.0148059
682.176	0.0147138
682.254	0.0147411
682.332	0.0147003
682.410	0.0147614
682.488	0.0147615
682.567	0.0147633
682.645	0.0147243
682.723	0.0145573
682.801	0.0145102
682.879	0.0145428
682.957	0.0145667
683.035	0.0145498
683.113	0.0147313
683.192	0.0145310
683.270	0.0143530
683.348	0.0144532
683.426	0.0144217
683.504	0.0143677
683.582	0.0142302
683.660	0.0142101
683.738	0.0141536
683.817	0.0141478
683.895	0.0140654
683.973	0.0140523
684.051	0.0141688
684.129	0.0141869
684.207	0.0139785
684.285	0.0138436
684.363	0.0140183
684.442	0.0139603
684.520	0.0138317
684.598	0.0139054
684.676	0.0138514
684.754	0.0138668
684.832	0.0139680
684.910	0.0140178
684.988	0.0140490
685.067	0.0141293
685.145	0.0141691
685.223	0.0139920
685.301	0.0141530
685.379	0.0141789
685.457	0.0142165
685.535	0.0143169
685.613	0.0144595
685.692	0.0143723
685.770	0.0144486
685.848	0.0144218
685.926	0.0143418
686.004	0.0145789
686.082	0.0144803
686.160	0.0144330
686.238	0.0145504
686.317	0.0145737
686.395	0.0145041
686.473	0.0143252
686.551	0.0142839
686.629	0.0144067
686.707	0.0144831
686.785	0.0144376
686.863	0.0143414
686.942	0.0144658
687.020	0.0144039
687.098	0.0142289
687.176	0.0143088
687.254	0.0144602
687.332	0.0142408
687.410	0.0143110
687.488	0.0142011
687.567	0.0142422
687.645	0.0141686
687.723	0.0141440
687.801	0.0142754
687.879	0.0142538
687.957	0.0140902
688.035	0.0142825
688.113	0.0142678
688.192	0.0142181
688.270	0.0143266
688.348	0.0143189
688.426	0.0143353
688.504	0.0143486
688.582	0.0144659
688.660	0.0144129
688.738	0.0144064
688.817	0.0145000
688.895	0.0144201
688.973	0.0145474
689.051	0.0144545
689.129	0.0144596
689.207	0.0143945
689.285	0.0145643
689.363	0.0143324
689.442	0.0142896
689.520	0.0144457
689.598	0.0144882
689.676	0.0144370
689.754	0.0144747
689.832	0.0144387
689.910	0.0144514
689.988	0.0144807
690.067	0.0145519
690.145	0.0145967
690.223	0.0146545
690.301	0.0147483
690.379	0.0146587
690.457	0.0148443
690.535	0.0148628
690.613	0.0148654
690.692	0.0148608
690.770	0.0149314
690.848	0.0150816
690.926	0.0150053
691.004	0.0148888
691.082	0.0150457
691.160	0.0149762
691.238	0.0150175
691.317	0.0150820
691.395	0.0149333
691.473	0.0147977
691.551	0.0147633
691.629	0.0148954
691.707	0.0148627
691.785	0.0148302
691.863	0.0147910
691.942	0.0147884
692.020	0.0146072
692.098	0.0145222
692.176	0.0146970
692.254	0.0145543
692.332	0.0144955
692.410	0.0146667
692.488	0.0144706
692.567	0.0145078
692.645	0.0143237
692.723	0.0144107
692.801	0.0142644
692.879	0.0143041
692.957	0.0143352
693.035	0.0143737
693.113	0.0142472
693.192	0.0143188
693.270	0.0143203
693.348	0.0141847
693.426	0.0140928
693.504	0.0142931
693.582	0.0143369
693.660	0.0144553
693.738	0.0143301
693.817	0.0143984
693.895	0.0144964
693.973	0.0143580
694.051	0.0145430
694.129	0.0145958
694.207	0.0146423
694.285	0.0144688
694.363	0.0147031
694.442	0.0148093
694.520	0.0147948
694.598	0.0146991
694.676	0.0146778
694.754	0.0147443
694.832	0.0146780
694.910	0.0146640
694.988	0.0146931
695.067	0.0146072
695.145	0.0145570
695.223	0.0146228
695.301	0.0145072
695.379	0.0145591
695.457	0.0144209
695.535	0.0143407
695.613	0.0144749
695.692	0.0144683
695.770	0.0142473
695.848	0.0142954
695.926	0.0143523
696.004	0.0143112
696.082	0.0141517
696.160	0.0143510
696.238	0.0142808
696.317	0.0141837
696.395	0.0139980
696.473	0.0141173
696.551	0.0140819
696.629	0.0139417
696.707	0.0140221
696.785	0.0139479
696.863	0.0140025
696.942	0.0140578
697.020	0.0137219
697.098	0.0139807
697.176	0.0140004
697.254	0.0139555
697.332	0.0139579
697.410	0.0139671
697.488	0.0139783
697.567	0.0139781
697.645	0.0138586
697.723	0.0140323
697.801	0.0139318
697.879	0.0140468
697.957	0.0141296
698.035	0.0140437
698.113	0.0141999
698.192	0.0142719
698.270	0.0142788
698.348	0.0142833
698.426	0.0144514
698.504	0.0145360
698.582	0.0144955
698.660	0.0145145
698.738	0.0145106
698.817	0.0145779
698.895	0.0146322
698.973	0.0145635
699.051	0.0148758
699.129	0.0147202
699.207	0.0148034
699.285	0.0148138
699.363	0.0148945
699.442	0.0148026
699.520	0.0147515
699.598	0.0148563
699.676	0.0147498
699.754	0.0147185
699.832	0.0148232
699.910	0.0148230
699.988	0.0146790
700.067	0.0145802
700.145	0.0146764
700.223	0.0146080
700.301	0.0145856
700.379	0.0146851
700.457	0.0145205
700.535	0.0143976
700.613	0.0144177
700.692	0.0146728
700.770	0.0145341
700.848	0.0144454
700.926	0.0144190
701.004	0.0144327
701.082	0.0145703
701.160	0.0144708
701.238	0.0144593
701.317	0.0143031
701.395	0.0144753
701.473	0.0145304
701.551	0.0145098
701.629	0.0143069
701.707	0.0144743
701.785	0.0145674
701.863	0.0144975
701.942	0.0145073
702.020	0.0144468
702.098	0.0144401
702.176	0.0146242
702.254	0.0146941
702.332	0.0147359
702.410	0.0146680
702.488	0.0145636
702.567	0.0147511
702.645	0.0148051
702.723	0.0148402
702.801	0.0148067
702.879	0.0148200
702.957	0.0147877
703.035	0.0149272
703.113	0.0145905
703.192	0.0147972
703.270	0.0148785
703.348	0.0147874
703.426	0.0147985
703.504	0.0147461
703.582	0.0147685
703.660	0.0147562
703.738	0.0148521
703.817	0.0148560
703.895	0.0147512
703.973	0.0147833
704.051	0.0150050
704.129	0.0147955
704.207	0.0147826
704.285	0.0148470
704.363	0.0146353
704.442	0.0148031
704.520	0.0147485
704.598	0.0147225
704.676	0.0146964
704.754	0.0147713
704.832	0.0147452
704.910	0.0147404
704.988	0.0148524
705.067	0.0147434
705.145	0.0147948
705.223	0.0148186
705.301	0.0146534
705.379	0.0145735
705.457	0.0147001
705.535	0.0147039
705.613	0.0145621
705.692	0.0146859
705.770	0.0145271
705.848	0.0143924
705.926	0.0144911
706.004	0.0145029
706.082	0.0144549
706.160	0.0144341
706.238	0.0145553
706.317	0.0144679
706.395	0.0143946
706.473	0.0144185
706.551	0.0143893
706.629	0.0144733
706.707	0.0143509
706.785	0.0144417
706.863	0.0142111
706.942	0.0144441
707.020	0.0144854
707.098	0.0143405
707.176	0.0144609
707.254	0.0143990
707.332	0.0144801
707.410	0.0143911
707.488	0.0145112
707.567	0.0143960
707.645	0.0144351
707.723	0.0142680
707.801	0.0144798
707.879	0.0143953
707.957	0.0142332
708.035	0.0143203
708.113	0.0144428
708.192	0.0144448
708.270	0.0143905
708.348	0.0143446
708.426	0.0143675
708.504	0.0143055
708.582	0.0142767
708.660	0.0144141
708.738	0.0143247
708.817	0.0142671
708.895	0.0144415
708.973	0.0143510
709.051	0.0144897
709.129	0.0143959
709.207	0.0144109
709.285	0.0143855
709.363	0.0145173
709.442	0.0143652
709.520	0.0143334
709.598	0.0144293
709.676	0.0145036
709.754	0.0143063
709.832	0.0144269
709.910	0.0145216
709.988	0.0143738
710.067	0.0142894
710.145	0.0144912
710.223	0.0145045
710.301	0.0144686
710.379	0.0143980
710.457	0.0145596
710.535	0.0144408
710.613	0.0144546
710.692	0.0143752
710.770	0.0145103
710.848	0.0144748
710.926	0.0143788
711.004	0.0143567
711.082	0.0144265
711.160	0.0144277
711.238	0.0143784
711.317	0.0143929
711.395	0.0146068
711.473	0.0145296
711.551	0.0144936
711.629	0.0145815
711.707	0.0145010
711.785	0.0146482
711.863	0.0146747
711.942	0.0146211
712.020	0.0147084
712.098	0.0147198
712.176	0.0147430
712.254	0.0149297
712.332	0.0148335
712.410	0.0148405
712.488	0.0147301
712.567	0.0148354
712.645	0.0148007
712.723	0.0149169
712.801	0.0146797
712.879	0.0148499
712.957	0.0148032
713.035	0.0148624
713.113	0.0148795
713.192	0.0149845
713.270	0.0148961
713.348	0.0147828
713.426	0.0148268
713.504	0.0148190
713.582	0.0147231
713.660	0.0148395
713.738	0.0147736
713.817	0.0146426
713.895	0.0146522
713.973	0.0148565
714.051	0.0146494
714.129	0.0146120
714.207	0.0146182
714.285	0.0145837
714.363	0.0145297
714.442	0.0146267
714.520	0.0146769
714.598	0.0145541
714.676	0.0146030
714.754	0.0145938
714.832	0.0145387
714.910	0.0144218
714.988	0.0146120
715.067	0.0146428
715.145	0.0144949
715.223	0.0146446
715.301	0.0146873
715.379	0.0143987
715.457	0.0145254
715.535	0.0143970
715.613	0.0145674
715.692	0.0144286
715.770	0.0144026
715.848	0.0143788
715.926	0.0143800
716.004	0.0145176
716.082	0.0145658
716.160	0.0144733
716.238	0.0142626
716.317	0.0143558
716.395	0.0144990
716.473	0.0144863
716.551	0.0145068
716.629	0.0143563
716.707	0.0145563
716.785	0.0146071
716.863	0.0143481
716.942	0.0144466
717.020	0.0144966
717.098	0.0143700
717.176	0.0143878
717.254	0.0143504
717.332	0.0143877
717.410	0.0143600
717.488	0.0144735
717.567	0.0142280
717.645	0.0143801
717.723	0.0144305
717.801	0.0142460
717.879	0.0143431
717.957	0.0143311
718.035	0.0143735
718.113	0.0142784
718.192	0.0143240
718.270	0.0144788
718.348	0.0144430
718.426	0.0141322
718.504	0.0144987
718.582	0.0143427
718.660	0.0141746
718.738	0.0142021
718.817	0.0142121
718.895	0.0142293
718.973	0.0142763
719.051	0.0142448
719.129	0.0141613
719.207	0.0143056
719.285	0.0143459
719.363	0.0142530
719.442	0.0141111
719.520	0.0142737
719.598	0.0144327
719.676	0.0143705
719.754	0.0142890
719.832	0.0142461
719.910	0.0145774
719.988	0.0144379
720.067	0.0144762
720.145	0.0142939
720.223	0.0143153
720.301	0.0143916
720.379	0.0143436
720.457	0.0144523
720.535	0.0145188
720.613	0.0143134
720.692	0.0143140
720.770	0.0144395
720.848	0.0143113
720.926	0.0143166
721.004	0.0145121
721.082	0.0143692
721.160	0.0143371
721.238	0.0144170
721.317	0.0142465
721.395	0.0142352
721.473	0.0143497
721.551	0.0144614
721.629	0.0143087
721.707	0.0144002
721.785	0.0144141
721.863	0.0145335
721.942	0.0144198
722.020	0.0145074
722.098	0.0145721
722.176	0.0145677
722.254	0.0146687
722.332	0.0146486
722.410	0.0146722
722.488	0.0146004
722.567	0.0146096
722.645	0.0146005
722.723	0.0146494
722.801	0.0146384
722.879	0.0145622
722.957	0.0147459
723.035	0.0146698
723.113	0.0146902
723.192	0.0146949
723.270	0.0147095
723.348	0.0145840
723.426	0.0146495
723.504	0.0146007
723.582	0.0146414
723.660	0.0145878
723.738	0.0146259
723.817	0.0147081
723.895	0.0146099
723.973	0.0147099
724.051	0.0145556
724.129	0.0145550
724.207	0.0145789
724.285	0.0145845
724.363	0.0146007
724.442	0.0147388
724.520	0.0145538
724.598	0.0145539
724.676	0.0146824
724.754	0.0146638
724.832	0.0145252
724.910	0.0144836
724.988	0.0146350
725.067	0.0145568
725.145	0.0147538
725.223	0.0147239
725.301	0.0145782
725.379	0.0146494
725.457	0.0146806
725.535	0.0147631
725.613	0.0147030
725.692	0.0146225
725.770	0.0146152
725.848	0.0146495
725.926	0.0144923
726.004	0.0145634
726.082	0.0146153
726.160	0.0147106
726.238	0.0145201
726.317	0.0146175
726.395	0.0145467
726.473	0.0146022
726.551	0.0145785
726.629	0.0144090
726.707	0.0144589
726.785	0.0143595
726.863	0.0144057
726.942	0.0144115
727.020	0.0142789
727.098	0.0143283
727.176	0.0143413
727.254	0.0142625
727.332	0.0141853
727.410	0.0142329
727.488	0.0143135
727.567	0.0142284
727.645	0.0142493
727.723	0.0143111
727.801	0.0142524
727.879	0.0144156
727.957	0.0142834
728.035	0.0144117
728.113	0.0141756
728.192	0.0142408
728.270	0.0143065
728.348	0.0143211
728.426	0.0143169
728.504	0.0143111
728.582	0.0142896
728.660	0.0142993
728.738	0.0143277
728.817	0.0142623
728.895	0.0142829
728.973	0.0143856
729.051	0.0142529
729.129	0.0143707
729.207	0.0142687
729.285	0.0143142
729.363	0.0142570
729.442	0.0143092
729.520	0.0143807
729.598	0.0142297
729.676	0.0141051
729.754	0.0143656
729.832	0.0143611
729.910	0.0143163
729.988	0.0144166
730.067	0.0142856
730.145	0.0143771
730.223	0.0143886
730.301	0.0143082
730.379	0.0143182
730.457	0.0144602
730.535	0.0144156
730.613	0.0143702
730.692	0.0144269
730.770	0.0143514
730.848	0.0144559
730.926	0.0143705
731.004	0.0144286
731.082	0.0144513
731.160	0.0143585
731.238	0.0143468
731.317	0.0145211
731.395	0.0144364
731.473	0.0143097
731.551	0.0144569
731.629	0.0144908
731.707	0.0145031
731.785	0.0145658
731.863	0.0145869
731.942	0.0144082
732.020	0.0143916
732.098	0.0144135
732.176	0.0145329
732.254	0.0143875
732.332	0.0144160
732.410	0.0142945
732.488	0.0143443
732.567	0.0144513
732.645	0.0144402
732.723	0.0144854
732.801	0.0144350
732.879	0.0145181
732.957	0.0144119
733.035	0.0144304
733.113	0.0145336
733.192	0.0147110
733.270	0.0146189
733.348	0.0147311
733.426	0.0149239
733.504	0.0146510
733.582	0.0146315
733.660	0.0147393
733.738	0.0149230
733.817	0.0149772
733.895	0.0147195
733.973	0.0149016
734.051	0.0150009
734.129	0.0149349
734.207	0.0148300
734.285	0.0147575
734.363	0.0147611
734.442	0.0148327
734.520	0.0148164
734.598	0.0147862
734.676	0.0148852
734.754	0.0146613
734.832	0.0147664
734.910	0.0147595
734.988	0.0146526
735.067	0.0145307
735.145	0.0146121
735.223	0.0147169
735.301	0.0146339
735.379	0.0146367
735.457	0.0145635
735.535	0.0146121
735.613	0.0146279
735.692	0.0147077
735.770	0.0145117
735.848	0.0145428
735.926	0.0146328
736.004	0.0146272
736.082	0.0146013
736.160	0.0144778
736.238	0.0144372
736.317	0.0145219
736.395	0.0145783
736.473	0.0144160
736.551	0.0144263
736.629	0.0143168
736.707	0.0142901
736.785	0.0142464
736.863	0.0141870
736.942	0.0142106
737.020	0.0140556
737.098	0.0141901
737.176	0.0140998
737.254	0.0142962
737.332	0.0141662
737.410	0.0140601
737.488	0.0142036
737.567	0.0141116
737.645	0.0141322
737.723	0.0141057
737.801	0.0142751
737.879	0.0142493
737.957	0.0142149
738.035	0.0141620
738.113	0.0142512
738.192	0.0142605
738.270	0.0142850
738.348	0.0142967
738.426	0.0141982
738.504	0.0143235
738.582	0.0143714
738.660	0.0143017
738.738	0.0143127
738.817	0.0143855
738.895	0.0142440
738.973	0.0142863
739.051	0.0142110
739.129	0.0142657
739.207	0.0141156
739.285	0.0143864
739.363	0.0143551
739.442	0.0142050
739.520	0.0141460
739.598	0.0142146
739.676	0.0143791
739.754	0.0142362
739.832	0.0141865
739.910	0.0142001
739.988	0.0142252
740.067	0.0142812
740.145	0.0142252
740.223	0.0142707
740.301	0.0143176
740.379	0.0142229
740.457	0.0141983
740.535	0.0142286
740.613	0.0141315
740.692	0.0142352
740.770	0.0141656
740.848	0.0142384
740.926	0.0143491
741.004	0.0142161
741.082	0.0142493
741.160	0.0142564
741.238	0.0143003
741.317	0.0143501
741.395	0.0142899
741.473	0.0143459
741.551	0.0143418
741.629	0.0142889
741.707	0.0143817
741.785	0.0143839
741.863	0.0144285
741.942	0.0144472
742.020	0.0144356
742.098	0.0143562
742.176	0.0144447
742.254	0.0144980
742.332	0.0143157
742.410	0.0143548
742.488	0.0142674
742.567	0.0143620
742.645	0.0144464
742.723	0.0143877
742.801	0.0144028
742.879	0.0143453
742.957	0.0142931
743.035	0.0143866
743.113	0.0144248
743.192	0.0144983
743.270	0.0143217
743.348	0.0144301
743.426	0.0144576
743.504	0.0143407
743.582	0.0143693
743.660	0.0144627
743.738	0.0145547
743.817	0.0145177
743.895	0.0145448
743.973	0.0143546
744.051	0.0144266
744.129	0.0146260
744.207	0.0145076
744.285	0.0143716
744.363	0.0144621
744.442	0.0144469
744.520	0.0145159
744.598	0.0145518
744.676	0.0143992
744.754	0.0143917
744.832	0.0144041
744.910	0.0144004
744.988	0.0144168
745.067	0.0144360
745.145	0.0143938
745.223	0.0144004
745.301	0.0144602
745.379	0.0143966
745.457	0.0144054
745.535	0.0143035
745.613	0.0143809
745.692	0.0143076
745.770	0.0142901
745.848	0.0143845
745.926	0.0142967
746.004	0.0144984
746.082	0.0145566
746.160	0.0143874
746.238	0.0144094
746.317	0.0144811
746.395	0.0144421
746.473	0.0145371
746.551	0.0145007
746.629	0.0145309
746.707	0.0144834
746.785	0.0144868
746.863	0.0143295
746.942	0.0143289
747.020	0.0143783
747.098	0.0143944
747.176	0.0144694
747.254	0.0142323
747.332	0.0144579
747.410	0.0144035
747.488	0.0143905
747.567	0.0143161
747.645	0.0143758
747.723	0.0143391
747.801	0.0144348
747.879	0.0142715
747.957	0.0142950
748.035	0.0143546
748.113	0.0142767
748.192	0.0143327
748.270	0.0142237
748.348	0.0143270
748.426	0.0143713
748.504	0.0142188
748.582	0.0141920
748.660	0.0142263
748.738	0.0142883
748.817	0.0140945
748.895	0.0141758
748.973	0.0142792
749.051	0.0141704
749.129	0.0140939
749.207	0.0142153
749.285	0.0141002
749.363	0.0141464
749.442	0.0142928
749.520	0.0142387
749.598	0.0142838
749.676	0.0141446
749.754	0.0142784
749.832	0.0142582
749.910	0.0142997
749.988	0.0142233
750.067	0.0143291
750.145	0.0143793
750.223	0.0143151
750.301	0.0144807
750.379	0.0144115
750.457	0.0143726
750.535	0.0144055
750.613	0.0144402
750.692	0.0144794
750.770	0.0145697
750.848	0.0145657
750.926	0.0145524
751.004	0.0144675
751.082	0.0143676
751.160	0.0145222
751.238	0.0144042
751.317	0.0145212
751.395	0.0142716
751.473	0.0144734
751.551	0.0145483
751.629	0.0144704
751.707	0.0143690
751.785	0.0144051
751.863	0.0144490
751.942	0.0145261
752.020	0.0145546
752.098	0.0143314
752.176	0.0144674
752.254	0.0144894
752.332	0.0145702
752.410	0.0144946
752.488	0.0145242
752.567	0.0144481
752.645	0.0144154
752.723	0.0143651
752.801	0.0144746
752.879	0.0144357
752.957	0.0145592
753.035	0.0144125
753.113	0.0143980
753.192	0.0144913
753.270	0.0143333
753.348	0.0143993
753.426	0.0145673
753.504	0.0144670
753.582	0.0143520
753.660	0.0144083
753.738	0.0144214
753.817	0.0143813
753.895	0.0144477
753.973	0.0144878
754.051	0.0143803
754.129	0.0144789
754.207	0.0144283
754.285	0.0144768
754.363	0.0144585
754.442	0.0145372
754.520	0.0144189
754.598	0.0145041
754.676	0.0144550
754.754	0.0145145
754.832	0.0144918
754.910	0.0143656
754.988	0.0145948
755.067	0.0145203
755.145	0.0145267
755.223	0.0145186
755.301	0.0144845
755.379	0.0144592
755.457	0.0145769
755.535	0.0144122
755.613	0.0145819
755.692	0.0144580
755.770	0.0143943
755.848	0.0144594
755.926	0.0146628
756.004	0.0144985
756.082	0.0145580
756.160	0.0144193
756.238	0.0145477
756.317	0.0145381
756.395	0.0145357
756.473	0.0146397
756.551	0.0145656
756.629	0.0144615
756.707	0.0144973
756.785	0.0144266
756.863	0.0145650
756.942	0.0144595
757.020	0.0145783
757.098	0.0145350
757.176	0.0143861
757.254	0.0144742
757.332	0.0145634
757.410	0.0144864
757.488	0.0144932
757.567	0.0143349
757.645	0.0145064
757.723	0.0144301
757.801	0.0145159
757.879	0.0145111
757.957	0.0144216
758.035	0.0143913
758.113	0.0144254
758.192	0.0143066
758.270	0.0145109
758.348	0.0143419
758.426	0.0143223
758.504	0.0144506
758.582	0.0143134
758.660	0.0144695
758.738	0.0145524
758.817	0.0142795
758.895	0.0143507
758.973	0.0143916
759.051	0.0145484
759.129	0.0145131
759.207	0.0143324
759.285	0.0144151
759.363	0.0144691
759.442	0.0143840
759.520	0.0143903
759.598	0.0145755
759.676	0.0144501
759.754	0.0144062
759.832	0.0144740
759.910	0.0144591
759.988	0.0144588
760.067	0.0144341
760.145	0.0144608
760.223	0.0143359
760.301	0.0144711
760.379	0.0144549
760.457	0.0144002
760.535	0.0144150
760.613	0.0143367
760.692	0.0144046
760.770	0.0142751
760.848	0.0143530
760.926	0.0143959
761.004	0.0143233
761.082	0.0144630
761.160	0.0144661
761.238	0.0142667
761.317	0.0143622
761.395	0.0143458
761.473	0.0141918
761.551	0.0142551
761.629	0.0144054
761.707	0.0144183
761.785	0.0142486
761.863	0.0142658
761.942	0.0142489
762.020	0.0143157
762.098	0.0141844
762.176	0.0141871
762.254	0.0143562
762.332	0.0143227
762.410	0.0142653
762.488	0.0143152
762.567	0.0144974
762.645	0.0142992
762.723	0.0143089
762.801	0.0142753
762.879	0.0143055
762.957	0.0143103
763.035	0.0142739
763.113	0.0143551
763.192	0.0143994
763.270	0.0143277
763.348	0.0144749
763.426	0.0143999
763.504	0.0143425
763.582	0.0145751
763.660	0.0145422
763.738	0.0143973
763.817	0.0145029
763.895	0.0145896
763.973	0.0143937
764.051	0.0144820
764.129	0.0145078
764.207	0.0145029
764.285	0.0144720
764.363	0.0144976
764.442	0.0146712
764.520	0.0146298
764.598	0.0144196
764.676	0.0145051
764.754	0.0146171
764.832	0.0146412
764.910	0.0145277
764.988	0.0144499
765.067	0.0147036
765.145	0.0145490
765.223	0.0145465
765.301	0.0146873
765.379	0.0144984
765.457	0.0146220
765.535	0.0145676
765.613	0.0144643
765.692	0.0146038
765.770	0.0145490
765.848	0.0145438
765.926	0.0145152
766.004	0.0146348
766.082	0.0144888
766.160	0.0145313
766.238	0.0145307
766.317	0.0144370
766.395	0.0143947
766.473	0.0143666
766.551	0.0143907
766.629	0.0144481
766.707	0.0145078
766.785	0.0143744
766.863	0.0142886
766.942	0.0145227
767.020	0.0144580
767.098	0.0146840
767.176	0.0145044
767.254	0.0144624
767.332	0.0144147
767.410	0.0144046
767.488	0.0145628
767.567	0.0144373
767.645	0.0144715
767.723	0.0145364
767.801	0.0146223
767.879	0.0145892
767.957	0.0144370
768.035	0.0144932
768.113	0.0146175
768.192	0.0146624
768.270	0.0145966
768.348	0.0147294
768.426	0.0144867
768.504	0.0145602
768.582	0.0146509
768.660	0.0144812
768.738	0.0144465
768.817	0.0145386
768.895	0.0144244
768.973	0.0145593
769.051	0.0144260
769.129	0.0145760
769.207	0.0145205
769.285	0.0144534
769.363	0.0144952
769.442	0.0146181
769.520	0.0146040
769.598	0.0145954
769.676	0.0144643
769.754	0.0146767
769.832	0.0144395
769.910	0.0143452
769.988	0.0144640
770.067	0.0144499
770.145	0.0144233
770.223	0.0144930
770.301	0.0146348
770.379	0.0145480
770.457	0.0145216
770.535	0.0144809
770.613	0.0144765
770.692	0.0145071
770.770	0.0144918
770.848	0.0144598
770.926	0.0143996
771.004	0.0143835
771.082	0.0144876
771.160	0.0144765
771.238	0.0144739
771.317	0.0144946
771.395	0.0144933
771.473	0.0144867
771.551	0.0144368
771.629	0.0146117
771.707	0.0144685
771.785	0.0145113
771.863	0.0144914
771.942	0.0144179
772.020	0.0144543
772.098	0.0143576
772.176	0.0144474
772.254	0.0143998
772.332	0.0143994
772.410	0.0145244
772.488	0.0143690
772.567	0.0145457
772.645	0.0146079
772.723	0.0145914
772.801	0.0143307
772.879	0.0143086
772.957	0.0144881
773.035	0.0144421
773.113	0.0144109
773.192	0.0144413
773.270	0.0144294
773.348	0.0144904
773.426	0.0144195
773.504	0.0144476
773.582	0.0145185
773.660	0.0144234
773.738	0.0145867
773.817	0.0145583
773.895	0.0145534
773.973	0.0145677
774.051	0.0146272
774.129	0.0145797
774.207	0.0144872
774.285	0.0144318
774.363	0.0143872
774.442	0.0145139
774.520	0.0144479
774.598	0.0143802
774.676	0.0144632
774.754	0.0145515
774.832	0.0145100
774.910	0.0145135
774.988	0.0143713
775.067	0.0143608
775.145	0.0144733
775.223	0.0142847
775.301	0.0144386
775.379	0.0142363
775.457	0.0143800
775.535	0.0144673
775.613	0.0144388
775.692	0.0143631
775.770	0.0143751
775.848	0.0145784
775.926	0.0144859
776.004	0.0144061
776.082	0.0143794
776.160	0.0143616
776.238	0.0145840
776.317	0.0146046
776.395	0.0145245
776.473	0.0144528
776.551	0.0143874
776.629	0.0143736
776.707	0.0144699
776.785	0.0145304
776.863	0.0144828
776.942	0.0144633
777.020	0.0144901
777.098	0.0144814
777.176	0.0145100
777.254	0.0144407
777.332	0.0143241
777.410	0.0143732
777.488	0.0146638
777.567	0.0144522
777.645	0.0143995
777.723	0.0144941
777.801	0.0146474
777.879	0.0145515
777.957	0.0144884
778.035	0.0147028
778.113	0.0145790
778.192	0.0145600
778.270	0.0147655
778.348	0.0146825
778.426	0.0146941
778.504	0.0145854
778.582	0.0146065
778.660	0.0146968
778.738	0.0145921
778.817	0.0146002
778.895	0.0145606
778.973	0.0145288
779.051	0.0146346
779.129	0.0146397
779.207	0.0145932
779.285	0.0146368
779.363	0.0145731
779.442	0.0144996
779.520	0.0146009
779.598	0.0145734
779.676	0.0145995
779.754	0.0145075
779.832	0.0145795
779.910	0.0146591
779.988	0.0144511
780.067	0.0144405
780.145	0.0143271
780.223	0.0145519
780.301	0.0144441
780.379	0.0142896
780.457	0.0144308
780.535	0.0144602
780.613	0.0142877
780.692	0.0143071
780.770	0.0143433
780.848	0.0142894
780.926	0.0144167
781.004	0.0141903
781.082	0.0142823
781.160	0.0143211
781.238	0.0143024
781.317	0.0142590
781.395	0.0143931
781.473	0.0143097
781.551	0.0141931
781.629	0.0141814
781.707	0.0142535
781.785	0.0144904
781.863	0.0142308
781.942	0.0142956
782.020	0.0142836
782.098	0.0144144
782.176	0.0143606
782.254	0.0143072
782.332	0.0143723
782.410	0.0143013
782.488	0.0144308
782.567	0.0145139
782.645	0.0143851
782.723	0.0144155
782.801	0.0142677
782.879	0.0143545
782.957	0.0144901
783.035	0.0142448
783.113	0.0144073
783.192	0.0144432
783.270	0.0143533
783.348	0.0142796
783.426	0.0144003
783.504	0.0144083
783.582	0.0143694
783.660	0.0143706
783.738	0.0145042
783.817	0.0144975
783.895	0.0146030
783.973	0.0143974
784.051	0.0144628
784.129	0.0144025
784.207	0.0144515
784.285	0.0145037
784.363	0.0144486
784.442	0.0143798
784.520	0.0144929
784.598	0.0144037
784.676	0.0144853
784.754	0.0143878
784.832	0.0144625
784.910	0.0144619
784.988	0.0145079
785.067	0.0143065
785.145	0.0144495
785.223	0.0144791
785.301	0.0144687
785.379	0.0144659
785.457	0.0143008
785.535	0.0144524
785.613	0.0144067
785.692	0.0144555
785.770	0.0144420
785.848	0.0145419
785.926	0.0144576
786.004	0.0144235
786.082	0.0143719
786.160	0.0144765
786.238	0.0144239
786.317	0.0144413
786.395	0.0143761
786.473	0.0143299
786.551	0.0144949
786.629	0.0144773
786.707	0.0143190
786.785	0.0143072
786.863	0.0143197
786.942	0.0143681
787.020	0.0142809
787.098	0.0142701
787.176	0.0143388
787.254	0.0143446
787.332	0.0144684
787.410	0.0143891
787.488	0.0144083
787.567	0.0144437
787.645	0.0143718
787.723	0.0145746
787.801	0.0145050
787.879	0.0144592
787.957	0.0146255
788.035	0.0146051
788.113	0.0146404
788.192	0.0146811
788.270	0.0146230
788.348	0.0146467
788.426	0.0146583
788.504	0.0146086
788.582	0.0146315
788.660	0.0147084
788.738	0.0148211
788.817	0.0146199
788.895	0.0146962
788.973	0.0147108
789.051	0.0146934
789.129	0.0146691
789.207	0.0147666
789.285	0.0147224
789.363	0.0146821
789.442	0.0144945
789.520	0.0147025
789.598	0.0145333
789.676	0.0146192
789.754	0.0146959
789.832	0.0147437
789.910	0.0147504
789.988	0.0146445
790.067	0.0146588
790.145	0.0145573
790.223	0.0146210
790.301	0.0146396
790.379	0.0147301
790.457	0.0147375
790.535	0.0145807
790.613	0.0146181
790.692	0.0146855
790.770	0.0146496
790.848	0.0146413
790.926	0.0146627
791.004	0.0145927
791.082	0.0145687
791.160	0.0146131
791.238	0.0145724
791.317	0.0146580
791.395	0.0144714
791.473	0.0143777
791.551	0.0145315
791.629	0.0145502
791.707	0.0145258
791.785	0.0144264
791.863	0.0145097
791.942	0.0144003
792.020	0.0144818
792.098	0.0142472
792.176	0.0143527
792.254	0.0144030
792.332	0.0143486
792.410	0.0144381
792.488	0.0143158
792.567	0.0143693
792.645	0.0142820
792.723	0.0143445
792.801	0.0143645
792.879	0.0144030
792.957	0.0144052
793.035	0.0142852
793.113	0.0141793
793.192	0.0144794
793.270	0.0143407
793.348	0.0144491
793.426	0.0143278
793.504	0.0142834
793.582	0.0142561
793.660	0.0142695
793.738	0.0143684
793.817	0.0142248
793.895	0.0144109
793.973	0.0143169
794.051	0.0143314
794.129	0.0142795
794.207	0.0142805
794.285	0.0143694
794.363	0.0142984
794.442	0.0143307
794.520	0.0143342
794.598	0.0140855
794.676	0.0142373
794.754	0.0142545
794.832	0.0142135
794.910	0.0142349
794.988	0.0141863
795.067	0.0142001
795.145	0.0140831
795.223	0.0142828
795.301	0.0142298
795.379	0.0142510
795.457	0.0142295
795.535	0.0143181
795.613	0.0143128
795.692	0.0142328
795.770	0.0141533
795.848	0.0142304
795.926	0.0142970
796.004	0.0143488
796.082	0.0142171
796.160	0.0142063
796.238	0.0143053
796.317	0.0144936
796.395	0.0143067
796.473	0.0143143
796.551	0.0143465
796.629	0.0144015
796.707	0.0144333
796.785	0.0144910
796.863	0.0144983
796.942	0.0143582
797.020	0.0143807
797.098	0.0144145
797.176	0.0145045
797.254	0.0145535
797.332	0.0144811
797.410	0.0145116
797.488	0.0145207
797.567	0.0145087
797.645	0.0145039
797.723	0.0145205
797.801	0.0144849
797.879	0.0144957
797.957	0.0144060
798.035	0.0145148
798.113	0.0143401
798.192	0.0144733
798.270	0.0146197
798.348	0.0145515
798.426	0.0145167
798.504	0.0145254
798.582	0.0146014
798.660	0.0145065
798.738	0.0145598
798.817	0.0146764
798.895	0.0145395
798.973	0.0144951
799.051	0.0145621
799.129	0.0146487
799.207	0.0145479
799.285	0.0146515
799.363	0.0146221
799.442	0.0145080
799.520	0.0144842
799.598	0.0145202
799.676	0.0145415
799.754	0.0146410
799.832	0.0146383
799.910	0.0144913
799.988	0.0146048
800.067	0.0145605
800.145	0.0145188
800.223	0.0146039
800.301	0.0144755
800.379	0.0144866
800.457	0.0144867
800.535	0.0143835
800.613	0.0144559
800.692	0.0143884
800.770	0.0143429
800.848	0.0142912
800.926	0.0144897
801.004	0.0145117
801.082	0.0144549
801.160	0.0143826
801.238	0.0143497
801.317	0.0143414
801.395	0.0143592
801.473	0.0142888
801.551	0.0143307
801.629	0.0143846
801.707	0.0144464
801.785	0.0143842
801.863	0.0143845
801.942	0.0144367
802.020	0.0143040
802.098	0.0142894
802.176	0.0142413
802.254	0.0142681
802.332	0.0142605
802.410	0.0141853
802.488	0.0143885
802.567	0.0143295
802.645	0.0143423
802.723	0.0141780
802.801	0.0141675
802.879	0.0143188
802.957	0.0143806
803.035	0.0142759
803.113	0.0141756
803.192	0.0141781
803.270	0.0142522
803.348	0.0143498
803.426	0.0143356
803.504	0.0142509
803.582	0.0143478
803.660	0.0143914
803.738	0.0142919
803.817	0.0140695
803.895	0.0142461
803.973	0.0144938
804.051	0.0141931
804.129	0.0142793
804.207	0.0144727
804.285	0.0143295
804.363	0.0142809
804.442	0.0145298
804.520	0.0144880
804.598	0.0145251
804.676	0.0144178
804.754	0.0145345
804.832	0.0144929
804.910	0.0146495
804.988	0.0146455
805.067	0.0145251
805.145	0.0146072
805.223	0.0146191
805.301	0.0144521
805.379	0.0145123
805.457	0.0145341
805.535	0.0145901
805.613	0.0145239
805.692	0.0145964
805.770	0.0146034
805.848	0.0145688
805.926	0.0145365
806.004	0.0146612
806.082	0.0145010
806.160	0.0145837
806.238	0.0146192
806.317	0.0146284
806.395	0.0144930
806.473	0.0145520
806.551	0.0144827
806.629	0.0146210
806.707	0.0146338
806.785	0.0145033
806.863	0.0147214
806.942	0.0147492
807.020	0.0146037
807.098	0.0145467
807.176	0.0145722
807.254	0.0146568
807.332	0.0146137
807.410	0.0146057
807.488	0.0145522
807.567	0.0145500
807.645	0.0145703
807.723	0.0145614
807.801	0.0144241
807.879	0.0144318
807.957	0.0145120
808.035	0.0144128
808.113	0.0145056
808.192	0.0144482
808.270	0.0143781
808.348	0.0142542
808.426	0.0144122
808.504	0.0143891
808.582	0.0143946
808.660	0.0141618
808.738	0.0142771
808.817	0.0144265
808.895	0.0141694
808.973	0.0141491
809.051	0.0141389
809.129	0.0142172
809.207	0.0141499
809.285	0.0142808
809.363	0.0140669
809.442	0.0141618
809.520	0.0142404
809.598	0.0142091
809.676	0.0142570
809.754	0.0142702
809.832	0.0142637
809.910	0.0143053
809.988	0.0142912
810.067	0.0143834
810.145	0.0142906
810.223	0.0142795
810.301	0.0143583
810.379	0.0143159
810.457	0.0144830
810.535	0.0144392
810.613	0.0144279
810.692	0.0145017
810.770	0.0145860
810.848	0.0144444
810.926	0.0143270
811.004	0.0144727
811.082	0.0145358
811.160	0.0146375
811.238	0.0145798
811.317	0.0145927
811.395	0.0145476
811.473	0.0144798
811.551	0.0144558
811.629	0.0144939
811.707	0.0144946
811.785	0.0144164
811.863	0.0144474
811.942	0.0143407
812.020	0.0144032
812.098	0.0144540
812.176	0.0145044
812.254	0.0144506
812.332	0.0143280
812.410	0.0144411
812.488	0.0143282
812.567	0.0143539
812.645	0.0144503
812.723	0.0144639
812.801	0.0144096
812.879	0.0143829
812.957	0.0144626
813.035	0.0144874
813.113	0.0144167
813.192	0.0144209
813.270	0.0144632
813.348	0.0143811
813.426	0.0144711
813.504	0.0144601
813.582	0.0145345
813.660	0.0143757
813.738	0.0145695
813.817	0.0143816
813.895	0.0143584
813.973	0.0144949
814.051	0.0145045
814.129	0.0144434
814.207	0.0144958
814.285	0.0143966
814.363	0.0144788
814.442	0.0143543
814.520	0.0143909
814.598	0.0143356
814.676	0.0144595
814.754	0.0141885
814.832	0.0143752
814.910	0.0142410
814.988	0.0141901
815.067	0.0143719
815.145	0.0143637
815.223	0.0144560
815.301	0.0143913
815.379	0.0144666
815.457	0.0145491
815.535	0.0143742
815.613	0.0144732
815.692	0.0144342
815.770	0.0144076
815.848	0.0143924
815.926	0.0142741
816.004	0.0143648
816.082	0.0143646
816.160	0.0144353
816.238	0.0144118
816.317	0.0145163
816.395	0.0143478
816.473	0.0143687
816.551	0.0143568
816.629	0.0143611
816.707	0.0143394
816.785	0.0143574
816.863	0.0142741
816.942	0.0143427
817.020	0.0144116
817.098	0.0142300
817.176	0.0142178
817.254	0.0144131
817.332	0.0142390
817.410	0.0142668
817.488	0.0143131
817.567	0.0141809
817.645	0.0142171
817.723	0.0143913
817.801	0.0144041
817.879	0.0143078
817.957	0.0142996
818.035	0.0143761
818.113	0.0143547
818.192	0.0145044
818.270	0.0145000
818.348	0.0143794
818.426	0.0144881
818.504	0.0142809
818.582	0.0144798
818.660	0.0143764
818.738	0.0145010
818.817	0.0145852
818.895	0.0143930
818.973	0.0144723
819.051	0.0145213
819.129	0.0145342
819.207	0.0144787
819.285	0.0144255
819.363	0.0145478
819.442	0.0146652
819.520	0.0145072
819.598	0.0146070
819.676	0.0145223
819.754	0.0143606
819.832	0.0146483
819.910	0.0145596
819.988	0.0144349
820.067	0.0145114
820.145	0.0145486
820.223	0.0145104
820.301	0.0143240
820.379	0.0143969
820.457	0.0143266
820.535	0.0143330
820.613	0.0144705
820.692	0.0143423
820.770	0.0142245
820.848	0.0143097
820.926	0.0142985
821.004	0.0144311
821.082	0.0142400
821.160	0.0141998
821.238	0.0142223
821.317	0.0142732
821.395	0.0142080
821.473	0.0141670
821.551	0.0141733
821.629	0.0141023
821.707	0.0142532
821.785	0.0141647
821.863	0.0142717
821.942	0.0141739
822.020	0.0141750
822.098	0.0141699
822.176	0.0141338
822.254	0.0141829
822.332	0.0141831
822.410	0.0143626
822.488	0.0141973
822.567	0.0142310
822.645	0.0141515
822.723	0.0140792
822.801	0.0142020
822.879	0.0141652
822.957	0.0141276
823.035	0.0141860
823.113	0.0143237
823.192	0.0142422
823.270	0.0142631
823.348	0.0141550
823.426	0.0142001
823.504	0.0142928
823.582	0.0144273
823.660	0.0145219
823.738	0.0142503
823.817	0.0144041
823.895	0.0143485
823.973	0.0143329
824.051	0.0142516
824.129	0.0143658
824.207	0.0145217
824.285	0.0144820
824.363	0.0144504
824.442	0.0144592
824.520	0.0143989
824.598	0.0143222
824.676	0.0144094
824.754	0.0144547
824.832	0.0144704
824.910	0.0145212
824.988	0.0145538
825.067	0.0145411
825.145	0.0145006
825.223	0.0145614
825.301	0.0145258
825.379	0.0144882
825.457	0.0144215
825.535	0.0144541
825.613	0.0145124
825.692	0.0145679
825.770	0.0144047
825.848	0.0143454
825.926	0.0144402
826.004	0.0146320
826.082	0.0143717
826.160	0.0144060
826.238	0.0144759
826.317	0.0146323
826.395	0.0146510
826.473	0.0144729
826.551	0.0146518
826.629	0.0144566
826.707	0.0145702
826.785	0.0145380
826.863	0.0145686
826.942	0.0145946
827.020	0.0145853
827.098	0.0145128
827.176	0.0145477
827.254	0.0145463
827.332	0.0144738
827.410	0.0145858
827.488	0.0144595
827.567	0.0144354
827.645	0.0145821
827.723	0.0143423
827.801	0.0144624
827.879	0.0144756
827.957	0.0144895
828.035	0.0143422
828.113	0.0144990
828.192	0.0144904
828.270	0.0144294
828.348	0.0144134
828.426	0.0143691
828.504	0.0145434
828.582	0.0145191
828.660	0.0144203
828.738	0.0144098
828.817	0.0145525
828.895	0.0145954
828.973	0.0144676
829.051	0.0144191
829.129	0.0143742
829.207	0.0143095
829.285	0.0143935
829.363	0.0144582
829.442	0.0144813
829.520	0.0143106
829.598	0.0144500
829.676	0.0144897
829.754	0.0145000
829.832	0.0143387
829.910	0.0144978
829.988	0.0144905
830.067	0.0145724
830.145	0.0144181
830.223	0.0143130
830.301	0.0144919
830.379	0.0144843
830.457	0.0145242
830.535	0.0143490
830.613	0.0143623
830.692	0.0144016
830.770	0.0143563
830.848	0.0143745
830.926	0.0145348
831.004	0.0146175
831.082	0.0146147
831.160	0.0145956
831.238	0.0144698
831.317	0.0145303
831.395	0.0144831
831.473	0.0144057
831.551	0.0145177
831.629	0.0146041
831.707	0.0145669
831.785	0.0144628
831.863	0.0145789
831.942	0.0144587
832.020	0.0145483
832.098	0.0144933
832.176	0.0143605
832.254	0.0143711
832.332	0.0145557
832.410	0.0143653
832.488	0.0143429
832.567	0.0144464
832.645	0.0145022
832.723	0.0144815
832.801	0.0143677
832.879	0.0144629
832.957	0.0144653
833.035	0.0144321
833.113	0.0144486
833.192	0.0144865
833.270	0.0143417
833.348	0.0143944
833.426	0.0144413
833.504	0.0143264
833.582	0.0144791
833.660	0.0142332
833.738	0.0141525
833.817	0.0143488
833.895	0.0143073
833.973	0.0144123
834.051	0.0143327
834.129	0.0143520
834.207	0.0143431
834.285	0.0142894
834.363	0.0143430
834.442	0.0143610
834.520	0.0142733
834.598	0.0143201
834.676	0.0142908
834.754	0.0144457
834.832	0.0143626
834.910	0.0143404
834.988	0.0142810
835.067	0.0144286
835.145	0.0143478
835.223	0.0143857
835.301	0.0144874
835.379	0.0144055
835.457	0.0144444
835.535	0.0143688
835.613	0.0144030
835.692	0.0145404
835.770	0.0144954
835.848	0.0145891
835.926	0.0145607
836.004	0.0146317
836.082	0.0146938
836.160	0.0147371
836.238	0.0146158
836.317	0.0147411
836.395	0.0146236
836.473	0.0147189
836.551	0.0147362
836.629	0.0147727
836.707	0.0147039
836.785	0.0146910
836.863	0.0149144
836.942	0.0146927
837.020	0.0147688
837.098	0.0147470
837.176	0.0149316
837.254	0.0149174
837.332	0.0148005
837.410	0.0146472
837.488	0.0147958
837.567	0.0149679
837.645	0.0148691
837.723	0.0149039
837.801	0.0147095
837.879	0.0146716
837.957	0.0148455
838.035	0.0148464
838.113	0.0146730
838.192	0.0147417
838.270	0.0147408
838.348	0.0145618
838.426	0.0146646
838.504	0.0146784
838.582	0.0147289
838.660	0.0146225
838.738	0.0147331
838.817	0.0145095
838.895	0.0146369
838.973	0.0143949
839.051	0.0144534
839.129	0.0145744
839.207	0.0143619
839.285	0.0144551
839.363	0.0144931
839.442	0.0144884
839.520	0.0144834
839.598	0.0143523
839.676	0.0143762
839.754	0.0143254
839.832	0.0143091
839.910	0.0143604
839.988	0.0143585
840.067	0.0142319
840.145	0.0144527
840.223	0.0143024
840.301	0.0143399
840.379	0.0143484
840.457	0.0142422
840.535	0.0144106
840.613	0.0142336
840.692	0.0143711
840.770	0.0143507
840.848	0.0143399
840.926	0.0143317
841.004	0.0142733
841.082	0.0143371
841.160	0.0142847
841.238	0.0142136
841.317	0.0142235
841.395	0.0144717
841.473	0.0143031
841.551	0.0142944
841.629	0.0142360
841.707	0.0143453
841.785	0.0140981
841.863	0.0141422
841.942	0.0141712
842.020	0.0142647
842.098	0.0141905
842.176	0.0141230
842.254	0.0141143
842.332	0.0140910
842.410	0.0141826
842.488	0.0141955
842.567	0.0141246
842.645	0.0141710
842.723	0.0139890
842.801	0.0140157
842.879	0.0140345
842.957	0.0139777
843.035	0.0139608
843.113	0.0140630
843.192	0.0141019
843.270	0.0140279
843.348	0.0141054
843.426	0.0141233
843.504	0.0140492
843.582	0.0141179
843.660	0.0141168
843.738	0.0141320
843.817	0.0140905
843.895	0.0142247
843.973	0.0142292
844.051	0.0142341
844.129	0.0143967
844.207	0.0142492
844.285	0.0142889
844.363	0.0142898
844.442	0.0141896
844.520	0.0144421
844.598	0.0143600
844.676	0.0144816
844.754	0.0145054
844.832	0.0145000
844.910	0.0144218
844.988	0.0144760
845.067	0.0144688
845.145	0.0143252
845.223	0.0145005
845.301	0.0144948
845.379	0.0145317
845.457	0.0147556
845.535	0.0147071
845.613	0.0146861
845.692	0.0146581
845.770	0.0147742
845.848	0.0146528
845.926	0.0146019
846.004	0.0146254
846.082	0.0146321
846.160	0.0146741
846.238	0.0146841
846.317	0.0145662
846.395	0.0146254
846.473	0.0147484
846.551	0.0147595
846.629	0.0146735
846.707	0.0144750
846.785	0.0146495
846.863	0.0147458
846.942	0.0146259
847.020	0.0146366
847.098	0.0148164
847.176	0.0148035
847.254	0.0146098
847.332	0.0146863
847.410	0.0147845
847.488	0.0148345
847.567	0.0147976
847.645	0.0148928
847.723	0.0148458
847.801	0.0148042
847.879	0.0149345
847.957	0.0148920
848.035	0.0149833
848.113	0.0149866
848.192	0.0148563
848.270	0.0148684
848.348	0.0148356
848.426	0.0147823
848.504	0.0148588
848.582	0.0149542
848.660	0.0147344
848.738	0.0147603
848.817	0.0147348
848.895	0.0147360
848.973	0.0147808
849.051	0.0146078
849.129	0.0146892
849.207	0.0147299
849.285	0.0147876
849.363	0.0147746
849.442	0.0146738
849.520	0.0147297
849.598	0.0147108
849.676	0.0147079
849.754	0.0147823
849.832	0.0145113
849.910	0.0146780
849.988	0.0146123
850.067	0.0146688
850.145	0.0147677
850.223	0.0146362
850.301	0.0146562
850.379	0.0146325
850.457	0.0145130
850.535	0.0145163
850.613	0.0145368
850.692	0.0144709
850.770	0.0143783
850.848	0.0145085
850.926	0.0144683
851.004	0.0144530
851.082	0.0143880
851.160	0.0142851
851.238	0.0143526
851.317	0.0143925
851.395	0.0142860
851.473	0.0141792
851.551	0.0142673
851.629	0.0142844
851.707	0.0141298
851.785	0.0142004
851.863	0.0141312
851.942	0.0141393
852.020	0.0140990
852.098	0.0140919
852.176	0.0141367
852.254	0.0140525
852.332	0.0140700
852.410	0.0140511
852.488	0.0142596
852.567	0.0141228
852.645	0.0142466
852.723	0.0143256
852.801	0.0141028
852.879	0.0141797
852.957	0.0143013
853.035	0.0143819
853.113	0.0144050
853.192	0.0142405
853.270	0.0141861
853.348	0.0143002
853.426	0.0143005
853.504	0.0141584
853.582	0.0144225
853.660	0.0142947
853.738	0.0144722
853.817	0.0144054
853.895	0.0144078
853.973	0.0143918
854.051	0.0143245
854.129	0.0143995
854.207	0.0144878
854.285	0.0144694
854.363	0.0144116
854.442	0.0143680
854.520	0.0143810
854.598	0.0144613
854.676	0.0146274
854.754	0.0144737
854.832	0.0145154
854.910	0.0144890
854.988	0.0144649
855.067	0.0144064
855.145	0.0145002
855.223	0.0144738
855.301	0.0144077
855.379	0.0144520
855.457	0.0144629
855.535	0.0143758
855.613	0.0144271
855.692	0.0144377
855.770	0.0144341
855.848	0.0143888
855.926	0.0144679
856.004	0.0145273
856.082	0.0145563
856.160	0.0145419
856.238	0.0144751
856.317	0.0144225
856.395	0.0142307
856.473	0.0144637
856.551	0.0145722
856.629	0.0144876
856.707	0.0145054
856.785	0.0144270
856.863	0.0143885
856.942	0.0145906
857.020	0.0145860
857.098	0.0145210
857.176	0.0144021
857.254	0.0144055
857.332	0.0145631
857.410	0.0145351
857.488	0.0144516
857.567	0.0144553
857.645	0.0144853
857.723	0.0146127
857.801	0.0145949
857.879	0.0147600
857.957	0.0146218
858.035	0.0145442
858.113	0.0145963
858.192	0.0145839
858.270	0.0144981
858.348	0.0146852
858.426	0.0146696
858.504	0.0145338
858.582	0.0146413
858.660	0.0146373
858.738	0.0146875
858.817	0.0146661
858.895	0.0147535
858.973	0.0144773
859.051	0.0146631
859.129	0.0145810
859.207	0.0144478
859.285	0.0145931
859.363	0.0146139
859.442	0.0145428
859.520	0.0145554
859.598	0.0145099
859.676	0.0145078
859.754	0.0144508
859.832	0.0145625
859.910	0.0144093
859.988	0.0144181
860.067	0.0144461
860.145	0.0144318
860.223	0.0145029
860.301	0.0145524
860.379	0.0144815
860.457	0.0144879
860.535	0.0144756
860.613	0.0143988
860.692	0.0144884
860.770	0.0144039
860.848	0.0143892
860.926	0.0143748
861.004	0.0144376
861.082	0.0144312
861.160	0.0143864
861.238	0.0143827
861.317	0.0144105
861.395	0.0144758
861.473	0.0146236
861.551	0.0144366
861.629	0.0145524
861.707	0.0143703
861.785	0.0144667
861.863	0.0143474
861.942	0.0144100
862.020	0.0144860
862.098	0.0143806
862.176	0.0144728
862.254	0.0145054
862.332	0.0144881
862.410	0.0143159
862.488	0.0144400
862.567	0.0144689
862.645	0.0144714
862.723	0.0143379
862.801	0.0143750
862.879	0.0143728
862.957	0.0144417
863.035	0.0144634
863.113	0.0144204
863.192	0.0144560
863.270	0.0145377
863.348	0.0143362
863.426	0.0145050
863.504	0.0144007
863.582	0.0145272
863.660	0.0144079
863.738	0.0146159
863.817	0.0146062
863.895	0.0144046
863.973	0.0145027
864.051	0.0146365
864.129	0.0146278
864.207	0.0145983
864.285	0.0146129
864.363	0.0146342
864.442	0.0144913
864.520	0.0145644
864.598	0.0145260
864.676	0.0145512
864.754	0.0145353
864.832	0.0145968
864.910	0.0145293
864.988	0.0144918
865.067	0.0145406
865.145	0.0144324
865.223	0.0145896
865.301	0.0144614
865.379	0.0144201
865.457	0.0144978
865.535	0.0143853
865.613	0.0142741
865.692	0.0145303
865.770	0.0145071
865.848	0.0143374
865.926	0.0143031
866.004	0.0143889
866.082	0.0143845
866.160	0.0144691
866.238	0.0143435
866.317	0.0142815
866.395	0.0144965
866.473	0.0144183
866.551	0.0145046
866.629	0.0144678
866.707	0.0145963
866.785	0.0144377
866.863	0.0146236
866.942	0.0145705
867.020	0.0145873
867.098	0.0145810
867.176	0.0145846
867.254	0.0145210
867.332	0.0146291
867.410	0.0145518
867.488	0.0145017
867.567	0.0144951
867.645	0.0147151
867.723	0.0146342
867.801	0.0146176
867.879	0.0145364
867.957	0.0146367
868.035	0.0146111
868.113	0.0146175
868.192	0.0146302
868.270	0.0146203
868.348	0.0144618
868.426	0.0145148
868.504	0.0147079
868.582	0.0145304
868.660	0.0146105
868.738	0.0145431
868.817	0.0146043
868.895	0.0145119
868.973	0.0145908
869.051	0.0147018
869.129	0.0146550
869.207	0.0145867
869.285	0.0145565
869.363	0.0146536
869.442	0.0145582
869.520	0.0145572
869.598	0.0146156
869.676	0.0145199
869.754	0.0145527
869.832	0.0145236
869.910	0.0146893
869.988	0.0144788
870.067	0.0145345
870.145	0.0144714
870.223	0.0145846
870.301	0.0145161
870.379	0.0146416
870.457	0.0144643
870.535	0.0145265
870.613	0.0145664
870.692	0.0144452
870.770	0.0145483
870.848	0.0146027
870.926	0.0145776
871.004	0.0145329
871.082	0.0144190
871.160	0.0143910
871.238	0.0144725
871.317	0.0145776
871.395	0.0145509
871.473	0.0144131
871.551	0.0144962
871.629	0.0145039
871.707	0.0145020
871.785	0.0143811
871.863	0.0143848
871.942	0.0142524
872.020	0.0144427
872.098	0.0143690
872.176	0.0143208
872.254	0.0143461
872.332	0.0144945
872.410	0.0144953
872.488	0.0144279
872.567	0.0144987
872.645	0.0145264
872.723	0.0145359
872.801	0.0145371
872.879	0.0144721
872.957	0.0144750
873.035	0.0143887
873.113	0.0144577
873.192	0.0143540
873.270	0.0144309
873.348	0.0145159
873.426	0.0144466
873.504	0.0143359
873.582	0.0142913
873.660	0.0143716
873.738	0.0144753
873.817	0.0143396
873.895	0.0143360
873.973	0.0143694
874.051	0.0142615
874.129	0.0143513
874.207	0.0142950
874.285	0.0142682
874.363	0.0144386
874.442	0.0143046
874.520	0.0142805
874.598	0.0143617
874.676	0.0144753
874.754	0.0143302
874.832	0.0143286
874.910	0.0143767
874.988	0.0144418
875.067	0.0145473
875.145	0.0144062
875.223	0.0144184
875.301	0.0145729
875.379	0.0143782
875.457	0.0146341
875.535	0.0145070
875.613	0.0145715
875.692	0.0146937
875.770	0.0144125
875.848	0.0145424
875.926	0.0146661
876.004	0.0145748
876.082	0.0146004
876.160	0.0144395
876.238	0.0145923
876.317	0.0146832
876.395	0.0145041
876.473	0.0145635
876.551	0.0146894
876.629	0.0145689
876.707	0.0144553
876.785	0.0146400
876.863	0.0145879
876.942	0.0145099
877.020	0.0144101
877.098	0.0145753
877.176	0.0145956
877.254	0.0145670
877.332	0.0144561
877.410	0.0146043
877.488	0.0145358
877.567	0.0145256
877.645	0.0146426
877.723	0.0145768
877.801	0.0145957
877.879	0.0146915
877.957	0.0146131
878.035	0.0147469
878.113	0.0146896
878.192	0.0148277
878.270	0.0147693
878.348	0.0148829
878.426	0.0147403
878.504	0.0148947
878.582	0.0149689
878.660	0.0149276
878.738	0.0148927
878.817	0.0149379
878.895	0.0150479
878.973	0.0148899
879.051	0.0148678
879.129	0.0148902
879.207	0.0149803
879.285	0.0148998
879.363	0.0149097
879.442	0.0147649
879.520	0.0147562
879.598	0.0149001
879.676	0.0147298
879.754	0.0147321
879.832	0.0147524
879.910	0.0147196
879.988	0.0146725
880.067	0.0147932
880.145	0.0146781
880.223	0.0145919
880.301	0.0146922
880.379	0.0147662
880.457	0.0146922
880.535	0.0146631
880.613	0.0145659
880.692	0.0146470
880.770	0.0146340
880.848	0.0145480
880.926	0.0144704
881.004	0.0145409
881.082	0.0144579
881.160	0.0144826
881.238	0.0144452
881.317	0.0143391
881.395	0.0143803
881.473	0.0144334
881.551	0.0142892
881.629	0.0141523
881.707	0.0142751
881.785	0.0143689
881.863	0.0143580
881.942	0.0143859
882.020	0.0143957
882.098	0.0143102
882.176	0.0145044
882.254	0.0141964
882.332	0.0142226
882.410	0.0142572
882.488	0.0142480
882.567	0.0143615
882.645	0.0143007
882.723	0.0142831
882.801	0.0141938
882.879	0.0142619
882.957	0.0143633
883.035	0.0142000
883.113	0.0142522
883.192	0.0142900
883.270	0.0141883
883.348	0.0143421
883.426	0.0142388
883.504	0.0141220
883.582	0.0142859
883.660	0.0142283
883.738	0.0142583
883.817	0.0141781
883.895	0.0143876
883.973	0.0143969
884.051	0.0142056
884.129	0.0143471
884.207	0.0144991
884.285	0.0142959
884.363	0.0143107
884.442	0.0143185
884.520	0.0143973
884.598	0.0144965
884.676	0.0144734
884.754	0.0145112
884.832	0.0143779
884.910	0.0144321
884.988	0.0142902
885.067	0.0144347
885.145	0.0145002
885.223	0.0143443
885.301	0.0141474
885.379	0.0142198
885.457	0.0142015
885.535	0.0142923
885.613	0.0142874
885.692	0.0141958
885.770	0.0142737
885.848	0.0140776
885.926	0.0142559
886.004	0.0141832
886.082	0.0141697
886.160	0.0140741
886.238	0.0141331
886.317	0.0142307
886.395	0.0142130
886.473	0.0141299
886.551	0.0141969
886.629	0.0141172
886.707	0.0140891
886.785	0.0140772
886.863	0.0141135
886.942	0.0141955
887.020	0.0142796
887.098	0.0143261
887.176	0.0143463
887.254	0.0143367
887.332	0.0142293
887.410	0.0142694
887.488	0.0142030
887.567	0.0140551
887.645	0.0141643
887.723	0.0141866
887.801	0.0142600
887.879	0.0142007
887.957	0.0141652
888.035	0.0142833
888.113	0.0143254
888.192	0.0143614
888.270	0.0143626
888.348	0.0143420
888.426	0.0142091
888.504	0.0143784
888.582	0.0143748
888.660	0.0143138
888.738	0.0143273
888.817	0.0143076
888.895	0.0142254
888.973	0.0142504
889.051	0.0142316
889.129	0.0144245
889.207	0.0143559
889.285	0.0143868
889.363	0.0143166
889.442	0.0144331
889.520	0.0145007
889.598	0.0142902
889.676	0.0144624
889.754	0.0145335
889.832	0.0144975
889.910	0.0144536
889.988	0.0146113
890.067	0.0145579
890.145	0.0147004
890.223	0.0145288
890.301	0.0144422
890.379	0.0146169
890.457	0.0145509
890.535	0.0147821
890.613	0.0145872
890.692	0.0146593
890.770	0.0146609
890.848	0.0147783
890.926	0.0146091
891.004	0.0147073
891.082	0.0147191
891.160	0.0147253
891.238	0.0147642
891.317	0.0146276
891.395	0.0146502
891.473	0.0146391
891.551	0.0146108
891.629	0.0146643
891.707	0.0146574
891.785	0.0147344
891.863	0.0146162
891.942	0.0146463
892.020	0.0145178
892.098	0.0146542
892.176	0.0145793
892.254	0.0146385
892.332	0.0147025
892.410	0.0146986
892.488	0.0144454
892.567	0.0145611
892.645	0.0146013
892.723	0.0144682
892.801	0.0146471
892.879	0.0144128
892.957	0.0143474
893.035	0.0145354
893.113	0.0143997
893.192	0.0144904
893.270	0.0142113
893.348	0.0144759
893.426	0.0142995
893.504	0.0142355
893.582	0.0143322
893.660	0.0142071
893.738	0.0141778
893.817	0.0143388
893.895	0.0143100
893.973	0.0144194
894.051	0.0142726
894.129	0.0143003
894.207	0.0142211
894.285	0.0142532
894.363	0.0143225
894.442	0.0142224
894.520	0.0141595
894.598	0.0142045
894.676	0.0142004
894.754	0.0140862
894.832	0.0141321
894.910	0.0142107
894.988	0.0140419
895.067	0.0140389
895.145	0.0140224
895.223	0.0141881
895.301	0.0142142
895.379	0.0142147
895.457	0.0142033
895.535	0.0141643
895.613	0.0141241
895.692	0.0142796
895.770	0.0144510
895.848	0.0142749
895.926	0.0142889
896.004	0.0143784
896.082	0.0143015
896.160	0.0143745
896.238	0.0143120
896.317	0.0142888
896.395	0.0144355
896.473	0.0143377
896.551	0.0142948
896.629	0.0143715
896.707	0.0144431
896.785	0.0144240
896.863	0.0143442
896.942	0.0142709
897.020	0.0142621
897.098	0.0142382
897.176	0.0141560
897.254	0.0142434
897.332	0.0142159
897.410	0.0141811
897.488	0.0140865
897.567	0.0141614
897.645	0.0141266
897.723	0.0142337
897.801	0.0143475
897.879	0.0141810
897.957	0.0141915
898.035	0.0142341
898.113	0.0143679
898.192	0.0142953
898.270	0.0142223
898.348	0.0141564
898.426	0.0141418
898.504	0.0142358
898.582	0.0141818
898.660	0.0142280
898.738	0.0143282
898.817	0.0143305
898.895	0.0143001
898.973	0.0142009
899.051	0.0143298
899.129	0.0142516
899.207	0.0143493
899.285	0.0144120
899.363	0.0141863
899.442	0.0142719
899.520	0.0142918
899.598	0.0144803
899.676	0.0144759
899.754	0.0144391
899.832	0.0145837
899.910	0.0143686
899.988	0.0145338
900.067	0.0145876
900.145	0.0144382
900.223	0.0146444
900.301	0.0146002
900.379	0.0146098
900.457	0.0145537
900.535	0.0146335
900.613	0.0147713
900.692	0.0147092
900.770	0.0147946
900.848	0.0147430
900.926	0.0149529
901.004	0.0148595
901.082	0.0148643
901.160	0.0148816
901.238	0.0148706
901.317	0.0149403
901.395	0.0148869
901.473	0.0147752
901.551	0.0147889
901.629	0.0148720
901.707	0.0149185
901.785	0.0147314
901.863	0.0149125
901.942	0.0148981
902.020	0.0149109
902.098	0.0146782
902.176	0.0147678
902.254	0.0149193
902.332	0.0147707
902.410	0.0148589
902.488	0.0146846
902.567	0.0147292
902.645	0.0148194
902.723	0.0147046
902.801	0.0148280
902.879	0.0147044
902.957	0.0147974
903.035	0.0146259
903.113	0.0147276
903.192	0.0146920
903.270	0.0147227
903.348	0.0146902
903.426	0.0147372
903.504	0.0146509
903.582	0.0146460
903.660	0.0145173
903.738	0.0145857
903.817	0.0145597
903.895	0.0147227
903.973	0.0145984
904.051	0.0145813
904.129	0.0145788
904.207	0.0146833
904.285	0.0145138
904.363	0.0145770
904.442	0.0146791
904.520	0.0145538
904.598	0.0145203
904.676	0.0145625
904.754	0.0146435
904.832	0.0147254
904.910	0.0146105
904.988	0.0143915
905.067	0.0143118
905.145	0.0145023
905.223	0.0145461
905.301	0.0145182
905.379	0.0144257
905.457	0.0143785
905.535	0.0143014
905.613	0.0144585
905.692	0.0144228
905.770	0.0143997
905.848	0.0143769
905.926	0.0143691
906.004	0.0144622
906.082	0.0143758
906.160	0.0144055
906.238	0.0143631
906.317	0.0143263
906.395	0.0142717
906.473	0.0143840
906.551	0.0143558
906.629	0.0141851
906.707	0.0141293
906.785	0.0142776
906.863	0.0142799
906.942	0.0141047
907.020	0.0141582
907.098	0.0140857
907.176	0.0142448
907.254	0.0141617
907.332	0.0142265
907.410	0.0141175
907.488	0.0141613
907.567	0.0142576
907.645	0.0141226
907.723	0.0142113
907.801	0.0141759
907.879	0.0142133
907.957	0.0143063
908.035	0.0142056
908.113	0.0143543
908.192	0.0142065
908.270	0.0142090
908.348	0.0141888
908.426	0.0143048
908.504	0.0142356
908.582	0.0142639
908.660	0.0142405
908.738	0.0141937
908.817	0.0141529
908.895	0.0142411
908.973	0.0143176
909.051	0.0142792
909.129	0.0140865
909.207	0.0143032
909.285	0.0143311
909.363	0.0142350
909.442	0.0142410
909.520	0.0143142
909.598	0.0142628
909.676	0.0143111
909.754	0.0142474
909.832	0.0141459
909.910	0.0143073
909.988	0.0144212
910.067	0.0143862
910.145	0.0143064
910.223	0.0142908
910.301	0.0143446
910.379	0.0143090
910.457	0.0143516
910.535	0.0144782
910.613	0.0144843
910.692	0.0142697
910.770	0.0144312
910.848	0.0143661
910.926	0.0145637
911.004	0.0144044
911.082	0.0144034
911.160	0.0144331
911.238	0.0144540
911.317	0.0146916
911.395	0.0145871
911.473	0.0146630
911.551	0.0146803
911.629	0.0146799
911.707	0.0145537
911.785	0.0145841
911.863	0.0146891
911.942	0.0145453
912.020	0.0145552
912.098	0.0145412
912.176	0.0146597
912.254	0.0146108
912.332	0.0144978
912.410	0.0144962
912.488	0.0145988
912.567	0.0146278
912.645	0.0146027
912.723	0.0146335
912.801	0.0146719
912.879	0.0145458
912.957	0.0146058
913.035	0.0145596
913.113	0.0145880
913.192	0.0146649
913.270	0.0145505
913.348	0.0144867
913.426	0.0145395
913.504	0.0143758
913.582	0.0144083
913.660	0.0144618
913.738	0.0142538
913.817	0.0143645
913.895	0.0141546
913.973	0.0143306
914.051	0.0141702
914.129	0.0141839
914.207	0.0142252
914.285	0.0142679
914.363	0.0141971
914.442	0.0142842
914.520	0.0142081
914.598	0.0143315
914.676	0.0141426
914.754	0.0140253
914.832	0.0141663
914.910	0.0141022
914.988	0.0140052
915.067	0.0140426
915.145	0.0140602
915.223	0.0140300
915.301	0.0141149
915.379	0.0140685
915.457	0.0141003
915.535	0.0139695
915.613	0.0140456
915.692	0.0140730
915.770	0.0141557
915.848	0.0141180
915.926	0.0141896
916.004	0.0142205
916.082	0.0143447
916.160	0.0142359
916.238	0.0142396
916.317	0.0143440
916.395	0.0143623
916.473	0.0141638
916.551	0.0141830
916.629	0.0143047
916.707	0.0142224
916.785	0.0142345
916.863	0.0142326
916.942	0.0141317
917.020	0.0140439
917.098	0.0141213
917.176	0.0140736
917.254	0.0140527
917.332	0.0139885
917.410	0.0140053
917.488	0.0140380
917.567	0.0139134
917.645	0.0138709
917.723	0.0138921
917.801	0.0138271
917.879	0.0140163
917.957	0.0139529
918.035	0.0140151
918.113	0.0140470
918.192	0.0140335
918.270	0.0140588
918.348	0.0139540
918.426	0.0139889
918.504	0.0142042
918.582	0.0142548
918.660	0.0140112
918.738	0.0141038
918.817	0.0141731
918.895	0.0142075
918.973	0.0141571
919.051	0.0142558
919.129	0.0143089
919.207	0.0143597
919.285	0.0143016
919.363	0.0144285
919.442	0.0143996
919.520	0.0143105
919.598	0.0143636
919.676	0.0142982
919.754	0.0144352
919.832	0.0145118
919.910	0.0144334
