05/28/2022	14:05:21	Ver.	4.1	UNKNOWN
Optical Delay	599.988409	Delta X		0.078125	Sweeps	1	Scan Rate	0/0
Coordinates	Axis 1	NaN	Axis 2	NaN	Axis 3	NaN	Axis 4	NaN	Axis 5	NaN	Axis 6	0.000000
TX Power	0.000000	RX Power	0.000000

599.988	0.0148809
600.067	0.0148030
600.145	0.0149747
600.223	0.0149656
600.301	0.0148358
600.379	0.0148924
600.457	0.0149992
600.535	0.0148255
600.613	0.0148131
600.692	0.0148523
600.770	0.0149002
600.848	0.0149314
600.926	0.0148477
601.004	0.0148605
601.082	0.0148755
601.160	0.0149564
601.238	0.0148186
601.317	0.0149040
601.395	0.0149232
601.473	0.0148541
601.551	0.0148050
601.629	0.0148956
601.707	0.0150521
601.785	0.0149587
601.863	0.0149011
601.942	0.0147990
602.020	0.0148283
602.098	0.0148878
602.176	0.0148675
602.254	0.0148796
602.332	0.0149111
602.410	0.0147994
602.488	0.0148861
602.567	0.0149702
602.645	0.0147453
602.723	0.0148563
602.801	0.0148679
602.879	0.0147468
602.957	0.0150024
603.035	0.0149680
603.113	0.0148595
603.192	0.0149276
603.270	0.0149600
603.348	0.0148299
603.426	0.0148309
603.504	0.0148998
603.582	0.0149887
603.660	0.0148938
603.738	0.0148827
603.817	0.0148074
603.895	0.0148470
603.973	0.0149029
604.051	0.0149098
604.129	0.0148463
604.207	0.0147231
604.285	0.0149139
604.363	0.0147598
604.442	0.0149657
604.520	0.0149584
604.598	0.0149898
604.676	0.0148373
604.754	0.0148358
604.832	0.0147662
604.910	0.0148823
604.988	0.0149357
605.067	0.0147584
605.145	0.0147767
605.223	0.0148352
605.301	0.0149705
605.379	0.0147398
605.457	0.0148047
605.535	0.0149429
605.613	0.0148737
605.692	0.0147062
605.770	0.0147594
605.848	0.0149441
605.926	0.0149013
606.004	0.0149361
606.082	0.0149983
606.160	0.0149534
606.238	0.0148392
606.317	0.0148183
606.395	0.0148017
606.473	0.0149062
606.551	0.0149115
606.629	0.0148302
606.707	0.0148976
606.785	0.0147891
606.863	0.0149042
606.942	0.0148266
607.020	0.0148827
607.098	0.0149255
607.176	0.0148786
607.254	0.0149332
607.332	0.0148753
607.410	0.0148137
607.488	0.0148730
607.567	0.0150130
607.645	0.0149137
607.723	0.0148666
607.801	0.0149101
607.879	0.0149212
607.957	0.0147683
608.035	0.0148193
608.113	0.0148367
608.192	0.0149689
608.270	0.0150008
608.348	0.0148468
608.426	0.0148940
608.504	0.0149205
608.582	0.0148384
608.660	0.0150313
608.738	0.0149802
608.817	0.0148777
608.895	0.0148199
608.973	0.0150018
609.051	0.0149225
609.129	0.0149887
609.207	0.0148184
609.285	0.0148704
609.363	0.0149609
609.442	0.0147665
609.520	0.0149821
609.598	0.0150276
609.676	0.0149973
609.754	0.0149776
609.832	0.0148746
609.910	0.0148319
609.988	0.0148592
610.067	0.0148152
610.145	0.0149171
610.223	0.0148585
610.301	0.0148220
610.379	0.0148767
610.457	0.0147879
610.535	0.0148430
610.613	0.0148415
610.692	0.0148534
610.770	0.0149036
610.848	0.0148524
610.926	0.0148050
611.004	0.0148029
611.082	0.0147890
611.160	0.0149915
611.238	0.0149895
611.317	0.0147324
611.395	0.0148625
611.473	0.0149767
611.551	0.0149284
611.629	0.0148254
611.707	0.0148543
611.785	0.0148923
611.863	0.0151180
611.942	0.0149032
612.020	0.0148200
612.098	0.0149010
612.176	0.0148760
612.254	0.0148816
612.332	0.0149219
612.410	0.0150187
612.488	0.0148819
612.567	0.0149052
612.645	0.0149030
612.723	0.0149217
612.801	0.0149102
612.879	0.0149575
612.957	0.0148428
613.035	0.0148869
613.113	0.0147944
613.192	0.0148607
613.270	0.0148861
613.348	0.0149382
613.426	0.0149336
613.504	0.0148853
613.582	0.0151026
613.660	0.0150393
613.738	0.0148635
613.817	0.0148663
613.895	0.0149342
613.973	0.0148885
614.051	0.0148807
614.129	0.0148970
614.207	0.0148892
614.285	0.0148864
614.363	0.0148579
614.442	0.0149828
614.520	0.0148714
614.598	0.0148429
614.676	0.0148306
614.754	0.0148689
614.832	0.0148744
614.910	0.0150297
614.988	0.0149544
615.067	0.0149863
615.145	0.0149743
615.223	0.0149152
615.301	0.0147492
615.379	0.0148460
615.457	0.0149691
615.535	0.0148193
615.613	0.0148766
615.692	0.0148336
615.770	0.0149379
615.848	0.0148302
615.926	0.0148884
616.004	0.0148674
616.082	0.0149228
616.160	0.0148981
616.238	0.0147621
616.317	0.0148182
616.395	0.0149628
616.473	0.0148882
616.551	0.0147935
616.629	0.0149893
616.707	0.0150143
616.785	0.0149859
616.863	0.0148296
616.942	0.0148672
617.020	0.0148246
617.098	0.0148330
617.176	0.0148348
617.254	0.0148574
617.332	0.0147980
617.410	0.0148501
617.488	0.0148895
617.567	0.0149128
617.645	0.0149338
617.723	0.0148735
617.801	0.0149427
617.879	0.0149335
617.957	0.0146981
618.035	0.0149028
618.113	0.0149877
618.192	0.0149358
618.270	0.0148766
618.348	0.0148656
618.426	0.0148579
618.504	0.0149593
618.582	0.0149291
618.660	0.0148855
618.738	0.0149057
618.817	0.0150136
618.895	0.0149931
618.973	0.0148503
619.051	0.0148704
619.129	0.0149295
619.207	0.0148933
619.285	0.0148144
619.363	0.0148928
619.442	0.0147884
619.520	0.0148992
619.598	0.0149625
619.676	0.0150246
619.754	0.0149670
619.832	0.0150314
619.910	0.0149232
619.988	0.0149310
620.067	0.0150640
620.145	0.0149281
620.223	0.0149354
620.301	0.0149662
620.379	0.0149600
620.457	0.0149460
620.535	0.0148506
620.613	0.0148811
620.692	0.0148089
620.770	0.0148843
620.848	0.0149355
620.926	0.0149253
621.004	0.0148480
621.082	0.0149158
621.160	0.0149837
621.238	0.0149420
621.317	0.0148062
621.395	0.0148022
621.473	0.0148346
621.551	0.0147786
621.629	0.0148129
621.707	0.0149493
621.785	0.0148540
621.863	0.0149332
621.942	0.0147861
622.020	0.0148976
622.098	0.0148486
622.176	0.0148747
622.254	0.0150155
622.332	0.0149434
622.410	0.0149007
622.488	0.0148734
622.567	0.0149847
622.645	0.0148342
622.723	0.0147755
622.801	0.0148742
622.879	0.0149032
622.957	0.0148151
623.035	0.0150108
623.113	0.0149262
623.192	0.0150230
623.270	0.0149391
623.348	0.0148832
623.426	0.0149548
623.504	0.0147868
623.582	0.0148137
623.660	0.0149020
623.738	0.0148227
623.817	0.0148943
623.895	0.0149656
623.973	0.0149243
624.051	0.0148309
624.129	0.0148506
624.207	0.0150478
624.285	0.0149220
624.363	0.0149635
624.442	0.0149322
624.520	0.0150018
624.598	0.0149283
624.676	0.0149197
624.754	0.0149931
624.832	0.0149998
624.910	0.0147902
624.988	0.0149899
625.067	0.0148035
625.145	0.0149644
625.223	0.0149308
625.301	0.0149227
625.379	0.0148431
625.457	0.0148664
625.535	0.0148608
625.613	0.0148402
625.692	0.0149757
625.770	0.0150569
625.848	0.0148904
625.926	0.0150473
626.004	0.0150329
626.082	0.0149157
626.160	0.0149388
626.238	0.0148850
626.317	0.0149782
626.395	0.0148927
626.473	0.0148266
626.551	0.0150780
626.629	0.0148180
626.707	0.0149233
626.785	0.0149166
626.863	0.0149718
626.942	0.0147997
627.020	0.0148778
627.098	0.0148693
627.176	0.0149076
627.254	0.0147910
627.332	0.0147867
627.410	0.0149204
627.488	0.0148705
627.567	0.0149876
627.645	0.0148482
627.723	0.0148083
627.801	0.0148540
627.879	0.0147210
627.957	0.0150636
628.035	0.0149636
628.113	0.0148879
628.192	0.0149059
628.270	0.0148872
628.348	0.0148613
628.426	0.0148481
628.504	0.0149303
628.582	0.0147810
628.660	0.0148859
628.738	0.0149297
628.817	0.0147688
628.895	0.0150437
628.973	0.0147336
629.051	0.0148450
629.129	0.0148083
629.207	0.0148877
629.285	0.0147859
629.363	0.0148983
629.442	0.0149148
629.520	0.0147458
629.598	0.0149334
629.676	0.0147289
629.754	0.0149286
629.832	0.0149196
629.910	0.0148031
629.988	0.0147771
630.067	0.0148895
630.145	0.0148473
630.223	0.0148418
630.301	0.0147408
630.379	0.0148989
630.457	0.0148671
630.535	0.0149714
630.613	0.0148722
630.692	0.0148313
630.770	0.0147521
630.848	0.0148906
630.926	0.0149497
631.004	0.0147967
631.082	0.0148569
631.160	0.0148734
631.238	0.0149288
631.317	0.0147899
631.395	0.0148969
631.473	0.0149179
631.551	0.0148083
631.629	0.0149270
631.707	0.0149713
631.785	0.0148621
631.863	0.0148267
631.942	0.0148898
632.020	0.0149671
632.098	0.0148375
632.176	0.0148723
632.254	0.0148651
632.332	0.0148338
632.410	0.0148175
632.488	0.0149074
632.567	0.0148631
632.645	0.0149483
632.723	0.0148816
632.801	0.0147799
632.879	0.0148932
632.957	0.0148646
633.035	0.0150001
633.113	0.0149886
633.192	0.0149527
633.270	0.0148919
633.348	0.0149709
633.426	0.0147934
633.504	0.0147773
633.582	0.0146991
633.660	0.0150079
633.738	0.0149620
633.817	0.0149316
633.895	0.0148264
633.973	0.0147919
634.051	0.0149711
634.129	0.0149659
634.207	0.0148846
634.285	0.0149529
634.363	0.0148205
634.442	0.0148488
634.520	0.0148102
634.598	0.0148399
634.676	0.0148699
634.754	0.0149334
634.832	0.0148154
634.910	0.0148553
634.988	0.0148836
635.067	0.0147470
635.145	0.0148302
635.223	0.0149121
635.301	0.0149044
635.379	0.0148653
635.457	0.0149049
635.535	0.0149867
635.613	0.0148587
635.692	0.0148779
635.770	0.0148447
635.848	0.0147832
635.926	0.0148934
636.004	0.0148112
636.082	0.0149553
636.160	0.0149232
636.238	0.0148673
636.317	0.0148482
636.395	0.0148956
636.473	0.0149528
636.551	0.0150019
636.629	0.0149249
636.707	0.0150945
636.785	0.0149155
636.863	0.0148051
636.942	0.0148617
637.020	0.0149798
637.098	0.0150359
637.176	0.0149484
637.254	0.0149854
637.332	0.0149947
637.410	0.0148470
637.488	0.0147266
637.567	0.0149242
637.645	0.0150526
637.723	0.0149760
637.801	0.0148837
637.879	0.0148512
637.957	0.0149658
638.035	0.0150198
638.113	0.0149111
638.192	0.0149156
638.270	0.0149167
638.348	0.0148409
638.426	0.0149992
638.504	0.0149783
638.582	0.0148370
638.660	0.0147824
638.738	0.0149303
638.817	0.0149403
638.895	0.0149690
638.973	0.0148804
639.051	0.0149599
639.129	0.0149535
639.207	0.0148692
639.285	0.0148601
639.363	0.0149134
639.442	0.0150075
639.520	0.0148766
639.598	0.0146860
639.676	0.0149847
639.754	0.0148979
639.832	0.0150922
639.910	0.0148830
639.988	0.0147959
640.067	0.0149406
640.145	0.0149126
640.223	0.0148830
640.301	0.0149024
640.379	0.0149094
640.457	0.0149609
640.535	0.0149608
640.613	0.0148746
640.692	0.0149683
640.770	0.0148225
640.848	0.0149339
640.926	0.0148860
641.004	0.0148138
641.082	0.0148621
641.160	0.0148019
641.238	0.0148649
641.317	0.0149558
641.395	0.0149566
641.473	0.0148281
641.551	0.0149657
641.629	0.0147625
641.707	0.0147926
641.785	0.0149468
641.863	0.0148321
641.942	0.0148437
642.020	0.0149407
642.098	0.0149049
642.176	0.0150226
642.254	0.0149126
642.332	0.0148224
642.410	0.0148730
642.488	0.0149686
642.567	0.0148383
642.645	0.0148640
642.723	0.0149446
642.801	0.0149416
642.879	0.0149039
642.957	0.0149490
643.035	0.0148831
643.113	0.0149709
643.192	0.0148676
643.270	0.0149502
643.348	0.0148715
643.426	0.0148775
643.504	0.0149931
643.582	0.0149447
643.660	0.0147854
643.738	0.0149467
643.817	0.0148784
643.895	0.0147482
643.973	0.0148676
644.051	0.0149816
644.129	0.0148051
644.207	0.0148303
644.285	0.0148537
644.363	0.0149049
644.442	0.0149458
644.520	0.0148629
644.598	0.0149570
644.676	0.0148687
644.754	0.0149308
644.832	0.0148666
644.910	0.0148173
644.988	0.0148795
645.067	0.0149668
645.145	0.0147913
645.223	0.0147799
645.301	0.0150336
645.379	0.0149595
645.457	0.0148529
645.535	0.0149567
645.613	0.0148783
645.692	0.0147863
645.770	0.0148534
645.848	0.0149453
645.926	0.0148981
646.004	0.0149373
646.082	0.0148936
646.160	0.0149161
646.238	0.0148672
646.317	0.0149298
646.395	0.0147966
646.473	0.0149166
646.551	0.0148840
646.629	0.0147897
646.707	0.0149118
646.785	0.0148935
646.863	0.0149032
646.942	0.0149150
647.020	0.0148966
647.098	0.0147993
647.176	0.0149963
647.254	0.0149674
647.332	0.0148900
647.410	0.0148804
647.488	0.0147784
647.567	0.0148764
647.645	0.0149547
647.723	0.0149562
647.801	0.0149086
647.879	0.0149301
647.957	0.0148734
648.035	0.0149229
648.113	0.0149747
648.192	0.0150298
648.270	0.0148053
648.348	0.0149041
648.426	0.0150513
648.504	0.0149960
648.582	0.0149417
648.660	0.0147861
648.738	0.0149166
648.817	0.0147911
648.895	0.0149546
648.973	0.0149330
649.051	0.0148109
649.129	0.0148428
649.207	0.0148534
649.285	0.0151051
649.363	0.0149202
649.442	0.0147372
649.520	0.0150132
649.598	0.0149110
649.676	0.0149329
649.754	0.0148406
649.832	0.0150224
649.910	0.0148648
649.988	0.0148626
650.067	0.0148951
650.145	0.0148170
650.223	0.0148290
650.301	0.0149201
650.379	0.0149494
650.457	0.0149424
650.535	0.0148367
650.613	0.0149892
650.692	0.0148750
650.770	0.0148190
650.848	0.0148447
650.926	0.0149011
651.004	0.0149134
651.082	0.0149239
651.160	0.0148390
651.238	0.0149113
651.317	0.0148534
651.395	0.0147067
651.473	0.0147579
651.551	0.0149928
651.629	0.0149223
651.707	0.0148096
651.785	0.0148487
651.863	0.0149462
651.942	0.0147843
652.020	0.0149556
652.098	0.0149273
652.176	0.0148132
652.254	0.0148679
652.332	0.0148804
652.410	0.0148339
652.488	0.0149123
652.567	0.0148488
652.645	0.0149335
652.723	0.0149203
652.801	0.0148370
652.879	0.0149583
652.957	0.0149104
653.035	0.0148602
653.113	0.0147634
653.192	0.0149252
653.270	0.0148792
653.348	0.0148286
653.426	0.0148767
653.504	0.0149445
653.582	0.0149110
653.660	0.0149297
653.738	0.0148865
653.817	0.0149959
653.895	0.0148666
653.973	0.0148051
654.051	0.0149181
654.129	0.0149441
654.207	0.0150180
654.285	0.0149078
654.363	0.0148934
654.442	0.0148874
654.520	0.0148592
654.598	0.0148855
654.676	0.0148609
654.754	0.0148926
654.832	0.0149007
654.910	0.0148238
654.988	0.0148589
655.067	0.0148055
655.145	0.0149831
655.223	0.0148323
655.301	0.0148599
655.379	0.0149924
655.457	0.0148936
655.535	0.0148037
655.613	0.0148109
655.692	0.0148341
655.770	0.0149288
655.848	0.0148672
655.926	0.0149267
656.004	0.0150138
656.082	0.0148260
656.160	0.0148316
656.238	0.0148717
656.317	0.0147353
656.395	0.0150092
656.473	0.0148714
656.551	0.0148586
656.629	0.0148185
656.707	0.0147597
656.785	0.0148757
656.863	0.0147877
656.942	0.0149335
657.020	0.0148333
657.098	0.0147431
657.176	0.0148252
657.254	0.0150114
657.332	0.0148517
657.410	0.0148920
657.488	0.0148280
657.567	0.0148105
657.645	0.0148604
657.723	0.0148515
657.801	0.0147777
657.879	0.0149358
657.957	0.0148393
658.035	0.0149580
658.113	0.0149380
658.192	0.0150782
658.270	0.0148739
658.348	0.0148502
658.426	0.0147634
658.504	0.0149516
658.582	0.0148201
658.660	0.0148737
658.738	0.0149386
658.817	0.0147929
658.895	0.0148399
658.973	0.0148190
659.051	0.0148904
659.129	0.0149837
659.207	0.0148743
659.285	0.0149226
659.363	0.0149277
659.442	0.0147656
659.520	0.0149382
659.598	0.0149608
659.676	0.0148741
659.754	0.0149224
659.832	0.0148058
659.910	0.0148547
659.988	0.0149401
660.067	0.0148097
660.145	0.0148982
660.223	0.0148204
660.301	0.0149263
660.379	0.0149869
660.457	0.0148134
660.535	0.0149471
660.613	0.0149026
660.692	0.0149412
660.770	0.0148769
660.848	0.0148583
660.926	0.0148985
661.004	0.0148628
661.082	0.0148501
661.160	0.0149278
661.238	0.0148607
661.317	0.0150071
661.395	0.0150035
661.473	0.0149744
661.551	0.0149866
661.629	0.0149359
661.707	0.0148579
661.785	0.0147839
661.863	0.0149651
661.942	0.0149850
662.020	0.0149488
662.098	0.0150135
662.176	0.0148044
662.254	0.0148662
662.332	0.0148581
662.410	0.0149864
662.488	0.0148566
662.567	0.0148485
662.645	0.0148772
662.723	0.0147905
662.801	0.0150306
662.879	0.0149000
662.957	0.0149302
663.035	0.0148903
663.113	0.0148151
663.192	0.0148353
663.270	0.0148001
663.348	0.0148551
663.426	0.0149725
663.504	0.0149223
663.582	0.0149034
663.660	0.0149164
663.738	0.0150028
663.817	0.0148311
663.895	0.0148781
663.973	0.0147617
664.051	0.0148438
664.129	0.0148553
664.207	0.0149015
664.285	0.0149320
664.363	0.0148472
664.442	0.0149290
664.520	0.0149929
664.598	0.0148061
664.676	0.0148358
664.754	0.0149555
664.832	0.0149435
664.910	0.0148620
664.988	0.0147737
665.067	0.0148706
665.145	0.0149674
665.223	0.0150007
665.301	0.0149275
665.379	0.0147621
665.457	0.0148151
665.535	0.0149193
665.613	0.0150201
665.692	0.0149725
665.770	0.0148769
665.848	0.0149255
665.926	0.0149554
666.004	0.0149702
666.082	0.0149373
666.160	0.0148724
666.238	0.0148578
666.317	0.0149639
666.395	0.0149089
666.473	0.0147813
666.551	0.0149752
666.629	0.0149331
666.707	0.0150121
666.785	0.0149759
666.863	0.0148860
666.942	0.0149968
667.020	0.0149973
667.098	0.0150755
667.176	0.0150813
667.254	0.0149024
667.332	0.0149213
667.410	0.0147718
667.488	0.0148064
667.567	0.0148196
667.645	0.0148398
667.723	0.0148576
667.801	0.0147687
667.879	0.0148693
667.957	0.0148830
668.035	0.0149772
668.113	0.0148496
668.192	0.0148625
668.270	0.0146450
668.348	0.0148182
668.426	0.0149047
668.504	0.0148566
668.582	0.0149229
668.660	0.0149333
668.738	0.0150268
668.817	0.0150361
668.895	0.0149714
668.973	0.0150984
669.051	0.0151358
669.129	0.0149275
669.207	0.0149756
669.285	0.0149308
669.363	0.0148740
669.442	0.0149415
669.520	0.0148181
669.598	0.0148766
669.676	0.0148988
669.754	0.0147549
669.832	0.0148133
669.910	0.0147938
669.988	0.0148469
670.067	0.0147620
670.145	0.0146203
670.223	0.0147620
670.301	0.0147711
670.379	0.0145607
670.457	0.0148217
670.535	0.0146835
670.613	0.0146970
670.692	0.0146537
670.770	0.0146065
670.848	0.0147982
670.926	0.0148650
671.004	0.0149562
671.082	0.0150491
671.160	0.0152171
671.238	0.0151942
671.317	0.0154173
671.395	0.0154919
671.473	0.0153259
671.551	0.0154984
671.629	0.0155471
671.707	0.0154314
671.785	0.0153824
671.863	0.0152594
671.942	0.0152491
672.020	0.0150652
672.098	0.0149130
672.176	0.0147501
672.254	0.0145043
672.332	0.0144601
672.410	0.0141411
672.488	0.0140237
672.567	0.0140437
672.645	0.0138090
672.723	0.0137087
672.801	0.0138808
672.879	0.0138741
672.957	0.0140287
673.035	0.0141986
673.113	0.0143456
673.192	0.0145257
673.270	0.0146202
673.348	0.0147652
673.426	0.0149450
673.504	0.0149663
673.582	0.0149435
673.660	0.0150079
673.738	0.0151588
673.817	0.0151671
673.895	0.0151885
673.973	0.0152711
674.051	0.0154735
674.129	0.0153794
674.207	0.0154019
674.285	0.0153909
674.363	0.0155000
674.442	0.0153263
674.520	0.0151363
674.598	0.0152271
674.676	0.0152737
674.754	0.0150552
674.832	0.0150543
674.910	0.0151101
674.988	0.0153099
675.067	0.0153349
675.145	0.0152290
675.223	0.0154291
675.301	0.0155054
675.379	0.0154935
675.457	0.0155710
675.535	0.0154763
675.613	0.0152727
675.692	0.0151302
675.770	0.0151317
675.848	0.0150758
675.926	0.0148642
676.004	0.0144872
676.082	0.0143968
676.160	0.0142948
676.238	0.0139747
676.317	0.0138508
676.395	0.0138435
676.473	0.0134929
676.551	0.0133909
676.629	0.0133494
676.707	0.0132640
676.785	0.0133103
676.863	0.0135662
676.942	0.0137897
677.020	0.0137456
677.098	0.0138838
677.176	0.0140310
677.254	0.0143250
677.332	0.0143343
677.410	0.0143987
677.488	0.0146197
677.567	0.0147927
677.645	0.0152040
677.723	0.0153111
677.801	0.0155470
677.879	0.0156789
677.957	0.0158053
678.035	0.0160113
678.113	0.0161230
678.192	0.0161775
678.270	0.0162238
678.348	0.0161449
678.426	0.0160838
678.504	0.0160046
678.582	0.0158615
678.660	0.0158639
678.738	0.0157337
678.817	0.0156272
678.895	0.0154629
678.973	0.0155442
679.051	0.0155901
679.129	0.0156256
679.207	0.0157648
679.285	0.0157347
679.363	0.0157214
679.442	0.0159048
679.520	0.0158334
679.598	0.0154932
679.676	0.0155441
679.754	0.0153238
679.832	0.0150656
679.910	0.0148609
679.988	0.0147506
680.067	0.0144516
680.145	0.0143911
680.223	0.0141931
680.301	0.0141060
680.379	0.0138603
680.457	0.0137823
680.535	0.0136241
680.613	0.0134714
680.692	0.0133376
680.770	0.0132638
680.848	0.0132160
680.926	0.0130246
681.004	0.0129021
681.082	0.0129008
681.160	0.0127625
681.238	0.0126683
681.317	0.0127486
681.395	0.0128929
681.473	0.0128494
681.551	0.0130848
681.629	0.0132395
681.707	0.0134223
681.785	0.0136857
681.863	0.0139388
681.942	0.0141841
682.020	0.0146973
682.098	0.0150185
682.176	0.0154047
682.254	0.0158319
682.332	0.0162945
682.410	0.0166199
682.488	0.0171050
682.567	0.0171793
682.645	0.0174078
682.723	0.0175702
682.801	0.0175432
682.879	0.0174907
682.957	0.0173254
683.035	0.0172118
683.113	0.0170128
683.192	0.0168423
683.270	0.0165341
683.348	0.0164666
683.426	0.0161946
683.504	0.0162797
683.582	0.0161083
683.660	0.0158923
683.738	0.0158856
683.817	0.0156757
683.895	0.0156830
683.973	0.0154801
684.051	0.0153441
684.129	0.0151958
684.207	0.0150220
684.285	0.0149409
684.363	0.0148123
684.442	0.0145874
684.520	0.0143891
684.598	0.0144104
684.676	0.0142380
684.754	0.0141965
684.832	0.0139311
684.910	0.0134846
684.988	0.0131767
685.067	0.0129896
685.145	0.0129272
685.223	0.0125060
685.301	0.0124364
685.379	0.0123940
685.457	0.0124984
685.535	0.0125568
685.613	0.0126801
685.692	0.0128617
685.770	0.0130584
685.848	0.0131848
685.926	0.0133940
686.004	0.0136182
686.082	0.0137907
686.160	0.0138344
686.238	0.0141969
686.317	0.0141328
686.395	0.0143614
686.473	0.0147138
686.551	0.0148235
686.629	0.0149176
686.707	0.0151472
686.785	0.0152227
686.863	0.0155007
686.942	0.0156750
687.020	0.0158238
687.098	0.0159879
687.176	0.0159334
687.254	0.0161362
687.332	0.0162681
687.410	0.0162209
687.488	0.0163515
687.567	0.0164725
687.645	0.0165569
687.723	0.0165365
687.801	0.0168643
687.879	0.0167500
687.957	0.0169834
688.035	0.0170510
688.113	0.0171851
688.192	0.0171243
688.270	0.0170877
688.348	0.0171075
688.426	0.0172279
688.504	0.0170632
688.582	0.0169437
688.660	0.0168198
688.738	0.0165696
688.817	0.0165145
688.895	0.0160922
688.973	0.0158652
689.051	0.0153411
689.129	0.0149987
689.207	0.0145817
689.285	0.0141344
689.363	0.0137037
689.442	0.0133984
689.520	0.0132588
689.598	0.0128777
689.676	0.0126630
689.754	0.0125730
689.832	0.0124879
689.910	0.0124805
689.988	0.0123570
690.067	0.0125597
690.145	0.0124799
690.223	0.0124874
690.301	0.0125098
690.379	0.0126171
690.457	0.0126501
690.535	0.0127230
690.613	0.0128558
690.692	0.0129260
690.770	0.0130093
690.848	0.0132750
690.926	0.0133575
691.004	0.0136217
691.082	0.0137791
691.160	0.0139354
691.238	0.0141026
691.317	0.0141825
691.395	0.0145995
691.473	0.0145828
691.551	0.0148176
691.629	0.0151760
691.707	0.0153287
691.785	0.0156382
691.863	0.0156935
691.942	0.0160834
692.020	0.0163683
692.098	0.0166422
692.176	0.0168734
692.254	0.0170617
692.332	0.0173760
692.410	0.0174592
692.488	0.0174515
692.567	0.0174227
692.645	0.0173907
692.723	0.0172369
692.801	0.0172057
692.879	0.0170220
692.957	0.0169402
693.035	0.0168259
693.113	0.0163988
693.192	0.0163120
693.270	0.0161268
693.348	0.0159126
693.426	0.0156819
693.504	0.0156464
693.582	0.0155587
693.660	0.0155803
693.738	0.0154256
693.817	0.0153010
693.895	0.0153449
693.973	0.0155038
694.051	0.0152495
694.129	0.0151678
694.207	0.0151739
694.285	0.0149095
694.363	0.0148274
694.442	0.0146136
694.520	0.0143059
694.598	0.0141555
694.676	0.0139069
694.754	0.0137685
694.832	0.0136412
694.910	0.0132840
694.988	0.0131093
695.067	0.0129671
695.145	0.0125330
695.223	0.0124695
695.301	0.0123538
695.379	0.0122658
695.457	0.0122189
695.535	0.0123000
695.613	0.0122409
695.692	0.0121465
695.770	0.0124384
695.848	0.0125816
695.926	0.0127574
696.004	0.0128535
696.082	0.0131188
696.160	0.0134325
696.238	0.0136349
696.317	0.0139867
696.395	0.0145921
696.473	0.0149168
696.551	0.0152517
696.629	0.0154495
696.707	0.0158021
696.785	0.0160985
696.863	0.0163148
696.942	0.0162473
697.020	0.0161940
697.098	0.0163241
697.176	0.0163023
697.254	0.0162132
697.332	0.0160080
697.410	0.0159903
697.488	0.0160295
697.567	0.0161566
697.645	0.0159547
697.723	0.0159537
697.801	0.0160990
697.879	0.0162158
697.957	0.0162341
698.035	0.0164658
698.113	0.0165340
698.192	0.0165367
698.270	0.0166867
698.348	0.0166538
698.426	0.0166237
698.504	0.0167174
698.582	0.0167497
698.660	0.0166330
698.738	0.0165284
698.817	0.0164329
698.895	0.0164547
698.973	0.0162316
699.051	0.0158006
699.129	0.0156738
699.207	0.0154425
699.285	0.0149887
699.363	0.0146038
699.442	0.0144304
699.520	0.0141618
699.598	0.0139230
699.676	0.0134487
699.754	0.0131461
699.832	0.0129855
699.910	0.0128568
699.988	0.0126297
700.067	0.0124950
700.145	0.0125634
700.223	0.0125436
700.301	0.0126435
700.379	0.0126185
700.457	0.0128379
700.535	0.0129607
700.613	0.0131471
700.692	0.0134439
700.770	0.0136012
700.848	0.0137131
700.926	0.0138541
701.004	0.0139742
701.082	0.0141802
701.160	0.0142488
701.238	0.0144073
701.317	0.0145190
701.395	0.0145267
701.473	0.0145480
701.551	0.0146761
701.629	0.0145853
701.707	0.0147680
701.785	0.0149004
701.863	0.0149448
701.942	0.0150205
702.020	0.0151561
702.098	0.0151054
702.176	0.0151388
702.254	0.0152252
702.332	0.0154214
702.410	0.0154208
702.488	0.0156362
702.567	0.0156335
702.645	0.0155962
702.723	0.0158241
702.801	0.0160507
702.879	0.0160770
702.957	0.0162565
703.035	0.0165039
703.113	0.0166779
703.192	0.0166164
703.270	0.0168249
703.348	0.0169875
703.426	0.0169185
703.504	0.0168089
703.582	0.0169610
703.660	0.0167573
703.738	0.0164388
703.817	0.0161416
703.895	0.0162155
703.973	0.0157802
704.051	0.0154238
704.129	0.0151276
704.207	0.0148728
704.285	0.0145332
704.363	0.0143340
704.442	0.0138380
704.520	0.0136716
704.598	0.0136487
704.676	0.0134204
704.754	0.0134899
704.832	0.0134805
704.910	0.0134572
704.988	0.0135062
705.067	0.0135248
705.145	0.0136684
705.223	0.0138465
705.301	0.0139285
705.379	0.0139909
705.457	0.0141749
705.535	0.0143389
705.613	0.0143859
705.692	0.0143633
705.770	0.0143867
705.848	0.0142310
705.926	0.0143127
706.004	0.0142487
706.082	0.0142538
706.160	0.0143685
706.238	0.0142778
706.317	0.0142843
706.395	0.0142860
706.473	0.0145451
706.551	0.0145535
706.629	0.0145512
706.707	0.0147759
706.785	0.0147314
706.863	0.0149201
706.942	0.0147826
707.020	0.0148877
707.098	0.0149923
707.176	0.0149984
707.254	0.0149363
707.332	0.0151641
707.410	0.0150526
707.488	0.0149894
707.567	0.0151427
707.645	0.0152333
707.723	0.0151927
707.801	0.0151924
707.879	0.0152958
707.957	0.0154826
708.035	0.0154779
708.113	0.0155935
708.192	0.0156368
708.270	0.0157718
708.348	0.0159856
708.426	0.0161251
708.504	0.0162292
708.582	0.0163725
708.660	0.0167243
708.738	0.0165994
708.817	0.0164268
708.895	0.0163400
708.973	0.0164521
709.051	0.0162615
709.129	0.0160999
709.207	0.0158131
709.285	0.0157087
709.363	0.0155613
709.442	0.0153690
709.520	0.0150719
709.598	0.0147906
709.676	0.0146154
709.754	0.0146158
709.832	0.0142839
709.910	0.0141734
709.988	0.0139554
710.067	0.0139668
710.145	0.0138470
710.223	0.0138634
710.301	0.0138890
710.379	0.0138503
710.457	0.0139011
710.535	0.0139177
710.613	0.0140977
710.692	0.0140273
710.770	0.0141428
710.848	0.0141254
710.926	0.0141923
711.004	0.0142967
711.082	0.0141569
711.160	0.0140211
711.238	0.0142098
711.317	0.0141102
711.395	0.0139867
711.473	0.0141178
711.551	0.0141337
711.629	0.0139200
711.707	0.0141856
711.785	0.0142965
711.863	0.0143900
711.942	0.0144306
712.020	0.0147279
712.098	0.0147349
712.176	0.0148244
712.254	0.0151569
712.332	0.0153741
712.410	0.0153532
712.488	0.0156008
712.567	0.0159084
712.645	0.0161302
712.723	0.0162482
712.801	0.0164339
712.879	0.0164158
712.957	0.0164108
713.035	0.0163613
713.113	0.0164200
713.192	0.0163993
713.270	0.0161969
713.348	0.0158953
713.426	0.0157765
713.504	0.0157003
713.582	0.0153908
713.660	0.0150925
713.738	0.0150387
713.817	0.0145559
713.895	0.0146415
713.973	0.0144786
714.051	0.0144688
714.129	0.0142894
714.207	0.0143020
714.285	0.0143220
714.363	0.0143258
714.442	0.0142720
714.520	0.0142193
714.598	0.0143317
714.676	0.0143285
714.754	0.0143601
714.832	0.0144110
714.910	0.0143697
714.988	0.0143481
715.067	0.0143105
715.145	0.0145596
715.223	0.0145678
715.301	0.0148296
715.379	0.0148943
715.457	0.0150887
715.535	0.0149761
715.613	0.0150948
715.692	0.0152305
715.770	0.0151816
715.848	0.0150558
715.926	0.0150388
716.004	0.0151200
716.082	0.0148885
716.160	0.0147617
716.238	0.0146697
716.317	0.0147414
716.395	0.0146593
716.473	0.0146383
716.551	0.0146064
716.629	0.0144922
716.707	0.0145918
716.785	0.0146006
716.863	0.0145510
716.942	0.0145567
717.020	0.0146169
717.098	0.0146378
717.176	0.0145613
717.254	0.0146029
717.332	0.0145962
717.410	0.0145663
717.488	0.0146420
717.567	0.0146997
717.645	0.0146928
717.723	0.0148528
717.801	0.0148355
717.879	0.0149593
717.957	0.0149564
718.035	0.0150182
718.113	0.0151038
718.192	0.0151134
718.270	0.0152714
718.348	0.0154520
718.426	0.0152656
718.504	0.0152768
718.582	0.0154246
718.660	0.0152914
718.738	0.0152792
718.817	0.0150713
718.895	0.0150099
718.973	0.0149129
719.051	0.0150781
719.129	0.0149876
719.207	0.0149699
719.285	0.0148952
719.363	0.0149609
719.442	0.0151104
719.520	0.0150919
719.598	0.0149202
719.676	0.0152638
719.754	0.0152994
719.832	0.0151374
719.910	0.0151410
719.988	0.0153096
720.067	0.0153356
720.145	0.0151727
720.223	0.0151419
720.301	0.0151092
720.379	0.0149699
720.457	0.0147958
720.535	0.0147923
720.613	0.0146761
720.692	0.0146218
720.770	0.0145837
720.848	0.0144254
720.926	0.0144923
721.004	0.0143885
721.082	0.0143912
721.160	0.0144318
721.238	0.0142252
721.317	0.0141003
721.395	0.0140373
721.473	0.0141062
721.551	0.0140159
721.629	0.0140128
721.707	0.0139945
721.785	0.0140023
721.863	0.0140353
721.942	0.0139949
722.020	0.0141108
722.098	0.0139747
722.176	0.0142380
722.254	0.0143526
722.332	0.0145072
722.410	0.0146401
722.488	0.0148078
722.567	0.0150004
722.645	0.0151845
722.723	0.0151322
722.801	0.0153577
722.879	0.0154404
722.957	0.0156239
723.035	0.0155249
723.113	0.0156146
723.192	0.0157452
723.270	0.0157525
723.348	0.0156411
723.426	0.0156825
723.504	0.0156886
723.582	0.0156772
723.660	0.0157487
723.738	0.0156184
723.817	0.0156630
723.895	0.0158046
723.973	0.0155959
724.051	0.0157283
724.129	0.0157891
724.207	0.0156268
724.285	0.0155526
724.363	0.0155628
724.442	0.0153088
724.520	0.0152814
724.598	0.0152141
724.676	0.0150370
724.754	0.0150587
724.832	0.0148036
724.910	0.0146183
724.988	0.0145375
725.067	0.0145306
725.145	0.0145092
725.223	0.0143679
725.301	0.0143402
725.379	0.0143561
725.457	0.0141418
725.535	0.0141628
725.613	0.0140685
725.692	0.0140716
725.770	0.0140733
725.848	0.0139233
725.926	0.0138112
726.004	0.0138473
726.082	0.0139867
726.160	0.0138908
726.238	0.0137917
726.317	0.0138397
726.395	0.0138149
726.473	0.0138718
726.551	0.0137376
726.629	0.0139294
726.707	0.0138981
726.785	0.0140664
726.863	0.0141394
726.942	0.0143691
727.020	0.0145583
727.098	0.0147829
727.176	0.0148638
727.254	0.0150079
727.332	0.0154200
727.410	0.0154650
727.488	0.0156903
727.567	0.0158274
727.645	0.0159204
727.723	0.0160981
727.801	0.0161664
727.879	0.0160287
727.957	0.0161826
728.035	0.0162182
728.113	0.0162652
728.192	0.0161034
728.270	0.0159562
728.348	0.0159219
728.426	0.0156195
728.504	0.0155899
728.582	0.0153708
728.660	0.0151319
728.738	0.0149867
728.817	0.0149229
728.895	0.0146071
728.973	0.0145801
729.051	0.0147150
729.129	0.0146428
729.207	0.0145147
729.285	0.0146446
729.363	0.0147490
729.442	0.0147506
729.520	0.0147411
729.598	0.0146834
729.676	0.0147861
729.754	0.0148104
729.832	0.0147939
729.910	0.0149348
729.988	0.0149251
730.067	0.0149300
730.145	0.0148750
730.223	0.0147945
730.301	0.0149065
730.379	0.0149809
730.457	0.0147924
730.535	0.0145868
730.613	0.0145927
730.692	0.0145593
730.770	0.0144639
730.848	0.0144056
730.926	0.0143059
731.004	0.0143536
731.082	0.0141609
731.160	0.0141287
731.238	0.0141129
731.317	0.0140666
731.395	0.0142661
731.473	0.0142273
731.551	0.0142245
731.629	0.0143549
731.707	0.0144112
731.785	0.0146152
731.863	0.0147315
731.942	0.0146770
732.020	0.0148005
732.098	0.0149313
732.176	0.0150433
732.254	0.0150985
732.332	0.0149940
732.410	0.0151615
732.488	0.0152470
732.567	0.0153377
732.645	0.0153970
732.723	0.0153379
732.801	0.0154088
732.879	0.0152328
732.957	0.0153918
733.035	0.0153220
733.113	0.0152690
733.192	0.0152625
733.270	0.0153625
733.348	0.0152258
733.426	0.0151382
733.504	0.0153471
733.582	0.0151113
733.660	0.0149911
733.738	0.0150684
733.817	0.0150269
733.895	0.0149895
733.973	0.0149892
734.051	0.0147340
734.129	0.0147933
734.207	0.0147494
734.285	0.0146748
734.363	0.0145295
734.442	0.0146832
734.520	0.0144730
734.598	0.0142445
734.676	0.0145822
734.754	0.0146047
734.832	0.0144944
734.910	0.0146144
734.988	0.0147192
735.067	0.0147607
735.145	0.0149688
735.223	0.0150839
735.301	0.0152184
735.379	0.0151909
735.457	0.0154733
735.535	0.0155230
735.613	0.0155458
735.692	0.0154491
735.770	0.0154297
735.848	0.0154778
735.926	0.0155005
736.004	0.0153416
736.082	0.0151904
736.160	0.0151099
736.238	0.0149022
736.317	0.0146964
736.395	0.0146734
736.473	0.0144652
736.551	0.0142176
736.629	0.0141055
736.707	0.0142043
736.785	0.0140488
736.863	0.0141727
736.942	0.0142422
737.020	0.0143280
737.098	0.0143369
737.176	0.0145535
737.254	0.0146102
737.332	0.0148363
737.410	0.0148433
737.488	0.0151090
737.567	0.0152798
737.645	0.0151274
737.723	0.0151208
737.801	0.0150056
737.879	0.0150644
737.957	0.0148676
738.035	0.0148125
738.113	0.0147281
738.192	0.0146500
738.270	0.0146503
738.348	0.0144942
738.426	0.0145291
738.504	0.0146839
738.582	0.0145408
738.660	0.0145055
738.738	0.0145638
738.817	0.0146188
738.895	0.0146767
738.973	0.0148273
739.051	0.0147439
739.129	0.0150200
739.207	0.0150085
739.285	0.0149429
739.363	0.0152251
739.442	0.0150536
739.520	0.0152518
739.598	0.0153079
739.676	0.0152277
739.754	0.0152032
739.832	0.0153150
739.910	0.0153336
739.988	0.0152058
740.067	0.0152182
740.145	0.0152825
740.223	0.0152740
740.301	0.0152137
740.379	0.0150061
740.457	0.0150980
740.535	0.0150843
740.613	0.0150381
740.692	0.0149162
740.770	0.0148426
740.848	0.0149136
740.926	0.0148691
741.004	0.0149924
741.082	0.0149339
741.160	0.0149772
741.238	0.0150909
741.317	0.0150704
741.395	0.0150978
741.473	0.0151579
741.551	0.0150854
741.629	0.0149888
741.707	0.0149316
741.785	0.0148244
741.863	0.0147585
741.942	0.0145787
742.020	0.0146881
742.098	0.0144540
742.176	0.0144077
742.254	0.0142628
742.332	0.0142110
742.410	0.0141888
742.488	0.0142990
742.567	0.0143634
742.645	0.0143460
742.723	0.0143515
742.801	0.0144964
742.879	0.0145509
742.957	0.0147942
743.035	0.0147321
743.113	0.0149456
743.192	0.0150217
743.270	0.0150352
743.348	0.0150507
743.426	0.0151824
743.504	0.0150460
743.582	0.0149731
743.660	0.0149104
743.738	0.0150484
743.817	0.0148601
743.895	0.0147432
743.973	0.0148508
744.051	0.0147520
744.129	0.0146609
744.207	0.0147320
744.285	0.0146700
744.363	0.0147496
744.442	0.0146968
744.520	0.0148016
744.598	0.0146998
744.676	0.0147571
744.754	0.0148485
744.832	0.0149773
744.910	0.0151220
744.988	0.0150214
745.067	0.0151622
745.145	0.0153808
745.223	0.0152934
745.301	0.0154387
745.379	0.0154572
745.457	0.0155438
745.535	0.0153417
745.613	0.0154706
745.692	0.0154342
745.770	0.0152018
745.848	0.0148626
745.926	0.0148936
746.004	0.0147949
746.082	0.0146573
746.160	0.0144861
746.238	0.0143375
746.317	0.0145209
746.395	0.0143146
746.473	0.0144378
746.551	0.0144363
746.629	0.0146474
746.707	0.0147333
746.785	0.0147621
746.863	0.0148255
746.942	0.0147457
747.020	0.0148209
747.098	0.0149668
747.176	0.0149998
747.254	0.0149948
747.332	0.0150163
747.410	0.0149261
747.488	0.0149521
747.567	0.0149896
747.645	0.0149281
747.723	0.0148873
747.801	0.0147638
747.879	0.0149426
747.957	0.0149352
748.035	0.0147556
748.113	0.0148717
748.192	0.0148231
748.270	0.0148489
748.348	0.0148631
748.426	0.0147581
748.504	0.0147767
748.582	0.0148509
748.660	0.0148605
748.738	0.0148341
748.817	0.0148150
748.895	0.0149860
748.973	0.0148801
749.051	0.0148827
749.129	0.0147707
749.207	0.0147144
749.285	0.0146223
749.363	0.0147621
749.442	0.0145871
749.520	0.0145570
749.598	0.0145715
749.676	0.0144923
749.754	0.0145563
749.832	0.0145856
749.910	0.0144523
749.988	0.0144244
750.067	0.0145071
750.145	0.0144672
750.223	0.0145786
750.301	0.0147563
750.379	0.0148122
750.457	0.0147715
750.535	0.0148121
750.613	0.0150396
750.692	0.0150724
750.770	0.0153020
750.848	0.0153336
750.926	0.0153499
751.004	0.0153639
751.082	0.0153327
751.160	0.0153669
751.238	0.0153079
751.317	0.0154036
751.395	0.0153713
751.473	0.0151134
751.551	0.0151344
751.629	0.0149800
751.707	0.0148889
751.785	0.0148991
751.863	0.0148715
751.942	0.0146977
752.020	0.0146718
752.098	0.0146904
752.176	0.0148488
752.254	0.0147729
752.332	0.0148335
752.410	0.0147860
752.488	0.0149969
752.567	0.0149581
752.645	0.0150665
752.723	0.0150984
752.801	0.0151309
752.879	0.0150914
752.957	0.0149781
753.035	0.0150103
753.113	0.0150073
753.192	0.0150020
753.270	0.0150153
753.348	0.0149271
753.426	0.0149723
753.504	0.0149129
753.582	0.0148183
753.660	0.0149298
753.738	0.0148920
753.817	0.0146946
753.895	0.0146484
753.973	0.0145757
754.051	0.0146661
754.129	0.0146226
754.207	0.0145736
754.285	0.0145375
754.363	0.0146173
754.442	0.0146507
754.520	0.0145551
754.598	0.0144670
754.676	0.0146586
754.754	0.0147475
754.832	0.0145286
754.910	0.0145818
754.988	0.0145498
755.067	0.0145621
755.145	0.0146954
755.223	0.0144413
755.301	0.0144118
755.379	0.0144717
755.457	0.0144750
755.535	0.0146246
755.613	0.0145500
755.692	0.0145345
755.770	0.0147358
755.848	0.0147346
755.926	0.0148806
756.004	0.0149490
756.082	0.0148843
756.160	0.0150567
756.238	0.0150658
756.317	0.0150934
756.395	0.0151771
756.473	0.0151859
756.551	0.0152412
756.629	0.0154406
756.707	0.0153589
756.785	0.0152628
756.863	0.0153603
756.942	0.0154196
757.020	0.0153509
757.098	0.0154173
757.176	0.0153892
757.254	0.0153664
757.332	0.0152147
757.410	0.0151937
757.488	0.0151334
757.567	0.0150625
757.645	0.0150443
757.723	0.0150447
757.801	0.0150011
757.879	0.0150007
757.957	0.0148813
758.035	0.0149169
758.113	0.0150114
758.192	0.0148857
758.270	0.0149328
758.348	0.0150217
758.426	0.0149378
758.504	0.0148916
758.582	0.0149519
758.660	0.0148586
758.738	0.0149193
758.817	0.0150604
758.895	0.0148944
758.973	0.0149048
759.051	0.0147631
759.129	0.0146865
759.207	0.0148466
759.285	0.0149404
759.363	0.0147808
759.442	0.0147975
759.520	0.0147091
759.598	0.0146693
759.676	0.0148383
759.754	0.0146862
759.832	0.0147983
759.910	0.0147308
759.988	0.0146862
760.067	0.0146895
760.145	0.0147649
760.223	0.0146138
760.301	0.0146246
760.379	0.0148221
760.457	0.0147707
760.535	0.0149148
760.613	0.0148947
760.692	0.0149282
760.770	0.0149021
760.848	0.0149525
760.926	0.0149699
761.004	0.0149390
761.082	0.0150002
761.160	0.0150221
761.238	0.0149433
761.317	0.0148923
761.395	0.0148027
761.473	0.0146342
761.551	0.0147625
761.629	0.0147731
761.707	0.0147148
761.785	0.0148859
761.863	0.0149112
761.942	0.0148653
762.020	0.0149165
762.098	0.0150484
762.176	0.0150491
762.254	0.0150708
762.332	0.0151579
762.410	0.0151321
762.488	0.0150652
762.567	0.0150808
762.645	0.0150494
762.723	0.0150922
762.801	0.0151727
762.879	0.0149573
762.957	0.0148323
763.035	0.0148185
763.113	0.0147758
763.192	0.0148312
763.270	0.0147555
763.348	0.0148077
763.426	0.0146680
763.504	0.0148015
763.582	0.0147771
763.660	0.0147348
763.738	0.0149546
763.817	0.0149547
763.895	0.0150470
763.973	0.0150016
764.051	0.0150397
764.129	0.0149329
764.207	0.0151218
764.285	0.0150122
764.363	0.0148960
764.442	0.0150380
764.520	0.0149159
764.598	0.0149143
764.676	0.0150600
764.754	0.0147537
764.832	0.0149638
764.910	0.0148595
764.988	0.0149133
765.067	0.0148211
765.145	0.0147578
765.223	0.0147436
765.301	0.0147984
765.379	0.0148396
765.457	0.0148251
765.535	0.0147102
765.613	0.0148433
765.692	0.0149060
765.770	0.0150151
765.848	0.0149300
765.926	0.0149517
766.004	0.0149406
766.082	0.0150323
766.160	0.0150854
766.238	0.0149128
766.317	0.0150066
766.395	0.0150569
766.473	0.0148609
766.551	0.0149607
766.629	0.0149709
766.707	0.0150107
766.785	0.0147688
766.863	0.0149226
766.942	0.0150343
767.020	0.0149615
767.098	0.0150291
767.176	0.0150484
767.254	0.0151456
767.332	0.0150489
767.410	0.0151054
767.488	0.0151856
767.567	0.0149466
767.645	0.0150906
767.723	0.0150015
767.801	0.0148675
767.879	0.0147017
767.957	0.0147658
768.035	0.0147598
768.113	0.0145676
768.192	0.0146042
768.270	0.0146001
768.348	0.0145492
768.426	0.0146260
768.504	0.0147367
768.582	0.0147318
768.660	0.0147478
768.738	0.0147369
768.817	0.0148193
768.895	0.0149027
768.973	0.0149792
769.051	0.0150381
769.129	0.0150375
769.207	0.0151195
769.285	0.0151041
769.363	0.0150593
769.442	0.0149825
769.520	0.0150981
769.598	0.0150743
769.676	0.0149671
769.754	0.0150038
769.832	0.0150331
769.910	0.0147733
769.988	0.0149881
770.067	0.0149344
770.145	0.0146801
770.223	0.0148428
770.301	0.0147441
770.379	0.0147746
770.457	0.0147414
770.535	0.0148503
770.613	0.0148286
770.692	0.0148766
770.770	0.0148732
770.848	0.0149099
770.926	0.0149614
771.004	0.0149971
771.082	0.0149661
771.160	0.0149842
771.238	0.0150393
771.317	0.0152080
771.395	0.0151083
771.473	0.0150328
771.551	0.0152075
771.629	0.0150862
771.707	0.0150971
771.785	0.0152306
771.863	0.0150684
771.942	0.0148277
772.020	0.0149837
772.098	0.0149821
772.176	0.0150148
772.254	0.0149383
772.332	0.0148359
772.410	0.0147706
772.488	0.0147882
772.567	0.0146431
772.645	0.0148296
772.723	0.0146803
772.801	0.0146300
772.879	0.0147121
772.957	0.0147935
773.035	0.0146483
773.113	0.0146297
773.192	0.0147506
773.270	0.0146402
773.348	0.0147461
773.426	0.0148490
773.504	0.0146674
773.582	0.0146399
773.660	0.0146335
773.738	0.0146169
773.817	0.0147492
773.895	0.0147935
773.973	0.0146218
774.051	0.0147713
774.129	0.0148301
774.207	0.0149447
774.285	0.0149509
774.363	0.0150028
774.442	0.0149918
774.520	0.0149641
774.598	0.0149837
774.676	0.0149822
774.754	0.0150155
774.832	0.0150038
774.910	0.0149944
774.988	0.0151263
775.067	0.0150275
775.145	0.0148151
775.223	0.0149378
775.301	0.0149030
775.379	0.0149650
775.457	0.0150082
775.535	0.0149469
775.613	0.0149078
775.692	0.0150421
775.770	0.0149178
775.848	0.0150501
775.926	0.0149879
776.004	0.0150682
776.082	0.0150810
776.160	0.0149522
776.238	0.0149907
776.317	0.0150544
776.395	0.0149567
776.473	0.0149843
776.551	0.0150648
776.629	0.0148767
776.707	0.0150210
776.785	0.0150388
776.863	0.0149122
776.942	0.0150337
777.020	0.0149390
777.098	0.0149942
777.176	0.0147439
777.254	0.0148634
777.332	0.0148389
777.410	0.0148754
777.488	0.0146751
777.567	0.0146702
777.645	0.0146434
777.723	0.0145606
777.801	0.0145313
777.879	0.0146170
777.957	0.0146090
778.035	0.0145461
778.113	0.0146951
778.192	0.0145699
778.270	0.0146429
778.348	0.0145892
778.426	0.0146882
778.504	0.0148540
778.582	0.0149300
778.660	0.0148809
778.738	0.0148583
778.817	0.0149046
778.895	0.0148804
778.973	0.0151398
779.051	0.0151820
779.129	0.0151052
779.207	0.0151038
779.285	0.0151107
779.363	0.0151242
779.442	0.0153127
779.520	0.0151559
779.598	0.0151196
779.676	0.0151376
779.754	0.0150396
779.832	0.0149639
779.910	0.0150777
779.988	0.0148632
780.067	0.0149774
780.145	0.0149448
780.223	0.0147667
780.301	0.0147588
780.379	0.0148129
780.457	0.0147204
780.535	0.0148253
780.613	0.0148226
780.692	0.0149082
780.770	0.0150221
780.848	0.0150774
780.926	0.0149529
781.004	0.0150011
781.082	0.0150347
781.160	0.0150127
781.238	0.0150562
781.317	0.0149943
781.395	0.0151014
781.473	0.0150542
781.551	0.0150053
781.629	0.0151859
781.707	0.0148958
781.785	0.0149599
781.863	0.0150053
781.942	0.0148014
782.020	0.0145573
782.098	0.0147811
782.176	0.0145915
782.254	0.0146982
782.332	0.0146956
782.410	0.0146480
782.488	0.0147073
782.567	0.0146404
782.645	0.0145782
782.723	0.0146814
782.801	0.0145426
782.879	0.0147106
782.957	0.0148068
783.035	0.0146368
783.113	0.0148391
783.192	0.0147677
783.270	0.0148354
783.348	0.0149448
783.426	0.0148557
783.504	0.0149822
783.582	0.0150305
783.660	0.0150506
783.738	0.0150427
783.817	0.0151420
783.895	0.0150590
783.973	0.0151951
784.051	0.0151314
784.129	0.0152560
784.207	0.0152772
784.285	0.0154695
784.363	0.0154625
784.442	0.0153231
784.520	0.0152640
784.598	0.0154583
784.676	0.0154579
784.754	0.0152270
784.832	0.0152987
784.910	0.0151083
784.988	0.0150441
785.067	0.0150374
785.145	0.0150701
785.223	0.0147979
785.301	0.0148482
785.379	0.0149050
785.457	0.0146329
785.535	0.0146864
785.613	0.0147908
785.692	0.0145172
785.770	0.0145583
785.848	0.0144173
785.926	0.0144689
786.004	0.0144214
786.082	0.0143218
786.160	0.0145361
786.238	0.0144807
786.317	0.0143964
786.395	0.0146370
786.473	0.0144962
786.551	0.0147571
786.629	0.0146483
786.707	0.0147362
786.785	0.0146944
786.863	0.0146426
786.942	0.0147778
787.020	0.0149378
787.098	0.0147626
787.176	0.0149587
787.254	0.0147345
787.332	0.0147740
787.410	0.0149659
787.488	0.0149673
787.567	0.0149680
787.645	0.0149667
787.723	0.0149711
787.801	0.0150899
787.879	0.0148757
787.957	0.0149622
788.035	0.0150344
788.113	0.0148956
788.192	0.0148391
788.270	0.0148347
788.348	0.0148373
788.426	0.0149679
788.504	0.0149258
788.582	0.0149498
788.660	0.0149448
788.738	0.0148800
788.817	0.0150608
788.895	0.0150778
788.973	0.0150403
789.051	0.0150787
789.129	0.0151278
789.207	0.0151089
789.285	0.0151218
789.363	0.0151664
789.442	0.0152034
789.520	0.0151351
789.598	0.0152548
789.676	0.0151903
789.754	0.0152539
789.832	0.0151659
789.910	0.0152281
789.988	0.0153677
790.067	0.0153068
790.145	0.0152647
790.223	0.0152911
790.301	0.0151878
790.379	0.0150604
790.457	0.0151193
790.535	0.0150227
790.613	0.0149622
790.692	0.0148801
790.770	0.0149092
790.848	0.0148165
790.926	0.0146846
791.004	0.0146368
791.082	0.0146382
791.160	0.0145235
791.238	0.0145632
791.317	0.0145290
791.395	0.0144741
791.473	0.0144563
791.551	0.0145171
791.629	0.0145428
791.707	0.0144147
791.785	0.0145416
791.863	0.0145206
791.942	0.0144348
792.020	0.0145710
792.098	0.0146852
792.176	0.0147043
792.254	0.0147734
792.332	0.0148911
792.410	0.0146924
792.488	0.0148344
792.567	0.0148376
792.645	0.0150002
792.723	0.0149669
792.801	0.0150690
792.879	0.0150288
792.957	0.0150713
793.035	0.0149846
793.113	0.0151001
793.192	0.0148333
793.270	0.0149873
793.348	0.0149132
793.426	0.0149062
793.504	0.0149909
793.582	0.0149414
793.660	0.0149903
793.738	0.0148964
793.817	0.0148759
793.895	0.0149362
793.973	0.0149350
794.051	0.0149626
794.129	0.0151359
794.207	0.0152033
794.285	0.0151519
794.363	0.0151531
794.442	0.0151399
794.520	0.0152602
794.598	0.0151656
794.676	0.0153648
794.754	0.0153548
794.832	0.0152264
794.910	0.0152804
794.988	0.0153367
795.067	0.0152957
795.145	0.0151920
795.223	0.0153281
795.301	0.0151965
795.379	0.0152289
795.457	0.0150818
795.535	0.0151175
795.613	0.0149754
795.692	0.0148860
795.770	0.0149624
795.848	0.0149231
795.926	0.0149352
796.004	0.0148652
796.082	0.0146486
796.160	0.0146619
796.238	0.0146873
796.317	0.0146250
796.395	0.0145405
796.473	0.0145621
796.551	0.0145781
796.629	0.0144796
796.707	0.0144048
796.785	0.0143383
796.863	0.0142909
796.942	0.0143020
797.020	0.0143262
797.098	0.0143650
797.176	0.0143884
797.254	0.0144530
797.332	0.0145124
797.410	0.0144681
797.488	0.0147821
797.567	0.0146983
797.645	0.0148399
797.723	0.0149281
797.801	0.0148942
797.879	0.0151077
797.957	0.0151637
798.035	0.0150983
798.113	0.0153126
798.192	0.0152715
798.270	0.0152542
798.348	0.0152882
798.426	0.0153292
798.504	0.0153377
798.582	0.0152414
798.660	0.0153390
798.738	0.0151273
798.817	0.0150365
798.895	0.0150078
798.973	0.0150515
799.051	0.0149601
799.129	0.0149039
799.207	0.0148872
799.285	0.0148806
799.363	0.0149287
799.442	0.0148516
799.520	0.0148856
799.598	0.0148533
799.676	0.0147745
799.754	0.0150060
799.832	0.0148795
799.910	0.0148798
799.988	0.0148433
800.067	0.0149894
800.145	0.0150481
800.223	0.0150585
800.301	0.0150266
800.379	0.0149247
800.457	0.0148995
800.535	0.0148656
800.613	0.0148534
800.692	0.0148941
800.770	0.0149937
800.848	0.0149689
800.926	0.0149027
801.004	0.0148547
801.082	0.0148432
801.160	0.0149210
801.238	0.0147622
801.317	0.0148018
801.395	0.0148595
801.473	0.0148601
801.551	0.0147411
801.629	0.0147345
801.707	0.0147115
801.785	0.0147006
801.863	0.0146918
801.942	0.0146841
802.020	0.0145815
802.098	0.0145605
802.176	0.0146831
802.254	0.0145628
802.332	0.0146058
802.410	0.0146108
802.488	0.0146506
802.567	0.0144586
802.645	0.0145309
802.723	0.0146780
802.801	0.0147401
802.879	0.0146972
802.957	0.0147582
803.035	0.0148773
803.113	0.0148109
803.192	0.0148116
803.270	0.0149342
803.348	0.0149942
803.426	0.0150619
803.504	0.0151270
803.582	0.0150107
803.660	0.0151153
803.738	0.0152086
803.817	0.0150725
803.895	0.0149144
803.973	0.0151410
804.051	0.0151254
804.129	0.0150315
804.207	0.0147804
804.285	0.0149015
804.363	0.0148166
804.442	0.0149732
804.520	0.0148591
804.598	0.0148097
804.676	0.0149689
804.754	0.0148216
804.832	0.0148580
804.910	0.0147948
804.988	0.0148154
805.067	0.0149052
805.145	0.0148955
805.223	0.0149657
805.301	0.0151032
805.379	0.0150663
805.457	0.0149527
805.535	0.0150069
805.613	0.0152149
805.692	0.0150732
805.770	0.0150584
805.848	0.0151502
805.926	0.0152402
806.004	0.0151894
806.082	0.0152573
806.160	0.0151745
806.238	0.0152206
806.317	0.0151089
806.395	0.0151763
806.473	0.0152300
806.551	0.0150744
806.629	0.0151692
806.707	0.0151861
806.785	0.0149293
806.863	0.0148089
806.942	0.0147227
807.020	0.0147871
807.098	0.0145432
807.176	0.0145890
807.254	0.0144966
807.332	0.0144987
807.410	0.0144922
807.488	0.0144231
807.567	0.0144435
807.645	0.0143037
807.723	0.0143464
807.801	0.0144473
807.879	0.0140580
807.957	0.0142887
808.035	0.0145067
808.113	0.0144752
808.192	0.0144740
808.270	0.0145193
808.348	0.0146735
808.426	0.0146540
808.504	0.0149375
808.582	0.0148560
808.660	0.0148782
808.738	0.0148589
808.817	0.0150543
808.895	0.0151146
808.973	0.0151661
809.051	0.0151746
809.129	0.0151939
809.207	0.0153433
809.285	0.0153434
809.363	0.0155269
809.442	0.0154567
809.520	0.0152908
809.598	0.0153593
809.676	0.0153455
809.754	0.0153998
809.832	0.0153008
809.910	0.0152296
809.988	0.0152547
810.067	0.0150671
810.145	0.0150935
810.223	0.0149532
810.301	0.0149741
810.379	0.0149334
810.457	0.0148093
810.535	0.0149914
810.613	0.0148154
810.692	0.0147739
810.770	0.0146418
810.848	0.0147643
810.926	0.0147377
811.004	0.0146756
811.082	0.0145995
811.160	0.0146581
811.238	0.0147501
811.317	0.0147940
811.395	0.0148712
811.473	0.0148930
811.551	0.0148929
811.629	0.0149007
811.707	0.0147564
811.785	0.0147591
811.863	0.0149930
811.942	0.0149895
812.020	0.0149057
812.098	0.0149253
812.176	0.0150881
812.254	0.0149611
812.332	0.0149039
812.410	0.0149724
812.488	0.0148443
812.567	0.0148308
812.645	0.0149128
812.723	0.0147507
812.801	0.0147529
812.879	0.0147626
812.957	0.0146082
813.035	0.0147022
813.113	0.0145016
813.192	0.0145812
813.270	0.0147041
813.348	0.0145284
813.426	0.0145342
813.504	0.0147177
813.582	0.0147451
813.660	0.0147083
813.738	0.0146442
813.817	0.0148108
813.895	0.0149139
813.973	0.0148503
814.051	0.0149677
814.129	0.0149772
814.207	0.0149922
814.285	0.0151716
814.363	0.0152977
814.442	0.0151481
814.520	0.0153173
814.598	0.0153279
814.676	0.0154211
814.754	0.0153265
814.832	0.0152227
814.910	0.0155415
814.988	0.0152726
815.067	0.0151815
815.145	0.0151951
815.223	0.0152290
815.301	0.0149995
815.379	0.0148598
815.457	0.0149332
815.535	0.0149096
815.613	0.0147781
815.692	0.0147163
815.770	0.0147152
815.848	0.0147940
815.926	0.0145833
816.004	0.0147580
816.082	0.0146918
816.160	0.0145288
816.238	0.0146229
816.317	0.0146252
816.395	0.0146224
816.473	0.0146349
816.551	0.0145692
816.629	0.0147718
816.707	0.0147206
816.785	0.0147444
816.863	0.0147530
816.942	0.0149626
817.020	0.0149376
817.098	0.0149184
817.176	0.0149622
817.254	0.0149319
817.332	0.0149392
817.410	0.0151344
817.488	0.0150040
817.567	0.0149271
817.645	0.0150886
817.723	0.0150220
817.801	0.0150127
817.879	0.0149106
817.957	0.0148891
818.035	0.0148900
818.113	0.0148641
818.192	0.0148188
818.270	0.0147498
818.348	0.0146757
818.426	0.0146911
818.504	0.0146792
818.582	0.0146035
818.660	0.0145618
818.738	0.0146606
818.817	0.0146446
818.895	0.0145499
818.973	0.0145876
819.051	0.0145674
819.129	0.0146592
819.207	0.0146681
819.285	0.0147303
819.363	0.0147162
819.442	0.0146892
819.520	0.0147259
819.598	0.0147182
819.676	0.0149163
819.754	0.0150337
819.832	0.0149775
819.910	0.0150211
819.988	0.0152238
820.067	0.0151543
820.145	0.0151021
820.223	0.0152995
820.301	0.0153276
820.379	0.0155527
820.457	0.0153003
820.535	0.0151878
820.613	0.0152876
820.692	0.0153397
820.770	0.0152708
820.848	0.0151257
820.926	0.0151720
821.004	0.0151580
821.082	0.0150610
821.160	0.0148227
821.238	0.0149875
821.317	0.0149249
821.395	0.0148593
821.473	0.0150449
821.551	0.0149199
821.629	0.0145821
821.707	0.0148008
821.785	0.0146752
821.863	0.0146904
821.942	0.0147169
822.020	0.0146857
822.098	0.0147208
822.176	0.0148215
822.254	0.0147149
822.332	0.0146945
822.410	0.0146922
822.488	0.0148036
822.567	0.0147182
822.645	0.0147012
822.723	0.0147320
822.801	0.0146065
822.879	0.0147000
822.957	0.0147419
823.035	0.0146515
823.113	0.0146886
823.192	0.0148113
823.270	0.0146695
823.348	0.0146706
823.426	0.0145860
823.504	0.0146311
823.582	0.0147829
823.660	0.0146862
823.738	0.0147587
823.817	0.0146889
823.895	0.0146815
823.973	0.0147852
824.051	0.0147896
824.129	0.0147160
824.207	0.0148419
824.285	0.0148657
824.363	0.0148949
824.442	0.0148888
824.520	0.0148355
824.598	0.0148319
824.676	0.0147507
824.754	0.0150060
824.832	0.0149382
824.910	0.0150713
824.988	0.0149669
825.067	0.0149955
825.145	0.0149611
825.223	0.0151817
825.301	0.0151804
825.379	0.0151265
825.457	0.0151197
825.535	0.0151191
825.613	0.0151958
825.692	0.0151537
825.770	0.0152041
825.848	0.0152358
825.926	0.0151225
826.004	0.0150645
826.082	0.0150533
826.160	0.0150501
826.238	0.0151056
826.317	0.0150487
826.395	0.0148755
826.473	0.0150242
826.551	0.0150423
826.629	0.0147675
826.707	0.0147424
826.785	0.0147243
826.863	0.0145423
826.942	0.0147099
827.020	0.0147084
827.098	0.0145383
827.176	0.0146104
827.254	0.0144535
827.332	0.0145634
827.410	0.0144248
827.488	0.0142901
827.567	0.0145670
827.645	0.0145425
827.723	0.0144405
827.801	0.0144944
827.879	0.0146098
827.957	0.0145559
828.035	0.0146127
828.113	0.0145885
828.192	0.0148633
828.270	0.0148072
828.348	0.0148101
828.426	0.0149094
828.504	0.0148235
828.582	0.0149348
828.660	0.0149368
828.738	0.0149208
828.817	0.0150126
828.895	0.0150061
828.973	0.0149528
829.051	0.0149809
829.129	0.0150193
829.207	0.0149876
829.285	0.0148710
829.363	0.0149065
829.442	0.0150665
829.520	0.0148685
829.598	0.0149038
829.676	0.0149753
829.754	0.0149757
829.832	0.0148138
829.910	0.0148109
829.988	0.0148283
830.067	0.0147904
830.145	0.0148595
830.223	0.0147929
830.301	0.0149004
830.379	0.0149266
830.457	0.0149017
830.535	0.0147444
830.613	0.0148517
830.692	0.0150183
830.770	0.0149704
830.848	0.0148843
830.926	0.0150529
831.004	0.0151624
831.082	0.0149993
831.160	0.0151120
831.238	0.0150982
831.317	0.0149975
831.395	0.0151011
831.473	0.0150330
831.551	0.0151411
831.629	0.0149070
831.707	0.0149812
831.785	0.0150221
831.863	0.0148987
831.942	0.0149568
832.020	0.0147745
832.098	0.0148588
832.176	0.0149568
832.254	0.0146213
832.332	0.0146496
832.410	0.0146893
832.488	0.0145827
832.567	0.0146561
832.645	0.0146105
832.723	0.0145561
832.801	0.0147324
832.879	0.0146072
832.957	0.0145763
833.035	0.0146691
833.113	0.0146631
833.192	0.0147500
833.270	0.0146656
833.348	0.0148058
833.426	0.0147695
833.504	0.0149549
833.582	0.0149572
833.660	0.0149409
833.738	0.0151617
833.817	0.0151228
833.895	0.0150464
833.973	0.0150629
834.051	0.0149791
834.129	0.0149784
834.207	0.0150076
834.285	0.0149956
834.363	0.0149687
834.442	0.0148995
834.520	0.0149083
834.598	0.0148434
834.676	0.0149004
834.754	0.0147879
834.832	0.0147075
834.910	0.0146734
834.988	0.0146183
835.067	0.0147491
835.145	0.0147309
835.223	0.0148702
835.301	0.0148444
835.379	0.0147572
835.457	0.0146110
835.535	0.0146645
835.613	0.0149476
835.692	0.0147861
835.770	0.0147443
835.848	0.0147734
835.926	0.0149144
836.004	0.0148479
836.082	0.0150084
836.160	0.0150271
836.238	0.0149982
836.317	0.0150146
836.395	0.0149598
836.473	0.0150992
836.551	0.0150349
836.629	0.0150182
836.707	0.0150418
836.785	0.0150858
836.863	0.0151804
836.942	0.0150687
837.020	0.0150744
837.098	0.0151088
837.176	0.0150954
837.254	0.0151014
837.332	0.0148752
837.410	0.0150172
837.488	0.0150518
837.567	0.0150541
837.645	0.0149563
837.723	0.0149342
837.801	0.0147942
837.879	0.0146706
837.957	0.0146611
838.035	0.0147308
838.113	0.0146171
838.192	0.0146111
838.270	0.0147275
838.348	0.0145876
838.426	0.0145908
838.504	0.0145779
838.582	0.0146706
838.660	0.0146274
838.738	0.0145171
838.817	0.0147731
838.895	0.0147724
838.973	0.0147636
839.051	0.0148094
839.129	0.0149057
839.207	0.0149499
839.285	0.0148798
839.363	0.0147812
839.442	0.0148215
839.520	0.0149397
839.598	0.0148641
839.676	0.0148167
839.754	0.0147703
839.832	0.0149265
839.910	0.0148920
839.988	0.0147662
840.067	0.0148472
840.145	0.0148964
840.223	0.0150103
840.301	0.0148522
840.379	0.0148305
840.457	0.0149059
840.535	0.0150642
840.613	0.0149492
840.692	0.0148914
840.770	0.0149866
840.848	0.0149612
840.926	0.0148352
841.004	0.0149659
841.082	0.0148671
841.160	0.0148926
841.238	0.0149279
841.317	0.0148352
841.395	0.0149677
841.473	0.0150671
841.551	0.0148937
841.629	0.0147639
841.707	0.0149626
841.785	0.0151243
841.863	0.0150265
841.942	0.0150622
842.020	0.0150305
842.098	0.0150712
842.176	0.0149903
842.254	0.0150349
842.332	0.0150044
842.410	0.0150768
842.488	0.0149292
842.567	0.0149531
842.645	0.0150112
842.723	0.0151124
842.801	0.0150919
842.879	0.0149483
842.957	0.0148547
843.035	0.0148761
843.113	0.0148060
843.192	0.0146719
843.270	0.0147238
843.348	0.0147589
843.426	0.0145914
843.504	0.0144824
843.582	0.0147084
843.660	0.0146735
843.738	0.0146876
843.817	0.0146226
843.895	0.0145364
843.973	0.0146451
844.051	0.0147153
844.129	0.0148214
844.207	0.0148183
844.285	0.0147926
844.363	0.0149220
844.442	0.0148217
844.520	0.0148677
844.598	0.0149729
844.676	0.0149696
844.754	0.0148432
844.832	0.0149190
844.910	0.0149276
844.988	0.0149558
845.067	0.0149138
845.145	0.0148419
845.223	0.0150552
845.301	0.0149121
845.379	0.0149261
845.457	0.0150970
845.535	0.0149540
845.613	0.0148946
845.692	0.0148781
845.770	0.0149177
845.848	0.0148640
845.926	0.0150055
846.004	0.0146786
846.082	0.0148160
846.160	0.0147938
846.238	0.0148092
846.317	0.0148124
846.395	0.0147693
846.473	0.0148233
846.551	0.0147884
846.629	0.0149027
846.707	0.0149316
846.785	0.0147981
846.863	0.0149770
846.942	0.0149227
847.020	0.0149155
847.098	0.0149757
847.176	0.0149521
847.254	0.0148466
847.332	0.0149421
847.410	0.0149352
847.488	0.0150877
847.567	0.0150541
847.645	0.0149784
847.723	0.0150880
847.801	0.0150767
847.879	0.0150188
847.957	0.0149030
848.035	0.0149364
848.113	0.0148168
848.192	0.0149333
848.270	0.0149200
848.348	0.0149331
848.426	0.0148470
848.504	0.0148474
848.582	0.0149682
848.660	0.0148102
848.738	0.0147568
848.817	0.0147349
848.895	0.0148535
848.973	0.0147633
849.051	0.0148367
849.129	0.0147620
849.207	0.0147080
849.285	0.0148116
849.363	0.0147903
849.442	0.0148203
849.520	0.0148464
849.598	0.0148383
849.676	0.0148615
849.754	0.0149014
849.832	0.0148512
849.910	0.0148882
849.988	0.0149273
850.067	0.0149158
850.145	0.0148759
850.223	0.0148446
850.301	0.0146988
850.379	0.0149849
850.457	0.0148206
850.535	0.0148948
850.613	0.0148387
850.692	0.0148856
850.770	0.0149294
850.848	0.0148016
850.926	0.0146588
851.004	0.0147829
851.082	0.0147150
851.160	0.0147128
851.238	0.0147504
851.317	0.0148808
851.395	0.0147387
851.473	0.0149012
851.551	0.0148576
851.629	0.0148351
851.707	0.0149615
851.785	0.0149049
851.863	0.0148937
851.942	0.0149890
852.020	0.0149842
852.098	0.0150217
852.176	0.0149557
852.254	0.0150211
852.332	0.0150373
852.410	0.0149773
852.488	0.0152027
852.567	0.0150449
852.645	0.0150269
852.723	0.0147897
852.801	0.0148743
852.879	0.0149316
852.957	0.0148195
853.035	0.0149951
853.113	0.0148328
853.192	0.0148727
853.270	0.0148627
853.348	0.0149593
853.426	0.0147271
853.504	0.0147823
853.582	0.0148187
853.660	0.0149073
853.738	0.0147533
853.817	0.0148971
853.895	0.0147872
853.973	0.0148923
854.051	0.0148525
854.129	0.0148550
854.207	0.0147515
854.285	0.0149689
854.363	0.0148827
854.442	0.0148608
854.520	0.0148995
854.598	0.0148306
854.676	0.0147785
854.754	0.0149563
854.832	0.0148710
854.910	0.0147787
854.988	0.0147902
855.067	0.0149248
855.145	0.0150085
855.223	0.0148875
855.301	0.0148181
855.379	0.0147701
855.457	0.0148470
855.535	0.0149973
855.613	0.0148689
855.692	0.0148450
855.770	0.0148229
855.848	0.0149261
855.926	0.0149059
856.004	0.0148659
856.082	0.0148826
856.160	0.0150064
856.238	0.0150760
856.317	0.0148347
856.395	0.0149102
856.473	0.0149198
856.551	0.0148453
856.629	0.0149355
856.707	0.0148754
856.785	0.0149081
856.863	0.0150160
856.942	0.0148220
857.020	0.0147766
857.098	0.0150227
857.176	0.0148406
857.254	0.0148605
857.332	0.0150127
857.410	0.0148321
857.488	0.0148885
857.567	0.0149097
857.645	0.0148736
857.723	0.0149551
857.801	0.0148409
857.879	0.0148497
857.957	0.0148180
858.035	0.0149039
858.113	0.0149574
858.192	0.0148761
858.270	0.0148967
858.348	0.0147852
858.426	0.0148642
858.504	0.0148730
858.582	0.0149635
858.660	0.0148862
858.738	0.0148650
858.817	0.0148274
858.895	0.0149232
858.973	0.0147913
859.051	0.0148089
859.129	0.0148557
859.207	0.0147107
859.285	0.0148717
859.363	0.0151321
859.442	0.0148483
859.520	0.0148576
859.598	0.0149004
859.676	0.0150473
859.754	0.0149160
859.832	0.0148872
859.910	0.0149624
859.988	0.0148531
860.067	0.0148251
860.145	0.0148948
860.223	0.0148786
860.301	0.0149138
860.379	0.0149865
860.457	0.0148941
860.535	0.0150167
860.613	0.0150322
860.692	0.0149117
860.770	0.0148046
860.848	0.0148930
860.926	0.0148270
861.004	0.0148445
861.082	0.0149691
861.160	0.0148188
861.238	0.0148775
861.317	0.0147747
861.395	0.0149215
861.473	0.0148891
861.551	0.0149024
861.629	0.0148499
861.707	0.0149407
861.785	0.0149005
861.863	0.0149133
861.942	0.0149115
862.020	0.0148793
862.098	0.0148375
862.176	0.0148384
862.254	0.0148882
862.332	0.0148653
862.410	0.0149809
862.488	0.0148124
862.567	0.0148650
862.645	0.0148898
862.723	0.0149201
862.801	0.0149227
862.879	0.0149117
862.957	0.0147621
863.035	0.0148603
863.113	0.0148655
863.192	0.0149320
863.270	0.0150517
863.348	0.0149757
863.426	0.0148356
863.504	0.0148296
863.582	0.0150253
863.660	0.0150014
863.738	0.0149321
863.817	0.0148705
863.895	0.0148251
863.973	0.0148928
864.051	0.0148623
864.129	0.0149088
864.207	0.0148175
864.285	0.0148360
864.363	0.0148537
864.442	0.0149734
864.520	0.0149109
864.598	0.0149832
864.676	0.0150547
864.754	0.0150294
864.832	0.0149892
864.910	0.0149942
864.988	0.0150908
865.067	0.0149882
865.145	0.0150726
865.223	0.0151435
865.301	0.0148734
865.379	0.0147821
865.457	0.0148553
865.535	0.0148578
865.613	0.0148161
865.692	0.0147709
865.770	0.0149110
865.848	0.0147955
865.926	0.0147816
866.004	0.0147964
866.082	0.0147046
866.160	0.0147687
866.238	0.0148642
866.317	0.0147674
866.395	0.0148809
866.473	0.0147124
866.551	0.0147774
866.629	0.0148053
866.707	0.0149980
866.785	0.0150271
866.863	0.0149500
866.942	0.0148793
867.020	0.0149970
867.098	0.0151110
867.176	0.0149986
867.254	0.0150079
867.332	0.0148251
867.410	0.0149093
867.488	0.0149386
867.567	0.0149056
867.645	0.0148483
867.723	0.0147939
867.801	0.0148527
867.879	0.0148468
867.957	0.0147893
868.035	0.0147559
868.113	0.0147692
868.192	0.0149348
868.270	0.0148235
868.348	0.0147543
868.426	0.0150220
868.504	0.0148931
868.582	0.0147944
868.660	0.0148454
868.738	0.0149317
868.817	0.0148917
868.895	0.0149997
868.973	0.0149285
869.051	0.0148962
869.129	0.0149284
869.207	0.0147838
869.285	0.0148552
869.363	0.0149629
869.442	0.0149237
869.520	0.0149164
869.598	0.0148071
869.676	0.0147892
869.754	0.0149436
869.832	0.0148589
869.910	0.0148868
869.988	0.0148846
870.067	0.0149517
870.145	0.0149483
870.223	0.0149631
870.301	0.0148978
870.379	0.0150010
870.457	0.0150499
870.535	0.0149955
870.613	0.0149722
870.692	0.0150356
870.770	0.0151330
870.848	0.0150738
870.926	0.0151614
871.004	0.0151713
871.082	0.0150439
871.160	0.0150909
871.238	0.0151252
871.317	0.0149300
871.395	0.0149475
871.473	0.0149870
871.551	0.0149666
871.629	0.0147997
871.707	0.0147755
871.785	0.0148586
871.863	0.0147968
871.942	0.0147217
872.020	0.0147565
872.098	0.0148207
872.176	0.0148412
872.254	0.0148083
872.332	0.0148762
872.410	0.0147675
872.488	0.0148315
872.567	0.0147543
872.645	0.0147164
872.723	0.0147208
872.801	0.0149079
872.879	0.0150306
872.957	0.0149260
873.035	0.0148869
873.113	0.0147293
873.192	0.0147686
873.270	0.0147065
873.348	0.0147837
873.426	0.0148310
873.504	0.0148958
873.582	0.0149215
873.660	0.0149078
873.738	0.0147855
873.817	0.0148473
873.895	0.0148872
873.973	0.0149075
874.051	0.0148283
874.129	0.0148724
874.207	0.0148303
874.285	0.0146392
874.363	0.0147610
874.442	0.0148382
874.520	0.0148284
874.598	0.0146738
874.676	0.0147876
874.754	0.0148180
874.832	0.0146343
874.910	0.0148029
874.988	0.0147472
875.067	0.0147659
875.145	0.0150017
875.223	0.0149973
875.301	0.0147953
875.379	0.0150089
875.457	0.0150815
875.535	0.0151428
875.613	0.0150194
875.692	0.0152738
875.770	0.0151465
875.848	0.0150885
875.926	0.0151042
876.004	0.0151229
876.082	0.0151722
876.160	0.0150016
876.238	0.0149693
876.317	0.0150060
876.395	0.0149857
876.473	0.0149297
876.551	0.0146493
876.629	0.0147826
876.707	0.0148160
876.785	0.0147061
876.863	0.0146993
876.942	0.0145580
877.020	0.0147195
877.098	0.0145496
877.176	0.0145280
877.254	0.0146554
877.332	0.0146493
877.410	0.0147003
877.488	0.0146638
877.567	0.0147708
877.645	0.0149293
877.723	0.0149065
877.801	0.0149117
877.879	0.0149255
877.957	0.0148355
878.035	0.0148476
878.113	0.0148975
878.192	0.0147917
878.270	0.0149348
878.348	0.0148230
878.426	0.0148518
878.504	0.0149699
878.582	0.0149355
878.660	0.0149088
878.738	0.0148878
878.817	0.0148855
878.895	0.0149004
878.973	0.0148637
879.051	0.0149379
879.129	0.0149014
879.207	0.0148888
879.285	0.0147182
879.363	0.0148872
879.442	0.0150582
879.520	0.0148635
879.598	0.0149580
879.676	0.0151736
879.754	0.0150790
879.832	0.0151081
879.910	0.0151062
879.988	0.0151359
880.067	0.0150758
880.145	0.0150158
880.223	0.0151297
880.301	0.0150874
880.379	0.0151711
880.457	0.0151475
880.535	0.0149728
880.613	0.0148747
880.692	0.0147839
880.770	0.0149343
880.848	0.0149358
880.926	0.0148028
881.004	0.0148454
881.082	0.0147928
881.160	0.0146599
881.238	0.0146690
881.317	0.0147015
881.395	0.0148077
881.473	0.0148219
881.551	0.0148399
881.629	0.0149162
881.707	0.0148003
881.785	0.0147622
881.863	0.0148461
881.942	0.0150391
882.020	0.0149384
882.098	0.0149215
882.176	0.0149182
882.254	0.0148548
882.332	0.0148503
882.410	0.0148717
882.488	0.0148226
882.567	0.0148676
882.645	0.0146426
882.723	0.0147402
882.801	0.0149576
882.879	0.0147247
882.957	0.0149199
883.035	0.0148151
883.113	0.0147727
883.192	0.0148477
883.270	0.0149056
883.348	0.0148478
883.426	0.0146947
883.504	0.0147415
883.582	0.0148701
883.660	0.0149175
883.738	0.0148228
883.817	0.0149402
883.895	0.0149030
883.973	0.0149223
884.051	0.0151112
884.129	0.0150191
884.207	0.0151289
884.285	0.0149814
884.363	0.0148480
884.442	0.0149821
884.520	0.0150582
884.598	0.0150191
884.676	0.0148920
884.754	0.0149845
884.832	0.0150565
884.910	0.0149049
884.988	0.0148316
885.067	0.0149211
885.145	0.0149540
885.223	0.0147620
885.301	0.0148099
885.379	0.0149399
885.457	0.0148346
885.535	0.0149770
885.613	0.0150273
885.692	0.0148946
885.770	0.0149933
885.848	0.0148196
885.926	0.0148460
886.004	0.0148506
886.082	0.0147873
886.160	0.0148305
886.238	0.0148302
886.317	0.0147127
886.395	0.0148161
886.473	0.0147765
886.551	0.0148392
886.629	0.0148389
886.707	0.0147424
886.785	0.0148471
886.863	0.0147626
886.942	0.0148470
887.020	0.0147711
887.098	0.0147665
887.176	0.0148288
887.254	0.0148535
887.332	0.0149253
887.410	0.0148283
887.488	0.0148324
887.567	0.0150575
887.645	0.0149435
887.723	0.0149630
887.801	0.0149570
887.879	0.0150360
887.957	0.0149523
888.035	0.0149859
888.113	0.0149093
888.192	0.0149889
888.270	0.0149352
888.348	0.0149605
888.426	0.0148969
888.504	0.0149268
888.582	0.0148758
888.660	0.0149225
888.738	0.0149244
888.817	0.0148998
888.895	0.0149609
888.973	0.0150785
889.051	0.0148980
889.129	0.0147580
889.207	0.0149273
889.285	0.0149647
889.363	0.0148386
889.442	0.0150296
889.520	0.0150536
889.598	0.0150558
889.676	0.0150069
889.754	0.0150630
889.832	0.0150610
889.910	0.0150943
889.988	0.0151090
890.067	0.0151061
890.145	0.0150643
890.223	0.0151005
890.301	0.0150492
890.379	0.0151466
890.457	0.0149506
890.535	0.0148860
890.613	0.0148817
890.692	0.0148048
890.770	0.0148545
890.848	0.0147688
890.926	0.0146848
891.004	0.0147438
891.082	0.0147143
891.160	0.0146827
891.238	0.0147160
891.317	0.0146172
891.395	0.0146802
891.473	0.0148212
891.551	0.0146736
891.629	0.0146336
891.707	0.0146471
891.785	0.0148549
891.863	0.0147343
891.942	0.0148547
892.020	0.0147218
892.098	0.0148952
892.176	0.0148914
892.254	0.0148507
892.332	0.0150253
892.410	0.0151060
892.488	0.0149780
892.567	0.0150710
892.645	0.0150576
892.723	0.0150096
892.801	0.0149075
892.879	0.0148621
892.957	0.0149265
893.035	0.0150777
893.113	0.0150361
893.192	0.0148847
893.270	0.0150221
893.348	0.0148973
893.426	0.0149551
893.504	0.0149362
893.582	0.0148260
893.660	0.0149468
893.738	0.0147750
893.817	0.0147629
893.895	0.0149609
893.973	0.0149001
894.051	0.0148415
894.129	0.0148509
894.207	0.0150098
894.285	0.0149350
894.363	0.0149004
894.442	0.0148717
894.520	0.0150170
894.598	0.0149837
894.676	0.0150532
894.754	0.0149303
894.832	0.0150189
894.910	0.0149668
894.988	0.0150471
895.067	0.0149921
895.145	0.0150381
895.223	0.0150755
895.301	0.0149215
895.379	0.0149171
895.457	0.0148969
895.535	0.0149959
895.613	0.0148909
895.692	0.0149169
895.770	0.0149236
895.848	0.0147313
895.926	0.0147651
896.004	0.0148038
896.082	0.0147827
896.160	0.0148931
896.238	0.0149323
896.317	0.0148652
896.395	0.0149686
896.473	0.0149498
896.551	0.0148750
896.629	0.0148578
896.707	0.0149906
896.785	0.0149300
896.863	0.0148961
896.942	0.0149497
897.020	0.0150545
897.098	0.0149635
897.176	0.0148476
897.254	0.0148215
897.332	0.0148611
897.410	0.0149202
897.488	0.0149625
897.567	0.0148833
897.645	0.0146427
897.723	0.0147740
897.801	0.0148650
897.879	0.0146960
897.957	0.0147947
898.035	0.0148016
898.113	0.0146215
898.192	0.0147006
898.270	0.0148215
898.348	0.0147203
898.426	0.0147688
898.504	0.0147375
898.582	0.0148289
898.660	0.0146802
898.738	0.0147359
898.817	0.0149107
898.895	0.0148151
898.973	0.0148074
899.051	0.0147299
899.129	0.0147670
899.207	0.0148531
899.285	0.0148682
899.363	0.0149207
899.442	0.0148290
899.520	0.0149348
899.598	0.0149891
899.676	0.0150035
899.754	0.0150471
899.832	0.0150140
899.910	0.0150233
899.988	0.0150182
900.067	0.0149393
900.145	0.0149757
900.223	0.0150135
900.301	0.0149134
900.379	0.0149610
900.457	0.0149809
900.535	0.0151382
900.613	0.0150400
900.692	0.0150514
900.770	0.0150159
900.848	0.0150539
900.926	0.0150141
901.004	0.0148106
901.082	0.0148725
901.160	0.0149937
901.238	0.0148706
901.317	0.0149126
901.395	0.0149047
901.473	0.0148526
901.551	0.0147778
901.629	0.0149339
901.707	0.0148543
901.785	0.0148889
901.863	0.0149093
901.942	0.0149226
902.020	0.0148277
902.098	0.0149249
902.176	0.0147471
902.254	0.0146481
902.332	0.0149483
902.410	0.0148676
902.488	0.0147847
902.567	0.0148122
902.645	0.0148277
902.723	0.0147564
902.801	0.0148317
902.879	0.0146629
902.957	0.0147892
903.035	0.0147865
903.113	0.0147706
903.192	0.0149601
903.270	0.0147034
903.348	0.0148160
903.426	0.0148146
903.504	0.0147458
903.582	0.0148917
903.660	0.0147573
903.738	0.0149015
903.817	0.0149310
903.895	0.0148032
903.973	0.0148149
904.051	0.0150966
904.129	0.0148896
904.207	0.0148650
904.285	0.0149247
904.363	0.0148557
904.442	0.0148366
904.520	0.0148354
904.598	0.0150259
904.676	0.0150536
904.754	0.0149567
904.832	0.0147963
904.910	0.0148759
904.988	0.0150756
905.067	0.0150167
905.145	0.0150352
905.223	0.0149167
905.301	0.0148816
905.379	0.0149553
905.457	0.0148460
905.535	0.0148302
905.613	0.0148791
905.692	0.0149559
905.770	0.0148392
905.848	0.0148876
905.926	0.0149542
906.004	0.0150960
906.082	0.0149250
906.160	0.0148302
906.238	0.0148961
906.317	0.0149954
906.395	0.0148944
906.473	0.0149489
906.551	0.0149001
906.629	0.0147840
906.707	0.0147594
906.785	0.0149506
906.863	0.0150946
906.942	0.0148111
907.020	0.0147646
907.098	0.0148523
907.176	0.0149655
907.254	0.0149442
907.332	0.0149438
907.410	0.0148991
907.488	0.0148563
907.567	0.0148900
907.645	0.0149246
907.723	0.0149123
907.801	0.0148096
907.879	0.0147673
907.957	0.0148653
908.035	0.0148608
908.113	0.0150117
908.192	0.0149172
908.270	0.0148994
908.348	0.0148238
908.426	0.0148747
908.504	0.0149292
908.582	0.0148849
908.660	0.0148817
908.738	0.0149078
908.817	0.0148732
908.895	0.0148129
908.973	0.0148032
909.051	0.0148019
909.129	0.0148683
909.207	0.0147543
909.285	0.0147853
909.363	0.0147958
909.442	0.0149016
909.520	0.0148626
909.598	0.0150237
909.676	0.0149250
909.754	0.0148778
909.832	0.0148340
909.910	0.0148238
909.988	0.0148714
910.067	0.0148420
910.145	0.0149674
910.223	0.0148063
910.301	0.0149763
910.379	0.0149889
910.457	0.0149216
910.535	0.0151020
910.613	0.0149296
910.692	0.0150222
910.770	0.0149832
910.848	0.0148144
910.926	0.0149960
911.004	0.0148579
911.082	0.0149928
911.160	0.0150066
911.238	0.0148807
911.317	0.0149277
911.395	0.0149635
911.473	0.0147398
911.551	0.0147935
911.629	0.0149052
911.707	0.0149545
911.785	0.0147953
911.863	0.0147481
911.942	0.0147719
912.020	0.0148495
912.098	0.0147759
912.176	0.0148053
912.254	0.0148484
912.332	0.0147897
912.410	0.0147396
912.488	0.0146775
912.567	0.0147356
912.645	0.0146732
912.723	0.0148281
912.801	0.0149389
912.879	0.0148785
912.957	0.0149409
913.035	0.0148721
913.113	0.0150198
913.192	0.0148944
913.270	0.0148979
913.348	0.0148258
913.426	0.0150365
913.504	0.0148566
913.582	0.0148573
913.660	0.0148082
913.738	0.0148370
913.817	0.0148486
913.895	0.0148918
913.973	0.0148499
914.051	0.0149186
914.129	0.0149689
914.207	0.0149483
914.285	0.0149476
914.363	0.0147726
914.442	0.0148132
914.520	0.0148306
914.598	0.0148315
914.676	0.0147714
914.754	0.0148497
914.832	0.0148396
914.910	0.0148270
914.988	0.0148145
915.067	0.0147266
915.145	0.0148190
915.223	0.0146690
915.301	0.0147443
915.379	0.0147813
915.457	0.0147488
915.535	0.0147006
915.613	0.0147269
915.692	0.0147990
915.770	0.0148914
915.848	0.0148555
915.926	0.0148837
916.004	0.0149052
916.082	0.0147147
916.160	0.0149537
916.238	0.0150414
916.317	0.0148727
916.395	0.0148071
916.473	0.0146664
916.551	0.0148479
916.629	0.0148808
916.707	0.0149208
916.785	0.0149049
916.863	0.0149947
916.942	0.0148506
917.020	0.0148207
917.098	0.0147925
917.176	0.0148074
917.254	0.0147774
917.332	0.0148669
917.410	0.0147487
917.488	0.0148260
917.567	0.0149576
917.645	0.0148942
917.723	0.0148054
917.801	0.0148853
917.879	0.0148846
917.957	0.0149601
918.035	0.0147932
918.113	0.0148733
918.192	0.0148553
918.270	0.0148676
918.348	0.0149673
918.426	0.0148643
918.504	0.0149004
918.582	0.0150372
918.660	0.0149627
918.738	0.0149603
918.817	0.0150678
918.895	0.0149808
918.973	0.0150124
919.051	0.0150520
919.129	0.0148447
919.207	0.0149754
919.285	0.0149436
919.363	0.0147668
919.442	0.0148383
919.520	0.0149150
919.598	0.0148868
919.676	0.0147030
919.754	0.0148213
919.832	0.0148090
919.910	0.0148081
