05/28/2022	14:08:41	Ver.	4.1	UNKNOWN
Optical Delay	599.988409	Delta X		0.078125	Sweeps	1	Scan Rate	0/0
Coordinates	Axis 1	NaN	Axis 2	NaN	Axis 3	NaN	Axis 4	NaN	Axis 5	NaN	Axis 6	0.000000
TX Power	0.000000	RX Power	0.000000

599.988	0.0141510
600.067	0.0142132
600.145	0.0141311
600.223	0.0140897
600.301	0.0140839
600.379	0.0142404
600.457	0.0141879
600.535	0.0140567
600.613	0.0141932
600.692	0.0142616
600.770	0.0141728
600.848	0.0140758
600.926	0.0141392
601.004	0.0141984
601.082	0.0141160
601.160	0.0141659
601.238	0.0142093
601.317	0.0141326
601.395	0.0141716
601.473	0.0141451
601.551	0.0142301
601.629	0.0140807
601.707	0.0141579
601.785	0.0141640
601.863	0.0140451
601.942	0.0140553
602.020	0.0140214
602.098	0.0140725
602.176	0.0141270
602.254	0.0142019
602.332	0.0142050
602.410	0.0141486
602.488	0.0141695
602.567	0.0141908
602.645	0.0140776
602.723	0.0140965
602.801	0.0141313
602.879	0.0142431
602.957	0.0141890
603.035	0.0140884
603.113	0.0141193
603.192	0.0141244
603.270	0.0141143
603.348	0.0141256
603.426	0.0140958
603.504	0.0141846
603.582	0.0141518
603.660	0.0141971
603.738	0.0141993
603.817	0.0140704
603.895	0.0140776
603.973	0.0142126
604.051	0.0142239
604.129	0.0141223
604.207	0.0141721
604.285	0.0141521
604.363	0.0141471
604.442	0.0140002
604.520	0.0139790
604.598	0.0143141
604.676	0.0141812
604.754	0.0142203
604.832	0.0140936
604.910	0.0139524
604.988	0.0141726
605.067	0.0141855
605.145	0.0141348
605.223	0.0142178
605.301	0.0142519
605.379	0.0140747
605.457	0.0139679
605.535	0.0140447
605.613	0.0141625
605.692	0.0141483
605.770	0.0142356
605.848	0.0140820
605.926	0.0140839
606.004	0.0141898
606.082	0.0141530
606.160	0.0141490
606.238	0.0140398
606.317	0.0140894
606.395	0.0141332
606.473	0.0141243
606.551	0.0141008
606.629	0.0140830
606.707	0.0141026
606.785	0.0140150
606.863	0.0142006
606.942	0.0142052
607.020	0.0141968
607.098	0.0141941
607.176	0.0141402
607.254	0.0141673
607.332	0.0141267
607.410	0.0141950
607.488	0.0140829
607.567	0.0141980
607.645	0.0140371
607.723	0.0141148
607.801	0.0141682
607.879	0.0141097
607.957	0.0141143
608.035	0.0141068
608.113	0.0141661
608.192	0.0141587
608.270	0.0141711
608.348	0.0142421
608.426	0.0139592
608.504	0.0141482
608.582	0.0142100
608.660	0.0141871
608.738	0.0140866
608.817	0.0141080
608.895	0.0139930
608.973	0.0141856
609.051	0.0141261
609.129	0.0140885
609.207	0.0140913
609.285	0.0141982
609.363	0.0142489
609.442	0.0141119
609.520	0.0141732
609.598	0.0141398
609.676	0.0140494
609.754	0.0140273
609.832	0.0142615
609.910	0.0142980
609.988	0.0141133
610.067	0.0140919
610.145	0.0141039
610.223	0.0141655
610.301	0.0140966
610.379	0.0141605
610.457	0.0141648
610.535	0.0141612
610.613	0.0142895
610.692	0.0142718
610.770	0.0142103
610.848	0.0141795
610.926	0.0141309
611.004	0.0140453
611.082	0.0140943
611.160	0.0141924
611.238	0.0142232
611.317	0.0141866
611.395	0.0139964
611.473	0.0142155
611.551	0.0140679
611.629	0.0140906
611.707	0.0142145
611.785	0.0140646
611.863	0.0142097
611.942	0.0141004
612.020	0.0141485
612.098	0.0142365
612.176	0.0140535
612.254	0.0141974
612.332	0.0141685
612.410	0.0141396
612.488	0.0142082
612.567	0.0140900
612.645	0.0141138
612.723	0.0140926
612.801	0.0141523
612.879	0.0140767
612.957	0.0142335
613.035	0.0140901
613.113	0.0139998
613.192	0.0140310
613.270	0.0142258
613.348	0.0141953
613.426	0.0142242
613.504	0.0140933
613.582	0.0141355
613.660	0.0141730
613.738	0.0141013
613.817	0.0141689
613.895	0.0141289
613.973	0.0140578
614.051	0.0142751
614.129	0.0141398
614.207	0.0141315
614.285	0.0141960
614.363	0.0143505
614.442	0.0141777
614.520	0.0142481
614.598	0.0141204
614.676	0.0141621
614.754	0.0141187
614.832	0.0141814
614.910	0.0140894
614.988	0.0142809
615.067	0.0141262
615.145	0.0142303
615.223	0.0141380
615.301	0.0141458
615.379	0.0141853
615.457	0.0141969
615.535	0.0140517
615.613	0.0142999
615.692	0.0140590
615.770	0.0141856
615.848	0.0141522
615.926	0.0141824
616.004	0.0141418
616.082	0.0142102
616.160	0.0141811
616.238	0.0142788
616.317	0.0141785
616.395	0.0142682
616.473	0.0140539
616.551	0.0142561
616.629	0.0142507
616.707	0.0140703
616.785	0.0142406
616.863	0.0143354
616.942	0.0142039
617.020	0.0140194
617.098	0.0140230
617.176	0.0141179
617.254	0.0140871
617.332	0.0141241
617.410	0.0142908
617.488	0.0141773
617.567	0.0141560
617.645	0.0140969
617.723	0.0142050
617.801	0.0141847
617.879	0.0143458
617.957	0.0142560
618.035	0.0141868
618.113	0.0141493
618.192	0.0141599
618.270	0.0141699
618.348	0.0141082
618.426	0.0141196
618.504	0.0141422
618.582	0.0141635
618.660	0.0141960
618.738	0.0141291
618.817	0.0141517
618.895	0.0140998
618.973	0.0141402
619.051	0.0140626
619.129	0.0141479
619.207	0.0141992
619.285	0.0142846
619.363	0.0141669
619.442	0.0142587
619.520	0.0142152
619.598	0.0141196
619.676	0.0141550
619.754	0.0142091
619.832	0.0142264
619.910	0.0140884
619.988	0.0141869
620.067	0.0140726
620.145	0.0140765
620.223	0.0141743
620.301	0.0140385
620.379	0.0142097
620.457	0.0142066
620.535	0.0139893
620.613	0.0141871
620.692	0.0141426
620.770	0.0141248
620.848	0.0141212
620.926	0.0142469
621.004	0.0141049
621.082	0.0141452
621.160	0.0141516
621.238	0.0140597
621.317	0.0140613
621.395	0.0141283
621.473	0.0140742
621.551	0.0140171
621.629	0.0141068
621.707	0.0141625
621.785	0.0141686
621.863	0.0141351
621.942	0.0140689
622.020	0.0140962
622.098	0.0141097
622.176	0.0140993
622.254	0.0140975
622.332	0.0141177
622.410	0.0141755
622.488	0.0141222
622.567	0.0139682
622.645	0.0140588
622.723	0.0141896
622.801	0.0140812
622.879	0.0141304
622.957	0.0139736
623.035	0.0142619
623.113	0.0141915
623.192	0.0141064
623.270	0.0141344
623.348	0.0141093
623.426	0.0141628
623.504	0.0141929
623.582	0.0141331
623.660	0.0140087
623.738	0.0142720
623.817	0.0142169
623.895	0.0141917
623.973	0.0140632
624.051	0.0140240
624.129	0.0142178
624.207	0.0142177
624.285	0.0140224
624.363	0.0141528
624.442	0.0141123
624.520	0.0141380
624.598	0.0140826
624.676	0.0140801
624.754	0.0140148
624.832	0.0140256
624.910	0.0141283
624.988	0.0140385
625.067	0.0141892
625.145	0.0142892
625.223	0.0139651
625.301	0.0140865
625.379	0.0142753
625.457	0.0141238
625.535	0.0142323
625.613	0.0140672
625.692	0.0140047
625.770	0.0140957
625.848	0.0140734
625.926	0.0140588
626.004	0.0140456
626.082	0.0140540
626.160	0.0139271
626.238	0.0140343
626.317	0.0141251
626.395	0.0140565
626.473	0.0142012
626.551	0.0139878
626.629	0.0140638
626.707	0.0141076
626.785	0.0139965
626.863	0.0141325
626.942	0.0141472
627.020	0.0141150
627.098	0.0139727
627.176	0.0140626
627.254	0.0140582
627.332	0.0141402
627.410	0.0141343
627.488	0.0140413
627.567	0.0141299
627.645	0.0141290
627.723	0.0140101
627.801	0.0141223
627.879	0.0141153
627.957	0.0140740
628.035	0.0141531
628.113	0.0141906
628.192	0.0140828
628.270	0.0139499
628.348	0.0140079
628.426	0.0141405
628.504	0.0140809
628.582	0.0141179
628.660	0.0139188
628.738	0.0140970
628.817	0.0142300
628.895	0.0141207
628.973	0.0143027
629.051	0.0141851
629.129	0.0141223
629.207	0.0140845
629.285	0.0141183
629.363	0.0141298
629.442	0.0142426
629.520	0.0141454
629.598	0.0141050
629.676	0.0140807
629.754	0.0141806
629.832	0.0141499
629.910	0.0141223
629.988	0.0141723
630.067	0.0142720
630.145	0.0141673
630.223	0.0140630
630.301	0.0142160
630.379	0.0141504
630.457	0.0142018
630.535	0.0141565
630.613	0.0142005
630.692	0.0141128
630.770	0.0141475
630.848	0.0141518
630.926	0.0141262
631.004	0.0142511
631.082	0.0141145
631.160	0.0141998
631.238	0.0141892
631.317	0.0142777
631.395	0.0141985
631.473	0.0140777
631.551	0.0140031
631.629	0.0140369
631.707	0.0141961
631.785	0.0140978
631.863	0.0141142
631.942	0.0142381
632.020	0.0141434
632.098	0.0141662
632.176	0.0141932
632.254	0.0141106
632.332	0.0141734
632.410	0.0141329
632.488	0.0143334
632.567	0.0142733
632.645	0.0141531
632.723	0.0141911
632.801	0.0141843
632.879	0.0142359
632.957	0.0142209
633.035	0.0141338
633.113	0.0142859
633.192	0.0141637
633.270	0.0141915
633.348	0.0141799
633.426	0.0141300
633.504	0.0142803
633.582	0.0141548
633.660	0.0141985
633.738	0.0140899
633.817	0.0141094
633.895	0.0142371
633.973	0.0142102
634.051	0.0141736
634.129	0.0141753
634.207	0.0142818
634.285	0.0142150
634.363	0.0141173
634.442	0.0142845
634.520	0.0141438
634.598	0.0141631
634.676	0.0140793
634.754	0.0141724
634.832	0.0141358
634.910	0.0142731
634.988	0.0141380
635.067	0.0141486
635.145	0.0142870
635.223	0.0143112
635.301	0.0141673
635.379	0.0141558
635.457	0.0141630
635.535	0.0140626
635.613	0.0141416
635.692	0.0141114
635.770	0.0141973
635.848	0.0142370
635.926	0.0142075
636.004	0.0142577
636.082	0.0141299
636.160	0.0142501
636.238	0.0140970
636.317	0.0142079
636.395	0.0143143
636.473	0.0141505
636.551	0.0141340
636.629	0.0141483
636.707	0.0141489
636.785	0.0142011
636.863	0.0141557
636.942	0.0141597
637.020	0.0141637
637.098	0.0141108
637.176	0.0141965
637.254	0.0141974
637.332	0.0141909
637.410	0.0141402
637.488	0.0142286
637.567	0.0141254
637.645	0.0141857
637.723	0.0140924
637.801	0.0140863
637.879	0.0141310
637.957	0.0140924
638.035	0.0141704
638.113	0.0141964
638.192	0.0142158
638.270	0.0142734
638.348	0.0140774
638.426	0.0140739
638.504	0.0141923
638.582	0.0141177
638.660	0.0142074
638.738	0.0141505
638.817	0.0142485
638.895	0.0141434
638.973	0.0141885
639.051	0.0142444
639.129	0.0141077
639.207	0.0141671
639.285	0.0141460
639.363	0.0141479
639.442	0.0141107
639.520	0.0140495
639.598	0.0141160
639.676	0.0143621
639.754	0.0142072
639.832	0.0142010
639.910	0.0141222
639.988	0.0140905
640.067	0.0141149
640.145	0.0143121
640.223	0.0143251
640.301	0.0141264
640.379	0.0143071
640.457	0.0141498
640.535	0.0141657
640.613	0.0141601
640.692	0.0141198
640.770	0.0142385
640.848	0.0142075
640.926	0.0142067
641.004	0.0142188
641.082	0.0141816
641.160	0.0141531
641.238	0.0142274
641.317	0.0142290
641.395	0.0141754
641.473	0.0143110
641.551	0.0142227
641.629	0.0143071
641.707	0.0141402
641.785	0.0141713
641.863	0.0140266
641.942	0.0140450
642.020	0.0141282
642.098	0.0140897
642.176	0.0140318
642.254	0.0143173
642.332	0.0141738
642.410	0.0139491
642.488	0.0141586
642.567	0.0142596
642.645	0.0142921
642.723	0.0140814
642.801	0.0141022
642.879	0.0141995
642.957	0.0142388
643.035	0.0141351
643.113	0.0141779
643.192	0.0142098
643.270	0.0141827
643.348	0.0141499
643.426	0.0141711
643.504	0.0141364
643.582	0.0141773
643.660	0.0141624
643.738	0.0141454
643.817	0.0141189
643.895	0.0140688
643.973	0.0142265
644.051	0.0141721
644.129	0.0140575
644.207	0.0141099
644.285	0.0141357
644.363	0.0141160
644.442	0.0143283
644.520	0.0140243
644.598	0.0141012
644.676	0.0141191
644.754	0.0142111
644.832	0.0139919
644.910	0.0141265
644.988	0.0141130
645.067	0.0140742
645.145	0.0141541
645.223	0.0141489
645.301	0.0142275
645.379	0.0141271
645.457	0.0140611
645.535	0.0141831
645.613	0.0141662
645.692	0.0142293
645.770	0.0140894
645.848	0.0141090
645.926	0.0140884
646.004	0.0141804
646.082	0.0141871
646.160	0.0141115
646.238	0.0140755
646.317	0.0142358
646.395	0.0140295
646.473	0.0141043
646.551	0.0142159
646.629	0.0142597
646.707	0.0142558
646.785	0.0141183
646.863	0.0141541
646.942	0.0140747
647.020	0.0141712
647.098	0.0141629
647.176	0.0143073
647.254	0.0141656
647.332	0.0140553
647.410	0.0140750
647.488	0.0141434
647.567	0.0141399
647.645	0.0141769
647.723	0.0142271
647.801	0.0141340
647.879	0.0141783
647.957	0.0140910
648.035	0.0141091
648.113	0.0140970
648.192	0.0141496
648.270	0.0142191
648.348	0.0140398
648.426	0.0141319
648.504	0.0141400
648.582	0.0142335
648.660	0.0141174
648.738	0.0141043
648.817	0.0142921
648.895	0.0140279
648.973	0.0141871
649.051	0.0142035
649.129	0.0141729
649.207	0.0142375
649.285	0.0142110
649.363	0.0142210
649.442	0.0141122
649.520	0.0142390
649.598	0.0144057
649.676	0.0141301
649.754	0.0140198
649.832	0.0140742
649.910	0.0141068
649.988	0.0142123
650.067	0.0140791
650.145	0.0141302
650.223	0.0141183
650.301	0.0141431
650.379	0.0141573
650.457	0.0141095
650.535	0.0141856
650.613	0.0141179
650.692	0.0141714
650.770	0.0141231
650.848	0.0142531
650.926	0.0140472
651.004	0.0140738
651.082	0.0142032
651.160	0.0139857
651.238	0.0141476
651.317	0.0141904
651.395	0.0142303
651.473	0.0141792
651.551	0.0140524
651.629	0.0141471
651.707	0.0141254
651.785	0.0141223
651.863	0.0141332
651.942	0.0142068
652.020	0.0141995
652.098	0.0142281
652.176	0.0141960
652.254	0.0140630
652.332	0.0142069
652.410	0.0140577
652.488	0.0140399
652.567	0.0141864
652.645	0.0141743
652.723	0.0140336
652.801	0.0141650
652.879	0.0142045
652.957	0.0141121
653.035	0.0139691
653.113	0.0141154
653.192	0.0141961
653.270	0.0141434
653.348	0.0140432
653.426	0.0141898
653.504	0.0142165
653.582	0.0140959
653.660	0.0141109
653.738	0.0139978
653.817	0.0141310
653.895	0.0140980
653.973	0.0141828
654.051	0.0141091
654.129	0.0141220
654.207	0.0141724
654.285	0.0141689
654.363	0.0141069
654.442	0.0141401
654.520	0.0141531
654.598	0.0141674
654.676	0.0141235
654.754	0.0141268
654.832	0.0141396
654.910	0.0141666
654.988	0.0142551
655.067	0.0142256
655.145	0.0142337
655.223	0.0141635
655.301	0.0139706
655.379	0.0140919
655.457	0.0141176
655.535	0.0141718
655.613	0.0141344
655.692	0.0141264
655.770	0.0141735
655.848	0.0140466
655.926	0.0142245
656.004	0.0142889
656.082	0.0142626
656.160	0.0142113
656.238	0.0142263
656.317	0.0141036
656.395	0.0141839
656.473	0.0142148
656.551	0.0143970
656.629	0.0143479
656.707	0.0140939
656.785	0.0141033
656.863	0.0140775
656.942	0.0141040
657.020	0.0140143
657.098	0.0142115
657.176	0.0141083
657.254	0.0140932
657.332	0.0141120
657.410	0.0143271
657.488	0.0141552
657.567	0.0141541
657.645	0.0141231
657.723	0.0142070
657.801	0.0141592
657.879	0.0140271
657.957	0.0143200
658.035	0.0142729
658.113	0.0142042
658.192	0.0142516
658.270	0.0140411
658.348	0.0142569
658.426	0.0141728
658.504	0.0141991
658.582	0.0140189
658.660	0.0140887
658.738	0.0142334
658.817	0.0141753
658.895	0.0141073
658.973	0.0141515
659.051	0.0141071
659.129	0.0142158
659.207	0.0141211
659.285	0.0141415
659.363	0.0140037
659.442	0.0140772
659.520	0.0140823
659.598	0.0141541
659.676	0.0141959
659.754	0.0141466
659.832	0.0141013
659.910	0.0141512
659.988	0.0140684
660.067	0.0141287
660.145	0.0143103
660.223	0.0141783
660.301	0.0142342
660.379	0.0140677
660.457	0.0141988
660.535	0.0141316
660.613	0.0142031
660.692	0.0141502
660.770	0.0141541
660.848	0.0141867
660.926	0.0141800
661.004	0.0141193
661.082	0.0141693
661.160	0.0140662
661.238	0.0141830
661.317	0.0141738
661.395	0.0140605
661.473	0.0141936
661.551	0.0140898
661.629	0.0141418
661.707	0.0139452
661.785	0.0140520
661.863	0.0142113
661.942	0.0139880
662.020	0.0139246
662.098	0.0140701
662.176	0.0140261
662.254	0.0142858
662.332	0.0142359
662.410	0.0142953
662.488	0.0143364
662.567	0.0142596
662.645	0.0143410
662.723	0.0143140
662.801	0.0145264
662.879	0.0144607
662.957	0.0144726
663.035	0.0145105
663.113	0.0145050
663.192	0.0143250
663.270	0.0143998
663.348	0.0142091
663.426	0.0141899
663.504	0.0140336
663.582	0.0139678
663.660	0.0137847
663.738	0.0138430
663.817	0.0136848
663.895	0.0135018
663.973	0.0134882
664.051	0.0135832
664.129	0.0135790
664.207	0.0136185
664.285	0.0138057
664.363	0.0137475
664.442	0.0137936
664.520	0.0139957
664.598	0.0141197
664.676	0.0141257
664.754	0.0143061
664.832	0.0141005
664.910	0.0143379
664.988	0.0144435
665.067	0.0143439
665.145	0.0142587
665.223	0.0143703
665.301	0.0142462
665.379	0.0144704
665.457	0.0144238
665.535	0.0144810
665.613	0.0145228
665.692	0.0143679
665.770	0.0144103
665.848	0.0141669
665.926	0.0142734
666.004	0.0142300
666.082	0.0142300
666.160	0.0142491
666.238	0.0142959
666.317	0.0141839
666.395	0.0143001
666.473	0.0144783
666.551	0.0144270
666.629	0.0146037
666.707	0.0146394
666.785	0.0146239
666.863	0.0146589
666.942	0.0144470
667.020	0.0144653
667.098	0.0145176
667.176	0.0144802
667.254	0.0143703
667.332	0.0143163
667.410	0.0141135
667.488	0.0142397
667.567	0.0138885
667.645	0.0139532
667.723	0.0138966
667.801	0.0137811
667.879	0.0137766
667.957	0.0135072
668.035	0.0134584
668.113	0.0134437
668.192	0.0133120
668.270	0.0133521
668.348	0.0134028
668.426	0.0132804
668.504	0.0133024
668.582	0.0132829
668.660	0.0134177
668.738	0.0133155
668.817	0.0135130
668.895	0.0136385
668.973	0.0138699
669.051	0.0138694
669.129	0.0142510
669.207	0.0143866
669.285	0.0147350
669.363	0.0148132
669.442	0.0150417
669.520	0.0151871
669.598	0.0150939
669.676	0.0152290
669.754	0.0150275
669.832	0.0149848
669.910	0.0150084
669.988	0.0147830
670.067	0.0147585
670.145	0.0147423
670.223	0.0145329
670.301	0.0145723
670.379	0.0144257
670.457	0.0144959
670.535	0.0146529
670.613	0.0145667
670.692	0.0144750
670.770	0.0144595
670.848	0.0144712
670.926	0.0144302
671.004	0.0144094
671.082	0.0145283
671.160	0.0143069
671.238	0.0142342
671.317	0.0142662
671.395	0.0143712
671.473	0.0141529
671.551	0.0139986
671.629	0.0142271
671.707	0.0141397
671.785	0.0140482
671.863	0.0140586
671.942	0.0137649
672.020	0.0137142
672.098	0.0135043
672.176	0.0134237
672.254	0.0132822
672.332	0.0129199
672.410	0.0130443
672.488	0.0129056
672.567	0.0128413
672.645	0.0127296
672.723	0.0126844
672.801	0.0126632
672.879	0.0127567
672.957	0.0127781
673.035	0.0129388
673.113	0.0130261
673.192	0.0133095
673.270	0.0134647
673.348	0.0137007
673.426	0.0139120
673.504	0.0140966
673.582	0.0144013
673.660	0.0145356
673.738	0.0148302
673.817	0.0148128
673.895	0.0150158
673.973	0.0151358
674.051	0.0149860
674.129	0.0150324
674.207	0.0149313
674.285	0.0149141
674.363	0.0149805
674.442	0.0148093
674.520	0.0147421
674.598	0.0146783
674.676	0.0147357
674.754	0.0145969
674.832	0.0147249
674.910	0.0147922
674.988	0.0148893
675.067	0.0149107
675.145	0.0149423
675.223	0.0151128
675.301	0.0149789
675.379	0.0150454
675.457	0.0149837
675.535	0.0149461
675.613	0.0149727
675.692	0.0148721
675.770	0.0147488
675.848	0.0147695
675.926	0.0146608
676.004	0.0147060
676.082	0.0144531
676.160	0.0145234
676.238	0.0143516
676.317	0.0139674
676.395	0.0139393
676.473	0.0137714
676.551	0.0136231
676.629	0.0134558
676.707	0.0131800
676.785	0.0131725
676.863	0.0130253
676.942	0.0128756
677.020	0.0128267
677.098	0.0128299
677.176	0.0128606
677.254	0.0128160
677.332	0.0127171
677.410	0.0128988
677.488	0.0128509
677.567	0.0128487
677.645	0.0130183
677.723	0.0129713
677.801	0.0129875
677.879	0.0130376
677.957	0.0131586
678.035	0.0131989
678.113	0.0133711
678.192	0.0134162
678.270	0.0135936
678.348	0.0136611
678.426	0.0135144
678.504	0.0138175
678.582	0.0138295
678.660	0.0140339
678.738	0.0141147
678.817	0.0142643
678.895	0.0143884
678.973	0.0145787
679.051	0.0146994
679.129	0.0150063
679.207	0.0153257
679.285	0.0153126
679.363	0.0154456
679.442	0.0157500
679.520	0.0158687
679.598	0.0159301
679.676	0.0161125
679.754	0.0162032
679.832	0.0163663
679.910	0.0164605
679.988	0.0163074
680.067	0.0164777
680.145	0.0163305
680.223	0.0161549
680.301	0.0159912
680.379	0.0159576
680.457	0.0155243
680.535	0.0154063
680.613	0.0151238
680.692	0.0147572
680.770	0.0144263
680.848	0.0139854
680.926	0.0136845
681.004	0.0135639
681.082	0.0131756
681.160	0.0127921
681.238	0.0127207
681.317	0.0126216
681.395	0.0123555
681.473	0.0124442
681.551	0.0122086
681.629	0.0123320
681.707	0.0124364
681.785	0.0126440
681.863	0.0126218
681.942	0.0127494
682.020	0.0128745
682.098	0.0131035
682.176	0.0132892
682.254	0.0133527
682.332	0.0134319
682.410	0.0135228
682.488	0.0136730
682.567	0.0134574
682.645	0.0136577
682.723	0.0137579
682.801	0.0135934
682.879	0.0136118
682.957	0.0135297
683.035	0.0135718
683.113	0.0134656
683.192	0.0134352
683.270	0.0134757
683.348	0.0135198
683.426	0.0136170
683.504	0.0135430
683.582	0.0136996
683.660	0.0135706
683.738	0.0139944
683.817	0.0139738
683.895	0.0140568
683.973	0.0142431
684.051	0.0145427
684.129	0.0146093
684.207	0.0148687
684.285	0.0150842
684.363	0.0153470
684.442	0.0155014
684.520	0.0156457
684.598	0.0156908
684.676	0.0159193
684.754	0.0159514
684.832	0.0160467
684.910	0.0160818
684.988	0.0162968
685.067	0.0161924
685.145	0.0162041
685.223	0.0161430
685.301	0.0163248
685.379	0.0161536
685.457	0.0159534
685.535	0.0159087
685.613	0.0157696
685.692	0.0154092
685.770	0.0152311
685.848	0.0150333
685.926	0.0145745
686.004	0.0144103
686.082	0.0139038
686.160	0.0137058
686.238	0.0134488
686.317	0.0131952
686.395	0.0129991
686.473	0.0127680
686.551	0.0125330
686.629	0.0124924
686.707	0.0124356
686.785	0.0123845
686.863	0.0124763
686.942	0.0124294
687.020	0.0123969
687.098	0.0125092
687.176	0.0127397
687.254	0.0130183
687.332	0.0130150
687.410	0.0131374
687.488	0.0132637
687.567	0.0133308
687.645	0.0133939
687.723	0.0135197
687.801	0.0136806
687.879	0.0136649
687.957	0.0137492
688.035	0.0136736
688.113	0.0135788
688.192	0.0134515
688.270	0.0134551
688.348	0.0134698
688.426	0.0135142
688.504	0.0134120
688.582	0.0135091
688.660	0.0135661
688.738	0.0135491
688.817	0.0135453
688.895	0.0136656
688.973	0.0138010
689.051	0.0139098
689.129	0.0139088
689.207	0.0140424
689.285	0.0140794
689.363	0.0141843
689.442	0.0143289
689.520	0.0145197
689.598	0.0148359
689.676	0.0150840
689.754	0.0150430
689.832	0.0154752
689.910	0.0155631
689.988	0.0157539
690.067	0.0160590
690.145	0.0160594
690.223	0.0160501
690.301	0.0161800
690.379	0.0162948
690.457	0.0164361
690.535	0.0162419
690.613	0.0160757
690.692	0.0161063
690.770	0.0158446
690.848	0.0156461
690.926	0.0155076
691.004	0.0152341
691.082	0.0150366
691.160	0.0147733
691.238	0.0146193
691.317	0.0143629
691.395	0.0140582
691.473	0.0139465
691.551	0.0137173
691.629	0.0135019
691.707	0.0133276
691.785	0.0132443
691.863	0.0132035
691.942	0.0131748
692.020	0.0130147
692.098	0.0131680
692.176	0.0132381
692.254	0.0130514
692.332	0.0130828
692.410	0.0131976
692.488	0.0132536
692.567	0.0133464
692.645	0.0133651
692.723	0.0132155
692.801	0.0131123
692.879	0.0131084
692.957	0.0129734
693.035	0.0129005
693.113	0.0129513
693.192	0.0127803
693.270	0.0128137
693.348	0.0128562
693.426	0.0127501
693.504	0.0130009
693.582	0.0128556
693.660	0.0129845
693.738	0.0129828
693.817	0.0133302
693.895	0.0133765
693.973	0.0135570
694.051	0.0136300
694.129	0.0139553
694.207	0.0140675
694.285	0.0144099
694.363	0.0146558
694.442	0.0149096
694.520	0.0150660
694.598	0.0151667
694.676	0.0155642
694.754	0.0155505
694.832	0.0155270
694.910	0.0156652
694.988	0.0157353
695.067	0.0155042
695.145	0.0155278
695.223	0.0153392
695.301	0.0150385
695.379	0.0148473
695.457	0.0147739
695.535	0.0144276
695.613	0.0143164
695.692	0.0140340
695.770	0.0139563
695.848	0.0138823
695.926	0.0138911
696.004	0.0141517
696.082	0.0140446
696.160	0.0139832
696.238	0.0144688
696.317	0.0145416
696.395	0.0146553
696.473	0.0149767
696.551	0.0148909
696.629	0.0153143
696.707	0.0154324
696.785	0.0155480
696.863	0.0156062
696.942	0.0153896
697.020	0.0153344
697.098	0.0152267
697.176	0.0150143
697.254	0.0147781
697.332	0.0146375
697.410	0.0142963
697.488	0.0140141
697.567	0.0140150
697.645	0.0137695
697.723	0.0136424
697.801	0.0134992
697.879	0.0133422
697.957	0.0132400
698.035	0.0130481
698.113	0.0129197
698.192	0.0128437
698.270	0.0130019
698.348	0.0128737
698.426	0.0127706
698.504	0.0127686
698.582	0.0127807
698.660	0.0127555
698.738	0.0128973
698.817	0.0129735
698.895	0.0128947
698.973	0.0130769
699.051	0.0131209
699.129	0.0133121
699.207	0.0133206
699.285	0.0134359
699.363	0.0134364
699.442	0.0136765
699.520	0.0136161
699.598	0.0137655
699.676	0.0140277
699.754	0.0141048
699.832	0.0143183
699.910	0.0145576
699.988	0.0145502
700.067	0.0146887
700.145	0.0148634
700.223	0.0150699
700.301	0.0150986
700.379	0.0150571
700.457	0.0150929
700.535	0.0151192
700.613	0.0150800
700.692	0.0151677
700.770	0.0150108
700.848	0.0149821
700.926	0.0150316
701.004	0.0149808
701.082	0.0147798
701.160	0.0147650
701.238	0.0147832
701.317	0.0146191
701.395	0.0145289
701.473	0.0145206
701.551	0.0144378
701.629	0.0143605
701.707	0.0143637
701.785	0.0143601
701.863	0.0142790
701.942	0.0143289
702.020	0.0143444
702.098	0.0144952
702.176	0.0144634
702.254	0.0143407
702.332	0.0141914
702.410	0.0141961
702.488	0.0141146
702.567	0.0139673
702.645	0.0139581
702.723	0.0138142
702.801	0.0137766
702.879	0.0135942
702.957	0.0134146
703.035	0.0132703
703.113	0.0133282
703.192	0.0132184
703.270	0.0133599
703.348	0.0134325
703.426	0.0135419
703.504	0.0133969
703.582	0.0135696
703.660	0.0139030
703.738	0.0140218
703.817	0.0140444
703.895	0.0142024
703.973	0.0143810
704.051	0.0145128
704.129	0.0146835
704.207	0.0147202
704.285	0.0146970
704.363	0.0148140
704.442	0.0147947
704.520	0.0147846
704.598	0.0147079
704.676	0.0144566
704.754	0.0144396
704.832	0.0143751
704.910	0.0141491
704.988	0.0138133
705.067	0.0137407
705.145	0.0136877
705.223	0.0135194
705.301	0.0135523
705.379	0.0133276
705.457	0.0133556
705.535	0.0133878
705.613	0.0133035
705.692	0.0134367
705.770	0.0136278
705.848	0.0137418
705.926	0.0138525
706.004	0.0139935
706.082	0.0139892
706.160	0.0141111
706.238	0.0141319
706.317	0.0142879
706.395	0.0143657
706.473	0.0144247
706.551	0.0142923
706.629	0.0142727
706.707	0.0144672
706.785	0.0144794
706.863	0.0142050
706.942	0.0141287
707.020	0.0142054
707.098	0.0140788
707.176	0.0141373
707.254	0.0140881
707.332	0.0141386
707.410	0.0141389
707.488	0.0140818
707.567	0.0143259
707.645	0.0142469
707.723	0.0144861
707.801	0.0145756
707.879	0.0147865
707.957	0.0148238
708.035	0.0149058
708.113	0.0151118
708.192	0.0151859
708.270	0.0151896
708.348	0.0151073
708.426	0.0149963
708.504	0.0149961
708.582	0.0149242
708.660	0.0146879
708.738	0.0146445
708.817	0.0143715
708.895	0.0143478
708.973	0.0141619
709.051	0.0141464
709.129	0.0138433
709.207	0.0139143
709.285	0.0138708
709.363	0.0137907
709.442	0.0137720
709.520	0.0138997
709.598	0.0139060
709.676	0.0139249
709.754	0.0138982
709.832	0.0139882
709.910	0.0139680
709.988	0.0137835
710.067	0.0138373
710.145	0.0140231
710.223	0.0139057
710.301	0.0135573
710.379	0.0135282
710.457	0.0134590
710.535	0.0133443
710.613	0.0133413
710.692	0.0130928
710.770	0.0132887
710.848	0.0133795
710.926	0.0132127
711.004	0.0134907
711.082	0.0138478
711.160	0.0137515
711.238	0.0138190
711.317	0.0138615
711.395	0.0141978
711.473	0.0142012
711.551	0.0144325
711.629	0.0146082
711.707	0.0144833
711.785	0.0146327
711.863	0.0146582
711.942	0.0145156
712.020	0.0146112
712.098	0.0146873
712.176	0.0145967
712.254	0.0144883
712.332	0.0145737
712.410	0.0143046
712.488	0.0141562
712.567	0.0142113
712.645	0.0140544
712.723	0.0140313
712.801	0.0140685
712.879	0.0139424
712.957	0.0138567
713.035	0.0139468
713.113	0.0140504
713.192	0.0140950
713.270	0.0142474
713.348	0.0143425
713.426	0.0143311
713.504	0.0143801
713.582	0.0145908
713.660	0.0146461
713.738	0.0145705
713.817	0.0146915
713.895	0.0146700
713.973	0.0145187
714.051	0.0146478
714.129	0.0145453
714.207	0.0145239
714.285	0.0144254
714.363	0.0143716
714.442	0.0143476
714.520	0.0142877
714.598	0.0141618
714.676	0.0139933
714.754	0.0139901
714.832	0.0140282
714.910	0.0140515
714.988	0.0140540
715.067	0.0140399
715.145	0.0141024
715.223	0.0142953
715.301	0.0142001
715.379	0.0143012
715.457	0.0143887
715.535	0.0143092
715.613	0.0143482
715.692	0.0142813
715.770	0.0141240
715.848	0.0141491
715.926	0.0140627
716.004	0.0140408
716.082	0.0137591
716.160	0.0136931
716.238	0.0136969
716.317	0.0136193
716.395	0.0135541
716.473	0.0134751
716.551	0.0134743
716.629	0.0135264
716.707	0.0134537
716.785	0.0134167
716.863	0.0134793
716.942	0.0136697
717.020	0.0138012
717.098	0.0137261
717.176	0.0139162
717.254	0.0141118
717.332	0.0140203
717.410	0.0141957
717.488	0.0142078
717.567	0.0144182
717.645	0.0145499
717.723	0.0143046
717.801	0.0144065
717.879	0.0145284
717.957	0.0144736
718.035	0.0143570
718.113	0.0142825
718.192	0.0141840
718.270	0.0142230
718.348	0.0140816
718.426	0.0142551
718.504	0.0141959
718.582	0.0141104
718.660	0.0141192
718.738	0.0141718
718.817	0.0142284
718.895	0.0143504
718.973	0.0143404
719.051	0.0144720
719.129	0.0145809
719.207	0.0146363
719.285	0.0146457
719.363	0.0147941
719.442	0.0146268
719.520	0.0148500
719.598	0.0149053
719.676	0.0146698
719.754	0.0146870
719.832	0.0145333
719.910	0.0145856
719.988	0.0145589
720.067	0.0143417
720.145	0.0141924
720.223	0.0143253
720.301	0.0142261
720.379	0.0141314
720.457	0.0141968
720.535	0.0141778
720.613	0.0141322
720.692	0.0140306
720.770	0.0141141
720.848	0.0140612
720.926	0.0139727
721.004	0.0139767
721.082	0.0138505
721.160	0.0137641
721.238	0.0137244
721.317	0.0137066
721.395	0.0134997
721.473	0.0136488
721.551	0.0135899
721.629	0.0136428
721.707	0.0136730
721.785	0.0137370
721.863	0.0136758
721.942	0.0138896
722.020	0.0139611
722.098	0.0139254
722.176	0.0140591
722.254	0.0142445
722.332	0.0141757
722.410	0.0142770
722.488	0.0142424
722.567	0.0142947
722.645	0.0143584
722.723	0.0142667
722.801	0.0143867
722.879	0.0143258
722.957	0.0143330
723.035	0.0143151
723.113	0.0143100
723.192	0.0143378
723.270	0.0143177
723.348	0.0143571
723.426	0.0142601
723.504	0.0142790
723.582	0.0141676
723.660	0.0142178
723.738	0.0140591
723.817	0.0141062
723.895	0.0140245
723.973	0.0140581
724.051	0.0140753
724.129	0.0141118
724.207	0.0142240
724.285	0.0140495
724.363	0.0141038
724.442	0.0141131
724.520	0.0142725
724.598	0.0142603
724.676	0.0143491
724.754	0.0143467
724.832	0.0144985
724.910	0.0144535
724.988	0.0144494
725.067	0.0144282
725.145	0.0145464
725.223	0.0145088
725.301	0.0143266
725.379	0.0143346
725.457	0.0142338
725.535	0.0140720
725.613	0.0141985
725.692	0.0140118
725.770	0.0139204
725.848	0.0139993
725.926	0.0139020
726.004	0.0140190
726.082	0.0139764
726.160	0.0139208
726.238	0.0140324
726.317	0.0140811
726.395	0.0140694
726.473	0.0141344
726.551	0.0141684
726.629	0.0141387
726.707	0.0140688
726.785	0.0142245
726.863	0.0141671
726.942	0.0141265
727.020	0.0141828
727.098	0.0140313
727.176	0.0140774
727.254	0.0140380
727.332	0.0141187
727.410	0.0141863
727.488	0.0141704
727.567	0.0142174
727.645	0.0140942
727.723	0.0141418
727.801	0.0141947
727.879	0.0140742
727.957	0.0139869
728.035	0.0138983
728.113	0.0139797
728.192	0.0139050
728.270	0.0139716
728.348	0.0140306
728.426	0.0139928
728.504	0.0140152
728.582	0.0141746
728.660	0.0142195
728.738	0.0142729
728.817	0.0141989
728.895	0.0143409
728.973	0.0142966
729.051	0.0142359
729.129	0.0143056
729.207	0.0143521
729.285	0.0141624
729.363	0.0141776
729.442	0.0140674
729.520	0.0140854
729.598	0.0140916
729.676	0.0140885
729.754	0.0139596
729.832	0.0139369
729.910	0.0141140
729.988	0.0142850
730.067	0.0141333
730.145	0.0143691
730.223	0.0144727
730.301	0.0143803
730.379	0.0143198
730.457	0.0144492
730.535	0.0143665
730.613	0.0141811
730.692	0.0141782
730.770	0.0141477
730.848	0.0143060
730.926	0.0141956
731.004	0.0142122
731.082	0.0141027
731.160	0.0139780
731.238	0.0142014
731.317	0.0139595
731.395	0.0140729
731.473	0.0141484
731.551	0.0140797
731.629	0.0140581
731.707	0.0141510
731.785	0.0141607
731.863	0.0141689
731.942	0.0143285
732.020	0.0143156
732.098	0.0143488
732.176	0.0143643
732.254	0.0142840
732.332	0.0143630
732.410	0.0143239
732.488	0.0144086
732.567	0.0145004
732.645	0.0144521
732.723	0.0142602
732.801	0.0143083
732.879	0.0143060
732.957	0.0143164
733.035	0.0143186
733.113	0.0140713
733.192	0.0141539
733.270	0.0140871
733.348	0.0139799
733.426	0.0140814
733.504	0.0139050
733.582	0.0139883
733.660	0.0139806
733.738	0.0138747
733.817	0.0138445
733.895	0.0139532
733.973	0.0140996
734.051	0.0139245
734.129	0.0139293
734.207	0.0138358
734.285	0.0140552
734.363	0.0141463
734.442	0.0139879
734.520	0.0140523
734.598	0.0140451
734.676	0.0139163
734.754	0.0141306
734.832	0.0140631
734.910	0.0139358
734.988	0.0139616
735.067	0.0139076
735.145	0.0142918
735.223	0.0142324
735.301	0.0142812
735.379	0.0142325
735.457	0.0143445
735.535	0.0142079
735.613	0.0144591
735.692	0.0145755
735.770	0.0144828
735.848	0.0144873
735.926	0.0145267
736.004	0.0144013
736.082	0.0142931
736.160	0.0142819
736.238	0.0141484
736.317	0.0142008
736.395	0.0140784
736.473	0.0141698
736.551	0.0141378
736.629	0.0141394
736.707	0.0141515
736.785	0.0140986
736.863	0.0142656
736.942	0.0142346
737.020	0.0141773
737.098	0.0140702
737.176	0.0141033
737.254	0.0140675
737.332	0.0142091
737.410	0.0139787
737.488	0.0141788
737.567	0.0141238
737.645	0.0140266
737.723	0.0141876
737.801	0.0141746
737.879	0.0141688
737.957	0.0142443
738.035	0.0144211
738.113	0.0144495
738.192	0.0143470
738.270	0.0144229
738.348	0.0143766
738.426	0.0145114
738.504	0.0144176
738.582	0.0143346
738.660	0.0142958
738.738	0.0141951
738.817	0.0142911
738.895	0.0141515
738.973	0.0142138
739.051	0.0140728
739.129	0.0141216
739.207	0.0140494
739.285	0.0139697
739.363	0.0139170
739.442	0.0139614
739.520	0.0139149
739.598	0.0140594
739.676	0.0137986
739.754	0.0138451
739.832	0.0139830
739.910	0.0139101
739.988	0.0138909
740.067	0.0140801
740.145	0.0138457
740.223	0.0139124
740.301	0.0141200
740.379	0.0140247
740.457	0.0141686
740.535	0.0141843
740.613	0.0142309
740.692	0.0141003
740.770	0.0142958
740.848	0.0143063
740.926	0.0141780
741.004	0.0142483
741.082	0.0144118
741.160	0.0144415
741.238	0.0142809
741.317	0.0143962
741.395	0.0142175
741.473	0.0143350
741.551	0.0141685
741.629	0.0140984
741.707	0.0141283
741.785	0.0140696
741.863	0.0141530
741.942	0.0140728
742.020	0.0139933
742.098	0.0139268
742.176	0.0140599
742.254	0.0139928
742.332	0.0138665
742.410	0.0139570
742.488	0.0140739
742.567	0.0141586
742.645	0.0140025
742.723	0.0139565
742.801	0.0139753
742.879	0.0139565
742.957	0.0140681
743.035	0.0141911
743.113	0.0141021
743.192	0.0141646
743.270	0.0142567
743.348	0.0141296
743.426	0.0142434
743.504	0.0143298
743.582	0.0142770
743.660	0.0142178
743.738	0.0143279
743.817	0.0144578
743.895	0.0143315
743.973	0.0144268
744.051	0.0144489
744.129	0.0143340
744.207	0.0143267
744.285	0.0144143
744.363	0.0144211
744.442	0.0144192
744.520	0.0143784
744.598	0.0144945
744.676	0.0144800
744.754	0.0143517
744.832	0.0144588
744.910	0.0144988
744.988	0.0144293
745.067	0.0144601
745.145	0.0144440
745.223	0.0144655
745.301	0.0143616
745.379	0.0141882
745.457	0.0139993
745.535	0.0140057
745.613	0.0140567
745.692	0.0138805
745.770	0.0138728
745.848	0.0138688
745.926	0.0138522
746.004	0.0137475
746.082	0.0138371
746.160	0.0138487
746.238	0.0137519
746.317	0.0137522
746.395	0.0137407
746.473	0.0137727
746.551	0.0138951
746.629	0.0140375
746.707	0.0141075
746.785	0.0139199
746.863	0.0139303
746.942	0.0137930
747.020	0.0138557
747.098	0.0140052
747.176	0.0138815
747.254	0.0139915
747.332	0.0139639
747.410	0.0140455
747.488	0.0139780
747.567	0.0138779
747.645	0.0140203
747.723	0.0139249
747.801	0.0139018
747.879	0.0139577
747.957	0.0139758
748.035	0.0139944
748.113	0.0139871
748.192	0.0141082
748.270	0.0141172
748.348	0.0143065
748.426	0.0143060
748.504	0.0143353
748.582	0.0144181
748.660	0.0143917
748.738	0.0145625
748.817	0.0144938
748.895	0.0145113
748.973	0.0144785
749.051	0.0143465
749.129	0.0144518
749.207	0.0146033
749.285	0.0144349
749.363	0.0143681
749.442	0.0144155
749.520	0.0143990
749.598	0.0143955
749.676	0.0143801
749.754	0.0143954
749.832	0.0142445
749.910	0.0143536
749.988	0.0142255
750.067	0.0141808
750.145	0.0142842
750.223	0.0143789
750.301	0.0142023
750.379	0.0139809
750.457	0.0141001
750.535	0.0142028
750.613	0.0141209
750.692	0.0141730
750.770	0.0139601
750.848	0.0140516
750.926	0.0141822
751.004	0.0140807
751.082	0.0140167
751.160	0.0140617
751.238	0.0141672
751.317	0.0141277
751.395	0.0141394
751.473	0.0141524
751.551	0.0140959
751.629	0.0140363
751.707	0.0140536
751.785	0.0139385
751.863	0.0139375
751.942	0.0139696
752.020	0.0138937
752.098	0.0138704
752.176	0.0138853
752.254	0.0138650
752.332	0.0139585
752.410	0.0140168
752.488	0.0139350
752.567	0.0139577
752.645	0.0139745
752.723	0.0140490
752.801	0.0140110
752.879	0.0141129
752.957	0.0140963
753.035	0.0141863
753.113	0.0143253
753.192	0.0142401
753.270	0.0143509
753.348	0.0143109
753.426	0.0142597
753.504	0.0141236
753.582	0.0143397
753.660	0.0142264
753.738	0.0142151
753.817	0.0142393
753.895	0.0143234
753.973	0.0141266
754.051	0.0139789
754.129	0.0142253
754.207	0.0142747
754.285	0.0139872
754.363	0.0140438
754.442	0.0140257
754.520	0.0140376
754.598	0.0140012
754.676	0.0139799
754.754	0.0141859
754.832	0.0142037
754.910	0.0141797
754.988	0.0141112
755.067	0.0139794
755.145	0.0141013
755.223	0.0142213
755.301	0.0142593
755.379	0.0142813
755.457	0.0140934
755.535	0.0141249
755.613	0.0142979
755.692	0.0142390
755.770	0.0141994
755.848	0.0144044
755.926	0.0140567
756.004	0.0142091
756.082	0.0142840
756.160	0.0141874
756.238	0.0143381
756.317	0.0143389
756.395	0.0142156
756.473	0.0142753
756.551	0.0143066
756.629	0.0142841
756.707	0.0142612
756.785	0.0143158
756.863	0.0143744
756.942	0.0142213
757.020	0.0143245
757.098	0.0141557
757.176	0.0143181
757.254	0.0142610
757.332	0.0141792
757.410	0.0141095
757.488	0.0141473
757.567	0.0141506
757.645	0.0139307
757.723	0.0138504
757.801	0.0139737
757.879	0.0139279
757.957	0.0138831
758.035	0.0138139
758.113	0.0139553
758.192	0.0140092
758.270	0.0139886
758.348	0.0140900
758.426	0.0139415
758.504	0.0139346
758.582	0.0141235
758.660	0.0141872
758.738	0.0140868
758.817	0.0141857
758.895	0.0142674
758.973	0.0141714
759.051	0.0143327
759.129	0.0144823
759.207	0.0144068
759.285	0.0141865
759.363	0.0142749
759.442	0.0144477
759.520	0.0142672
759.598	0.0141884
759.676	0.0142519
759.754	0.0141921
759.832	0.0140253
759.910	0.0141376
759.988	0.0140714
760.067	0.0138512
760.145	0.0138967
760.223	0.0139318
760.301	0.0139726
760.379	0.0138526
760.457	0.0138045
760.535	0.0139495
760.613	0.0139243
760.692	0.0140228
760.770	0.0139147
760.848	0.0142339
760.926	0.0140549
761.004	0.0144495
761.082	0.0142844
761.160	0.0143491
761.238	0.0143307
761.317	0.0143543
761.395	0.0144992
761.473	0.0144432
761.551	0.0144207
761.629	0.0144295
761.707	0.0143419
761.785	0.0143871
761.863	0.0142481
761.942	0.0143687
762.020	0.0144353
762.098	0.0143049
762.176	0.0142821
762.254	0.0141788
762.332	0.0142052
762.410	0.0141531
762.488	0.0141675
762.567	0.0141012
762.645	0.0140567
762.723	0.0140793
762.801	0.0139034
762.879	0.0140714
762.957	0.0138567
763.035	0.0139238
763.113	0.0139461
763.192	0.0139418
763.270	0.0138605
763.348	0.0139739
763.426	0.0139116
763.504	0.0140152
763.582	0.0140035
763.660	0.0139764
763.738	0.0139428
763.817	0.0140710
763.895	0.0139505
763.973	0.0138177
764.051	0.0140112
764.129	0.0140466
764.207	0.0139501
764.285	0.0140082
764.363	0.0140411
764.442	0.0140031
764.520	0.0140383
764.598	0.0140463
764.676	0.0140995
764.754	0.0141828
764.832	0.0143186
764.910	0.0144148
764.988	0.0143521
765.067	0.0142772
765.145	0.0143552
765.223	0.0144370
765.301	0.0143079
765.379	0.0143059
765.457	0.0144611
765.535	0.0140994
765.613	0.0141074
765.692	0.0142035
765.770	0.0140013
765.848	0.0140585
765.926	0.0140424
766.004	0.0140299
766.082	0.0139601
766.160	0.0139558
766.238	0.0139842
766.317	0.0139349
766.395	0.0140941
766.473	0.0139520
766.551	0.0140244
766.629	0.0141621
766.707	0.0142521
766.785	0.0142249
766.863	0.0143710
766.942	0.0143094
767.020	0.0142156
767.098	0.0144511
767.176	0.0142547
767.254	0.0144250
767.332	0.0143684
767.410	0.0142928
767.488	0.0143481
767.567	0.0142960
767.645	0.0141235
767.723	0.0142162
767.801	0.0140387
767.879	0.0140689
767.957	0.0141302
768.035	0.0140611
768.113	0.0140820
768.192	0.0140520
768.270	0.0138421
768.348	0.0139960
768.426	0.0139706
768.504	0.0140215
768.582	0.0138506
768.660	0.0138167
768.738	0.0138960
768.817	0.0138918
768.895	0.0139595
768.973	0.0139157
769.051	0.0137702
769.129	0.0140476
769.207	0.0140807
769.285	0.0140310
769.363	0.0141244
769.442	0.0141369
769.520	0.0140274
769.598	0.0141753
769.676	0.0141501
769.754	0.0140829
769.832	0.0142159
769.910	0.0142535
769.988	0.0141817
770.067	0.0141181
770.145	0.0142428
770.223	0.0142905
770.301	0.0142692
770.379	0.0140365
770.457	0.0141701
770.535	0.0141833
770.613	0.0141826
770.692	0.0141473
770.770	0.0141271
770.848	0.0141893
770.926	0.0141883
771.004	0.0141898
771.082	0.0139240
771.160	0.0140192
771.238	0.0139195
771.317	0.0138775
771.395	0.0139192
771.473	0.0139760
771.551	0.0139232
771.629	0.0139545
771.707	0.0139446
771.785	0.0138664
771.863	0.0140177
771.942	0.0142599
772.020	0.0142406
772.098	0.0142124
772.176	0.0143130
772.254	0.0142711
772.332	0.0142116
772.410	0.0143211
772.488	0.0144012
772.567	0.0143199
772.645	0.0143273
772.723	0.0143899
772.801	0.0143672
772.879	0.0143102
772.957	0.0142660
773.035	0.0144387
773.113	0.0142937
773.192	0.0142559
773.270	0.0142297
773.348	0.0143415
773.426	0.0143369
773.504	0.0141925
773.582	0.0140832
773.660	0.0139994
773.738	0.0139635
773.817	0.0139784
773.895	0.0139127
773.973	0.0137909
774.051	0.0138112
774.129	0.0136942
774.207	0.0135770
774.285	0.0136681
774.363	0.0138137
774.442	0.0137698
774.520	0.0137212
774.598	0.0138087
774.676	0.0138905
774.754	0.0138979
774.832	0.0138225
774.910	0.0138956
774.988	0.0142320
775.067	0.0141785
775.145	0.0141991
775.223	0.0141887
775.301	0.0142685
775.379	0.0142535
775.457	0.0142986
775.535	0.0143079
775.613	0.0144342
775.692	0.0145729
775.770	0.0144795
775.848	0.0145036
775.926	0.0143857
776.004	0.0143777
776.082	0.0144351
776.160	0.0142776
776.238	0.0142042
776.317	0.0142345
776.395	0.0141874
776.473	0.0141371
776.551	0.0142091
776.629	0.0141567
776.707	0.0140250
776.785	0.0141996
776.863	0.0141802
776.942	0.0141248
777.020	0.0142358
777.098	0.0141138
777.176	0.0141564
777.254	0.0141553
777.332	0.0141001
777.410	0.0142307
777.488	0.0141705
777.567	0.0140788
777.645	0.0141147
777.723	0.0140410
777.801	0.0142365
777.879	0.0140266
777.957	0.0141138
778.035	0.0139718
778.113	0.0140383
778.192	0.0140466
778.270	0.0141290
778.348	0.0140388
778.426	0.0141713
778.504	0.0142244
778.582	0.0141161
778.660	0.0141305
778.738	0.0141181
778.817	0.0142313
778.895	0.0140704
778.973	0.0140452
779.051	0.0141113
779.129	0.0140178
779.207	0.0139922
779.285	0.0139244
779.363	0.0138844
779.442	0.0139093
779.520	0.0139046
779.598	0.0137982
779.676	0.0138940
779.754	0.0139590
779.832	0.0138551
779.910	0.0138538
779.988	0.0137432
780.067	0.0138590
780.145	0.0138659
780.223	0.0139108
780.301	0.0140578
780.379	0.0139909
780.457	0.0140321
780.535	0.0142330
780.613	0.0143000
780.692	0.0144002
780.770	0.0143246
780.848	0.0143800
780.926	0.0144545
781.004	0.0144508
781.082	0.0144693
781.160	0.0145561
781.238	0.0146259
781.317	0.0145081
781.395	0.0147174
781.473	0.0147160
781.551	0.0146226
781.629	0.0145998
781.707	0.0145126
781.785	0.0144296
781.863	0.0143549
781.942	0.0142445
782.020	0.0143487
782.098	0.0143972
782.176	0.0143074
782.254	0.0141596
782.332	0.0141128
782.410	0.0140547
782.488	0.0141650
782.567	0.0140214
782.645	0.0140333
782.723	0.0140444
782.801	0.0140184
782.879	0.0140863
782.957	0.0140374
783.035	0.0140260
783.113	0.0139372
783.192	0.0140274
783.270	0.0140835
783.348	0.0140379
783.426	0.0141256
783.504	0.0141879
783.582	0.0140199
783.660	0.0141633
783.738	0.0140933
783.817	0.0140707
783.895	0.0140804
783.973	0.0140038
784.051	0.0140301
784.129	0.0140942
784.207	0.0140545
784.285	0.0138937
784.363	0.0138259
784.442	0.0138925
784.520	0.0137906
784.598	0.0137817
784.676	0.0138253
784.754	0.0139046
784.832	0.0139078
784.910	0.0138731
784.988	0.0140423
785.067	0.0139634
785.145	0.0140323
785.223	0.0138582
785.301	0.0139262
785.379	0.0141772
785.457	0.0141483
785.535	0.0141326
785.613	0.0140955
785.692	0.0142995
785.770	0.0142725
785.848	0.0143454
785.926	0.0144234
786.004	0.0143490
786.082	0.0142426
786.160	0.0145100
786.238	0.0144191
786.317	0.0144334
786.395	0.0144527
786.473	0.0144076
786.551	0.0145824
786.629	0.0145454
786.707	0.0144880
786.785	0.0145074
786.863	0.0144930
786.942	0.0145369
787.020	0.0143568
787.098	0.0143672
787.176	0.0145245
787.254	0.0143698
787.332	0.0142413
787.410	0.0142153
787.488	0.0142717
787.567	0.0143360
787.645	0.0140783
787.723	0.0140905
787.801	0.0140208
787.879	0.0139684
787.957	0.0140474
788.035	0.0138515
788.113	0.0138915
788.192	0.0138332
788.270	0.0137599
788.348	0.0138809
788.426	0.0139481
788.504	0.0139045
788.582	0.0138299
788.660	0.0138425
788.738	0.0139359
788.817	0.0140498
788.895	0.0139790
788.973	0.0140250
789.051	0.0141994
789.129	0.0141013
789.207	0.0140499
789.285	0.0141598
789.363	0.0141551
789.442	0.0140884
789.520	0.0141988
789.598	0.0140773
789.676	0.0140676
789.754	0.0140724
789.832	0.0141641
789.910	0.0141631
789.988	0.0140285
790.067	0.0140409
790.145	0.0140430
790.223	0.0140369
790.301	0.0141793
790.379	0.0141314
790.457	0.0139648
790.535	0.0140403
790.613	0.0141397
790.692	0.0142097
790.770	0.0141779
790.848	0.0141628
790.926	0.0142165
791.004	0.0141785
791.082	0.0142409
791.160	0.0142139
791.238	0.0142180
791.317	0.0142087
791.395	0.0142747
791.473	0.0143408
791.551	0.0143388
791.629	0.0143226
791.707	0.0143423
791.785	0.0142562
791.863	0.0143513
791.942	0.0142612
792.020	0.0143317
792.098	0.0143387
792.176	0.0141284
792.254	0.0142868
792.332	0.0141883
792.410	0.0141702
792.488	0.0142162
792.567	0.0142642
792.645	0.0141601
792.723	0.0143189
792.801	0.0141967
792.879	0.0139802
792.957	0.0140671
793.035	0.0138507
793.113	0.0140568
793.192	0.0139481
793.270	0.0140783
793.348	0.0138526
793.426	0.0139629
793.504	0.0140197
793.582	0.0139996
793.660	0.0138685
793.738	0.0138767
793.817	0.0139517
793.895	0.0141051
793.973	0.0140503
794.051	0.0139696
794.129	0.0141635
794.207	0.0142593
794.285	0.0141424
794.363	0.0141235
794.442	0.0141136
794.520	0.0143630
794.598	0.0143649
794.676	0.0143383
794.754	0.0143759
794.832	0.0142784
794.910	0.0142969
794.988	0.0142740
795.067	0.0142494
795.145	0.0143082
795.223	0.0141870
795.301	0.0142727
795.379	0.0141525
795.457	0.0140280
795.535	0.0141255
795.613	0.0141608
795.692	0.0138860
795.770	0.0139871
795.848	0.0140417
795.926	0.0140536
796.004	0.0139768
796.082	0.0140293
796.160	0.0141595
796.238	0.0140559
796.317	0.0140482
796.395	0.0140311
796.473	0.0141521
796.551	0.0141277
796.629	0.0141305
796.707	0.0142296
796.785	0.0142032
796.863	0.0143230
796.942	0.0142435
797.020	0.0142523
797.098	0.0142995
797.176	0.0143804
797.254	0.0143847
797.332	0.0145111
797.410	0.0144791
797.488	0.0145791
797.567	0.0144284
797.645	0.0144196
797.723	0.0144889
797.801	0.0144434
797.879	0.0143747
797.957	0.0144542
798.035	0.0143663
798.113	0.0144323
798.192	0.0143569
798.270	0.0141961
798.348	0.0143638
798.426	0.0141867
798.504	0.0143098
798.582	0.0141693
798.660	0.0140470
798.738	0.0140577
798.817	0.0140932
798.895	0.0140531
798.973	0.0139828
799.051	0.0138569
799.129	0.0140177
799.207	0.0139477
799.285	0.0139634
799.363	0.0139172
799.442	0.0139227
799.520	0.0138358
799.598	0.0138984
799.676	0.0139777
799.754	0.0139449
799.832	0.0139778
799.910	0.0140026
799.988	0.0140771
800.067	0.0141483
800.145	0.0141288
800.223	0.0141205
800.301	0.0142169
800.379	0.0142231
800.457	0.0142303
800.535	0.0144415
800.613	0.0143079
800.692	0.0143880
800.770	0.0143603
800.848	0.0143943
800.926	0.0143748
801.004	0.0142250
801.082	0.0143452
801.160	0.0142858
801.238	0.0142203
801.317	0.0143595
801.395	0.0143769
801.473	0.0143640
801.551	0.0142411
801.629	0.0140239
801.707	0.0141342
801.785	0.0142577
801.863	0.0140604
801.942	0.0140023
802.020	0.0139758
802.098	0.0140532
802.176	0.0141332
802.254	0.0140952
802.332	0.0140922
802.410	0.0140597
802.488	0.0140767
802.567	0.0140201
802.645	0.0139651
802.723	0.0141095
802.801	0.0141245
802.879	0.0142236
802.957	0.0142963
803.035	0.0140899
803.113	0.0141644
803.192	0.0142490
803.270	0.0142856
803.348	0.0144037
803.426	0.0143165
803.504	0.0142710
803.582	0.0143475
803.660	0.0143259
803.738	0.0143214
803.817	0.0143247
803.895	0.0141966
803.973	0.0140996
804.051	0.0141563
804.129	0.0142523
804.207	0.0142390
804.285	0.0141746
804.363	0.0140666
804.442	0.0140199
804.520	0.0139729
804.598	0.0140424
804.676	0.0140673
804.754	0.0139785
804.832	0.0139927
804.910	0.0140948
804.988	0.0140929
805.067	0.0140929
805.145	0.0141226
805.223	0.0140923
805.301	0.0139986
805.379	0.0141312
805.457	0.0142661
805.535	0.0142766
805.613	0.0142544
805.692	0.0142519
805.770	0.0141979
805.848	0.0142978
805.926	0.0143983
806.004	0.0144093
806.082	0.0144136
806.160	0.0143749
806.238	0.0145110
806.317	0.0144211
806.395	0.0144042
806.473	0.0144622
806.551	0.0141302
806.629	0.0142571
806.707	0.0142648
806.785	0.0142145
806.863	0.0141911
806.942	0.0141877
807.020	0.0141999
807.098	0.0141475
807.176	0.0139761
807.254	0.0140002
807.332	0.0139661
807.410	0.0139690
807.488	0.0141005
807.567	0.0139454
807.645	0.0137750
807.723	0.0138679
807.801	0.0139178
807.879	0.0138509
807.957	0.0138694
808.035	0.0139694
808.113	0.0140006
808.192	0.0139471
808.270	0.0138931
808.348	0.0139687
808.426	0.0140385
808.504	0.0141174
808.582	0.0141041
808.660	0.0141190
808.738	0.0141496
808.817	0.0142083
808.895	0.0141998
808.973	0.0142942
809.051	0.0142828
809.129	0.0143263
809.207	0.0143932
809.285	0.0143588
809.363	0.0144138
809.442	0.0143530
809.520	0.0144976
809.598	0.0142611
809.676	0.0141703
809.754	0.0143231
809.832	0.0143674
809.910	0.0142386
809.988	0.0141773
810.067	0.0143847
810.145	0.0142298
810.223	0.0141364
810.301	0.0140839
810.379	0.0139515
810.457	0.0139726
810.535	0.0140009
810.613	0.0139909
810.692	0.0140922
810.770	0.0140753
810.848	0.0140264
810.926	0.0141329
811.004	0.0141240
811.082	0.0140209
811.160	0.0141816
811.238	0.0141428
811.317	0.0141046
811.395	0.0141748
811.473	0.0142349
811.551	0.0142936
811.629	0.0142761
811.707	0.0141129
811.785	0.0142181
811.863	0.0143626
811.942	0.0143383
812.020	0.0142733
812.098	0.0142950
812.176	0.0143434
812.254	0.0142595
812.332	0.0142719
812.410	0.0143739
812.488	0.0142271
812.567	0.0141092
812.645	0.0142532
812.723	0.0142625
812.801	0.0142108
812.879	0.0140553
812.957	0.0142272
813.035	0.0142016
813.113	0.0140172
813.192	0.0140752
813.270	0.0139417
813.348	0.0141180
813.426	0.0140958
813.504	0.0140670
813.582	0.0140133
813.660	0.0140501
813.738	0.0141279
813.817	0.0140490
813.895	0.0140068
813.973	0.0139516
814.051	0.0139253
814.129	0.0138473
814.207	0.0138538
814.285	0.0141126
814.363	0.0140656
814.442	0.0139463
814.520	0.0140364
814.598	0.0139069
814.676	0.0139911
814.754	0.0139332
814.832	0.0140059
814.910	0.0141157
814.988	0.0140261
815.067	0.0141493
815.145	0.0141950
815.223	0.0141466
815.301	0.0142574
815.379	0.0141863
815.457	0.0142910
815.535	0.0141567
815.613	0.0141660
815.692	0.0141663
815.770	0.0141387
815.848	0.0142105
815.926	0.0141957
816.004	0.0141899
816.082	0.0142789
816.160	0.0143163
816.238	0.0142407
816.317	0.0143121
816.395	0.0143738
816.473	0.0142642
816.551	0.0142300
816.629	0.0143996
816.707	0.0143700
816.785	0.0143435
816.863	0.0143283
816.942	0.0142514
817.020	0.0143456
817.098	0.0142913
817.176	0.0143423
817.254	0.0143166
817.332	0.0142299
817.410	0.0144344
817.488	0.0144275
817.567	0.0143903
817.645	0.0143560
817.723	0.0143048
817.801	0.0142688
817.879	0.0143297
817.957	0.0141962
818.035	0.0141857
818.113	0.0141399
818.192	0.0142485
818.270	0.0141427
818.348	0.0141041
818.426	0.0141299
818.504	0.0140343
818.582	0.0139639
818.660	0.0139027
818.738	0.0140113
818.817	0.0139500
818.895	0.0140259
818.973	0.0138670
819.051	0.0139481
819.129	0.0139605
819.207	0.0139333
819.285	0.0139141
819.363	0.0139864
819.442	0.0140435
819.520	0.0139790
819.598	0.0140340
819.676	0.0139684
819.754	0.0140435
819.832	0.0141703
819.910	0.0140356
819.988	0.0141984
820.067	0.0141642
820.145	0.0141090
820.223	0.0141490
820.301	0.0141948
820.379	0.0140977
820.457	0.0140469
820.535	0.0141769
820.613	0.0142189
820.692	0.0142507
820.770	0.0140804
820.848	0.0142621
820.926	0.0142443
821.004	0.0143354
821.082	0.0143929
821.160	0.0142944
821.238	0.0141975
821.317	0.0141837
821.395	0.0142572
821.473	0.0143454
821.551	0.0142442
821.629	0.0142823
821.707	0.0142043
821.785	0.0143047
821.863	0.0142307
821.942	0.0142255
822.020	0.0142146
822.098	0.0140247
822.176	0.0141975
822.254	0.0142715
822.332	0.0141977
822.410	0.0140828
822.488	0.0140632
822.567	0.0142487
822.645	0.0141184
822.723	0.0143237
822.801	0.0143024
822.879	0.0142260
822.957	0.0143898
823.035	0.0142369
823.113	0.0142854
823.192	0.0142473
823.270	0.0142788
823.348	0.0141398
823.426	0.0141133
823.504	0.0141089
823.582	0.0142125
823.660	0.0139263
823.738	0.0139676
823.817	0.0139967
823.895	0.0141647
823.973	0.0138578
824.051	0.0140418
824.129	0.0139655
824.207	0.0140218
824.285	0.0139502
824.363	0.0140643
824.442	0.0139665
824.520	0.0141306
824.598	0.0140865
824.676	0.0141281
824.754	0.0141491
824.832	0.0141699
824.910	0.0140038
824.988	0.0140723
825.067	0.0141192
825.145	0.0141789
825.223	0.0142007
825.301	0.0142218
825.379	0.0142249
825.457	0.0141606
825.535	0.0142159
825.613	0.0142584
825.692	0.0142949
825.770	0.0141335
825.848	0.0141814
825.926	0.0142644
826.004	0.0142991
826.082	0.0141524
826.160	0.0141385
826.238	0.0142973
826.317	0.0142877
826.395	0.0141821
826.473	0.0141855
826.551	0.0142655
826.629	0.0142635
826.707	0.0142989
826.785	0.0140440
826.863	0.0142226
826.942	0.0141249
827.020	0.0140788
827.098	0.0141640
827.176	0.0140784
827.254	0.0141325
827.332	0.0140994
827.410	0.0141101
827.488	0.0141627
827.567	0.0140803
827.645	0.0140655
827.723	0.0141038
827.801	0.0141811
827.879	0.0142638
827.957	0.0141496
828.035	0.0142683
828.113	0.0142175
828.192	0.0143278
828.270	0.0142587
828.348	0.0142461
828.426	0.0142234
828.504	0.0142848
828.582	0.0141980
828.660	0.0143857
828.738	0.0142239
828.817	0.0142957
828.895	0.0142176
828.973	0.0143025
829.051	0.0141181
829.129	0.0141319
829.207	0.0142270
829.285	0.0140804
829.363	0.0141535
829.442	0.0142654
829.520	0.0140018
829.598	0.0140382
829.676	0.0140749
829.754	0.0140623
829.832	0.0141541
829.910	0.0141380
829.988	0.0140797
830.067	0.0141347
830.145	0.0140752
830.223	0.0141191
830.301	0.0141106
830.379	0.0140215
830.457	0.0141468
830.535	0.0141933
830.613	0.0139919
830.692	0.0140134
830.770	0.0140706
830.848	0.0141489
830.926	0.0141164
831.004	0.0142181
831.082	0.0142952
831.160	0.0142999
831.238	0.0139877
831.317	0.0141965
831.395	0.0142356
831.473	0.0143143
831.551	0.0142043
831.629	0.0140988
831.707	0.0141786
831.785	0.0142030
831.863	0.0142207
831.942	0.0141841
832.020	0.0143250
832.098	0.0142622
832.176	0.0142347
832.254	0.0141305
832.332	0.0142024
832.410	0.0140846
832.488	0.0141529
832.567	0.0142197
832.645	0.0141052
832.723	0.0142258
832.801	0.0141215
832.879	0.0140813
832.957	0.0141876
833.035	0.0143198
833.113	0.0141689
833.192	0.0142040
833.270	0.0140843
833.348	0.0142399
833.426	0.0141750
833.504	0.0140649
833.582	0.0143079
833.660	0.0141785
833.738	0.0142414
833.817	0.0143232
833.895	0.0142197
833.973	0.0141765
834.051	0.0141221
834.129	0.0142712
834.207	0.0141885
834.285	0.0142422
834.363	0.0142587
834.442	0.0141667
834.520	0.0141062
834.598	0.0142406
834.676	0.0141820
834.754	0.0141061
834.832	0.0141314
834.910	0.0141805
834.988	0.0139832
835.067	0.0140414
835.145	0.0140482
835.223	0.0140162
835.301	0.0140440
835.379	0.0140448
835.457	0.0140710
835.535	0.0139796
835.613	0.0138700
835.692	0.0140620
835.770	0.0138852
835.848	0.0138826
835.926	0.0138883
836.004	0.0139317
836.082	0.0139085
836.160	0.0140553
836.238	0.0141367
836.317	0.0139756
836.395	0.0140657
836.473	0.0140329
836.551	0.0140897
836.629	0.0141398
836.707	0.0140866
836.785	0.0140285
836.863	0.0141585
836.942	0.0141944
837.020	0.0141555
837.098	0.0140067
837.176	0.0140506
837.254	0.0142144
837.332	0.0140864
837.410	0.0139685
837.488	0.0141891
837.567	0.0140937
837.645	0.0140735
837.723	0.0140065
837.801	0.0140494
837.879	0.0141747
837.957	0.0141019
838.035	0.0140543
838.113	0.0141901
838.192	0.0141492
838.270	0.0140669
838.348	0.0140780
838.426	0.0141378
838.504	0.0142261
838.582	0.0141718
838.660	0.0141535
838.738	0.0141788
838.817	0.0141996
838.895	0.0143029
838.973	0.0141018
839.051	0.0139955
839.129	0.0141955
839.207	0.0142706
839.285	0.0142027
839.363	0.0141981
839.442	0.0140530
839.520	0.0141180
839.598	0.0141829
839.676	0.0140331
839.754	0.0140987
839.832	0.0141475
839.910	0.0140626
839.988	0.0141605
840.067	0.0140183
840.145	0.0141612
840.223	0.0142222
840.301	0.0142165
840.379	0.0139435
840.457	0.0141919
840.535	0.0141180
840.613	0.0140983
840.692	0.0141876
840.770	0.0141557
840.848	0.0141128
840.926	0.0140060
841.004	0.0140120
841.082	0.0141103
841.160	0.0140609
841.238	0.0140429
841.317	0.0141551
841.395	0.0140930
841.473	0.0141228
841.551	0.0141729
841.629	0.0141733
841.707	0.0140104
841.785	0.0140923
841.863	0.0143044
841.942	0.0141443
842.020	0.0140907
842.098	0.0141278
842.176	0.0141201
842.254	0.0142061
842.332	0.0142307
842.410	0.0140617
842.488	0.0140559
842.567	0.0141222
842.645	0.0141808
842.723	0.0141238
842.801	0.0140756
842.879	0.0141664
842.957	0.0142233
843.035	0.0141754
843.113	0.0141845
843.192	0.0141090
843.270	0.0142129
843.348	0.0141480
843.426	0.0141621
843.504	0.0141532
843.582	0.0142336
843.660	0.0142308
843.738	0.0141100
843.817	0.0142513
843.895	0.0142206
843.973	0.0142341
844.051	0.0141259
844.129	0.0141445
844.207	0.0142022
844.285	0.0142315
844.363	0.0141739
844.442	0.0140839
844.520	0.0140181
844.598	0.0140299
844.676	0.0142110
844.754	0.0142004
844.832	0.0140340
844.910	0.0141298
844.988	0.0142434
845.067	0.0142087
845.145	0.0140964
845.223	0.0141948
845.301	0.0141093
845.379	0.0141740
845.457	0.0143233
845.535	0.0140792
845.613	0.0142636
845.692	0.0141932
845.770	0.0142842
845.848	0.0141808
845.926	0.0140870
846.004	0.0142127
846.082	0.0142419
846.160	0.0142410
846.238	0.0142693
846.317	0.0142891
846.395	0.0142101
846.473	0.0141441
846.551	0.0141641
846.629	0.0141534
846.707	0.0141350
846.785	0.0142934
846.863	0.0142723
846.942	0.0141782
847.020	0.0141026
847.098	0.0141984
847.176	0.0142255
847.254	0.0141391
847.332	0.0140190
847.410	0.0142670
847.488	0.0141683
847.567	0.0141637
847.645	0.0141018
847.723	0.0140881
847.801	0.0140879
847.879	0.0141001
847.957	0.0141130
848.035	0.0140049
848.113	0.0139809
848.192	0.0142125
848.270	0.0141487
848.348	0.0140959
848.426	0.0141354
848.504	0.0143063
848.582	0.0141158
848.660	0.0141740
848.738	0.0142026
848.817	0.0140829
848.895	0.0141301
848.973	0.0142217
849.051	0.0140839
849.129	0.0140871
849.207	0.0141854
849.285	0.0141688
849.363	0.0142503
849.442	0.0142599
849.520	0.0141061
849.598	0.0141164
849.676	0.0142477
849.754	0.0140173
849.832	0.0141650
849.910	0.0140696
849.988	0.0141905
850.067	0.0142306
850.145	0.0142034
850.223	0.0142173
850.301	0.0142749
850.379	0.0141596
850.457	0.0141612
850.535	0.0141492
850.613	0.0141690
850.692	0.0142431
850.770	0.0141528
850.848	0.0142007
850.926	0.0142262
851.004	0.0142377
851.082	0.0142937
851.160	0.0142386
851.238	0.0142201
851.317	0.0138863
851.395	0.0142722
851.473	0.0141875
851.551	0.0140364
851.629	0.0140146
851.707	0.0141884
851.785	0.0141081
851.863	0.0140018
851.942	0.0140997
852.020	0.0141272
852.098	0.0140146
852.176	0.0141068
852.254	0.0141647
852.332	0.0140298
852.410	0.0139766
852.488	0.0141027
852.567	0.0140437
852.645	0.0141978
852.723	0.0141478
852.801	0.0142060
852.879	0.0140837
852.957	0.0142403
853.035	0.0141733
853.113	0.0142121
853.192	0.0142219
853.270	0.0141349
853.348	0.0141001
853.426	0.0141768
853.504	0.0141039
853.582	0.0141251
853.660	0.0141616
853.738	0.0141346
853.817	0.0141130
853.895	0.0141181
853.973	0.0140383
854.051	0.0141334
854.129	0.0141598
854.207	0.0140328
854.285	0.0140815
854.363	0.0140958
854.442	0.0140379
854.520	0.0142310
854.598	0.0140279
854.676	0.0141469
854.754	0.0141501
854.832	0.0140449
854.910	0.0140954
854.988	0.0140594
855.067	0.0142635
855.145	0.0140790
855.223	0.0141765
855.301	0.0140559
855.379	0.0141666
855.457	0.0141373
855.535	0.0142086
855.613	0.0141103
855.692	0.0140761
855.770	0.0142007
855.848	0.0142254
855.926	0.0142382
856.004	0.0142068
856.082	0.0142699
856.160	0.0141409
856.238	0.0141588
856.317	0.0142662
856.395	0.0142068
856.473	0.0141807
856.551	0.0140736
856.629	0.0141411
856.707	0.0141882
856.785	0.0141618
856.863	0.0140526
856.942	0.0140874
857.020	0.0141331
857.098	0.0141238
857.176	0.0141764
857.254	0.0142717
857.332	0.0140847
857.410	0.0141364
857.488	0.0141608
857.567	0.0141606
857.645	0.0141477
857.723	0.0142258
857.801	0.0141470
857.879	0.0141759
857.957	0.0143066
858.035	0.0143026
858.113	0.0142662
858.192	0.0141359
858.270	0.0141826
858.348	0.0142653
858.426	0.0143245
858.504	0.0141540
858.582	0.0142081
858.660	0.0141703
858.738	0.0142760
858.817	0.0143553
858.895	0.0142034
858.973	0.0140252
859.051	0.0141029
859.129	0.0140733
859.207	0.0139793
859.285	0.0141389
859.363	0.0139552
859.442	0.0140026
859.520	0.0139083
859.598	0.0140550
859.676	0.0140611
859.754	0.0139838
859.832	0.0140758
859.910	0.0138955
859.988	0.0139391
860.067	0.0139522
860.145	0.0140584
860.223	0.0140394
860.301	0.0140367
860.379	0.0141481
860.457	0.0141830
860.535	0.0142001
860.613	0.0140755
860.692	0.0141656
860.770	0.0141917
860.848	0.0142235
860.926	0.0142410
861.004	0.0141321
861.082	0.0141885
861.160	0.0141085
861.238	0.0141608
861.317	0.0140507
861.395	0.0140160
861.473	0.0141270
861.551	0.0140188
861.629	0.0140884
861.707	0.0140405
861.785	0.0140740
861.863	0.0141230
861.942	0.0141277
862.020	0.0141587
862.098	0.0141405
862.176	0.0143145
862.254	0.0143887
862.332	0.0143417
862.410	0.0143144
862.488	0.0142992
862.567	0.0143414
862.645	0.0143646
862.723	0.0144361
862.801	0.0144062
862.879	0.0142702
862.957	0.0142427
863.035	0.0142715
863.113	0.0143488
863.192	0.0142039
863.270	0.0141430
863.348	0.0140388
863.426	0.0141150
863.504	0.0139519
863.582	0.0139856
863.660	0.0140533
863.738	0.0139921
863.817	0.0140876
863.895	0.0141477
863.973	0.0140801
864.051	0.0138655
864.129	0.0140405
864.207	0.0139431
864.285	0.0138537
864.363	0.0138872
864.442	0.0140086
864.520	0.0140137
864.598	0.0141354
864.676	0.0140170
864.754	0.0141539
864.832	0.0141976
864.910	0.0141135
864.988	0.0142050
865.067	0.0141054
865.145	0.0141062
865.223	0.0140936
865.301	0.0142410
865.379	0.0142709
865.457	0.0142090
865.535	0.0140813
865.613	0.0141687
865.692	0.0140715
865.770	0.0142566
865.848	0.0141616
865.926	0.0139981
866.004	0.0141568
866.082	0.0140802
866.160	0.0140543
866.238	0.0141114
866.317	0.0141618
866.395	0.0142524
866.473	0.0141773
866.551	0.0142211
866.629	0.0143753
866.707	0.0141947
866.785	0.0141325
866.863	0.0143105
866.942	0.0144377
867.020	0.0143398
867.098	0.0143562
867.176	0.0142934
867.254	0.0142127
867.332	0.0141526
867.410	0.0143441
867.488	0.0142513
867.567	0.0141608
867.645	0.0141679
867.723	0.0142347
867.801	0.0141726
867.879	0.0142401
867.957	0.0140473
868.035	0.0139995
868.113	0.0141655
868.192	0.0140694
868.270	0.0141309
868.348	0.0140070
868.426	0.0141084
868.504	0.0140072
868.582	0.0140408
868.660	0.0139985
868.738	0.0140019
868.817	0.0140622
868.895	0.0141030
868.973	0.0141048
869.051	0.0140686
869.129	0.0140852
869.207	0.0139651
869.285	0.0141203
869.363	0.0140675
869.442	0.0140998
869.520	0.0142027
869.598	0.0141814
869.676	0.0141492
869.754	0.0140194
869.832	0.0142165
869.910	0.0142564
869.988	0.0141383
870.067	0.0140153
870.145	0.0140833
870.223	0.0141761
870.301	0.0140790
870.379	0.0141326
870.457	0.0141462
870.535	0.0141432
870.613	0.0141168
870.692	0.0142349
870.770	0.0142089
870.848	0.0141987
870.926	0.0141991
871.004	0.0142567
871.082	0.0142053
871.160	0.0142551
871.238	0.0143462
871.317	0.0143534
871.395	0.0143286
871.473	0.0142805
871.551	0.0142538
871.629	0.0145380
871.707	0.0143269
871.785	0.0143687
871.863	0.0143541
871.942	0.0143181
872.020	0.0143083
872.098	0.0142628
872.176	0.0144367
872.254	0.0143719
872.332	0.0141227
872.410	0.0141617
872.488	0.0140814
872.567	0.0141396
872.645	0.0139661
872.723	0.0139690
872.801	0.0140751
872.879	0.0139460
872.957	0.0140981
873.035	0.0139505
873.113	0.0139859
873.192	0.0140475
873.270	0.0141730
873.348	0.0141912
873.426	0.0139530
873.504	0.0141721
873.582	0.0141363
873.660	0.0142368
873.738	0.0141529
873.817	0.0142744
873.895	0.0143040
873.973	0.0143606
874.051	0.0141559
874.129	0.0142038
874.207	0.0140924
874.285	0.0142402
874.363	0.0142509
874.442	0.0141267
874.520	0.0141448
874.598	0.0141069
874.676	0.0139867
874.754	0.0139590
874.832	0.0140058
874.910	0.0139594
874.988	0.0138093
875.067	0.0139474
875.145	0.0140112
875.223	0.0140004
875.301	0.0140810
875.379	0.0140784
875.457	0.0141122
875.535	0.0140739
875.613	0.0141533
875.692	0.0142205
875.770	0.0142522
875.848	0.0142593
875.926	0.0142612
876.004	0.0142500
876.082	0.0142964
876.160	0.0143517
876.238	0.0142830
876.317	0.0142307
876.395	0.0144411
876.473	0.0144254
876.551	0.0143478
876.629	0.0142616
876.707	0.0144028
876.785	0.0144028
876.863	0.0142860
876.942	0.0142324
877.020	0.0142594
877.098	0.0143437
877.176	0.0143092
877.254	0.0143559
877.332	0.0142142
877.410	0.0141689
877.488	0.0141674
877.567	0.0141237
877.645	0.0141582
877.723	0.0141235
877.801	0.0140273
877.879	0.0140739
877.957	0.0141172
878.035	0.0140120
878.113	0.0141254
878.192	0.0140306
878.270	0.0139828
878.348	0.0139342
878.426	0.0141331
878.504	0.0139620
878.582	0.0139540
878.660	0.0139862
878.738	0.0139864
878.817	0.0139141
878.895	0.0141603
878.973	0.0139611
879.051	0.0141570
879.129	0.0141537
879.207	0.0141127
879.285	0.0142000
879.363	0.0141253
879.442	0.0140363
879.520	0.0141877
879.598	0.0142650
879.676	0.0140468
879.754	0.0141216
879.832	0.0142433
879.910	0.0142520
879.988	0.0139890
880.067	0.0140509
880.145	0.0141612
880.223	0.0140932
880.301	0.0140742
880.379	0.0141875
880.457	0.0142052
880.535	0.0141762
880.613	0.0141231
880.692	0.0142624
880.770	0.0141986
880.848	0.0141418
880.926	0.0143246
881.004	0.0143065
881.082	0.0143122
881.160	0.0143519
881.238	0.0141913
881.317	0.0142651
881.395	0.0143348
881.473	0.0143344
881.551	0.0142389
881.629	0.0143700
881.707	0.0142706
881.785	0.0142670
881.863	0.0143800
881.942	0.0143429
882.020	0.0142333
882.098	0.0142618
882.176	0.0142459
882.254	0.0140906
882.332	0.0140354
882.410	0.0140793
882.488	0.0140898
882.567	0.0141525
882.645	0.0140775
882.723	0.0140231
882.801	0.0140679
882.879	0.0140529
882.957	0.0141724
883.035	0.0140105
883.113	0.0140385
883.192	0.0141203
883.270	0.0140108
883.348	0.0139971
883.426	0.0140775
883.504	0.0140730
883.582	0.0140839
883.660	0.0141549
883.738	0.0142120
883.817	0.0140359
883.895	0.0140360
883.973	0.0141405
884.051	0.0141615
884.129	0.0141216
884.207	0.0140003
884.285	0.0141914
884.363	0.0141566
884.442	0.0141434
884.520	0.0142101
884.598	0.0140251
884.676	0.0141307
884.754	0.0141871
884.832	0.0140751
884.910	0.0140403
884.988	0.0142117
885.067	0.0142029
885.145	0.0141546
885.223	0.0141895
885.301	0.0141609
885.379	0.0141262
885.457	0.0141174
885.535	0.0141736
885.613	0.0142352
885.692	0.0141940
885.770	0.0141791
885.848	0.0141366
885.926	0.0141201
886.004	0.0141717
886.082	0.0141521
886.160	0.0142444
886.238	0.0141611
886.317	0.0141705
886.395	0.0141503
886.473	0.0142210
886.551	0.0142424
886.629	0.0142040
886.707	0.0141470
886.785	0.0142155
886.863	0.0140791
886.942	0.0140157
887.020	0.0140469
887.098	0.0141354
887.176	0.0142062
887.254	0.0140873
887.332	0.0140287
887.410	0.0139232
887.488	0.0139845
887.567	0.0141080
887.645	0.0140343
887.723	0.0139639
887.801	0.0141824
887.879	0.0141702
887.957	0.0141145
888.035	0.0142982
888.113	0.0141579
888.192	0.0142170
888.270	0.0141721
888.348	0.0142798
888.426	0.0141525
888.504	0.0142421
888.582	0.0142934
888.660	0.0141484
888.738	0.0141647
888.817	0.0141759
888.895	0.0141587
888.973	0.0141743
889.051	0.0141354
889.129	0.0140298
889.207	0.0140336
889.285	0.0141045
889.363	0.0140931
889.442	0.0140407
889.520	0.0140179
889.598	0.0139143
889.676	0.0139591
889.754	0.0141181
889.832	0.0140552
889.910	0.0140434
889.988	0.0141109
890.067	0.0140359
890.145	0.0140582
890.223	0.0140318
890.301	0.0141261
890.379	0.0140202
890.457	0.0141094
890.535	0.0141965
890.613	0.0141744
890.692	0.0141064
890.770	0.0141936
890.848	0.0142078
890.926	0.0142080
891.004	0.0141816
891.082	0.0142219
891.160	0.0141661
891.238	0.0143726
891.317	0.0142755
891.395	0.0141360
891.473	0.0142313
891.551	0.0142708
891.629	0.0142683
891.707	0.0143047
891.785	0.0142239
891.863	0.0142554
891.942	0.0142761
892.020	0.0141876
892.098	0.0142219
892.176	0.0142203
892.254	0.0142169
892.332	0.0141372
892.410	0.0141597
892.488	0.0141449
892.567	0.0141792
892.645	0.0142211
892.723	0.0141679
892.801	0.0141016
892.879	0.0142181
892.957	0.0142462
893.035	0.0141454
893.113	0.0141150
893.192	0.0141248
893.270	0.0141243
893.348	0.0141073
893.426	0.0140508
893.504	0.0140315
893.582	0.0142609
893.660	0.0142389
893.738	0.0141586
893.817	0.0142089
893.895	0.0142011
893.973	0.0140596
894.051	0.0141679
894.129	0.0140990
894.207	0.0142023
894.285	0.0141939
894.363	0.0141579
894.442	0.0140464
894.520	0.0141437
894.598	0.0141721
894.676	0.0141668
894.754	0.0141532
894.832	0.0141619
894.910	0.0141863
894.988	0.0140968
895.067	0.0141280
895.145	0.0142219
895.223	0.0141862
895.301	0.0142106
895.379	0.0142233
895.457	0.0142389
895.535	0.0142324
895.613	0.0143682
895.692	0.0142879
895.770	0.0143111
895.848	0.0142530
895.926	0.0141543
896.004	0.0143345
896.082	0.0142757
896.160	0.0142221
896.238	0.0142113
896.317	0.0141290
896.395	0.0141970
896.473	0.0141868
896.551	0.0140807
896.629	0.0141457
896.707	0.0141074
896.785	0.0141309
896.863	0.0140467
896.942	0.0141748
897.020	0.0142054
897.098	0.0139757
897.176	0.0141053
897.254	0.0141740
897.332	0.0141105
897.410	0.0141457
897.488	0.0142312
897.567	0.0140873
897.645	0.0143156
897.723	0.0141895
897.801	0.0142111
897.879	0.0141808
897.957	0.0143178
898.035	0.0142675
898.113	0.0141225
898.192	0.0141669
898.270	0.0143097
898.348	0.0142081
898.426	0.0142654
898.504	0.0142054
898.582	0.0142188
898.660	0.0140826
898.738	0.0142240
898.817	0.0141652
898.895	0.0140786
898.973	0.0141486
899.051	0.0142245
899.129	0.0141592
899.207	0.0142749
899.285	0.0142539
899.363	0.0143448
899.442	0.0141563
899.520	0.0143163
899.598	0.0144505
899.676	0.0142638
899.754	0.0143556
899.832	0.0142594
899.910	0.0143177
899.988	0.0144650
900.067	0.0143460
900.145	0.0142217
900.223	0.0142450
900.301	0.0141933
900.379	0.0141482
900.457	0.0142897
900.535	0.0140292
900.613	0.0141247
900.692	0.0142017
900.770	0.0141920
900.848	0.0140470
900.926	0.0140955
901.004	0.0141256
901.082	0.0139948
901.160	0.0139758
901.238	0.0140073
901.317	0.0140427
901.395	0.0139684
901.473	0.0139745
901.551	0.0139513
901.629	0.0140310
901.707	0.0140338
901.785	0.0139658
901.863	0.0140150
901.942	0.0140496
902.020	0.0140181
902.098	0.0139901
902.176	0.0140087
902.254	0.0141443
902.332	0.0139970
902.410	0.0139371
902.488	0.0140456
902.567	0.0141734
902.645	0.0143359
902.723	0.0141918
902.801	0.0140837
902.879	0.0140353
902.957	0.0142493
903.035	0.0143142
903.113	0.0141932
903.192	0.0141601
903.270	0.0141404
903.348	0.0143296
903.426	0.0142353
903.504	0.0141528
903.582	0.0143289
903.660	0.0143826
903.738	0.0142637
903.817	0.0142786
903.895	0.0142062
903.973	0.0141605
904.051	0.0141328
904.129	0.0142654
904.207	0.0141551
904.285	0.0141441
904.363	0.0140907
904.442	0.0142114
904.520	0.0142779
904.598	0.0141415
904.676	0.0142098
904.754	0.0142913
904.832	0.0142334
904.910	0.0141128
904.988	0.0142545
905.067	0.0141713
905.145	0.0143575
905.223	0.0143822
905.301	0.0143920
905.379	0.0142471
905.457	0.0142057
905.535	0.0143295
905.613	0.0142632
905.692	0.0142286
905.770	0.0140521
905.848	0.0141815
905.926	0.0142783
906.004	0.0142154
906.082	0.0139847
906.160	0.0139838
906.238	0.0140287
906.317	0.0139036
906.395	0.0139507
906.473	0.0140073
906.551	0.0139885
906.629	0.0139650
906.707	0.0139424
906.785	0.0139340
906.863	0.0138760
906.942	0.0139696
907.020	0.0141238
907.098	0.0140720
907.176	0.0140662
907.254	0.0141853
907.332	0.0142472
907.410	0.0141908
907.488	0.0142622
907.567	0.0140876
907.645	0.0140666
907.723	0.0141715
907.801	0.0140784
907.879	0.0141634
907.957	0.0141552
908.035	0.0142361
908.113	0.0142042
908.192	0.0141351
908.270	0.0142306
908.348	0.0141414
908.426	0.0142863
908.504	0.0141682
908.582	0.0141673
908.660	0.0142260
908.738	0.0141587
908.817	0.0142020
908.895	0.0140780
908.973	0.0142358
909.051	0.0141849
909.129	0.0142014
909.207	0.0142554
909.285	0.0140382
909.363	0.0140672
909.442	0.0141713
909.520	0.0140984
909.598	0.0141502
909.676	0.0142250
909.754	0.0142611
909.832	0.0141704
909.910	0.0141827
909.988	0.0142130
910.067	0.0140865
910.145	0.0142210
910.223	0.0141953
910.301	0.0141135
910.379	0.0142599
910.457	0.0141080
910.535	0.0140784
910.613	0.0141574
910.692	0.0141859
910.770	0.0142429
910.848	0.0141317
910.926	0.0141778
911.004	0.0141114
911.082	0.0141061
911.160	0.0141468
911.238	0.0140194
911.317	0.0141795
911.395	0.0141656
911.473	0.0140463
911.551	0.0140514
911.629	0.0140707
911.707	0.0139722
911.785	0.0140851
911.863	0.0142424
911.942	0.0141152
912.020	0.0141947
912.098	0.0142163
912.176	0.0141577
912.254	0.0139948
912.332	0.0140221
912.410	0.0141444
912.488	0.0142290
912.567	0.0142161
912.645	0.0141928
912.723	0.0141454
912.801	0.0142825
912.879	0.0141422
912.957	0.0142256
913.035	0.0141617
913.113	0.0141539
913.192	0.0140556
913.270	0.0142154
913.348	0.0141521
913.426	0.0143498
913.504	0.0142364
913.582	0.0140439
913.660	0.0142538
913.738	0.0142261
913.817	0.0142068
913.895	0.0142547
913.973	0.0142046
914.051	0.0142684
914.129	0.0142781
914.207	0.0143378
914.285	0.0142729
914.363	0.0143445
914.442	0.0143034
914.520	0.0143232
914.598	0.0142643
914.676	0.0143246
914.754	0.0144154
914.832	0.0142592
914.910	0.0142663
914.988	0.0142307
915.067	0.0143222
915.145	0.0143785
915.223	0.0143188
915.301	0.0142055
915.379	0.0142005
915.457	0.0140979
915.535	0.0141054
915.613	0.0141635
915.692	0.0141196
915.770	0.0139948
915.848	0.0142064
915.926	0.0142723
916.004	0.0141119
916.082	0.0141803
916.160	0.0142044
916.238	0.0140973
916.317	0.0141292
916.395	0.0140985
916.473	0.0139735
916.551	0.0140875
916.629	0.0141940
916.707	0.0141428
916.785	0.0141284
916.863	0.0141752
916.942	0.0140557
917.020	0.0140175
917.098	0.0141898
917.176	0.0142254
917.254	0.0139896
917.332	0.0140833
917.410	0.0141534
917.488	0.0140816
917.567	0.0141883
917.645	0.0140413
917.723	0.0139915
917.801	0.0140914
917.879	0.0141428
917.957	0.0141351
918.035	0.0141370
918.113	0.0142987
918.192	0.0141667
918.270	0.0141414
918.348	0.0142857
918.426	0.0143604
918.504	0.0143820
918.582	0.0142480
918.660	0.0142920
918.738	0.0142971
918.817	0.0143912
918.895	0.0142658
918.973	0.0144695
919.051	0.0143371
919.129	0.0142626
919.207	0.0143254
919.285	0.0143192
919.363	0.0142411
919.442	0.0142225
919.520	0.0142145
919.598	0.0142086
919.676	0.0142558
919.754	0.0142236
919.832	0.0142113
919.910	0.0142802
