05/28/2022	14:12:06	Ver.	4.1	UNKNOWN
Optical Delay	599.988409	Delta X		0.078125	Sweeps	1	Scan Rate	0/0
Coordinates	Axis 1	NaN	Axis 2	NaN	Axis 3	NaN	Axis 4	NaN	Axis 5	NaN	Axis 6	0.000000
TX Power	0.000000	RX Power	0.000000

599.988	0.0144833
600.067	0.0144255
600.145	0.0144658
600.223	0.0145476
600.301	0.0146171
600.379	0.0144368
600.457	0.0145756
600.535	0.0145052
600.613	0.0144695
600.692	0.0143940
600.770	0.0145621
600.848	0.0144788
600.926	0.0143922
601.004	0.0145476
601.082	0.0144493
601.160	0.0145348
601.238	0.0144662
601.317	0.0144041
601.395	0.0144920
601.473	0.0144363
601.551	0.0143846
601.629	0.0145424
601.707	0.0144801
601.785	0.0143935
601.863	0.0144276
601.942	0.0145010
602.020	0.0144959
602.098	0.0144115
602.176	0.0145432
602.254	0.0144757
602.332	0.0144402
602.410	0.0145117
602.488	0.0144714
602.567	0.0145575
602.645	0.0144761
602.723	0.0145116
602.801	0.0146222
602.879	0.0145763
602.957	0.0145820
603.035	0.0143613
603.113	0.0144775
603.192	0.0147501
603.270	0.0145197
603.348	0.0144626
603.426	0.0145588
603.504	0.0145311
603.582	0.0144780
603.660	0.0145765
603.738	0.0145486
603.817	0.0145235
603.895	0.0145690
603.973	0.0145908
604.051	0.0146915
604.129	0.0144565
604.207	0.0143948
604.285	0.0145305
604.363	0.0146127
604.442	0.0145343
604.520	0.0144890
604.598	0.0145297
604.676	0.0145408
604.754	0.0144662
604.832	0.0145992
604.910	0.0144740
604.988	0.0145220
605.067	0.0145382
605.145	0.0145284
605.223	0.0144794
605.301	0.0146227
605.379	0.0144567
605.457	0.0144729
605.535	0.0145208
605.613	0.0145762
605.692	0.0144772
605.770	0.0144318
605.848	0.0145365
605.926	0.0145411
606.004	0.0144953
606.082	0.0144515
606.160	0.0145405
606.238	0.0144199
606.317	0.0143884
606.395	0.0145435
606.473	0.0145106
606.551	0.0145042
606.629	0.0145991
606.707	0.0144710
606.785	0.0145419
606.863	0.0144950
606.942	0.0143519
607.020	0.0145374
607.098	0.0146675
607.176	0.0143650
607.254	0.0147113
607.332	0.0144900
607.410	0.0145850
607.488	0.0144291
607.567	0.0144781
607.645	0.0144103
607.723	0.0145610
607.801	0.0144389
607.879	0.0143634
607.957	0.0144664
608.035	0.0144566
608.113	0.0145198
608.192	0.0144436
608.270	0.0144836
608.348	0.0145199
608.426	0.0145478
608.504	0.0143833
608.582	0.0144564
608.660	0.0144276
608.738	0.0144927
608.817	0.0143598
608.895	0.0145406
608.973	0.0144689
609.051	0.0145705
609.129	0.0145162
609.207	0.0145515
609.285	0.0144725
609.363	0.0144997
609.442	0.0142854
609.520	0.0144089
609.598	0.0145306
609.676	0.0144189
609.754	0.0143830
609.832	0.0145985
609.910	0.0144994
609.988	0.0143803
610.067	0.0143559
610.145	0.0145098
610.223	0.0145103
610.301	0.0144671
610.379	0.0143418
610.457	0.0144720
610.535	0.0145506
610.613	0.0145174
610.692	0.0145494
610.770	0.0144540
610.848	0.0144513
610.926	0.0145376
611.004	0.0144499
611.082	0.0143918
611.160	0.0144713
611.238	0.0144945
611.317	0.0144809
611.395	0.0146036
611.473	0.0145252
611.551	0.0145350
611.629	0.0143814
611.707	0.0144326
611.785	0.0143613
611.863	0.0145592
611.942	0.0144135
612.020	0.0144881
612.098	0.0145000
612.176	0.0142957
612.254	0.0143394
612.332	0.0144318
612.410	0.0145114
612.488	0.0144215
612.567	0.0143827
612.645	0.0143414
612.723	0.0144761
612.801	0.0145053
612.879	0.0144134
612.957	0.0144608
613.035	0.0145237
613.113	0.0144596
613.192	0.0144892
613.270	0.0144096
613.348	0.0143962
613.426	0.0144515
613.504	0.0144114
613.582	0.0143633
613.660	0.0143027
613.738	0.0144658
613.817	0.0145535
613.895	0.0145387
613.973	0.0143118
614.051	0.0143591
614.129	0.0145966
614.207	0.0143951
614.285	0.0144756
614.363	0.0142962
614.442	0.0144371
614.520	0.0144302
614.598	0.0145003
614.676	0.0144851
614.754	0.0144617
614.832	0.0144950
614.910	0.0143961
614.988	0.0145018
615.067	0.0144742
615.145	0.0143873
615.223	0.0144247
615.301	0.0144473
615.379	0.0143170
615.457	0.0144513
615.535	0.0144717
615.613	0.0144291
615.692	0.0144877
615.770	0.0144250
615.848	0.0143915
615.926	0.0143712
616.004	0.0144226
616.082	0.0144192
616.160	0.0143800
616.238	0.0144542
616.317	0.0145150
616.395	0.0144807
616.473	0.0143316
616.551	0.0143884
616.629	0.0145016
616.707	0.0143826
616.785	0.0145060
616.863	0.0145325
616.942	0.0145170
617.020	0.0143430
617.098	0.0144288
617.176	0.0145246
617.254	0.0143027
617.332	0.0143060
617.410	0.0144604
617.488	0.0145300
617.567	0.0144423
617.645	0.0144835
617.723	0.0143549
617.801	0.0144958
617.879	0.0144709
617.957	0.0143430
618.035	0.0144902
618.113	0.0143530
618.192	0.0145238
618.270	0.0144753
618.348	0.0142997
618.426	0.0143664
618.504	0.0144968
618.582	0.0143953
618.660	0.0144474
618.738	0.0144469
618.817	0.0143945
618.895	0.0144422
618.973	0.0145485
619.051	0.0145190
619.129	0.0145686
619.207	0.0145580
619.285	0.0144997
619.363	0.0144762
619.442	0.0145778
619.520	0.0145154
619.598	0.0144350
619.676	0.0144666
619.754	0.0145672
619.832	0.0145388
619.910	0.0146103
619.988	0.0144366
620.067	0.0144421
620.145	0.0143521
620.223	0.0144350
620.301	0.0144501
620.379	0.0145103
620.457	0.0144144
620.535	0.0145145
620.613	0.0144937
620.692	0.0143318
620.770	0.0144733
620.848	0.0144575
620.926	0.0144445
621.004	0.0144368
621.082	0.0144871
621.160	0.0144441
621.238	0.0143615
621.317	0.0143647
621.395	0.0145044
621.473	0.0144465
621.551	0.0144845
621.629	0.0144234
621.707	0.0145345
621.785	0.0144254
621.863	0.0144413
621.942	0.0143824
622.020	0.0144176
622.098	0.0144353
622.176	0.0143448
622.254	0.0144541
622.332	0.0144440
622.410	0.0143863
622.488	0.0145302
622.567	0.0144426
622.645	0.0143303
622.723	0.0144253
622.801	0.0143920
622.879	0.0144827
622.957	0.0144408
623.035	0.0143259
623.113	0.0144067
623.192	0.0144717
623.270	0.0144958
623.348	0.0144080
623.426	0.0145100
623.504	0.0145229
623.582	0.0146111
623.660	0.0145222
623.738	0.0144042
623.817	0.0145454
623.895	0.0144568
623.973	0.0145052
624.051	0.0144547
624.129	0.0144699
624.207	0.0146130
624.285	0.0146147
624.363	0.0144552
624.442	0.0145517
624.520	0.0146006
624.598	0.0146027
624.676	0.0144970
624.754	0.0144263
624.832	0.0143255
624.910	0.0144486
624.988	0.0145779
625.067	0.0145099
625.145	0.0145316
625.223	0.0145798
625.301	0.0144775
625.379	0.0144357
625.457	0.0144685
625.535	0.0144985
625.613	0.0145929
625.692	0.0144611
625.770	0.0143695
625.848	0.0145223
625.926	0.0145163
626.004	0.0145908
626.082	0.0144042
626.160	0.0144848
626.238	0.0144366
626.317	0.0144599
626.395	0.0145100
626.473	0.0144817
626.551	0.0145490
626.629	0.0143388
626.707	0.0143414
626.785	0.0145006
626.863	0.0143861
626.942	0.0144369
627.020	0.0144836
627.098	0.0144316
627.176	0.0144135
627.254	0.0143827
627.332	0.0144386
627.410	0.0145258
627.488	0.0144685
627.567	0.0144640
627.645	0.0144037
627.723	0.0145099
627.801	0.0144601
627.879	0.0144584
627.957	0.0144844
628.035	0.0144363
628.113	0.0144809
628.192	0.0144741
628.270	0.0144641
628.348	0.0144024
628.426	0.0144724
628.504	0.0144370
628.582	0.0145245
628.660	0.0143359
628.738	0.0145801
628.817	0.0145099
628.895	0.0143971
628.973	0.0144681
629.051	0.0145133
629.129	0.0144241
629.207	0.0145775
629.285	0.0145477
629.363	0.0145515
629.442	0.0144833
629.520	0.0144289
629.598	0.0144296
629.676	0.0144555
629.754	0.0144952
629.832	0.0144233
629.910	0.0145831
629.988	0.0145169
630.067	0.0145358
630.145	0.0145083
630.223	0.0146159
630.301	0.0144360
630.379	0.0144756
630.457	0.0144539
630.535	0.0143976
630.613	0.0144427
630.692	0.0145299
630.770	0.0145219
630.848	0.0145692
630.926	0.0145184
631.004	0.0145214
631.082	0.0143667
631.160	0.0143954
631.238	0.0144259
631.317	0.0145377
631.395	0.0145030
631.473	0.0144000
631.551	0.0143722
631.629	0.0145445
631.707	0.0146500
631.785	0.0144806
631.863	0.0145179
631.942	0.0144741
632.020	0.0143983
632.098	0.0143262
632.176	0.0145199
632.254	0.0146156
632.332	0.0145480
632.410	0.0144726
632.488	0.0144845
632.567	0.0144035
632.645	0.0143723
632.723	0.0144863
632.801	0.0144094
632.879	0.0144818
632.957	0.0145173
633.035	0.0144994
633.113	0.0145387
633.192	0.0143662
633.270	0.0143774
633.348	0.0144983
633.426	0.0145670
633.504	0.0144026
633.582	0.0145469
633.660	0.0144520
633.738	0.0143170
633.817	0.0144308
633.895	0.0144155
633.973	0.0145425
634.051	0.0143093
634.129	0.0144096
634.207	0.0144027
634.285	0.0143998
634.363	0.0144265
634.442	0.0144329
634.520	0.0143637
634.598	0.0143916
634.676	0.0145341
634.754	0.0144353
634.832	0.0145373
634.910	0.0144582
634.988	0.0142696
635.067	0.0143400
635.145	0.0143999
635.223	0.0143740
635.301	0.0143853
635.379	0.0144921
635.457	0.0144901
635.535	0.0144401
635.613	0.0143909
635.692	0.0143795
635.770	0.0144485
635.848	0.0143317
635.926	0.0144546
636.004	0.0145743
636.082	0.0145585
636.160	0.0145764
636.238	0.0144272
636.317	0.0144287
636.395	0.0143402
636.473	0.0144007
636.551	0.0146210
636.629	0.0144306
636.707	0.0144652
636.785	0.0145010
636.863	0.0144759
636.942	0.0144779
637.020	0.0145110
637.098	0.0145459
637.176	0.0145733
637.254	0.0144734
637.332	0.0146503
637.410	0.0145350
637.488	0.0144807
637.567	0.0145200
637.645	0.0144955
637.723	0.0143379
637.801	0.0145614
637.879	0.0145978
637.957	0.0143622
638.035	0.0144350
638.113	0.0145266
638.192	0.0144952
638.270	0.0144833
638.348	0.0144453
638.426	0.0145508
638.504	0.0145361
638.582	0.0145411
638.660	0.0145702
638.738	0.0144785
638.817	0.0144300
638.895	0.0144569
638.973	0.0145225
639.051	0.0144530
639.129	0.0145019
639.207	0.0144432
639.285	0.0144371
639.363	0.0146177
639.442	0.0145952
639.520	0.0144821
639.598	0.0144586
639.676	0.0145607
639.754	0.0143969
639.832	0.0146001
639.910	0.0145419
639.988	0.0145317
640.067	0.0144692
640.145	0.0144237
640.223	0.0145907
640.301	0.0146011
640.379	0.0145589
640.457	0.0145271
640.535	0.0145477
640.613	0.0144871
640.692	0.0145053
640.770	0.0144686
640.848	0.0145159
640.926	0.0145443
641.004	0.0146018
641.082	0.0145390
641.160	0.0144563
641.238	0.0146638
641.317	0.0145526
641.395	0.0145410
641.473	0.0144769
641.551	0.0144604
641.629	0.0145759
641.707	0.0144811
641.785	0.0145359
641.863	0.0145798
641.942	0.0145100
642.020	0.0145828
642.098	0.0146693
642.176	0.0144659
642.254	0.0145146
642.332	0.0144239
642.410	0.0144653
642.488	0.0145165
642.567	0.0144916
642.645	0.0144543
642.723	0.0144482
642.801	0.0145730
642.879	0.0145240
642.957	0.0145010
643.035	0.0144152
643.113	0.0145101
643.192	0.0145733
643.270	0.0145396
643.348	0.0144503
643.426	0.0145435
643.504	0.0143974
643.582	0.0145275
643.660	0.0145923
643.738	0.0144961
643.817	0.0144691
643.895	0.0145397
643.973	0.0145336
644.051	0.0144841
644.129	0.0146694
644.207	0.0144923
644.285	0.0145219
644.363	0.0145389
644.442	0.0145293
644.520	0.0144724
644.598	0.0145960
644.676	0.0144888
644.754	0.0143852
644.832	0.0144796
644.910	0.0144157
644.988	0.0145671
645.067	0.0145539
645.145	0.0144132
645.223	0.0144170
645.301	0.0145457
645.379	0.0143686
645.457	0.0143803
645.535	0.0143906
645.613	0.0144409
645.692	0.0144440
645.770	0.0145240
645.848	0.0145261
645.926	0.0144733
646.004	0.0144998
646.082	0.0144584
646.160	0.0145670
646.238	0.0144384
646.317	0.0144502
646.395	0.0144456
646.473	0.0143893
646.551	0.0144440
646.629	0.0143845
646.707	0.0143991
646.785	0.0144530
646.863	0.0145770
646.942	0.0145588
647.020	0.0144576
647.098	0.0143314
647.176	0.0144943
647.254	0.0144621
647.332	0.0145156
647.410	0.0144576
647.488	0.0143204
647.567	0.0144499
647.645	0.0143599
647.723	0.0144898
647.801	0.0145402
647.879	0.0144740
647.957	0.0144034
648.035	0.0144001
648.113	0.0145956
648.192	0.0144580
648.270	0.0145490
648.348	0.0144288
648.426	0.0144295
648.504	0.0145656
648.582	0.0145169
648.660	0.0146048
648.738	0.0145042
648.817	0.0145668
648.895	0.0144356
648.973	0.0145094
649.051	0.0145042
649.129	0.0144572
649.207	0.0145943
649.285	0.0146080
649.363	0.0144426
649.442	0.0145461
649.520	0.0145313
649.598	0.0146261
649.676	0.0144762
649.754	0.0144934
649.832	0.0145498
649.910	0.0145457
649.988	0.0145613
650.067	0.0144465
650.145	0.0145616
650.223	0.0145422
650.301	0.0145267
650.379	0.0147065
650.457	0.0145169
650.535	0.0144891
650.613	0.0145713
650.692	0.0143871
650.770	0.0145233
650.848	0.0143978
650.926	0.0144774
651.004	0.0144343
651.082	0.0143532
651.160	0.0143390
651.238	0.0145775
651.317	0.0145065
651.395	0.0144344
651.473	0.0145200
651.551	0.0144054
651.629	0.0143693
651.707	0.0145012
651.785	0.0145168
651.863	0.0144589
651.942	0.0144541
652.020	0.0144299
652.098	0.0145266
652.176	0.0145837
652.254	0.0144601
652.332	0.0143489
652.410	0.0145728
652.488	0.0144275
652.567	0.0146384
652.645	0.0147292
652.723	0.0145724
652.801	0.0147047
652.879	0.0147482
652.957	0.0147900
653.035	0.0146750
653.113	0.0146692
653.192	0.0145830
653.270	0.0145624
653.348	0.0145698
653.426	0.0145207
653.504	0.0144830
653.582	0.0144459
653.660	0.0143150
653.738	0.0143087
653.817	0.0141085
653.895	0.0140421
653.973	0.0141183
654.051	0.0141267
654.129	0.0142181
654.207	0.0142961
654.285	0.0141888
654.363	0.0141044
654.442	0.0143710
654.520	0.0143507
654.598	0.0143932
654.676	0.0145319
654.754	0.0144778
654.832	0.0144667
654.910	0.0146495
654.988	0.0145560
655.067	0.0145509
655.145	0.0145151
655.223	0.0146690
655.301	0.0145882
655.379	0.0147283
655.457	0.0146626
655.535	0.0145975
655.613	0.0147059
655.692	0.0148129
655.770	0.0147299
655.848	0.0145785
655.926	0.0146218
656.004	0.0146969
656.082	0.0146493
656.160	0.0146712
656.238	0.0146682
656.317	0.0145866
656.395	0.0145722
656.473	0.0147431
656.551	0.0147256
656.629	0.0147567
656.707	0.0147743
656.785	0.0147236
656.863	0.0148374
656.942	0.0148046
657.020	0.0145937
657.098	0.0145380
657.176	0.0145652
657.254	0.0144106
657.332	0.0145636
657.410	0.0143496
657.488	0.0142523
657.567	0.0144012
657.645	0.0144730
657.723	0.0142677
657.801	0.0143572
657.879	0.0144530
657.957	0.0142641
658.035	0.0144952
658.113	0.0143958
658.192	0.0143709
658.270	0.0143107
658.348	0.0143090
658.426	0.0140919
658.504	0.0140076
658.582	0.0138844
658.660	0.0138979
658.738	0.0138212
658.817	0.0138412
658.895	0.0139558
658.973	0.0138613
659.051	0.0139021
659.129	0.0142369
659.207	0.0142256
659.285	0.0142651
659.363	0.0146416
659.442	0.0146594
659.520	0.0147396
659.598	0.0148089
659.676	0.0150317
659.754	0.0150412
659.832	0.0147521
659.910	0.0150676
659.988	0.0150291
660.067	0.0149165
660.145	0.0148872
660.223	0.0148867
660.301	0.0149531
660.379	0.0150983
660.457	0.0150001
660.535	0.0149831
660.613	0.0150925
660.692	0.0149804
660.770	0.0150373
660.848	0.0149564
660.926	0.0148921
661.004	0.0149091
661.082	0.0146684
661.160	0.0146355
661.238	0.0146247
661.317	0.0146220
661.395	0.0145862
661.473	0.0146211
661.551	0.0145678
661.629	0.0146650
661.707	0.0146645
661.785	0.0146716
661.863	0.0145213
661.942	0.0145457
662.020	0.0143968
662.098	0.0141679
662.176	0.0141461
662.254	0.0139750
662.332	0.0140440
662.410	0.0139054
662.488	0.0136591
662.567	0.0135027
662.645	0.0134187
662.723	0.0134933
662.801	0.0133939
662.879	0.0133640
662.957	0.0134525
663.035	0.0134509
663.113	0.0134899
663.192	0.0135847
663.270	0.0136697
663.348	0.0138802
663.426	0.0141185
663.504	0.0141122
663.582	0.0144258
663.660	0.0145821
663.738	0.0147598
663.817	0.0149690
663.895	0.0152377
663.973	0.0152750
664.051	0.0153059
664.129	0.0152654
664.207	0.0152933
664.285	0.0153654
664.363	0.0152198
664.442	0.0151417
664.520	0.0151562
664.598	0.0149928
664.676	0.0149566
664.754	0.0149901
664.832	0.0148555
664.910	0.0148073
664.988	0.0149914
665.067	0.0148134
665.145	0.0147493
665.223	0.0148159
665.301	0.0147732
665.379	0.0148206
665.457	0.0147150
665.535	0.0148653
665.613	0.0148042
665.692	0.0147349
665.770	0.0147552
665.848	0.0148114
665.926	0.0148207
666.004	0.0149207
666.082	0.0147938
666.160	0.0148239
666.238	0.0147793
666.317	0.0147830
666.395	0.0146832
666.473	0.0143211
666.551	0.0142243
666.629	0.0141666
666.707	0.0140733
666.785	0.0140496
666.863	0.0139852
666.942	0.0138625
667.020	0.0137860
667.098	0.0138306
667.176	0.0136533
667.254	0.0138209
667.332	0.0137922
667.410	0.0136580
667.488	0.0138335
667.567	0.0138406
667.645	0.0138451
667.723	0.0137938
667.801	0.0139782
667.879	0.0138599
667.957	0.0139091
668.035	0.0140388
668.113	0.0140311
668.192	0.0142119
668.270	0.0141129
668.348	0.0141655
668.426	0.0143602
668.504	0.0143184
668.582	0.0143526
668.660	0.0144123
668.738	0.0143588
668.817	0.0144713
668.895	0.0144166
668.973	0.0145811
669.051	0.0147344
669.129	0.0146709
669.207	0.0150304
669.285	0.0149820
669.363	0.0151305
669.442	0.0152477
669.520	0.0151608
669.598	0.0153602
669.676	0.0153974
669.754	0.0153561
669.832	0.0153996
669.910	0.0153960
669.988	0.0153320
670.067	0.0152547
670.145	0.0151641
670.223	0.0150532
670.301	0.0151578
670.379	0.0150386
670.457	0.0149233
670.535	0.0148646
670.613	0.0149284
670.692	0.0149339
670.770	0.0147737
670.848	0.0147528
670.926	0.0147296
671.004	0.0146549
671.082	0.0145900
671.160	0.0146729
671.238	0.0145033
671.317	0.0147229
671.395	0.0144463
671.473	0.0144402
671.551	0.0143061
671.629	0.0142944
671.707	0.0141162
671.785	0.0141139
671.863	0.0142162
671.942	0.0140992
672.020	0.0139980
672.098	0.0138264
672.176	0.0138671
672.254	0.0137108
672.332	0.0138160
672.410	0.0135902
672.488	0.0135339
672.567	0.0135925
672.645	0.0135809
672.723	0.0137006
672.801	0.0136145
672.879	0.0137486
672.957	0.0139499
673.035	0.0139353
673.113	0.0140357
673.192	0.0141723
673.270	0.0141980
673.348	0.0144103
673.426	0.0143993
673.504	0.0144662
673.582	0.0144279
673.660	0.0145446
673.738	0.0146429
673.817	0.0146132
673.895	0.0145635
673.973	0.0146844
674.051	0.0147787
674.129	0.0148323
674.207	0.0147757
674.285	0.0147256
674.363	0.0146056
674.442	0.0145985
674.520	0.0143881
674.598	0.0144456
674.676	0.0144836
674.754	0.0144675
674.832	0.0144411
674.910	0.0143999
674.988	0.0144726
675.067	0.0145271
675.145	0.0146144
675.223	0.0146907
675.301	0.0147848
675.379	0.0149169
675.457	0.0151566
675.535	0.0151266
675.613	0.0154396
675.692	0.0154222
675.770	0.0154540
675.848	0.0155021
675.926	0.0155635
676.004	0.0152923
676.082	0.0155335
676.160	0.0155324
676.238	0.0154063
676.317	0.0153605
676.395	0.0153516
676.473	0.0152087
676.551	0.0150447
676.629	0.0149505
676.707	0.0147449
676.785	0.0145767
676.863	0.0144952
676.942	0.0142663
677.020	0.0140980
677.098	0.0139945
677.176	0.0137331
677.254	0.0136080
677.332	0.0134875
677.410	0.0134180
677.488	0.0133286
677.567	0.0132667
677.645	0.0132910
677.723	0.0132610
677.801	0.0131866
677.879	0.0132654
677.957	0.0134340
678.035	0.0134877
678.113	0.0137321
678.192	0.0138469
678.270	0.0139175
678.348	0.0140551
678.426	0.0142040
678.504	0.0142745
678.582	0.0143288
678.660	0.0146746
678.738	0.0147364
678.817	0.0147575
678.895	0.0147762
678.973	0.0148746
679.051	0.0150521
679.129	0.0148870
679.207	0.0148554
679.285	0.0148910
679.363	0.0148668
679.442	0.0149029
679.520	0.0147028
679.598	0.0147430
679.676	0.0145900
679.754	0.0143531
679.832	0.0143508
679.910	0.0143538
679.988	0.0140867
680.067	0.0140241
680.145	0.0140035
680.223	0.0139328
680.301	0.0138527
680.379	0.0137295
680.457	0.0139134
680.535	0.0139431
680.613	0.0141200
680.692	0.0141046
680.770	0.0143938
680.848	0.0144376
680.926	0.0146107
681.004	0.0148196
681.082	0.0151110
681.160	0.0152851
681.238	0.0154956
681.317	0.0156051
681.395	0.0158575
681.473	0.0159854
681.551	0.0159320
681.629	0.0161768
681.707	0.0159895
681.785	0.0159237
681.863	0.0159621
681.942	0.0158877
682.020	0.0158128
682.098	0.0156301
682.176	0.0155766
682.254	0.0152818
682.332	0.0152637
682.410	0.0152774
682.488	0.0150802
682.567	0.0149285
682.645	0.0148019
682.723	0.0146297
682.801	0.0142627
682.879	0.0141608
682.957	0.0140621
683.035	0.0137585
683.113	0.0135704
683.192	0.0133442
683.270	0.0133533
683.348	0.0131179
683.426	0.0129036
683.504	0.0128690
683.582	0.0129305
683.660	0.0128821
683.738	0.0128748
683.817	0.0128445
683.895	0.0127949
683.973	0.0129863
684.051	0.0132980
684.129	0.0133131
684.207	0.0135278
684.285	0.0135278
684.363	0.0136575
684.442	0.0138573
684.520	0.0140157
684.598	0.0141788
684.676	0.0140604
684.754	0.0142639
684.832	0.0143903
684.910	0.0145036
684.988	0.0147334
685.067	0.0147549
685.145	0.0148154
685.223	0.0149715
685.301	0.0149137
685.379	0.0149017
685.457	0.0149314
685.535	0.0149924
685.613	0.0150266
685.692	0.0147983
685.770	0.0148759
685.848	0.0149535
685.926	0.0148241
686.004	0.0146751
686.082	0.0148993
686.160	0.0148402
686.238	0.0148769
686.317	0.0149615
686.395	0.0150198
686.473	0.0152015
686.551	0.0153112
686.629	0.0153460
686.707	0.0155450
686.785	0.0155467
686.863	0.0156680
686.942	0.0155988
687.020	0.0156474
687.098	0.0156574
687.176	0.0156800
687.254	0.0156817
687.332	0.0154507
687.410	0.0154275
687.488	0.0154368
687.567	0.0151114
687.645	0.0150746
687.723	0.0147358
687.801	0.0145142
687.879	0.0142918
687.957	0.0142020
688.035	0.0138607
688.113	0.0138189
688.192	0.0134908
688.270	0.0132667
688.348	0.0131583
688.426	0.0131467
688.504	0.0129684
688.582	0.0129581
688.660	0.0130980
688.738	0.0131033
688.817	0.0131541
688.895	0.0134462
688.973	0.0134705
689.051	0.0137172
689.129	0.0138408
689.207	0.0139738
689.285	0.0140978
689.363	0.0139439
689.442	0.0141338
689.520	0.0142176
689.598	0.0142653
689.676	0.0144025
689.754	0.0143438
689.832	0.0144313
689.910	0.0144886
689.988	0.0146241
690.067	0.0147298
690.145	0.0148222
690.223	0.0150368
690.301	0.0151294
690.379	0.0152460
690.457	0.0152509
690.535	0.0152510
690.613	0.0152419
690.692	0.0150407
690.770	0.0152287
690.848	0.0151205
690.926	0.0149364
691.004	0.0147781
691.082	0.0147726
691.160	0.0146937
691.238	0.0145621
691.317	0.0143733
691.395	0.0143317
691.473	0.0141978
691.551	0.0142574
691.629	0.0140897
691.707	0.0140543
691.785	0.0141205
691.863	0.0140454
691.942	0.0139583
692.020	0.0141533
692.098	0.0141843
692.176	0.0143026
692.254	0.0144566
692.332	0.0146071
692.410	0.0144799
692.488	0.0145068
692.567	0.0146261
692.645	0.0147974
692.723	0.0148819
692.801	0.0148603
692.879	0.0147678
692.957	0.0148260
693.035	0.0147692
693.113	0.0145902
693.192	0.0145872
693.270	0.0145899
693.348	0.0144964
693.426	0.0142648
693.504	0.0143433
693.582	0.0143687
693.660	0.0143116
693.738	0.0141965
693.817	0.0142151
693.895	0.0141951
693.973	0.0142346
694.051	0.0144772
694.129	0.0145667
694.207	0.0146542
694.285	0.0148795
694.363	0.0148630
694.442	0.0151228
694.520	0.0150706
694.598	0.0151305
694.676	0.0152578
694.754	0.0151378
694.832	0.0151801
694.910	0.0151303
694.988	0.0149759
695.067	0.0149002
695.145	0.0147170
695.223	0.0146808
695.301	0.0145105
695.379	0.0145552
695.457	0.0142944
695.535	0.0141931
695.613	0.0140882
695.692	0.0139669
695.770	0.0139204
695.848	0.0138277
695.926	0.0134753
696.004	0.0135804
696.082	0.0135311
696.160	0.0135818
696.238	0.0134817
696.317	0.0134901
696.395	0.0136820
696.473	0.0138063
696.551	0.0139722
696.629	0.0141573
696.707	0.0141901
696.785	0.0143032
696.863	0.0144543
696.942	0.0146784
697.020	0.0147459
697.098	0.0146513
697.176	0.0146405
697.254	0.0145467
697.332	0.0146269
697.410	0.0145487
697.488	0.0144342
697.567	0.0142199
697.645	0.0143634
697.723	0.0144585
697.801	0.0141110
697.879	0.0142960
697.957	0.0142415
698.035	0.0143983
698.113	0.0143412
698.192	0.0143095
698.270	0.0144058
698.348	0.0145901
698.426	0.0146358
698.504	0.0146378
698.582	0.0147194
698.660	0.0146774
698.738	0.0145976
698.817	0.0147992
698.895	0.0149221
698.973	0.0149998
699.051	0.0151086
699.129	0.0151196
699.207	0.0152431
699.285	0.0153824
699.363	0.0153046
699.442	0.0152742
699.520	0.0153737
699.598	0.0153405
699.676	0.0153822
699.754	0.0153523
699.832	0.0152499
699.910	0.0150410
699.988	0.0150489
700.067	0.0150916
700.145	0.0150744
700.223	0.0148717
700.301	0.0146870
700.379	0.0145296
700.457	0.0144218
700.535	0.0141643
700.613	0.0142673
700.692	0.0141763
700.770	0.0140758
700.848	0.0138575
700.926	0.0137245
701.004	0.0136813
701.082	0.0138297
701.160	0.0137972
701.238	0.0136394
701.317	0.0136585
701.395	0.0136953
701.473	0.0137693
701.551	0.0137114
701.629	0.0137398
701.707	0.0138145
701.785	0.0137693
701.863	0.0137698
701.942	0.0138482
702.020	0.0138922
702.098	0.0139217
702.176	0.0139081
702.254	0.0139918
702.332	0.0140273
702.410	0.0142023
702.488	0.0142441
702.567	0.0142284
702.645	0.0143111
702.723	0.0144507
702.801	0.0145739
702.879	0.0146301
702.957	0.0147273
703.035	0.0146921
703.113	0.0148069
703.192	0.0147438
703.270	0.0149043
703.348	0.0149222
703.426	0.0150289
703.504	0.0149190
703.582	0.0149817
703.660	0.0150562
703.738	0.0150289
703.817	0.0151196
703.895	0.0151231
703.973	0.0150495
704.051	0.0150349
704.129	0.0151704
704.207	0.0151357
704.285	0.0149016
704.363	0.0149796
704.442	0.0151446
704.520	0.0150026
704.598	0.0151369
704.676	0.0151315
704.754	0.0151192
704.832	0.0150931
704.910	0.0148740
704.988	0.0146862
705.067	0.0146655
705.145	0.0146069
705.223	0.0145579
705.301	0.0143742
705.379	0.0143378
705.457	0.0140479
705.535	0.0139809
705.613	0.0137706
705.692	0.0138268
705.770	0.0137563
705.848	0.0137371
705.926	0.0138345
706.004	0.0138293
706.082	0.0139156
706.160	0.0139941
706.238	0.0141342
706.317	0.0142953
706.395	0.0142157
706.473	0.0143498
706.551	0.0143784
706.629	0.0144688
706.707	0.0145449
706.785	0.0145469
706.863	0.0144422
706.942	0.0144382
707.020	0.0144503
707.098	0.0144376
707.176	0.0143494
707.254	0.0144097
707.332	0.0142411
707.410	0.0144120
707.488	0.0144115
707.567	0.0142791
707.645	0.0143271
707.723	0.0144033
707.801	0.0146313
707.879	0.0146082
707.957	0.0145305
708.035	0.0144209
708.113	0.0145532
708.192	0.0143271
708.270	0.0143919
708.348	0.0143908
708.426	0.0144647
708.504	0.0143578
708.582	0.0144337
708.660	0.0143533
708.738	0.0144174
708.817	0.0143269
708.895	0.0144617
708.973	0.0144715
709.051	0.0145754
709.129	0.0145938
709.207	0.0146326
709.285	0.0147463
709.363	0.0149054
709.442	0.0148943
709.520	0.0148960
709.598	0.0147771
709.676	0.0148257
709.754	0.0148799
709.832	0.0148353
709.910	0.0147624
709.988	0.0146574
710.067	0.0146122
710.145	0.0146327
710.223	0.0145689
710.301	0.0144756
710.379	0.0144112
710.457	0.0142796
710.535	0.0142878
710.613	0.0142733
710.692	0.0142860
710.770	0.0142519
710.848	0.0142236
710.926	0.0142052
711.004	0.0141496
711.082	0.0142091
711.160	0.0142511
711.238	0.0142111
711.317	0.0142753
711.395	0.0143241
711.473	0.0141768
711.551	0.0143063
711.629	0.0142588
711.707	0.0144234
711.785	0.0145224
711.863	0.0143689
711.942	0.0143882
712.020	0.0144971
712.098	0.0143714
712.176	0.0144559
712.254	0.0143823
712.332	0.0144820
712.410	0.0142689
712.488	0.0144685
712.567	0.0143079
712.645	0.0142090
712.723	0.0143422
712.801	0.0143800
712.879	0.0144487
712.957	0.0145548
713.035	0.0145439
713.113	0.0144656
713.192	0.0145329
713.270	0.0145437
713.348	0.0145451
713.426	0.0145501
713.504	0.0147138
713.582	0.0146796
713.660	0.0146532
713.738	0.0145473
713.817	0.0145352
713.895	0.0146668
713.973	0.0145502
714.051	0.0146153
714.129	0.0145995
714.207	0.0146918
714.285	0.0145683
714.363	0.0146178
714.442	0.0145925
714.520	0.0144885
714.598	0.0145835
714.676	0.0145345
714.754	0.0144955
714.832	0.0146574
714.910	0.0141867
714.988	0.0143595
715.067	0.0143998
715.145	0.0141489
715.223	0.0141077
715.301	0.0141665
715.379	0.0141586
715.457	0.0141749
715.535	0.0141017
715.613	0.0142278
715.692	0.0141354
715.770	0.0142348
715.848	0.0142843
715.926	0.0145045
716.004	0.0145705
716.082	0.0146461
716.160	0.0145871
716.238	0.0146291
716.317	0.0146843
716.395	0.0147558
716.473	0.0147195
716.551	0.0147557
716.629	0.0147311
716.707	0.0148072
716.785	0.0145274
716.863	0.0145655
716.942	0.0144938
717.020	0.0144294
717.098	0.0143076
717.176	0.0143835
717.254	0.0143082
717.332	0.0144218
717.410	0.0143996
717.488	0.0145180
717.567	0.0144241
717.645	0.0144899
717.723	0.0144166
717.801	0.0144971
717.879	0.0145579
717.957	0.0146110
718.035	0.0146484
718.113	0.0147232
718.192	0.0147897
718.270	0.0147782
718.348	0.0147130
718.426	0.0146606
718.504	0.0147854
718.582	0.0148080
718.660	0.0149032
718.738	0.0147460
718.817	0.0148955
718.895	0.0147652
718.973	0.0146626
719.051	0.0145156
719.129	0.0144796
719.207	0.0143264
719.285	0.0143242
719.363	0.0141904
719.442	0.0141350
719.520	0.0142594
719.598	0.0141909
719.676	0.0140323
719.754	0.0139914
719.832	0.0142632
719.910	0.0140588
719.988	0.0141855
720.067	0.0142744
720.145	0.0142801
720.223	0.0142865
720.301	0.0144485
720.379	0.0144435
720.457	0.0143861
720.535	0.0144730
720.613	0.0144106
720.692	0.0144917
720.770	0.0144651
720.848	0.0144373
720.926	0.0142926
721.004	0.0142748
721.082	0.0142437
721.160	0.0144006
721.238	0.0143826
721.317	0.0142637
721.395	0.0142844
721.473	0.0142865
721.551	0.0143803
721.629	0.0143266
721.707	0.0144659
721.785	0.0146084
721.863	0.0145274
721.942	0.0144657
722.020	0.0145248
722.098	0.0144933
722.176	0.0146307
722.254	0.0147916
722.332	0.0147231
722.410	0.0146853
722.488	0.0147047
722.567	0.0150697
722.645	0.0148461
722.723	0.0148927
722.801	0.0149042
722.879	0.0148557
722.957	0.0148746
723.035	0.0149538
723.113	0.0149032
723.192	0.0146922
723.270	0.0146911
723.348	0.0146304
723.426	0.0145464
723.504	0.0145985
723.582	0.0145968
723.660	0.0145067
723.738	0.0144273
723.817	0.0145235
723.895	0.0144424
723.973	0.0144736
724.051	0.0145406
724.129	0.0145376
724.207	0.0143642
724.285	0.0146066
724.363	0.0145771
724.442	0.0145428
724.520	0.0146473
724.598	0.0144695
724.676	0.0143147
724.754	0.0144020
724.832	0.0143980
724.910	0.0143887
724.988	0.0143513
725.067	0.0142579
725.145	0.0142274
725.223	0.0142052
725.301	0.0142103
725.379	0.0143124
725.457	0.0142575
725.535	0.0141764
725.613	0.0143256
725.692	0.0144390
725.770	0.0141612
725.848	0.0140962
725.926	0.0141989
726.004	0.0142303
726.082	0.0141282
726.160	0.0142620
726.238	0.0142494
726.317	0.0142738
726.395	0.0142961
726.473	0.0143935
726.551	0.0143064
726.629	0.0142790
726.707	0.0143373
726.785	0.0143678
726.863	0.0144698
726.942	0.0145911
727.020	0.0145441
727.098	0.0145706
727.176	0.0146042
727.254	0.0144925
727.332	0.0146384
727.410	0.0146349
727.488	0.0146508
727.567	0.0147057
727.645	0.0148178
727.723	0.0147980
727.801	0.0148723
727.879	0.0149404
727.957	0.0149367
728.035	0.0148574
728.113	0.0148663
728.192	0.0147971
728.270	0.0149360
728.348	0.0147913
728.426	0.0146946
728.504	0.0147046
728.582	0.0145141
728.660	0.0144964
728.738	0.0143443
728.817	0.0142948
728.895	0.0143816
728.973	0.0144466
729.051	0.0143585
729.129	0.0142527
729.207	0.0144728
729.285	0.0144038
729.363	0.0144896
729.442	0.0144747
729.520	0.0143623
729.598	0.0142911
729.676	0.0143352
729.754	0.0144621
729.832	0.0144525
729.910	0.0143444
729.988	0.0145042
730.067	0.0144119
730.145	0.0142918
730.223	0.0143436
730.301	0.0144238
730.379	0.0144297
730.457	0.0144312
730.535	0.0145996
730.613	0.0144332
730.692	0.0145219
730.770	0.0145184
730.848	0.0145549
730.926	0.0145732
731.004	0.0144930
731.082	0.0144585
731.160	0.0143951
731.238	0.0144270
731.317	0.0143877
731.395	0.0143032
731.473	0.0142918
731.551	0.0142932
731.629	0.0142406
731.707	0.0143314
731.785	0.0143782
731.863	0.0143190
731.942	0.0143848
732.020	0.0143635
732.098	0.0144019
732.176	0.0142779
732.254	0.0141737
732.332	0.0145626
732.410	0.0144376
732.488	0.0145152
732.567	0.0145140
732.645	0.0144458
732.723	0.0144038
732.801	0.0144489
732.879	0.0144434
732.957	0.0144920
733.035	0.0144030
733.113	0.0144370
733.192	0.0143879
733.270	0.0142242
733.348	0.0142181
733.426	0.0142822
733.504	0.0143358
733.582	0.0143114
733.660	0.0141943
733.738	0.0143822
733.817	0.0143414
733.895	0.0143530
733.973	0.0143241
734.051	0.0143758
734.129	0.0144248
734.207	0.0144203
734.285	0.0143544
734.363	0.0145537
734.442	0.0145233
734.520	0.0146291
734.598	0.0146731
734.676	0.0147554
734.754	0.0149421
734.832	0.0148666
734.910	0.0148550
734.988	0.0148976
735.067	0.0149706
735.145	0.0149490
735.223	0.0149697
735.301	0.0149099
735.379	0.0148711
735.457	0.0148270
735.535	0.0147704
735.613	0.0146902
735.692	0.0146405
735.770	0.0146017
735.848	0.0146387
735.926	0.0145765
736.004	0.0145676
736.082	0.0144850
736.160	0.0144424
736.238	0.0144669
736.317	0.0142580
736.395	0.0141692
736.473	0.0142233
736.551	0.0142847
736.629	0.0143188
736.707	0.0142609
736.785	0.0140324
736.863	0.0141811
736.942	0.0141808
737.020	0.0142844
737.098	0.0143134
737.176	0.0143982
737.254	0.0142693
737.332	0.0143517
737.410	0.0144705
737.488	0.0145121
737.567	0.0145042
737.645	0.0146162
737.723	0.0144791
737.801	0.0144467
737.879	0.0144260
737.957	0.0145219
738.035	0.0145528
738.113	0.0145437
738.192	0.0145589
738.270	0.0144855
738.348	0.0145270
738.426	0.0144855
738.504	0.0145553
738.582	0.0145567
738.660	0.0146529
738.738	0.0144910
738.817	0.0145206
738.895	0.0145683
738.973	0.0145911
739.051	0.0144006
739.129	0.0147024
739.207	0.0144610
739.285	0.0145190
739.363	0.0145739
739.442	0.0144992
739.520	0.0145668
739.598	0.0145437
739.676	0.0145575
739.754	0.0145959
739.832	0.0145224
739.910	0.0146084
739.988	0.0146350
740.067	0.0146481
740.145	0.0146767
740.223	0.0147522
740.301	0.0146080
740.379	0.0147344
740.457	0.0145960
740.535	0.0146925
740.613	0.0147943
740.692	0.0145224
740.770	0.0146368
740.848	0.0146782
740.926	0.0146095
741.004	0.0145386
741.082	0.0145477
741.160	0.0144060
741.238	0.0144449
741.317	0.0146043
741.395	0.0145849
741.473	0.0142639
741.551	0.0143211
741.629	0.0143830
741.707	0.0143956
741.785	0.0143650
741.863	0.0143441
741.942	0.0143848
742.020	0.0142960
742.098	0.0142747
742.176	0.0143024
742.254	0.0143256
742.332	0.0144889
742.410	0.0145238
742.488	0.0143941
742.567	0.0144907
742.645	0.0145143
742.723	0.0146068
742.801	0.0146485
742.879	0.0145602
742.957	0.0145127
743.035	0.0146798
743.113	0.0146169
743.192	0.0147747
743.270	0.0146821
743.348	0.0147630
743.426	0.0148211
743.504	0.0147395
743.582	0.0146684
743.660	0.0145061
743.738	0.0144548
743.817	0.0144940
743.895	0.0145164
743.973	0.0144588
744.051	0.0143876
744.129	0.0144157
744.207	0.0143532
744.285	0.0143146
744.363	0.0143311
744.442	0.0142596
744.520	0.0144357
744.598	0.0143723
744.676	0.0144400
744.754	0.0144069
744.832	0.0144109
744.910	0.0145592
744.988	0.0145340
745.067	0.0145247
745.145	0.0145905
745.223	0.0145141
745.301	0.0145293
745.379	0.0146436
745.457	0.0145278
745.535	0.0145039
745.613	0.0145487
745.692	0.0143982
745.770	0.0144161
745.848	0.0144308
745.926	0.0144500
746.004	0.0143913
746.082	0.0144453
746.160	0.0144599
746.238	0.0144022
746.317	0.0144376
746.395	0.0144788
746.473	0.0144247
746.551	0.0146085
746.629	0.0145198
746.707	0.0145287
746.785	0.0145340
746.863	0.0145557
746.942	0.0147337
747.020	0.0146510
747.098	0.0146272
747.176	0.0147141
747.254	0.0146005
747.332	0.0146421
747.410	0.0145868
747.488	0.0145251
747.567	0.0145834
747.645	0.0145139
747.723	0.0144708
747.801	0.0144835
747.879	0.0145107
747.957	0.0145127
748.035	0.0143783
748.113	0.0143843
748.192	0.0143613
748.270	0.0144028
748.348	0.0143439
748.426	0.0144354
748.504	0.0143393
748.582	0.0143678
748.660	0.0144054
748.738	0.0144081
748.817	0.0144895
748.895	0.0143661
748.973	0.0143908
749.051	0.0142942
749.129	0.0143055
749.207	0.0143496
749.285	0.0144781
749.363	0.0143739
749.442	0.0144175
749.520	0.0143616
749.598	0.0142112
749.676	0.0143081
749.754	0.0143158
749.832	0.0144549
749.910	0.0143221
749.988	0.0144426
750.067	0.0143147
750.145	0.0146121
750.223	0.0144791
750.301	0.0143975
750.379	0.0144685
750.457	0.0144951
750.535	0.0146620
750.613	0.0146121
750.692	0.0146002
750.770	0.0146466
750.848	0.0147820
750.926	0.0147832
751.004	0.0145425
751.082	0.0148253
751.160	0.0148607
751.238	0.0147785
751.317	0.0147868
751.395	0.0146912
751.473	0.0146136
751.551	0.0145649
751.629	0.0145800
751.707	0.0144671
751.785	0.0144683
751.863	0.0144856
751.942	0.0144823
752.020	0.0144942
752.098	0.0145588
752.176	0.0143520
752.254	0.0143555
752.332	0.0145049
752.410	0.0144435
752.488	0.0145827
752.567	0.0143992
752.645	0.0143419
752.723	0.0144668
752.801	0.0145292
752.879	0.0146099
752.957	0.0145655
753.035	0.0144872
753.113	0.0144675
753.192	0.0145221
753.270	0.0146004
753.348	0.0144437
753.426	0.0145100
753.504	0.0143193
753.582	0.0143526
753.660	0.0144136
753.738	0.0144423
753.817	0.0143835
753.895	0.0142677
753.973	0.0142159
754.051	0.0141763
754.129	0.0142815
754.207	0.0140889
754.285	0.0141926
754.363	0.0142869
754.442	0.0142728
754.520	0.0142923
754.598	0.0143294
754.676	0.0143784
754.754	0.0144218
754.832	0.0144478
754.910	0.0144934
754.988	0.0145266
755.067	0.0144755
755.145	0.0144432
755.223	0.0145496
755.301	0.0145811
755.379	0.0145001
755.457	0.0144167
755.535	0.0145453
755.613	0.0145773
755.692	0.0146314
755.770	0.0144794
755.848	0.0145547
755.926	0.0144967
756.004	0.0145924
756.082	0.0145010
756.160	0.0144800
756.238	0.0145724
756.317	0.0145579
756.395	0.0145589
756.473	0.0144579
756.551	0.0146366
756.629	0.0144846
756.707	0.0143736
756.785	0.0144388
756.863	0.0144336
756.942	0.0143191
757.020	0.0144732
757.098	0.0143981
757.176	0.0142552
757.254	0.0144983
757.332	0.0145004
757.410	0.0143243
757.488	0.0142707
757.567	0.0144470
757.645	0.0145273
757.723	0.0144501
757.801	0.0144364
757.879	0.0146512
757.957	0.0145530
758.035	0.0143815
758.113	0.0146204
758.192	0.0146102
758.270	0.0145536
758.348	0.0145244
758.426	0.0146360
758.504	0.0146461
758.582	0.0146151
758.660	0.0146587
758.738	0.0145890
758.817	0.0144137
758.895	0.0144928
758.973	0.0145935
759.051	0.0144608
759.129	0.0144276
759.207	0.0144981
759.285	0.0143830
759.363	0.0144289
759.442	0.0145286
759.520	0.0144276
759.598	0.0144749
759.676	0.0144791
759.754	0.0143669
759.832	0.0144815
759.910	0.0144353
759.988	0.0144207
760.067	0.0145407
760.145	0.0143711
760.223	0.0145321
760.301	0.0145078
760.379	0.0145406
760.457	0.0144888
760.535	0.0144897
760.613	0.0145843
760.692	0.0146630
760.770	0.0145281
760.848	0.0146242
760.926	0.0144730
761.004	0.0144764
761.082	0.0142908
761.160	0.0144193
761.238	0.0145185
761.317	0.0143555
761.395	0.0143851
761.473	0.0143972
761.551	0.0143275
761.629	0.0143864
761.707	0.0143441
761.785	0.0144627
761.863	0.0143615
761.942	0.0144674
762.020	0.0145395
762.098	0.0145873
762.176	0.0145349
762.254	0.0144681
762.332	0.0144055
762.410	0.0146458
762.488	0.0146373
762.567	0.0146945
762.645	0.0147026
762.723	0.0145724
762.801	0.0146162
762.879	0.0146780
762.957	0.0146769
763.035	0.0146138
763.113	0.0145797
763.192	0.0146052
763.270	0.0146954
763.348	0.0146687
763.426	0.0145654
763.504	0.0145784
763.582	0.0144867
763.660	0.0144241
763.738	0.0145348
763.817	0.0144958
763.895	0.0144559
763.973	0.0142994
764.051	0.0142910
764.129	0.0142680
764.207	0.0142664
764.285	0.0143446
764.363	0.0143417
764.442	0.0143661
764.520	0.0144611
764.598	0.0144390
764.676	0.0142981
764.754	0.0142876
764.832	0.0143825
764.910	0.0144740
764.988	0.0144023
765.067	0.0145364
765.145	0.0145675
765.223	0.0144760
765.301	0.0145463
765.379	0.0144640
765.457	0.0145792
765.535	0.0145393
765.613	0.0144807
765.692	0.0146345
765.770	0.0144451
765.848	0.0144952
765.926	0.0145924
766.004	0.0146540
766.082	0.0145277
766.160	0.0146015
766.238	0.0146330
766.317	0.0146383
766.395	0.0145530
766.473	0.0144935
766.551	0.0145541
766.629	0.0145647
766.707	0.0145882
766.785	0.0146459
766.863	0.0145609
766.942	0.0144594
767.020	0.0143950
767.098	0.0144234
767.176	0.0145096
767.254	0.0144852
767.332	0.0146111
767.410	0.0144709
767.488	0.0145895
767.567	0.0144043
767.645	0.0145071
767.723	0.0146100
767.801	0.0145910
767.879	0.0145801
767.957	0.0146791
768.035	0.0146533
768.113	0.0146746
768.192	0.0145438
768.270	0.0146655
768.348	0.0144962
768.426	0.0145782
768.504	0.0145908
768.582	0.0146238
768.660	0.0146931
768.738	0.0145140
768.817	0.0144696
768.895	0.0145298
768.973	0.0144286
769.051	0.0145576
769.129	0.0144612
769.207	0.0145207
769.285	0.0142831
769.363	0.0142788
769.442	0.0143668
769.520	0.0143163
769.598	0.0143134
769.676	0.0143457
769.754	0.0143748
769.832	0.0143552
769.910	0.0142876
769.988	0.0143141
770.067	0.0143172
770.145	0.0143302
770.223	0.0144788
770.301	0.0143143
770.379	0.0142286
770.457	0.0142873
770.535	0.0143956
770.613	0.0143342
770.692	0.0144542
770.770	0.0145420
770.848	0.0145077
770.926	0.0144097
771.004	0.0144508
771.082	0.0144019
771.160	0.0144670
771.238	0.0145084
771.317	0.0145230
771.395	0.0144585
771.473	0.0147370
771.551	0.0146823
771.629	0.0146188
771.707	0.0146702
771.785	0.0145743
771.863	0.0144629
771.942	0.0146634
772.020	0.0146288
772.098	0.0145578
772.176	0.0146046
772.254	0.0145493
772.332	0.0145408
772.410	0.0146127
772.488	0.0145197
772.567	0.0145575
772.645	0.0146349
772.723	0.0146535
772.801	0.0147112
772.879	0.0145477
772.957	0.0145966
773.035	0.0146777
773.113	0.0144267
773.192	0.0145439
773.270	0.0145132
773.348	0.0145219
773.426	0.0146258
773.504	0.0144678
773.582	0.0144083
773.660	0.0144641
773.738	0.0145747
773.817	0.0145722
773.895	0.0144874
773.973	0.0143330
774.051	0.0144296
774.129	0.0144540
774.207	0.0142527
774.285	0.0143342
774.363	0.0142851
774.442	0.0142947
774.520	0.0143060
774.598	0.0144681
774.676	0.0143539
774.754	0.0144261
774.832	0.0144543
774.910	0.0144413
774.988	0.0143540
775.067	0.0144220
775.145	0.0144058
775.223	0.0146161
775.301	0.0144687
775.379	0.0144386
775.457	0.0145361
775.535	0.0145455
775.613	0.0144012
775.692	0.0144153
775.770	0.0144617
775.848	0.0143559
775.926	0.0145348
776.004	0.0144017
776.082	0.0143484
776.160	0.0144190
776.238	0.0143851
776.317	0.0143196
776.395	0.0142721
776.473	0.0143711
776.551	0.0144025
776.629	0.0144082
776.707	0.0144100
776.785	0.0144061
776.863	0.0144750
776.942	0.0144981
777.020	0.0145116
777.098	0.0145500
777.176	0.0145876
777.254	0.0145268
777.332	0.0146396
777.410	0.0146552
777.488	0.0145955
777.567	0.0145862
777.645	0.0146018
777.723	0.0146258
777.801	0.0146024
777.879	0.0145282
777.957	0.0145213
778.035	0.0143526
778.113	0.0143908
778.192	0.0144735
778.270	0.0143307
778.348	0.0143859
778.426	0.0144693
778.504	0.0143580
778.582	0.0145185
778.660	0.0143266
778.738	0.0144594
778.817	0.0143481
778.895	0.0143912
778.973	0.0144246
779.051	0.0143108
779.129	0.0143431
779.207	0.0142684
779.285	0.0144489
779.363	0.0144252
779.442	0.0143902
779.520	0.0143245
779.598	0.0144852
779.676	0.0143799
779.754	0.0142974
779.832	0.0144120
779.910	0.0142859
779.988	0.0143371
780.067	0.0141649
780.145	0.0144448
780.223	0.0144057
780.301	0.0142133
780.379	0.0144064
780.457	0.0143641
780.535	0.0144334
780.613	0.0143550
780.692	0.0143516
780.770	0.0143638
780.848	0.0144426
780.926	0.0143713
781.004	0.0144002
781.082	0.0143649
781.160	0.0145311
781.238	0.0144463
781.317	0.0144546
781.395	0.0144492
781.473	0.0145374
781.551	0.0148269
781.629	0.0146027
781.707	0.0145995
781.785	0.0146143
781.863	0.0144653
781.942	0.0144033
782.020	0.0146060
782.098	0.0146249
782.176	0.0144267
782.254	0.0144496
782.332	0.0145219
782.410	0.0145136
782.488	0.0145255
782.567	0.0146996
782.645	0.0146724
782.723	0.0146173
782.801	0.0146871
782.879	0.0146902
782.957	0.0145864
783.035	0.0146244
783.113	0.0145934
783.192	0.0145885
783.270	0.0147073
783.348	0.0145946
783.426	0.0146367
783.504	0.0145267
783.582	0.0145304
783.660	0.0144615
783.738	0.0145266
783.817	0.0144864
783.895	0.0143697
783.973	0.0144334
784.051	0.0143806
784.129	0.0144797
784.207	0.0145496
784.285	0.0144895
784.363	0.0144240
784.442	0.0143702
784.520	0.0143743
784.598	0.0144081
784.676	0.0142964
784.754	0.0142805
784.832	0.0145143
784.910	0.0144958
784.988	0.0143162
785.067	0.0144452
785.145	0.0143898
785.223	0.0143724
785.301	0.0143333
785.379	0.0143937
785.457	0.0143563
785.535	0.0143664
785.613	0.0143465
785.692	0.0141550
785.770	0.0143233
785.848	0.0142457
785.926	0.0142645
786.004	0.0141985
786.082	0.0142403
786.160	0.0143546
786.238	0.0143002
786.317	0.0143249
786.395	0.0143258
786.473	0.0145492
786.551	0.0145394
786.629	0.0143551
786.707	0.0144776
786.785	0.0145534
786.863	0.0146497
786.942	0.0146120
787.020	0.0146409
787.098	0.0145909
787.176	0.0146729
787.254	0.0146513
787.332	0.0148362
787.410	0.0147099
787.488	0.0146952
787.567	0.0145861
787.645	0.0146210
787.723	0.0146443
787.801	0.0146200
787.879	0.0145146
787.957	0.0145128
788.035	0.0145908
788.113	0.0147580
788.192	0.0146657
788.270	0.0145766
788.348	0.0145991
788.426	0.0145663
788.504	0.0145584
788.582	0.0144828
788.660	0.0144017
788.738	0.0145010
788.817	0.0145722
788.895	0.0146024
788.973	0.0144866
789.051	0.0145005
789.129	0.0143594
789.207	0.0143906
789.285	0.0144064
789.363	0.0144792
789.442	0.0143239
789.520	0.0144112
789.598	0.0143730
789.676	0.0142918
789.754	0.0143016
789.832	0.0142191
789.910	0.0144291
789.988	0.0143820
790.067	0.0142929
790.145	0.0143339
790.223	0.0144157
790.301	0.0144257
790.379	0.0145527
790.457	0.0145867
790.535	0.0144788
790.613	0.0145638
790.692	0.0145483
790.770	0.0145740
790.848	0.0145255
790.926	0.0147117
791.004	0.0145753
791.082	0.0144583
791.160	0.0144792
791.238	0.0145995
791.317	0.0145419
791.395	0.0146344
791.473	0.0144653
791.551	0.0145356
791.629	0.0144915
791.707	0.0144912
791.785	0.0142796
791.863	0.0143690
791.942	0.0143364
792.020	0.0143965
792.098	0.0142939
792.176	0.0144116
792.254	0.0142633
792.332	0.0143250
792.410	0.0142810
792.488	0.0144373
792.567	0.0144521
792.645	0.0141837
792.723	0.0143529
792.801	0.0144646
792.879	0.0144329
792.957	0.0143341
793.035	0.0144442
793.113	0.0143958
793.192	0.0144309
793.270	0.0144413
793.348	0.0145068
793.426	0.0145444
793.504	0.0144772
793.582	0.0145123
793.660	0.0145515
793.738	0.0143635
793.817	0.0144097
793.895	0.0145344
793.973	0.0144136
794.051	0.0144362
794.129	0.0145177
794.207	0.0144077
794.285	0.0143291
794.363	0.0144660
794.442	0.0144446
794.520	0.0145553
794.598	0.0144633
794.676	0.0144884
794.754	0.0145155
794.832	0.0145090
794.910	0.0145484
794.988	0.0145383
795.067	0.0146674
795.145	0.0146990
795.223	0.0144958
795.301	0.0144955
795.379	0.0145865
795.457	0.0147607
795.535	0.0146564
795.613	0.0145502
795.692	0.0147131
795.770	0.0146580
795.848	0.0145588
795.926	0.0145547
796.004	0.0147414
796.082	0.0146645
796.160	0.0146352
796.238	0.0145615
796.317	0.0146653
796.395	0.0148051
796.473	0.0146152
796.551	0.0145916
796.629	0.0146058
796.707	0.0146649
796.785	0.0145501
796.863	0.0145462
796.942	0.0145270
797.020	0.0144054
797.098	0.0144805
797.176	0.0143941
797.254	0.0143985
797.332	0.0144186
797.410	0.0144896
797.488	0.0143124
797.567	0.0143939
797.645	0.0144513
797.723	0.0144070
797.801	0.0143885
797.879	0.0143613
797.957	0.0144193
798.035	0.0143922
798.113	0.0142297
798.192	0.0142916
798.270	0.0144308
798.348	0.0143034
798.426	0.0142365
798.504	0.0144162
798.582	0.0143967
798.660	0.0143884
798.738	0.0144337
798.817	0.0144384
798.895	0.0144650
798.973	0.0144714
799.051	0.0144872
799.129	0.0144957
799.207	0.0144022
799.285	0.0145223
799.363	0.0144908
799.442	0.0143767
799.520	0.0143147
799.598	0.0143794
799.676	0.0144584
799.754	0.0142502
799.832	0.0144541
799.910	0.0144695
799.988	0.0143607
800.067	0.0143547
800.145	0.0144725
800.223	0.0144855
800.301	0.0143894
800.379	0.0144795
800.457	0.0143755
800.535	0.0145769
800.613	0.0144679
800.692	0.0144810
800.770	0.0145698
800.848	0.0147514
800.926	0.0147509
801.004	0.0146181
801.082	0.0145994
801.160	0.0145334
801.238	0.0146929
801.317	0.0147710
801.395	0.0146164
801.473	0.0146098
801.551	0.0145730
801.629	0.0146794
801.707	0.0146236
801.785	0.0145753
801.863	0.0146400
801.942	0.0145734
802.020	0.0146543
802.098	0.0145971
802.176	0.0145461
802.254	0.0145423
802.332	0.0144250
802.410	0.0143903
802.488	0.0144516
802.567	0.0145312
802.645	0.0144733
802.723	0.0144525
802.801	0.0143836
802.879	0.0144717
802.957	0.0143956
803.035	0.0144876
803.113	0.0144450
803.192	0.0143926
803.270	0.0144039
803.348	0.0145077
803.426	0.0144650
803.504	0.0143956
803.582	0.0144079
803.660	0.0144709
803.738	0.0145106
803.817	0.0144102
803.895	0.0143986
803.973	0.0145326
804.051	0.0144805
804.129	0.0143659
804.207	0.0143574
804.285	0.0142970
804.363	0.0142902
804.442	0.0143783
804.520	0.0143127
804.598	0.0143291
804.676	0.0143290
804.754	0.0143191
804.832	0.0142010
804.910	0.0143679
804.988	0.0142644
805.067	0.0142543
805.145	0.0142777
805.223	0.0142760
805.301	0.0142895
805.379	0.0141918
805.457	0.0143505
805.535	0.0144254
805.613	0.0143871
805.692	0.0143694
805.770	0.0144446
805.848	0.0143330
805.926	0.0144530
806.004	0.0144758
806.082	0.0145293
806.160	0.0144952
806.238	0.0144457
806.317	0.0145220
806.395	0.0144254
806.473	0.0146050
806.551	0.0143111
806.629	0.0142925
806.707	0.0143990
806.785	0.0145705
806.863	0.0143384
806.942	0.0142590
807.020	0.0145319
807.098	0.0144819
807.176	0.0143634
807.254	0.0145305
807.332	0.0145279
807.410	0.0145105
807.488	0.0144185
807.567	0.0144911
807.645	0.0144424
807.723	0.0145000
807.801	0.0144559
807.879	0.0145907
807.957	0.0145136
808.035	0.0144523
808.113	0.0145603
808.192	0.0144835
808.270	0.0143718
808.348	0.0145701
808.426	0.0146094
808.504	0.0146310
808.582	0.0145107
808.660	0.0143916
808.738	0.0143053
808.817	0.0144994
808.895	0.0144784
808.973	0.0145060
809.051	0.0143839
809.129	0.0143813
809.207	0.0145441
809.285	0.0145531
809.363	0.0144508
809.442	0.0143382
809.520	0.0144133
809.598	0.0145405
809.676	0.0144599
809.754	0.0144747
809.832	0.0144399
809.910	0.0143655
809.988	0.0142948
810.067	0.0142995
810.145	0.0144187
810.223	0.0143222
810.301	0.0143478
810.379	0.0141643
810.457	0.0142432
810.535	0.0143367
810.613	0.0142886
810.692	0.0141540
810.770	0.0143872
810.848	0.0143778
810.926	0.0142567
811.004	0.0143690
811.082	0.0143724
811.160	0.0145365
811.238	0.0145491
811.317	0.0145162
811.395	0.0145318
811.473	0.0146738
811.551	0.0144849
811.629	0.0146373
811.707	0.0147863
811.785	0.0145872
811.863	0.0146185
811.942	0.0147892
812.020	0.0145938
812.098	0.0146992
812.176	0.0145830
812.254	0.0145837
812.332	0.0147527
812.410	0.0147648
812.488	0.0146214
812.567	0.0146806
812.645	0.0146217
812.723	0.0146529
812.801	0.0144993
812.879	0.0144231
812.957	0.0145209
813.035	0.0146475
813.113	0.0144508
813.192	0.0144531
813.270	0.0143368
813.348	0.0144130
813.426	0.0144043
813.504	0.0144272
813.582	0.0144231
813.660	0.0145261
813.738	0.0144198
813.817	0.0144987
813.895	0.0143813
813.973	0.0144537
814.051	0.0144650
814.129	0.0143364
814.207	0.0143040
814.285	0.0143726
814.363	0.0144197
814.442	0.0145379
814.520	0.0145693
814.598	0.0145325
814.676	0.0145278
814.754	0.0144660
814.832	0.0144591
814.910	0.0147054
814.988	0.0144662
815.067	0.0144260
815.145	0.0147158
815.223	0.0146577
815.301	0.0145827
815.379	0.0146145
815.457	0.0144941
815.535	0.0145614
815.613	0.0146516
815.692	0.0145586
815.770	0.0145399
815.848	0.0145125
815.926	0.0144469
816.004	0.0144872
816.082	0.0145665
816.160	0.0144858
816.238	0.0143959
816.317	0.0143819
816.395	0.0145262
816.473	0.0144923
816.551	0.0145688
816.629	0.0145042
816.707	0.0145542
816.785	0.0144682
816.863	0.0144958
816.942	0.0144230
817.020	0.0144300
817.098	0.0145423
817.176	0.0146125
817.254	0.0145866
817.332	0.0145821
817.410	0.0145481
817.488	0.0145371
817.567	0.0146470
817.645	0.0146157
817.723	0.0145923
817.801	0.0146049
817.879	0.0144880
817.957	0.0146998
818.035	0.0145586
818.113	0.0145940
818.192	0.0145555
818.270	0.0146126
818.348	0.0146232
818.426	0.0145319
818.504	0.0145425
818.582	0.0144863
818.660	0.0145101
818.738	0.0145016
818.817	0.0144475
818.895	0.0144303
818.973	0.0145198
819.051	0.0144891
819.129	0.0145022
819.207	0.0145537
819.285	0.0145200
819.363	0.0145073
819.442	0.0146601
819.520	0.0145392
819.598	0.0145663
819.676	0.0144845
819.754	0.0144736
819.832	0.0146365
819.910	0.0145260
819.988	0.0146635
820.067	0.0147116
820.145	0.0144515
820.223	0.0145390
820.301	0.0146805
820.379	0.0145792
820.457	0.0145771
820.535	0.0145588
820.613	0.0146074
820.692	0.0145647
820.770	0.0145545
820.848	0.0144820
820.926	0.0145046
821.004	0.0145601
821.082	0.0144405
821.160	0.0144344
821.238	0.0145432
821.317	0.0143755
821.395	0.0143058
821.473	0.0144695
821.551	0.0144872
821.629	0.0144578
821.707	0.0143336
821.785	0.0143518
821.863	0.0142529
821.942	0.0143809
822.020	0.0145023
822.098	0.0143404
822.176	0.0141909
822.254	0.0143661
822.332	0.0144587
822.410	0.0143173
822.488	0.0143587
822.567	0.0145633
822.645	0.0144646
822.723	0.0144046
822.801	0.0143259
822.879	0.0144595
822.957	0.0145444
823.035	0.0143790
823.113	0.0145794
823.192	0.0145591
823.270	0.0145582
823.348	0.0144649
823.426	0.0144646
823.504	0.0145367
823.582	0.0147224
823.660	0.0147230
823.738	0.0147333
823.817	0.0145962
823.895	0.0146568
823.973	0.0144983
824.051	0.0145988
824.129	0.0147499
824.207	0.0146198
824.285	0.0145258
824.363	0.0148099
824.442	0.0146761
824.520	0.0146133
824.598	0.0147509
824.676	0.0146047
824.754	0.0145333
824.832	0.0144510
824.910	0.0144603
824.988	0.0145071
825.067	0.0144143
825.145	0.0144425
825.223	0.0145641
825.301	0.0143324
825.379	0.0144793
825.457	0.0144116
825.535	0.0143528
825.613	0.0143686
825.692	0.0143867
825.770	0.0145308
825.848	0.0146042
825.926	0.0143933
826.004	0.0144903
826.082	0.0144665
826.160	0.0144999
826.238	0.0144639
826.317	0.0143411
826.395	0.0143714
826.473	0.0145192
826.551	0.0143877
826.629	0.0145786
826.707	0.0146246
826.785	0.0144263
826.863	0.0143151
826.942	0.0143472
827.020	0.0143724
827.098	0.0143109
827.176	0.0144203
827.254	0.0143059
827.332	0.0142659
827.410	0.0144530
827.488	0.0143307
827.567	0.0143739
827.645	0.0142947
827.723	0.0144024
827.801	0.0143284
827.879	0.0143837
827.957	0.0143449
828.035	0.0144882
828.113	0.0144231
828.192	0.0145161
828.270	0.0145514
828.348	0.0145260
828.426	0.0144606
828.504	0.0145328
828.582	0.0144853
828.660	0.0144945
828.738	0.0144941
828.817	0.0145618
828.895	0.0144788
828.973	0.0144156
829.051	0.0146066
829.129	0.0144881
829.207	0.0145493
829.285	0.0145992
829.363	0.0145535
829.442	0.0144427
829.520	0.0144693
829.598	0.0145600
829.676	0.0145442
829.754	0.0144803
829.832	0.0144109
829.910	0.0144436
829.988	0.0143945
830.067	0.0145058
830.145	0.0145471
830.223	0.0144219
830.301	0.0142886
830.379	0.0143889
830.457	0.0143190
830.535	0.0144149
830.613	0.0144418
830.692	0.0144138
830.770	0.0144588
830.848	0.0142478
830.926	0.0143633
831.004	0.0145172
831.082	0.0143723
831.160	0.0144940
831.238	0.0143380
831.317	0.0144154
831.395	0.0145337
831.473	0.0145409
831.551	0.0145492
831.629	0.0145675
831.707	0.0145766
831.785	0.0144599
831.863	0.0144261
831.942	0.0143755
832.020	0.0144708
832.098	0.0145317
832.176	0.0144563
832.254	0.0145581
832.332	0.0144616
832.410	0.0145719
832.488	0.0144407
832.567	0.0143819
832.645	0.0143600
832.723	0.0143911
832.801	0.0144823
832.879	0.0143900
832.957	0.0143047
833.035	0.0143188
833.113	0.0145120
833.192	0.0141729
833.270	0.0142830
833.348	0.0143433
833.426	0.0143047
833.504	0.0143600
833.582	0.0143214
833.660	0.0144444
833.738	0.0143871
833.817	0.0144260
833.895	0.0145662
833.973	0.0144855
834.051	0.0144569
834.129	0.0145254
834.207	0.0143790
834.285	0.0144370
834.363	0.0143958
834.442	0.0144727
834.520	0.0145029
834.598	0.0145010
834.676	0.0144143
834.754	0.0145130
834.832	0.0144705
834.910	0.0144700
834.988	0.0145425
835.067	0.0143805
835.145	0.0144888
835.223	0.0144238
835.301	0.0145151
835.379	0.0144537
835.457	0.0143517
835.535	0.0144945
835.613	0.0144845
835.692	0.0145730
835.770	0.0145074
835.848	0.0145780
835.926	0.0144740
836.004	0.0144052
836.082	0.0145345
836.160	0.0145633
836.238	0.0145528
836.317	0.0145664
836.395	0.0144335
836.473	0.0145502
836.551	0.0145226
836.629	0.0145751
836.707	0.0144710
836.785	0.0144873
836.863	0.0144510
836.942	0.0143694
837.020	0.0145396
837.098	0.0144310
837.176	0.0144896
837.254	0.0146040
837.332	0.0144645
837.410	0.0144802
837.488	0.0146141
837.567	0.0145050
837.645	0.0145590
837.723	0.0143873
837.801	0.0144271
837.879	0.0144443
837.957	0.0144698
838.035	0.0144131
838.113	0.0144260
838.192	0.0144128
838.270	0.0144251
838.348	0.0143040
838.426	0.0143051
838.504	0.0144449
838.582	0.0145005
838.660	0.0144108
838.738	0.0144054
838.817	0.0142967
838.895	0.0142860
838.973	0.0145309
839.051	0.0143616
839.129	0.0143181
839.207	0.0143543
839.285	0.0143651
839.363	0.0143979
839.442	0.0143861
839.520	0.0144367
839.598	0.0145091
839.676	0.0143891
839.754	0.0145441
839.832	0.0145831
839.910	0.0145653
839.988	0.0143791
840.067	0.0144329
840.145	0.0144115
840.223	0.0145502
840.301	0.0144040
840.379	0.0144786
840.457	0.0145193
840.535	0.0145125
840.613	0.0144711
840.692	0.0145837
840.770	0.0144892
840.848	0.0144714
840.926	0.0143928
841.004	0.0143484
841.082	0.0144893
841.160	0.0145306
841.238	0.0143618
841.317	0.0145604
841.395	0.0144953
841.473	0.0145866
841.551	0.0144743
841.629	0.0143512
841.707	0.0144862
841.785	0.0145805
841.863	0.0144214
841.942	0.0144505
842.020	0.0144319
842.098	0.0144817
842.176	0.0144504
842.254	0.0144917
842.332	0.0145242
842.410	0.0144846
842.488	0.0144689
842.567	0.0145695
842.645	0.0144190
842.723	0.0144455
842.801	0.0144039
842.879	0.0145689
842.957	0.0146156
843.035	0.0145789
843.113	0.0145347
843.192	0.0144444
843.270	0.0144757
843.348	0.0144420
843.426	0.0145010
843.504	0.0142892
843.582	0.0144442
843.660	0.0144743
843.738	0.0144736
843.817	0.0146043
843.895	0.0144683
843.973	0.0144759
844.051	0.0144142
844.129	0.0144784
844.207	0.0144768
844.285	0.0144917
844.363	0.0143791
844.442	0.0143977
844.520	0.0145612
844.598	0.0145296
844.676	0.0144850
844.754	0.0144599
844.832	0.0145345
844.910	0.0145445
844.988	0.0143844
845.067	0.0145905
845.145	0.0145826
845.223	0.0144332
845.301	0.0144897
845.379	0.0145273
845.457	0.0144514
845.535	0.0143446
845.613	0.0144547
845.692	0.0144840
845.770	0.0144748
845.848	0.0144584
845.926	0.0142714
846.004	0.0143909
846.082	0.0145302
846.160	0.0143926
846.238	0.0144945
846.317	0.0144393
846.395	0.0144559
846.473	0.0145131
846.551	0.0144323
846.629	0.0144625
846.707	0.0143897
846.785	0.0143030
846.863	0.0145197
846.942	0.0146275
847.020	0.0145147
847.098	0.0143277
847.176	0.0145740
847.254	0.0144879
847.332	0.0144675
847.410	0.0144882
847.488	0.0144589
847.567	0.0145289
847.645	0.0144099
847.723	0.0144354
847.801	0.0144162
847.879	0.0144714
847.957	0.0146069
848.035	0.0144612
848.113	0.0144449
848.192	0.0146718
848.270	0.0145952
848.348	0.0145767
848.426	0.0145764
848.504	0.0144315
848.582	0.0145023
848.660	0.0146017
848.738	0.0143779
848.817	0.0145439
848.895	0.0145670
848.973	0.0144758
849.051	0.0144793
849.129	0.0144875
849.207	0.0144812
849.285	0.0144139
849.363	0.0143408
849.442	0.0144409
849.520	0.0146362
849.598	0.0144897
849.676	0.0144757
849.754	0.0144982
849.832	0.0145431
849.910	0.0144746
849.988	0.0143834
850.067	0.0144510
850.145	0.0143851
850.223	0.0144357
850.301	0.0144619
850.379	0.0143358
850.457	0.0145176
850.535	0.0144271
850.613	0.0141905
850.692	0.0144831
850.770	0.0144054
850.848	0.0143332
850.926	0.0144642
851.004	0.0144965
851.082	0.0144258
851.160	0.0145324
851.238	0.0144570
851.317	0.0144966
851.395	0.0143879
851.473	0.0144993
851.551	0.0143762
851.629	0.0143063
851.707	0.0144996
851.785	0.0143700
851.863	0.0144841
851.942	0.0143108
852.020	0.0145693
852.098	0.0144313
852.176	0.0144331
852.254	0.0144753
852.332	0.0145866
852.410	0.0145258
852.488	0.0146832
852.567	0.0145516
852.645	0.0144964
852.723	0.0146305
852.801	0.0145454
852.879	0.0145872
852.957	0.0144558
853.035	0.0144520
853.113	0.0145067
853.192	0.0144651
853.270	0.0144592
853.348	0.0145552
853.426	0.0143269
853.504	0.0144688
853.582	0.0143153
853.660	0.0144144
853.738	0.0142615
853.817	0.0143815
853.895	0.0143197
853.973	0.0142319
854.051	0.0143687
854.129	0.0143123
854.207	0.0143131
854.285	0.0143534
854.363	0.0143751
854.442	0.0142596
854.520	0.0144245
854.598	0.0142767
854.676	0.0144190
854.754	0.0144859
854.832	0.0144630
854.910	0.0144197
854.988	0.0144519
855.067	0.0145471
855.145	0.0144068
855.223	0.0145713
855.301	0.0145881
855.379	0.0144528
855.457	0.0145434
855.535	0.0145755
855.613	0.0146454
855.692	0.0145393
855.770	0.0145869
855.848	0.0145289
855.926	0.0144488
856.004	0.0144579
856.082	0.0144679
856.160	0.0144795
856.238	0.0145006
856.317	0.0145399
856.395	0.0146178
856.473	0.0145858
856.551	0.0146474
856.629	0.0146243
856.707	0.0145426
856.785	0.0145442
856.863	0.0147058
856.942	0.0146410
857.020	0.0146154
857.098	0.0146340
857.176	0.0146455
857.254	0.0145828
857.332	0.0146264
857.410	0.0145609
857.488	0.0145448
857.567	0.0146445
857.645	0.0145232
857.723	0.0144790
857.801	0.0146773
857.879	0.0146308
857.957	0.0145663
858.035	0.0145510
858.113	0.0145734
858.192	0.0144864
858.270	0.0143688
858.348	0.0145731
858.426	0.0145219
858.504	0.0143941
858.582	0.0144124
858.660	0.0144009
858.738	0.0142551
858.817	0.0143495
858.895	0.0144099
858.973	0.0144650
859.051	0.0145778
859.129	0.0145792
859.207	0.0143816
859.285	0.0144711
859.363	0.0143945
859.442	0.0145585
859.520	0.0144546
859.598	0.0144344
859.676	0.0145604
859.754	0.0146378
859.832	0.0145457
859.910	0.0144885
859.988	0.0143635
860.067	0.0143469
860.145	0.0144252
860.223	0.0144364
860.301	0.0144591
860.379	0.0144591
860.457	0.0143923
860.535	0.0145289
860.613	0.0145898
860.692	0.0146225
860.770	0.0145048
860.848	0.0145097
860.926	0.0145464
861.004	0.0144209
861.082	0.0145271
861.160	0.0146027
861.238	0.0147181
861.317	0.0147324
861.395	0.0145192
861.473	0.0145232
861.551	0.0145809
861.629	0.0145338
861.707	0.0145309
861.785	0.0145061
861.863	0.0145364
861.942	0.0144580
862.020	0.0146147
862.098	0.0145158
862.176	0.0144519
862.254	0.0144982
862.332	0.0144337
862.410	0.0145351
862.488	0.0145110
862.567	0.0144357
862.645	0.0143223
862.723	0.0145801
862.801	0.0145104
862.879	0.0145959
862.957	0.0145783
863.035	0.0145274
863.113	0.0145401
863.192	0.0144507
863.270	0.0144679
863.348	0.0144508
863.426	0.0145995
863.504	0.0145361
863.582	0.0146355
863.660	0.0143693
863.738	0.0145296
863.817	0.0145030
863.895	0.0146101
863.973	0.0145038
864.051	0.0145243
864.129	0.0145904
864.207	0.0145429
864.285	0.0144914
864.363	0.0145679
864.442	0.0145274
864.520	0.0145096
864.598	0.0144392
864.676	0.0144935
864.754	0.0143410
864.832	0.0145168
864.910	0.0145286
864.988	0.0145135
865.067	0.0145614
865.145	0.0145264
865.223	0.0144765
865.301	0.0144471
865.379	0.0144937
865.457	0.0145763
865.535	0.0146200
865.613	0.0145178
865.692	0.0145799
865.770	0.0146609
865.848	0.0146021
865.926	0.0146140
866.004	0.0146073
866.082	0.0145628
866.160	0.0144872
866.238	0.0144539
866.317	0.0147794
866.395	0.0146106
866.473	0.0144923
866.551	0.0144675
866.629	0.0145590
866.707	0.0146674
866.785	0.0145676
866.863	0.0146233
866.942	0.0144143
867.020	0.0144035
867.098	0.0146419
867.176	0.0145159
867.254	0.0146377
867.332	0.0145820
867.410	0.0144963
867.488	0.0145728
867.567	0.0144688
867.645	0.0145617
867.723	0.0145319
867.801	0.0145005
867.879	0.0143525
867.957	0.0144646
868.035	0.0144529
868.113	0.0144810
868.192	0.0145582
868.270	0.0143826
868.348	0.0143948
868.426	0.0145217
868.504	0.0143939
868.582	0.0144392
868.660	0.0144870
868.738	0.0144238
868.817	0.0144662
868.895	0.0144714
868.973	0.0145677
869.051	0.0144453
869.129	0.0144360
869.207	0.0143655
869.285	0.0143829
869.363	0.0142702
869.442	0.0142955
869.520	0.0143137
869.598	0.0144417
869.676	0.0144831
869.754	0.0143082
869.832	0.0144239
869.910	0.0143842
869.988	0.0145242
870.067	0.0143852
870.145	0.0144643
870.223	0.0145686
870.301	0.0145681
870.379	0.0145103
870.457	0.0145589
870.535	0.0146206
870.613	0.0145651
870.692	0.0146887
870.770	0.0145690
870.848	0.0144769
870.926	0.0147219
871.004	0.0146911
871.082	0.0145754
871.160	0.0144332
871.238	0.0146120
871.317	0.0144438
871.395	0.0144939
871.473	0.0145846
871.551	0.0145704
871.629	0.0145576
871.707	0.0145161
871.785	0.0144530
871.863	0.0144948
871.942	0.0144443
872.020	0.0144658
872.098	0.0142481
872.176	0.0144091
872.254	0.0143139
872.332	0.0144688
872.410	0.0144611
872.488	0.0142745
872.567	0.0145573
872.645	0.0143793
872.723	0.0143894
872.801	0.0144807
872.879	0.0144392
872.957	0.0145702
873.035	0.0144287
873.113	0.0144369
873.192	0.0145096
873.270	0.0145113
873.348	0.0144916
873.426	0.0144492
873.504	0.0144648
873.582	0.0144661
873.660	0.0145664
873.738	0.0143907
873.817	0.0144877
873.895	0.0143924
873.973	0.0144980
874.051	0.0144744
874.129	0.0145383
874.207	0.0144432
874.285	0.0144065
874.363	0.0145134
874.442	0.0143056
874.520	0.0144958
874.598	0.0145295
874.676	0.0144508
874.754	0.0144806
874.832	0.0144496
874.910	0.0143600
874.988	0.0145034
875.067	0.0143678
875.145	0.0143627
875.223	0.0144514
875.301	0.0143008
875.379	0.0144086
875.457	0.0144751
875.535	0.0143694
875.613	0.0143388
875.692	0.0143595
875.770	0.0143198
875.848	0.0143390
875.926	0.0143213
876.004	0.0145103
876.082	0.0144205
876.160	0.0145630
876.238	0.0144307
876.317	0.0145889
876.395	0.0143749
876.473	0.0144511
876.551	0.0143772
876.629	0.0144645
876.707	0.0145171
876.785	0.0144906
876.863	0.0144965
876.942	0.0146387
877.020	0.0144864
877.098	0.0144281
877.176	0.0144637
877.254	0.0146140
877.332	0.0145290
877.410	0.0145153
877.488	0.0144253
877.567	0.0145977
877.645	0.0145661
877.723	0.0143771
877.801	0.0145490
877.879	0.0145189
877.957	0.0145689
878.035	0.0144730
878.113	0.0145663
878.192	0.0145956
878.270	0.0145536
878.348	0.0145847
878.426	0.0146755
878.504	0.0146127
878.582	0.0145677
878.660	0.0144656
878.738	0.0145321
878.817	0.0145811
878.895	0.0145317
878.973	0.0144478
879.051	0.0144071
879.129	0.0143958
879.207	0.0144638
879.285	0.0144241
879.363	0.0143772
879.442	0.0143996
879.520	0.0143064
879.598	0.0144407
879.676	0.0143194
879.754	0.0143305
879.832	0.0144083
879.910	0.0144095
879.988	0.0142821
880.067	0.0143256
880.145	0.0143988
880.223	0.0144864
880.301	0.0145148
880.379	0.0144341
880.457	0.0146176
880.535	0.0147362
880.613	0.0144640
880.692	0.0145551
880.770	0.0145363
880.848	0.0145457
880.926	0.0144873
881.004	0.0144749
881.082	0.0145676
881.160	0.0146748
881.238	0.0145821
881.317	0.0143276
881.395	0.0145662
881.473	0.0144228
881.551	0.0143704
881.629	0.0145256
881.707	0.0145490
881.785	0.0144559
881.863	0.0143641
881.942	0.0143912
882.020	0.0143838
882.098	0.0145158
882.176	0.0146114
882.254	0.0144733
882.332	0.0145543
882.410	0.0145940
882.488	0.0144991
882.567	0.0144907
882.645	0.0145652
882.723	0.0146589
882.801	0.0144958
882.879	0.0144315
882.957	0.0145447
883.035	0.0145024
883.113	0.0144979
883.192	0.0145080
883.270	0.0144823
883.348	0.0145417
883.426	0.0145718
883.504	0.0144442
883.582	0.0144260
883.660	0.0144911
883.738	0.0146346
883.817	0.0144170
883.895	0.0144849
883.973	0.0144547
884.051	0.0144499
884.129	0.0144299
884.207	0.0144920
884.285	0.0145612
884.363	0.0144437
884.442	0.0143489
884.520	0.0145453
884.598	0.0144553
884.676	0.0144611
884.754	0.0145607
884.832	0.0145162
884.910	0.0144296
884.988	0.0144672
885.067	0.0144299
885.145	0.0145191
885.223	0.0145258
885.301	0.0144579
885.379	0.0144654
885.457	0.0144244
885.535	0.0144926
885.613	0.0146391
885.692	0.0145987
885.770	0.0144957
885.848	0.0145184
885.926	0.0145607
886.004	0.0145319
886.082	0.0145751
886.160	0.0145742
886.238	0.0147216
886.317	0.0145528
886.395	0.0143064
886.473	0.0144818
886.551	0.0145249
886.629	0.0148058
886.707	0.0144743
886.785	0.0144890
886.863	0.0143893
886.942	0.0146145
887.020	0.0144243
887.098	0.0144749
887.176	0.0144106
887.254	0.0144396
887.332	0.0144685
887.410	0.0144387
887.488	0.0143111
887.567	0.0143130
887.645	0.0143037
887.723	0.0144496
887.801	0.0144492
887.879	0.0141694
887.957	0.0144488
888.035	0.0142786
888.113	0.0143202
888.192	0.0142646
888.270	0.0144076
888.348	0.0144884
888.426	0.0144837
888.504	0.0144451
888.582	0.0145004
888.660	0.0144350
888.738	0.0144769
888.817	0.0145152
888.895	0.0145926
888.973	0.0145625
889.051	0.0145772
889.129	0.0145091
889.207	0.0145187
889.285	0.0145370
889.363	0.0143981
889.442	0.0144090
889.520	0.0145277
889.598	0.0145152
889.676	0.0144743
889.754	0.0145761
889.832	0.0144936
889.910	0.0146095
889.988	0.0146056
890.067	0.0145222
890.145	0.0146358
890.223	0.0145977
890.301	0.0145431
890.379	0.0146566
890.457	0.0145331
890.535	0.0145441
890.613	0.0146093
890.692	0.0146018
890.770	0.0146918
890.848	0.0145144
890.926	0.0144874
891.004	0.0145340
891.082	0.0146795
891.160	0.0143739
891.238	0.0145609
891.317	0.0145211
891.395	0.0145000
891.473	0.0144637
891.551	0.0145219
891.629	0.0143468
891.707	0.0144109
891.785	0.0146040
891.863	0.0143116
891.942	0.0143181
892.020	0.0143705
892.098	0.0143881
892.176	0.0142387
892.254	0.0144024
892.332	0.0144906
892.410	0.0143814
892.488	0.0144106
892.567	0.0144682
892.645	0.0143687
892.723	0.0143993
892.801	0.0143176
892.879	0.0144464
892.957	0.0145138
893.035	0.0144873
893.113	0.0145148
893.192	0.0144698
893.270	0.0144338
893.348	0.0144499
893.426	0.0144548
893.504	0.0144662
893.582	0.0145937
893.660	0.0145622
893.738	0.0144961
893.817	0.0146907
893.895	0.0146179
893.973	0.0146371
894.051	0.0145161
894.129	0.0144705
894.207	0.0146479
894.285	0.0145759
894.363	0.0146192
894.442	0.0146639
894.520	0.0145843
894.598	0.0147102
894.676	0.0147939
894.754	0.0147880
894.832	0.0145441
894.910	0.0147322
894.988	0.0148479
895.067	0.0147440
895.145	0.0146860
895.223	0.0147024
895.301	0.0146248
895.379	0.0147082
895.457	0.0147661
895.535	0.0146453
895.613	0.0146444
895.692	0.0146334
895.770	0.0145512
895.848	0.0146801
895.926	0.0145911
896.004	0.0145918
896.082	0.0144839
896.160	0.0145533
896.238	0.0146376
896.317	0.0144324
896.395	0.0144604
896.473	0.0144789
896.551	0.0144711
896.629	0.0144510
896.707	0.0145023
896.785	0.0144401
896.863	0.0145222
896.942	0.0144662
897.020	0.0145103
897.098	0.0145076
897.176	0.0144241
897.254	0.0142762
897.332	0.0144014
897.410	0.0143977
897.488	0.0143932
897.567	0.0144901
897.645	0.0143996
897.723	0.0144617
897.801	0.0143841
897.879	0.0144276
897.957	0.0144666
898.035	0.0145213
898.113	0.0144461
898.192	0.0145353
898.270	0.0145690
898.348	0.0146275
898.426	0.0145232
898.504	0.0146269
898.582	0.0145354
898.660	0.0144769
898.738	0.0144925
898.817	0.0145435
898.895	0.0144067
898.973	0.0145568
899.051	0.0145182
899.129	0.0145555
899.207	0.0146036
899.285	0.0144267
899.363	0.0144263
899.442	0.0144843
899.520	0.0145114
899.598	0.0146006
899.676	0.0146738
899.754	0.0144320
899.832	0.0144731
899.910	0.0144179
899.988	0.0144722
900.067	0.0145003
900.145	0.0145066
900.223	0.0144150
900.301	0.0144540
900.379	0.0144389
900.457	0.0143694
900.535	0.0142312
900.613	0.0145349
900.692	0.0145302
900.770	0.0145189
900.848	0.0144306
900.926	0.0145440
901.004	0.0146069
901.082	0.0146275
901.160	0.0146465
901.238	0.0144430
901.317	0.0145492
901.395	0.0145569
901.473	0.0146894
901.551	0.0145340
901.629	0.0145121
901.707	0.0145022
901.785	0.0143792
901.863	0.0144817
901.942	0.0145840
902.020	0.0145814
902.098	0.0144582
902.176	0.0144474
902.254	0.0145296
902.332	0.0143046
902.410	0.0144576
902.488	0.0144669
902.567	0.0143346
902.645	0.0144216
902.723	0.0144756
902.801	0.0143681
902.879	0.0143637
902.957	0.0143427
903.035	0.0144168
903.113	0.0143929
903.192	0.0144762
903.270	0.0145119
903.348	0.0144628
903.426	0.0144402
903.504	0.0145010
903.582	0.0144810
903.660	0.0145753
903.738	0.0145338
903.817	0.0144799
903.895	0.0144353
903.973	0.0144801
904.051	0.0145029
904.129	0.0144504
904.207	0.0143307
904.285	0.0144758
904.363	0.0144504
904.442	0.0144249
904.520	0.0143844
904.598	0.0144163
904.676	0.0143587
904.754	0.0143817
904.832	0.0144929
904.910	0.0144638
904.988	0.0145121
905.067	0.0145580
905.145	0.0145214
905.223	0.0145074
905.301	0.0144554
905.379	0.0144289
905.457	0.0144252
905.535	0.0145232
905.613	0.0144232
905.692	0.0144559
905.770	0.0145840
905.848	0.0145260
905.926	0.0145969
906.004	0.0145583
906.082	0.0144397
906.160	0.0144032
906.238	0.0143447
906.317	0.0144714
906.395	0.0144781
906.473	0.0145010
906.551	0.0143557
906.629	0.0144054
906.707	0.0142989
906.785	0.0142616
906.863	0.0141843
906.942	0.0144500
907.020	0.0144845
907.098	0.0143240
907.176	0.0143578
907.254	0.0144213
907.332	0.0143510
907.410	0.0145277
907.488	0.0144296
907.567	0.0143784
907.645	0.0144744
907.723	0.0144742
907.801	0.0143761
907.879	0.0145351
907.957	0.0144503
908.035	0.0145686
908.113	0.0145918
908.192	0.0144878
908.270	0.0145393
908.348	0.0146207
908.426	0.0144384
908.504	0.0145896
908.582	0.0144840
908.660	0.0145417
908.738	0.0143973
908.817	0.0144981
908.895	0.0146626
908.973	0.0144382
909.051	0.0144066
909.129	0.0145078
909.207	0.0144543
909.285	0.0144545
909.363	0.0144817
909.442	0.0144244
909.520	0.0143987
909.598	0.0145103
909.676	0.0145633
909.754	0.0143409
909.832	0.0144443
909.910	0.0145269
909.988	0.0144469
910.067	0.0145782
910.145	0.0144076
910.223	0.0144160
910.301	0.0143533
910.379	0.0145836
910.457	0.0144147
910.535	0.0144647
910.613	0.0144371
910.692	0.0144494
910.770	0.0143909
910.848	0.0144094
910.926	0.0144775
911.004	0.0144608
911.082	0.0143679
911.160	0.0144418
911.238	0.0144143
911.317	0.0144752
911.395	0.0144894
911.473	0.0143549
911.551	0.0145563
911.629	0.0145035
911.707	0.0144887
911.785	0.0145582
911.863	0.0145195
911.942	0.0145199
912.020	0.0146742
912.098	0.0145478
912.176	0.0145699
912.254	0.0146844
912.332	0.0145708
912.410	0.0144341
912.488	0.0144751
912.567	0.0145256
912.645	0.0144148
912.723	0.0144688
912.801	0.0144099
912.879	0.0145252
912.957	0.0145031
913.035	0.0143612
913.113	0.0145472
913.192	0.0145614
913.270	0.0145390
913.348	0.0143707
913.426	0.0144492
913.504	0.0144936
913.582	0.0144396
913.660	0.0143922
913.738	0.0143298
913.817	0.0144075
913.895	0.0145071
913.973	0.0143206
914.051	0.0145292
914.129	0.0145241
914.207	0.0144903
914.285	0.0145060
914.363	0.0146019
914.442	0.0145101
914.520	0.0144723
914.598	0.0146322
914.676	0.0144791
914.754	0.0145263
914.832	0.0144607
914.910	0.0147005
914.988	0.0144635
915.067	0.0145076
915.145	0.0145622
915.223	0.0144804
915.301	0.0145470
915.379	0.0144975
915.457	0.0145287
915.535	0.0145293
915.613	0.0144869
915.692	0.0144433
915.770	0.0145116
915.848	0.0144775
915.926	0.0145941
916.004	0.0146075
916.082	0.0143536
916.160	0.0144974
916.238	0.0143711
916.317	0.0144503
916.395	0.0145951
916.473	0.0145596
916.551	0.0143978
916.629	0.0145141
916.707	0.0145557
916.785	0.0144293
916.863	0.0144348
916.942	0.0144549
917.020	0.0143278
917.098	0.0145579
917.176	0.0145445
917.254	0.0144054
917.332	0.0144877
917.410	0.0145332
917.488	0.0144054
917.567	0.0143317
917.645	0.0144849
917.723	0.0144565
917.801	0.0144679
917.879	0.0143013
917.957	0.0144673
918.035	0.0144602
918.113	0.0143819
918.192	0.0144263
918.270	0.0144363
918.348	0.0144186
918.426	0.0145140
918.504	0.0145351
918.582	0.0144908
918.660	0.0143893
918.738	0.0145736
918.817	0.0144802
918.895	0.0146055
918.973	0.0146262
919.051	0.0146175
919.129	0.0144207
919.207	0.0145352
919.285	0.0146085
919.363	0.0145718
919.442	0.0145515
919.520	0.0145686
919.598	0.0145384
919.676	0.0146159
919.754	0.0145479
919.832	0.0145428
919.910	0.0146426
