05/28/2022	14:12:36	Ver.	4.1	UNKNOWN
Optical Delay	599.988409	Delta X		0.078125	Sweeps	1	Scan Rate	0/0
Coordinates	Axis 1	NaN	Axis 2	NaN	Axis 3	NaN	Axis 4	NaN	Axis 5	NaN	Axis 6	0.000000
TX Power	0.000000	RX Power	0.000000

599.988	0.0140086
600.067	0.0140636
600.145	0.0140460
600.223	0.0140791
600.301	0.0140143
600.379	0.0140627
600.457	0.0141637
600.535	0.0141523
600.613	0.0139029
600.692	0.0139822
600.770	0.0139097
600.848	0.0139342
600.926	0.0141296
601.004	0.0140219
601.082	0.0139938
601.160	0.0139517
601.238	0.0141445
601.317	0.0141438
601.395	0.0139914
601.473	0.0139920
601.551	0.0139085
601.629	0.0139326
601.707	0.0141206
601.785	0.0139200
601.863	0.0140008
601.942	0.0140548
602.020	0.0139356
602.098	0.0141973
602.176	0.0139106
602.254	0.0139888
602.332	0.0139861
602.410	0.0140141
602.488	0.0140562
602.567	0.0140678
602.645	0.0139928
602.723	0.0140154
602.801	0.0140137
602.879	0.0139865
602.957	0.0139497
603.035	0.0139692
603.113	0.0139324
603.192	0.0140739
603.270	0.0141071
603.348	0.0140801
603.426	0.0139594
603.504	0.0141438
603.582	0.0140049
603.660	0.0139212
603.738	0.0141212
603.817	0.0140659
603.895	0.0140408
603.973	0.0139641
604.051	0.0138754
604.129	0.0139825
604.207	0.0140599
604.285	0.0139733
604.363	0.0139262
604.442	0.0141090
604.520	0.0140474
604.598	0.0140208
604.676	0.0140005
604.754	0.0140017
604.832	0.0141035
604.910	0.0139546
604.988	0.0138963
605.067	0.0139496
605.145	0.0139863
605.223	0.0139818
605.301	0.0139708
605.379	0.0139648
605.457	0.0140440
605.535	0.0138588
605.613	0.0140517
605.692	0.0141270
605.770	0.0139197
605.848	0.0139238
605.926	0.0140191
606.004	0.0139609
606.082	0.0139655
606.160	0.0140013
606.238	0.0138926
606.317	0.0138476
606.395	0.0141376
606.473	0.0139537
606.551	0.0139021
606.629	0.0138097
606.707	0.0139658
606.785	0.0140683
606.863	0.0139034
606.942	0.0140343
607.020	0.0139893
607.098	0.0138429
607.176	0.0140805
607.254	0.0139697
607.332	0.0139085
607.410	0.0140029
607.488	0.0140051
607.567	0.0140039
607.645	0.0138493
607.723	0.0139489
607.801	0.0140459
607.879	0.0139908
607.957	0.0139464
608.035	0.0139074
608.113	0.0141082
608.192	0.0140239
608.270	0.0139693
608.348	0.0139539
608.426	0.0139629
608.504	0.0140214
608.582	0.0139658
608.660	0.0138651
608.738	0.0141069
608.817	0.0140392
608.895	0.0139644
608.973	0.0140350
609.051	0.0140428
609.129	0.0139780
609.207	0.0140725
609.285	0.0139427
609.363	0.0139575
609.442	0.0141187
609.520	0.0140327
609.598	0.0140128
609.676	0.0139230
609.754	0.0139485
609.832	0.0139820
609.910	0.0140356
609.988	0.0139725
610.067	0.0139588
610.145	0.0140060
610.223	0.0140715
610.301	0.0140783
610.379	0.0140815
610.457	0.0139491
610.535	0.0140855
610.613	0.0140459
610.692	0.0140596
610.770	0.0139441
610.848	0.0138229
610.926	0.0139266
611.004	0.0140056
611.082	0.0138956
611.160	0.0140670
611.238	0.0139047
611.317	0.0140546
611.395	0.0140482
611.473	0.0140172
611.551	0.0137929
611.629	0.0139524
611.707	0.0140420
611.785	0.0140060
611.863	0.0140282
611.942	0.0138770
612.020	0.0140525
612.098	0.0140430
612.176	0.0138958
612.254	0.0141349
612.332	0.0140407
612.410	0.0139259
612.488	0.0139970
612.567	0.0140025
612.645	0.0140289
612.723	0.0140295
612.801	0.0141724
612.879	0.0140390
612.957	0.0138937
613.035	0.0139265
613.113	0.0139833
613.192	0.0140217
613.270	0.0140910
613.348	0.0140312
613.426	0.0139458
613.504	0.0139265
613.582	0.0141462
613.660	0.0140388
613.738	0.0139963
613.817	0.0140453
613.895	0.0140948
613.973	0.0139261
614.051	0.0140485
614.129	0.0140026
614.207	0.0140665
614.285	0.0140392
614.363	0.0139555
614.442	0.0140067
614.520	0.0140462
614.598	0.0139851
614.676	0.0140885
614.754	0.0139875
614.832	0.0140853
614.910	0.0140353
614.988	0.0139236
615.067	0.0140125
615.145	0.0140368
615.223	0.0140354
615.301	0.0140430
615.379	0.0139573
615.457	0.0139628
615.535	0.0140638
615.613	0.0139070
615.692	0.0139227
615.770	0.0140220
615.848	0.0140277
615.926	0.0139968
616.004	0.0139460
616.082	0.0139523
616.160	0.0140556
616.238	0.0139847
616.317	0.0140160
616.395	0.0139295
616.473	0.0140926
616.551	0.0140530
616.629	0.0141016
616.707	0.0140257
616.785	0.0139492
616.863	0.0138831
616.942	0.0139516
617.020	0.0138947
617.098	0.0139284
617.176	0.0139303
617.254	0.0140331
617.332	0.0139695
617.410	0.0140306
617.488	0.0140583
617.567	0.0141389
617.645	0.0138428
617.723	0.0139000
617.801	0.0138743
617.879	0.0139744
617.957	0.0140459
618.035	0.0140291
618.113	0.0139447
618.192	0.0139953
618.270	0.0138836
618.348	0.0139212
618.426	0.0140231
618.504	0.0139122
618.582	0.0140294
618.660	0.0140450
618.738	0.0139899
618.817	0.0140700
618.895	0.0140358
618.973	0.0140285
619.051	0.0141386
619.129	0.0139853
619.207	0.0140147
619.285	0.0141883
619.363	0.0141020
619.442	0.0139483
619.520	0.0139814
619.598	0.0140800
619.676	0.0139884
619.754	0.0139643
619.832	0.0140450
619.910	0.0141032
619.988	0.0139217
620.067	0.0140012
620.145	0.0141084
620.223	0.0139732
620.301	0.0138807
620.379	0.0140138
620.457	0.0139442
620.535	0.0141832
620.613	0.0141550
620.692	0.0139489
620.770	0.0139896
620.848	0.0140845
620.926	0.0139005
621.004	0.0139173
621.082	0.0140388
621.160	0.0138628
621.238	0.0139113
621.317	0.0141662
621.395	0.0141105
621.473	0.0139600
621.551	0.0140193
621.629	0.0138792
621.707	0.0141072
621.785	0.0140282
621.863	0.0138925
621.942	0.0139279
622.020	0.0139182
622.098	0.0139186
622.176	0.0141062
622.254	0.0140401
622.332	0.0140897
622.410	0.0138735
622.488	0.0140049
622.567	0.0139997
622.645	0.0139980
622.723	0.0139231
622.801	0.0141316
622.879	0.0139750
622.957	0.0138809
623.035	0.0138831
623.113	0.0141205
623.192	0.0141499
623.270	0.0140614
623.348	0.0140177
623.426	0.0140435
623.504	0.0140265
623.582	0.0140483
623.660	0.0140396
623.738	0.0140278
623.817	0.0141007
623.895	0.0140331
623.973	0.0139594
624.051	0.0140277
624.129	0.0140437
624.207	0.0141047
624.285	0.0140333
624.363	0.0141456
624.442	0.0140359
624.520	0.0140617
624.598	0.0140581
624.676	0.0141982
624.754	0.0140386
624.832	0.0140464
624.910	0.0138982
624.988	0.0140882
625.067	0.0140305
625.145	0.0140185
625.223	0.0139601
625.301	0.0140129
625.379	0.0139939
625.457	0.0139785
625.535	0.0140930
625.613	0.0140601
625.692	0.0140363
625.770	0.0138467
625.848	0.0140298
625.926	0.0140130
626.004	0.0138750
626.082	0.0139571
626.160	0.0140897
626.238	0.0139630
626.317	0.0139993
626.395	0.0139671
626.473	0.0139880
626.551	0.0140565
626.629	0.0140511
626.707	0.0139383
626.785	0.0141127
626.863	0.0138737
626.942	0.0138727
627.020	0.0139500
627.098	0.0140286
627.176	0.0140360
627.254	0.0140338
627.332	0.0140260
627.410	0.0140839
627.488	0.0140414
627.567	0.0140086
627.645	0.0139892
627.723	0.0140388
627.801	0.0140244
627.879	0.0140591
627.957	0.0139684
628.035	0.0140541
628.113	0.0141399
628.192	0.0139153
628.270	0.0139719
628.348	0.0139402
628.426	0.0140926
628.504	0.0141431
628.582	0.0140190
628.660	0.0140916
628.738	0.0140222
628.817	0.0140504
628.895	0.0139427
628.973	0.0137838
629.051	0.0140603
629.129	0.0141392
629.207	0.0139869
629.285	0.0141037
629.363	0.0140845
629.442	0.0139497
629.520	0.0139718
629.598	0.0140200
629.676	0.0140650
629.754	0.0141378
629.832	0.0140471
629.910	0.0139314
629.988	0.0140408
630.067	0.0142020
630.145	0.0142553
630.223	0.0140228
630.301	0.0139935
630.379	0.0141422
630.457	0.0141410
630.535	0.0140469
630.613	0.0140713
630.692	0.0140118
630.770	0.0140432
630.848	0.0139935
630.926	0.0139867
631.004	0.0140128
631.082	0.0141689
631.160	0.0140045
631.238	0.0140024
631.317	0.0140395
631.395	0.0140435
631.473	0.0140797
631.551	0.0140839
631.629	0.0140647
631.707	0.0139471
631.785	0.0140333
631.863	0.0140260
631.942	0.0139035
632.020	0.0139117
632.098	0.0140024
632.176	0.0141841
632.254	0.0140170
632.332	0.0140129
632.410	0.0141314
632.488	0.0139490
632.567	0.0140527
632.645	0.0140398
632.723	0.0139558
632.801	0.0141621
632.879	0.0141497
632.957	0.0139977
633.035	0.0140354
633.113	0.0139544
633.192	0.0140664
633.270	0.0140261
633.348	0.0140310
633.426	0.0141988
633.504	0.0140416
633.582	0.0141264
633.660	0.0141039
633.738	0.0140221
633.817	0.0140808
633.895	0.0140945
633.973	0.0140929
634.051	0.0140469
634.129	0.0140236
634.207	0.0139397
634.285	0.0141016
634.363	0.0140588
634.442	0.0140060
634.520	0.0140194
634.598	0.0140589
634.676	0.0141157
634.754	0.0140894
634.832	0.0139931
634.910	0.0140474
634.988	0.0140373
635.067	0.0139951
635.145	0.0141326
635.223	0.0141172
635.301	0.0139880
635.379	0.0140174
635.457	0.0142045
635.535	0.0141058
635.613	0.0139791
635.692	0.0140225
635.770	0.0139960
635.848	0.0141531
635.926	0.0140422
636.004	0.0141080
636.082	0.0140855
636.160	0.0141341
636.238	0.0140807
636.317	0.0140067
636.395	0.0140266
636.473	0.0140067
636.551	0.0139648
636.629	0.0140339
636.707	0.0140762
636.785	0.0140670
636.863	0.0139825
636.942	0.0141008
637.020	0.0140934
637.098	0.0141516
637.176	0.0142277
637.254	0.0140922
637.332	0.0139570
637.410	0.0141245
637.488	0.0139452
637.567	0.0139995
637.645	0.0139457
637.723	0.0140613
637.801	0.0139668
637.879	0.0141553
637.957	0.0139946
638.035	0.0140297
638.113	0.0140488
638.192	0.0140202
638.270	0.0140892
638.348	0.0140708
638.426	0.0140196
638.504	0.0140435
638.582	0.0139716
638.660	0.0139026
638.738	0.0139505
638.817	0.0140016
638.895	0.0140577
638.973	0.0140182
639.051	0.0139874
639.129	0.0139939
639.207	0.0140884
639.285	0.0142460
639.363	0.0140456
639.442	0.0139604
639.520	0.0140076
639.598	0.0141782
639.676	0.0141502
639.754	0.0140670
639.832	0.0142138
639.910	0.0141034
639.988	0.0139624
640.067	0.0141914
640.145	0.0140491
640.223	0.0140997
640.301	0.0139462
640.379	0.0141854
640.457	0.0141920
640.535	0.0140843
640.613	0.0140975
640.692	0.0139554
640.770	0.0141553
640.848	0.0142464
640.926	0.0140978
641.004	0.0141021
641.082	0.0139946
641.160	0.0139440
641.238	0.0140345
641.317	0.0141567
641.395	0.0140505
641.473	0.0141953
641.551	0.0140951
641.629	0.0139067
641.707	0.0139488
641.785	0.0140028
641.863	0.0140305
641.942	0.0140401
642.020	0.0138345
642.098	0.0139690
642.176	0.0138661
642.254	0.0139054
642.332	0.0141335
642.410	0.0140406
642.488	0.0140678
642.567	0.0140423
642.645	0.0139184
642.723	0.0139862
642.801	0.0140350
642.879	0.0139119
642.957	0.0139130
643.035	0.0140629
643.113	0.0139530
643.192	0.0139511
643.270	0.0139877
643.348	0.0140774
643.426	0.0139369
643.504	0.0139148
643.582	0.0139726
643.660	0.0139625
643.738	0.0140471
643.817	0.0139571
643.895	0.0139096
643.973	0.0140004
644.051	0.0140283
644.129	0.0139101
644.207	0.0141190
644.285	0.0138953
644.363	0.0139873
644.442	0.0139400
644.520	0.0139760
644.598	0.0139729
644.676	0.0140292
644.754	0.0139681
644.832	0.0141510
644.910	0.0140221
644.988	0.0139420
645.067	0.0139863
645.145	0.0140903
645.223	0.0139613
645.301	0.0139512
645.379	0.0140501
645.457	0.0140184
645.535	0.0139920
645.613	0.0140319
645.692	0.0139653
645.770	0.0139818
645.848	0.0139059
645.926	0.0139923
646.004	0.0140836
646.082	0.0141260
646.160	0.0140788
646.238	0.0138981
646.317	0.0139211
646.395	0.0140467
646.473	0.0140259
646.551	0.0138978
646.629	0.0140777
646.707	0.0140550
646.785	0.0140252
646.863	0.0139309
646.942	0.0140136
647.020	0.0139388
647.098	0.0140065
647.176	0.0139742
647.254	0.0141468
647.332	0.0138857
647.410	0.0139203
647.488	0.0139959
647.567	0.0140485
647.645	0.0141421
647.723	0.0141599
647.801	0.0140469
647.879	0.0140031
647.957	0.0140324
648.035	0.0140208
648.113	0.0140847
648.192	0.0140292
648.270	0.0140087
648.348	0.0140811
648.426	0.0140544
648.504	0.0140840
648.582	0.0139892
648.660	0.0139547
648.738	0.0140698
648.817	0.0140268
648.895	0.0140939
648.973	0.0139880
649.051	0.0141630
649.129	0.0141578
649.207	0.0140604
649.285	0.0140371
649.363	0.0139500
649.442	0.0140187
649.520	0.0141148
649.598	0.0140413
649.676	0.0139921
649.754	0.0139099
649.832	0.0139261
649.910	0.0139948
649.988	0.0139612
650.067	0.0140762
650.145	0.0140832
650.223	0.0140456
650.301	0.0142278
650.379	0.0140971
650.457	0.0140645
650.535	0.0141759
650.613	0.0140468
650.692	0.0140914
650.770	0.0142558
650.848	0.0142001
650.926	0.0140177
651.004	0.0141763
651.082	0.0143108
651.160	0.0141652
651.238	0.0141314
651.317	0.0140767
651.395	0.0143556
651.473	0.0143441
651.551	0.0143198
651.629	0.0141774
651.707	0.0140546
651.785	0.0141861
651.863	0.0140013
651.942	0.0140009
652.020	0.0139529
652.098	0.0138263
652.176	0.0138126
652.254	0.0137847
652.332	0.0138612
652.410	0.0137626
652.488	0.0136540
652.567	0.0138025
652.645	0.0137727
652.723	0.0138769
652.801	0.0138867
652.879	0.0139500
652.957	0.0141325
653.035	0.0140491
653.113	0.0140566
653.192	0.0141060
653.270	0.0140147
653.348	0.0140381
653.426	0.0140179
653.504	0.0141508
653.582	0.0143058
653.660	0.0143189
653.738	0.0143127
653.817	0.0143912
653.895	0.0142866
653.973	0.0141044
654.051	0.0140746
654.129	0.0141779
654.207	0.0141895
654.285	0.0141491
654.363	0.0140869
654.442	0.0142927
654.520	0.0141393
654.598	0.0143159
654.676	0.0141799
654.754	0.0143086
654.832	0.0141767
654.910	0.0142103
654.988	0.0142616
655.067	0.0143947
655.145	0.0141801
655.223	0.0140626
655.301	0.0141344
655.379	0.0141056
655.457	0.0139872
655.535	0.0139698
655.613	0.0138530
655.692	0.0138633
655.770	0.0137495
655.848	0.0137922
655.926	0.0137885
656.004	0.0138786
656.082	0.0138801
656.160	0.0138453
656.238	0.0139471
656.317	0.0139172
656.395	0.0139496
656.473	0.0138245
656.551	0.0137254
656.629	0.0138075
656.707	0.0137354
656.785	0.0135985
656.863	0.0134456
656.942	0.0136378
657.020	0.0135894
657.098	0.0134830
657.176	0.0134435
657.254	0.0134565
657.332	0.0134810
657.410	0.0135683
657.488	0.0137145
657.567	0.0137821
657.645	0.0139274
657.723	0.0140874
657.801	0.0141874
657.879	0.0142595
657.957	0.0144183
658.035	0.0144796
658.113	0.0144621
658.192	0.0145374
658.270	0.0144656
658.348	0.0143732
658.426	0.0144144
658.504	0.0145506
658.582	0.0143342
658.660	0.0144223
658.738	0.0144540
658.817	0.0144890
658.895	0.0145206
658.973	0.0145059
659.051	0.0145219
659.129	0.0143800
659.207	0.0143089
659.285	0.0143971
659.363	0.0142051
659.442	0.0142281
659.520	0.0142317
659.598	0.0141179
659.676	0.0140205
659.754	0.0143106
659.832	0.0141688
659.910	0.0141989
659.988	0.0141304
660.067	0.0141666
660.145	0.0140417
660.223	0.0140367
660.301	0.0139803
660.379	0.0139706
660.457	0.0137669
660.535	0.0136732
660.613	0.0135364
660.692	0.0134113
660.770	0.0134222
660.848	0.0131594
660.926	0.0129492
661.004	0.0130358
661.082	0.0129053
661.160	0.0128446
661.238	0.0129457
661.317	0.0129652
661.395	0.0131438
661.473	0.0131255
661.551	0.0132957
661.629	0.0135215
661.707	0.0135666
661.785	0.0137706
661.863	0.0140271
661.942	0.0143359
662.020	0.0144503
662.098	0.0144746
662.176	0.0147519
662.254	0.0146804
662.332	0.0146275
662.410	0.0147342
662.488	0.0148817
662.567	0.0146910
662.645	0.0147128
662.723	0.0146017
662.801	0.0147055
662.879	0.0147245
662.957	0.0144817
663.035	0.0145571
663.113	0.0144238
663.192	0.0144283
663.270	0.0145729
663.348	0.0143808
663.426	0.0143996
663.504	0.0143186
663.582	0.0142580
663.660	0.0140848
663.738	0.0141819
663.817	0.0141393
663.895	0.0142197
663.973	0.0141259
664.051	0.0140374
664.129	0.0142097
664.207	0.0143884
664.285	0.0143006
664.363	0.0143025
664.442	0.0142371
664.520	0.0142078
664.598	0.0142133
664.676	0.0142075
664.754	0.0141113
664.832	0.0139152
664.910	0.0138328
664.988	0.0137498
665.067	0.0136488
665.145	0.0135477
665.223	0.0135367
665.301	0.0135086
665.379	0.0134142
665.457	0.0135244
665.535	0.0135224
665.613	0.0133283
665.692	0.0134327
665.770	0.0133648
665.848	0.0133062
665.926	0.0131873
666.004	0.0132786
666.082	0.0133482
666.160	0.0133216
666.238	0.0135441
666.317	0.0135461
666.395	0.0134533
666.473	0.0135385
666.551	0.0136211
666.629	0.0136240
666.707	0.0137661
666.785	0.0138612
666.863	0.0139977
666.942	0.0139143
667.020	0.0140243
667.098	0.0140853
667.176	0.0141485
667.254	0.0141328
667.332	0.0143585
667.410	0.0143570
667.488	0.0143796
667.567	0.0146172
667.645	0.0147320
667.723	0.0147098
667.801	0.0147539
667.879	0.0148370
667.957	0.0149670
668.035	0.0150005
668.113	0.0148864
668.192	0.0149081
668.270	0.0147256
668.348	0.0146320
668.426	0.0146649
668.504	0.0144808
668.582	0.0144789
668.660	0.0144646
668.738	0.0143813
668.817	0.0144070
668.895	0.0142915
668.973	0.0141640
669.051	0.0142632
669.129	0.0141753
669.207	0.0143338
669.285	0.0142313
669.363	0.0142105
669.442	0.0142902
669.520	0.0141119
669.598	0.0140851
669.676	0.0139609
669.754	0.0139384
669.832	0.0138429
669.910	0.0138037
669.988	0.0138984
670.067	0.0136716
670.145	0.0134750
670.223	0.0135184
670.301	0.0134801
670.379	0.0134238
670.457	0.0134285
670.535	0.0134706
670.613	0.0132205
670.692	0.0133883
670.770	0.0133026
670.848	0.0132274
670.926	0.0133530
671.004	0.0135280
671.082	0.0135660
671.160	0.0134211
671.238	0.0135548
671.317	0.0136436
671.395	0.0136880
671.473	0.0136357
671.551	0.0136700
671.629	0.0138179
671.707	0.0137512
671.785	0.0137979
671.863	0.0138475
671.942	0.0138051
672.020	0.0137392
672.098	0.0140217
672.176	0.0139049
672.254	0.0140025
672.332	0.0141544
672.410	0.0141737
672.488	0.0141628
672.567	0.0143587
672.645	0.0143259
672.723	0.0144498
672.801	0.0145850
672.879	0.0143803
672.957	0.0145081
673.035	0.0144075
673.113	0.0146318
673.192	0.0146241
673.270	0.0146201
673.348	0.0146912
673.426	0.0146375
673.504	0.0147905
673.582	0.0148043
673.660	0.0148309
673.738	0.0147643
673.817	0.0148260
673.895	0.0146797
673.973	0.0146907
674.051	0.0143937
674.129	0.0143742
674.207	0.0142739
674.285	0.0141317
674.363	0.0140021
674.442	0.0138653
674.520	0.0136393
674.598	0.0135748
674.676	0.0134787
674.754	0.0133616
674.832	0.0132410
674.910	0.0133334
674.988	0.0135140
675.067	0.0133765
675.145	0.0136002
675.223	0.0136809
675.301	0.0138426
675.379	0.0139137
675.457	0.0139906
675.535	0.0142224
675.613	0.0143233
675.692	0.0144191
675.770	0.0145810
675.848	0.0145204
675.926	0.0145278
676.004	0.0145092
676.082	0.0143878
676.160	0.0143565
676.238	0.0142275
676.317	0.0140337
676.395	0.0139486
676.473	0.0136713
676.551	0.0132755
676.629	0.0131890
676.707	0.0130497
676.785	0.0130025
676.863	0.0128627
676.942	0.0127561
677.020	0.0127885
677.098	0.0129084
677.176	0.0129639
677.254	0.0130106
677.332	0.0131651
677.410	0.0134483
677.488	0.0135171
677.567	0.0135526
677.645	0.0137415
677.723	0.0138880
677.801	0.0140355
677.879	0.0141747
677.957	0.0143726
678.035	0.0144115
678.113	0.0145674
678.192	0.0145229
678.270	0.0145954
678.348	0.0145893
678.426	0.0146499
678.504	0.0145802
678.582	0.0145730
678.660	0.0146319
678.738	0.0146391
678.817	0.0145155
678.895	0.0144346
678.973	0.0144785
679.051	0.0144929
679.129	0.0144519
679.207	0.0143768
679.285	0.0143053
679.363	0.0143298
679.442	0.0141779
679.520	0.0139884
679.598	0.0140396
679.676	0.0138867
679.754	0.0139144
679.832	0.0138823
679.910	0.0137926
679.988	0.0136849
680.067	0.0136185
680.145	0.0138022
680.223	0.0138443
680.301	0.0140305
680.379	0.0139897
680.457	0.0141677
680.535	0.0141961
680.613	0.0143936
680.692	0.0144877
680.770	0.0145587
680.848	0.0146700
680.926	0.0147034
681.004	0.0147918
681.082	0.0148005
681.160	0.0148822
681.238	0.0148505
681.317	0.0145863
681.395	0.0146191
681.473	0.0145065
681.551	0.0144869
681.629	0.0141816
681.707	0.0141135
681.785	0.0140628
681.863	0.0138882
681.942	0.0136578
682.020	0.0133923
682.098	0.0132090
682.176	0.0130956
682.254	0.0129971
682.332	0.0126626
682.410	0.0126818
682.488	0.0124638
682.567	0.0123476
682.645	0.0124845
682.723	0.0123184
682.801	0.0124660
682.879	0.0125419
682.957	0.0127187
683.035	0.0128075
683.113	0.0130019
683.192	0.0132854
683.270	0.0132412
683.348	0.0137587
683.426	0.0140006
683.504	0.0139930
683.582	0.0141023
683.660	0.0142610
683.738	0.0143758
683.817	0.0144373
683.895	0.0146304
683.973	0.0146037
684.051	0.0147369
684.129	0.0146859
684.207	0.0146141
684.285	0.0145453
684.363	0.0145947
684.442	0.0145821
684.520	0.0145019
684.598	0.0145240
684.676	0.0144691
684.754	0.0144720
684.832	0.0144965
684.910	0.0144983
684.988	0.0144199
685.067	0.0144665
685.145	0.0145518
685.223	0.0146027
685.301	0.0145742
685.379	0.0146061
685.457	0.0146510
685.535	0.0146111
685.613	0.0147577
685.692	0.0147787
685.770	0.0148830
685.848	0.0148729
685.926	0.0149381
686.004	0.0148064
686.082	0.0147879
686.160	0.0147240
686.238	0.0147516
686.317	0.0146574
686.395	0.0144321
686.473	0.0142799
686.551	0.0143668
686.629	0.0141158
686.707	0.0140651
686.785	0.0139101
686.863	0.0136324
686.942	0.0137596
687.020	0.0136423
687.098	0.0136086
687.176	0.0133540
687.254	0.0133895
687.332	0.0133055
687.410	0.0131650
687.488	0.0131844
687.567	0.0130824
687.645	0.0130866
687.723	0.0129984
687.801	0.0127744
687.879	0.0127383
687.957	0.0127256
688.035	0.0127290
688.113	0.0127934
688.192	0.0127998
688.270	0.0127596
688.348	0.0128103
688.426	0.0128931
688.504	0.0130148
688.582	0.0130533
688.660	0.0131659
688.738	0.0133434
688.817	0.0135000
688.895	0.0137385
688.973	0.0138800
689.051	0.0140963
689.129	0.0143359
689.207	0.0144409
689.285	0.0148053
689.363	0.0148766
689.442	0.0151123
689.520	0.0153790
689.598	0.0155067
689.676	0.0155994
689.754	0.0156686
689.832	0.0157760
689.910	0.0155556
689.988	0.0156507
690.067	0.0153761
690.145	0.0151596
690.223	0.0151946
690.301	0.0149339
690.379	0.0147483
690.457	0.0145623
690.535	0.0143306
690.613	0.0140898
690.692	0.0140959
690.770	0.0139364
690.848	0.0137546
690.926	0.0136294
691.004	0.0135605
691.082	0.0135800
691.160	0.0133139
691.238	0.0133904
691.317	0.0133733
691.395	0.0134111
691.473	0.0135046
691.551	0.0134805
691.629	0.0136354
691.707	0.0135497
691.785	0.0136255
691.863	0.0137600
691.942	0.0136761
692.020	0.0138322
692.098	0.0139049
692.176	0.0141903
692.254	0.0141993
692.332	0.0142930
692.410	0.0145238
692.488	0.0145097
692.567	0.0145123
692.645	0.0144463
692.723	0.0145197
692.801	0.0144545
692.879	0.0143649
692.957	0.0140617
693.035	0.0141441
693.113	0.0138538
693.192	0.0137344
693.270	0.0136065
693.348	0.0135532
693.426	0.0134865
693.504	0.0134656
693.582	0.0135285
693.660	0.0135198
693.738	0.0135377
693.817	0.0136252
693.895	0.0136475
693.973	0.0138255
694.051	0.0139595
694.129	0.0138735
694.207	0.0141289
694.285	0.0141276
694.363	0.0142631
694.442	0.0144421
694.520	0.0143072
694.598	0.0142394
694.676	0.0143426
694.754	0.0142455
694.832	0.0142252
694.910	0.0141374
694.988	0.0142529
695.067	0.0142763
695.145	0.0142011
695.223	0.0140777
695.301	0.0140106
695.379	0.0139433
695.457	0.0141398
695.535	0.0140257
695.613	0.0139203
695.692	0.0139061
695.770	0.0138316
695.848	0.0139175
695.926	0.0139603
696.004	0.0138441
696.082	0.0139189
696.160	0.0139816
696.238	0.0139632
696.317	0.0139052
696.395	0.0139223
696.473	0.0141823
696.551	0.0140134
696.629	0.0140021
696.707	0.0139991
696.785	0.0140244
696.863	0.0138241
696.942	0.0138206
697.020	0.0137776
697.098	0.0137726
697.176	0.0137035
697.254	0.0136665
697.332	0.0137045
697.410	0.0137305
697.488	0.0136600
697.567	0.0137383
697.645	0.0136065
697.723	0.0137903
697.801	0.0139016
697.879	0.0139194
697.957	0.0140982
698.035	0.0142082
698.113	0.0144784
698.192	0.0144682
698.270	0.0145631
698.348	0.0146840
698.426	0.0147467
698.504	0.0147527
698.582	0.0146014
698.660	0.0146937
698.738	0.0148254
698.817	0.0145819
698.895	0.0145686
698.973	0.0147557
699.051	0.0145596
699.129	0.0144950
699.207	0.0144683
699.285	0.0143797
699.363	0.0146144
699.442	0.0144212
699.520	0.0142172
699.598	0.0142853
699.676	0.0141974
699.754	0.0140269
699.832	0.0138206
699.910	0.0137983
699.988	0.0138791
700.067	0.0136568
700.145	0.0135216
700.223	0.0132643
700.301	0.0133702
700.379	0.0133630
700.457	0.0135114
700.535	0.0135434
700.613	0.0133874
700.692	0.0132412
700.770	0.0134247
700.848	0.0133034
700.926	0.0132732
701.004	0.0132254
701.082	0.0132852
701.160	0.0131515
701.238	0.0132696
701.317	0.0131714
701.395	0.0132372
701.473	0.0132735
701.551	0.0134554
701.629	0.0133784
701.707	0.0136207
701.785	0.0136446
701.863	0.0137654
701.942	0.0138268
702.020	0.0139856
702.098	0.0141536
702.176	0.0141098
702.254	0.0141955
702.332	0.0143901
702.410	0.0145560
702.488	0.0144884
702.567	0.0146078
702.645	0.0145270
702.723	0.0144765
702.801	0.0146552
702.879	0.0146935
702.957	0.0146712
703.035	0.0146516
703.113	0.0145555
703.192	0.0146493
703.270	0.0147022
703.348	0.0145567
703.426	0.0145482
703.504	0.0145416
703.582	0.0145648
703.660	0.0145390
703.738	0.0146130
703.817	0.0144420
703.895	0.0145345
703.973	0.0142757
704.051	0.0144223
704.129	0.0146423
704.207	0.0144913
704.285	0.0142967
704.363	0.0142450
704.442	0.0143198
704.520	0.0141672
704.598	0.0139003
704.676	0.0139583
704.754	0.0137547
704.832	0.0135863
704.910	0.0136279
704.988	0.0134741
705.067	0.0133311
705.145	0.0133739
705.223	0.0133762
705.301	0.0131901
705.379	0.0131030
705.457	0.0130655
705.535	0.0130196
705.613	0.0130524
705.692	0.0131508
705.770	0.0130596
705.848	0.0133913
705.926	0.0134031
706.004	0.0132594
706.082	0.0135419
706.160	0.0136086
706.238	0.0137118
706.317	0.0137648
706.395	0.0139304
706.473	0.0138620
706.551	0.0140427
706.629	0.0141289
706.707	0.0140739
706.785	0.0140432
706.863	0.0142633
706.942	0.0142180
707.020	0.0142695
707.098	0.0143674
707.176	0.0144257
707.254	0.0143298
707.332	0.0144246
707.410	0.0145018
707.488	0.0144742
707.567	0.0145323
707.645	0.0146609
707.723	0.0146548
707.801	0.0145145
707.879	0.0145262
707.957	0.0144547
708.035	0.0144534
708.113	0.0142957
708.192	0.0143851
708.270	0.0143872
708.348	0.0142817
708.426	0.0141800
708.504	0.0141127
708.582	0.0140166
708.660	0.0141451
708.738	0.0141588
708.817	0.0139890
708.895	0.0138736
708.973	0.0139079
709.051	0.0139949
709.129	0.0139252
709.207	0.0139553
709.285	0.0138386
709.363	0.0137444
709.442	0.0137690
709.520	0.0138628
709.598	0.0137657
709.676	0.0137996
709.754	0.0137926
709.832	0.0138188
709.910	0.0138528
709.988	0.0139784
710.067	0.0139513
710.145	0.0140050
710.223	0.0139359
710.301	0.0140475
710.379	0.0140516
710.457	0.0140653
710.535	0.0140466
710.613	0.0141174
710.692	0.0142130
710.770	0.0142966
710.848	0.0142340
710.926	0.0143359
711.004	0.0142625
711.082	0.0141094
711.160	0.0141958
711.238	0.0142336
711.317	0.0140028
711.395	0.0139993
711.473	0.0138738
711.551	0.0137508
711.629	0.0137669
711.707	0.0137223
711.785	0.0136963
711.863	0.0135567
711.942	0.0136098
712.020	0.0135787
712.098	0.0135785
712.176	0.0136738
712.254	0.0136652
712.332	0.0138276
712.410	0.0139083
712.488	0.0140050
712.567	0.0142405
712.645	0.0141321
712.723	0.0143813
712.801	0.0145265
712.879	0.0145522
712.957	0.0145090
713.035	0.0146155
713.113	0.0146497
713.192	0.0145825
713.270	0.0146363
713.348	0.0146135
713.426	0.0144611
713.504	0.0145857
713.582	0.0144880
713.660	0.0142847
713.738	0.0143263
713.817	0.0140378
713.895	0.0139803
713.973	0.0139777
714.051	0.0141328
714.129	0.0140326
714.207	0.0137376
714.285	0.0138518
714.363	0.0137870
714.442	0.0137267
714.520	0.0137975
714.598	0.0137910
714.676	0.0138715
714.754	0.0139351
714.832	0.0137714
714.910	0.0136772
714.988	0.0138354
715.067	0.0139034
715.145	0.0139748
715.223	0.0139915
715.301	0.0140895
715.379	0.0140641
715.457	0.0140445
715.535	0.0139883
715.613	0.0141110
715.692	0.0142224
715.770	0.0139843
715.848	0.0142533
715.926	0.0140455
716.004	0.0140656
716.082	0.0141033
716.160	0.0139881
716.238	0.0140928
716.317	0.0139334
716.395	0.0140048
716.473	0.0138920
716.551	0.0138136
716.629	0.0140014
716.707	0.0139275
716.785	0.0139728
716.863	0.0140896
716.942	0.0141705
717.020	0.0142690
717.098	0.0142829
717.176	0.0141701
717.254	0.0142874
717.332	0.0144089
717.410	0.0142302
717.488	0.0141809
717.567	0.0141241
717.645	0.0140093
717.723	0.0139935
717.801	0.0139358
717.879	0.0138595
717.957	0.0139278
718.035	0.0139864
718.113	0.0139252
718.192	0.0139262
718.270	0.0138430
718.348	0.0139350
718.426	0.0140461
718.504	0.0140697
718.582	0.0139790
718.660	0.0139989
718.738	0.0139616
718.817	0.0139914
718.895	0.0139051
718.973	0.0140118
719.051	0.0138654
719.129	0.0137429
719.207	0.0136470
719.285	0.0136382
719.363	0.0137160
719.442	0.0136199
719.520	0.0136899
719.598	0.0138071
719.676	0.0138402
719.754	0.0139236
719.832	0.0139194
719.910	0.0139724
719.988	0.0142803
720.067	0.0142393
720.145	0.0141724
720.223	0.0143147
720.301	0.0142793
720.379	0.0143273
720.457	0.0142785
720.535	0.0143726
720.613	0.0144336
720.692	0.0142351
720.770	0.0143789
720.848	0.0143210
720.926	0.0142561
721.004	0.0141845
721.082	0.0141392
721.160	0.0140131
721.238	0.0139696
721.317	0.0139025
721.395	0.0139925
721.473	0.0138593
721.551	0.0138574
721.629	0.0138877
721.707	0.0139968
721.785	0.0139900
721.863	0.0138529
721.942	0.0139192
722.020	0.0139507
722.098	0.0138766
722.176	0.0138529
722.254	0.0139458
722.332	0.0140016
722.410	0.0139818
722.488	0.0142753
722.567	0.0140507
722.645	0.0142655
722.723	0.0142596
722.801	0.0141756
722.879	0.0141602
722.957	0.0141104
723.035	0.0140816
723.113	0.0142686
723.192	0.0142598
723.270	0.0141170
723.348	0.0141183
723.426	0.0141537
723.504	0.0140720
723.582	0.0140747
723.660	0.0140040
723.738	0.0140588
723.817	0.0139132
723.895	0.0139684
723.973	0.0140133
724.051	0.0140498
724.129	0.0140403
724.207	0.0138631
724.285	0.0137916
724.363	0.0139747
724.442	0.0139825
724.520	0.0140134
724.598	0.0140632
724.676	0.0140245
724.754	0.0140900
724.832	0.0139539
724.910	0.0139387
724.988	0.0140671
725.067	0.0140218
725.145	0.0140065
725.223	0.0139461
725.301	0.0138892
725.379	0.0139642
725.457	0.0139301
725.535	0.0137784
725.613	0.0140331
725.692	0.0139826
725.770	0.0138474
725.848	0.0139902
725.926	0.0139224
726.004	0.0139994
726.082	0.0139556
726.160	0.0138426
726.238	0.0138398
726.317	0.0141144
726.395	0.0139410
726.473	0.0139941
726.551	0.0140140
726.629	0.0140381
726.707	0.0140726
726.785	0.0141522
726.863	0.0142681
726.942	0.0143555
727.020	0.0143338
727.098	0.0144095
727.176	0.0143868
727.254	0.0144465
727.332	0.0144664
727.410	0.0142642
727.488	0.0145241
727.567	0.0145490
727.645	0.0143494
727.723	0.0142323
727.801	0.0142932
727.879	0.0141434
727.957	0.0142525
728.035	0.0141109
728.113	0.0140719
728.192	0.0140491
728.270	0.0140491
728.348	0.0140462
728.426	0.0139404
728.504	0.0139032
728.582	0.0141153
728.660	0.0140011
728.738	0.0140366
728.817	0.0140276
728.895	0.0140251
728.973	0.0140988
729.051	0.0139831
729.129	0.0140891
729.207	0.0141961
729.285	0.0140602
729.363	0.0141427
729.442	0.0140147
729.520	0.0139556
729.598	0.0141241
729.676	0.0140070
729.754	0.0139192
729.832	0.0139757
729.910	0.0141264
729.988	0.0139809
730.067	0.0137701
730.145	0.0138685
730.223	0.0138380
730.301	0.0138978
730.379	0.0137644
730.457	0.0139169
730.535	0.0139149
730.613	0.0138348
730.692	0.0139348
730.770	0.0138720
730.848	0.0139050
730.926	0.0139503
731.004	0.0141119
731.082	0.0140858
731.160	0.0140676
731.238	0.0141087
731.317	0.0140589
731.395	0.0141904
731.473	0.0141360
731.551	0.0142474
731.629	0.0140848
731.707	0.0141199
731.785	0.0140761
731.863	0.0140299
731.942	0.0140434
732.020	0.0140289
732.098	0.0140752
732.176	0.0138316
732.254	0.0139107
732.332	0.0140396
732.410	0.0139534
732.488	0.0138563
732.567	0.0137666
732.645	0.0139017
732.723	0.0138280
732.801	0.0140170
732.879	0.0140788
732.957	0.0141086
733.035	0.0140279
733.113	0.0142063
733.192	0.0141846
733.270	0.0141666
733.348	0.0142058
733.426	0.0141617
733.504	0.0141083
733.582	0.0140636
733.660	0.0140906
733.738	0.0139276
733.817	0.0140472
733.895	0.0140218
733.973	0.0140289
734.051	0.0141749
734.129	0.0141170
734.207	0.0141949
734.285	0.0140482
734.363	0.0143044
734.442	0.0142874
734.520	0.0142350
734.598	0.0142789
734.676	0.0142452
734.754	0.0142649
734.832	0.0143761
734.910	0.0142564
734.988	0.0143152
735.067	0.0143693
735.145	0.0142114
735.223	0.0141265
735.301	0.0141678
735.379	0.0141920
735.457	0.0142397
735.535	0.0140794
735.613	0.0139433
735.692	0.0139713
735.770	0.0139686
735.848	0.0140327
735.926	0.0138654
736.004	0.0139677
736.082	0.0137672
736.160	0.0137255
736.238	0.0138653
736.317	0.0138286
736.395	0.0137628
736.473	0.0138651
736.551	0.0137821
736.629	0.0138448
736.707	0.0139228
736.785	0.0139558
736.863	0.0139128
736.942	0.0140142
737.020	0.0139266
737.098	0.0139255
737.176	0.0139240
737.254	0.0140285
737.332	0.0139960
737.410	0.0138667
737.488	0.0139162
737.567	0.0138194
737.645	0.0137762
737.723	0.0139735
737.801	0.0138728
737.879	0.0137814
737.957	0.0138249
738.035	0.0139243
738.113	0.0139209
738.192	0.0138361
738.270	0.0138451
738.348	0.0139663
738.426	0.0139246
738.504	0.0140363
738.582	0.0140110
738.660	0.0141329
738.738	0.0142381
738.817	0.0143172
738.895	0.0141645
738.973	0.0142525
739.051	0.0142207
739.129	0.0142917
739.207	0.0144272
739.285	0.0142778
739.363	0.0142840
739.442	0.0142322
739.520	0.0143709
739.598	0.0142310
739.676	0.0142073
739.754	0.0141704
739.832	0.0141275
739.910	0.0141441
739.988	0.0140668
740.067	0.0140076
740.145	0.0138828
740.223	0.0138893
740.301	0.0139700
740.379	0.0139897
740.457	0.0137764
740.535	0.0138435
740.613	0.0139342
740.692	0.0140006
740.770	0.0138761
740.848	0.0137139
740.926	0.0139106
741.004	0.0139327
741.082	0.0138779
741.160	0.0138645
741.238	0.0139953
741.317	0.0139935
741.395	0.0140643
741.473	0.0139618
741.551	0.0139896
741.629	0.0140363
741.707	0.0140498
741.785	0.0140795
741.863	0.0141479
741.942	0.0140115
742.020	0.0142280
742.098	0.0141889
742.176	0.0140754
742.254	0.0141989
742.332	0.0141378
742.410	0.0141378
742.488	0.0141119
742.567	0.0141577
742.645	0.0139943
742.723	0.0140174
742.801	0.0140685
742.879	0.0141185
742.957	0.0140207
743.035	0.0140021
743.113	0.0139713
743.192	0.0140350
743.270	0.0138872
743.348	0.0140476
743.426	0.0138557
743.504	0.0137691
743.582	0.0138239
743.660	0.0139316
743.738	0.0139655
743.817	0.0139718
743.895	0.0138423
743.973	0.0140250
744.051	0.0140025
744.129	0.0139763
744.207	0.0141211
744.285	0.0140412
744.363	0.0141960
744.442	0.0140833
744.520	0.0141164
744.598	0.0141914
744.676	0.0141656
744.754	0.0142885
744.832	0.0141490
744.910	0.0140755
744.988	0.0140768
745.067	0.0142918
745.145	0.0141054
745.223	0.0139059
745.301	0.0140783
745.379	0.0140771
745.457	0.0140536
745.535	0.0140703
745.613	0.0139140
745.692	0.0139312
745.770	0.0141476
745.848	0.0140062
745.926	0.0139257
746.004	0.0139733
746.082	0.0138229
746.160	0.0140469
746.238	0.0140448
746.317	0.0140205
746.395	0.0139340
746.473	0.0139112
746.551	0.0140784
746.629	0.0141321
746.707	0.0141703
746.785	0.0140598
746.863	0.0142558
746.942	0.0142594
747.020	0.0141796
747.098	0.0142664
747.176	0.0142794
747.254	0.0140929
747.332	0.0141607
747.410	0.0141862
747.488	0.0141026
747.567	0.0140578
747.645	0.0140603
747.723	0.0140546
747.801	0.0140087
747.879	0.0139270
747.957	0.0138364
748.035	0.0139597
748.113	0.0140398
748.192	0.0138419
748.270	0.0139664
748.348	0.0138778
748.426	0.0138187
748.504	0.0138577
748.582	0.0137420
748.660	0.0137753
748.738	0.0139422
748.817	0.0139166
748.895	0.0138348
748.973	0.0138942
749.051	0.0138264
749.129	0.0139059
749.207	0.0139877
749.285	0.0139618
749.363	0.0139362
749.442	0.0141401
749.520	0.0140407
749.598	0.0142226
749.676	0.0143401
749.754	0.0140934
749.832	0.0141860
749.910	0.0141217
749.988	0.0142482
750.067	0.0142151
750.145	0.0141853
750.223	0.0141317
750.301	0.0142032
750.379	0.0142400
750.457	0.0141496
750.535	0.0142142
750.613	0.0140754
750.692	0.0140803
750.770	0.0139867
750.848	0.0140965
750.926	0.0140765
751.004	0.0139095
751.082	0.0139290
751.160	0.0140142
751.238	0.0139112
751.317	0.0140141
751.395	0.0140508
751.473	0.0140398
751.551	0.0139730
751.629	0.0138261
751.707	0.0140469
751.785	0.0139174
751.863	0.0138565
751.942	0.0140549
752.020	0.0141114
752.098	0.0139195
752.176	0.0140369
752.254	0.0141589
752.332	0.0140203
752.410	0.0139236
752.488	0.0140453
752.567	0.0139832
752.645	0.0141280
752.723	0.0139833
752.801	0.0139375
752.879	0.0140711
752.957	0.0139067
753.035	0.0139456
753.113	0.0137280
753.192	0.0138812
753.270	0.0138293
753.348	0.0137244
753.426	0.0137328
753.504	0.0137382
753.582	0.0136646
753.660	0.0137843
753.738	0.0138288
753.817	0.0137989
753.895	0.0139677
753.973	0.0139282
754.051	0.0139610
754.129	0.0139610
754.207	0.0140380
754.285	0.0139158
754.363	0.0140717
754.442	0.0141640
754.520	0.0140488
754.598	0.0142284
754.676	0.0141023
754.754	0.0142656
754.832	0.0142188
754.910	0.0143237
754.988	0.0143823
755.067	0.0141667
755.145	0.0142187
755.223	0.0143783
755.301	0.0143328
755.379	0.0142132
755.457	0.0144196
755.535	0.0141949
755.613	0.0139853
755.692	0.0140122
755.770	0.0140892
755.848	0.0139096
755.926	0.0139394
756.004	0.0139012
756.082	0.0139348
756.160	0.0139005
756.238	0.0139387
756.317	0.0138341
756.395	0.0138966
756.473	0.0139561
756.551	0.0137826
756.629	0.0138032
756.707	0.0138034
756.785	0.0139779
756.863	0.0138002
756.942	0.0138803
757.020	0.0139130
757.098	0.0137836
757.176	0.0137878
757.254	0.0139787
757.332	0.0139919
757.410	0.0138437
757.488	0.0140192
757.567	0.0140534
757.645	0.0139864
757.723	0.0140520
757.801	0.0141351
757.879	0.0141034
757.957	0.0141380
758.035	0.0141608
758.113	0.0141319
758.192	0.0141811
758.270	0.0141106
758.348	0.0139286
758.426	0.0140329
758.504	0.0140465
758.582	0.0140720
758.660	0.0140453
758.738	0.0140220
758.817	0.0140824
758.895	0.0140965
758.973	0.0140319
759.051	0.0139861
759.129	0.0140208
759.207	0.0140498
759.285	0.0140335
759.363	0.0140282
759.442	0.0138101
759.520	0.0139759
759.598	0.0139182
759.676	0.0139165
759.754	0.0140650
759.832	0.0139795
759.910	0.0140480
759.988	0.0140572
760.067	0.0140615
760.145	0.0140462
760.223	0.0140517
760.301	0.0141096
760.379	0.0141335
760.457	0.0139378
760.535	0.0141747
760.613	0.0142126
760.692	0.0139381
760.770	0.0139734
760.848	0.0141887
760.926	0.0140562
761.004	0.0139756
761.082	0.0140451
761.160	0.0139993
761.238	0.0139739
761.317	0.0138581
761.395	0.0139990
761.473	0.0139269
761.551	0.0138824
761.629	0.0138910
761.707	0.0137612
761.785	0.0138379
761.863	0.0138820
761.942	0.0139030
762.020	0.0138447
762.098	0.0137897
762.176	0.0138458
762.254	0.0138999
762.332	0.0138454
762.410	0.0139812
762.488	0.0139895
762.567	0.0139800
762.645	0.0139712
762.723	0.0139002
762.801	0.0140326
762.879	0.0140092
762.957	0.0141225
763.035	0.0140211
763.113	0.0140582
763.192	0.0141099
763.270	0.0141506
763.348	0.0140860
763.426	0.0142521
763.504	0.0140511
763.582	0.0141606
763.660	0.0141273
763.738	0.0140547
763.817	0.0140943
763.895	0.0142559
763.973	0.0141239
764.051	0.0140379
764.129	0.0140644
764.207	0.0141689
764.285	0.0143140
764.363	0.0140156
764.442	0.0140371
764.520	0.0141474
764.598	0.0140878
764.676	0.0142603
764.754	0.0140068
764.832	0.0140341
764.910	0.0141437
764.988	0.0140849
765.067	0.0141798
765.145	0.0140417
765.223	0.0140216
765.301	0.0138802
765.379	0.0137380
765.457	0.0139445
765.535	0.0138992
765.613	0.0138602
765.692	0.0140469
765.770	0.0140622
765.848	0.0139211
765.926	0.0140263
766.004	0.0139881
766.082	0.0140073
766.160	0.0139265
766.238	0.0139942
766.317	0.0140797
766.395	0.0141224
766.473	0.0140515
766.551	0.0139409
766.629	0.0139706
766.707	0.0140635
766.785	0.0141470
766.863	0.0139437
766.942	0.0139959
767.020	0.0142327
767.098	0.0142036
767.176	0.0140868
767.254	0.0141069
767.332	0.0140766
767.410	0.0140376
767.488	0.0140148
767.567	0.0140295
767.645	0.0139410
767.723	0.0138323
767.801	0.0141253
767.879	0.0140272
767.957	0.0140054
768.035	0.0139848
768.113	0.0140295
768.192	0.0139472
768.270	0.0139697
768.348	0.0138671
768.426	0.0140158
768.504	0.0139043
768.582	0.0138788
768.660	0.0140681
768.738	0.0139940
768.817	0.0139135
768.895	0.0138542
768.973	0.0138153
769.051	0.0139188
769.129	0.0139627
769.207	0.0139527
769.285	0.0139813
769.363	0.0139491
769.442	0.0139398
769.520	0.0139852
769.598	0.0140110
769.676	0.0138103
769.754	0.0140479
769.832	0.0140171
769.910	0.0139441
769.988	0.0141025
770.067	0.0139238
770.145	0.0141709
770.223	0.0140864
770.301	0.0140599
770.379	0.0141846
770.457	0.0142505
770.535	0.0139950
770.613	0.0139959
770.692	0.0141606
770.770	0.0141731
770.848	0.0140653
770.926	0.0140206
771.004	0.0139531
771.082	0.0140508
771.160	0.0141873
771.238	0.0141427
771.317	0.0140668
771.395	0.0140633
771.473	0.0140264
771.551	0.0140223
771.629	0.0140352
771.707	0.0140207
771.785	0.0139408
771.863	0.0139687
771.942	0.0139034
772.020	0.0139870
772.098	0.0139075
772.176	0.0139502
772.254	0.0138410
772.332	0.0139672
772.410	0.0138921
772.488	0.0139726
772.567	0.0140343
772.645	0.0140073
772.723	0.0139838
772.801	0.0139890
772.879	0.0139478
772.957	0.0139960
773.035	0.0141355
773.113	0.0138735
773.192	0.0139927
773.270	0.0139796
773.348	0.0139059
773.426	0.0139142
773.504	0.0139347
773.582	0.0139706
773.660	0.0139487
773.738	0.0139309
773.817	0.0140118
773.895	0.0141007
773.973	0.0139539
774.051	0.0140199
774.129	0.0138805
774.207	0.0140830
774.285	0.0139815
774.363	0.0140874
774.442	0.0140298
774.520	0.0141280
774.598	0.0141312
774.676	0.0141393
774.754	0.0142938
774.832	0.0140294
774.910	0.0140511
774.988	0.0140991
775.067	0.0140287
775.145	0.0141662
775.223	0.0142068
775.301	0.0140643
775.379	0.0141055
775.457	0.0141235
775.535	0.0141372
775.613	0.0142135
775.692	0.0141710
775.770	0.0140156
775.848	0.0140814
775.926	0.0139722
776.004	0.0140482
776.082	0.0139388
776.160	0.0138945
776.238	0.0139070
776.317	0.0138448
776.395	0.0138664
776.473	0.0138795
776.551	0.0139632
776.629	0.0138454
776.707	0.0138126
776.785	0.0139925
776.863	0.0138185
776.942	0.0138800
777.020	0.0139412
777.098	0.0139182
777.176	0.0140204
777.254	0.0138693
777.332	0.0139404
777.410	0.0140584
777.488	0.0140960
777.567	0.0139819
777.645	0.0138306
777.723	0.0139014
777.801	0.0138912
777.879	0.0140034
777.957	0.0138549
778.035	0.0139694
778.113	0.0140620
778.192	0.0140144
778.270	0.0139810
778.348	0.0140758
778.426	0.0140414
778.504	0.0139861
778.582	0.0139902
778.660	0.0140855
778.738	0.0141106
778.817	0.0139812
778.895	0.0139977
778.973	0.0139854
779.051	0.0141604
779.129	0.0138750
779.207	0.0139019
779.285	0.0138963
779.363	0.0138932
779.442	0.0139953
779.520	0.0139310
779.598	0.0138269
779.676	0.0138030
779.754	0.0138738
779.832	0.0138442
779.910	0.0139356
779.988	0.0139398
780.067	0.0140563
780.145	0.0138932
780.223	0.0140049
780.301	0.0140301
780.379	0.0139356
780.457	0.0140459
780.535	0.0140934
780.613	0.0140352
780.692	0.0141247
780.770	0.0141888
780.848	0.0140796
780.926	0.0141090
781.004	0.0140457
781.082	0.0142327
781.160	0.0141304
781.238	0.0141148
781.317	0.0141502
781.395	0.0141524
781.473	0.0140932
781.551	0.0142032
781.629	0.0140188
781.707	0.0141190
781.785	0.0140878
781.863	0.0140812
781.942	0.0141408
782.020	0.0141354
782.098	0.0139755
782.176	0.0141341
782.254	0.0141740
782.332	0.0139835
782.410	0.0140282
782.488	0.0141590
782.567	0.0140260
782.645	0.0140389
782.723	0.0141121
782.801	0.0141123
782.879	0.0140649
782.957	0.0142038
783.035	0.0140742
783.113	0.0140855
783.192	0.0140459
783.270	0.0141222
783.348	0.0140491
783.426	0.0139993
783.504	0.0140499
783.582	0.0140790
783.660	0.0141402
783.738	0.0140298
783.817	0.0138894
783.895	0.0139728
783.973	0.0138289
784.051	0.0138464
784.129	0.0137946
784.207	0.0138671
784.285	0.0139161
784.363	0.0138290
784.442	0.0138428
784.520	0.0138935
784.598	0.0138820
784.676	0.0138717
784.754	0.0138944
784.832	0.0139234
784.910	0.0138393
784.988	0.0140000
785.067	0.0139467
785.145	0.0139851
785.223	0.0139405
785.301	0.0138982
785.379	0.0140930
785.457	0.0138764
785.535	0.0142265
785.613	0.0141718
785.692	0.0141075
785.770	0.0141124
785.848	0.0141547
785.926	0.0140579
786.004	0.0141659
786.082	0.0141640
786.160	0.0141755
786.238	0.0142928
786.317	0.0142265
786.395	0.0142245
786.473	0.0141015
786.551	0.0142359
786.629	0.0141919
786.707	0.0140942
786.785	0.0141235
786.863	0.0141549
786.942	0.0140406
787.020	0.0139309
787.098	0.0141808
787.176	0.0140666
787.254	0.0140348
787.332	0.0140187
787.410	0.0141096
787.488	0.0139711
787.567	0.0140068
787.645	0.0140423
787.723	0.0141135
787.801	0.0139260
787.879	0.0138769
787.957	0.0140390
788.035	0.0139841
788.113	0.0139439
788.192	0.0139235
788.270	0.0139516
788.348	0.0140415
788.426	0.0140584
788.504	0.0140067
788.582	0.0139592
788.660	0.0141271
788.738	0.0140736
788.817	0.0140115
788.895	0.0139877
788.973	0.0140527
789.051	0.0139927
789.129	0.0141550
789.207	0.0141531
789.285	0.0140588
789.363	0.0140170
789.442	0.0141061
789.520	0.0140247
789.598	0.0140078
789.676	0.0141792
789.754	0.0142451
789.832	0.0140300
789.910	0.0140424
789.988	0.0139600
790.067	0.0139418
790.145	0.0140015
790.223	0.0139980
790.301	0.0138290
790.379	0.0139365
790.457	0.0140693
790.535	0.0141309
790.613	0.0138633
790.692	0.0140386
790.770	0.0139593
790.848	0.0138312
790.926	0.0138894
791.004	0.0140699
791.082	0.0140684
791.160	0.0141962
791.238	0.0140156
791.317	0.0139506
791.395	0.0140122
791.473	0.0139822
791.551	0.0139143
791.629	0.0139822
791.707	0.0140682
791.785	0.0138216
791.863	0.0138966
791.942	0.0138866
792.020	0.0138291
792.098	0.0140232
792.176	0.0140201
792.254	0.0139725
792.332	0.0139821
792.410	0.0140073
792.488	0.0140089
792.567	0.0140105
792.645	0.0140278
792.723	0.0139927
792.801	0.0140063
792.879	0.0140700
792.957	0.0140031
793.035	0.0140124
793.113	0.0141557
793.192	0.0141614
793.270	0.0141046
793.348	0.0140258
793.426	0.0139616
793.504	0.0141692
793.582	0.0140640
793.660	0.0141186
793.738	0.0140194
793.817	0.0138654
793.895	0.0140391
793.973	0.0142082
794.051	0.0138891
794.129	0.0140117
794.207	0.0140858
794.285	0.0140601
794.363	0.0140015
794.442	0.0141957
794.520	0.0140080
794.598	0.0140981
794.676	0.0139673
794.754	0.0139375
794.832	0.0141360
794.910	0.0141222
794.988	0.0140926
795.067	0.0142067
795.145	0.0140870
795.223	0.0141650
795.301	0.0142822
795.379	0.0141651
795.457	0.0140908
795.535	0.0142436
795.613	0.0141904
795.692	0.0141081
795.770	0.0139710
795.848	0.0138921
795.926	0.0139999
796.004	0.0139702
796.082	0.0139644
796.160	0.0139302
796.238	0.0138339
796.317	0.0139462
796.395	0.0138724
796.473	0.0139708
796.551	0.0139925
796.629	0.0139824
796.707	0.0138721
796.785	0.0139572
796.863	0.0139956
796.942	0.0139431
797.020	0.0140701
797.098	0.0140467
797.176	0.0139581
797.254	0.0139839
797.332	0.0139878
797.410	0.0139983
797.488	0.0139024
797.567	0.0140344
797.645	0.0140965
797.723	0.0139342
797.801	0.0140229
797.879	0.0140537
797.957	0.0139240
798.035	0.0139922
798.113	0.0141930
798.192	0.0140041
798.270	0.0140540
798.348	0.0139922
798.426	0.0140291
798.504	0.0139720
798.582	0.0139590
798.660	0.0138569
798.738	0.0139859
798.817	0.0138714
798.895	0.0138139
798.973	0.0138622
799.051	0.0139598
799.129	0.0138059
799.207	0.0139497
799.285	0.0139369
799.363	0.0139654
799.442	0.0138911
799.520	0.0139807
799.598	0.0139529
799.676	0.0140555
799.754	0.0140611
799.832	0.0141588
799.910	0.0142580
799.988	0.0140075
800.067	0.0141222
800.145	0.0142025
800.223	0.0141761
800.301	0.0141132
800.379	0.0141225
800.457	0.0143089
800.535	0.0142086
800.613	0.0141738
800.692	0.0141304
800.770	0.0141679
800.848	0.0141426
800.926	0.0141525
801.004	0.0141102
801.082	0.0141851
801.160	0.0141196
801.238	0.0139744
801.317	0.0139457
801.395	0.0141573
801.473	0.0140590
801.551	0.0139084
801.629	0.0139565
801.707	0.0140307
801.785	0.0139827
801.863	0.0138419
801.942	0.0138808
802.020	0.0139104
802.098	0.0139056
802.176	0.0138084
802.254	0.0139205
802.332	0.0138819
802.410	0.0138177
802.488	0.0139042
802.567	0.0138897
802.645	0.0138529
802.723	0.0138815
802.801	0.0137042
802.879	0.0138360
802.957	0.0138429
803.035	0.0139331
803.113	0.0139002
803.192	0.0139156
803.270	0.0140388
803.348	0.0139359
803.426	0.0141196
803.504	0.0140861
803.582	0.0140583
803.660	0.0140562
803.738	0.0141526
803.817	0.0140945
803.895	0.0141013
803.973	0.0140819
804.051	0.0140638
804.129	0.0140711
804.207	0.0141277
804.285	0.0140120
804.363	0.0140877
804.442	0.0140205
804.520	0.0140915
804.598	0.0140699
804.676	0.0139629
804.754	0.0140257
804.832	0.0140057
804.910	0.0138800
804.988	0.0140746
805.067	0.0140451
805.145	0.0140530
805.223	0.0140094
805.301	0.0141347
805.379	0.0141449
805.457	0.0141560
805.535	0.0142045
805.613	0.0140958
805.692	0.0140238
805.770	0.0140258
805.848	0.0142602
805.926	0.0142887
806.004	0.0140402
806.082	0.0140885
806.160	0.0141730
806.238	0.0142438
806.317	0.0141749
806.395	0.0141069
806.473	0.0141721
806.551	0.0142368
806.629	0.0141167
806.707	0.0141227
806.785	0.0139692
806.863	0.0140526
806.942	0.0140340
807.020	0.0139922
807.098	0.0139417
807.176	0.0140790
807.254	0.0140977
807.332	0.0139926
807.410	0.0140707
807.488	0.0138757
807.567	0.0139383
807.645	0.0139427
807.723	0.0141087
807.801	0.0139326
807.879	0.0139680
807.957	0.0139893
808.035	0.0141920
808.113	0.0140518
808.192	0.0139409
808.270	0.0141476
808.348	0.0139539
808.426	0.0141549
808.504	0.0140934
808.582	0.0141900
808.660	0.0141139
808.738	0.0141192
808.817	0.0142052
808.895	0.0141706
808.973	0.0140652
809.051	0.0141656
809.129	0.0141231
809.207	0.0141177
809.285	0.0143130
809.363	0.0140363
809.442	0.0141045
809.520	0.0141920
809.598	0.0142783
809.676	0.0141985
809.754	0.0141118
809.832	0.0140784
809.910	0.0140227
809.988	0.0140231
810.067	0.0139553
810.145	0.0141546
810.223	0.0138657
810.301	0.0140782
810.379	0.0140196
810.457	0.0140174
810.535	0.0139130
810.613	0.0140575
810.692	0.0140524
810.770	0.0139417
810.848	0.0140699
810.926	0.0139344
811.004	0.0140515
811.082	0.0141158
811.160	0.0141356
811.238	0.0139729
811.317	0.0141357
811.395	0.0139671
811.473	0.0140497
811.551	0.0140838
811.629	0.0139664
811.707	0.0139767
811.785	0.0140617
811.863	0.0139230
811.942	0.0140524
812.020	0.0142290
812.098	0.0139893
812.176	0.0139975
812.254	0.0140019
812.332	0.0139511
812.410	0.0141405
812.488	0.0140669
812.567	0.0139675
812.645	0.0139890
812.723	0.0138901
812.801	0.0139024
812.879	0.0140296
812.957	0.0138779
813.035	0.0137267
813.113	0.0138387
813.192	0.0138084
813.270	0.0138786
813.348	0.0139730
813.426	0.0140355
813.504	0.0139644
813.582	0.0140059
813.660	0.0140712
813.738	0.0140479
813.817	0.0139783
813.895	0.0140419
813.973	0.0141009
814.051	0.0140419
814.129	0.0141566
814.207	0.0142155
814.285	0.0141963
814.363	0.0142098
814.442	0.0141599
814.520	0.0142440
814.598	0.0142625
814.676	0.0141492
814.754	0.0141490
814.832	0.0141227
814.910	0.0140506
814.988	0.0141085
815.067	0.0140662
815.145	0.0139690
815.223	0.0139706
815.301	0.0139828
815.379	0.0140202
815.457	0.0140094
815.535	0.0140063
815.613	0.0139645
815.692	0.0139867
815.770	0.0140632
815.848	0.0140301
815.926	0.0139089
816.004	0.0139830
816.082	0.0138033
816.160	0.0139757
816.238	0.0139767
816.317	0.0138628
816.395	0.0139677
816.473	0.0139887
816.551	0.0139854
816.629	0.0140025
816.707	0.0139509
816.785	0.0139774
816.863	0.0140166
816.942	0.0140211
817.020	0.0140589
817.098	0.0139658
817.176	0.0140442
817.254	0.0141197
817.332	0.0141613
817.410	0.0140380
817.488	0.0139970
817.567	0.0141279
817.645	0.0140328
817.723	0.0140010
817.801	0.0141175
817.879	0.0140416
817.957	0.0140514
818.035	0.0139550
818.113	0.0140300
818.192	0.0140089
818.270	0.0140413
818.348	0.0140774
818.426	0.0141472
818.504	0.0140335
818.582	0.0140626
818.660	0.0139308
818.738	0.0139114
818.817	0.0138805
818.895	0.0138921
818.973	0.0140327
819.051	0.0139716
819.129	0.0138859
819.207	0.0141219
819.285	0.0139498
819.363	0.0139315
819.442	0.0139955
819.520	0.0140385
819.598	0.0140617
819.676	0.0139347
819.754	0.0139602
819.832	0.0140591
819.910	0.0140007
819.988	0.0140600
820.067	0.0139736
820.145	0.0141753
820.223	0.0139573
820.301	0.0141561
820.379	0.0140084
820.457	0.0140531
820.535	0.0139760
820.613	0.0139827
820.692	0.0140673
820.770	0.0138869
820.848	0.0139574
820.926	0.0140481
821.004	0.0141118
821.082	0.0139854
821.160	0.0138809
821.238	0.0139664
821.317	0.0138216
821.395	0.0138970
821.473	0.0139083
821.551	0.0140061
821.629	0.0140035
821.707	0.0138813
821.785	0.0139473
821.863	0.0138426
821.942	0.0139591
822.020	0.0140196
822.098	0.0140345
822.176	0.0140874
822.254	0.0140820
822.332	0.0141706
822.410	0.0141940
822.488	0.0142198
822.567	0.0141476
822.645	0.0140773
822.723	0.0141399
822.801	0.0142097
822.879	0.0142162
822.957	0.0141807
823.035	0.0140139
823.113	0.0141940
823.192	0.0139821
823.270	0.0140646
823.348	0.0140421
823.426	0.0139244
823.504	0.0140234
823.582	0.0140276
823.660	0.0140145
823.738	0.0139858
823.817	0.0139626
823.895	0.0140633
823.973	0.0139855
824.051	0.0140043
824.129	0.0139288
824.207	0.0139996
824.285	0.0141611
824.363	0.0139651
824.442	0.0139230
824.520	0.0140188
824.598	0.0139061
824.676	0.0139899
824.754	0.0141342
824.832	0.0140511
824.910	0.0140518
824.988	0.0139959
825.067	0.0140715
825.145	0.0140830
825.223	0.0140350
825.301	0.0139227
825.379	0.0139671
825.457	0.0140590
825.535	0.0139906
825.613	0.0139634
825.692	0.0140211
825.770	0.0139747
825.848	0.0140237
825.926	0.0139897
826.004	0.0140618
826.082	0.0139526
826.160	0.0139637
826.238	0.0140257
826.317	0.0139788
826.395	0.0138564
826.473	0.0140232
826.551	0.0140249
826.629	0.0140178
826.707	0.0138805
826.785	0.0141312
826.863	0.0141053
826.942	0.0140772
827.020	0.0139729
827.098	0.0139442
827.176	0.0139297
827.254	0.0141713
827.332	0.0140620
827.410	0.0139763
827.488	0.0138919
827.567	0.0140190
827.645	0.0138937
827.723	0.0140076
827.801	0.0139913
827.879	0.0140277
827.957	0.0141703
828.035	0.0141560
828.113	0.0140484
828.192	0.0140829
828.270	0.0141023
828.348	0.0140475
828.426	0.0141029
828.504	0.0141723
828.582	0.0140868
828.660	0.0141242
828.738	0.0142448
828.817	0.0141660
828.895	0.0141463
828.973	0.0140738
829.051	0.0140430
829.129	0.0141374
829.207	0.0140965
829.285	0.0141532
829.363	0.0141145
829.442	0.0140545
829.520	0.0141478
829.598	0.0139957
829.676	0.0140689
829.754	0.0140649
829.832	0.0142677
829.910	0.0140298
829.988	0.0138718
830.067	0.0140044
830.145	0.0140121
830.223	0.0139552
830.301	0.0139826
830.379	0.0141106
830.457	0.0140598
830.535	0.0142107
830.613	0.0140733
830.692	0.0140333
830.770	0.0141890
830.848	0.0141577
830.926	0.0140887
831.004	0.0140903
831.082	0.0140782
831.160	0.0140858
831.238	0.0142398
831.317	0.0141485
831.395	0.0141308
831.473	0.0140247
831.551	0.0141182
831.629	0.0141137
831.707	0.0140376
831.785	0.0140022
831.863	0.0140799
831.942	0.0141304
832.020	0.0141354
832.098	0.0140031
832.176	0.0139899
832.254	0.0140112
832.332	0.0139631
832.410	0.0139758
832.488	0.0140703
832.567	0.0138629
832.645	0.0139777
832.723	0.0139374
832.801	0.0138421
832.879	0.0140675
832.957	0.0138914
833.035	0.0139552
833.113	0.0139922
833.192	0.0140623
833.270	0.0139003
833.348	0.0139162
833.426	0.0139623
833.504	0.0139024
833.582	0.0139926
833.660	0.0140249
833.738	0.0140066
833.817	0.0140168
833.895	0.0140491
833.973	0.0140784
834.051	0.0141042
834.129	0.0139719
834.207	0.0140572
834.285	0.0140919
834.363	0.0140695
834.442	0.0140914
834.520	0.0141205
834.598	0.0141741
834.676	0.0140607
834.754	0.0140932
834.832	0.0141560
834.910	0.0140098
834.988	0.0140059
835.067	0.0140029
835.145	0.0140640
835.223	0.0140089
835.301	0.0140587
835.379	0.0140382
835.457	0.0140334
835.535	0.0141424
835.613	0.0139729
835.692	0.0141180
835.770	0.0141078
835.848	0.0140737
835.926	0.0140276
836.004	0.0139746
836.082	0.0138755
836.160	0.0140100
836.238	0.0142149
836.317	0.0141195
836.395	0.0140733
836.473	0.0140401
836.551	0.0139817
836.629	0.0140438
836.707	0.0140714
836.785	0.0140519
836.863	0.0139767
836.942	0.0140376
837.020	0.0141482
837.098	0.0140543
837.176	0.0140398
837.254	0.0140139
837.332	0.0139837
837.410	0.0141147
837.488	0.0140059
837.567	0.0138790
837.645	0.0140752
837.723	0.0141034
837.801	0.0140380
837.879	0.0138644
837.957	0.0139188
838.035	0.0139768
838.113	0.0138993
838.192	0.0137678
838.270	0.0138386
838.348	0.0138689
838.426	0.0139268
838.504	0.0139826
838.582	0.0139648
838.660	0.0139152
838.738	0.0139261
838.817	0.0139751
838.895	0.0138902
838.973	0.0140122
839.051	0.0139408
839.129	0.0141439
839.207	0.0142146
839.285	0.0140509
839.363	0.0141705
839.442	0.0140720
839.520	0.0141269
839.598	0.0141222
839.676	0.0140424
839.754	0.0140830
839.832	0.0139755
839.910	0.0141850
839.988	0.0140139
840.067	0.0140334
840.145	0.0139721
840.223	0.0140453
840.301	0.0138805
840.379	0.0139507
840.457	0.0139709
840.535	0.0139487
840.613	0.0140652
840.692	0.0141100
840.770	0.0140520
840.848	0.0140932
840.926	0.0139964
841.004	0.0141585
841.082	0.0140302
841.160	0.0139587
841.238	0.0138745
841.317	0.0140581
841.395	0.0139526
841.473	0.0140083
841.551	0.0141330
841.629	0.0139819
841.707	0.0140153
841.785	0.0139629
841.863	0.0140118
841.942	0.0140002
842.020	0.0140823
842.098	0.0138708
842.176	0.0140173
842.254	0.0139991
842.332	0.0140034
842.410	0.0138921
842.488	0.0139246
842.567	0.0139063
842.645	0.0140526
842.723	0.0140864
842.801	0.0139560
842.879	0.0139812
842.957	0.0139008
843.035	0.0139464
843.113	0.0139375
843.192	0.0139389
843.270	0.0140400
843.348	0.0139848
843.426	0.0138752
843.504	0.0139494
843.582	0.0139135
843.660	0.0139129
843.738	0.0139027
843.817	0.0139726
843.895	0.0139119
843.973	0.0139672
844.051	0.0139870
844.129	0.0139203
844.207	0.0140810
844.285	0.0139687
844.363	0.0140123
844.442	0.0140691
844.520	0.0140210
844.598	0.0141919
844.676	0.0140756
844.754	0.0139638
844.832	0.0140280
844.910	0.0139714
844.988	0.0140102
845.067	0.0139346
845.145	0.0139263
845.223	0.0139722
845.301	0.0140533
845.379	0.0139299
845.457	0.0139452
845.535	0.0138747
845.613	0.0139584
845.692	0.0139718
845.770	0.0140248
845.848	0.0139545
845.926	0.0137946
846.004	0.0139494
846.082	0.0140177
846.160	0.0140170
846.238	0.0140276
846.317	0.0139541
846.395	0.0139973
846.473	0.0141148
846.551	0.0140640
846.629	0.0139540
846.707	0.0141283
846.785	0.0140658
846.863	0.0141242
846.942	0.0139909
847.020	0.0140620
847.098	0.0139937
847.176	0.0140611
847.254	0.0141103
847.332	0.0140053
847.410	0.0140876
847.488	0.0140049
847.567	0.0141109
847.645	0.0141718
847.723	0.0140850
847.801	0.0139914
847.879	0.0141001
847.957	0.0139667
848.035	0.0140334
848.113	0.0138670
848.192	0.0140022
848.270	0.0141159
848.348	0.0141019
848.426	0.0140500
848.504	0.0139110
848.582	0.0139415
848.660	0.0140144
848.738	0.0140155
848.817	0.0139275
848.895	0.0139172
848.973	0.0139343
849.051	0.0139281
849.129	0.0140556
849.207	0.0139133
849.285	0.0139938
849.363	0.0138696
849.442	0.0140533
849.520	0.0139542
849.598	0.0137668
849.676	0.0138868
849.754	0.0141097
849.832	0.0140060
849.910	0.0139673
849.988	0.0138943
850.067	0.0139124
850.145	0.0139526
850.223	0.0139404
850.301	0.0139604
850.379	0.0140065
850.457	0.0140092
850.535	0.0139194
850.613	0.0139348
850.692	0.0139962
850.770	0.0141218
850.848	0.0141535
850.926	0.0140753
851.004	0.0141885
851.082	0.0142138
851.160	0.0142725
851.238	0.0142474
851.317	0.0142148
851.395	0.0141782
851.473	0.0141648
851.551	0.0142986
851.629	0.0142484
851.707	0.0142144
851.785	0.0142107
851.863	0.0141987
851.942	0.0142671
852.020	0.0141536
852.098	0.0140079
852.176	0.0141643
852.254	0.0141520
852.332	0.0139036
852.410	0.0139791
852.488	0.0139550
852.567	0.0140031
852.645	0.0139009
852.723	0.0139880
852.801	0.0139063
852.879	0.0139290
852.957	0.0140893
853.035	0.0140501
853.113	0.0140030
853.192	0.0140226
853.270	0.0140186
853.348	0.0141459
853.426	0.0139948
853.504	0.0141898
853.582	0.0141055
853.660	0.0140190
853.738	0.0141338
853.817	0.0139331
853.895	0.0140591
853.973	0.0141801
854.051	0.0140590
854.129	0.0139728
854.207	0.0140952
854.285	0.0141193
854.363	0.0140944
854.442	0.0141062
854.520	0.0139027
854.598	0.0141951
854.676	0.0139916
854.754	0.0140360
854.832	0.0143279
854.910	0.0141438
854.988	0.0142535
855.067	0.0141627
855.145	0.0140842
855.223	0.0141299
855.301	0.0143015
855.379	0.0142941
855.457	0.0140967
855.535	0.0140163
855.613	0.0141905
855.692	0.0141061
855.770	0.0141899
855.848	0.0142535
855.926	0.0140446
856.004	0.0142272
856.082	0.0142081
856.160	0.0141331
856.238	0.0142609
856.317	0.0141961
856.395	0.0141774
856.473	0.0139863
856.551	0.0139752
856.629	0.0139307
856.707	0.0140979
856.785	0.0140904
856.863	0.0140879
856.942	0.0139218
857.020	0.0141137
857.098	0.0139917
857.176	0.0140778
857.254	0.0139359
857.332	0.0140511
857.410	0.0140393
857.488	0.0139304
857.567	0.0139828
857.645	0.0139987
857.723	0.0138879
857.801	0.0139661
857.879	0.0139565
857.957	0.0139183
858.035	0.0140208
858.113	0.0141822
858.192	0.0139620
858.270	0.0139100
858.348	0.0140619
858.426	0.0139690
858.504	0.0138750
858.582	0.0139218
858.660	0.0139474
858.738	0.0139606
858.817	0.0138582
858.895	0.0140179
858.973	0.0139680
859.051	0.0138050
859.129	0.0138760
859.207	0.0140165
859.285	0.0140240
859.363	0.0139999
859.442	0.0141085
859.520	0.0140669
859.598	0.0140433
859.676	0.0139146
859.754	0.0139255
859.832	0.0139853
859.910	0.0140003
859.988	0.0141227
860.067	0.0140752
860.145	0.0140702
860.223	0.0139903
860.301	0.0140082
860.379	0.0140727
860.457	0.0141095
860.535	0.0141360
860.613	0.0141051
860.692	0.0140141
860.770	0.0140141
860.848	0.0140899
860.926	0.0141595
861.004	0.0141013
861.082	0.0140538
861.160	0.0139840
861.238	0.0140421
861.317	0.0139981
861.395	0.0140168
861.473	0.0140054
861.551	0.0138384
861.629	0.0138822
861.707	0.0140884
861.785	0.0139820
861.863	0.0139862
861.942	0.0138381
862.020	0.0139153
862.098	0.0139698
862.176	0.0139542
862.254	0.0139669
862.332	0.0141107
862.410	0.0139929
862.488	0.0139447
862.567	0.0139552
862.645	0.0140476
862.723	0.0139983
862.801	0.0139903
862.879	0.0139178
862.957	0.0139480
863.035	0.0138657
863.113	0.0140475
863.192	0.0139558
863.270	0.0139282
863.348	0.0139573
863.426	0.0138569
863.504	0.0138297
863.582	0.0139668
863.660	0.0141078
863.738	0.0139922
863.817	0.0138721
863.895	0.0139516
863.973	0.0139456
864.051	0.0140018
864.129	0.0140269
864.207	0.0140222
864.285	0.0140401
864.363	0.0140573
864.442	0.0139857
864.520	0.0139496
864.598	0.0140601
864.676	0.0140713
864.754	0.0140717
864.832	0.0139936
864.910	0.0140234
864.988	0.0139579
865.067	0.0141119
865.145	0.0140006
865.223	0.0139471
865.301	0.0139500
865.379	0.0139383
865.457	0.0140855
865.535	0.0140343
865.613	0.0140065
865.692	0.0139711
865.770	0.0141018
865.848	0.0139664
865.926	0.0139722
866.004	0.0139880
866.082	0.0139897
866.160	0.0141434
866.238	0.0140707
866.317	0.0139915
866.395	0.0141049
866.473	0.0139399
866.551	0.0139221
866.629	0.0138979
866.707	0.0140564
866.785	0.0140842
866.863	0.0140934
866.942	0.0139774
867.020	0.0140146
867.098	0.0140072
867.176	0.0139640
867.254	0.0140954
867.332	0.0140696
867.410	0.0139890
867.488	0.0140707
867.567	0.0139564
867.645	0.0140950
867.723	0.0140573
867.801	0.0137611
867.879	0.0138361
867.957	0.0138815
868.035	0.0138379
868.113	0.0139644
868.192	0.0138812
868.270	0.0139066
868.348	0.0138858
868.426	0.0138061
868.504	0.0139130
868.582	0.0139423
868.660	0.0138760
868.738	0.0139390
868.817	0.0139527
868.895	0.0138849
868.973	0.0140179
869.051	0.0140371
869.129	0.0139243
869.207	0.0139689
869.285	0.0140850
869.363	0.0141598
869.442	0.0141447
869.520	0.0141325
869.598	0.0141557
869.676	0.0141317
869.754	0.0142095
869.832	0.0142207
869.910	0.0141592
869.988	0.0141589
870.067	0.0141348
870.145	0.0140066
870.223	0.0140918
870.301	0.0139212
870.379	0.0139283
870.457	0.0140818
870.535	0.0139796
870.613	0.0139256
870.692	0.0139812
870.770	0.0140545
870.848	0.0140113
870.926	0.0140026
871.004	0.0139105
871.082	0.0140520
871.160	0.0139712
871.238	0.0138589
871.317	0.0139257
871.395	0.0139618
871.473	0.0139799
871.551	0.0138268
871.629	0.0138324
871.707	0.0138448
871.785	0.0139314
871.863	0.0137640
871.942	0.0138036
872.020	0.0140162
872.098	0.0139981
872.176	0.0139174
872.254	0.0139850
872.332	0.0140975
872.410	0.0140484
872.488	0.0139429
872.567	0.0139635
872.645	0.0141481
872.723	0.0140015
872.801	0.0141102
872.879	0.0142213
872.957	0.0140303
873.035	0.0139814
873.113	0.0141203
873.192	0.0139482
873.270	0.0140877
873.348	0.0141044
873.426	0.0139531
873.504	0.0140636
873.582	0.0140665
873.660	0.0140894
873.738	0.0140455
873.817	0.0138644
873.895	0.0138250
873.973	0.0139207
874.051	0.0141191
874.129	0.0139780
874.207	0.0138507
874.285	0.0139575
874.363	0.0139825
874.442	0.0139426
874.520	0.0138836
874.598	0.0140368
874.676	0.0140235
874.754	0.0139079
874.832	0.0140401
874.910	0.0140787
874.988	0.0140777
875.067	0.0140158
875.145	0.0139061
875.223	0.0140330
875.301	0.0140710
875.379	0.0140533
875.457	0.0140076
875.535	0.0139289
875.613	0.0140002
875.692	0.0141136
875.770	0.0140485
875.848	0.0140019
875.926	0.0140559
876.004	0.0140749
876.082	0.0139758
876.160	0.0140344
876.238	0.0141486
876.317	0.0142313
876.395	0.0140524
876.473	0.0140501
876.551	0.0140485
876.629	0.0141340
876.707	0.0141647
876.785	0.0140519
876.863	0.0141840
876.942	0.0141332
877.020	0.0140742
877.098	0.0141259
877.176	0.0141854
877.254	0.0140543
877.332	0.0139229
877.410	0.0139833
877.488	0.0140842
877.567	0.0141126
877.645	0.0140735
877.723	0.0139484
877.801	0.0141221
877.879	0.0140200
877.957	0.0141724
878.035	0.0140814
878.113	0.0140405
878.192	0.0141364
878.270	0.0141114
878.348	0.0140549
878.426	0.0140659
878.504	0.0140264
878.582	0.0139201
878.660	0.0139922
878.738	0.0141096
878.817	0.0141817
878.895	0.0140437
878.973	0.0140052
879.051	0.0141396
879.129	0.0141256
879.207	0.0140186
879.285	0.0140435
879.363	0.0140446
879.442	0.0140200
879.520	0.0140882
879.598	0.0141259
879.676	0.0141675
879.754	0.0138840
879.832	0.0139433
879.910	0.0140632
879.988	0.0139397
880.067	0.0140794
880.145	0.0140031
880.223	0.0139671
880.301	0.0140848
880.379	0.0138792
880.457	0.0140643
880.535	0.0140124
880.613	0.0140461
880.692	0.0139709
880.770	0.0140662
880.848	0.0140443
880.926	0.0141071
881.004	0.0140926
881.082	0.0140237
881.160	0.0140395
881.238	0.0140813
881.317	0.0140213
881.395	0.0140119
881.473	0.0141159
881.551	0.0141665
881.629	0.0140485
881.707	0.0141112
881.785	0.0140083
881.863	0.0140295
881.942	0.0139908
882.020	0.0139404
882.098	0.0140121
882.176	0.0141064
882.254	0.0140784
882.332	0.0139077
882.410	0.0139313
882.488	0.0140359
882.567	0.0139893
882.645	0.0139701
882.723	0.0140885
882.801	0.0141290
882.879	0.0139359
882.957	0.0140523
883.035	0.0141680
883.113	0.0139330
883.192	0.0140410
883.270	0.0140515
883.348	0.0141018
883.426	0.0140981
883.504	0.0139938
883.582	0.0140241
883.660	0.0140102
883.738	0.0141249
883.817	0.0142439
883.895	0.0141089
883.973	0.0140063
884.051	0.0141164
884.129	0.0141901
884.207	0.0141750
884.285	0.0141540
884.363	0.0140801
884.442	0.0140627
884.520	0.0142788
884.598	0.0142731
884.676	0.0141708
884.754	0.0140623
884.832	0.0141055
884.910	0.0141571
884.988	0.0140263
885.067	0.0141164
885.145	0.0141219
885.223	0.0142219
885.301	0.0141822
885.379	0.0141048
885.457	0.0141367
885.535	0.0141190
885.613	0.0139668
885.692	0.0140239
885.770	0.0141901
885.848	0.0141546
885.926	0.0140447
886.004	0.0140331
886.082	0.0139806
886.160	0.0139170
886.238	0.0139517
886.317	0.0140585
886.395	0.0139982
886.473	0.0138448
886.551	0.0139542
886.629	0.0139733
886.707	0.0138736
886.785	0.0137257
886.863	0.0139596
886.942	0.0139396
887.020	0.0139841
887.098	0.0139690
887.176	0.0138458
887.254	0.0138376
887.332	0.0141084
887.410	0.0138909
887.488	0.0139301
887.567	0.0140621
887.645	0.0139267
887.723	0.0141014
887.801	0.0140375
887.879	0.0141138
887.957	0.0141469
888.035	0.0140441
888.113	0.0140809
888.192	0.0140840
888.270	0.0141898
888.348	0.0143386
888.426	0.0141503
888.504	0.0141876
888.582	0.0141784
888.660	0.0140501
888.738	0.0140264
888.817	0.0141415
888.895	0.0141248
888.973	0.0140810
889.051	0.0139944
889.129	0.0139050
889.207	0.0139706
889.285	0.0139987
889.363	0.0139494
889.442	0.0139608
889.520	0.0139703
889.598	0.0139737
889.676	0.0139063
889.754	0.0139919
889.832	0.0139751
889.910	0.0138638
889.988	0.0139687
890.067	0.0140011
890.145	0.0140845
890.223	0.0139177
890.301	0.0139590
890.379	0.0141574
890.457	0.0139826
890.535	0.0138972
890.613	0.0140378
890.692	0.0139240
890.770	0.0140189
890.848	0.0141183
890.926	0.0139606
891.004	0.0140180
891.082	0.0140904
891.160	0.0140134
891.238	0.0139597
891.317	0.0140792
891.395	0.0139946
891.473	0.0137959
891.551	0.0140752
891.629	0.0139600
891.707	0.0139262
891.785	0.0140183
891.863	0.0139548
891.942	0.0139989
892.020	0.0139852
892.098	0.0140439
892.176	0.0138492
892.254	0.0139084
892.332	0.0139312
892.410	0.0140745
892.488	0.0140524
892.567	0.0139545
892.645	0.0140350
892.723	0.0140331
892.801	0.0140346
892.879	0.0139137
892.957	0.0139590
893.035	0.0139822
893.113	0.0140166
893.192	0.0142005
893.270	0.0141802
893.348	0.0140971
893.426	0.0142034
893.504	0.0142198
893.582	0.0142340
893.660	0.0142653
893.738	0.0143030
893.817	0.0144660
893.895	0.0142255
893.973	0.0141824
894.051	0.0142397
894.129	0.0141972
894.207	0.0141900
894.285	0.0141156
894.363	0.0140081
894.442	0.0140817
894.520	0.0139953
894.598	0.0141947
894.676	0.0139691
894.754	0.0140192
894.832	0.0140475
894.910	0.0140786
894.988	0.0139293
895.067	0.0138960
895.145	0.0138564
895.223	0.0139503
895.301	0.0139116
895.379	0.0139338
895.457	0.0140368
895.535	0.0140394
895.613	0.0139088
895.692	0.0139165
895.770	0.0138178
895.848	0.0138882
895.926	0.0138100
896.004	0.0138931
896.082	0.0139446
896.160	0.0137061
896.238	0.0139958
896.317	0.0140678
896.395	0.0139699
896.473	0.0139065
896.551	0.0139014
896.629	0.0140105
896.707	0.0140748
896.785	0.0139823
896.863	0.0140181
896.942	0.0138669
897.020	0.0139277
897.098	0.0139843
897.176	0.0139511
897.254	0.0141371
897.332	0.0140372
897.410	0.0139658
897.488	0.0140820
897.567	0.0140621
897.645	0.0138715
897.723	0.0140810
897.801	0.0141327
897.879	0.0140136
897.957	0.0140041
898.035	0.0140548
898.113	0.0140067
898.192	0.0142256
898.270	0.0142144
898.348	0.0141650
898.426	0.0140409
898.504	0.0142220
898.582	0.0140766
898.660	0.0141668
898.738	0.0141269
898.817	0.0141963
898.895	0.0140452
898.973	0.0139795
899.051	0.0139130
899.129	0.0140538
899.207	0.0141704
899.285	0.0141432
899.363	0.0141100
899.442	0.0139589
899.520	0.0140818
899.598	0.0140190
899.676	0.0140292
899.754	0.0141436
899.832	0.0139920
899.910	0.0139967
899.988	0.0140315
900.067	0.0139909
900.145	0.0140540
900.223	0.0141198
900.301	0.0140704
900.379	0.0140264
900.457	0.0139959
900.535	0.0140244
900.613	0.0141571
900.692	0.0139465
900.770	0.0138843
900.848	0.0140898
900.926	0.0140381
901.004	0.0139133
901.082	0.0139770
901.160	0.0138139
901.238	0.0141489
901.317	0.0138680
901.395	0.0140031
901.473	0.0139417
901.551	0.0138521
901.629	0.0139755
901.707	0.0139516
901.785	0.0138797
901.863	0.0139355
901.942	0.0140199
902.020	0.0141024
902.098	0.0139520
902.176	0.0141120
902.254	0.0141716
902.332	0.0140802
902.410	0.0139953
902.488	0.0141525
902.567	0.0142162
902.645	0.0141221
902.723	0.0141858
902.801	0.0142240
902.879	0.0142307
902.957	0.0142467
903.035	0.0141779
903.113	0.0142480
903.192	0.0142271
903.270	0.0140256
903.348	0.0141089
903.426	0.0141190
903.504	0.0141450
903.582	0.0140279
903.660	0.0140791
903.738	0.0139063
903.817	0.0141228
903.895	0.0140718
903.973	0.0139904
904.051	0.0140872
904.129	0.0141404
904.207	0.0140553
904.285	0.0140900
904.363	0.0141298
904.442	0.0141313
904.520	0.0141261
904.598	0.0140183
904.676	0.0140079
904.754	0.0139781
904.832	0.0141127
904.910	0.0140746
904.988	0.0140723
905.067	0.0140146
905.145	0.0140782
905.223	0.0140806
905.301	0.0139725
905.379	0.0140374
905.457	0.0139323
905.535	0.0140714
905.613	0.0139384
905.692	0.0140709
905.770	0.0140648
905.848	0.0141393
905.926	0.0139714
906.004	0.0140421
906.082	0.0140430
906.160	0.0142814
906.238	0.0140108
906.317	0.0141212
906.395	0.0140637
906.473	0.0140363
906.551	0.0140298
906.629	0.0140762
906.707	0.0141027
906.785	0.0141518
906.863	0.0141971
906.942	0.0141722
907.020	0.0141995
907.098	0.0141122
907.176	0.0140759
907.254	0.0142273
907.332	0.0140894
907.410	0.0142109
907.488	0.0142265
907.567	0.0141827
907.645	0.0141132
907.723	0.0142067
907.801	0.0141635
907.879	0.0140544
907.957	0.0140588
908.035	0.0141159
908.113	0.0141881
908.192	0.0140099
908.270	0.0140678
908.348	0.0143034
908.426	0.0140948
908.504	0.0141225
908.582	0.0141675
908.660	0.0140829
908.738	0.0141863
908.817	0.0141465
908.895	0.0139704
908.973	0.0139335
909.051	0.0141199
909.129	0.0141242
909.207	0.0139983
909.285	0.0141589
909.363	0.0140084
909.442	0.0142107
909.520	0.0141665
909.598	0.0140224
909.676	0.0140683
909.754	0.0140946
909.832	0.0141569
909.910	0.0140949
909.988	0.0141206
910.067	0.0141226
910.145	0.0141670
910.223	0.0140797
910.301	0.0141837
910.379	0.0141956
910.457	0.0141292
910.535	0.0139400
910.613	0.0139410
910.692	0.0140279
910.770	0.0140377
910.848	0.0140119
910.926	0.0140130
911.004	0.0140375
911.082	0.0141312
911.160	0.0141462
911.238	0.0141779
911.317	0.0139844
911.395	0.0140556
911.473	0.0142002
911.551	0.0142272
911.629	0.0139922
911.707	0.0140684
911.785	0.0142129
911.863	0.0142153
911.942	0.0140483
912.020	0.0140691
912.098	0.0141305
912.176	0.0142612
912.254	0.0141589
912.332	0.0140668
912.410	0.0139964
912.488	0.0143634
912.567	0.0142781
912.645	0.0140855
912.723	0.0140299
912.801	0.0139421
912.879	0.0141005
912.957	0.0140397
913.035	0.0139970
913.113	0.0141386
913.192	0.0139227
913.270	0.0140540
913.348	0.0139629
913.426	0.0139432
913.504	0.0138717
913.582	0.0140826
913.660	0.0139642
913.738	0.0140897
913.817	0.0140152
913.895	0.0139507
913.973	0.0139531
914.051	0.0139714
914.129	0.0139991
914.207	0.0141225
914.285	0.0139494
914.363	0.0139803
914.442	0.0140524
914.520	0.0138654
914.598	0.0139657
914.676	0.0139941
914.754	0.0138851
914.832	0.0140195
914.910	0.0139909
914.988	0.0139548
915.067	0.0140936
915.145	0.0140104
915.223	0.0139909
915.301	0.0140366
915.379	0.0140430
915.457	0.0140385
915.535	0.0140704
915.613	0.0139997
915.692	0.0140425
915.770	0.0140592
915.848	0.0141731
915.926	0.0141028
916.004	0.0141558
916.082	0.0141074
916.160	0.0140260
916.238	0.0139733
916.317	0.0141820
916.395	0.0141224
916.473	0.0140161
916.551	0.0140717
916.629	0.0140579
916.707	0.0139336
916.785	0.0140960
916.863	0.0141305
916.942	0.0140988
917.020	0.0141205
917.098	0.0140495
917.176	0.0140132
917.254	0.0139510
917.332	0.0139591
917.410	0.0140394
917.488	0.0140786
917.567	0.0139265
917.645	0.0141673
917.723	0.0138962
917.801	0.0138835
917.879	0.0139608
917.957	0.0139350
918.035	0.0139836
918.113	0.0140285
918.192	0.0138602
918.270	0.0138540
918.348	0.0138969
918.426	0.0139799
918.504	0.0139465
918.582	0.0140974
918.660	0.0139281
918.738	0.0140198
918.817	0.0140501
918.895	0.0140200
918.973	0.0140794
919.051	0.0140860
919.129	0.0141109
919.207	0.0140396
919.285	0.0140732
919.363	0.0141283
919.442	0.0140828
919.520	0.0140997
919.598	0.0142236
919.676	0.0141898
919.754	0.0140382
919.832	0.0141122
919.910	0.0139542
