05/28/2022	14:12:56	Ver.	4.1	UNKNOWN
Optical Delay	599.988409	Delta X		0.078125	Sweeps	1	Scan Rate	0/0
Coordinates	Axis 1	NaN	Axis 2	NaN	Axis 3	NaN	Axis 4	NaN	Axis 5	NaN	Axis 6	0.000000
TX Power	0.000000	RX Power	0.000000

599.988	0.0143218
600.067	0.0143290
600.145	0.0144424
600.223	0.0143186
600.301	0.0141817
600.379	0.0143607
600.457	0.0142284
600.535	0.0143840
600.613	0.0142822
600.692	0.0142224
600.770	0.0140939
600.848	0.0143675
600.926	0.0143378
601.004	0.0142971
601.082	0.0143604
601.160	0.0143333
601.238	0.0142860
601.317	0.0142233
601.395	0.0142524
601.473	0.0143629
601.551	0.0142952
601.629	0.0143901
601.707	0.0143520
601.785	0.0142740
601.863	0.0143509
601.942	0.0142650
602.020	0.0143955
602.098	0.0143575
602.176	0.0143443
602.254	0.0144365
602.332	0.0144273
602.410	0.0142209
602.488	0.0144107
602.567	0.0143271
602.645	0.0142764
602.723	0.0143826
602.801	0.0144177
602.879	0.0145155
602.957	0.0144604
603.035	0.0142165
603.113	0.0143121
603.192	0.0142638
603.270	0.0143524
603.348	0.0143767
603.426	0.0143669
603.504	0.0142506
603.582	0.0144331
603.660	0.0143871
603.738	0.0141988
603.817	0.0143125
603.895	0.0143324
603.973	0.0143228
604.051	0.0141741
604.129	0.0143993
604.207	0.0144643
604.285	0.0143365
604.363	0.0142209
604.442	0.0143377
604.520	0.0144437
604.598	0.0143036
604.676	0.0143726
604.754	0.0144271
604.832	0.0143654
604.910	0.0143301
604.988	0.0143195
605.067	0.0142707
605.145	0.0142769
605.223	0.0143891
605.301	0.0143044
605.379	0.0143251
605.457	0.0141991
605.535	0.0143481
605.613	0.0142671
605.692	0.0144337
605.770	0.0143764
605.848	0.0142548
605.926	0.0143544
606.004	0.0142994
606.082	0.0143005
606.160	0.0144581
606.238	0.0143420
606.317	0.0142598
606.395	0.0142875
606.473	0.0142941
606.551	0.0144753
606.629	0.0143174
606.707	0.0142312
606.785	0.0143697
606.863	0.0145321
606.942	0.0142892
607.020	0.0143423
607.098	0.0143349
607.176	0.0142903
607.254	0.0144404
607.332	0.0143262
607.410	0.0142739
607.488	0.0144517
607.567	0.0144022
607.645	0.0144205
607.723	0.0144386
607.801	0.0143944
607.879	0.0143155
607.957	0.0143838
608.035	0.0143761
608.113	0.0143680
608.192	0.0144186
608.270	0.0144367
608.348	0.0143748
608.426	0.0145085
608.504	0.0144137
608.582	0.0143444
608.660	0.0145464
608.738	0.0144402
608.817	0.0144981
608.895	0.0144505
608.973	0.0143053
609.051	0.0143926
609.129	0.0143289
609.207	0.0142740
609.285	0.0142648
609.363	0.0143867
609.442	0.0144138
609.520	0.0143920
609.598	0.0143665
609.676	0.0144488
609.754	0.0144772
609.832	0.0143388
609.910	0.0144491
609.988	0.0143602
610.067	0.0143631
610.145	0.0144774
610.223	0.0143956
610.301	0.0144324
610.379	0.0143960
610.457	0.0142916
610.535	0.0141991
610.613	0.0143811
610.692	0.0144571
610.770	0.0142867
610.848	0.0144698
610.926	0.0144213
611.004	0.0144239
611.082	0.0143429
611.160	0.0144759
611.238	0.0143754
611.317	0.0144260
611.395	0.0142881
611.473	0.0143204
611.551	0.0142746
611.629	0.0142874
611.707	0.0142657
611.785	0.0144732
611.863	0.0143802
611.942	0.0143450
612.020	0.0143540
612.098	0.0142259
612.176	0.0144396
612.254	0.0144104
612.332	0.0143644
612.410	0.0143692
612.488	0.0142855
612.567	0.0143888
612.645	0.0144271
612.723	0.0143279
612.801	0.0143646
612.879	0.0143389
612.957	0.0143388
613.035	0.0144299
613.113	0.0143424
613.192	0.0143050
613.270	0.0142759
613.348	0.0144344
613.426	0.0143577
613.504	0.0144739
613.582	0.0144572
613.660	0.0144490
613.738	0.0144862
613.817	0.0144371
613.895	0.0144165
613.973	0.0143267
614.051	0.0144736
614.129	0.0144381
614.207	0.0144294
614.285	0.0143187
614.363	0.0143820
614.442	0.0143679
614.520	0.0143382
614.598	0.0144089
614.676	0.0144131
614.754	0.0144355
614.832	0.0144424
614.910	0.0144132
614.988	0.0144492
615.067	0.0144030
615.145	0.0143901
615.223	0.0144945
615.301	0.0143010
615.379	0.0142713
615.457	0.0143350
615.535	0.0142651
615.613	0.0144082
615.692	0.0144444
615.770	0.0143591
615.848	0.0142764
615.926	0.0145435
616.004	0.0143266
616.082	0.0143816
616.160	0.0143982
616.238	0.0144550
616.317	0.0143938
616.395	0.0143112
616.473	0.0144370
616.551	0.0143610
616.629	0.0143987
616.707	0.0143737
616.785	0.0143172
616.863	0.0142730
616.942	0.0144165
617.020	0.0143531
617.098	0.0142841
617.176	0.0142644
617.254	0.0143677
617.332	0.0143953
617.410	0.0143869
617.488	0.0143900
617.567	0.0143405
617.645	0.0143449
617.723	0.0143642
617.801	0.0143185
617.879	0.0143407
617.957	0.0144154
618.035	0.0144283
618.113	0.0142657
618.192	0.0144018
618.270	0.0143588
618.348	0.0144176
618.426	0.0143469
618.504	0.0143046
618.582	0.0144270
618.660	0.0143554
618.738	0.0143010
618.817	0.0144416
618.895	0.0144701
618.973	0.0144497
619.051	0.0143639
619.129	0.0143400
619.207	0.0144014
619.285	0.0144547
619.363	0.0144586
619.442	0.0142725
619.520	0.0143279
619.598	0.0143162
619.676	0.0144048
619.754	0.0144115
619.832	0.0142681
619.910	0.0142830
619.988	0.0143547
620.067	0.0144106
620.145	0.0143320
620.223	0.0143077
620.301	0.0143646
620.379	0.0143752
620.457	0.0143786
620.535	0.0142613
620.613	0.0145378
620.692	0.0142756
620.770	0.0142913
620.848	0.0144783
620.926	0.0143907
621.004	0.0143877
621.082	0.0143494
621.160	0.0143696
621.238	0.0142792
621.317	0.0143900
621.395	0.0143681
621.473	0.0143118
621.551	0.0143290
621.629	0.0144114
621.707	0.0142661
621.785	0.0142661
621.863	0.0144287
621.942	0.0142487
622.020	0.0143530
622.098	0.0144902
622.176	0.0142561
622.254	0.0143579
622.332	0.0144083
622.410	0.0144151
622.488	0.0143308
622.567	0.0142971
622.645	0.0144051
622.723	0.0143701
622.801	0.0143906
622.879	0.0142966
622.957	0.0143236
623.035	0.0145169
623.113	0.0142773
623.192	0.0143619
623.270	0.0144279
623.348	0.0142586
623.426	0.0141723
623.504	0.0143630
623.582	0.0143445
623.660	0.0144339
623.738	0.0142945
623.817	0.0143626
623.895	0.0143734
623.973	0.0144187
624.051	0.0143886
624.129	0.0142419
624.207	0.0144221
624.285	0.0143754
624.363	0.0143330
624.442	0.0143768
624.520	0.0143629
624.598	0.0143021
624.676	0.0143198
624.754	0.0143022
624.832	0.0144782
624.910	0.0144028
624.988	0.0143830
625.067	0.0143959
625.145	0.0144502
625.223	0.0144769
625.301	0.0143316
625.379	0.0143082
625.457	0.0142677
625.535	0.0143021
625.613	0.0143572
625.692	0.0144428
625.770	0.0143987
625.848	0.0144444
625.926	0.0143466
626.004	0.0143774
626.082	0.0143431
626.160	0.0142576
626.238	0.0143554
626.317	0.0143651
626.395	0.0144422
626.473	0.0142725
626.551	0.0143066
626.629	0.0144096
626.707	0.0143103
626.785	0.0143958
626.863	0.0144088
626.942	0.0144521
627.020	0.0144423
627.098	0.0143665
627.176	0.0143713
627.254	0.0143033
627.332	0.0142242
627.410	0.0143234
627.488	0.0143354
627.567	0.0143262
627.645	0.0143310
627.723	0.0143385
627.801	0.0144646
627.879	0.0143406
627.957	0.0144325
628.035	0.0143629
628.113	0.0144669
628.192	0.0144093
628.270	0.0144273
628.348	0.0144874
628.426	0.0144714
628.504	0.0143675
628.582	0.0143907
628.660	0.0143176
628.738	0.0143081
628.817	0.0144866
628.895	0.0144334
628.973	0.0144303
629.051	0.0143951
629.129	0.0143499
629.207	0.0143565
629.285	0.0144208
629.363	0.0143702
629.442	0.0143212
629.520	0.0143525
629.598	0.0143846
629.676	0.0143658
629.754	0.0141706
629.832	0.0142403
629.910	0.0144138
629.988	0.0143674
630.067	0.0143583
630.145	0.0143597
630.223	0.0143493
630.301	0.0143675
630.379	0.0145243
630.457	0.0142897
630.535	0.0142621
630.613	0.0144337
630.692	0.0143000
630.770	0.0142585
630.848	0.0143758
630.926	0.0142844
631.004	0.0142576
631.082	0.0143935
631.160	0.0143742
631.238	0.0143705
631.317	0.0143110
631.395	0.0143188
631.473	0.0142937
631.551	0.0143638
631.629	0.0144389
631.707	0.0143922
631.785	0.0142907
631.863	0.0142297
631.942	0.0143232
632.020	0.0142484
632.098	0.0142587
632.176	0.0142840
632.254	0.0143378
632.332	0.0143309
632.410	0.0143194
632.488	0.0144038
632.567	0.0143993
632.645	0.0143868
632.723	0.0143832
632.801	0.0143030
632.879	0.0143369
632.957	0.0144866
633.035	0.0143866
633.113	0.0143370
633.192	0.0143955
633.270	0.0142976
633.348	0.0144891
633.426	0.0144874
633.504	0.0143093
633.582	0.0144646
633.660	0.0143165
633.738	0.0143912
633.817	0.0145158
633.895	0.0143745
633.973	0.0144435
634.051	0.0144114
634.129	0.0143717
634.207	0.0144498
634.285	0.0144020
634.363	0.0141280
634.442	0.0143420
634.520	0.0144858
634.598	0.0144778
634.676	0.0143957
634.754	0.0144072
634.832	0.0143182
634.910	0.0143816
634.988	0.0143732
635.067	0.0143546
635.145	0.0143715
635.223	0.0143014
635.301	0.0144102
635.379	0.0143356
635.457	0.0144588
635.535	0.0142725
635.613	0.0143817
635.692	0.0143726
635.770	0.0144181
635.848	0.0143127
635.926	0.0143968
636.004	0.0143805
636.082	0.0144084
636.160	0.0143082
636.238	0.0143701
636.317	0.0143697
636.395	0.0143478
636.473	0.0142487
636.551	0.0143333
636.629	0.0142802
636.707	0.0143182
636.785	0.0143668
636.863	0.0145031
636.942	0.0143484
637.020	0.0143906
637.098	0.0143304
637.176	0.0143296
637.254	0.0143475
637.332	0.0143863
637.410	0.0142850
637.488	0.0143905
637.567	0.0143855
637.645	0.0143709
637.723	0.0142364
637.801	0.0143644
637.879	0.0142996
637.957	0.0143151
638.035	0.0143659
638.113	0.0143380
638.192	0.0143983
638.270	0.0144676
638.348	0.0144324
638.426	0.0144325
638.504	0.0142659
638.582	0.0142697
638.660	0.0142601
638.738	0.0143193
638.817	0.0142717
638.895	0.0143333
638.973	0.0143353
639.051	0.0143600
639.129	0.0143772
639.207	0.0143459
639.285	0.0144247
639.363	0.0144432
639.442	0.0144231
639.520	0.0141641
639.598	0.0144430
639.676	0.0143233
639.754	0.0143182
639.832	0.0143858
639.910	0.0144811
639.988	0.0143060
640.067	0.0142575
640.145	0.0142729
640.223	0.0142734
640.301	0.0143501
640.379	0.0142457
640.457	0.0143166
640.535	0.0143795
640.613	0.0143044
640.692	0.0142992
640.770	0.0143763
640.848	0.0143261
640.926	0.0143023
641.004	0.0143396
641.082	0.0142532
641.160	0.0142711
641.238	0.0143419
641.317	0.0142862
641.395	0.0142583
641.473	0.0144956
641.551	0.0143297
641.629	0.0143930
641.707	0.0143124
641.785	0.0142496
641.863	0.0142779
641.942	0.0142757
642.020	0.0143527
642.098	0.0143606
642.176	0.0143668
642.254	0.0142909
642.332	0.0144528
642.410	0.0142952
642.488	0.0142129
642.567	0.0142944
642.645	0.0143690
642.723	0.0141984
642.801	0.0142958
642.879	0.0143354
642.957	0.0142611
643.035	0.0143652
643.113	0.0143227
643.192	0.0143024
643.270	0.0142442
643.348	0.0142430
643.426	0.0142140
643.504	0.0144738
643.582	0.0144079
643.660	0.0144483
643.738	0.0143660
643.817	0.0143412
643.895	0.0142442
643.973	0.0144258
644.051	0.0143498
644.129	0.0144883
644.207	0.0143547
644.285	0.0143075
644.363	0.0144614
644.442	0.0143646
644.520	0.0143800
644.598	0.0144715
644.676	0.0144330
644.754	0.0144273
644.832	0.0143983
644.910	0.0144520
644.988	0.0144534
645.067	0.0144640
645.145	0.0144895
645.223	0.0143086
645.301	0.0144934
645.379	0.0144653
645.457	0.0143218
645.535	0.0143194
645.613	0.0143303
645.692	0.0144278
645.770	0.0144658
645.848	0.0143755
645.926	0.0144108
646.004	0.0144146
646.082	0.0144882
646.160	0.0144638
646.238	0.0144886
646.317	0.0144617
646.395	0.0143546
646.473	0.0141756
646.551	0.0144664
646.629	0.0142865
646.707	0.0143425
646.785	0.0144602
646.863	0.0142747
646.942	0.0143252
647.020	0.0144254
647.098	0.0144592
647.176	0.0143855
647.254	0.0144210
647.332	0.0143642
647.410	0.0143687
647.488	0.0143838
647.567	0.0144479
647.645	0.0144157
647.723	0.0144790
647.801	0.0145327
647.879	0.0144431
647.957	0.0144418
648.035	0.0144417
648.113	0.0143972
648.192	0.0144095
648.270	0.0143684
648.348	0.0143672
648.426	0.0144584
648.504	0.0144724
648.582	0.0143932
648.660	0.0144325
648.738	0.0142731
648.817	0.0144212
648.895	0.0145155
648.973	0.0143747
649.051	0.0143163
649.129	0.0143324
649.207	0.0144089
649.285	0.0143927
649.363	0.0143417
649.442	0.0144313
649.520	0.0143538
649.598	0.0145088
649.676	0.0142899
649.754	0.0144386
649.832	0.0144976
649.910	0.0145389
649.988	0.0145276
650.067	0.0144367
650.145	0.0145180
650.223	0.0146992
650.301	0.0145126
650.379	0.0144410
650.457	0.0144524
650.535	0.0145921
650.613	0.0146746
650.692	0.0146191
650.770	0.0146313
650.848	0.0144820
650.926	0.0144095
651.004	0.0143346
651.082	0.0142601
651.160	0.0140846
651.238	0.0140827
651.317	0.0140780
651.395	0.0140120
651.473	0.0140463
651.551	0.0141731
651.629	0.0140870
651.707	0.0141737
651.785	0.0141281
651.863	0.0141276
651.942	0.0141522
652.020	0.0142536
652.098	0.0143038
652.176	0.0142762
652.254	0.0143604
652.332	0.0145196
652.410	0.0143745
652.488	0.0144600
652.567	0.0144196
652.645	0.0144119
652.723	0.0144730
652.801	0.0145871
652.879	0.0145192
652.957	0.0145182
653.035	0.0144180
653.113	0.0144286
653.192	0.0145518
653.270	0.0144658
653.348	0.0145298
653.426	0.0143864
653.504	0.0143793
653.582	0.0144130
653.660	0.0144080
653.738	0.0145284
653.817	0.0146153
653.895	0.0146786
653.973	0.0146030
654.051	0.0146140
654.129	0.0146957
654.207	0.0145162
654.285	0.0145606
654.363	0.0145060
654.442	0.0144218
654.520	0.0144116
654.598	0.0143546
654.676	0.0141483
654.754	0.0142446
654.832	0.0141370
654.910	0.0140921
654.988	0.0141384
655.067	0.0141339
655.145	0.0141214
655.223	0.0141949
655.301	0.0141521
655.379	0.0141048
655.457	0.0141176
655.535	0.0141194
655.613	0.0141919
655.692	0.0141897
655.770	0.0140593
655.848	0.0140681
655.926	0.0141074
656.004	0.0139625
656.082	0.0139481
656.160	0.0138875
656.238	0.0138300
656.317	0.0138138
656.395	0.0139643
656.473	0.0138319
656.551	0.0139414
656.629	0.0140548
656.707	0.0142991
656.785	0.0142844
656.863	0.0144306
656.942	0.0143006
657.020	0.0144987
657.098	0.0146696
657.176	0.0145496
657.254	0.0147694
657.332	0.0146970
657.410	0.0146149
657.488	0.0146154
657.567	0.0147179
657.645	0.0147503
657.723	0.0147626
657.801	0.0148875
657.879	0.0149257
657.957	0.0147778
658.035	0.0146404
658.113	0.0146342
658.192	0.0148452
658.270	0.0147602
658.348	0.0145199
658.426	0.0145551
658.504	0.0147212
658.582	0.0145317
658.660	0.0145318
658.738	0.0144599
658.817	0.0145500
658.895	0.0145628
658.973	0.0144843
659.051	0.0146103
659.129	0.0145531
659.207	0.0145704
659.285	0.0144856
659.363	0.0143268
659.442	0.0143745
659.520	0.0143089
659.598	0.0140376
659.676	0.0141629
659.754	0.0140935
659.832	0.0139460
659.910	0.0137352
659.988	0.0136212
660.067	0.0134857
660.145	0.0133398
660.223	0.0132500
660.301	0.0130950
660.379	0.0130708
660.457	0.0132253
660.535	0.0132413
660.613	0.0133327
660.692	0.0134345
660.770	0.0136490
660.848	0.0139173
660.926	0.0140052
661.004	0.0143177
661.082	0.0143999
661.160	0.0145338
661.238	0.0147015
661.317	0.0150333
661.395	0.0150140
661.473	0.0149780
661.551	0.0150236
661.629	0.0151163
661.707	0.0150018
661.785	0.0150179
661.863	0.0149284
661.942	0.0149766
662.020	0.0148897
662.098	0.0148689
662.176	0.0148942
662.254	0.0148243
662.332	0.0148553
662.410	0.0149157
662.488	0.0148621
662.567	0.0147691
662.645	0.0147340
662.723	0.0148086
662.801	0.0147767
662.879	0.0146735
662.957	0.0144065
663.035	0.0145121
663.113	0.0146355
663.192	0.0145457
663.270	0.0145236
663.348	0.0145485
663.426	0.0145935
663.504	0.0146053
663.582	0.0145397
663.660	0.0143592
663.738	0.0142483
663.817	0.0144077
663.895	0.0142378
663.973	0.0141088
664.051	0.0141846
664.129	0.0141892
664.207	0.0142266
664.285	0.0139494
664.363	0.0140601
664.442	0.0139750
664.520	0.0140520
664.598	0.0140723
664.676	0.0139241
664.754	0.0137941
664.832	0.0137344
664.910	0.0138277
664.988	0.0137160
665.067	0.0137285
665.145	0.0137955
665.223	0.0138000
665.301	0.0137387
665.379	0.0139122
665.457	0.0138248
665.535	0.0138721
665.613	0.0139044
665.692	0.0138800
665.770	0.0138802
665.848	0.0138706
665.926	0.0140424
666.004	0.0140373
666.082	0.0139213
666.160	0.0143118
666.238	0.0142552
666.317	0.0143169
666.395	0.0145427
666.473	0.0145056
666.551	0.0147470
666.629	0.0148875
666.707	0.0147615
666.785	0.0150880
666.863	0.0151102
666.942	0.0152616
667.020	0.0152374
667.098	0.0152580
667.176	0.0151924
667.254	0.0152850
667.332	0.0151714
667.410	0.0151821
667.488	0.0151031
667.567	0.0149760
667.645	0.0149443
667.723	0.0149185
667.801	0.0146467
667.879	0.0145799
667.957	0.0146571
668.035	0.0145268
668.113	0.0143829
668.192	0.0145237
668.270	0.0144478
668.348	0.0144453
668.426	0.0143918
668.504	0.0143506
668.582	0.0143896
668.660	0.0144084
668.738	0.0144027
668.817	0.0143944
668.895	0.0143385
668.973	0.0143755
669.051	0.0142886
669.129	0.0142570
669.207	0.0140033
669.285	0.0139761
669.363	0.0139415
669.442	0.0138335
669.520	0.0138646
669.598	0.0136985
669.676	0.0137262
669.754	0.0137115
669.832	0.0135996
669.910	0.0136942
669.988	0.0136813
670.067	0.0137329
670.145	0.0136731
670.223	0.0137463
670.301	0.0136736
670.379	0.0137680
670.457	0.0138016
670.535	0.0139358
670.613	0.0138743
670.692	0.0140754
670.770	0.0140984
670.848	0.0140763
670.926	0.0143014
671.004	0.0142061
671.082	0.0144530
671.160	0.0144169
671.238	0.0143308
671.317	0.0145276
671.395	0.0145109
671.473	0.0145300
671.551	0.0143404
671.629	0.0143018
671.707	0.0144927
671.785	0.0143798
671.863	0.0143779
671.942	0.0144703
672.020	0.0144802
672.098	0.0144650
672.176	0.0144930
672.254	0.0145487
672.332	0.0147485
672.410	0.0148100
672.488	0.0148700
672.567	0.0149260
672.645	0.0150204
672.723	0.0151311
672.801	0.0151929
672.879	0.0152477
672.957	0.0152763
673.035	0.0151652
673.113	0.0152779
673.192	0.0151815
673.270	0.0149966
673.348	0.0149640
673.426	0.0149036
673.504	0.0147133
673.582	0.0145382
673.660	0.0143029
673.738	0.0141333
673.817	0.0138860
673.895	0.0136834
673.973	0.0135292
674.051	0.0135941
674.129	0.0133439
674.207	0.0134097
674.285	0.0133928
674.363	0.0134971
674.442	0.0135336
674.520	0.0134256
674.598	0.0135495
674.676	0.0136961
674.754	0.0138694
674.832	0.0139534
674.910	0.0140353
674.988	0.0142615
675.067	0.0143363
675.145	0.0144344
675.223	0.0146434
675.301	0.0145855
675.379	0.0146169
675.457	0.0147411
675.535	0.0148991
675.613	0.0149454
675.692	0.0147821
675.770	0.0149356
675.848	0.0147258
675.926	0.0146945
676.004	0.0146132
676.082	0.0145522
676.160	0.0142945
676.238	0.0141800
676.317	0.0139324
676.395	0.0137782
676.473	0.0137357
676.551	0.0135050
676.629	0.0133497
676.707	0.0133511
676.785	0.0133418
676.863	0.0133028
676.942	0.0133052
677.020	0.0133740
677.098	0.0135052
677.176	0.0138185
677.254	0.0137028
677.332	0.0140483
677.410	0.0140582
677.488	0.0142502
677.567	0.0142563
677.645	0.0144987
677.723	0.0146441
677.801	0.0148042
677.879	0.0147182
677.957	0.0147097
678.035	0.0148097
678.113	0.0150049
678.192	0.0149643
678.270	0.0149993
678.348	0.0151448
678.426	0.0152468
678.504	0.0151847
678.582	0.0152161
678.660	0.0150844
678.738	0.0151851
678.817	0.0150354
678.895	0.0151126
678.973	0.0149823
679.051	0.0148610
679.129	0.0149247
679.207	0.0148264
679.285	0.0146992
679.363	0.0144669
679.442	0.0143433
679.520	0.0142049
679.598	0.0141268
679.676	0.0141029
679.754	0.0140007
679.832	0.0139510
679.910	0.0139523
679.988	0.0139516
680.067	0.0138596
680.145	0.0139204
680.223	0.0141102
680.301	0.0140627
680.379	0.0140477
680.457	0.0142978
680.535	0.0143329
680.613	0.0142867
680.692	0.0143728
680.770	0.0143401
680.848	0.0144479
680.926	0.0143536
681.004	0.0144193
681.082	0.0145451
681.160	0.0144466
681.238	0.0143660
681.317	0.0143520
681.395	0.0142451
681.473	0.0142046
681.551	0.0142593
681.629	0.0142274
681.707	0.0139962
681.785	0.0140723
681.863	0.0141811
681.942	0.0141064
682.020	0.0138639
682.098	0.0138397
682.176	0.0137126
682.254	0.0136119
682.332	0.0137232
682.410	0.0134035
682.488	0.0135933
682.567	0.0136407
682.645	0.0138102
682.723	0.0137487
682.801	0.0138125
682.879	0.0138905
682.957	0.0138070
683.035	0.0140594
683.113	0.0140079
683.192	0.0140299
683.270	0.0142738
683.348	0.0141645
683.426	0.0141564
683.504	0.0143319
683.582	0.0143874
683.660	0.0144473
683.738	0.0144041
683.817	0.0146082
683.895	0.0148505
683.973	0.0149174
684.051	0.0149800
684.129	0.0150967
684.207	0.0152567
684.285	0.0152225
684.363	0.0153095
684.442	0.0154202
684.520	0.0154329
684.598	0.0152937
684.676	0.0153224
684.754	0.0152328
684.832	0.0153397
684.910	0.0151982
684.988	0.0150256
685.067	0.0151580
685.145	0.0149864
685.223	0.0148841
685.301	0.0148625
685.379	0.0147735
685.457	0.0147178
685.535	0.0144987
685.613	0.0143804
685.692	0.0144415
685.770	0.0144012
685.848	0.0142645
685.926	0.0143596
686.004	0.0144845
686.082	0.0143769
686.160	0.0144210
686.238	0.0142088
686.317	0.0143617
686.395	0.0143478
686.473	0.0142721
686.551	0.0141982
686.629	0.0142707
686.707	0.0141248
686.785	0.0141911
686.863	0.0140591
686.942	0.0140181
687.020	0.0139700
687.098	0.0138828
687.176	0.0136677
687.254	0.0137460
687.332	0.0134810
687.410	0.0134737
687.488	0.0134286
687.567	0.0132243
687.645	0.0131562
687.723	0.0132567
687.801	0.0131429
687.879	0.0132701
687.957	0.0131589
688.035	0.0133228
688.113	0.0132851
688.192	0.0133880
688.270	0.0135648
688.348	0.0135373
688.426	0.0136112
688.504	0.0139304
688.582	0.0138680
688.660	0.0141830
688.738	0.0142304
688.817	0.0142924
688.895	0.0145127
688.973	0.0146934
689.051	0.0149998
689.129	0.0154370
689.207	0.0153786
689.285	0.0156575
689.363	0.0159480
689.442	0.0161806
689.520	0.0162823
689.598	0.0162630
689.676	0.0163694
689.754	0.0162358
689.832	0.0161871
689.910	0.0160748
689.988	0.0160061
690.067	0.0156670
690.145	0.0153202
690.223	0.0151884
690.301	0.0150351
690.379	0.0148360
690.457	0.0143311
690.535	0.0144256
690.613	0.0142536
690.692	0.0141203
690.770	0.0138168
690.848	0.0136497
690.926	0.0136632
691.004	0.0136579
691.082	0.0134959
691.160	0.0134005
691.238	0.0136194
691.317	0.0135801
691.395	0.0135882
691.473	0.0136195
691.551	0.0137644
691.629	0.0138557
691.707	0.0138237
691.785	0.0139018
691.863	0.0141353
691.942	0.0139311
692.020	0.0139944
692.098	0.0141572
692.176	0.0141652
692.254	0.0142403
692.332	0.0141959
692.410	0.0140867
692.488	0.0140755
692.567	0.0142844
692.645	0.0142988
692.723	0.0142753
692.801	0.0141904
692.879	0.0142576
692.957	0.0143860
693.035	0.0143917
693.113	0.0143661
693.192	0.0141594
693.270	0.0143024
693.348	0.0140518
693.426	0.0140598
693.504	0.0141273
693.582	0.0139850
693.660	0.0141347
693.738	0.0141412
693.817	0.0141739
693.895	0.0143388
693.973	0.0144812
694.051	0.0144937
694.129	0.0147965
694.207	0.0147921
694.285	0.0149015
694.363	0.0148826
694.442	0.0149982
694.520	0.0150579
694.598	0.0149258
694.676	0.0149649
694.754	0.0149075
694.832	0.0145873
694.910	0.0145570
694.988	0.0143502
695.067	0.0141950
695.145	0.0142062
695.223	0.0140137
695.301	0.0139692
695.379	0.0140714
695.457	0.0141438
695.535	0.0141949
695.613	0.0142083
695.692	0.0142729
695.770	0.0143125
695.848	0.0143849
695.926	0.0144022
696.004	0.0145621
696.082	0.0146575
696.160	0.0144915
696.238	0.0143174
696.317	0.0144845
696.395	0.0144891
696.473	0.0143079
696.551	0.0143520
696.629	0.0141346
696.707	0.0139188
696.785	0.0140115
696.863	0.0138183
696.942	0.0138910
697.020	0.0138795
697.098	0.0140321
697.176	0.0138813
697.254	0.0138137
697.332	0.0139108
697.410	0.0139126
697.488	0.0139222
697.567	0.0139674
697.645	0.0141400
697.723	0.0142091
697.801	0.0142084
697.879	0.0141945
697.957	0.0142999
698.035	0.0145372
698.113	0.0146227
698.192	0.0145868
698.270	0.0147784
698.348	0.0148991
698.426	0.0148048
698.504	0.0148611
698.582	0.0149306
698.660	0.0151749
698.738	0.0151257
698.817	0.0151173
698.895	0.0152406
698.973	0.0151874
699.051	0.0150919
699.129	0.0149931
699.207	0.0150268
699.285	0.0150789
699.363	0.0151127
699.442	0.0147620
699.520	0.0146866
699.598	0.0145578
699.676	0.0144547
699.754	0.0145168
699.832	0.0144061
699.910	0.0142014
699.988	0.0139527
700.067	0.0139754
700.145	0.0137764
700.223	0.0138694
700.301	0.0136524
700.379	0.0134995
700.457	0.0134900
700.535	0.0134751
700.613	0.0134844
700.692	0.0134850
700.770	0.0135034
700.848	0.0135372
700.926	0.0135489
701.004	0.0135158
701.082	0.0135907
701.160	0.0136277
701.238	0.0136228
701.317	0.0137498
701.395	0.0139252
701.473	0.0141733
701.551	0.0141946
701.629	0.0143706
701.707	0.0142580
701.785	0.0144189
701.863	0.0145710
701.942	0.0144755
702.020	0.0145790
702.098	0.0146908
702.176	0.0147802
702.254	0.0146419
702.332	0.0148206
702.410	0.0149416
702.488	0.0146175
702.567	0.0147815
702.645	0.0147510
702.723	0.0147617
702.801	0.0148754
702.879	0.0148696
702.957	0.0148629
703.035	0.0148893
703.113	0.0149167
703.192	0.0149413
703.270	0.0150056
703.348	0.0149967
703.426	0.0151588
703.504	0.0152158
703.582	0.0152897
703.660	0.0153255
703.738	0.0155057
703.817	0.0153282
703.895	0.0153477
703.973	0.0153124
704.051	0.0151613
704.129	0.0149304
704.207	0.0147752
704.285	0.0147146
704.363	0.0144567
704.442	0.0142212
704.520	0.0139965
704.598	0.0139639
704.676	0.0136774
704.754	0.0134638
704.832	0.0133916
704.910	0.0134530
704.988	0.0132317
705.067	0.0130118
705.145	0.0132373
705.223	0.0131292
705.301	0.0131801
705.379	0.0131477
705.457	0.0132077
705.535	0.0132612
705.613	0.0130875
705.692	0.0132701
705.770	0.0133704
705.848	0.0136359
705.926	0.0136973
706.004	0.0138412
706.082	0.0140046
706.160	0.0141051
706.238	0.0142888
706.317	0.0146434
706.395	0.0147743
706.473	0.0147942
706.551	0.0148818
706.629	0.0150246
706.707	0.0151785
706.785	0.0153893
706.863	0.0154292
706.942	0.0152593
707.020	0.0152141
707.098	0.0153667
707.176	0.0151768
707.254	0.0152811
707.332	0.0151115
707.410	0.0148641
707.488	0.0149266
707.567	0.0148521
707.645	0.0146030
707.723	0.0145692
707.801	0.0146857
707.879	0.0144676
707.957	0.0145749
708.035	0.0143595
708.113	0.0145313
708.192	0.0144509
708.270	0.0143858
708.348	0.0144328
708.426	0.0142969
708.504	0.0142374
708.582	0.0141634
708.660	0.0141624
708.738	0.0141749
708.817	0.0139967
708.895	0.0139250
708.973	0.0139790
709.051	0.0140488
709.129	0.0138734
709.207	0.0139130
709.285	0.0141190
709.363	0.0140063
709.442	0.0140377
709.520	0.0141472
709.598	0.0140417
709.676	0.0142481
709.754	0.0144222
709.832	0.0142978
709.910	0.0142618
709.988	0.0143221
710.067	0.0144871
710.145	0.0145123
710.223	0.0145733
710.301	0.0144079
710.379	0.0144700
710.457	0.0143277
710.535	0.0145017
710.613	0.0144329
710.692	0.0144225
710.770	0.0144081
710.848	0.0144040
710.926	0.0144998
711.004	0.0144057
711.082	0.0143433
711.160	0.0144283
711.238	0.0143156
711.317	0.0142726
711.395	0.0143105
711.473	0.0142133
711.551	0.0141250
711.629	0.0141169
711.707	0.0141723
711.785	0.0140487
711.863	0.0140696
711.942	0.0142664
712.020	0.0144801
712.098	0.0143513
712.176	0.0142785
712.254	0.0143816
712.332	0.0144221
712.410	0.0145861
712.488	0.0147167
712.567	0.0147111
712.645	0.0146117
712.723	0.0146490
712.801	0.0145911
712.879	0.0145453
712.957	0.0146176
713.035	0.0145345
713.113	0.0145094
713.192	0.0144359
713.270	0.0145266
713.348	0.0144618
713.426	0.0143580
713.504	0.0143462
713.582	0.0143934
713.660	0.0144107
713.738	0.0143894
713.817	0.0142574
713.895	0.0143401
713.973	0.0143130
714.051	0.0141702
714.129	0.0143359
714.207	0.0140903
714.285	0.0141519
714.363	0.0142214
714.442	0.0141167
714.520	0.0141325
714.598	0.0141889
714.676	0.0141965
714.754	0.0142282
714.832	0.0142913
714.910	0.0143090
714.988	0.0142548
715.067	0.0143635
715.145	0.0144598
715.223	0.0143380
715.301	0.0144091
715.379	0.0144467
715.457	0.0143542
715.535	0.0143795
715.613	0.0144569
715.692	0.0144202
715.770	0.0143127
715.848	0.0144373
715.926	0.0144611
716.004	0.0144595
716.082	0.0143188
716.160	0.0142757
716.238	0.0143536
716.317	0.0144101
716.395	0.0142435
716.473	0.0141833
716.551	0.0143657
716.629	0.0142937
716.707	0.0140301
716.785	0.0142101
716.863	0.0143024
716.942	0.0143073
717.020	0.0141636
717.098	0.0141714
717.176	0.0142324
717.254	0.0143942
717.332	0.0144662
717.410	0.0144467
717.488	0.0145486
717.567	0.0144794
717.645	0.0145655
717.723	0.0144711
717.801	0.0145281
717.879	0.0144721
717.957	0.0144162
718.035	0.0142810
718.113	0.0144212
718.192	0.0145290
718.270	0.0143716
718.348	0.0142342
718.426	0.0142583
718.504	0.0142248
718.582	0.0143139
718.660	0.0142171
718.738	0.0143106
718.817	0.0142663
718.895	0.0143202
718.973	0.0143177
719.051	0.0143052
719.129	0.0142223
719.207	0.0141700
719.285	0.0142825
719.363	0.0143661
719.442	0.0143358
719.520	0.0144310
719.598	0.0143977
719.676	0.0146430
719.754	0.0144979
719.832	0.0146346
719.910	0.0147073
719.988	0.0146885
720.067	0.0148006
720.145	0.0148510
720.223	0.0149812
720.301	0.0148629
720.379	0.0147440
720.457	0.0147964
720.535	0.0147755
720.613	0.0147102
720.692	0.0145151
720.770	0.0144448
720.848	0.0143806
720.926	0.0142162
721.004	0.0140803
721.082	0.0139721
721.160	0.0140408
721.238	0.0141287
721.317	0.0140134
721.395	0.0140129
721.473	0.0139981
721.551	0.0141177
721.629	0.0141291
721.707	0.0142503
721.785	0.0143147
721.863	0.0142038
721.942	0.0143188
722.020	0.0144761
722.098	0.0144911
722.176	0.0143922
722.254	0.0144875
722.332	0.0144165
722.410	0.0145049
722.488	0.0143768
722.567	0.0143893
722.645	0.0144189
722.723	0.0143647
722.801	0.0145515
722.879	0.0143664
722.957	0.0143066
723.035	0.0145071
723.113	0.0143392
723.192	0.0143979
723.270	0.0143691
723.348	0.0143938
723.426	0.0143085
723.504	0.0142722
723.582	0.0142822
723.660	0.0143837
723.738	0.0142752
723.817	0.0141494
723.895	0.0142657
723.973	0.0143844
724.051	0.0143301
724.129	0.0143100
724.207	0.0143581
724.285	0.0145000
724.363	0.0145665
724.442	0.0144483
724.520	0.0144848
724.598	0.0145270
724.676	0.0145155
724.754	0.0143310
724.832	0.0142701
724.910	0.0142909
724.988	0.0143498
725.067	0.0145115
725.145	0.0142412
725.223	0.0143787
725.301	0.0142645
725.379	0.0143112
725.457	0.0142583
725.535	0.0142332
725.613	0.0142941
725.692	0.0142176
725.770	0.0142810
725.848	0.0142914
725.926	0.0140900
726.004	0.0141525
726.082	0.0141848
726.160	0.0142473
726.238	0.0141654
726.317	0.0142536
726.395	0.0142576
726.473	0.0143338
726.551	0.0141844
726.629	0.0143163
726.707	0.0144149
726.785	0.0143893
726.863	0.0143945
726.942	0.0145712
727.020	0.0143968
727.098	0.0144553
727.176	0.0143813
727.254	0.0144051
727.332	0.0145649
727.410	0.0145271
727.488	0.0145905
727.567	0.0145101
727.645	0.0144714
727.723	0.0144858
727.801	0.0144199
727.879	0.0145264
727.957	0.0144555
728.035	0.0144381
728.113	0.0144070
728.192	0.0143347
728.270	0.0145298
728.348	0.0144782
728.426	0.0142894
728.504	0.0143907
728.582	0.0143166
728.660	0.0143836
728.738	0.0143958
728.817	0.0142256
728.895	0.0141708
728.973	0.0142523
729.051	0.0142954
729.129	0.0141439
729.207	0.0140749
729.285	0.0141108
729.363	0.0142264
729.442	0.0142023
729.520	0.0141831
729.598	0.0142621
729.676	0.0142889
729.754	0.0142563
729.832	0.0140734
729.910	0.0142785
729.988	0.0141834
730.067	0.0144408
730.145	0.0144073
730.223	0.0142032
730.301	0.0144100
730.379	0.0142938
730.457	0.0142844
730.535	0.0142529
730.613	0.0142661
730.692	0.0142690
730.770	0.0142814
730.848	0.0143330
730.926	0.0143346
731.004	0.0144090
731.082	0.0144835
731.160	0.0143481
731.238	0.0142274
731.317	0.0143047
731.395	0.0143719
731.473	0.0144068
731.551	0.0142828
731.629	0.0145356
731.707	0.0145119
731.785	0.0143745
731.863	0.0143894
731.942	0.0144260
732.020	0.0143621
732.098	0.0145273
732.176	0.0144560
732.254	0.0144335
732.332	0.0143799
732.410	0.0143210
732.488	0.0142384
732.567	0.0142352
732.645	0.0142637
732.723	0.0142695
732.801	0.0142059
732.879	0.0141944
732.957	0.0142876
733.035	0.0142639
733.113	0.0141996
733.192	0.0142203
733.270	0.0142213
733.348	0.0143244
733.426	0.0142191
733.504	0.0142246
733.582	0.0142410
733.660	0.0142898
733.738	0.0143317
733.817	0.0143266
733.895	0.0144922
733.973	0.0144566
734.051	0.0143329
734.129	0.0144736
734.207	0.0145546
734.285	0.0145517
734.363	0.0145893
734.442	0.0143501
734.520	0.0145924
734.598	0.0146773
734.676	0.0146891
734.754	0.0145721
734.832	0.0145707
734.910	0.0144995
734.988	0.0145039
735.067	0.0144344
735.145	0.0144400
735.223	0.0144250
735.301	0.0143743
735.379	0.0143475
735.457	0.0143011
735.535	0.0142316
735.613	0.0142033
735.692	0.0142487
735.770	0.0142749
735.848	0.0142197
735.926	0.0142102
736.004	0.0142173
736.082	0.0142529
736.160	0.0141386
736.238	0.0141964
736.317	0.0142556
736.395	0.0142702
736.473	0.0142870
736.551	0.0141415
736.629	0.0142364
736.707	0.0143062
736.785	0.0142343
736.863	0.0142702
736.942	0.0142435
737.020	0.0141894
737.098	0.0141523
737.176	0.0142693
737.254	0.0142860
737.332	0.0141434
737.410	0.0142177
737.488	0.0141752
737.567	0.0142292
737.645	0.0143304
737.723	0.0141484
737.801	0.0143044
737.879	0.0142326
737.957	0.0143349
738.035	0.0143578
738.113	0.0143459
738.192	0.0143184
738.270	0.0141067
738.348	0.0142686
738.426	0.0144725
738.504	0.0142902
738.582	0.0143819
738.660	0.0145194
738.738	0.0144276
738.817	0.0144876
738.895	0.0144984
738.973	0.0145261
739.051	0.0144577
739.129	0.0145464
739.207	0.0145395
739.285	0.0144421
739.363	0.0145253
739.442	0.0144916
739.520	0.0144930
739.598	0.0143784
739.676	0.0144881
739.754	0.0144781
739.832	0.0143784
739.910	0.0145004
739.988	0.0143146
740.067	0.0143744
740.145	0.0144340
740.223	0.0142785
740.301	0.0142521
740.379	0.0143652
740.457	0.0144218
740.535	0.0143919
740.613	0.0144357
740.692	0.0143893
740.770	0.0144885
740.848	0.0144233
740.926	0.0144504
741.004	0.0143203
741.082	0.0144058
741.160	0.0143920
741.238	0.0143494
741.317	0.0142191
741.395	0.0143547
741.473	0.0143502
741.551	0.0143304
741.629	0.0143659
741.707	0.0143877
741.785	0.0142542
741.863	0.0142932
741.942	0.0143838
742.020	0.0144755
742.098	0.0143797
742.176	0.0144102
742.254	0.0144032
742.332	0.0145045
742.410	0.0142570
742.488	0.0145168
742.567	0.0144543
742.645	0.0144547
742.723	0.0142860
742.801	0.0143732
742.879	0.0143117
742.957	0.0141212
743.035	0.0142623
743.113	0.0142478
743.192	0.0142229
743.270	0.0142052
743.348	0.0142056
743.426	0.0142691
743.504	0.0143297
743.582	0.0143162
743.660	0.0142721
743.738	0.0144247
743.817	0.0143842
743.895	0.0144862
743.973	0.0145435
744.051	0.0145290
744.129	0.0145162
744.207	0.0146204
744.285	0.0144255
744.363	0.0144445
744.442	0.0145018
744.520	0.0143973
744.598	0.0144513
744.676	0.0143275
744.754	0.0143279
744.832	0.0143165
744.910	0.0142966
744.988	0.0142821
745.067	0.0140771
745.145	0.0142263
745.223	0.0141792
745.301	0.0141367
745.379	0.0141721
745.457	0.0142998
745.535	0.0142683
745.613	0.0141998
745.692	0.0143112
745.770	0.0142818
745.848	0.0142590
745.926	0.0143671
746.004	0.0142482
746.082	0.0143844
746.160	0.0142621
746.238	0.0144617
746.317	0.0144261
746.395	0.0143524
746.473	0.0143808
746.551	0.0144407
746.629	0.0143592
746.707	0.0145284
746.785	0.0144480
746.863	0.0143861
746.942	0.0145582
747.020	0.0143066
747.098	0.0145170
747.176	0.0145184
747.254	0.0144478
747.332	0.0143653
747.410	0.0144885
747.488	0.0143404
747.567	0.0143723
747.645	0.0145160
747.723	0.0143775
747.801	0.0142263
747.879	0.0141354
747.957	0.0142749
748.035	0.0141792
748.113	0.0141971
748.192	0.0142433
748.270	0.0142794
748.348	0.0141624
748.426	0.0142281
748.504	0.0142759
748.582	0.0141682
748.660	0.0143233
748.738	0.0143212
748.817	0.0143554
748.895	0.0142831
748.973	0.0143067
749.051	0.0141653
749.129	0.0142355
749.207	0.0144128
749.285	0.0144614
749.363	0.0143140
749.442	0.0143150
749.520	0.0144258
749.598	0.0143652
749.676	0.0145905
749.754	0.0144134
749.832	0.0145571
749.910	0.0145271
749.988	0.0145138
750.067	0.0144844
750.145	0.0145177
750.223	0.0145522
750.301	0.0144642
750.379	0.0144839
750.457	0.0144897
750.535	0.0144431
750.613	0.0144334
750.692	0.0143974
750.770	0.0141875
750.848	0.0144581
750.926	0.0143946
751.004	0.0142458
751.082	0.0141667
751.160	0.0142525
751.238	0.0143307
751.317	0.0141538
751.395	0.0142464
751.473	0.0141667
751.551	0.0142732
751.629	0.0142915
751.707	0.0144230
751.785	0.0142659
751.863	0.0143540
751.942	0.0144117
752.020	0.0143568
752.098	0.0144810
752.176	0.0143936
752.254	0.0143442
752.332	0.0142970
752.410	0.0143813
752.488	0.0143751
752.567	0.0144125
752.645	0.0143243
752.723	0.0143103
752.801	0.0141496
752.879	0.0142795
752.957	0.0141367
753.035	0.0140379
753.113	0.0141677
753.192	0.0141843
753.270	0.0140997
753.348	0.0140884
753.426	0.0141250
753.504	0.0141667
753.582	0.0140973
753.660	0.0141425
753.738	0.0140990
753.817	0.0141133
753.895	0.0143029
753.973	0.0142909
754.051	0.0144576
754.129	0.0143488
754.207	0.0144379
754.285	0.0145531
754.363	0.0146444
754.442	0.0145116
754.520	0.0145404
754.598	0.0144893
754.676	0.0145861
754.754	0.0146456
754.832	0.0146314
754.910	0.0146445
754.988	0.0146487
755.067	0.0145892
755.145	0.0146272
755.223	0.0144462
755.301	0.0146583
755.379	0.0144312
755.457	0.0143243
755.535	0.0144156
755.613	0.0143078
755.692	0.0142884
755.770	0.0144390
755.848	0.0141837
755.926	0.0141391
756.004	0.0141597
756.082	0.0141830
756.160	0.0141035
756.238	0.0140795
756.317	0.0140984
756.395	0.0140018
756.473	0.0141184
756.551	0.0142285
756.629	0.0139605
756.707	0.0141914
756.785	0.0142330
756.863	0.0142109
756.942	0.0140948
757.020	0.0143011
757.098	0.0143282
757.176	0.0143261
757.254	0.0141913
757.332	0.0144447
757.410	0.0144588
757.488	0.0143487
757.567	0.0143433
757.645	0.0145118
757.723	0.0143784
757.801	0.0146002
757.879	0.0147652
757.957	0.0146165
758.035	0.0146620
758.113	0.0145824
758.192	0.0145618
758.270	0.0146313
758.348	0.0146194
758.426	0.0143274
758.504	0.0144258
758.582	0.0143353
758.660	0.0143587
758.738	0.0143597
758.817	0.0144743
758.895	0.0142854
758.973	0.0142925
759.051	0.0143736
759.129	0.0142670
759.207	0.0143605
759.285	0.0143125
759.363	0.0143337
759.442	0.0143714
759.520	0.0143282
759.598	0.0143792
759.676	0.0143793
759.754	0.0144973
759.832	0.0143774
759.910	0.0144093
759.988	0.0145911
760.067	0.0144838
760.145	0.0145570
760.223	0.0144431
760.301	0.0146467
760.379	0.0145811
760.457	0.0145135
760.535	0.0146742
760.613	0.0145029
760.692	0.0142707
760.770	0.0143872
760.848	0.0143681
760.926	0.0143722
761.004	0.0141764
761.082	0.0142209
761.160	0.0142637
761.238	0.0140061
761.317	0.0139623
761.395	0.0140981
761.473	0.0140054
761.551	0.0139087
761.629	0.0139459
761.707	0.0139528
761.785	0.0139165
761.863	0.0139671
761.942	0.0140680
762.020	0.0142411
762.098	0.0141457
762.176	0.0141029
762.254	0.0140916
762.332	0.0142377
762.410	0.0144463
762.488	0.0143175
762.567	0.0143955
762.645	0.0145263
762.723	0.0144556
762.801	0.0145992
762.879	0.0146489
762.957	0.0145151
763.035	0.0144644
763.113	0.0145507
763.192	0.0147084
763.270	0.0144157
763.348	0.0145230
763.426	0.0145425
763.504	0.0143839
763.582	0.0144823
763.660	0.0146561
763.738	0.0143456
763.817	0.0144868
763.895	0.0144170
763.973	0.0143526
764.051	0.0144209
764.129	0.0144099
764.207	0.0144890
764.285	0.0143242
764.363	0.0144079
764.442	0.0143668
764.520	0.0142313
764.598	0.0142970
764.676	0.0142262
764.754	0.0142030
764.832	0.0142075
764.910	0.0143133
764.988	0.0141349
765.067	0.0141880
765.145	0.0141241
765.223	0.0141622
765.301	0.0141260
765.379	0.0141967
765.457	0.0142934
765.535	0.0142085
765.613	0.0142677
765.692	0.0142528
765.770	0.0143356
765.848	0.0143258
765.926	0.0143137
766.004	0.0143729
766.082	0.0143353
766.160	0.0143546
766.238	0.0142603
766.317	0.0143312
766.395	0.0144010
766.473	0.0142704
766.551	0.0141730
766.629	0.0143281
766.707	0.0144196
766.785	0.0142204
766.863	0.0142329
766.942	0.0144139
767.020	0.0143572
767.098	0.0142828
767.176	0.0141425
767.254	0.0142542
767.332	0.0141606
767.410	0.0142547
767.488	0.0142675
767.567	0.0144415
767.645	0.0144350
767.723	0.0143060
767.801	0.0144593
767.879	0.0144402
767.957	0.0144446
768.035	0.0144123
768.113	0.0143435
768.192	0.0144533
768.270	0.0144897
768.348	0.0144102
768.426	0.0144115
768.504	0.0145252
768.582	0.0144135
768.660	0.0144335
768.738	0.0144060
768.817	0.0143091
768.895	0.0142272
768.973	0.0142902
769.051	0.0142253
769.129	0.0142294
769.207	0.0143214
769.285	0.0142833
769.363	0.0142685
769.442	0.0141360
769.520	0.0142373
769.598	0.0142077
769.676	0.0142274
769.754	0.0140936
769.832	0.0142646
769.910	0.0142380
769.988	0.0141800
770.067	0.0142107
770.145	0.0143095
770.223	0.0142411
770.301	0.0141494
770.379	0.0142788
770.457	0.0141752
770.535	0.0142558
770.613	0.0143169
770.692	0.0143369
770.770	0.0143934
770.848	0.0141421
770.926	0.0144322
771.004	0.0142731
771.082	0.0143909
771.160	0.0142853
771.238	0.0144133
771.317	0.0143762
771.395	0.0144123
771.473	0.0142924
771.551	0.0143884
771.629	0.0143796
771.707	0.0143171
771.785	0.0144415
771.863	0.0143554
771.942	0.0143370
772.020	0.0145442
772.098	0.0142822
772.176	0.0142944
772.254	0.0144184
772.332	0.0144195
772.410	0.0141896
772.488	0.0144308
772.567	0.0143993
772.645	0.0143275
772.723	0.0143346
772.801	0.0142896
772.879	0.0142021
772.957	0.0142571
773.035	0.0144804
773.113	0.0145545
773.192	0.0143077
773.270	0.0142085
773.348	0.0143258
773.426	0.0143158
773.504	0.0143164
773.582	0.0142256
773.660	0.0141910
773.738	0.0143501
773.817	0.0142395
773.895	0.0141694
773.973	0.0142209
774.051	0.0143107
774.129	0.0143410
774.207	0.0143136
774.285	0.0143232
774.363	0.0143764
774.442	0.0143255
774.520	0.0144186
774.598	0.0144760
774.676	0.0142976
774.754	0.0142458
774.832	0.0143608
774.910	0.0143899
774.988	0.0143152
775.067	0.0143154
775.145	0.0143694
775.223	0.0143530
775.301	0.0143993
775.379	0.0142878
775.457	0.0142917
775.535	0.0143845
775.613	0.0142486
775.692	0.0142773
775.770	0.0143377
775.848	0.0142943
775.926	0.0143886
776.004	0.0144427
776.082	0.0143132
776.160	0.0143220
776.238	0.0143614
776.317	0.0144025
776.395	0.0143634
776.473	0.0143134
776.551	0.0143194
776.629	0.0143323
776.707	0.0143572
776.785	0.0143234
776.863	0.0144946
776.942	0.0144476
777.020	0.0142921
777.098	0.0141873
777.176	0.0143390
777.254	0.0142812
777.332	0.0141422
777.410	0.0142416
777.488	0.0141796
777.567	0.0142127
777.645	0.0142735
777.723	0.0141837
777.801	0.0142137
777.879	0.0144243
777.957	0.0142721
778.035	0.0142773
778.113	0.0143080
778.192	0.0143787
778.270	0.0143875
778.348	0.0144182
778.426	0.0144054
778.504	0.0144329
778.582	0.0144581
778.660	0.0144341
778.738	0.0143645
778.817	0.0143687
778.895	0.0143229
778.973	0.0142883
779.051	0.0143623
779.129	0.0143166
779.207	0.0142829
779.285	0.0142142
779.363	0.0142844
779.442	0.0142340
779.520	0.0141217
779.598	0.0141307
779.676	0.0141686
779.754	0.0142450
779.832	0.0141920
779.910	0.0140906
779.988	0.0141685
780.067	0.0142281
780.145	0.0143361
780.223	0.0143100
780.301	0.0143446
780.379	0.0143993
780.457	0.0143819
780.535	0.0144782
780.613	0.0145650
780.692	0.0145724
780.770	0.0147045
780.848	0.0145422
780.926	0.0145521
781.004	0.0146663
781.082	0.0145861
781.160	0.0146146
781.238	0.0146364
781.317	0.0145676
781.395	0.0145950
781.473	0.0147245
781.551	0.0146504
781.629	0.0144908
781.707	0.0144149
781.785	0.0144387
781.863	0.0146129
781.942	0.0144962
782.020	0.0145269
782.098	0.0144604
782.176	0.0143110
782.254	0.0143268
782.332	0.0145742
782.410	0.0144309
782.488	0.0143850
782.567	0.0143163
782.645	0.0143788
782.723	0.0144948
782.801	0.0143343
782.879	0.0142525
782.957	0.0142992
783.035	0.0142171
783.113	0.0142691
783.192	0.0143861
783.270	0.0141216
783.348	0.0140821
783.426	0.0141621
783.504	0.0140643
783.582	0.0141345
783.660	0.0142226
783.738	0.0141720
783.817	0.0142367
783.895	0.0141779
783.973	0.0141969
784.051	0.0140430
784.129	0.0142485
784.207	0.0142410
784.285	0.0142002
784.363	0.0143198
784.442	0.0143350
784.520	0.0143173
784.598	0.0142684
784.676	0.0142555
784.754	0.0142725
784.832	0.0143640
784.910	0.0143160
784.988	0.0142619
785.067	0.0142023
785.145	0.0143214
785.223	0.0143981
785.301	0.0142724
785.379	0.0143015
785.457	0.0143912
785.535	0.0144801
785.613	0.0144020
785.692	0.0145042
785.770	0.0145049
785.848	0.0144281
785.926	0.0145465
786.004	0.0145647
786.082	0.0145564
786.160	0.0144404
786.238	0.0145343
786.317	0.0145589
786.395	0.0145232
786.473	0.0144559
786.551	0.0145244
786.629	0.0145583
786.707	0.0144854
786.785	0.0145178
786.863	0.0144180
786.942	0.0143232
787.020	0.0143235
787.098	0.0142610
787.176	0.0142592
787.254	0.0142236
787.332	0.0141428
787.410	0.0141857
787.488	0.0142008
787.567	0.0142457
787.645	0.0142059
787.723	0.0142299
787.801	0.0142299
787.879	0.0142098
787.957	0.0142089
788.035	0.0142167
788.113	0.0142278
788.192	0.0142783
788.270	0.0143993
788.348	0.0143546
788.426	0.0142854
788.504	0.0144025
788.582	0.0143356
788.660	0.0144366
788.738	0.0143851
788.817	0.0142754
788.895	0.0144072
788.973	0.0142822
789.051	0.0142590
789.129	0.0141990
789.207	0.0142219
789.285	0.0142578
789.363	0.0143198
789.442	0.0142876
789.520	0.0143088
789.598	0.0142696
789.676	0.0142583
789.754	0.0142793
789.832	0.0141115
789.910	0.0143433
789.988	0.0142641
790.067	0.0143178
790.145	0.0143714
790.223	0.0144032
790.301	0.0142723
790.379	0.0142555
790.457	0.0143000
790.535	0.0142509
790.613	0.0143016
790.692	0.0143578
790.770	0.0143741
790.848	0.0142347
790.926	0.0142738
791.004	0.0143415
791.082	0.0143638
791.160	0.0141273
791.238	0.0141452
791.317	0.0142659
791.395	0.0141439
791.473	0.0142834
791.551	0.0141756
791.629	0.0141308
791.707	0.0142947
791.785	0.0142719
791.863	0.0143108
791.942	0.0143637
792.020	0.0144554
792.098	0.0143527
792.176	0.0142657
792.254	0.0142730
792.332	0.0143513
792.410	0.0142667
792.488	0.0145506
792.567	0.0144591
792.645	0.0143585
792.723	0.0143846
792.801	0.0143969
792.879	0.0144601
792.957	0.0144476
793.035	0.0141965
793.113	0.0144147
793.192	0.0143927
793.270	0.0143608
793.348	0.0142137
793.426	0.0142884
793.504	0.0142964
793.582	0.0142696
793.660	0.0143750
793.738	0.0143427
793.817	0.0143607
793.895	0.0144186
793.973	0.0143268
794.051	0.0143332
794.129	0.0144005
794.207	0.0143907
794.285	0.0144924
794.363	0.0143282
794.442	0.0144325
794.520	0.0144105
794.598	0.0144167
794.676	0.0143475
794.754	0.0144954
794.832	0.0144574
794.910	0.0143679
794.988	0.0144147
795.067	0.0144160
795.145	0.0143638
795.223	0.0142984
795.301	0.0143145
795.379	0.0142357
795.457	0.0143356
795.535	0.0143142
795.613	0.0142841
795.692	0.0140775
795.770	0.0143383
795.848	0.0143272
795.926	0.0142532
796.004	0.0142052
796.082	0.0143406
796.160	0.0142741
796.238	0.0144037
796.317	0.0143056
796.395	0.0142928
796.473	0.0142423
796.551	0.0142240
796.629	0.0143827
796.707	0.0143208
796.785	0.0144756
796.863	0.0144572
796.942	0.0142790
797.020	0.0142644
797.098	0.0143579
797.176	0.0142683
797.254	0.0141285
797.332	0.0143172
797.410	0.0143076
797.488	0.0141930
797.567	0.0142114
797.645	0.0143620
797.723	0.0142587
797.801	0.0143530
797.879	0.0142033
797.957	0.0143066
798.035	0.0142049
798.113	0.0142967
798.192	0.0142977
798.270	0.0142934
798.348	0.0142997
798.426	0.0141914
798.504	0.0143170
798.582	0.0142151
798.660	0.0143240
798.738	0.0142731
798.817	0.0142979
798.895	0.0142096
798.973	0.0142087
799.051	0.0142403
799.129	0.0144122
799.207	0.0145329
799.285	0.0143270
799.363	0.0144344
799.442	0.0146331
799.520	0.0145555
799.598	0.0142986
799.676	0.0144482
799.754	0.0144958
799.832	0.0146402
799.910	0.0147217
799.988	0.0146981
800.067	0.0145532
800.145	0.0146772
800.223	0.0147070
800.301	0.0147559
800.379	0.0146207
800.457	0.0147321
800.535	0.0146313
800.613	0.0145343
800.692	0.0145908
800.770	0.0145763
800.848	0.0145084
800.926	0.0144475
801.004	0.0144617
801.082	0.0143877
801.160	0.0145556
801.238	0.0143459
801.317	0.0143285
801.395	0.0143483
801.473	0.0142591
801.551	0.0142503
801.629	0.0141504
801.707	0.0139629
801.785	0.0141248
801.863	0.0141512
801.942	0.0141395
802.020	0.0142295
802.098	0.0142689
802.176	0.0141856
802.254	0.0142677
802.332	0.0142574
802.410	0.0141901
802.488	0.0141771
802.567	0.0143205
802.645	0.0142367
802.723	0.0142647
802.801	0.0142883
802.879	0.0143833
802.957	0.0142646
803.035	0.0143150
803.113	0.0143809
803.192	0.0144920
803.270	0.0145065
803.348	0.0144794
803.426	0.0145174
803.504	0.0143926
803.582	0.0143430
803.660	0.0144032
803.738	0.0145607
803.817	0.0143268
803.895	0.0144460
803.973	0.0145120
804.051	0.0144504
804.129	0.0144811
804.207	0.0144524
804.285	0.0144183
804.363	0.0144607
804.442	0.0144280
804.520	0.0144409
804.598	0.0142892
804.676	0.0144714
804.754	0.0145589
804.832	0.0144891
804.910	0.0145577
804.988	0.0145408
805.067	0.0145755
805.145	0.0145663
805.223	0.0145482
805.301	0.0145502
805.379	0.0145615
805.457	0.0144792
805.535	0.0144709
805.613	0.0145463
805.692	0.0143875
805.770	0.0144829
805.848	0.0143738
805.926	0.0144671
806.004	0.0145075
806.082	0.0144204
806.160	0.0143288
806.238	0.0143487
806.317	0.0143089
806.395	0.0144437
806.473	0.0141453
806.551	0.0142332
806.629	0.0141766
806.707	0.0141990
806.785	0.0142236
806.863	0.0141799
806.942	0.0142117
807.020	0.0141796
807.098	0.0142487
807.176	0.0141550
807.254	0.0142280
807.332	0.0142070
807.410	0.0142886
807.488	0.0142001
807.567	0.0141911
807.645	0.0141608
807.723	0.0142909
807.801	0.0141628
807.879	0.0142358
807.957	0.0144256
808.035	0.0143299
808.113	0.0142908
808.192	0.0143317
808.270	0.0144141
808.348	0.0143288
808.426	0.0143463
808.504	0.0144827
808.582	0.0144070
808.660	0.0144122
808.738	0.0145358
808.817	0.0144310
808.895	0.0144909
808.973	0.0145100
809.051	0.0143494
809.129	0.0144214
809.207	0.0145407
809.285	0.0144257
809.363	0.0143855
809.442	0.0145432
809.520	0.0144965
809.598	0.0144633
809.676	0.0143836
809.754	0.0143790
809.832	0.0142782
809.910	0.0143439
809.988	0.0143003
810.067	0.0142961
810.145	0.0140918
810.223	0.0141986
810.301	0.0143244
810.379	0.0143270
810.457	0.0142738
810.535	0.0142004
810.613	0.0142297
810.692	0.0142281
810.770	0.0142835
810.848	0.0142809
810.926	0.0142082
811.004	0.0142659
811.082	0.0144289
811.160	0.0143337
811.238	0.0142725
811.317	0.0142772
811.395	0.0143018
811.473	0.0143060
811.551	0.0142947
811.629	0.0142161
811.707	0.0143356
811.785	0.0143754
811.863	0.0144143
811.942	0.0146075
812.020	0.0143095
812.098	0.0143376
812.176	0.0143832
812.254	0.0142942
812.332	0.0144620
812.410	0.0143073
812.488	0.0144711
812.567	0.0143629
812.645	0.0143631
812.723	0.0143626
812.801	0.0143342
812.879	0.0142903
812.957	0.0143073
813.035	0.0144399
813.113	0.0145017
813.192	0.0143937
813.270	0.0143520
813.348	0.0144587
813.426	0.0144391
813.504	0.0144097
813.582	0.0145259
813.660	0.0144188
813.738	0.0143919
813.817	0.0144543
813.895	0.0145480
813.973	0.0144712
814.051	0.0144194
814.129	0.0143652
814.207	0.0144650
814.285	0.0144756
814.363	0.0143657
814.442	0.0143768
814.520	0.0143018
814.598	0.0143552
814.676	0.0143719
814.754	0.0141962
814.832	0.0142381
814.910	0.0143143
814.988	0.0142069
815.067	0.0141738
815.145	0.0143203
815.223	0.0143333
815.301	0.0142419
815.379	0.0143424
815.457	0.0143176
815.535	0.0143406
815.613	0.0142089
815.692	0.0142007
815.770	0.0142791
815.848	0.0143658
815.926	0.0143365
816.004	0.0142668
816.082	0.0143471
816.160	0.0143836
816.238	0.0142741
816.317	0.0144283
816.395	0.0143488
816.473	0.0142794
816.551	0.0143584
816.629	0.0143913
816.707	0.0144115
816.785	0.0143665
816.863	0.0144344
816.942	0.0144633
817.020	0.0143945
817.098	0.0144247
817.176	0.0144643
817.254	0.0144813
817.332	0.0143895
817.410	0.0143201
817.488	0.0144714
817.567	0.0144702
817.645	0.0143628
817.723	0.0143887
817.801	0.0143799
817.879	0.0143846
817.957	0.0142603
818.035	0.0142970
818.113	0.0143575
818.192	0.0144817
818.270	0.0144109
818.348	0.0143883
818.426	0.0143003
818.504	0.0142479
818.582	0.0143263
818.660	0.0144321
818.738	0.0143333
818.817	0.0143575
818.895	0.0143242
818.973	0.0143435
819.051	0.0141795
819.129	0.0143027
819.207	0.0142858
819.285	0.0142597
819.363	0.0143047
819.442	0.0144260
819.520	0.0144018
819.598	0.0143774
819.676	0.0143206
819.754	0.0145055
819.832	0.0142699
819.910	0.0143350
819.988	0.0144010
820.067	0.0145222
820.145	0.0143094
820.223	0.0143639
820.301	0.0144641
820.379	0.0144038
820.457	0.0142287
820.535	0.0143446
820.613	0.0144331
820.692	0.0142595
820.770	0.0142303
820.848	0.0144398
820.926	0.0142959
821.004	0.0141955
821.082	0.0144161
821.160	0.0143978
821.238	0.0143727
821.317	0.0142836
821.395	0.0143700
821.473	0.0143845
821.551	0.0144436
821.629	0.0144485
821.707	0.0144960
821.785	0.0145577
821.863	0.0144475
821.942	0.0144823
822.020	0.0144355
822.098	0.0143786
822.176	0.0144460
822.254	0.0145774
822.332	0.0143928
822.410	0.0145037
822.488	0.0144864
822.567	0.0145316
822.645	0.0144488
822.723	0.0145281
822.801	0.0145167
822.879	0.0143910
822.957	0.0143063
823.035	0.0142583
823.113	0.0144700
823.192	0.0143433
823.270	0.0143006
823.348	0.0141647
823.426	0.0144526
823.504	0.0144864
823.582	0.0142760
823.660	0.0142727
823.738	0.0143472
823.817	0.0143572
823.895	0.0142797
823.973	0.0144346
824.051	0.0143871
824.129	0.0143394
824.207	0.0144359
824.285	0.0143710
824.363	0.0144249
824.442	0.0144527
824.520	0.0144036
824.598	0.0144047
824.676	0.0143379
824.754	0.0143320
824.832	0.0143634
824.910	0.0143398
824.988	0.0143864
825.067	0.0142934
825.145	0.0143284
825.223	0.0144619
825.301	0.0144365
825.379	0.0142629
825.457	0.0142763
825.535	0.0144180
825.613	0.0144024
825.692	0.0144881
825.770	0.0144698
825.848	0.0144313
825.926	0.0144406
826.004	0.0144633
826.082	0.0144533
826.160	0.0144934
826.238	0.0144339
826.317	0.0144901
826.395	0.0143537
826.473	0.0143623
826.551	0.0144287
826.629	0.0143709
826.707	0.0142493
826.785	0.0143677
826.863	0.0144827
826.942	0.0144679
827.020	0.0143874
827.098	0.0144034
827.176	0.0144556
827.254	0.0142955
827.332	0.0143258
827.410	0.0142219
827.488	0.0144374
827.567	0.0144236
827.645	0.0143689
827.723	0.0143542
827.801	0.0144057
827.879	0.0144306
827.957	0.0144575
828.035	0.0144926
828.113	0.0145387
828.192	0.0145844
828.270	0.0144428
828.348	0.0143046
828.426	0.0144370
828.504	0.0145113
828.582	0.0144878
828.660	0.0144020
828.738	0.0145737
828.817	0.0144276
828.895	0.0143970
828.973	0.0144229
829.051	0.0144968
829.129	0.0143791
829.207	0.0143671
829.285	0.0142873
829.363	0.0143151
829.442	0.0143974
829.520	0.0143124
829.598	0.0143553
829.676	0.0142583
829.754	0.0141850
829.832	0.0143771
829.910	0.0143268
829.988	0.0144076
830.067	0.0142638
830.145	0.0143240
830.223	0.0143395
830.301	0.0142549
830.379	0.0144382
830.457	0.0143513
830.535	0.0143903
830.613	0.0143224
830.692	0.0144055
830.770	0.0144894
830.848	0.0145190
830.926	0.0145303
831.004	0.0143778
831.082	0.0144269
831.160	0.0144581
831.238	0.0144974
831.317	0.0143365
831.395	0.0144018
831.473	0.0143913
831.551	0.0143483
831.629	0.0143867
831.707	0.0144671
831.785	0.0142278
831.863	0.0144406
831.942	0.0143107
832.020	0.0142221
832.098	0.0143732
832.176	0.0142354
832.254	0.0144604
832.332	0.0142535
832.410	0.0143405
832.488	0.0143149
832.567	0.0142245
832.645	0.0142186
832.723	0.0143787
832.801	0.0142117
832.879	0.0141995
832.957	0.0141103
833.035	0.0143431
833.113	0.0142603
833.192	0.0142686
833.270	0.0142918
833.348	0.0142018
833.426	0.0143780
833.504	0.0143876
833.582	0.0143047
833.660	0.0144369
833.738	0.0144450
833.817	0.0143547
833.895	0.0143955
833.973	0.0144493
834.051	0.0143952
834.129	0.0144337
834.207	0.0144061
834.285	0.0145026
834.363	0.0144572
834.442	0.0143217
834.520	0.0144337
834.598	0.0143939
834.676	0.0144128
834.754	0.0144946
834.832	0.0143737
834.910	0.0143679
834.988	0.0144452
835.067	0.0143272
835.145	0.0144473
835.223	0.0144806
835.301	0.0144981
835.379	0.0143233
835.457	0.0144203
835.535	0.0143882
835.613	0.0142040
835.692	0.0142490
835.770	0.0142487
835.848	0.0143081
835.926	0.0143228
836.004	0.0142950
836.082	0.0143668
836.160	0.0143020
836.238	0.0143945
836.317	0.0142702
836.395	0.0143182
836.473	0.0144341
836.551	0.0142136
836.629	0.0142345
836.707	0.0143869
836.785	0.0143809
836.863	0.0143808
836.942	0.0143616
837.020	0.0142854
837.098	0.0142651
837.176	0.0142744
837.254	0.0143111
837.332	0.0142466
837.410	0.0143365
837.488	0.0141987
837.567	0.0141709
837.645	0.0143315
837.723	0.0143347
837.801	0.0143204
837.879	0.0143430
837.957	0.0144110
838.035	0.0142606
838.113	0.0142843
838.192	0.0143623
838.270	0.0142878
838.348	0.0143929
838.426	0.0142762
838.504	0.0143161
838.582	0.0143674
838.660	0.0144231
838.738	0.0143450
838.817	0.0143605
838.895	0.0143422
838.973	0.0144427
839.051	0.0144059
839.129	0.0145246
839.207	0.0144707
839.285	0.0145031
839.363	0.0144452
839.442	0.0144810
839.520	0.0143447
839.598	0.0143723
839.676	0.0143508
839.754	0.0143360
839.832	0.0144636
839.910	0.0143607
839.988	0.0143998
840.067	0.0144207
840.145	0.0143337
840.223	0.0142920
840.301	0.0143952
840.379	0.0143272
840.457	0.0143643
840.535	0.0144017
840.613	0.0142580
840.692	0.0143394
840.770	0.0142509
840.848	0.0143879
840.926	0.0142030
841.004	0.0143237
841.082	0.0141720
841.160	0.0142926
841.238	0.0144144
841.317	0.0143908
841.395	0.0142796
841.473	0.0144154
841.551	0.0143288
841.629	0.0141925
841.707	0.0143386
841.785	0.0143120
841.863	0.0142744
841.942	0.0142987
842.020	0.0142754
842.098	0.0142799
842.176	0.0143559
842.254	0.0144300
842.332	0.0144223
842.410	0.0142853
842.488	0.0143723
842.567	0.0144437
842.645	0.0143555
842.723	0.0142981
842.801	0.0143848
842.879	0.0143988
842.957	0.0143015
843.035	0.0142738
843.113	0.0145036
843.192	0.0144724
843.270	0.0143771
843.348	0.0144419
843.426	0.0144140
843.504	0.0144042
843.582	0.0142927
843.660	0.0142612
843.738	0.0146005
843.817	0.0143349
843.895	0.0144465
843.973	0.0143978
844.051	0.0143694
844.129	0.0143989
844.207	0.0143279
844.285	0.0144684
844.363	0.0144785
844.442	0.0142536
844.520	0.0143359
844.598	0.0143433
844.676	0.0145382
844.754	0.0142896
844.832	0.0144213
844.910	0.0144667
844.988	0.0144818
845.067	0.0144714
845.145	0.0144639
845.223	0.0143159
845.301	0.0144453
845.379	0.0144521
845.457	0.0144500
845.535	0.0144683
845.613	0.0144211
845.692	0.0144661
845.770	0.0146001
845.848	0.0144076
845.926	0.0145625
846.004	0.0145090
846.082	0.0144890
846.160	0.0144946
846.238	0.0143367
846.317	0.0143388
846.395	0.0143667
846.473	0.0145096
846.551	0.0142001
846.629	0.0143223
846.707	0.0144245
846.785	0.0144506
846.863	0.0143040
846.942	0.0145222
847.020	0.0145176
847.098	0.0145586
847.176	0.0144166
847.254	0.0143962
847.332	0.0143203
847.410	0.0145748
847.488	0.0144601
847.567	0.0143758
847.645	0.0144262
847.723	0.0145423
847.801	0.0144794
847.879	0.0143947
847.957	0.0143336
848.035	0.0144226
848.113	0.0143642
848.192	0.0143483
848.270	0.0144459
848.348	0.0143913
848.426	0.0144235
848.504	0.0143505
848.582	0.0144497
848.660	0.0144125
848.738	0.0145042
848.817	0.0144334
848.895	0.0144427
848.973	0.0143842
849.051	0.0142974
849.129	0.0145350
849.207	0.0144938
849.285	0.0144426
849.363	0.0143365
849.442	0.0142802
849.520	0.0142537
849.598	0.0143391
849.676	0.0143570
849.754	0.0143210
849.832	0.0142824
849.910	0.0144519
849.988	0.0144202
850.067	0.0142872
850.145	0.0144890
850.223	0.0143529
850.301	0.0143810
850.379	0.0144250
850.457	0.0143406
850.535	0.0144493
850.613	0.0145865
850.692	0.0144161
850.770	0.0144067
850.848	0.0143835
850.926	0.0145042
851.004	0.0145018
851.082	0.0145036
851.160	0.0143804
851.238	0.0144130
851.317	0.0144519
851.395	0.0144627
851.473	0.0144852
851.551	0.0143414
851.629	0.0142805
851.707	0.0142823
851.785	0.0142512
851.863	0.0141328
851.942	0.0141965
852.020	0.0143956
852.098	0.0143195
852.176	0.0142956
852.254	0.0141193
852.332	0.0143874
852.410	0.0144788
852.488	0.0143383
852.567	0.0143548
852.645	0.0142458
852.723	0.0143364
852.801	0.0144975
852.879	0.0143640
852.957	0.0142754
853.035	0.0143507
853.113	0.0144225
853.192	0.0142036
853.270	0.0142859
853.348	0.0143238
853.426	0.0142069
853.504	0.0141999
853.582	0.0143325
853.660	0.0142968
853.738	0.0143598
853.817	0.0142421
853.895	0.0143651
853.973	0.0143266
854.051	0.0143040
854.129	0.0144702
854.207	0.0144979
854.285	0.0145052
854.363	0.0143922
854.442	0.0144711
854.520	0.0145322
854.598	0.0145228
854.676	0.0145181
854.754	0.0143727
854.832	0.0143750
854.910	0.0143848
854.988	0.0143664
855.067	0.0144337
855.145	0.0144134
855.223	0.0144136
855.301	0.0144135
855.379	0.0144169
855.457	0.0143339
855.535	0.0144196
855.613	0.0143250
855.692	0.0143753
855.770	0.0143074
855.848	0.0143236
855.926	0.0145223
856.004	0.0143466
856.082	0.0144699
856.160	0.0145660
856.238	0.0144118
856.317	0.0144141
856.395	0.0143873
856.473	0.0143452
856.551	0.0143148
856.629	0.0144850
856.707	0.0144864
856.785	0.0144267
856.863	0.0143451
856.942	0.0143392
857.020	0.0142684
857.098	0.0142221
857.176	0.0143809
857.254	0.0143497
857.332	0.0142418
857.410	0.0142532
857.488	0.0144175
857.567	0.0142893
857.645	0.0142160
857.723	0.0142969
857.801	0.0141196
857.879	0.0143018
857.957	0.0142919
858.035	0.0141874
858.113	0.0142107
858.192	0.0143120
858.270	0.0142408
858.348	0.0141831
858.426	0.0142815
858.504	0.0143108
858.582	0.0143773
858.660	0.0143386
858.738	0.0142780
858.817	0.0143496
858.895	0.0143305
858.973	0.0143247
859.051	0.0142557
859.129	0.0142775
859.207	0.0143859
859.285	0.0143927
859.363	0.0143268
859.442	0.0142920
859.520	0.0142915
859.598	0.0142067
859.676	0.0144389
859.754	0.0144608
859.832	0.0142641
859.910	0.0144066
859.988	0.0142599
860.067	0.0142848
860.145	0.0143800
860.223	0.0142619
860.301	0.0142024
860.379	0.0143092
860.457	0.0144013
860.535	0.0142950
860.613	0.0143092
860.692	0.0143129
860.770	0.0144129
860.848	0.0144614
860.926	0.0144035
861.004	0.0142460
861.082	0.0144197
861.160	0.0142971
861.238	0.0143175
861.317	0.0143564
861.395	0.0143798
861.473	0.0143685
861.551	0.0143611
861.629	0.0143604
861.707	0.0142908
861.785	0.0142782
861.863	0.0142077
861.942	0.0142875
862.020	0.0142573
862.098	0.0143811
862.176	0.0143201
862.254	0.0142520
862.332	0.0142751
862.410	0.0143221
862.488	0.0142100
862.567	0.0142999
862.645	0.0142711
862.723	0.0143203
862.801	0.0142397
862.879	0.0142818
862.957	0.0142295
863.035	0.0142578
863.113	0.0142672
863.192	0.0144547
863.270	0.0144395
863.348	0.0144334
863.426	0.0142694
863.504	0.0142058
863.582	0.0143805
863.660	0.0143217
863.738	0.0141714
863.817	0.0142110
863.895	0.0143652
863.973	0.0143176
864.051	0.0143332
864.129	0.0143198
864.207	0.0143651
864.285	0.0142258
864.363	0.0143616
864.442	0.0143874
864.520	0.0143855
864.598	0.0144150
864.676	0.0143452
864.754	0.0143916
864.832	0.0144457
864.910	0.0143027
864.988	0.0143730
865.067	0.0144820
865.145	0.0144038
865.223	0.0142424
865.301	0.0144172
865.379	0.0143844
865.457	0.0143184
865.535	0.0143993
865.613	0.0144077
865.692	0.0142757
865.770	0.0143004
865.848	0.0144773
865.926	0.0143220
866.004	0.0143527
866.082	0.0144315
866.160	0.0143301
866.238	0.0142796
866.317	0.0145440
866.395	0.0145240
866.473	0.0143400
866.551	0.0143074
866.629	0.0144411
866.707	0.0143037
866.785	0.0142857
866.863	0.0144117
866.942	0.0142418
867.020	0.0142867
867.098	0.0142159
867.176	0.0141737
867.254	0.0142452
867.332	0.0141985
867.410	0.0142916
867.488	0.0143308
867.567	0.0143775
867.645	0.0141719
867.723	0.0141492
867.801	0.0142020
867.879	0.0142668
867.957	0.0143344
868.035	0.0143987
868.113	0.0142358
868.192	0.0143051
868.270	0.0141399
868.348	0.0143230
868.426	0.0144223
868.504	0.0142554
868.582	0.0142661
868.660	0.0143636
868.738	0.0144050
868.817	0.0144331
868.895	0.0143900
868.973	0.0144134
869.051	0.0144761
869.129	0.0145055
869.207	0.0145178
869.285	0.0145397
869.363	0.0145074
869.442	0.0144478
869.520	0.0144633
869.598	0.0144921
869.676	0.0144273
869.754	0.0145351
869.832	0.0142927
869.910	0.0145170
869.988	0.0143598
870.067	0.0143163
870.145	0.0143671
870.223	0.0143755
870.301	0.0143815
870.379	0.0143647
870.457	0.0143482
870.535	0.0142593
870.613	0.0142986
870.692	0.0143790
870.770	0.0143150
870.848	0.0142834
870.926	0.0143301
871.004	0.0142168
871.082	0.0142554
871.160	0.0142316
871.238	0.0143472
871.317	0.0143280
871.395	0.0142504
871.473	0.0142657
871.551	0.0144369
871.629	0.0144551
871.707	0.0143089
871.785	0.0143430
871.863	0.0144578
871.942	0.0145136
872.020	0.0145143
872.098	0.0143941
872.176	0.0144080
872.254	0.0144938
872.332	0.0145885
872.410	0.0144366
872.488	0.0143984
872.567	0.0144145
872.645	0.0143240
872.723	0.0145193
872.801	0.0143377
872.879	0.0144517
872.957	0.0143855
873.035	0.0143341
873.113	0.0143205
873.192	0.0143587
873.270	0.0142918
873.348	0.0142944
873.426	0.0143471
873.504	0.0141899
873.582	0.0142571
873.660	0.0142668
873.738	0.0144503
873.817	0.0144070
873.895	0.0140595
873.973	0.0141358
874.051	0.0142822
874.129	0.0144370
874.207	0.0144070
874.285	0.0142929
874.363	0.0143271
874.442	0.0143639
874.520	0.0142371
874.598	0.0142461
874.676	0.0142978
874.754	0.0143269
874.832	0.0144617
874.910	0.0143980
874.988	0.0144797
875.067	0.0145565
875.145	0.0143359
875.223	0.0143758
875.301	0.0144617
875.379	0.0144227
875.457	0.0143837
875.535	0.0143635
875.613	0.0146091
875.692	0.0144913
875.770	0.0143959
875.848	0.0144633
875.926	0.0145584
876.004	0.0143478
876.082	0.0144133
876.160	0.0144973
876.238	0.0144616
876.317	0.0143540
876.395	0.0145523
876.473	0.0144755
876.551	0.0143868
876.629	0.0142780
876.707	0.0144918
876.785	0.0144326
876.863	0.0143094
876.942	0.0142760
877.020	0.0143929
877.098	0.0144207
877.176	0.0142857
877.254	0.0143883
877.332	0.0142618
877.410	0.0144440
877.488	0.0144552
877.567	0.0143121
877.645	0.0143800
877.723	0.0143664
877.801	0.0144943
877.879	0.0143933
877.957	0.0144250
878.035	0.0144545
878.113	0.0144573
878.192	0.0144482
878.270	0.0143796
878.348	0.0143672
878.426	0.0144479
878.504	0.0144684
878.582	0.0144524
878.660	0.0144673
878.738	0.0144897
878.817	0.0143947
878.895	0.0143945
878.973	0.0143734
879.051	0.0143375
879.129	0.0142426
879.207	0.0143591
879.285	0.0142641
879.363	0.0143331
879.442	0.0144450
879.520	0.0143755
879.598	0.0143133
879.676	0.0143076
879.754	0.0143027
879.832	0.0143314
879.910	0.0143884
879.988	0.0143558
880.067	0.0142804
880.145	0.0143267
880.223	0.0144993
880.301	0.0143874
880.379	0.0143998
880.457	0.0145153
880.535	0.0143562
880.613	0.0144797
880.692	0.0144987
880.770	0.0143094
880.848	0.0144546
880.926	0.0144808
881.004	0.0144038
881.082	0.0142471
881.160	0.0145280
881.238	0.0144901
881.317	0.0144090
881.395	0.0144088
881.473	0.0144216
881.551	0.0143165
881.629	0.0144907
881.707	0.0143582
881.785	0.0142902
881.863	0.0142906
881.942	0.0142675
882.020	0.0143933
882.098	0.0144323
882.176	0.0142009
882.254	0.0143587
882.332	0.0142796
882.410	0.0143716
882.488	0.0143465
882.567	0.0142396
882.645	0.0142111
882.723	0.0142905
882.801	0.0142930
882.879	0.0143813
882.957	0.0143932
883.035	0.0142576
883.113	0.0143840
883.192	0.0143721
883.270	0.0144671
883.348	0.0143705
883.426	0.0143977
883.504	0.0144476
883.582	0.0143696
883.660	0.0142686
883.738	0.0144053
883.817	0.0146023
883.895	0.0143841
883.973	0.0143552
884.051	0.0144090
884.129	0.0144574
884.207	0.0144934
884.285	0.0144746
884.363	0.0145394
884.442	0.0143939
884.520	0.0144732
884.598	0.0145139
884.676	0.0143357
884.754	0.0144120
884.832	0.0143530
884.910	0.0143221
884.988	0.0142643
885.067	0.0143404
885.145	0.0144659
885.223	0.0143462
885.301	0.0142525
885.379	0.0143202
885.457	0.0143813
885.535	0.0143475
885.613	0.0143820
885.692	0.0143298
885.770	0.0143499
885.848	0.0143816
885.926	0.0144105
886.004	0.0145519
886.082	0.0146446
886.160	0.0144981
886.238	0.0143050
886.317	0.0143513
886.395	0.0143699
886.473	0.0143499
886.551	0.0143724
886.629	0.0143856
886.707	0.0143206
886.785	0.0142955
886.863	0.0142019
886.942	0.0144090
887.020	0.0143595
887.098	0.0145187
887.176	0.0144968
887.254	0.0144269
887.332	0.0143930
887.410	0.0144380
887.488	0.0144851
887.567	0.0144069
887.645	0.0144852
887.723	0.0145191
887.801	0.0144736
887.879	0.0144264
887.957	0.0143983
888.035	0.0144817
888.113	0.0143082
888.192	0.0144315
888.270	0.0143449
888.348	0.0143139
888.426	0.0143181
888.504	0.0143111
888.582	0.0143324
888.660	0.0143443
888.738	0.0142658
888.817	0.0141629
888.895	0.0142950
888.973	0.0141946
889.051	0.0141759
889.129	0.0142154
889.207	0.0142530
889.285	0.0141780
889.363	0.0142000
889.442	0.0141917
889.520	0.0141926
889.598	0.0142823
889.676	0.0142191
889.754	0.0143456
889.832	0.0144147
889.910	0.0142970
889.988	0.0143305
890.067	0.0143943
890.145	0.0143169
890.223	0.0142740
890.301	0.0143288
890.379	0.0143314
890.457	0.0141621
890.535	0.0143268
890.613	0.0143368
890.692	0.0143232
890.770	0.0145245
890.848	0.0142562
890.926	0.0144675
891.004	0.0143140
891.082	0.0142728
891.160	0.0143458
891.238	0.0142802
891.317	0.0143044
891.395	0.0144576
891.473	0.0144456
891.551	0.0142661
891.629	0.0142557
891.707	0.0144019
891.785	0.0144370
891.863	0.0143542
891.942	0.0143750
892.020	0.0143490
892.098	0.0143549
892.176	0.0143339
892.254	0.0143728
892.332	0.0144775
892.410	0.0144879
892.488	0.0144112
892.567	0.0143951
892.645	0.0143718
892.723	0.0143468
892.801	0.0144709
892.879	0.0144543
892.957	0.0144654
893.035	0.0143104
893.113	0.0143597
893.192	0.0145734
893.270	0.0144884
893.348	0.0145223
893.426	0.0145398
893.504	0.0143443
893.582	0.0144036
893.660	0.0144499
893.738	0.0144114
893.817	0.0144731
893.895	0.0144231
893.973	0.0142161
894.051	0.0143229
894.129	0.0143513
894.207	0.0145179
894.285	0.0144345
894.363	0.0143524
894.442	0.0143343
894.520	0.0142507
894.598	0.0143985
894.676	0.0144465
894.754	0.0145218
894.832	0.0144575
894.910	0.0143194
894.988	0.0143056
895.067	0.0143219
895.145	0.0141947
895.223	0.0144585
895.301	0.0143206
895.379	0.0143034
895.457	0.0143132
895.535	0.0143183
895.613	0.0143970
895.692	0.0144700
895.770	0.0143910
895.848	0.0143648
895.926	0.0143433
896.004	0.0144638
896.082	0.0144294
896.160	0.0143289
896.238	0.0143375
896.317	0.0143465
896.395	0.0144281
896.473	0.0144053
896.551	0.0144205
896.629	0.0142924
896.707	0.0143785
896.785	0.0143626
896.863	0.0143191
896.942	0.0143511
897.020	0.0143787
897.098	0.0144324
897.176	0.0143312
897.254	0.0144004
897.332	0.0143241
897.410	0.0142554
897.488	0.0144685
897.567	0.0145502
897.645	0.0143439
897.723	0.0144371
897.801	0.0143323
897.879	0.0144283
897.957	0.0143787
898.035	0.0144659
898.113	0.0144533
898.192	0.0145252
898.270	0.0145372
898.348	0.0144024
898.426	0.0143924
898.504	0.0145142
898.582	0.0144396
898.660	0.0143325
898.738	0.0144743
898.817	0.0144016
898.895	0.0144560
898.973	0.0143895
899.051	0.0144009
899.129	0.0144218
899.207	0.0142274
899.285	0.0144008
899.363	0.0144209
899.442	0.0143738
899.520	0.0144726
899.598	0.0144079
899.676	0.0145035
899.754	0.0144859
899.832	0.0145126
899.910	0.0143272
899.988	0.0143399
900.067	0.0144139
900.145	0.0144554
900.223	0.0143098
900.301	0.0143920
900.379	0.0145483
900.457	0.0143795
900.535	0.0142746
900.613	0.0143485
900.692	0.0143845
900.770	0.0142622
900.848	0.0144159
900.926	0.0143655
901.004	0.0142668
901.082	0.0143314
901.160	0.0143961
901.238	0.0144821
901.317	0.0143406
901.395	0.0143181
901.473	0.0144468
901.551	0.0142555
901.629	0.0143846
901.707	0.0143799
901.785	0.0141531
901.863	0.0141305
901.942	0.0143465
902.020	0.0144676
902.098	0.0144112
902.176	0.0143581
902.254	0.0143660
902.332	0.0144757
902.410	0.0145589
902.488	0.0145883
902.567	0.0144889
902.645	0.0145189
902.723	0.0146719
902.801	0.0145788
902.879	0.0145948
902.957	0.0145316
903.035	0.0145607
903.113	0.0145096
903.192	0.0145821
903.270	0.0144596
903.348	0.0144590
903.426	0.0143650
903.504	0.0144947
903.582	0.0144541
903.660	0.0144307
903.738	0.0142581
903.817	0.0144344
903.895	0.0143905
903.973	0.0144669
904.051	0.0143401
904.129	0.0142891
904.207	0.0143410
904.285	0.0143296
904.363	0.0144230
904.442	0.0144189
904.520	0.0143374
904.598	0.0143423
904.676	0.0144394
904.754	0.0143882
904.832	0.0143243
904.910	0.0144138
904.988	0.0144207
905.067	0.0143719
905.145	0.0143224
905.223	0.0143502
905.301	0.0142973
905.379	0.0143256
905.457	0.0143586
905.535	0.0143021
905.613	0.0143284
905.692	0.0143926
905.770	0.0144669
905.848	0.0143658
905.926	0.0141826
906.004	0.0142841
906.082	0.0143375
906.160	0.0143053
906.238	0.0144223
906.317	0.0144131
906.395	0.0142542
906.473	0.0143555
906.551	0.0144567
906.629	0.0144474
906.707	0.0144660
906.785	0.0145018
906.863	0.0144198
906.942	0.0143443
907.020	0.0144212
907.098	0.0144539
907.176	0.0144785
907.254	0.0144231
907.332	0.0143871
907.410	0.0144973
907.488	0.0144654
907.567	0.0144073
907.645	0.0144875
907.723	0.0144318
907.801	0.0143759
907.879	0.0143907
907.957	0.0143274
908.035	0.0144020
908.113	0.0145125
908.192	0.0145074
908.270	0.0144704
908.348	0.0144001
908.426	0.0143094
908.504	0.0143394
908.582	0.0143855
908.660	0.0144159
908.738	0.0144695
908.817	0.0143595
908.895	0.0143262
908.973	0.0144841
909.051	0.0144865
909.129	0.0144201
909.207	0.0145375
909.285	0.0144010
909.363	0.0144008
909.442	0.0144156
909.520	0.0143393
909.598	0.0145354
909.676	0.0143513
909.754	0.0142994
909.832	0.0145939
909.910	0.0144727
909.988	0.0143328
910.067	0.0143446
910.145	0.0143497
910.223	0.0143920
910.301	0.0143040
910.379	0.0143515
910.457	0.0143564
910.535	0.0144769
910.613	0.0142980
910.692	0.0142703
910.770	0.0143369
910.848	0.0144518
910.926	0.0142265
911.004	0.0143243
911.082	0.0142966
911.160	0.0143481
911.238	0.0144406
911.317	0.0144788
911.395	0.0143185
911.473	0.0143357
911.551	0.0144466
911.629	0.0144093
911.707	0.0143162
911.785	0.0143201
911.863	0.0144646
911.942	0.0143768
912.020	0.0142683
912.098	0.0143346
912.176	0.0143560
912.254	0.0141901
912.332	0.0143549
912.410	0.0143690
912.488	0.0143913
912.567	0.0142634
912.645	0.0142099
912.723	0.0143520
912.801	0.0142867
912.879	0.0143204
912.957	0.0141179
913.035	0.0142896
913.113	0.0143010
913.192	0.0143870
913.270	0.0141100
913.348	0.0141424
913.426	0.0143333
913.504	0.0142458
913.582	0.0142324
913.660	0.0143916
913.738	0.0143906
913.817	0.0143038
913.895	0.0143268
913.973	0.0141792
914.051	0.0143369
914.129	0.0143485
914.207	0.0143658
914.285	0.0142398
914.363	0.0143845
914.442	0.0142284
914.520	0.0143754
914.598	0.0143756
914.676	0.0142921
914.754	0.0142217
914.832	0.0142130
914.910	0.0142142
914.988	0.0143040
915.067	0.0143186
915.145	0.0143074
915.223	0.0142552
915.301	0.0143212
915.379	0.0142717
915.457	0.0142516
915.535	0.0142785
915.613	0.0143593
915.692	0.0142516
915.770	0.0142932
915.848	0.0143514
915.926	0.0142702
916.004	0.0143132
916.082	0.0144160
916.160	0.0144664
916.238	0.0142596
916.317	0.0142598
916.395	0.0142912
916.473	0.0143525
916.551	0.0143171
916.629	0.0143559
916.707	0.0142513
916.785	0.0143259
916.863	0.0143187
916.942	0.0141556
917.020	0.0142442
917.098	0.0143353
917.176	0.0141769
917.254	0.0142342
917.332	0.0142570
917.410	0.0143024
917.488	0.0142267
917.567	0.0141756
917.645	0.0142434
917.723	0.0143846
917.801	0.0143258
917.879	0.0142132
917.957	0.0142876
918.035	0.0142763
918.113	0.0143546
918.192	0.0143975
918.270	0.0142793
918.348	0.0142695
918.426	0.0142262
918.504	0.0143407
918.582	0.0142371
918.660	0.0143513
918.738	0.0142882
918.817	0.0142743
918.895	0.0143710
918.973	0.0143643
919.051	0.0143121
919.129	0.0143712
919.207	0.0143669
919.285	0.0144073
919.363	0.0143790
919.442	0.0144764
919.520	0.0143719
919.598	0.0143303
919.676	0.0144047
919.754	0.0143712
919.832	0.0143459
919.910	0.0144758
