05/28/2022	14:13:11	Ver.	4.1	UNKNOWN
Optical Delay	599.988409	Delta X		0.078125	Sweeps	1	Scan Rate	0/0
Coordinates	Axis 1	NaN	Axis 2	NaN	Axis 3	NaN	Axis 4	NaN	Axis 5	NaN	Axis 6	0.000000
TX Power	0.000000	RX Power	0.000000

599.988	0.0146046
600.067	0.0146587
600.145	0.0146471
600.223	0.0146053
600.301	0.0144946
600.379	0.0145403
600.457	0.0145137
600.535	0.0145408
600.613	0.0146152
600.692	0.0145432
600.770	0.0146566
600.848	0.0145192
600.926	0.0145075
601.004	0.0146243
601.082	0.0146098
601.160	0.0145328
601.238	0.0146529
601.317	0.0147022
601.395	0.0145461
601.473	0.0146063
601.551	0.0145212
601.629	0.0145538
601.707	0.0146046
601.785	0.0145313
601.863	0.0147093
601.942	0.0146343
602.020	0.0146258
602.098	0.0144801
602.176	0.0145851
602.254	0.0145377
602.332	0.0145940
602.410	0.0147263
602.488	0.0146387
602.567	0.0146217
602.645	0.0146457
602.723	0.0145918
602.801	0.0147163
602.879	0.0145541
602.957	0.0144904
603.035	0.0146095
603.113	0.0145181
603.192	0.0145156
603.270	0.0146469
603.348	0.0147361
603.426	0.0145057
603.504	0.0145155
603.582	0.0145322
603.660	0.0144521
603.738	0.0146983
603.817	0.0146132
603.895	0.0146463
603.973	0.0147177
604.051	0.0145705
604.129	0.0147135
604.207	0.0146706
604.285	0.0146132
604.363	0.0145208
604.442	0.0145731
604.520	0.0147064
604.598	0.0146278
604.676	0.0145866
604.754	0.0145651
604.832	0.0145945
604.910	0.0145206
604.988	0.0146891
605.067	0.0146378
605.145	0.0147509
605.223	0.0146247
605.301	0.0146678
605.379	0.0146702
605.457	0.0145110
605.535	0.0145972
605.613	0.0146892
605.692	0.0145875
605.770	0.0145413
605.848	0.0146310
605.926	0.0145179
606.004	0.0146494
606.082	0.0146719
606.160	0.0147364
606.238	0.0146574
606.317	0.0145519
606.395	0.0146407
606.473	0.0146499
606.551	0.0145003
606.629	0.0145519
606.707	0.0147337
606.785	0.0146086
606.863	0.0145628
606.942	0.0146913
607.020	0.0145900
607.098	0.0144903
607.176	0.0146528
607.254	0.0146286
607.332	0.0144730
607.410	0.0146512
607.488	0.0146077
607.567	0.0146069
607.645	0.0145490
607.723	0.0146522
607.801	0.0146005
607.879	0.0145831
607.957	0.0144845
608.035	0.0145576
608.113	0.0146033
608.192	0.0145843
608.270	0.0145793
608.348	0.0145490
608.426	0.0147506
608.504	0.0146616
608.582	0.0144675
608.660	0.0145955
608.738	0.0146360
608.817	0.0145507
608.895	0.0145124
608.973	0.0145681
609.051	0.0146343
609.129	0.0146928
609.207	0.0145411
609.285	0.0146923
609.363	0.0145679
609.442	0.0146574
609.520	0.0146137
609.598	0.0145784
609.676	0.0147312
609.754	0.0146805
609.832	0.0145924
609.910	0.0144337
609.988	0.0145392
610.067	0.0146770
610.145	0.0146309
610.223	0.0146868
610.301	0.0145480
610.379	0.0144646
610.457	0.0145613
610.535	0.0145360
610.613	0.0146845
610.692	0.0146194
610.770	0.0144904
610.848	0.0144681
610.926	0.0145001
611.004	0.0146218
611.082	0.0146509
611.160	0.0145048
611.238	0.0146500
611.317	0.0145551
611.395	0.0145468
611.473	0.0146298
611.551	0.0144779
611.629	0.0145690
611.707	0.0145939
611.785	0.0146457
611.863	0.0146973
611.942	0.0145522
612.020	0.0145533
612.098	0.0145664
612.176	0.0146072
612.254	0.0145543
612.332	0.0145274
612.410	0.0147057
612.488	0.0144793
612.567	0.0144656
612.645	0.0145653
612.723	0.0145872
612.801	0.0145666
612.879	0.0145367
612.957	0.0145910
613.035	0.0145730
613.113	0.0145009
613.192	0.0145918
613.270	0.0145871
613.348	0.0145762
613.426	0.0145583
613.504	0.0145118
613.582	0.0145648
613.660	0.0145480
613.738	0.0146178
613.817	0.0146085
613.895	0.0145587
613.973	0.0147367
614.051	0.0146010
614.129	0.0146386
614.207	0.0146233
614.285	0.0146252
614.363	0.0147456
614.442	0.0145853
614.520	0.0146439
614.598	0.0145831
614.676	0.0146601
614.754	0.0146861
614.832	0.0146059
614.910	0.0145761
614.988	0.0146812
615.067	0.0147295
615.145	0.0146971
615.223	0.0145359
615.301	0.0146055
615.379	0.0146690
615.457	0.0145456
615.535	0.0145234
615.613	0.0144925
615.692	0.0146767
615.770	0.0146550
615.848	0.0145022
615.926	0.0144405
616.004	0.0146703
616.082	0.0146629
616.160	0.0145065
616.238	0.0146503
616.317	0.0145325
616.395	0.0145307
616.473	0.0145372
616.551	0.0146591
616.629	0.0146558
616.707	0.0145963
616.785	0.0146554
616.863	0.0144860
616.942	0.0146501
617.020	0.0147826
617.098	0.0147045
617.176	0.0145972
617.254	0.0146433
617.332	0.0145120
617.410	0.0145580
617.488	0.0145639
617.567	0.0146233
617.645	0.0147257
617.723	0.0146375
617.801	0.0146536
617.879	0.0145369
617.957	0.0146466
618.035	0.0144759
618.113	0.0145551
618.192	0.0146651
618.270	0.0147131
618.348	0.0147897
618.426	0.0146404
618.504	0.0146739
618.582	0.0146872
618.660	0.0146095
618.738	0.0145385
618.817	0.0146176
618.895	0.0146739
618.973	0.0146016
619.051	0.0145356
619.129	0.0146772
619.207	0.0147641
619.285	0.0146349
619.363	0.0146184
619.442	0.0145853
619.520	0.0147473
619.598	0.0146445
619.676	0.0146974
619.754	0.0146235
619.832	0.0145435
619.910	0.0145238
619.988	0.0146121
620.067	0.0146593
620.145	0.0145957
620.223	0.0145650
620.301	0.0145106
620.379	0.0145972
620.457	0.0145972
620.535	0.0145691
620.613	0.0146947
620.692	0.0144921
620.770	0.0145153
620.848	0.0145764
620.926	0.0147061
621.004	0.0146756
621.082	0.0146352
621.160	0.0145523
621.238	0.0146478
621.317	0.0147359
621.395	0.0146100
621.473	0.0146465
621.551	0.0145972
621.629	0.0146801
621.707	0.0145496
621.785	0.0146225
621.863	0.0146124
621.942	0.0146303
622.020	0.0146055
622.098	0.0144816
622.176	0.0145031
622.254	0.0146786
622.332	0.0146585
622.410	0.0146943
622.488	0.0145114
622.567	0.0146585
622.645	0.0146209
622.723	0.0145922
622.801	0.0146021
622.879	0.0146101
622.957	0.0146510
623.035	0.0145306
623.113	0.0145111
623.192	0.0146625
623.270	0.0145823
623.348	0.0148067
623.426	0.0146974
623.504	0.0147108
623.582	0.0145676
623.660	0.0145835
623.738	0.0146004
623.817	0.0146864
623.895	0.0146824
623.973	0.0145558
624.051	0.0145744
624.129	0.0146821
624.207	0.0146937
624.285	0.0145419
624.363	0.0146380
624.442	0.0147649
624.520	0.0146172
624.598	0.0145638
624.676	0.0146664
624.754	0.0147332
624.832	0.0145406
624.910	0.0146096
624.988	0.0145582
625.067	0.0145413
625.145	0.0146573
625.223	0.0146062
625.301	0.0145692
625.379	0.0145216
625.457	0.0145580
625.535	0.0146310
625.613	0.0146818
625.692	0.0145500
625.770	0.0146565
625.848	0.0146907
625.926	0.0146996
626.004	0.0146101
626.082	0.0146917
626.160	0.0147409
626.238	0.0145412
626.317	0.0146653
626.395	0.0146719
626.473	0.0147052
626.551	0.0146936
626.629	0.0145636
626.707	0.0147448
626.785	0.0146754
626.863	0.0146414
626.942	0.0147159
627.020	0.0146416
627.098	0.0144997
627.176	0.0146417
627.254	0.0146185
627.332	0.0147163
627.410	0.0146548
627.488	0.0146403
627.567	0.0145161
627.645	0.0145715
627.723	0.0146730
627.801	0.0145702
627.879	0.0147222
627.957	0.0147057
628.035	0.0146794
628.113	0.0146245
628.192	0.0145077
628.270	0.0146124
628.348	0.0147179
628.426	0.0145534
628.504	0.0144479
628.582	0.0145555
628.660	0.0147252
628.738	0.0146083
628.817	0.0146009
628.895	0.0145689
628.973	0.0144916
629.051	0.0145512
629.129	0.0145925
629.207	0.0145559
629.285	0.0145139
629.363	0.0147052
629.442	0.0146349
629.520	0.0146830
629.598	0.0145531
629.676	0.0143902
629.754	0.0146796
629.832	0.0145964
629.910	0.0146056
629.988	0.0147238
630.067	0.0145885
630.145	0.0146668
630.223	0.0146595
630.301	0.0146537
630.379	0.0146167
630.457	0.0146357
630.535	0.0147116
630.613	0.0146829
630.692	0.0145280
630.770	0.0145702
630.848	0.0147404
630.926	0.0144832
631.004	0.0145934
631.082	0.0145888
631.160	0.0146967
631.238	0.0146487
631.317	0.0144936
631.395	0.0145828
631.473	0.0146745
631.551	0.0146601
631.629	0.0146196
631.707	0.0144955
631.785	0.0145361
631.863	0.0146571
631.942	0.0145947
632.020	0.0146249
632.098	0.0146430
632.176	0.0145815
632.254	0.0144854
632.332	0.0145738
632.410	0.0144969
632.488	0.0146411
632.567	0.0146786
632.645	0.0145844
632.723	0.0146255
632.801	0.0146191
632.879	0.0147209
632.957	0.0146407
633.035	0.0146611
633.113	0.0146056
633.192	0.0146156
633.270	0.0146516
633.348	0.0146854
633.426	0.0145512
633.504	0.0145155
633.582	0.0145375
633.660	0.0147063
633.738	0.0145878
633.817	0.0145721
633.895	0.0146204
633.973	0.0145586
634.051	0.0146812
634.129	0.0145676
634.207	0.0145252
634.285	0.0145634
634.363	0.0145361
634.442	0.0145370
634.520	0.0145359
634.598	0.0145987
634.676	0.0145454
634.754	0.0146179
634.832	0.0145979
634.910	0.0145514
634.988	0.0146474
635.067	0.0146821
635.145	0.0146761
635.223	0.0145737
635.301	0.0145828
635.379	0.0145337
635.457	0.0146265
635.535	0.0146816
635.613	0.0144713
635.692	0.0144827
635.770	0.0145676
635.848	0.0145506
635.926	0.0145994
636.004	0.0146264
636.082	0.0145990
636.160	0.0145033
636.238	0.0145437
636.317	0.0145823
636.395	0.0145707
636.473	0.0144264
636.551	0.0145602
636.629	0.0144569
636.707	0.0145163
636.785	0.0146398
636.863	0.0145083
636.942	0.0146175
637.020	0.0147359
637.098	0.0145980
637.176	0.0147150
637.254	0.0147369
637.332	0.0147058
637.410	0.0147810
637.488	0.0146406
637.567	0.0146366
637.645	0.0146413
637.723	0.0147247
637.801	0.0145553
637.879	0.0145063
637.957	0.0147321
638.035	0.0146204
638.113	0.0145727
638.192	0.0145941
638.270	0.0146622
638.348	0.0146480
638.426	0.0145661
638.504	0.0145656
638.582	0.0146867
638.660	0.0145100
638.738	0.0146357
638.817	0.0146288
638.895	0.0146685
638.973	0.0146866
639.051	0.0145995
639.129	0.0145113
639.207	0.0146767
639.285	0.0145732
639.363	0.0146719
639.442	0.0146902
639.520	0.0145454
639.598	0.0144807
639.676	0.0147565
639.754	0.0146445
639.832	0.0147027
639.910	0.0145634
639.988	0.0148547
640.067	0.0147613
640.145	0.0146518
640.223	0.0146999
640.301	0.0146567
640.379	0.0145718
640.457	0.0145482
640.535	0.0147477
640.613	0.0146614
640.692	0.0145218
640.770	0.0147343
640.848	0.0146391
640.926	0.0145800
641.004	0.0146518
641.082	0.0145596
641.160	0.0146718
641.238	0.0145004
641.317	0.0144924
641.395	0.0145441
641.473	0.0144758
641.551	0.0145725
641.629	0.0145025
641.707	0.0145459
641.785	0.0147472
641.863	0.0146987
641.942	0.0147222
642.020	0.0145995
642.098	0.0146821
642.176	0.0147379
642.254	0.0145535
642.332	0.0146323
642.410	0.0145744
642.488	0.0147147
642.567	0.0147041
642.645	0.0146609
642.723	0.0146143
642.801	0.0147298
642.879	0.0147011
642.957	0.0145284
643.035	0.0145319
643.113	0.0146829
643.192	0.0146262
643.270	0.0146980
643.348	0.0146541
643.426	0.0146668
643.504	0.0145983
643.582	0.0145962
643.660	0.0146293
643.738	0.0146976
643.817	0.0147274
643.895	0.0145958
643.973	0.0146639
644.051	0.0148087
644.129	0.0146625
644.207	0.0146832
644.285	0.0146180
644.363	0.0147047
644.442	0.0146294
644.520	0.0147214
644.598	0.0146829
644.676	0.0146442
644.754	0.0146844
644.832	0.0145272
644.910	0.0146972
644.988	0.0145819
645.067	0.0147520
645.145	0.0146686
645.223	0.0146030
645.301	0.0147571
645.379	0.0146012
645.457	0.0146409
645.535	0.0145074
645.613	0.0145325
645.692	0.0144893
645.770	0.0145132
645.848	0.0145869
645.926	0.0146337
646.004	0.0145921
646.082	0.0145294
646.160	0.0145411
646.238	0.0146082
646.317	0.0147643
646.395	0.0146323
646.473	0.0145520
646.551	0.0145726
646.629	0.0147117
646.707	0.0146734
646.785	0.0144110
646.863	0.0145496
646.942	0.0144618
647.020	0.0145708
647.098	0.0145774
647.176	0.0145868
647.254	0.0144593
647.332	0.0146151
647.410	0.0147070
647.488	0.0146646
647.567	0.0145941
647.645	0.0147147
647.723	0.0147283
647.801	0.0144835
647.879	0.0145741
647.957	0.0144332
648.035	0.0145464
648.113	0.0145271
648.192	0.0144773
648.270	0.0145879
648.348	0.0145383
648.426	0.0144989
648.504	0.0144758
648.582	0.0145419
648.660	0.0146708
648.738	0.0144855
648.817	0.0146210
648.895	0.0146869
648.973	0.0144302
649.051	0.0146046
649.129	0.0146872
649.207	0.0147793
649.285	0.0147285
649.363	0.0145923
649.442	0.0147535
649.520	0.0146452
649.598	0.0147263
649.676	0.0147439
649.754	0.0147486
649.832	0.0146310
649.910	0.0146555
649.988	0.0148233
650.067	0.0147219
650.145	0.0147588
650.223	0.0146305
650.301	0.0145647
650.379	0.0144222
650.457	0.0143540
650.535	0.0145074
650.613	0.0143826
650.692	0.0144878
650.770	0.0142773
650.848	0.0143336
650.926	0.0142722
651.004	0.0144133
651.082	0.0144367
651.160	0.0144308
651.238	0.0145000
651.317	0.0144799
651.395	0.0145451
651.473	0.0145592
651.551	0.0145541
651.629	0.0145659
651.707	0.0145385
651.785	0.0145803
651.863	0.0146660
651.942	0.0146286
652.020	0.0147461
652.098	0.0147919
652.176	0.0148630
652.254	0.0147340
652.332	0.0146345
652.410	0.0147089
652.488	0.0147750
652.567	0.0146502
652.645	0.0147209
652.723	0.0147102
652.801	0.0146442
652.879	0.0146619
652.957	0.0148666
653.035	0.0147185
653.113	0.0148127
653.192	0.0148849
653.270	0.0148804
653.348	0.0147194
653.426	0.0149341
653.504	0.0147863
653.582	0.0147472
653.660	0.0148028
653.738	0.0146932
653.817	0.0146114
653.895	0.0145512
653.973	0.0145545
654.051	0.0144796
654.129	0.0144498
654.207	0.0144560
654.285	0.0142395
654.363	0.0144134
654.442	0.0143416
654.520	0.0143414
654.598	0.0143576
654.676	0.0142480
654.754	0.0144851
654.832	0.0143855
654.910	0.0144545
654.988	0.0143637
655.067	0.0142769
655.145	0.0142397
655.223	0.0142956
655.301	0.0142648
655.379	0.0143126
655.457	0.0141213
655.535	0.0140539
655.613	0.0140753
655.692	0.0142326
655.770	0.0141520
655.848	0.0141781
655.926	0.0143446
656.004	0.0144890
656.082	0.0146436
656.160	0.0146854
656.238	0.0147544
656.317	0.0148838
656.395	0.0148872
656.473	0.0149811
656.551	0.0149390
656.629	0.0149783
656.707	0.0150446
656.785	0.0149696
656.863	0.0149284
656.942	0.0150781
657.020	0.0150016
657.098	0.0150828
657.176	0.0150236
657.254	0.0150188
657.332	0.0149912
657.410	0.0149117
657.488	0.0149157
657.567	0.0150885
657.645	0.0148364
657.723	0.0148648
657.801	0.0146873
657.879	0.0147247
657.957	0.0148103
658.035	0.0147585
658.113	0.0147369
658.192	0.0147909
658.270	0.0147398
658.348	0.0146845
658.426	0.0147796
658.504	0.0148391
658.582	0.0147644
658.660	0.0147271
658.738	0.0146084
658.817	0.0147504
658.895	0.0145854
658.973	0.0143124
659.051	0.0141034
659.129	0.0142101
659.207	0.0140182
659.285	0.0139043
659.363	0.0137000
659.442	0.0136628
659.520	0.0136335
659.598	0.0135170
659.676	0.0135298
659.754	0.0136057
659.832	0.0136410
659.910	0.0136490
659.988	0.0137418
660.067	0.0139958
660.145	0.0141420
660.223	0.0142331
660.301	0.0145217
660.379	0.0147854
660.457	0.0147153
660.535	0.0150248
660.613	0.0152030
660.692	0.0151928
660.770	0.0152116
660.848	0.0151467
660.926	0.0152998
661.004	0.0151466
661.082	0.0152659
661.160	0.0150832
661.238	0.0151475
661.317	0.0150935
661.395	0.0151160
661.473	0.0151716
661.551	0.0152097
661.629	0.0151509
661.707	0.0151146
661.785	0.0151774
661.863	0.0148672
661.942	0.0150172
662.020	0.0149905
662.098	0.0149623
662.176	0.0147566
662.254	0.0149316
662.332	0.0147765
662.410	0.0148476
662.488	0.0148356
662.567	0.0149299
662.645	0.0148702
662.723	0.0149268
662.801	0.0146846
662.879	0.0147002
662.957	0.0147295
663.035	0.0147371
663.113	0.0146725
663.192	0.0144789
663.270	0.0143854
663.348	0.0143875
663.426	0.0144418
663.504	0.0141340
663.582	0.0142719
663.660	0.0142691
663.738	0.0141172
663.817	0.0141059
663.895	0.0142399
663.973	0.0140194
664.051	0.0140523
664.129	0.0141935
664.207	0.0141562
664.285	0.0141752
664.363	0.0140553
664.442	0.0141098
664.520	0.0141278
664.598	0.0140817
664.676	0.0140682
664.754	0.0140462
664.832	0.0141805
664.910	0.0140067
664.988	0.0141137
665.067	0.0141101
665.145	0.0141540
665.223	0.0140622
665.301	0.0141629
665.379	0.0141648
665.457	0.0143281
665.535	0.0144312
665.613	0.0145453
665.692	0.0145440
665.770	0.0147274
665.848	0.0147755
665.926	0.0149652
666.004	0.0151932
666.082	0.0152673
666.160	0.0152374
666.238	0.0153401
666.317	0.0153656
666.395	0.0156217
666.473	0.0155119
666.551	0.0154620
666.629	0.0154647
666.707	0.0153667
666.785	0.0152969
666.863	0.0153510
666.942	0.0151216
667.020	0.0150154
667.098	0.0150738
667.176	0.0150480
667.254	0.0149290
667.332	0.0149657
667.410	0.0150348
667.488	0.0147299
667.567	0.0144981
667.645	0.0146706
667.723	0.0146797
667.801	0.0146659
667.879	0.0145984
667.957	0.0145309
668.035	0.0145636
668.113	0.0144608
668.192	0.0145300
668.270	0.0145746
668.348	0.0144917
668.426	0.0143778
668.504	0.0142845
668.582	0.0142624
668.660	0.0142086
668.738	0.0141114
668.817	0.0142021
668.895	0.0140685
668.973	0.0140444
669.051	0.0140215
669.129	0.0141427
669.207	0.0139894
669.285	0.0141251
669.363	0.0140162
669.442	0.0138844
669.520	0.0139094
669.598	0.0140455
669.676	0.0141842
669.754	0.0140336
669.832	0.0140907
669.910	0.0140992
669.988	0.0143459
670.067	0.0143158
670.145	0.0143771
670.223	0.0143938
670.301	0.0144934
670.379	0.0145365
670.457	0.0145996
670.535	0.0145967
670.613	0.0145548
670.692	0.0146221
670.770	0.0146198
670.848	0.0147513
670.926	0.0147192
671.004	0.0147205
671.082	0.0147509
671.160	0.0146765
671.238	0.0147088
671.317	0.0146727
671.395	0.0146113
671.473	0.0147645
671.551	0.0147804
671.629	0.0146674
671.707	0.0147099
671.785	0.0149416
671.863	0.0148551
671.942	0.0151809
672.020	0.0151102
672.098	0.0152145
672.176	0.0152203
672.254	0.0153969
672.332	0.0154504
672.410	0.0155214
672.488	0.0153919
672.567	0.0153819
672.645	0.0153036
672.723	0.0153722
672.801	0.0151738
672.879	0.0149700
672.957	0.0147589
673.035	0.0146795
673.113	0.0144506
673.192	0.0143407
673.270	0.0142622
673.348	0.0141323
673.426	0.0141662
673.504	0.0139510
673.582	0.0137679
673.660	0.0137875
673.738	0.0137698
673.817	0.0138042
673.895	0.0137596
673.973	0.0138092
674.051	0.0137849
674.129	0.0137909
674.207	0.0138374
674.285	0.0140279
674.363	0.0141600
674.442	0.0142515
674.520	0.0142854
674.598	0.0143672
674.676	0.0143925
674.754	0.0144388
674.832	0.0147562
674.910	0.0147005
674.988	0.0147206
675.067	0.0148971
675.145	0.0148889
675.223	0.0150047
675.301	0.0149902
675.379	0.0150192
675.457	0.0150919
675.535	0.0152312
675.613	0.0150541
675.692	0.0149010
675.770	0.0147992
675.848	0.0148022
675.926	0.0148280
676.004	0.0146369
676.082	0.0143865
676.160	0.0143615
676.238	0.0140137
676.317	0.0138264
676.395	0.0138490
676.473	0.0137149
676.551	0.0137125
676.629	0.0137602
676.707	0.0137650
676.785	0.0136529
676.863	0.0136809
676.942	0.0138068
677.020	0.0139774
677.098	0.0139043
677.176	0.0142368
677.254	0.0144776
677.332	0.0145966
677.410	0.0146082
677.488	0.0148064
677.567	0.0150410
677.645	0.0151850
677.723	0.0151901
677.801	0.0153561
677.879	0.0154433
677.957	0.0154025
678.035	0.0154377
678.113	0.0154890
678.192	0.0155184
678.270	0.0154415
678.348	0.0154571
678.426	0.0152721
678.504	0.0153111
678.582	0.0153181
678.660	0.0151089
678.738	0.0151728
678.817	0.0150355
678.895	0.0151448
678.973	0.0151086
679.051	0.0149143
679.129	0.0148692
679.207	0.0147758
679.285	0.0146404
679.363	0.0144648
679.442	0.0142909
679.520	0.0141656
679.598	0.0141113
679.676	0.0140809
679.754	0.0140108
679.832	0.0136920
679.910	0.0137988
679.988	0.0137930
680.067	0.0137694
680.145	0.0137899
680.223	0.0138110
680.301	0.0139656
680.379	0.0140451
680.457	0.0141337
680.535	0.0141734
680.613	0.0143056
680.692	0.0142538
680.770	0.0144386
680.848	0.0145924
680.926	0.0145659
681.004	0.0146076
681.082	0.0146425
681.160	0.0146574
681.238	0.0147310
681.317	0.0147623
681.395	0.0148644
681.473	0.0148516
681.551	0.0148312
681.629	0.0147249
681.707	0.0147985
681.785	0.0148223
681.863	0.0145507
681.942	0.0145535
682.020	0.0145324
682.098	0.0145022
682.176	0.0143759
682.254	0.0141606
682.332	0.0140921
682.410	0.0140541
682.488	0.0139616
682.567	0.0139944
682.645	0.0140556
682.723	0.0139657
682.801	0.0141151
682.879	0.0140781
682.957	0.0141396
683.035	0.0142336
683.113	0.0143562
683.192	0.0144599
683.270	0.0145953
683.348	0.0145972
683.426	0.0147636
683.504	0.0149594
683.582	0.0151668
683.660	0.0150842
683.738	0.0152366
683.817	0.0154066
683.895	0.0154977
683.973	0.0155112
684.051	0.0156758
684.129	0.0155468
684.207	0.0156326
684.285	0.0156765
684.363	0.0154823
684.442	0.0154721
684.520	0.0154221
684.598	0.0153353
684.676	0.0152527
684.754	0.0151604
684.832	0.0150627
684.910	0.0149439
684.988	0.0147852
685.067	0.0146773
685.145	0.0145699
685.223	0.0144625
685.301	0.0143269
685.379	0.0143962
685.457	0.0145053
685.535	0.0144925
685.613	0.0143934
685.692	0.0143609
685.770	0.0143768
685.848	0.0144260
685.926	0.0144410
686.004	0.0144660
686.082	0.0145700
686.160	0.0145526
686.238	0.0145213
686.317	0.0146318
686.395	0.0145386
686.473	0.0145440
686.551	0.0145609
686.629	0.0143864
686.707	0.0142410
686.785	0.0142036
686.863	0.0142610
686.942	0.0139917
687.020	0.0139206
687.098	0.0139082
687.176	0.0138377
687.254	0.0138574
687.332	0.0136381
687.410	0.0137503
687.488	0.0137019
687.567	0.0137265
687.645	0.0137176
687.723	0.0135513
687.801	0.0137282
687.879	0.0138853
687.957	0.0138158
688.035	0.0139149
688.113	0.0139116
688.192	0.0141449
688.270	0.0142176
688.348	0.0142274
688.426	0.0143231
688.504	0.0144703
688.582	0.0145885
688.660	0.0147803
688.738	0.0149959
688.817	0.0151404
688.895	0.0152647
688.973	0.0154303
689.051	0.0157470
689.129	0.0157674
689.207	0.0160664
689.285	0.0162167
689.363	0.0162926
689.442	0.0164758
689.520	0.0164486
689.598	0.0164701
689.676	0.0163989
689.754	0.0163484
689.832	0.0160946
689.910	0.0160188
689.988	0.0157791
690.067	0.0156455
690.145	0.0153304
690.223	0.0150081
690.301	0.0147408
690.379	0.0146342
690.457	0.0143102
690.535	0.0140279
690.613	0.0140947
690.692	0.0138141
690.770	0.0136050
690.848	0.0135660
690.926	0.0137119
691.004	0.0136567
691.082	0.0136298
691.160	0.0136282
691.238	0.0135635
691.317	0.0136564
691.395	0.0135567
691.473	0.0135311
691.551	0.0136885
691.629	0.0136613
691.707	0.0136871
691.785	0.0136876
691.863	0.0136771
691.942	0.0138028
692.020	0.0138074
692.098	0.0140311
692.176	0.0140726
692.254	0.0142445
692.332	0.0142197
692.410	0.0143463
692.488	0.0143320
692.567	0.0144771
692.645	0.0145491
692.723	0.0146516
692.801	0.0148106
692.879	0.0147884
692.957	0.0148103
693.035	0.0147767
693.113	0.0149226
693.192	0.0149908
693.270	0.0150442
693.348	0.0149687
693.426	0.0151003
693.504	0.0151096
693.582	0.0150319
693.660	0.0149528
693.738	0.0149432
693.817	0.0150433
693.895	0.0148740
693.973	0.0148505
694.051	0.0149217
694.129	0.0150145
694.207	0.0148947
694.285	0.0148739
694.363	0.0150190
694.442	0.0149956
694.520	0.0149342
694.598	0.0147675
694.676	0.0148823
694.754	0.0148412
694.832	0.0147774
694.910	0.0147507
694.988	0.0146263
695.067	0.0145627
695.145	0.0145448
695.223	0.0144046
695.301	0.0144001
695.379	0.0143316
695.457	0.0142743
695.535	0.0143331
695.613	0.0144167
695.692	0.0144290
695.770	0.0144416
695.848	0.0144816
695.926	0.0145901
696.004	0.0146514
696.082	0.0146326
696.160	0.0147263
696.238	0.0147507
696.317	0.0147057
696.395	0.0147672
696.473	0.0146777
696.551	0.0146663
696.629	0.0144678
696.707	0.0146146
696.785	0.0144514
696.863	0.0142408
696.942	0.0141096
697.020	0.0142368
697.098	0.0142836
697.176	0.0141571
697.254	0.0140589
697.332	0.0140816
697.410	0.0140886
697.488	0.0141360
697.567	0.0143127
697.645	0.0142449
697.723	0.0142056
697.801	0.0143755
697.879	0.0145663
697.957	0.0146842
698.035	0.0147072
698.113	0.0150118
698.192	0.0151364
698.270	0.0150920
698.348	0.0152258
698.426	0.0152856
698.504	0.0154815
698.582	0.0154302
698.660	0.0154045
698.738	0.0154362
698.817	0.0155662
698.895	0.0154487
698.973	0.0154075
699.051	0.0154314
699.129	0.0153495
699.207	0.0152097
699.285	0.0150951
699.363	0.0150641
699.442	0.0149461
699.520	0.0148959
699.598	0.0146360
699.676	0.0143843
699.754	0.0142924
699.832	0.0141926
699.910	0.0142704
699.988	0.0139109
700.067	0.0138890
700.145	0.0137469
700.223	0.0137121
700.301	0.0137122
700.379	0.0137154
700.457	0.0138307
700.535	0.0137749
700.613	0.0138899
700.692	0.0137282
700.770	0.0138609
700.848	0.0139278
700.926	0.0138889
701.004	0.0140208
701.082	0.0140110
701.160	0.0141919
701.238	0.0140733
701.317	0.0142955
701.395	0.0143716
701.473	0.0143861
701.551	0.0142920
701.629	0.0143536
701.707	0.0144259
701.785	0.0146275
701.863	0.0148435
701.942	0.0147874
702.020	0.0147145
702.098	0.0148859
702.176	0.0151351
702.254	0.0149446
702.332	0.0150215
702.410	0.0152013
702.488	0.0151201
702.567	0.0150819
702.645	0.0152247
702.723	0.0150659
702.801	0.0151785
702.879	0.0152502
702.957	0.0152435
703.035	0.0151759
703.113	0.0155549
703.192	0.0153907
703.270	0.0153165
703.348	0.0154766
703.426	0.0155641
703.504	0.0156902
703.582	0.0155494
703.660	0.0154798
703.738	0.0154778
703.817	0.0155745
703.895	0.0153026
703.973	0.0153150
704.051	0.0150896
704.129	0.0148151
704.207	0.0145291
704.285	0.0143166
704.363	0.0140920
704.442	0.0139228
704.520	0.0137576
704.598	0.0135564
704.676	0.0134801
704.754	0.0133208
704.832	0.0132176
704.910	0.0132217
704.988	0.0132201
705.067	0.0131938
705.145	0.0132436
705.223	0.0131174
705.301	0.0133748
705.379	0.0133590
705.457	0.0135673
705.535	0.0136829
705.613	0.0137465
705.692	0.0137617
705.770	0.0139216
705.848	0.0140627
705.926	0.0143752
706.004	0.0144457
706.082	0.0145827
706.160	0.0145690
706.238	0.0148084
706.317	0.0151193
706.395	0.0151489
706.473	0.0151561
706.551	0.0152882
706.629	0.0154559
706.707	0.0154319
706.785	0.0154961
706.863	0.0156342
706.942	0.0155820
707.020	0.0154579
707.098	0.0153957
707.176	0.0154062
707.254	0.0152518
707.332	0.0150552
707.410	0.0151132
707.488	0.0149232
707.567	0.0149517
707.645	0.0146849
707.723	0.0146440
707.801	0.0146463
707.879	0.0146410
707.957	0.0145898
708.035	0.0146654
708.113	0.0145691
708.192	0.0144479
708.270	0.0145101
708.348	0.0147104
708.426	0.0146320
708.504	0.0145531
708.582	0.0145012
708.660	0.0145191
708.738	0.0143779
708.817	0.0142284
708.895	0.0144199
708.973	0.0142269
709.051	0.0142364
709.129	0.0140902
709.207	0.0142467
709.285	0.0141686
709.363	0.0142595
709.442	0.0141172
709.520	0.0141088
709.598	0.0144077
709.676	0.0143622
709.754	0.0142303
709.832	0.0141960
709.910	0.0143597
709.988	0.0144349
710.067	0.0144501
710.145	0.0144898
710.223	0.0146398
710.301	0.0145486
710.379	0.0146587
710.457	0.0146134
710.535	0.0147233
710.613	0.0146745
710.692	0.0145544
710.770	0.0146398
710.848	0.0146203
710.926	0.0147994
711.004	0.0147557
711.082	0.0146851
711.160	0.0147795
711.238	0.0146943
711.317	0.0147663
711.395	0.0146506
711.473	0.0146651
711.551	0.0146857
711.629	0.0145661
711.707	0.0145633
711.785	0.0146025
711.863	0.0146126
711.942	0.0146905
712.020	0.0144115
712.098	0.0145031
712.176	0.0144496
712.254	0.0143256
712.332	0.0145692
712.410	0.0146471
712.488	0.0146510
712.567	0.0146816
712.645	0.0145839
712.723	0.0146705
712.801	0.0146864
712.879	0.0146864
712.957	0.0147318
713.035	0.0146744
713.113	0.0148178
713.192	0.0148090
713.270	0.0147269
713.348	0.0147791
713.426	0.0147839
713.504	0.0146600
713.582	0.0146288
713.660	0.0146427
713.738	0.0146181
713.817	0.0144736
713.895	0.0145638
713.973	0.0145310
714.051	0.0146053
714.129	0.0145625
714.207	0.0145940
714.285	0.0144247
714.363	0.0145362
714.442	0.0145200
714.520	0.0145065
714.598	0.0144611
714.676	0.0145445
714.754	0.0145242
714.832	0.0146101
714.910	0.0147562
714.988	0.0147157
715.067	0.0146940
715.145	0.0147396
715.223	0.0147565
715.301	0.0147974
715.379	0.0147832
715.457	0.0148546
715.535	0.0147851
715.613	0.0148273
715.692	0.0147984
715.770	0.0147189
715.848	0.0145893
715.926	0.0145660
716.004	0.0144007
716.082	0.0144798
716.160	0.0144447
716.238	0.0143617
716.317	0.0142983
716.395	0.0143288
716.473	0.0143822
716.551	0.0143959
716.629	0.0142975
716.707	0.0145070
716.785	0.0144610
716.863	0.0146172
716.942	0.0146027
717.020	0.0146928
717.098	0.0146066
717.176	0.0146323
717.254	0.0147968
717.332	0.0146771
717.410	0.0148185
717.488	0.0147924
717.567	0.0148023
717.645	0.0147921
717.723	0.0146687
717.801	0.0146484
717.879	0.0145934
717.957	0.0147002
718.035	0.0146693
718.113	0.0144199
718.192	0.0144355
718.270	0.0143762
718.348	0.0143597
718.426	0.0145651
718.504	0.0146132
718.582	0.0144981
718.660	0.0144289
718.738	0.0145397
718.817	0.0145036
718.895	0.0146816
718.973	0.0146500
719.051	0.0148283
719.129	0.0147934
719.207	0.0147978
719.285	0.0148495
719.363	0.0147388
719.442	0.0148798
719.520	0.0149118
719.598	0.0149674
719.676	0.0150113
719.754	0.0148762
719.832	0.0149230
719.910	0.0151131
719.988	0.0149270
720.067	0.0147787
720.145	0.0147823
720.223	0.0148134
720.301	0.0147668
720.379	0.0146418
720.457	0.0146568
720.535	0.0145615
720.613	0.0146764
720.692	0.0143707
720.770	0.0145635
720.848	0.0143103
720.926	0.0143543
721.004	0.0143340
721.082	0.0144182
721.160	0.0144497
721.238	0.0143581
721.317	0.0143123
721.395	0.0144560
721.473	0.0144921
721.551	0.0146634
721.629	0.0146063
721.707	0.0145598
721.785	0.0145535
721.863	0.0146286
721.942	0.0146957
722.020	0.0146995
722.098	0.0146810
722.176	0.0147292
722.254	0.0146622
722.332	0.0146111
722.410	0.0146774
722.488	0.0145934
722.567	0.0144630
722.645	0.0145713
722.723	0.0145246
722.801	0.0144357
722.879	0.0145404
722.957	0.0146055
723.035	0.0145956
723.113	0.0144968
723.192	0.0145910
723.270	0.0148196
723.348	0.0147093
723.426	0.0146067
723.504	0.0147313
723.582	0.0146593
723.660	0.0146995
723.738	0.0147816
723.817	0.0147530
723.895	0.0146346
723.973	0.0147159
724.051	0.0145649
724.129	0.0146487
724.207	0.0147093
724.285	0.0146323
724.363	0.0147776
724.442	0.0147998
724.520	0.0146381
724.598	0.0145324
724.676	0.0146957
724.754	0.0148017
724.832	0.0147180
724.910	0.0147773
724.988	0.0147300
725.067	0.0145986
725.145	0.0146745
725.223	0.0144720
725.301	0.0146227
725.379	0.0145920
725.457	0.0145174
725.535	0.0145403
725.613	0.0144932
725.692	0.0144045
725.770	0.0144547
725.848	0.0143629
725.926	0.0144801
726.004	0.0143402
726.082	0.0144941
726.160	0.0144458
726.238	0.0143940
726.317	0.0144969
726.395	0.0143747
726.473	0.0144057
726.551	0.0144650
726.629	0.0146146
726.707	0.0146679
726.785	0.0146751
726.863	0.0147389
726.942	0.0147783
727.020	0.0145924
727.098	0.0147848
727.176	0.0148793
727.254	0.0149313
727.332	0.0148878
727.410	0.0147858
727.488	0.0149892
727.567	0.0149882
727.645	0.0147969
727.723	0.0147829
727.801	0.0147158
727.879	0.0147501
727.957	0.0147076
728.035	0.0146213
728.113	0.0146996
728.192	0.0146243
728.270	0.0143359
728.348	0.0144778
728.426	0.0143167
728.504	0.0144965
728.582	0.0144453
728.660	0.0142371
728.738	0.0143241
728.817	0.0143375
728.895	0.0144643
728.973	0.0143747
729.051	0.0143793
729.129	0.0143262
729.207	0.0144570
729.285	0.0146183
729.363	0.0146504
729.442	0.0145107
729.520	0.0145798
729.598	0.0147668
729.676	0.0147800
729.754	0.0147035
729.832	0.0145798
729.910	0.0147228
729.988	0.0145592
730.067	0.0145740
730.145	0.0144554
730.223	0.0145924
730.301	0.0145808
730.379	0.0144886
730.457	0.0144188
730.535	0.0145155
730.613	0.0144122
730.692	0.0143172
730.770	0.0145357
730.848	0.0145611
730.926	0.0145383
731.004	0.0146024
731.082	0.0146223
731.160	0.0147257
731.238	0.0148623
731.317	0.0146579
731.395	0.0148746
731.473	0.0149056
731.551	0.0147810
731.629	0.0148377
731.707	0.0148711
731.785	0.0149106
731.863	0.0148242
731.942	0.0147070
732.020	0.0148740
732.098	0.0147588
732.176	0.0147138
732.254	0.0145085
732.332	0.0146332
732.410	0.0144804
732.488	0.0144099
732.567	0.0145210
732.645	0.0144784
732.723	0.0143836
732.801	0.0143535
732.879	0.0142537
732.957	0.0143465
733.035	0.0143839
733.113	0.0143687
733.192	0.0144301
733.270	0.0143304
733.348	0.0145200
733.426	0.0144672
733.504	0.0145785
733.582	0.0145681
733.660	0.0146822
733.738	0.0145734
733.817	0.0146646
733.895	0.0146712
733.973	0.0145753
734.051	0.0148170
734.129	0.0148718
734.207	0.0147581
734.285	0.0147517
734.363	0.0148439
734.442	0.0148782
734.520	0.0148102
734.598	0.0147433
734.676	0.0146657
734.754	0.0146555
734.832	0.0147243
734.910	0.0147394
734.988	0.0147624
735.067	0.0147881
735.145	0.0149352
735.223	0.0148488
735.301	0.0146323
735.379	0.0147364
735.457	0.0146033
735.535	0.0147021
735.613	0.0146605
735.692	0.0146306
735.770	0.0148308
735.848	0.0145914
735.926	0.0145432
736.004	0.0143476
736.082	0.0143931
736.160	0.0145187
736.238	0.0143629
736.317	0.0144641
736.395	0.0143319
736.473	0.0143696
736.551	0.0144318
736.629	0.0143546
736.707	0.0144019
736.785	0.0144076
736.863	0.0144889
736.942	0.0145209
737.020	0.0146649
737.098	0.0145165
737.176	0.0145560
737.254	0.0146117
737.332	0.0146536
737.410	0.0146670
737.488	0.0146689
737.567	0.0146478
737.645	0.0145821
737.723	0.0146134
737.801	0.0145403
737.879	0.0147585
737.957	0.0146984
738.035	0.0145712
738.113	0.0145815
738.192	0.0146756
738.270	0.0146810
738.348	0.0147145
738.426	0.0146243
738.504	0.0146593
738.582	0.0145866
738.660	0.0147918
738.738	0.0146679
738.817	0.0146871
738.895	0.0146528
738.973	0.0146942
739.051	0.0147050
739.129	0.0147490
739.207	0.0146799
739.285	0.0146306
739.363	0.0147624
739.442	0.0147430
739.520	0.0147433
739.598	0.0147935
739.676	0.0147157
739.754	0.0146259
739.832	0.0147346
739.910	0.0147300
739.988	0.0147727
740.067	0.0146108
740.145	0.0146561
740.223	0.0146101
740.301	0.0146092
740.379	0.0146745
740.457	0.0146876
740.535	0.0145522
740.613	0.0145531
740.692	0.0145693
740.770	0.0145782
740.848	0.0146428
740.926	0.0144712
741.004	0.0146141
741.082	0.0145649
741.160	0.0147066
741.238	0.0145750
741.317	0.0145100
741.395	0.0145754
741.473	0.0145502
741.551	0.0145518
741.629	0.0145272
741.707	0.0145754
741.785	0.0145396
741.863	0.0145541
741.942	0.0146060
742.020	0.0146262
742.098	0.0145919
742.176	0.0146990
742.254	0.0146339
742.332	0.0147132
742.410	0.0146487
742.488	0.0144964
742.567	0.0145441
742.645	0.0145329
742.723	0.0146777
742.801	0.0145167
742.879	0.0144015
742.957	0.0144965
743.035	0.0146568
743.113	0.0144452
743.192	0.0144312
743.270	0.0144088
743.348	0.0144922
743.426	0.0145694
743.504	0.0145319
743.582	0.0146548
743.660	0.0146033
743.738	0.0145644
743.817	0.0147818
743.895	0.0146729
743.973	0.0148040
744.051	0.0147287
744.129	0.0146642
744.207	0.0146883
744.285	0.0146689
744.363	0.0146343
744.442	0.0147266
744.520	0.0146620
744.598	0.0147243
744.676	0.0146167
744.754	0.0145038
744.832	0.0145122
744.910	0.0145630
744.988	0.0145062
745.067	0.0146031
745.145	0.0144513
745.223	0.0145394
745.301	0.0146640
745.379	0.0145464
745.457	0.0144887
745.535	0.0145389
745.613	0.0143898
745.692	0.0144955
745.770	0.0145415
745.848	0.0145796
745.926	0.0145579
746.004	0.0145539
746.082	0.0146665
746.160	0.0146416
746.238	0.0147053
746.317	0.0146472
746.395	0.0146815
746.473	0.0147444
746.551	0.0148405
746.629	0.0147575
746.707	0.0147059
746.785	0.0147421
746.863	0.0146918
746.942	0.0148099
747.020	0.0146761
747.098	0.0147280
747.176	0.0147237
747.254	0.0147377
747.332	0.0145399
747.410	0.0146973
747.488	0.0148523
747.567	0.0146035
747.645	0.0146049
747.723	0.0146189
747.801	0.0146741
747.879	0.0146777
747.957	0.0146015
748.035	0.0145738
748.113	0.0145359
748.192	0.0146540
748.270	0.0145287
748.348	0.0145841
748.426	0.0145959
748.504	0.0143666
748.582	0.0143873
748.660	0.0144709
748.738	0.0143465
748.817	0.0144796
748.895	0.0144535
748.973	0.0144762
749.051	0.0144293
749.129	0.0144862
749.207	0.0145460
749.285	0.0146029
749.363	0.0145730
749.442	0.0145052
749.520	0.0145998
749.598	0.0147134
749.676	0.0146236
749.754	0.0146014
749.832	0.0147311
749.910	0.0147398
749.988	0.0146051
750.067	0.0146110
750.145	0.0146224
750.223	0.0146225
750.301	0.0146466
750.379	0.0147654
750.457	0.0146419
750.535	0.0145419
750.613	0.0146237
750.692	0.0145808
750.770	0.0145620
750.848	0.0144298
750.926	0.0145181
751.004	0.0144967
751.082	0.0144336
751.160	0.0142946
751.238	0.0143717
751.317	0.0145435
751.395	0.0145977
751.473	0.0145672
751.551	0.0145786
751.629	0.0144625
751.707	0.0146408
751.785	0.0146645
751.863	0.0145553
751.942	0.0145610
752.020	0.0146493
752.098	0.0146332
752.176	0.0147842
752.254	0.0145045
752.332	0.0146201
752.410	0.0146968
752.488	0.0146909
752.567	0.0145837
752.645	0.0145846
752.723	0.0146780
752.801	0.0146391
752.879	0.0147437
752.957	0.0144897
753.035	0.0145370
753.113	0.0145357
753.192	0.0145763
753.270	0.0145821
753.348	0.0146786
753.426	0.0145882
753.504	0.0145148
753.582	0.0145913
753.660	0.0145648
753.738	0.0144849
753.817	0.0145649
753.895	0.0145729
753.973	0.0146445
754.051	0.0146282
754.129	0.0146389
754.207	0.0146251
754.285	0.0147483
754.363	0.0147063
754.442	0.0146834
754.520	0.0148657
754.598	0.0148911
754.676	0.0147385
754.754	0.0147594
754.832	0.0147298
754.910	0.0147392
754.988	0.0147866
755.067	0.0148035
755.145	0.0146503
755.223	0.0145862
755.301	0.0146641
755.379	0.0146812
755.457	0.0144071
755.535	0.0144964
755.613	0.0144880
755.692	0.0144112
755.770	0.0143875
755.848	0.0144475
755.926	0.0143633
756.004	0.0144689
756.082	0.0144485
756.160	0.0143617
756.238	0.0143863
756.317	0.0144237
756.395	0.0143822
756.473	0.0143554
756.551	0.0143475
756.629	0.0144633
756.707	0.0143301
756.785	0.0144511
756.863	0.0145559
756.942	0.0145249
757.020	0.0146362
757.098	0.0145107
757.176	0.0146848
757.254	0.0147360
757.332	0.0147754
757.410	0.0147186
757.488	0.0146597
757.567	0.0147618
757.645	0.0148096
757.723	0.0147757
757.801	0.0146976
757.879	0.0146636
757.957	0.0147611
758.035	0.0146290
758.113	0.0145268
758.192	0.0145994
758.270	0.0146465
758.348	0.0147364
758.426	0.0146816
758.504	0.0145684
758.582	0.0145980
758.660	0.0145420
758.738	0.0145306
758.817	0.0146699
758.895	0.0145516
758.973	0.0145789
759.051	0.0146770
759.129	0.0147374
759.207	0.0146191
759.285	0.0146147
759.363	0.0146646
759.442	0.0146569
759.520	0.0146709
759.598	0.0146508
759.676	0.0146024
759.754	0.0146834
759.832	0.0146849
759.910	0.0146037
759.988	0.0146951
760.067	0.0146973
760.145	0.0146024
760.223	0.0146947
760.301	0.0146134
760.379	0.0146083
760.457	0.0146269
760.535	0.0146742
760.613	0.0145317
760.692	0.0144675
760.770	0.0144282
760.848	0.0144332
760.926	0.0142396
761.004	0.0143002
761.082	0.0142069
761.160	0.0143211
761.238	0.0142519
761.317	0.0142429
761.395	0.0143027
761.473	0.0142898
761.551	0.0143863
761.629	0.0142179
761.707	0.0142867
761.785	0.0145396
761.863	0.0143555
761.942	0.0144975
762.020	0.0144820
762.098	0.0144604
762.176	0.0146393
762.254	0.0147224
762.332	0.0147913
762.410	0.0147066
762.488	0.0147700
762.567	0.0147670
762.645	0.0147924
762.723	0.0148140
762.801	0.0148834
762.879	0.0147603
762.957	0.0147446
763.035	0.0147890
763.113	0.0147932
763.192	0.0147648
763.270	0.0147892
763.348	0.0147613
763.426	0.0146737
763.504	0.0148704
763.582	0.0146561
763.660	0.0146045
763.738	0.0146542
763.817	0.0146284
763.895	0.0145531
763.973	0.0145753
764.051	0.0145718
764.129	0.0145774
764.207	0.0145255
764.285	0.0144123
764.363	0.0144387
764.442	0.0144254
764.520	0.0143594
764.598	0.0145035
764.676	0.0144266
764.754	0.0143771
764.832	0.0143507
764.910	0.0143785
764.988	0.0143282
765.067	0.0142123
765.145	0.0145480
765.223	0.0144653
765.301	0.0144003
765.379	0.0143906
765.457	0.0145968
765.535	0.0145982
765.613	0.0145054
765.692	0.0146697
765.770	0.0144493
765.848	0.0145108
765.926	0.0144859
766.004	0.0146096
766.082	0.0145425
766.160	0.0144104
766.238	0.0144676
766.317	0.0144887
766.395	0.0144232
766.473	0.0143988
766.551	0.0142713
766.629	0.0143430
766.707	0.0144813
766.785	0.0143853
766.863	0.0144394
766.942	0.0146233
767.020	0.0144804
767.098	0.0145503
767.176	0.0145516
767.254	0.0145972
767.332	0.0146542
767.410	0.0146066
767.488	0.0146176
767.567	0.0148442
767.645	0.0147063
767.723	0.0147144
767.801	0.0147501
767.879	0.0147224
767.957	0.0147669
768.035	0.0147424
768.113	0.0147514
768.192	0.0146724
768.270	0.0147298
768.348	0.0146769
768.426	0.0146993
768.504	0.0146942
768.582	0.0146811
768.660	0.0145721
768.738	0.0146677
768.817	0.0145044
768.895	0.0145806
768.973	0.0146356
769.051	0.0144273
769.129	0.0143957
769.207	0.0144170
769.285	0.0144401
769.363	0.0143298
769.442	0.0143082
769.520	0.0142341
769.598	0.0143682
769.676	0.0144946
769.754	0.0144851
769.832	0.0143378
769.910	0.0142711
769.988	0.0144671
770.067	0.0143600
770.145	0.0144014
770.223	0.0144279
770.301	0.0144279
770.379	0.0143146
770.457	0.0146030
770.535	0.0145029
770.613	0.0146040
770.692	0.0145458
770.770	0.0146405
770.848	0.0146358
770.926	0.0146679
771.004	0.0145309
771.082	0.0145409
771.160	0.0145947
771.238	0.0146853
771.317	0.0147038
771.395	0.0146297
771.473	0.0147316
771.551	0.0146951
771.629	0.0146394
771.707	0.0146092
771.785	0.0146424
771.863	0.0145758
771.942	0.0147012
772.020	0.0146685
772.098	0.0146760
772.176	0.0146380
772.254	0.0146571
772.332	0.0147679
772.410	0.0146135
772.488	0.0145408
772.567	0.0145493
772.645	0.0146542
772.723	0.0146574
772.801	0.0146137
772.879	0.0144939
772.957	0.0145074
773.035	0.0145029
773.113	0.0145928
773.192	0.0146452
773.270	0.0143916
773.348	0.0145091
773.426	0.0145412
773.504	0.0143756
773.582	0.0145786
773.660	0.0145716
773.738	0.0145791
773.817	0.0146849
773.895	0.0144686
773.973	0.0145509
774.051	0.0144972
774.129	0.0146027
774.207	0.0145446
774.285	0.0144769
774.363	0.0145782
774.442	0.0146743
774.520	0.0145547
774.598	0.0144985
774.676	0.0143016
774.754	0.0146030
774.832	0.0145491
774.910	0.0145383
774.988	0.0145396
775.067	0.0144384
775.145	0.0145586
775.223	0.0145169
775.301	0.0146564
775.379	0.0146662
775.457	0.0145432
775.535	0.0146806
775.613	0.0146313
775.692	0.0146574
775.770	0.0145910
775.848	0.0146596
775.926	0.0147438
776.004	0.0147160
776.082	0.0147612
776.160	0.0145902
776.238	0.0145952
776.317	0.0147768
776.395	0.0147133
776.473	0.0147202
776.551	0.0146747
776.629	0.0146260
776.707	0.0144434
776.785	0.0145337
776.863	0.0145395
776.942	0.0144492
777.020	0.0146002
777.098	0.0145771
777.176	0.0144328
777.254	0.0145358
777.332	0.0145076
777.410	0.0144996
777.488	0.0144262
777.567	0.0145567
777.645	0.0144712
777.723	0.0146407
777.801	0.0146734
777.879	0.0145552
777.957	0.0145548
778.035	0.0145316
778.113	0.0146960
778.192	0.0145636
778.270	0.0146094
778.348	0.0146369
778.426	0.0146397
778.504	0.0147733
778.582	0.0147376
778.660	0.0144661
778.738	0.0146684
778.817	0.0145400
778.895	0.0145402
778.973	0.0145116
779.051	0.0145070
779.129	0.0145255
779.207	0.0146099
779.285	0.0145921
779.363	0.0146008
779.442	0.0145354
779.520	0.0145479
779.598	0.0146249
779.676	0.0146805
779.754	0.0145417
779.832	0.0145650
779.910	0.0146887
779.988	0.0146560
780.067	0.0145726
780.145	0.0146244
780.223	0.0147643
780.301	0.0148048
780.379	0.0146624
780.457	0.0146860
780.535	0.0146951
780.613	0.0147420
780.692	0.0148308
780.770	0.0147838
780.848	0.0147387
780.926	0.0148888
781.004	0.0148273
781.082	0.0148174
781.160	0.0146740
781.238	0.0148346
781.317	0.0147929
781.395	0.0147668
781.473	0.0147161
781.551	0.0146260
781.629	0.0147142
781.707	0.0147520
781.785	0.0145641
781.863	0.0145961
781.942	0.0147440
782.020	0.0147411
782.098	0.0145298
782.176	0.0145761
782.254	0.0146201
782.332	0.0143865
782.410	0.0145197
782.488	0.0145625
782.567	0.0144783
782.645	0.0143414
782.723	0.0145271
782.801	0.0143505
782.879	0.0144410
782.957	0.0144916
783.035	0.0144133
783.113	0.0145304
783.192	0.0143941
783.270	0.0144194
783.348	0.0143515
783.426	0.0143980
783.504	0.0143652
783.582	0.0144012
783.660	0.0143916
783.738	0.0144622
783.817	0.0144799
783.895	0.0144610
783.973	0.0145556
784.051	0.0145232
784.129	0.0144867
784.207	0.0145943
784.285	0.0146490
784.363	0.0144994
784.442	0.0144942
784.520	0.0144748
784.598	0.0144215
784.676	0.0144525
784.754	0.0143763
784.832	0.0144857
784.910	0.0145093
784.988	0.0144839
785.067	0.0145175
785.145	0.0145354
785.223	0.0145638
785.301	0.0145616
785.379	0.0145365
785.457	0.0146103
785.535	0.0147446
785.613	0.0146139
785.692	0.0146748
785.770	0.0148370
785.848	0.0148073
785.926	0.0147705
786.004	0.0147301
786.082	0.0147664
786.160	0.0145627
786.238	0.0146921
786.317	0.0147012
786.395	0.0146014
786.473	0.0146531
786.551	0.0146513
786.629	0.0145438
786.707	0.0145497
786.785	0.0146252
786.863	0.0146011
786.942	0.0145036
787.020	0.0144245
787.098	0.0144009
787.176	0.0145155
787.254	0.0144144
787.332	0.0144965
787.410	0.0145786
787.488	0.0144953
787.567	0.0145607
787.645	0.0144740
787.723	0.0146353
787.801	0.0144373
787.879	0.0145232
787.957	0.0146547
788.035	0.0145982
788.113	0.0145154
788.192	0.0146584
788.270	0.0145667
788.348	0.0146120
788.426	0.0145940
788.504	0.0146515
788.582	0.0146378
788.660	0.0145197
788.738	0.0144142
788.817	0.0145253
788.895	0.0146794
788.973	0.0146225
789.051	0.0146650
789.129	0.0145847
789.207	0.0146206
789.285	0.0146892
789.363	0.0145915
789.442	0.0145721
789.520	0.0145727
789.598	0.0145106
789.676	0.0144486
789.754	0.0144920
789.832	0.0145446
789.910	0.0146392
789.988	0.0145647
790.067	0.0145590
790.145	0.0146323
790.223	0.0144617
790.301	0.0144385
790.379	0.0145483
790.457	0.0145132
790.535	0.0144194
790.613	0.0144243
790.692	0.0145408
790.770	0.0143571
790.848	0.0143018
790.926	0.0143536
791.004	0.0144226
791.082	0.0143065
791.160	0.0143901
791.238	0.0144821
791.317	0.0145356
791.395	0.0145247
791.473	0.0144855
791.551	0.0145265
791.629	0.0145484
791.707	0.0144288
791.785	0.0145138
791.863	0.0146271
791.942	0.0146866
792.020	0.0146150
792.098	0.0146362
792.176	0.0146217
792.254	0.0147366
792.332	0.0146485
792.410	0.0146296
792.488	0.0147186
792.567	0.0146706
792.645	0.0147267
792.723	0.0148042
792.801	0.0146249
792.879	0.0146507
792.957	0.0147028
793.035	0.0146123
793.113	0.0145586
793.192	0.0144286
793.270	0.0145555
793.348	0.0145969
793.426	0.0144901
793.504	0.0146478
793.582	0.0145621
793.660	0.0145292
793.738	0.0145877
793.817	0.0146023
793.895	0.0146329
793.973	0.0147256
794.051	0.0145883
794.129	0.0147005
794.207	0.0145673
794.285	0.0146162
794.363	0.0147723
794.442	0.0146945
794.520	0.0146024
794.598	0.0145840
794.676	0.0146674
794.754	0.0146697
794.832	0.0146248
794.910	0.0146214
794.988	0.0146093
795.067	0.0146096
795.145	0.0146383
795.223	0.0146739
795.301	0.0146440
795.379	0.0145399
795.457	0.0146068
795.535	0.0145533
795.613	0.0146593
795.692	0.0145416
795.770	0.0145573
795.848	0.0146250
795.926	0.0146785
796.004	0.0146410
796.082	0.0146146
796.160	0.0146174
796.238	0.0147794
796.317	0.0145486
796.395	0.0144888
796.473	0.0146466
796.551	0.0145470
796.629	0.0147314
796.707	0.0145448
796.785	0.0144534
796.863	0.0145428
796.942	0.0145421
797.020	0.0145837
797.098	0.0144803
797.176	0.0145989
797.254	0.0146782
797.332	0.0145144
797.410	0.0145818
797.488	0.0146456
797.567	0.0145488
797.645	0.0145541
797.723	0.0146288
797.801	0.0144549
797.879	0.0144740
797.957	0.0145707
798.035	0.0146171
798.113	0.0144859
798.192	0.0144934
798.270	0.0146358
798.348	0.0146171
798.426	0.0144983
798.504	0.0146089
798.582	0.0145369
798.660	0.0145731
798.738	0.0144930
798.817	0.0145008
798.895	0.0146167
798.973	0.0146799
799.051	0.0146153
799.129	0.0146972
799.207	0.0146320
799.285	0.0146112
799.363	0.0148657
799.442	0.0148660
799.520	0.0147845
799.598	0.0148122
799.676	0.0147565
799.754	0.0149871
799.832	0.0149462
799.910	0.0148968
799.988	0.0147955
800.067	0.0147102
800.145	0.0148321
800.223	0.0148470
800.301	0.0148333
800.379	0.0147822
800.457	0.0147978
800.535	0.0146964
800.613	0.0146633
800.692	0.0146574
800.770	0.0146096
800.848	0.0146742
800.926	0.0146709
801.004	0.0145839
801.082	0.0143621
801.160	0.0144773
801.238	0.0145225
801.317	0.0142812
801.395	0.0143037
801.473	0.0142185
801.551	0.0144313
801.629	0.0144029
801.707	0.0144331
801.785	0.0143271
801.863	0.0144835
801.942	0.0144672
802.020	0.0142828
802.098	0.0145047
802.176	0.0144480
802.254	0.0146316
802.332	0.0144799
802.410	0.0145170
802.488	0.0144904
802.567	0.0145654
802.645	0.0146219
802.723	0.0147210
802.801	0.0145914
802.879	0.0146550
802.957	0.0148228
803.035	0.0147485
803.113	0.0145776
803.192	0.0146082
803.270	0.0148687
803.348	0.0147819
803.426	0.0146644
803.504	0.0146931
803.582	0.0147747
803.660	0.0145821
803.738	0.0146848
803.817	0.0146465
803.895	0.0146191
803.973	0.0145323
804.051	0.0146249
804.129	0.0146373
804.207	0.0145087
804.285	0.0146910
804.363	0.0147381
804.442	0.0147154
804.520	0.0147424
804.598	0.0148138
804.676	0.0147897
804.754	0.0147375
804.832	0.0147278
804.910	0.0146999
804.988	0.0147066
805.067	0.0147703
805.145	0.0148544
805.223	0.0147501
805.301	0.0147414
805.379	0.0146742
805.457	0.0146114
805.535	0.0145736
805.613	0.0146815
805.692	0.0144955
805.770	0.0146404
805.848	0.0144404
805.926	0.0145764
806.004	0.0145066
806.082	0.0145052
806.160	0.0145216
806.238	0.0145441
806.317	0.0144566
806.395	0.0145683
806.473	0.0143855
806.551	0.0144485
806.629	0.0144795
806.707	0.0144252
806.785	0.0144152
806.863	0.0143364
806.942	0.0144862
807.020	0.0144913
807.098	0.0143977
807.176	0.0145474
807.254	0.0143561
807.332	0.0145192
807.410	0.0145049
807.488	0.0145249
807.567	0.0144751
807.645	0.0144749
807.723	0.0145539
807.801	0.0145869
807.879	0.0146223
807.957	0.0145564
808.035	0.0145715
808.113	0.0145980
808.192	0.0148605
808.270	0.0147395
808.348	0.0146675
808.426	0.0146938
808.504	0.0148112
808.582	0.0147632
808.660	0.0147039
808.738	0.0147913
808.817	0.0147646
808.895	0.0147414
808.973	0.0146853
809.051	0.0147047
809.129	0.0144726
809.207	0.0145947
809.285	0.0146730
809.363	0.0145739
809.442	0.0145421
809.520	0.0144981
809.598	0.0144958
809.676	0.0145808
809.754	0.0144997
809.832	0.0145158
809.910	0.0144863
809.988	0.0145158
810.067	0.0144830
810.145	0.0145014
810.223	0.0145010
810.301	0.0144904
810.379	0.0145600
810.457	0.0145337
810.535	0.0144901
810.613	0.0145049
810.692	0.0146250
810.770	0.0145247
810.848	0.0145659
810.926	0.0145478
811.004	0.0145940
811.082	0.0146484
811.160	0.0145670
811.238	0.0145058
811.317	0.0145615
811.395	0.0146062
811.473	0.0146478
811.551	0.0146836
811.629	0.0146793
811.707	0.0145645
811.785	0.0146886
811.863	0.0146239
811.942	0.0144167
812.020	0.0145087
812.098	0.0145718
812.176	0.0145080
812.254	0.0145187
812.332	0.0145258
812.410	0.0146118
812.488	0.0145824
812.567	0.0146037
812.645	0.0146689
812.723	0.0145960
812.801	0.0146116
812.879	0.0146171
812.957	0.0146645
813.035	0.0145753
813.113	0.0147284
813.192	0.0147553
813.270	0.0146592
813.348	0.0146047
813.426	0.0146848
813.504	0.0147663
813.582	0.0146530
813.660	0.0147034
813.738	0.0146302
813.817	0.0145754
813.895	0.0146539
813.973	0.0144927
814.051	0.0145698
814.129	0.0144994
814.207	0.0145547
814.285	0.0146914
814.363	0.0146106
814.442	0.0146677
814.520	0.0146773
814.598	0.0146383
814.676	0.0144688
814.754	0.0145703
814.832	0.0145177
814.910	0.0144598
814.988	0.0145825
815.067	0.0144643
815.145	0.0144248
815.223	0.0145918
815.301	0.0144541
815.379	0.0146585
815.457	0.0144915
815.535	0.0145573
815.613	0.0146244
815.692	0.0144904
815.770	0.0146276
815.848	0.0146811
815.926	0.0145538
816.004	0.0146223
816.082	0.0147069
816.160	0.0146651
816.238	0.0146320
816.317	0.0145703
816.395	0.0146896
816.473	0.0147861
816.551	0.0145701
816.629	0.0145781
816.707	0.0146358
816.785	0.0147260
816.863	0.0147240
816.942	0.0147807
817.020	0.0147145
817.098	0.0146542
817.176	0.0147295
817.254	0.0146655
817.332	0.0146745
817.410	0.0145454
817.488	0.0145609
817.567	0.0144376
817.645	0.0144522
817.723	0.0144566
817.801	0.0146092
817.879	0.0146488
817.957	0.0145476
818.035	0.0144421
818.113	0.0145065
818.192	0.0144760
818.270	0.0144946
818.348	0.0145736
818.426	0.0144836
818.504	0.0145015
818.582	0.0146210
818.660	0.0147069
818.738	0.0145742
818.817	0.0146950
818.895	0.0147004
818.973	0.0146212
819.051	0.0146785
819.129	0.0145939
819.207	0.0146863
819.285	0.0145911
819.363	0.0145907
819.442	0.0146639
819.520	0.0146191
819.598	0.0146281
819.676	0.0146067
819.754	0.0145918
819.832	0.0147380
819.910	0.0146851
819.988	0.0146124
820.067	0.0147038
820.145	0.0145817
820.223	0.0146487
820.301	0.0147278
820.379	0.0147100
820.457	0.0146253
820.535	0.0146611
820.613	0.0147459
820.692	0.0145900
820.770	0.0147217
820.848	0.0147947
820.926	0.0147352
821.004	0.0146855
821.082	0.0146531
821.160	0.0147643
821.238	0.0147477
821.317	0.0145713
821.395	0.0145963
821.473	0.0146893
821.551	0.0146987
821.629	0.0145724
821.707	0.0145322
821.785	0.0146257
821.863	0.0145579
821.942	0.0145139
822.020	0.0144964
822.098	0.0147069
822.176	0.0146815
822.254	0.0145261
822.332	0.0147971
822.410	0.0146091
822.488	0.0145776
822.567	0.0145477
822.645	0.0145081
822.723	0.0146587
822.801	0.0145568
822.879	0.0146368
822.957	0.0147512
823.035	0.0146613
823.113	0.0146289
823.192	0.0147182
823.270	0.0146293
823.348	0.0146530
823.426	0.0146660
823.504	0.0145524
823.582	0.0145433
823.660	0.0146190
823.738	0.0146587
823.817	0.0145365
823.895	0.0146073
823.973	0.0147096
824.051	0.0146088
824.129	0.0145588
824.207	0.0145084
824.285	0.0144458
824.363	0.0145836
824.442	0.0145882
824.520	0.0144888
824.598	0.0145399
824.676	0.0144902
824.754	0.0145151
824.832	0.0145633
824.910	0.0145798
824.988	0.0146746
825.067	0.0145860
825.145	0.0146178
825.223	0.0145908
825.301	0.0146042
825.379	0.0144876
825.457	0.0146000
825.535	0.0148150
825.613	0.0145242
825.692	0.0146189
825.770	0.0146452
825.848	0.0145976
825.926	0.0145640
826.004	0.0145570
826.082	0.0145945
826.160	0.0146189
826.238	0.0145066
826.317	0.0145728
826.395	0.0145384
826.473	0.0147177
826.551	0.0145422
826.629	0.0146503
826.707	0.0146285
826.785	0.0145802
826.863	0.0146029
826.942	0.0145043
827.020	0.0145703
827.098	0.0147180
827.176	0.0146861
827.254	0.0146088
827.332	0.0146275
827.410	0.0148601
827.488	0.0147212
827.567	0.0147941
827.645	0.0147578
827.723	0.0146787
827.801	0.0146387
827.879	0.0147309
827.957	0.0147413
828.035	0.0146645
828.113	0.0146123
828.192	0.0146676
828.270	0.0146582
828.348	0.0146496
828.426	0.0146745
828.504	0.0145258
828.582	0.0144667
828.660	0.0144717
828.738	0.0146227
828.817	0.0145046
828.895	0.0145231
828.973	0.0145975
829.051	0.0144769
829.129	0.0145758
829.207	0.0145072
829.285	0.0145846
829.363	0.0146186
829.442	0.0145155
829.520	0.0145985
829.598	0.0144813
829.676	0.0145805
829.754	0.0145133
829.832	0.0143787
829.910	0.0146106
829.988	0.0145284
830.067	0.0145255
830.145	0.0144923
830.223	0.0145062
830.301	0.0146185
830.379	0.0146883
830.457	0.0146524
830.535	0.0147080
830.613	0.0145464
830.692	0.0146519
830.770	0.0146633
830.848	0.0146472
830.926	0.0145974
831.004	0.0146806
831.082	0.0148179
831.160	0.0146506
831.238	0.0146365
831.317	0.0147708
831.395	0.0147016
831.473	0.0146060
831.551	0.0145278
831.629	0.0145937
831.707	0.0146080
831.785	0.0145065
831.863	0.0144482
831.942	0.0144843
832.020	0.0145883
832.098	0.0145156
832.176	0.0142894
832.254	0.0144477
832.332	0.0144126
832.410	0.0144675
832.488	0.0143828
832.567	0.0145873
832.645	0.0144331
832.723	0.0145076
832.801	0.0144556
832.879	0.0143064
832.957	0.0144505
833.035	0.0144448
833.113	0.0146736
833.192	0.0144794
833.270	0.0144037
833.348	0.0145300
833.426	0.0144151
833.504	0.0145585
833.582	0.0146021
833.660	0.0145258
833.738	0.0145730
833.817	0.0145210
833.895	0.0145177
833.973	0.0147668
834.051	0.0146287
834.129	0.0146933
834.207	0.0146418
834.285	0.0146338
834.363	0.0146398
834.442	0.0145235
834.520	0.0145436
834.598	0.0145631
834.676	0.0145988
834.754	0.0145648
834.832	0.0146513
834.910	0.0147092
834.988	0.0145928
835.067	0.0147373
835.145	0.0145699
835.223	0.0147188
835.301	0.0145094
835.379	0.0146408
835.457	0.0146586
835.535	0.0145478
835.613	0.0146952
835.692	0.0147197
835.770	0.0146219
835.848	0.0145867
835.926	0.0146353
836.004	0.0145135
836.082	0.0146831
836.160	0.0147071
836.238	0.0145949
836.317	0.0147008
836.395	0.0146986
836.473	0.0145621
836.551	0.0145864
836.629	0.0145664
836.707	0.0146041
836.785	0.0145084
836.863	0.0146413
836.942	0.0145876
837.020	0.0146600
837.098	0.0145980
837.176	0.0145554
837.254	0.0146722
837.332	0.0146018
837.410	0.0146463
837.488	0.0146119
837.567	0.0145869
837.645	0.0145351
837.723	0.0146317
837.801	0.0146307
837.879	0.0145136
837.957	0.0146068
838.035	0.0145299
838.113	0.0146021
838.192	0.0146013
838.270	0.0144083
838.348	0.0145741
838.426	0.0146335
838.504	0.0144516
838.582	0.0145457
838.660	0.0146162
838.738	0.0146868
838.817	0.0146043
838.895	0.0145509
838.973	0.0145358
839.051	0.0146447
839.129	0.0145940
839.207	0.0145544
839.285	0.0145065
839.363	0.0145891
839.442	0.0146255
839.520	0.0146461
839.598	0.0145828
839.676	0.0145856
839.754	0.0146644
839.832	0.0146359
839.910	0.0147287
839.988	0.0146632
840.067	0.0146516
840.145	0.0146690
840.223	0.0145618
840.301	0.0145479
840.379	0.0145775
840.457	0.0146611
840.535	0.0146684
840.613	0.0145802
840.692	0.0144862
840.770	0.0145988
840.848	0.0145404
840.926	0.0145799
841.004	0.0145397
841.082	0.0145888
841.160	0.0146743
841.238	0.0146244
841.317	0.0144693
841.395	0.0145525
841.473	0.0146794
841.551	0.0147495
841.629	0.0146568
841.707	0.0147266
841.785	0.0146565
841.863	0.0147614
841.942	0.0144066
842.020	0.0147090
842.098	0.0147176
842.176	0.0146865
842.254	0.0146707
842.332	0.0146446
842.410	0.0144979
842.488	0.0147202
842.567	0.0146819
842.645	0.0146794
842.723	0.0146102
842.801	0.0146714
842.879	0.0148460
842.957	0.0147504
843.035	0.0146377
843.113	0.0145574
843.192	0.0148370
843.270	0.0147039
843.348	0.0145667
843.426	0.0146053
843.504	0.0146801
843.582	0.0145866
843.660	0.0146388
843.738	0.0145789
843.817	0.0146332
843.895	0.0147079
843.973	0.0146243
844.051	0.0146147
844.129	0.0146883
844.207	0.0146771
844.285	0.0145748
844.363	0.0145536
844.442	0.0147262
844.520	0.0147793
844.598	0.0147322
844.676	0.0147179
844.754	0.0146347
844.832	0.0147151
844.910	0.0146970
844.988	0.0147136
845.067	0.0146264
845.145	0.0147401
845.223	0.0146690
845.301	0.0146986
845.379	0.0146504
845.457	0.0145754
845.535	0.0145502
845.613	0.0145932
845.692	0.0146332
845.770	0.0147237
845.848	0.0147051
845.926	0.0146431
846.004	0.0146637
846.082	0.0146346
846.160	0.0146618
846.238	0.0144913
846.317	0.0147002
846.395	0.0145930
846.473	0.0146077
846.551	0.0145654
846.629	0.0145023
846.707	0.0146711
846.785	0.0146572
846.863	0.0145216
846.942	0.0146443
847.020	0.0146146
847.098	0.0145426
847.176	0.0145750
847.254	0.0145247
847.332	0.0145581
847.410	0.0146225
847.488	0.0146489
847.567	0.0145266
847.645	0.0145271
847.723	0.0144684
847.801	0.0144936
847.879	0.0145137
847.957	0.0146835
848.035	0.0146420
848.113	0.0144995
848.192	0.0145390
848.270	0.0146005
848.348	0.0146377
848.426	0.0146107
848.504	0.0145560
848.582	0.0145795
848.660	0.0145143
848.738	0.0146298
848.817	0.0145135
848.895	0.0145370
848.973	0.0146350
849.051	0.0146736
849.129	0.0146043
849.207	0.0146605
849.285	0.0145358
849.363	0.0145716
849.442	0.0147049
849.520	0.0147579
849.598	0.0144741
849.676	0.0146825
849.754	0.0145853
849.832	0.0145186
849.910	0.0146136
849.988	0.0146107
850.067	0.0145890
850.145	0.0145979
850.223	0.0148122
850.301	0.0146315
850.379	0.0146138
850.457	0.0145513
850.535	0.0144292
850.613	0.0145124
850.692	0.0145331
850.770	0.0145633
850.848	0.0144997
850.926	0.0145723
851.004	0.0145640
851.082	0.0145647
851.160	0.0147043
851.238	0.0144787
851.317	0.0145705
851.395	0.0145634
851.473	0.0144989
851.551	0.0144707
851.629	0.0146067
851.707	0.0147585
851.785	0.0146716
851.863	0.0146062
851.942	0.0145688
852.020	0.0145303
852.098	0.0145528
852.176	0.0146411
852.254	0.0146014
852.332	0.0145796
852.410	0.0146153
852.488	0.0145997
852.567	0.0144688
852.645	0.0145332
852.723	0.0144847
852.801	0.0144726
852.879	0.0144246
852.957	0.0145365
853.035	0.0145253
853.113	0.0145009
853.192	0.0145901
853.270	0.0147414
853.348	0.0146304
853.426	0.0145913
853.504	0.0144683
853.582	0.0147427
853.660	0.0147038
853.738	0.0146601
853.817	0.0147698
853.895	0.0146910
853.973	0.0147178
854.051	0.0147058
854.129	0.0146342
854.207	0.0146127
854.285	0.0145867
854.363	0.0145338
854.442	0.0146571
854.520	0.0145190
854.598	0.0144860
854.676	0.0144197
854.754	0.0145791
854.832	0.0145505
854.910	0.0145529
854.988	0.0145581
855.067	0.0144981
855.145	0.0144945
855.223	0.0145477
855.301	0.0144006
855.379	0.0144123
855.457	0.0145404
855.535	0.0145609
855.613	0.0144337
855.692	0.0145176
855.770	0.0145348
855.848	0.0146655
855.926	0.0146060
856.004	0.0145645
856.082	0.0146063
856.160	0.0145824
856.238	0.0145589
856.317	0.0145596
856.395	0.0144996
856.473	0.0145080
856.551	0.0146450
856.629	0.0145302
856.707	0.0145061
856.785	0.0145360
856.863	0.0146402
856.942	0.0145357
857.020	0.0146374
857.098	0.0145739
857.176	0.0145281
857.254	0.0145712
857.332	0.0144855
857.410	0.0144764
857.488	0.0144898
857.567	0.0144341
857.645	0.0143969
857.723	0.0145468
857.801	0.0145559
857.879	0.0145068
857.957	0.0145847
858.035	0.0146810
858.113	0.0145848
858.192	0.0145491
858.270	0.0145567
858.348	0.0144739
858.426	0.0146786
858.504	0.0145514
858.582	0.0144353
858.660	0.0145236
858.738	0.0145597
858.817	0.0145313
858.895	0.0145066
858.973	0.0145921
859.051	0.0144973
859.129	0.0145427
859.207	0.0146832
859.285	0.0145741
859.363	0.0145403
859.442	0.0145263
859.520	0.0146014
859.598	0.0145901
859.676	0.0144855
859.754	0.0145126
859.832	0.0145670
859.910	0.0145158
859.988	0.0145737
860.067	0.0146098
860.145	0.0146111
860.223	0.0145966
860.301	0.0145852
860.379	0.0145528
860.457	0.0146101
860.535	0.0145177
860.613	0.0146332
860.692	0.0146919
860.770	0.0145747
860.848	0.0146703
860.926	0.0146068
861.004	0.0146178
861.082	0.0146693
861.160	0.0145797
861.238	0.0146223
861.317	0.0146067
861.395	0.0145015
861.473	0.0146581
861.551	0.0144866
861.629	0.0144332
861.707	0.0144981
861.785	0.0145579
861.863	0.0145880
861.942	0.0145285
862.020	0.0145223
862.098	0.0145308
862.176	0.0146345
862.254	0.0145717
862.332	0.0145218
862.410	0.0146187
862.488	0.0145846
862.567	0.0146609
862.645	0.0145139
862.723	0.0145560
862.801	0.0146765
862.879	0.0145509
862.957	0.0147089
863.035	0.0146584
863.113	0.0145480
863.192	0.0146239
863.270	0.0145578
863.348	0.0146822
863.426	0.0146972
863.504	0.0145907
863.582	0.0146136
863.660	0.0146265
863.738	0.0145856
863.817	0.0146520
863.895	0.0146943
863.973	0.0148312
864.051	0.0146916
864.129	0.0146078
864.207	0.0147202
864.285	0.0145890
864.363	0.0147070
864.442	0.0145667
864.520	0.0145313
864.598	0.0145203
864.676	0.0145864
864.754	0.0145726
864.832	0.0147673
864.910	0.0145931
864.988	0.0146313
865.067	0.0146468
865.145	0.0145342
865.223	0.0146722
865.301	0.0145582
865.379	0.0145197
865.457	0.0147461
865.535	0.0147623
865.613	0.0147524
865.692	0.0147301
865.770	0.0146284
865.848	0.0146982
865.926	0.0146620
866.004	0.0145727
866.082	0.0147616
866.160	0.0147934
866.238	0.0145779
866.317	0.0146306
866.395	0.0147493
866.473	0.0145769
866.551	0.0145330
866.629	0.0147248
866.707	0.0146414
866.785	0.0145534
866.863	0.0145605
866.942	0.0144502
867.020	0.0147355
867.098	0.0146078
867.176	0.0145246
867.254	0.0144788
867.332	0.0145838
867.410	0.0146473
867.488	0.0146356
867.567	0.0144805
867.645	0.0145625
867.723	0.0147569
867.801	0.0145770
867.879	0.0145874
867.957	0.0146558
868.035	0.0145962
868.113	0.0147211
868.192	0.0146245
868.270	0.0144186
868.348	0.0145311
868.426	0.0146855
868.504	0.0146256
868.582	0.0146092
868.660	0.0146405
868.738	0.0146325
868.817	0.0146850
868.895	0.0146782
868.973	0.0146574
869.051	0.0146432
869.129	0.0147364
869.207	0.0146698
869.285	0.0147111
869.363	0.0148032
869.442	0.0146261
869.520	0.0146393
869.598	0.0146680
869.676	0.0147229
869.754	0.0147483
869.832	0.0146426
869.910	0.0148167
869.988	0.0147330
870.067	0.0146214
870.145	0.0144788
870.223	0.0144475
870.301	0.0145802
870.379	0.0144559
870.457	0.0144282
870.535	0.0145381
870.613	0.0145999
870.692	0.0145822
870.770	0.0145813
870.848	0.0146261
870.926	0.0145856
871.004	0.0145756
871.082	0.0146535
871.160	0.0146446
871.238	0.0146008
871.317	0.0145619
871.395	0.0145394
871.473	0.0144708
871.551	0.0145860
871.629	0.0145736
871.707	0.0146119
871.785	0.0146276
871.863	0.0146254
871.942	0.0144836
872.020	0.0145717
872.098	0.0147195
872.176	0.0147089
872.254	0.0146239
872.332	0.0146822
872.410	0.0148170
872.488	0.0147276
872.567	0.0145837
872.645	0.0147637
872.723	0.0147364
872.801	0.0147134
872.879	0.0146353
872.957	0.0146049
873.035	0.0146189
873.113	0.0144837
873.192	0.0145592
873.270	0.0144850
873.348	0.0145380
873.426	0.0148756
873.504	0.0146080
873.582	0.0145173
873.660	0.0147033
873.738	0.0147076
873.817	0.0145193
873.895	0.0147006
873.973	0.0146835
874.051	0.0146509
874.129	0.0147195
874.207	0.0145830
874.285	0.0145667
874.363	0.0146670
874.442	0.0146114
874.520	0.0145930
874.598	0.0148033
874.676	0.0146526
874.754	0.0146972
874.832	0.0147349
874.910	0.0146678
874.988	0.0147272
875.067	0.0147250
875.145	0.0147143
875.223	0.0146712
875.301	0.0147294
875.379	0.0147523
875.457	0.0145574
875.535	0.0146196
875.613	0.0147457
875.692	0.0146611
875.770	0.0147572
875.848	0.0147761
875.926	0.0147868
876.004	0.0147460
876.082	0.0146905
876.160	0.0146990
876.238	0.0145335
876.317	0.0146629
876.395	0.0147753
876.473	0.0146444
876.551	0.0145814
876.629	0.0145435
876.707	0.0146294
876.785	0.0146039
876.863	0.0144740
876.942	0.0146134
877.020	0.0145747
877.098	0.0146973
877.176	0.0146181
877.254	0.0146021
877.332	0.0146036
877.410	0.0147135
877.488	0.0147392
877.567	0.0147160
877.645	0.0146575
877.723	0.0146972
877.801	0.0145775
877.879	0.0146416
877.957	0.0147701
878.035	0.0145783
878.113	0.0146454
878.192	0.0144975
878.270	0.0146007
878.348	0.0146446
878.426	0.0146059
878.504	0.0144762
878.582	0.0145946
878.660	0.0145263
878.738	0.0144015
878.817	0.0143299
878.895	0.0144319
878.973	0.0144203
879.051	0.0144452
879.129	0.0146329
879.207	0.0144865
879.285	0.0145345
879.363	0.0145767
879.442	0.0144229
879.520	0.0145313
879.598	0.0145427
879.676	0.0145869
879.754	0.0145393
879.832	0.0145896
879.910	0.0145888
879.988	0.0145570
880.067	0.0144923
880.145	0.0146435
880.223	0.0147213
880.301	0.0145027
880.379	0.0145739
880.457	0.0145944
880.535	0.0146687
880.613	0.0146516
880.692	0.0146104
880.770	0.0146064
880.848	0.0145462
880.926	0.0146675
881.004	0.0145510
881.082	0.0145975
881.160	0.0146525
881.238	0.0146201
881.317	0.0146429
881.395	0.0146645
881.473	0.0147742
881.551	0.0145556
881.629	0.0146613
881.707	0.0144778
881.785	0.0144888
881.863	0.0146224
881.942	0.0145291
882.020	0.0145391
882.098	0.0145501
882.176	0.0145897
882.254	0.0144298
882.332	0.0143977
882.410	0.0144930
882.488	0.0145779
882.567	0.0146321
882.645	0.0145207
882.723	0.0145554
882.801	0.0146294
882.879	0.0146078
882.957	0.0145667
883.035	0.0145895
883.113	0.0146594
883.192	0.0148113
883.270	0.0146955
883.348	0.0145820
883.426	0.0146751
883.504	0.0147529
883.582	0.0146870
883.660	0.0146837
883.738	0.0146038
883.817	0.0144430
883.895	0.0147040
883.973	0.0146377
884.051	0.0145827
884.129	0.0145963
884.207	0.0145868
884.285	0.0145827
884.363	0.0145947
884.442	0.0144942
884.520	0.0145113
884.598	0.0144010
884.676	0.0144498
884.754	0.0145979
884.832	0.0145652
884.910	0.0144690
884.988	0.0143137
885.067	0.0143954
885.145	0.0145721
885.223	0.0144854
885.301	0.0144326
885.379	0.0143954
885.457	0.0145583
885.535	0.0144463
885.613	0.0143418
885.692	0.0146286
885.770	0.0146027
885.848	0.0145266
885.926	0.0146204
886.004	0.0146117
886.082	0.0146165
886.160	0.0145199
886.238	0.0145081
886.317	0.0146136
886.395	0.0145982
886.473	0.0146572
886.551	0.0147041
886.629	0.0145499
886.707	0.0146282
886.785	0.0146834
886.863	0.0147243
886.942	0.0146404
887.020	0.0146883
887.098	0.0147118
887.176	0.0146860
887.254	0.0146112
887.332	0.0147438
887.410	0.0147240
887.488	0.0145815
887.567	0.0146249
887.645	0.0146913
887.723	0.0145481
887.801	0.0147266
887.879	0.0146593
887.957	0.0145659
888.035	0.0145354
888.113	0.0145054
888.192	0.0145517
888.270	0.0145267
888.348	0.0145184
888.426	0.0145807
888.504	0.0145535
888.582	0.0143099
888.660	0.0144684
888.738	0.0144572
888.817	0.0144923
888.895	0.0145460
888.973	0.0144730
889.051	0.0145456
889.129	0.0144484
889.207	0.0144908
889.285	0.0144701
889.363	0.0145325
889.442	0.0145950
889.520	0.0145719
889.598	0.0146024
889.676	0.0146831
889.754	0.0145885
889.832	0.0144605
889.910	0.0145921
889.988	0.0145870
890.067	0.0145449
890.145	0.0145155
890.223	0.0145883
890.301	0.0147084
890.379	0.0147384
890.457	0.0147517
890.535	0.0147466
890.613	0.0144058
890.692	0.0145837
890.770	0.0145480
890.848	0.0146759
890.926	0.0147721
891.004	0.0147061
891.082	0.0146512
891.160	0.0146068
891.238	0.0146285
891.317	0.0145430
891.395	0.0146136
891.473	0.0147755
891.551	0.0147400
891.629	0.0147271
891.707	0.0145453
891.785	0.0146279
891.863	0.0146993
891.942	0.0148339
892.020	0.0146298
892.098	0.0147753
892.176	0.0146445
892.254	0.0147243
892.332	0.0147827
892.410	0.0146665
892.488	0.0147072
892.567	0.0147250
892.645	0.0148719
892.723	0.0145467
892.801	0.0146249
892.879	0.0145731
892.957	0.0146315
893.035	0.0146576
893.113	0.0145902
893.192	0.0145290
893.270	0.0145998
893.348	0.0147128
893.426	0.0146130
893.504	0.0146118
893.582	0.0145216
893.660	0.0147470
893.738	0.0146236
893.817	0.0145665
893.895	0.0146944
893.973	0.0145433
894.051	0.0146348
894.129	0.0147214
894.207	0.0146149
894.285	0.0145746
894.363	0.0146024
894.442	0.0145841
894.520	0.0145609
894.598	0.0145210
894.676	0.0145540
894.754	0.0147448
894.832	0.0146375
894.910	0.0145903
894.988	0.0146642
895.067	0.0146153
895.145	0.0146143
895.223	0.0146609
895.301	0.0146177
895.379	0.0146632
895.457	0.0144830
895.535	0.0145750
895.613	0.0146075
895.692	0.0145538
895.770	0.0146600
895.848	0.0146464
895.926	0.0146134
896.004	0.0144978
896.082	0.0146819
896.160	0.0146151
896.238	0.0145333
896.317	0.0147321
896.395	0.0145591
896.473	0.0146356
896.551	0.0145138
896.629	0.0145008
896.707	0.0146281
896.785	0.0146665
896.863	0.0145816
896.942	0.0146042
897.020	0.0147195
897.098	0.0146574
897.176	0.0146752
897.254	0.0145084
897.332	0.0145684
897.410	0.0145839
897.488	0.0146233
897.567	0.0146450
897.645	0.0145403
897.723	0.0147034
897.801	0.0146683
897.879	0.0148289
897.957	0.0146749
898.035	0.0146991
898.113	0.0147875
898.192	0.0148425
898.270	0.0147884
898.348	0.0146380
898.426	0.0145775
898.504	0.0147138
898.582	0.0148285
898.660	0.0147805
898.738	0.0148051
898.817	0.0148048
898.895	0.0147668
898.973	0.0147304
899.051	0.0147402
899.129	0.0147070
899.207	0.0146982
899.285	0.0145570
899.363	0.0147315
899.442	0.0147177
899.520	0.0145908
899.598	0.0146192
899.676	0.0147546
899.754	0.0146255
899.832	0.0145171
899.910	0.0146704
899.988	0.0147546
900.067	0.0146288
900.145	0.0146474
900.223	0.0145574
900.301	0.0146436
900.379	0.0146585
900.457	0.0145422
900.535	0.0146516
900.613	0.0146162
900.692	0.0145238
900.770	0.0145425
900.848	0.0147020
900.926	0.0145464
901.004	0.0145180
901.082	0.0144353
901.160	0.0145494
901.238	0.0144706
901.317	0.0145654
901.395	0.0144976
901.473	0.0145750
901.551	0.0145695
901.629	0.0147301
901.707	0.0146555
901.785	0.0146640
901.863	0.0147050
901.942	0.0146021
902.020	0.0145585
902.098	0.0146322
902.176	0.0145399
902.254	0.0145354
902.332	0.0146216
902.410	0.0147665
902.488	0.0148264
902.567	0.0146023
902.645	0.0146075
902.723	0.0145456
902.801	0.0144922
902.879	0.0147178
902.957	0.0146210
903.035	0.0145410
903.113	0.0145478
903.192	0.0146930
903.270	0.0145939
903.348	0.0146423
903.426	0.0144601
903.504	0.0146262
903.582	0.0146356
903.660	0.0145496
903.738	0.0145113
903.817	0.0146082
903.895	0.0146087
903.973	0.0146401
904.051	0.0145374
904.129	0.0145812
904.207	0.0145871
904.285	0.0146799
904.363	0.0146893
904.442	0.0145814
904.520	0.0144859
904.598	0.0145885
904.676	0.0147033
904.754	0.0146631
904.832	0.0146883
904.910	0.0147004
904.988	0.0144683
905.067	0.0146345
905.145	0.0145932
905.223	0.0145180
905.301	0.0147781
905.379	0.0145718
905.457	0.0146231
905.535	0.0146806
905.613	0.0146450
905.692	0.0146671
905.770	0.0146941
905.848	0.0147107
905.926	0.0145907
906.004	0.0145686
906.082	0.0144969
906.160	0.0146162
906.238	0.0147186
906.317	0.0146469
906.395	0.0147112
906.473	0.0145291
906.551	0.0145753
906.629	0.0146249
906.707	0.0146221
906.785	0.0146046
906.863	0.0145212
906.942	0.0146549
907.020	0.0147282
907.098	0.0145972
907.176	0.0147035
907.254	0.0146457
907.332	0.0146941
907.410	0.0146306
907.488	0.0146885
907.567	0.0147176
907.645	0.0146045
907.723	0.0146146
907.801	0.0145875
907.879	0.0146661
907.957	0.0145172
908.035	0.0146738
908.113	0.0146226
908.192	0.0145147
908.270	0.0145399
908.348	0.0145969
908.426	0.0146062
908.504	0.0146391
908.582	0.0146558
908.660	0.0146008
908.738	0.0145410
908.817	0.0144798
908.895	0.0146133
908.973	0.0145489
909.051	0.0144366
909.129	0.0144572
909.207	0.0145657
909.285	0.0144324
909.363	0.0144630
909.442	0.0144742
909.520	0.0145647
909.598	0.0145909
909.676	0.0144273
909.754	0.0144340
909.832	0.0144502
909.910	0.0145248
909.988	0.0144852
910.067	0.0145469
910.145	0.0146789
910.223	0.0145747
910.301	0.0145300
910.379	0.0146779
910.457	0.0145600
910.535	0.0145947
910.613	0.0145918
910.692	0.0145500
910.770	0.0145265
910.848	0.0147372
910.926	0.0145074
911.004	0.0144760
911.082	0.0145681
911.160	0.0145516
911.238	0.0146659
911.317	0.0145764
911.395	0.0144964
911.473	0.0145753
911.551	0.0144608
911.629	0.0145247
911.707	0.0145837
911.785	0.0144793
911.863	0.0145604
911.942	0.0144990
912.020	0.0143542
912.098	0.0144176
912.176	0.0145305
912.254	0.0143490
912.332	0.0144572
912.410	0.0145625
912.488	0.0143997
912.567	0.0145224
912.645	0.0144499
912.723	0.0143568
912.801	0.0144619
912.879	0.0145042
912.957	0.0144969
913.035	0.0142848
913.113	0.0143779
913.192	0.0144778
913.270	0.0144998
913.348	0.0144585
913.426	0.0145220
913.504	0.0144099
913.582	0.0145773
913.660	0.0144849
913.738	0.0145006
913.817	0.0145817
913.895	0.0145924
913.973	0.0146134
914.051	0.0145801
914.129	0.0144769
914.207	0.0145229
914.285	0.0144228
914.363	0.0145108
914.442	0.0146046
914.520	0.0144833
914.598	0.0146331
914.676	0.0144367
914.754	0.0146799
914.832	0.0146645
914.910	0.0145442
914.988	0.0145055
915.067	0.0144574
915.145	0.0146119
915.223	0.0145230
915.301	0.0145275
915.379	0.0144057
915.457	0.0145350
915.535	0.0144743
915.613	0.0144406
915.692	0.0145612
915.770	0.0147224
915.848	0.0146675
915.926	0.0144406
916.004	0.0146259
916.082	0.0146227
916.160	0.0145870
916.238	0.0145831
916.317	0.0145845
916.395	0.0147038
916.473	0.0146220
916.551	0.0147123
916.629	0.0147572
916.707	0.0146655
916.785	0.0146169
916.863	0.0146236
916.942	0.0145686
917.020	0.0146634
917.098	0.0144946
917.176	0.0144610
917.254	0.0146175
917.332	0.0145282
917.410	0.0145344
917.488	0.0146709
917.567	0.0146730
917.645	0.0145164
917.723	0.0145873
917.801	0.0144807
917.879	0.0145738
917.957	0.0145893
918.035	0.0144986
918.113	0.0144700
918.192	0.0146056
918.270	0.0145901
918.348	0.0146565
918.426	0.0145977
918.504	0.0144595
918.582	0.0146566
918.660	0.0146213
918.738	0.0147492
918.817	0.0148252
918.895	0.0145905
918.973	0.0146378
919.051	0.0147108
919.129	0.0146946
919.207	0.0146290
919.285	0.0146120
919.363	0.0145999
919.442	0.0145605
919.520	0.0145665
919.598	0.0146580
919.676	0.0145942
919.754	0.0146602
919.832	0.0146764
919.910	0.0145604
