05/28/2022	14:15:46	Ver.	4.1	UNKNOWN
Optical Delay	599.988409	Delta X		0.078125	Sweeps	1	Scan Rate	0/0
Coordinates	Axis 1	NaN	Axis 2	NaN	Axis 3	NaN	Axis 4	NaN	Axis 5	NaN	Axis 6	0.000000
TX Power	0.000000	RX Power	0.000000

599.988	0.0145644
600.067	0.0146474
600.145	0.0144762
600.223	0.0145864
600.301	0.0145934
600.379	0.0145940
600.457	0.0145733
600.535	0.0146240
600.613	0.0145912
600.692	0.0144856
600.770	0.0147237
600.848	0.0146992
600.926	0.0145296
601.004	0.0146672
601.082	0.0146784
601.160	0.0145850
601.238	0.0146629
601.317	0.0147837
601.395	0.0146918
601.473	0.0147554
601.551	0.0146530
601.629	0.0146066
601.707	0.0145895
601.785	0.0146262
601.863	0.0147618
601.942	0.0147217
602.020	0.0146217
602.098	0.0146394
602.176	0.0146481
602.254	0.0144932
602.332	0.0146429
602.410	0.0146285
602.488	0.0146773
602.567	0.0147009
602.645	0.0145506
602.723	0.0146420
602.801	0.0145419
602.879	0.0146096
602.957	0.0147790
603.035	0.0147615
603.113	0.0145003
603.192	0.0146062
603.270	0.0146305
603.348	0.0145827
603.426	0.0147139
603.504	0.0146085
603.582	0.0145909
603.660	0.0146642
603.738	0.0145622
603.817	0.0145759
603.895	0.0146970
603.973	0.0145556
604.051	0.0145729
604.129	0.0147109
604.207	0.0146250
604.285	0.0146318
604.363	0.0146851
604.442	0.0146492
604.520	0.0146713
604.598	0.0146777
604.676	0.0147799
604.754	0.0146096
604.832	0.0146984
604.910	0.0146642
604.988	0.0146943
605.067	0.0146611
605.145	0.0146796
605.223	0.0146851
605.301	0.0146952
605.379	0.0146709
605.457	0.0147185
605.535	0.0148041
605.613	0.0145786
605.692	0.0145529
605.770	0.0146356
605.848	0.0147339
605.926	0.0146442
606.004	0.0147054
606.082	0.0146567
606.160	0.0145609
606.238	0.0146041
606.317	0.0147305
606.395	0.0146584
606.473	0.0146339
606.551	0.0145879
606.629	0.0145485
606.707	0.0146059
606.785	0.0146225
606.863	0.0145314
606.942	0.0147392
607.020	0.0145657
607.098	0.0146107
607.176	0.0146284
607.254	0.0147298
607.332	0.0146368
607.410	0.0146027
607.488	0.0146959
607.567	0.0145022
607.645	0.0145980
607.723	0.0145385
607.801	0.0145763
607.879	0.0147306
607.957	0.0146595
608.035	0.0146084
608.113	0.0145442
608.192	0.0146221
608.270	0.0146171
608.348	0.0146973
608.426	0.0146120
608.504	0.0146472
608.582	0.0145959
608.660	0.0146048
608.738	0.0145629
608.817	0.0145898
608.895	0.0145555
608.973	0.0145998
609.051	0.0145098
609.129	0.0145535
609.207	0.0146292
609.285	0.0145168
609.363	0.0146370
609.442	0.0146051
609.520	0.0144515
609.598	0.0146115
609.676	0.0145755
609.754	0.0145146
609.832	0.0144912
609.910	0.0145024
609.988	0.0144434
610.067	0.0144718
610.145	0.0144756
610.223	0.0146111
610.301	0.0146685
610.379	0.0146289
610.457	0.0145460
610.535	0.0143820
610.613	0.0145747
610.692	0.0145842
610.770	0.0145909
610.848	0.0145564
610.926	0.0145744
611.004	0.0145643
611.082	0.0145020
611.160	0.0146315
611.238	0.0144442
611.317	0.0146255
611.395	0.0145950
611.473	0.0144340
611.551	0.0143415
611.629	0.0145520
611.707	0.0146455
611.785	0.0144272
611.863	0.0145083
611.942	0.0146424
612.020	0.0145757
612.098	0.0145670
612.176	0.0145014
612.254	0.0146612
612.332	0.0146471
612.410	0.0145981
612.488	0.0144552
612.567	0.0146230
612.645	0.0147121
612.723	0.0145750
612.801	0.0144978
612.879	0.0146036
612.957	0.0145264
613.035	0.0146452
613.113	0.0145749
613.192	0.0143846
613.270	0.0147966
613.348	0.0146292
613.426	0.0146412
613.504	0.0145587
613.582	0.0145401
613.660	0.0145456
613.738	0.0145770
613.817	0.0146184
613.895	0.0145856
613.973	0.0147361
614.051	0.0146194
614.129	0.0144768
614.207	0.0147147
614.285	0.0145680
614.363	0.0145644
614.442	0.0146581
614.520	0.0144128
614.598	0.0146133
614.676	0.0145517
614.754	0.0145554
614.832	0.0145394
614.910	0.0146104
614.988	0.0147299
615.067	0.0147389
615.145	0.0147167
615.223	0.0146748
615.301	0.0145409
615.379	0.0145412
615.457	0.0146133
615.535	0.0146769
615.613	0.0146731
615.692	0.0145380
615.770	0.0145780
615.848	0.0146510
615.926	0.0146519
616.004	0.0146468
616.082	0.0145335
616.160	0.0145749
616.238	0.0146665
616.317	0.0146628
616.395	0.0146952
616.473	0.0147147
616.551	0.0146106
616.629	0.0145383
616.707	0.0145402
616.785	0.0144408
616.863	0.0146671
616.942	0.0146722
617.020	0.0146793
617.098	0.0146189
617.176	0.0146332
617.254	0.0146397
617.332	0.0146310
617.410	0.0145609
617.488	0.0147084
617.567	0.0145500
617.645	0.0146546
617.723	0.0146986
617.801	0.0145551
617.879	0.0147033
617.957	0.0146016
618.035	0.0146340
618.113	0.0146346
618.192	0.0146429
618.270	0.0145848
618.348	0.0146361
618.426	0.0145847
618.504	0.0146526
618.582	0.0146030
618.660	0.0145326
618.738	0.0147540
618.817	0.0146162
618.895	0.0147137
618.973	0.0144765
619.051	0.0145081
619.129	0.0145127
619.207	0.0145131
619.285	0.0147276
619.363	0.0144799
619.442	0.0144958
619.520	0.0144718
619.598	0.0145059
619.676	0.0145589
619.754	0.0145425
619.832	0.0145889
619.910	0.0145639
619.988	0.0145618
620.067	0.0146037
620.145	0.0146487
620.223	0.0146432
620.301	0.0145975
620.379	0.0145086
620.457	0.0144719
620.535	0.0145348
620.613	0.0145987
620.692	0.0144838
620.770	0.0145398
620.848	0.0145077
620.926	0.0145396
621.004	0.0146313
621.082	0.0145441
621.160	0.0145749
621.238	0.0146535
621.317	0.0145502
621.395	0.0146449
621.473	0.0146088
621.551	0.0146989
621.629	0.0146075
621.707	0.0146191
621.785	0.0145963
621.863	0.0147044
621.942	0.0146054
622.020	0.0145978
622.098	0.0146326
622.176	0.0144698
622.254	0.0145671
622.332	0.0146344
622.410	0.0146971
622.488	0.0146157
622.567	0.0146432
622.645	0.0146658
622.723	0.0145590
622.801	0.0147527
622.879	0.0147324
622.957	0.0146876
623.035	0.0145686
623.113	0.0145234
623.192	0.0146905
623.270	0.0146300
623.348	0.0145345
623.426	0.0146755
623.504	0.0144949
623.582	0.0145600
623.660	0.0147326
623.738	0.0146708
623.817	0.0146063
623.895	0.0145349
623.973	0.0146582
624.051	0.0146246
624.129	0.0146593
624.207	0.0145520
624.285	0.0146350
624.363	0.0144988
624.442	0.0145276
624.520	0.0145663
624.598	0.0146779
624.676	0.0145244
624.754	0.0146249
624.832	0.0146478
624.910	0.0144957
624.988	0.0145757
625.067	0.0146947
625.145	0.0146840
625.223	0.0146822
625.301	0.0145377
625.379	0.0146392
625.457	0.0145919
625.535	0.0144857
625.613	0.0145652
625.692	0.0145936
625.770	0.0145712
625.848	0.0145184
625.926	0.0145990
626.004	0.0145286
626.082	0.0144035
626.160	0.0145550
626.238	0.0145278
626.317	0.0145961
626.395	0.0145913
626.473	0.0145965
626.551	0.0145094
626.629	0.0145564
626.707	0.0146029
626.785	0.0145020
626.863	0.0146217
626.942	0.0144958
627.020	0.0146340
627.098	0.0146049
627.176	0.0146281
627.254	0.0146622
627.332	0.0144083
627.410	0.0144884
627.488	0.0146866
627.567	0.0144856
627.645	0.0144668
627.723	0.0145413
627.801	0.0145195
627.879	0.0145714
627.957	0.0145574
628.035	0.0146147
628.113	0.0145430
628.192	0.0145609
628.270	0.0145825
628.348	0.0145867
628.426	0.0147086
628.504	0.0144838
628.582	0.0145593
628.660	0.0145317
628.738	0.0145940
628.817	0.0145638
628.895	0.0146081
628.973	0.0145416
629.051	0.0145159
629.129	0.0147744
629.207	0.0146339
629.285	0.0146085
629.363	0.0145927
629.442	0.0146314
629.520	0.0146289
629.598	0.0146484
629.676	0.0145154
629.754	0.0145358
629.832	0.0146049
629.910	0.0146165
629.988	0.0145558
630.067	0.0144736
630.145	0.0145954
630.223	0.0145890
630.301	0.0145036
630.379	0.0145432
630.457	0.0145235
630.535	0.0145483
630.613	0.0145331
630.692	0.0145674
630.770	0.0145404
630.848	0.0145592
630.926	0.0145284
631.004	0.0145214
631.082	0.0145095
631.160	0.0145013
631.238	0.0144290
631.317	0.0146621
631.395	0.0144803
631.473	0.0146510
631.551	0.0144259
631.629	0.0145667
631.707	0.0144402
631.785	0.0144698
631.863	0.0145612
631.942	0.0144883
632.020	0.0144627
632.098	0.0146677
632.176	0.0145368
632.254	0.0144299
632.332	0.0145949
632.410	0.0144693
632.488	0.0144174
632.567	0.0144797
632.645	0.0144895
632.723	0.0145036
632.801	0.0145947
632.879	0.0145123
632.957	0.0145541
633.035	0.0145473
633.113	0.0146250
633.192	0.0144882
633.270	0.0145492
633.348	0.0145384
633.426	0.0145947
633.504	0.0145577
633.582	0.0147105
633.660	0.0145538
633.738	0.0146519
633.817	0.0145454
633.895	0.0144108
633.973	0.0144376
634.051	0.0146598
634.129	0.0145515
634.207	0.0145027
634.285	0.0144549
634.363	0.0145026
634.442	0.0146932
634.520	0.0145490
634.598	0.0145155
634.676	0.0146228
634.754	0.0145718
634.832	0.0145444
634.910	0.0145686
634.988	0.0146095
635.067	0.0146297
635.145	0.0145328
635.223	0.0145866
635.301	0.0144871
635.379	0.0145671
635.457	0.0146339
635.535	0.0145808
635.613	0.0145265
635.692	0.0147030
635.770	0.0145843
635.848	0.0146090
635.926	0.0144535
636.004	0.0147293
636.082	0.0146911
636.160	0.0146808
636.238	0.0145278
636.317	0.0146174
636.395	0.0145866
636.473	0.0145657
636.551	0.0146046
636.629	0.0147289
636.707	0.0146033
636.785	0.0144743
636.863	0.0146585
636.942	0.0147203
637.020	0.0146468
637.098	0.0145357
637.176	0.0144815
637.254	0.0146550
637.332	0.0145624
637.410	0.0145262
637.488	0.0145752
637.567	0.0146597
637.645	0.0145107
637.723	0.0144417
637.801	0.0145168
637.879	0.0144997
637.957	0.0145728
638.035	0.0145946
638.113	0.0144450
638.192	0.0145393
638.270	0.0145461
638.348	0.0144363
638.426	0.0145528
638.504	0.0145781
638.582	0.0144878
638.660	0.0145423
638.738	0.0143919
638.817	0.0144343
638.895	0.0145210
638.973	0.0145107
639.051	0.0145566
639.129	0.0146461
639.207	0.0145544
639.285	0.0145857
639.363	0.0146606
639.442	0.0146640
639.520	0.0144577
639.598	0.0146642
639.676	0.0146513
639.754	0.0146071
639.832	0.0146069
639.910	0.0145876
639.988	0.0145857
640.067	0.0145950
640.145	0.0146626
640.223	0.0146046
640.301	0.0147014
640.379	0.0147890
640.457	0.0147076
640.535	0.0145692
640.613	0.0145995
640.692	0.0147472
640.770	0.0147298
640.848	0.0145424
640.926	0.0146342
641.004	0.0148059
641.082	0.0145677
641.160	0.0145699
641.238	0.0146584
641.317	0.0146490
641.395	0.0146827
641.473	0.0146278
641.551	0.0144538
641.629	0.0143797
641.707	0.0145288
641.785	0.0145362
641.863	0.0143981
641.942	0.0143982
642.020	0.0145490
642.098	0.0144619
642.176	0.0144057
642.254	0.0146111
642.332	0.0145988
642.410	0.0145879
642.488	0.0145197
642.567	0.0145662
642.645	0.0146881
642.723	0.0146246
642.801	0.0145934
642.879	0.0146465
642.957	0.0145558
643.035	0.0146778
643.113	0.0148186
643.192	0.0148387
643.270	0.0147747
643.348	0.0147787
643.426	0.0147366
643.504	0.0148163
643.582	0.0147185
643.660	0.0146855
643.738	0.0147903
643.817	0.0146799
643.895	0.0145436
643.973	0.0146371
644.051	0.0145228
644.129	0.0145087
644.207	0.0145618
644.285	0.0145172
644.363	0.0144597
644.442	0.0143964
644.520	0.0145934
644.598	0.0145177
644.676	0.0145822
644.754	0.0145572
644.832	0.0145672
644.910	0.0147141
644.988	0.0145541
645.067	0.0146705
645.145	0.0145537
645.223	0.0145858
645.301	0.0144928
645.379	0.0145162
645.457	0.0145274
645.535	0.0145561
645.613	0.0145764
645.692	0.0144940
645.770	0.0147627
645.848	0.0146581
645.926	0.0145412
646.004	0.0147199
646.082	0.0147903
646.160	0.0147027
646.238	0.0147414
646.317	0.0146832
646.395	0.0146503
646.473	0.0146443
646.551	0.0147690
646.629	0.0146858
646.707	0.0147362
646.785	0.0146152
646.863	0.0148264
646.942	0.0148700
647.020	0.0148844
647.098	0.0148000
647.176	0.0147520
647.254	0.0148358
647.332	0.0148063
647.410	0.0146310
647.488	0.0146409
647.567	0.0146602
647.645	0.0146119
647.723	0.0144765
647.801	0.0144098
647.879	0.0145647
647.957	0.0144590
648.035	0.0145073
648.113	0.0144925
648.192	0.0144766
648.270	0.0144362
648.348	0.0145969
648.426	0.0145895
648.504	0.0144139
648.582	0.0143982
648.660	0.0144748
648.738	0.0142818
648.817	0.0142747
648.895	0.0142216
648.973	0.0142554
649.051	0.0141399
649.129	0.0141601
649.207	0.0141284
649.285	0.0140714
649.363	0.0141383
649.442	0.0140839
649.520	0.0142255
649.598	0.0143169
649.676	0.0144106
649.754	0.0145427
649.832	0.0145772
649.910	0.0146684
649.988	0.0148431
650.067	0.0149140
650.145	0.0148735
650.223	0.0149300
650.301	0.0148949
650.379	0.0149085
650.457	0.0149182
650.535	0.0149990
650.613	0.0147903
650.692	0.0149545
650.770	0.0149567
650.848	0.0148640
650.926	0.0148043
651.004	0.0149675
651.082	0.0149998
651.160	0.0148636
651.238	0.0147046
651.317	0.0147743
651.395	0.0147690
651.473	0.0148084
651.551	0.0146587
651.629	0.0145708
651.707	0.0145618
651.785	0.0145013
651.863	0.0145211
651.942	0.0145780
652.020	0.0145321
652.098	0.0144449
652.176	0.0144566
652.254	0.0145364
652.332	0.0145160
652.410	0.0146333
652.488	0.0144732
652.567	0.0143937
652.645	0.0145338
652.723	0.0143978
652.801	0.0143970
652.879	0.0141910
652.957	0.0141731
653.035	0.0142856
653.113	0.0140479
653.192	0.0140225
653.270	0.0138857
653.348	0.0138356
653.426	0.0140599
653.504	0.0139750
653.582	0.0137601
653.660	0.0139386
653.738	0.0142272
653.817	0.0141727
653.895	0.0142069
653.973	0.0142445
654.051	0.0144896
654.129	0.0146047
654.207	0.0146925
654.285	0.0146396
654.363	0.0147014
654.442	0.0147655
654.520	0.0148470
654.598	0.0149551
654.676	0.0148606
654.754	0.0148234
654.832	0.0147242
654.910	0.0148239
654.988	0.0150069
655.067	0.0150011
655.145	0.0149726
655.223	0.0149751
655.301	0.0150016
655.379	0.0150171
655.457	0.0149908
655.535	0.0149390
655.613	0.0149748
655.692	0.0149159
655.770	0.0148639
655.848	0.0150154
655.926	0.0150009
656.004	0.0148676
656.082	0.0148780
656.160	0.0149383
656.238	0.0149957
656.317	0.0149343
656.395	0.0149869
656.473	0.0149342
656.551	0.0148037
656.629	0.0147900
656.707	0.0147292
656.785	0.0145743
656.863	0.0145473
656.942	0.0144542
657.020	0.0143405
657.098	0.0144323
657.176	0.0142369
657.254	0.0142663
657.332	0.0142030
657.410	0.0141747
657.488	0.0141228
657.567	0.0140615
657.645	0.0141228
657.723	0.0140220
657.801	0.0140051
657.879	0.0141682
657.957	0.0140676
658.035	0.0141080
658.113	0.0143121
658.192	0.0141511
658.270	0.0142583
658.348	0.0144099
658.426	0.0141472
658.504	0.0142438
658.582	0.0142767
658.660	0.0142979
658.738	0.0143492
658.817	0.0140854
658.895	0.0143459
658.973	0.0142582
659.051	0.0142651
659.129	0.0143906
659.207	0.0144477
659.285	0.0145365
659.363	0.0145821
659.442	0.0146031
659.520	0.0148487
659.598	0.0149365
659.676	0.0150430
659.754	0.0152261
659.832	0.0152632
659.910	0.0152760
659.988	0.0154185
660.067	0.0155638
660.145	0.0154754
660.223	0.0155566
660.301	0.0154759
660.379	0.0154317
660.457	0.0154668
660.535	0.0155008
660.613	0.0154007
660.692	0.0153851
660.770	0.0151149
660.848	0.0152100
660.926	0.0149163
661.004	0.0147530
661.082	0.0149776
661.160	0.0148458
661.238	0.0148095
661.317	0.0147614
661.395	0.0147894
661.473	0.0147931
661.551	0.0145516
661.629	0.0145399
661.707	0.0146343
661.785	0.0146225
661.863	0.0145955
661.942	0.0144619
662.020	0.0144714
662.098	0.0143592
662.176	0.0142986
662.254	0.0142626
662.332	0.0142075
662.410	0.0143759
662.488	0.0141481
662.567	0.0140985
662.645	0.0140130
662.723	0.0141221
662.801	0.0141763
662.879	0.0141286
662.957	0.0139875
663.035	0.0141651
663.113	0.0141553
663.192	0.0142090
663.270	0.0141145
663.348	0.0141612
663.426	0.0141770
663.504	0.0142488
663.582	0.0144218
663.660	0.0143606
663.738	0.0143461
663.817	0.0143845
663.895	0.0144862
663.973	0.0143081
664.051	0.0144110
664.129	0.0145326
664.207	0.0146139
664.285	0.0146615
664.363	0.0147676
664.442	0.0148048
664.520	0.0148319
664.598	0.0147792
664.676	0.0149379
664.754	0.0151043
664.832	0.0150719
664.910	0.0149653
664.988	0.0149453
665.067	0.0151192
665.145	0.0152817
665.223	0.0151469
665.301	0.0151534
665.379	0.0150686
665.457	0.0151662
665.535	0.0149696
665.613	0.0150869
665.692	0.0151827
665.770	0.0152055
665.848	0.0150694
665.926	0.0151153
666.004	0.0150626
666.082	0.0152171
666.160	0.0150387
666.238	0.0149487
666.317	0.0149484
666.395	0.0147082
666.473	0.0147686
666.551	0.0145092
666.629	0.0145528
666.707	0.0146167
666.785	0.0142721
666.863	0.0142568
666.942	0.0142017
667.020	0.0140103
667.098	0.0141660
667.176	0.0141185
667.254	0.0140646
667.332	0.0142174
667.410	0.0142360
667.488	0.0143781
667.567	0.0144442
667.645	0.0143873
667.723	0.0143500
667.801	0.0145484
667.879	0.0145647
667.957	0.0146267
668.035	0.0145895
668.113	0.0145448
668.192	0.0145648
668.270	0.0146572
668.348	0.0145269
668.426	0.0144125
668.504	0.0145303
668.582	0.0146043
668.660	0.0145320
668.738	0.0143509
668.817	0.0145189
668.895	0.0144226
668.973	0.0144706
669.051	0.0143242
669.129	0.0142313
669.207	0.0141988
669.285	0.0142125
669.363	0.0141898
669.442	0.0142475
669.520	0.0143903
669.598	0.0141785
669.676	0.0142168
669.754	0.0143864
669.832	0.0141723
669.910	0.0143414
669.988	0.0143404
670.067	0.0145454
670.145	0.0146515
670.223	0.0146949
670.301	0.0146989
670.379	0.0150721
670.457	0.0150279
670.535	0.0149531
670.613	0.0150494
670.692	0.0150242
670.770	0.0151395
670.848	0.0150546
670.926	0.0150557
671.004	0.0149382
671.082	0.0149407
671.160	0.0149422
671.238	0.0148177
671.317	0.0147829
671.395	0.0147057
671.473	0.0146742
671.551	0.0146864
671.629	0.0145185
671.707	0.0145071
671.785	0.0146043
671.863	0.0144894
671.942	0.0145332
672.020	0.0144553
672.098	0.0143769
672.176	0.0144724
672.254	0.0145367
672.332	0.0145860
672.410	0.0145396
672.488	0.0144958
672.567	0.0145856
672.645	0.0146261
672.723	0.0145390
672.801	0.0147750
672.879	0.0149199
672.957	0.0149867
673.035	0.0149052
673.113	0.0149690
673.192	0.0150504
673.270	0.0150445
673.348	0.0151440
673.426	0.0150657
673.504	0.0150858
673.582	0.0150090
673.660	0.0148853
673.738	0.0147800
673.817	0.0145267
673.895	0.0142095
673.973	0.0141216
674.051	0.0138799
674.129	0.0139758
674.207	0.0138097
674.285	0.0136156
674.363	0.0135701
674.442	0.0134893
674.520	0.0134462
674.598	0.0133702
674.676	0.0135612
674.754	0.0137081
674.832	0.0136110
674.910	0.0137531
674.988	0.0139428
675.067	0.0141956
675.145	0.0143578
675.223	0.0145395
675.301	0.0146849
675.379	0.0149243
675.457	0.0151791
675.535	0.0151456
675.613	0.0153217
675.692	0.0154854
675.770	0.0154839
675.848	0.0156444
675.926	0.0156470
676.004	0.0156080
676.082	0.0155283
676.160	0.0153819
676.238	0.0154128
676.317	0.0153221
676.395	0.0152024
676.473	0.0150352
676.551	0.0149728
676.629	0.0148228
676.707	0.0148258
676.785	0.0147504
676.863	0.0145672
676.942	0.0146326
677.020	0.0143911
677.098	0.0143062
677.176	0.0142722
677.254	0.0143220
677.332	0.0142135
677.410	0.0142186
677.488	0.0140749
677.567	0.0140622
677.645	0.0140180
677.723	0.0140049
677.801	0.0139616
677.879	0.0140565
677.957	0.0139772
678.035	0.0139481
678.113	0.0140739
678.192	0.0141288
678.270	0.0141733
678.348	0.0143626
678.426	0.0143510
678.504	0.0145305
678.582	0.0147380
678.660	0.0147704
678.738	0.0147967
678.817	0.0149280
678.895	0.0149787
678.973	0.0150465
679.051	0.0151996
679.129	0.0154124
679.207	0.0153371
679.285	0.0154622
679.363	0.0155787
679.442	0.0154252
679.520	0.0155898
679.598	0.0155720
679.676	0.0155231
679.754	0.0153732
679.832	0.0151846
679.910	0.0151608
679.988	0.0150035
680.067	0.0148454
680.145	0.0147690
680.223	0.0148064
680.301	0.0146458
680.379	0.0145131
680.457	0.0143398
680.535	0.0143785
680.613	0.0141611
680.692	0.0140908
680.770	0.0141165
680.848	0.0141461
680.926	0.0139951
681.004	0.0139850
681.082	0.0139365
681.160	0.0138528
681.238	0.0139054
681.317	0.0137551
681.395	0.0136802
681.473	0.0139877
681.551	0.0138232
681.629	0.0140001
681.707	0.0140530
681.785	0.0140273
681.863	0.0141633
681.942	0.0143069
682.020	0.0145859
682.098	0.0146822
682.176	0.0146459
682.254	0.0148663
682.332	0.0151406
682.410	0.0152424
682.488	0.0150111
682.567	0.0149605
682.645	0.0150883
682.723	0.0150269
682.801	0.0149599
682.879	0.0149853
682.957	0.0149500
683.035	0.0148619
683.113	0.0148533
683.192	0.0148172
683.270	0.0147255
683.348	0.0146929
683.426	0.0146848
683.504	0.0147172
683.582	0.0147163
683.660	0.0146756
683.738	0.0148040
683.817	0.0147078
683.895	0.0146298
683.973	0.0146179
684.051	0.0147186
684.129	0.0147313
684.207	0.0145905
684.285	0.0146217
684.363	0.0147457
684.442	0.0147134
684.520	0.0147977
684.598	0.0146867
684.676	0.0147433
684.754	0.0146707
684.832	0.0146780
684.910	0.0146377
684.988	0.0145115
685.067	0.0145454
685.145	0.0145510
685.223	0.0144500
685.301	0.0142898
685.379	0.0143204
685.457	0.0143274
685.535	0.0142842
685.613	0.0142307
685.692	0.0142644
685.770	0.0141095
685.848	0.0142413
685.926	0.0142339
686.004	0.0142162
686.082	0.0142728
686.160	0.0141701
686.238	0.0140712
686.317	0.0140986
686.395	0.0142235
686.473	0.0143078
686.551	0.0143348
686.629	0.0144430
686.707	0.0143610
686.785	0.0147029
686.863	0.0147895
686.942	0.0148251
687.020	0.0149947
687.098	0.0151903
687.176	0.0154247
687.254	0.0153489
687.332	0.0155028
687.410	0.0154826
687.488	0.0155016
687.567	0.0155444
687.645	0.0154504
687.723	0.0154429
687.801	0.0153027
687.879	0.0151585
687.957	0.0149793
688.035	0.0149811
688.113	0.0148155
688.192	0.0147482
688.270	0.0144889
688.348	0.0143597
688.426	0.0141890
688.504	0.0140312
688.582	0.0140298
688.660	0.0138118
688.738	0.0137696
688.817	0.0137221
688.895	0.0135963
688.973	0.0136600
689.051	0.0135325
689.129	0.0136144
689.207	0.0135332
689.285	0.0137130
689.363	0.0139432
689.442	0.0140421
689.520	0.0140413
689.598	0.0142306
689.676	0.0144391
689.754	0.0144853
689.832	0.0146088
689.910	0.0146159
689.988	0.0147520
690.067	0.0147720
690.145	0.0148109
690.223	0.0149614
690.301	0.0148412
690.379	0.0149094
690.457	0.0149722
690.535	0.0148917
690.613	0.0146963
690.692	0.0147882
690.770	0.0150163
690.848	0.0147878
690.926	0.0148991
691.004	0.0150036
691.082	0.0150311
691.160	0.0149099
691.238	0.0149850
691.317	0.0149940
691.395	0.0149854
691.473	0.0149435
691.551	0.0150862
691.629	0.0148914
691.707	0.0148524
691.785	0.0147366
691.863	0.0147066
691.942	0.0146400
692.020	0.0145531
692.098	0.0145347
692.176	0.0145923
692.254	0.0145155
692.332	0.0144998
692.410	0.0145985
692.488	0.0144944
692.567	0.0144017
692.645	0.0145021
692.723	0.0145406
692.801	0.0145358
692.879	0.0144845
692.957	0.0145631
693.035	0.0146582
693.113	0.0146581
693.192	0.0148506
693.270	0.0147231
693.348	0.0146796
693.426	0.0145293
693.504	0.0147131
693.582	0.0146320
693.660	0.0146629
693.738	0.0144556
693.817	0.0144240
693.895	0.0143229
693.973	0.0144360
694.051	0.0142754
694.129	0.0141991
694.207	0.0140818
694.285	0.0142211
694.363	0.0140672
694.442	0.0139307
694.520	0.0140578
694.598	0.0140598
694.676	0.0137764
694.754	0.0139414
694.832	0.0140386
694.910	0.0140705
694.988	0.0140371
695.067	0.0141082
695.145	0.0143220
695.223	0.0142152
695.301	0.0142552
695.379	0.0142012
695.457	0.0146011
695.535	0.0145238
695.613	0.0145567
695.692	0.0146350
695.770	0.0148179
695.848	0.0147958
695.926	0.0148537
696.004	0.0150312
696.082	0.0149661
696.160	0.0151136
696.238	0.0151944
696.317	0.0151204
696.395	0.0153159
696.473	0.0154017
696.551	0.0155340
696.629	0.0155274
696.707	0.0156249
696.785	0.0158074
696.863	0.0157967
696.942	0.0158524
697.020	0.0159241
697.098	0.0159173
697.176	0.0159610
697.254	0.0159396
697.332	0.0156350
697.410	0.0156116
697.488	0.0154031
697.567	0.0152422
697.645	0.0151409
697.723	0.0149159
697.801	0.0147066
697.879	0.0146075
697.957	0.0143807
698.035	0.0143435
698.113	0.0139922
698.192	0.0138642
698.270	0.0138344
698.348	0.0135931
698.426	0.0134664
698.504	0.0134772
698.582	0.0133592
698.660	0.0131718
698.738	0.0129659
698.817	0.0129618
698.895	0.0129384
698.973	0.0129853
699.051	0.0127857
699.129	0.0129789
699.207	0.0131849
699.285	0.0132063
699.363	0.0132964
699.442	0.0134516
699.520	0.0136630
699.598	0.0139908
699.676	0.0141590
699.754	0.0143421
699.832	0.0146662
699.910	0.0148463
699.988	0.0149579
700.067	0.0150819
700.145	0.0153249
700.223	0.0155515
700.301	0.0158997
700.379	0.0157603
700.457	0.0159146
700.535	0.0160487
700.613	0.0161117
700.692	0.0163089
700.770	0.0161395
700.848	0.0159536
700.926	0.0161446
701.004	0.0160555
701.082	0.0160120
701.160	0.0159071
701.238	0.0157904
701.317	0.0156028
701.395	0.0156147
701.473	0.0154652
701.551	0.0152807
701.629	0.0150343
701.707	0.0150131
701.785	0.0149322
701.863	0.0148536
701.942	0.0147351
702.020	0.0145548
702.098	0.0146056
702.176	0.0144004
702.254	0.0143605
702.332	0.0141364
702.410	0.0139948
702.488	0.0139443
702.567	0.0138257
702.645	0.0136890
702.723	0.0136078
702.801	0.0135258
702.879	0.0134363
702.957	0.0133424
703.035	0.0134807
703.113	0.0132924
703.192	0.0134411
703.270	0.0134124
703.348	0.0134301
703.426	0.0135613
703.504	0.0135377
703.582	0.0137746
703.660	0.0137691
703.738	0.0137280
703.817	0.0138927
703.895	0.0140240
703.973	0.0139742
704.051	0.0141685
704.129	0.0143620
704.207	0.0145766
704.285	0.0146366
704.363	0.0146053
704.442	0.0149606
704.520	0.0149950
704.598	0.0150708
704.676	0.0150836
704.754	0.0153168
704.832	0.0155079
704.910	0.0155256
704.988	0.0156507
705.067	0.0154173
705.145	0.0155654
705.223	0.0155144
705.301	0.0155111
705.379	0.0156435
705.457	0.0155404
705.535	0.0155261
705.613	0.0153262
705.692	0.0152736
705.770	0.0151942
705.848	0.0150829
705.926	0.0148920
706.004	0.0150373
706.082	0.0149670
706.160	0.0147025
706.238	0.0147060
706.317	0.0146918
706.395	0.0145317
706.473	0.0145718
706.551	0.0146040
706.629	0.0144075
706.707	0.0142271
706.785	0.0142402
706.863	0.0141589
706.942	0.0141209
707.020	0.0139931
707.098	0.0141081
707.176	0.0141508
707.254	0.0140345
707.332	0.0139861
707.410	0.0140178
707.488	0.0142125
707.567	0.0141502
707.645	0.0144091
707.723	0.0144434
707.801	0.0145579
707.879	0.0146398
707.957	0.0147005
708.035	0.0147204
708.113	0.0147941
708.192	0.0147079
708.270	0.0146883
708.348	0.0147552
708.426	0.0148453
708.504	0.0147029
708.582	0.0148013
708.660	0.0146960
708.738	0.0148847
708.817	0.0146970
708.895	0.0145821
708.973	0.0147301
709.051	0.0145484
709.129	0.0144732
709.207	0.0144460
709.285	0.0144064
709.363	0.0144053
709.442	0.0144543
709.520	0.0144713
709.598	0.0143369
709.676	0.0144403
709.754	0.0144975
709.832	0.0145415
709.910	0.0145758
709.988	0.0148144
710.067	0.0147035
710.145	0.0147209
710.223	0.0149202
710.301	0.0149477
710.379	0.0148602
710.457	0.0150214
710.535	0.0150382
710.613	0.0151370
710.692	0.0149952
710.770	0.0149654
710.848	0.0150061
710.926	0.0150327
711.004	0.0149169
711.082	0.0148413
711.160	0.0148869
711.238	0.0148377
711.317	0.0144653
711.395	0.0147514
711.473	0.0147747
711.551	0.0146610
711.629	0.0147385
711.707	0.0146381
711.785	0.0145799
711.863	0.0145702
711.942	0.0144027
712.020	0.0145062
712.098	0.0145499
712.176	0.0145634
712.254	0.0143957
712.332	0.0143011
712.410	0.0143081
712.488	0.0142124
712.567	0.0140780
712.645	0.0142149
712.723	0.0142149
712.801	0.0141731
712.879	0.0143228
712.957	0.0143156
713.035	0.0145528
713.113	0.0144106
713.192	0.0145097
713.270	0.0147520
713.348	0.0146593
713.426	0.0146807
713.504	0.0147471
713.582	0.0146815
713.660	0.0147483
713.738	0.0148189
713.817	0.0146661
713.895	0.0146248
713.973	0.0147127
714.051	0.0145652
714.129	0.0143621
714.207	0.0145315
714.285	0.0145004
714.363	0.0144305
714.442	0.0143843
714.520	0.0145182
714.598	0.0145611
714.676	0.0143495
714.754	0.0144524
714.832	0.0146870
714.910	0.0146208
714.988	0.0144106
715.067	0.0145789
715.145	0.0147080
715.223	0.0147063
715.301	0.0148808
715.379	0.0148225
715.457	0.0150134
715.535	0.0149239
715.613	0.0148018
715.692	0.0148656
715.770	0.0150314
715.848	0.0148782
715.926	0.0148083
716.004	0.0148531
716.082	0.0148536
716.160	0.0147543
716.238	0.0147585
716.317	0.0146590
716.395	0.0146654
716.473	0.0146390
716.551	0.0145764
716.629	0.0145358
716.707	0.0146917
716.785	0.0145279
716.863	0.0145448
716.942	0.0145438
717.020	0.0146050
717.098	0.0145069
717.176	0.0146231
717.254	0.0144839
717.332	0.0144484
717.410	0.0145120
717.488	0.0146819
717.567	0.0145551
717.645	0.0146775
717.723	0.0145356
717.801	0.0146030
717.879	0.0146217
717.957	0.0145615
718.035	0.0145927
718.113	0.0148125
718.192	0.0145417
718.270	0.0146248
718.348	0.0145978
718.426	0.0144946
718.504	0.0145921
718.582	0.0145150
718.660	0.0144088
718.738	0.0144518
718.817	0.0143571
718.895	0.0145314
718.973	0.0143060
719.051	0.0144111
719.129	0.0145970
719.207	0.0144491
719.285	0.0145039
719.363	0.0147124
719.442	0.0145652
719.520	0.0146957
719.598	0.0147215
719.676	0.0147477
719.754	0.0148009
719.832	0.0146661
719.910	0.0147980
719.988	0.0146933
720.067	0.0146910
720.145	0.0146225
720.223	0.0145939
720.301	0.0144715
720.379	0.0144276
720.457	0.0143761
720.535	0.0143995
720.613	0.0142927
720.692	0.0144797
720.770	0.0145605
720.848	0.0146500
720.926	0.0145787
721.004	0.0146415
721.082	0.0147060
721.160	0.0147880
721.238	0.0147668
721.317	0.0148813
721.395	0.0148616
721.473	0.0148772
721.551	0.0148398
721.629	0.0148697
721.707	0.0148949
721.785	0.0148351
721.863	0.0147821
721.942	0.0149402
722.020	0.0146386
722.098	0.0146910
722.176	0.0147597
722.254	0.0148134
722.332	0.0145886
722.410	0.0146349
722.488	0.0145757
722.567	0.0145102
722.645	0.0145376
722.723	0.0144787
722.801	0.0145837
722.879	0.0146095
722.957	0.0143833
723.035	0.0144501
723.113	0.0144905
723.192	0.0145139
723.270	0.0142939
723.348	0.0143032
723.426	0.0143275
723.504	0.0143639
723.582	0.0141610
723.660	0.0141642
723.738	0.0143490
723.817	0.0141824
723.895	0.0143109
723.973	0.0143218
724.051	0.0143578
724.129	0.0144402
724.207	0.0143736
724.285	0.0143860
724.363	0.0144307
724.442	0.0145709
724.520	0.0147060
724.598	0.0146718
724.676	0.0148624
724.754	0.0147468
724.832	0.0147790
724.910	0.0148732
724.988	0.0150076
725.067	0.0148595
725.145	0.0151265
725.223	0.0149274
725.301	0.0146562
725.379	0.0148206
725.457	0.0148304
725.535	0.0147346
725.613	0.0148393
725.692	0.0147887
725.770	0.0146233
725.848	0.0145821
725.926	0.0145338
726.004	0.0145768
726.082	0.0145485
726.160	0.0146250
726.238	0.0146057
726.317	0.0145636
726.395	0.0145642
726.473	0.0146145
726.551	0.0145106
726.629	0.0145404
726.707	0.0146873
726.785	0.0144800
726.863	0.0143334
726.942	0.0144864
727.020	0.0144708
727.098	0.0143221
727.176	0.0144555
727.254	0.0144234
727.332	0.0143925
727.410	0.0145358
727.488	0.0144634
727.567	0.0143048
727.645	0.0144466
727.723	0.0144902
727.801	0.0143757
727.879	0.0145761
727.957	0.0143961
728.035	0.0144604
728.113	0.0145036
728.192	0.0145025
728.270	0.0144556
728.348	0.0143729
728.426	0.0143053
728.504	0.0143926
728.582	0.0142772
728.660	0.0144212
728.738	0.0144743
728.817	0.0143596
728.895	0.0144340
728.973	0.0144870
729.051	0.0144816
729.129	0.0144245
729.207	0.0147454
729.285	0.0146304
729.363	0.0147020
729.442	0.0145198
729.520	0.0148212
729.598	0.0146106
729.676	0.0146878
729.754	0.0147641
729.832	0.0147749
729.910	0.0148298
729.988	0.0147468
730.067	0.0147624
730.145	0.0147234
730.223	0.0147463
730.301	0.0148240
730.379	0.0146497
730.457	0.0145763
730.535	0.0146083
730.613	0.0147283
730.692	0.0146577
730.770	0.0145927
730.848	0.0145031
730.926	0.0145655
731.004	0.0145285
731.082	0.0143575
731.160	0.0143990
731.238	0.0143690
731.317	0.0144150
731.395	0.0142971
731.473	0.0143758
731.551	0.0145332
731.629	0.0144540
731.707	0.0144949
731.785	0.0146528
731.863	0.0144830
731.942	0.0146433
732.020	0.0148004
732.098	0.0145152
732.176	0.0146404
732.254	0.0146989
732.332	0.0147972
732.410	0.0147463
732.488	0.0148170
732.567	0.0149001
732.645	0.0145950
732.723	0.0147175
732.801	0.0146783
732.879	0.0147434
732.957	0.0146647
733.035	0.0145647
733.113	0.0146205
733.192	0.0145723
733.270	0.0146083
733.348	0.0145954
733.426	0.0145757
733.504	0.0145420
733.582	0.0146556
733.660	0.0146599
733.738	0.0148105
733.817	0.0148016
733.895	0.0146233
733.973	0.0146362
734.051	0.0148192
734.129	0.0148750
734.207	0.0146694
734.285	0.0147482
734.363	0.0146627
734.442	0.0146584
734.520	0.0146020
734.598	0.0146451
734.676	0.0145254
734.754	0.0146500
734.832	0.0144869
734.910	0.0144131
734.988	0.0144041
735.067	0.0146201
735.145	0.0143739
735.223	0.0145026
735.301	0.0144974
735.379	0.0145283
735.457	0.0144808
735.535	0.0143751
735.613	0.0144122
735.692	0.0144536
735.770	0.0146114
735.848	0.0146674
735.926	0.0145725
736.004	0.0146915
736.082	0.0146002
736.160	0.0145042
736.238	0.0145631
736.317	0.0146329
736.395	0.0145951
736.473	0.0146243
736.551	0.0146520
736.629	0.0146877
736.707	0.0147044
736.785	0.0148735
736.863	0.0146769
736.942	0.0148229
737.020	0.0148758
737.098	0.0149442
737.176	0.0149431
737.254	0.0149049
737.332	0.0151061
737.410	0.0150518
737.488	0.0149940
737.567	0.0151428
737.645	0.0149994
737.723	0.0150636
737.801	0.0149416
737.879	0.0148540
737.957	0.0147094
738.035	0.0147034
738.113	0.0147018
738.192	0.0147469
738.270	0.0145631
738.348	0.0145680
738.426	0.0145964
738.504	0.0145105
738.582	0.0144996
738.660	0.0145270
738.738	0.0145564
738.817	0.0144471
738.895	0.0143719
738.973	0.0143548
739.051	0.0144015
739.129	0.0143937
739.207	0.0143980
739.285	0.0144373
739.363	0.0143610
739.442	0.0143734
739.520	0.0144993
739.598	0.0143048
739.676	0.0144639
739.754	0.0144154
739.832	0.0145155
739.910	0.0146081
739.988	0.0147311
740.067	0.0146888
740.145	0.0146835
740.223	0.0146187
740.301	0.0148679
740.379	0.0148428
740.457	0.0149024
740.535	0.0149278
740.613	0.0147318
740.692	0.0148125
740.770	0.0148150
740.848	0.0149040
740.926	0.0147464
741.004	0.0147892
741.082	0.0146141
741.160	0.0147695
741.238	0.0147579
741.317	0.0147574
741.395	0.0148265
741.473	0.0148635
741.551	0.0147244
741.629	0.0147792
741.707	0.0149049
741.785	0.0148006
741.863	0.0149394
741.942	0.0149777
742.020	0.0148710
742.098	0.0147514
742.176	0.0147659
742.254	0.0147910
742.332	0.0147340
742.410	0.0147008
742.488	0.0147595
742.567	0.0146890
742.645	0.0146252
742.723	0.0146505
742.801	0.0146698
742.879	0.0145659
742.957	0.0145333
743.035	0.0144883
743.113	0.0145440
743.192	0.0144713
743.270	0.0145853
743.348	0.0145354
743.426	0.0144617
743.504	0.0145219
743.582	0.0145724
743.660	0.0144700
743.738	0.0144885
743.817	0.0145429
743.895	0.0144331
743.973	0.0143807
744.051	0.0143376
744.129	0.0144817
744.207	0.0144714
744.285	0.0145381
744.363	0.0144928
744.442	0.0144555
744.520	0.0144200
744.598	0.0143930
744.676	0.0143723
744.754	0.0144692
744.832	0.0145918
744.910	0.0145006
744.988	0.0145244
745.067	0.0145881
745.145	0.0144420
745.223	0.0146252
745.301	0.0145873
745.379	0.0145417
745.457	0.0144523
745.535	0.0145662
745.613	0.0146515
745.692	0.0146065
745.770	0.0146159
745.848	0.0145804
745.926	0.0146473
746.004	0.0146266
746.082	0.0145427
746.160	0.0145732
746.238	0.0146823
746.317	0.0145300
746.395	0.0145498
746.473	0.0147251
746.551	0.0144218
746.629	0.0145831
746.707	0.0145122
746.785	0.0146279
746.863	0.0145024
746.942	0.0144277
747.020	0.0144754
747.098	0.0143768
747.176	0.0143643
747.254	0.0143202
747.332	0.0142549
747.410	0.0143830
747.488	0.0144504
747.567	0.0143008
747.645	0.0143077
747.723	0.0142589
747.801	0.0144399
747.879	0.0144415
747.957	0.0145981
748.035	0.0145709
748.113	0.0145376
748.192	0.0145416
748.270	0.0145876
748.348	0.0146227
748.426	0.0147918
748.504	0.0146027
748.582	0.0144865
748.660	0.0147520
748.738	0.0145645
748.817	0.0145484
748.895	0.0146621
748.973	0.0146433
749.051	0.0145390
749.129	0.0145676
749.207	0.0145681
749.285	0.0144231
749.363	0.0145555
749.442	0.0144624
749.520	0.0144800
749.598	0.0145615
749.676	0.0145020
749.754	0.0146198
749.832	0.0144722
749.910	0.0145697
749.988	0.0145914
750.067	0.0145808
750.145	0.0145875
750.223	0.0145979
750.301	0.0144721
750.379	0.0145860
750.457	0.0146047
750.535	0.0147095
750.613	0.0145344
750.692	0.0145741
750.770	0.0147112
750.848	0.0144689
750.926	0.0147081
751.004	0.0146540
751.082	0.0144428
751.160	0.0145277
751.238	0.0146271
751.317	0.0146307
751.395	0.0145187
751.473	0.0145142
751.551	0.0145308
751.629	0.0145021
751.707	0.0144308
751.785	0.0145498
751.863	0.0144541
751.942	0.0144764
752.020	0.0143836
752.098	0.0143935
752.176	0.0143851
752.254	0.0144528
752.332	0.0143050
752.410	0.0143318
752.488	0.0145515
752.567	0.0144939
752.645	0.0145896
752.723	0.0145623
752.801	0.0147295
752.879	0.0145993
752.957	0.0145821
753.035	0.0146735
753.113	0.0147166
753.192	0.0147676
753.270	0.0146984
753.348	0.0147994
753.426	0.0147476
753.504	0.0148174
753.582	0.0147946
753.660	0.0146774
753.738	0.0145699
753.817	0.0145927
753.895	0.0145963
753.973	0.0146053
754.051	0.0145127
754.129	0.0145723
754.207	0.0144882
754.285	0.0144701
754.363	0.0144756
754.442	0.0144701
754.520	0.0145564
754.598	0.0143672
754.676	0.0144089
754.754	0.0146259
754.832	0.0145295
754.910	0.0145094
754.988	0.0144682
755.067	0.0145040
755.145	0.0146322
755.223	0.0145086
755.301	0.0144939
755.379	0.0146329
755.457	0.0145301
755.535	0.0144617
755.613	0.0145642
755.692	0.0145773
755.770	0.0145280
755.848	0.0145338
755.926	0.0145248
756.004	0.0145510
756.082	0.0147006
756.160	0.0146650
756.238	0.0147435
756.317	0.0147516
756.395	0.0145532
756.473	0.0147636
756.551	0.0147488
756.629	0.0147747
756.707	0.0148182
756.785	0.0148114
756.863	0.0147240
756.942	0.0146963
757.020	0.0148309
757.098	0.0147323
757.176	0.0146906
757.254	0.0148440
757.332	0.0147705
757.410	0.0146374
757.488	0.0146502
757.567	0.0145950
757.645	0.0146597
757.723	0.0147211
757.801	0.0145976
757.879	0.0145921
757.957	0.0145825
758.035	0.0146009
758.113	0.0147517
758.192	0.0146818
758.270	0.0146481
758.348	0.0148411
758.426	0.0148155
758.504	0.0148521
758.582	0.0148913
758.660	0.0148773
758.738	0.0147887
758.817	0.0148338
758.895	0.0148521
758.973	0.0147328
759.051	0.0148294
759.129	0.0147716
759.207	0.0147491
759.285	0.0147263
759.363	0.0146493
759.442	0.0145940
759.520	0.0145743
759.598	0.0145775
759.676	0.0144650
759.754	0.0143596
759.832	0.0145482
759.910	0.0145855
759.988	0.0145098
760.067	0.0143827
760.145	0.0144136
760.223	0.0144213
760.301	0.0145216
760.379	0.0143350
760.457	0.0143394
760.535	0.0144402
760.613	0.0145863
760.692	0.0147029
760.770	0.0145430
760.848	0.0146421
760.926	0.0147326
761.004	0.0147340
761.082	0.0148035
761.160	0.0147598
761.238	0.0148705
761.317	0.0148362
761.395	0.0149123
761.473	0.0148542
761.551	0.0148887
761.629	0.0148495
761.707	0.0146971
761.785	0.0148464
761.863	0.0149055
761.942	0.0149696
762.020	0.0148460
762.098	0.0147917
762.176	0.0148246
762.254	0.0148344
762.332	0.0147481
762.410	0.0146739
762.488	0.0147621
762.567	0.0147537
762.645	0.0146436
762.723	0.0147511
762.801	0.0144347
762.879	0.0145702
762.957	0.0144804
763.035	0.0144515
763.113	0.0144861
763.192	0.0144709
763.270	0.0144263
763.348	0.0144580
763.426	0.0144350
763.504	0.0142342
763.582	0.0143487
763.660	0.0143282
763.738	0.0144543
763.817	0.0143032
763.895	0.0144405
763.973	0.0145483
764.051	0.0145244
764.129	0.0144121
764.207	0.0145015
764.285	0.0145145
764.363	0.0146444
764.442	0.0146143
764.520	0.0146510
764.598	0.0145719
764.676	0.0146722
764.754	0.0147297
764.832	0.0145620
764.910	0.0146194
764.988	0.0147504
765.067	0.0146531
765.145	0.0147267
765.223	0.0145650
765.301	0.0146198
765.379	0.0146967
765.457	0.0146153
765.535	0.0146419
765.613	0.0145416
765.692	0.0146907
765.770	0.0147154
765.848	0.0145235
765.926	0.0145596
766.004	0.0147073
766.082	0.0146783
766.160	0.0146321
766.238	0.0146224
766.317	0.0145844
766.395	0.0146260
766.473	0.0147068
766.551	0.0145980
766.629	0.0146653
766.707	0.0148208
766.785	0.0145804
766.863	0.0146452
766.942	0.0147515
767.020	0.0148093
767.098	0.0145721
767.176	0.0145470
767.254	0.0145986
767.332	0.0147195
767.410	0.0146295
767.488	0.0145506
767.567	0.0146230
767.645	0.0145280
767.723	0.0143765
767.801	0.0145557
767.879	0.0145027
767.957	0.0143914
768.035	0.0143844
768.113	0.0144855
768.192	0.0144786
768.270	0.0144034
768.348	0.0145391
768.426	0.0144647
768.504	0.0143872
768.582	0.0144004
768.660	0.0145072
768.738	0.0145567
768.817	0.0145772
768.895	0.0146069
768.973	0.0146844
769.051	0.0144289
769.129	0.0144814
769.207	0.0145741
769.285	0.0145914
769.363	0.0147457
769.442	0.0146696
769.520	0.0146032
769.598	0.0146666
769.676	0.0145881
769.754	0.0146375
769.832	0.0146521
769.910	0.0146046
769.988	0.0146426
770.067	0.0146764
770.145	0.0145354
770.223	0.0145342
770.301	0.0145294
770.379	0.0146046
770.457	0.0146513
770.535	0.0146577
770.613	0.0146766
770.692	0.0146346
770.770	0.0145197
770.848	0.0145758
770.926	0.0145226
771.004	0.0144794
771.082	0.0145142
771.160	0.0144878
771.238	0.0144680
771.317	0.0145612
771.395	0.0144994
771.473	0.0145202
771.551	0.0145321
771.629	0.0145714
771.707	0.0146547
771.785	0.0145532
771.863	0.0145697
771.942	0.0146420
772.020	0.0145724
772.098	0.0145972
772.176	0.0145145
772.254	0.0146486
772.332	0.0146062
772.410	0.0147536
772.488	0.0145569
772.567	0.0146923
772.645	0.0146780
772.723	0.0144546
772.801	0.0145874
772.879	0.0145057
772.957	0.0145020
773.035	0.0144817
773.113	0.0145306
773.192	0.0145497
773.270	0.0145467
773.348	0.0144406
773.426	0.0144320
773.504	0.0146048
773.582	0.0145058
773.660	0.0144997
773.738	0.0147128
773.817	0.0145756
773.895	0.0145934
773.973	0.0145767
774.051	0.0146359
774.129	0.0146056
774.207	0.0146763
774.285	0.0145526
774.363	0.0146515
774.442	0.0146588
774.520	0.0145547
774.598	0.0148942
774.676	0.0145061
774.754	0.0145939
774.832	0.0145583
774.910	0.0145827
774.988	0.0146832
775.067	0.0146117
775.145	0.0146518
775.223	0.0146333
775.301	0.0147050
775.379	0.0146609
775.457	0.0146301
775.535	0.0147121
775.613	0.0145903
775.692	0.0146443
775.770	0.0148086
775.848	0.0146484
775.926	0.0146552
776.004	0.0145113
776.082	0.0146307
776.160	0.0147250
776.238	0.0146635
776.317	0.0144423
776.395	0.0145431
776.473	0.0145566
776.551	0.0145569
776.629	0.0144918
776.707	0.0145063
776.785	0.0145210
776.863	0.0145551
776.942	0.0145005
777.020	0.0145275
777.098	0.0146486
777.176	0.0144930
777.254	0.0144245
777.332	0.0145554
777.410	0.0145573
777.488	0.0144047
777.567	0.0144990
777.645	0.0145096
777.723	0.0144490
777.801	0.0144798
777.879	0.0144595
777.957	0.0145340
778.035	0.0144038
778.113	0.0145134
778.192	0.0145575
778.270	0.0144930
778.348	0.0146496
778.426	0.0146782
778.504	0.0145217
778.582	0.0148158
778.660	0.0148354
778.738	0.0146369
778.817	0.0146603
778.895	0.0146344
778.973	0.0147102
779.051	0.0146795
779.129	0.0146130
779.207	0.0147212
779.285	0.0147324
779.363	0.0146387
779.442	0.0146061
779.520	0.0146783
779.598	0.0147443
779.676	0.0147227
779.754	0.0145991
779.832	0.0145150
779.910	0.0146537
779.988	0.0147347
780.067	0.0145470
780.145	0.0146624
780.223	0.0145473
780.301	0.0145889
780.379	0.0145503
780.457	0.0145932
780.535	0.0144649
780.613	0.0145232
780.692	0.0145526
780.770	0.0143942
780.848	0.0145384
780.926	0.0145411
781.004	0.0144823
781.082	0.0144359
781.160	0.0144737
781.238	0.0145993
781.317	0.0145004
781.395	0.0144701
781.473	0.0145668
781.551	0.0145543
781.629	0.0145411
781.707	0.0145400
781.785	0.0146076
781.863	0.0145854
781.942	0.0146070
782.020	0.0146019
782.098	0.0147071
782.176	0.0147283
782.254	0.0145302
782.332	0.0148212
782.410	0.0148569
782.488	0.0147570
782.567	0.0147273
782.645	0.0147414
782.723	0.0147195
782.801	0.0147292
782.879	0.0148006
782.957	0.0147726
783.035	0.0147917
783.113	0.0147054
783.192	0.0147729
783.270	0.0147925
783.348	0.0148172
783.426	0.0148171
783.504	0.0147335
783.582	0.0146485
783.660	0.0146021
783.738	0.0147169
783.817	0.0148177
783.895	0.0148274
783.973	0.0146261
784.051	0.0146429
784.129	0.0147027
784.207	0.0146046
784.285	0.0146541
784.363	0.0146966
784.442	0.0145905
784.520	0.0146146
784.598	0.0146395
784.676	0.0145574
784.754	0.0146066
784.832	0.0145389
784.910	0.0146035
784.988	0.0144971
785.067	0.0146108
785.145	0.0146129
785.223	0.0145155
785.301	0.0144404
785.379	0.0145891
785.457	0.0146393
785.535	0.0145890
785.613	0.0145927
785.692	0.0144601
785.770	0.0145995
785.848	0.0145612
785.926	0.0145798
786.004	0.0145139
786.082	0.0145667
786.160	0.0146130
786.238	0.0147366
786.317	0.0145838
786.395	0.0145708
786.473	0.0146426
786.551	0.0146792
786.629	0.0146835
786.707	0.0145469
786.785	0.0148637
786.863	0.0146872
786.942	0.0148607
787.020	0.0147726
787.098	0.0147565
787.176	0.0148819
787.254	0.0147358
787.332	0.0148373
787.410	0.0147942
787.488	0.0147192
787.567	0.0148881
787.645	0.0147215
787.723	0.0145443
787.801	0.0146362
787.879	0.0147334
787.957	0.0146497
788.035	0.0146581
788.113	0.0146001
788.192	0.0146214
788.270	0.0146711
788.348	0.0145481
788.426	0.0145061
788.504	0.0145659
788.582	0.0146883
788.660	0.0144518
788.738	0.0145573
788.817	0.0143774
788.895	0.0145390
788.973	0.0145065
789.051	0.0144253
789.129	0.0144475
789.207	0.0144327
789.285	0.0144276
789.363	0.0146130
789.442	0.0144843
789.520	0.0144510
789.598	0.0144168
789.676	0.0144978
789.754	0.0145142
789.832	0.0145596
789.910	0.0144279
789.988	0.0144423
790.067	0.0146323
790.145	0.0146205
790.223	0.0145434
790.301	0.0146516
790.379	0.0145970
790.457	0.0145866
790.535	0.0147569
790.613	0.0146886
790.692	0.0147537
790.770	0.0147415
790.848	0.0145979
790.926	0.0146217
791.004	0.0146222
791.082	0.0146467
791.160	0.0146329
791.238	0.0146404
791.317	0.0145576
791.395	0.0145715
791.473	0.0146129
791.551	0.0144333
791.629	0.0146484
791.707	0.0145092
791.785	0.0143417
791.863	0.0143617
791.942	0.0145919
792.020	0.0145381
792.098	0.0145846
792.176	0.0145954
792.254	0.0146311
792.332	0.0147083
792.410	0.0147018
792.488	0.0146203
792.567	0.0145441
792.645	0.0147453
792.723	0.0148511
792.801	0.0147694
792.879	0.0147709
792.957	0.0147855
793.035	0.0146938
793.113	0.0148312
793.192	0.0147882
793.270	0.0147477
793.348	0.0146733
793.426	0.0146082
793.504	0.0147491
793.582	0.0147894
793.660	0.0145878
793.738	0.0145359
793.817	0.0145481
793.895	0.0146236
793.973	0.0145652
794.051	0.0144241
794.129	0.0143407
794.207	0.0144839
794.285	0.0144083
794.363	0.0144514
794.442	0.0144666
794.520	0.0144086
794.598	0.0144447
794.676	0.0144302
794.754	0.0144394
794.832	0.0143724
794.910	0.0143198
794.988	0.0142974
795.067	0.0143378
795.145	0.0142478
795.223	0.0143832
795.301	0.0143315
795.379	0.0144620
795.457	0.0143691
795.535	0.0143325
795.613	0.0143043
795.692	0.0142350
795.770	0.0143165
795.848	0.0144949
795.926	0.0143835
796.004	0.0143216
796.082	0.0144989
796.160	0.0144378
796.238	0.0145049
796.317	0.0144145
796.395	0.0144621
796.473	0.0145643
796.551	0.0145144
796.629	0.0145747
796.707	0.0146024
796.785	0.0146658
796.863	0.0144709
796.942	0.0146418
797.020	0.0146358
797.098	0.0145632
797.176	0.0146001
797.254	0.0145176
797.332	0.0146332
797.410	0.0146619
797.488	0.0147323
797.567	0.0146234
797.645	0.0147382
797.723	0.0147080
797.801	0.0146525
797.879	0.0147736
797.957	0.0148772
798.035	0.0147985
798.113	0.0146737
798.192	0.0148932
798.270	0.0149207
798.348	0.0149756
798.426	0.0148061
798.504	0.0149281
798.582	0.0147881
798.660	0.0148523
798.738	0.0149049
798.817	0.0148436
798.895	0.0147903
798.973	0.0147510
799.051	0.0146075
799.129	0.0147066
799.207	0.0145045
799.285	0.0144734
799.363	0.0144005
799.442	0.0144452
799.520	0.0145388
799.598	0.0144534
799.676	0.0144561
799.754	0.0143600
799.832	0.0145164
799.910	0.0145054
799.988	0.0144920
800.067	0.0143011
800.145	0.0142429
800.223	0.0143650
800.301	0.0142704
800.379	0.0144328
800.457	0.0144820
800.535	0.0144326
800.613	0.0144567
800.692	0.0144840
800.770	0.0145505
800.848	0.0145560
800.926	0.0146295
801.004	0.0146836
801.082	0.0147292
801.160	0.0146339
801.238	0.0147651
801.317	0.0148215
801.395	0.0147999
801.473	0.0148328
801.551	0.0147077
801.629	0.0148615
801.707	0.0148790
801.785	0.0149172
801.863	0.0149595
801.942	0.0147697
802.020	0.0148225
802.098	0.0147299
802.176	0.0149272
802.254	0.0148875
802.332	0.0147035
802.410	0.0147733
802.488	0.0148853
802.567	0.0148132
802.645	0.0148370
802.723	0.0148070
802.801	0.0146404
802.879	0.0146999
802.957	0.0148279
803.035	0.0147231
803.113	0.0146823
803.192	0.0145843
803.270	0.0146130
803.348	0.0146974
803.426	0.0145914
803.504	0.0146532
803.582	0.0146002
803.660	0.0145870
803.738	0.0145478
803.817	0.0145003
803.895	0.0145428
803.973	0.0145670
804.051	0.0146397
804.129	0.0146584
804.207	0.0147440
804.285	0.0146983
804.363	0.0146058
804.442	0.0145331
804.520	0.0145670
804.598	0.0145061
804.676	0.0144122
804.754	0.0145614
804.832	0.0145941
804.910	0.0145490
804.988	0.0145472
805.067	0.0146081
805.145	0.0146364
805.223	0.0145876
805.301	0.0145110
805.379	0.0143614
805.457	0.0144280
805.535	0.0145544
805.613	0.0146787
805.692	0.0144465
805.770	0.0145625
805.848	0.0146309
805.926	0.0146139
806.004	0.0146356
806.082	0.0147533
806.160	0.0147749
806.238	0.0147861
806.317	0.0147440
806.395	0.0148822
806.473	0.0147657
806.551	0.0147864
806.629	0.0147696
806.707	0.0148415
806.785	0.0147807
806.863	0.0148633
806.942	0.0147319
807.020	0.0147276
807.098	0.0147644
807.176	0.0148228
807.254	0.0148253
807.332	0.0147543
807.410	0.0146400
807.488	0.0146449
807.567	0.0147266
807.645	0.0145353
807.723	0.0146652
807.801	0.0147013
807.879	0.0145135
807.957	0.0146915
808.035	0.0145950
808.113	0.0144958
808.192	0.0146119
808.270	0.0145985
808.348	0.0144399
808.426	0.0144337
808.504	0.0144997
808.582	0.0146004
808.660	0.0145428
808.738	0.0146288
808.817	0.0145061
808.895	0.0143526
808.973	0.0144931
809.051	0.0145708
809.129	0.0146282
809.207	0.0146421
809.285	0.0145789
809.363	0.0146205
809.442	0.0145645
809.520	0.0147658
809.598	0.0145921
809.676	0.0145966
809.754	0.0147974
809.832	0.0145920
809.910	0.0144834
809.988	0.0145086
810.067	0.0145400
810.145	0.0145981
810.223	0.0145416
810.301	0.0144463
810.379	0.0144348
810.457	0.0145699
810.535	0.0144438
810.613	0.0144619
810.692	0.0144135
810.770	0.0144440
810.848	0.0144326
810.926	0.0144888
811.004	0.0144679
811.082	0.0145536
811.160	0.0144264
811.238	0.0144547
811.317	0.0144956
811.395	0.0144334
811.473	0.0144716
811.551	0.0144814
811.629	0.0145683
811.707	0.0144076
811.785	0.0143971
811.863	0.0147142
811.942	0.0144527
812.020	0.0144428
812.098	0.0145596
812.176	0.0145581
812.254	0.0145816
812.332	0.0145869
812.410	0.0146457
812.488	0.0146011
812.567	0.0146539
812.645	0.0145322
812.723	0.0145838
812.801	0.0147095
812.879	0.0145547
812.957	0.0144894
813.035	0.0145989
813.113	0.0146519
813.192	0.0145683
813.270	0.0146083
813.348	0.0144604
813.426	0.0144398
813.504	0.0144770
813.582	0.0144415
813.660	0.0144801
813.738	0.0146545
813.817	0.0145569
813.895	0.0145651
813.973	0.0145144
814.051	0.0145750
814.129	0.0146015
814.207	0.0145947
814.285	0.0147287
814.363	0.0147028
814.442	0.0146764
814.520	0.0147534
814.598	0.0148932
814.676	0.0148524
814.754	0.0147516
814.832	0.0146523
814.910	0.0148611
814.988	0.0145914
815.067	0.0146368
815.145	0.0145675
815.223	0.0147982
815.301	0.0146413
815.379	0.0145589
815.457	0.0145940
815.535	0.0145947
815.613	0.0146934
815.692	0.0145042
815.770	0.0145648
815.848	0.0145701
815.926	0.0145685
816.004	0.0144707
816.082	0.0147373
816.160	0.0145290
816.238	0.0144393
816.317	0.0145679
816.395	0.0144859
816.473	0.0145240
816.551	0.0146053
816.629	0.0144173
816.707	0.0145253
816.785	0.0145386
816.863	0.0145136
816.942	0.0144991
817.020	0.0144883
817.098	0.0145184
817.176	0.0145084
817.254	0.0145509
817.332	0.0146068
817.410	0.0145284
817.488	0.0146609
817.567	0.0145413
817.645	0.0145930
817.723	0.0144919
817.801	0.0145688
817.879	0.0144685
817.957	0.0144801
818.035	0.0145367
818.113	0.0145290
818.192	0.0145110
818.270	0.0145066
818.348	0.0145507
818.426	0.0145036
818.504	0.0144898
818.582	0.0145287
818.660	0.0145416
818.738	0.0146420
818.817	0.0145784
818.895	0.0144728
818.973	0.0143926
819.051	0.0144672
819.129	0.0145067
819.207	0.0145511
819.285	0.0144524
819.363	0.0144818
819.442	0.0145241
819.520	0.0145189
819.598	0.0145285
819.676	0.0146329
819.754	0.0143708
819.832	0.0145314
819.910	0.0145766
819.988	0.0144754
820.067	0.0144576
820.145	0.0145751
820.223	0.0146258
820.301	0.0145618
820.379	0.0146393
820.457	0.0144973
820.535	0.0144456
820.613	0.0145416
820.692	0.0145897
820.770	0.0146140
820.848	0.0145308
820.926	0.0145969
821.004	0.0145412
821.082	0.0144941
821.160	0.0145669
821.238	0.0146515
821.317	0.0146317
821.395	0.0144682
821.473	0.0145332
821.551	0.0146145
821.629	0.0145963
821.707	0.0143568
821.785	0.0145840
821.863	0.0144760
821.942	0.0145603
822.020	0.0144762
822.098	0.0144673
822.176	0.0144351
822.254	0.0145021
822.332	0.0145450
822.410	0.0145930
822.488	0.0145140
822.567	0.0145211
822.645	0.0146088
822.723	0.0144752
822.801	0.0145316
822.879	0.0145895
822.957	0.0146131
823.035	0.0145686
823.113	0.0147884
823.192	0.0146720
823.270	0.0146938
823.348	0.0146446
823.426	0.0146635
823.504	0.0146465
823.582	0.0144954
823.660	0.0146851
823.738	0.0145686
823.817	0.0144733
823.895	0.0144949
823.973	0.0146485
824.051	0.0144218
824.129	0.0145119
824.207	0.0147295
824.285	0.0147107
824.363	0.0146285
824.442	0.0145328
824.520	0.0144669
824.598	0.0144962
824.676	0.0145894
824.754	0.0144197
824.832	0.0145111
824.910	0.0145724
824.988	0.0145947
825.067	0.0145830
825.145	0.0146815
825.223	0.0145450
825.301	0.0145079
825.379	0.0143811
825.457	0.0145529
825.535	0.0145965
825.613	0.0144720
825.692	0.0144592
825.770	0.0144852
825.848	0.0145683
825.926	0.0146105
826.004	0.0144653
826.082	0.0144899
826.160	0.0146678
826.238	0.0145637
826.317	0.0145905
826.395	0.0144579
826.473	0.0146503
826.551	0.0147277
826.629	0.0148323
826.707	0.0144506
826.785	0.0145020
826.863	0.0146375
826.942	0.0147554
827.020	0.0146487
827.098	0.0146935
827.176	0.0145441
827.254	0.0144873
827.332	0.0145183
827.410	0.0147356
827.488	0.0145168
827.567	0.0146088
827.645	0.0145880
827.723	0.0146600
827.801	0.0146587
827.879	0.0145693
827.957	0.0144600
828.035	0.0147412
828.113	0.0147401
828.192	0.0146129
828.270	0.0146198
828.348	0.0146393
828.426	0.0147204
828.504	0.0147840
828.582	0.0146558
828.660	0.0146727
828.738	0.0147516
828.817	0.0146563
828.895	0.0146958
828.973	0.0146929
829.051	0.0147485
829.129	0.0146585
829.207	0.0146577
829.285	0.0146386
829.363	0.0147314
829.442	0.0146194
829.520	0.0145676
829.598	0.0144879
829.676	0.0145406
829.754	0.0145392
829.832	0.0146120
829.910	0.0145557
829.988	0.0145766
830.067	0.0147436
830.145	0.0146850
830.223	0.0144225
830.301	0.0145437
830.379	0.0144800
830.457	0.0145303
830.535	0.0146969
830.613	0.0146523
830.692	0.0147404
830.770	0.0146227
830.848	0.0144859
830.926	0.0146272
831.004	0.0146721
831.082	0.0146319
831.160	0.0146122
831.238	0.0146217
831.317	0.0146081
831.395	0.0144742
831.473	0.0144967
831.551	0.0147363
831.629	0.0146799
831.707	0.0145925
831.785	0.0145796
831.863	0.0144521
831.942	0.0145855
832.020	0.0145787
832.098	0.0145844
832.176	0.0145551
832.254	0.0145153
832.332	0.0145930
832.410	0.0146004
832.488	0.0146273
832.567	0.0146317
832.645	0.0145132
832.723	0.0144582
832.801	0.0146235
832.879	0.0144975
832.957	0.0144438
833.035	0.0145595
833.113	0.0145438
833.192	0.0145580
833.270	0.0146059
833.348	0.0146091
833.426	0.0146399
833.504	0.0144844
833.582	0.0145511
833.660	0.0145428
833.738	0.0147421
833.817	0.0147188
833.895	0.0146915
833.973	0.0146156
834.051	0.0145636
834.129	0.0145755
834.207	0.0145901
834.285	0.0145582
834.363	0.0146204
834.442	0.0146619
834.520	0.0146479
834.598	0.0146700
834.676	0.0146655
834.754	0.0146399
834.832	0.0144907
834.910	0.0145686
834.988	0.0146294
835.067	0.0146712
835.145	0.0146243
835.223	0.0145412
835.301	0.0145957
835.379	0.0146567
835.457	0.0147162
835.535	0.0146659
835.613	0.0144845
835.692	0.0146754
835.770	0.0146235
835.848	0.0145553
835.926	0.0145422
836.004	0.0146172
836.082	0.0146393
836.160	0.0146887
836.238	0.0146494
836.317	0.0145527
836.395	0.0144775
836.473	0.0146154
836.551	0.0146043
836.629	0.0146865
836.707	0.0145783
836.785	0.0147032
836.863	0.0146667
836.942	0.0145866
837.020	0.0145288
837.098	0.0146982
837.176	0.0147581
837.254	0.0147900
837.332	0.0145583
837.410	0.0145836
837.488	0.0147619
837.567	0.0148122
837.645	0.0146378
837.723	0.0147608
837.801	0.0147220
837.879	0.0147514
837.957	0.0147133
838.035	0.0147031
838.113	0.0148347
838.192	0.0146918
838.270	0.0146924
838.348	0.0147264
838.426	0.0147617
838.504	0.0148109
838.582	0.0147148
838.660	0.0148170
838.738	0.0148262
838.817	0.0147289
838.895	0.0147164
838.973	0.0147073
839.051	0.0147572
839.129	0.0147987
839.207	0.0146251
839.285	0.0146315
839.363	0.0147166
839.442	0.0146873
839.520	0.0145788
839.598	0.0146527
839.676	0.0145217
839.754	0.0144896
839.832	0.0146277
839.910	0.0145428
839.988	0.0145436
840.067	0.0145049
840.145	0.0145504
840.223	0.0146495
840.301	0.0144946
840.379	0.0144386
840.457	0.0145844
840.535	0.0144965
840.613	0.0144753
840.692	0.0144839
840.770	0.0143813
840.848	0.0145518
840.926	0.0146103
841.004	0.0145161
841.082	0.0144855
841.160	0.0144857
841.238	0.0144910
841.317	0.0144285
841.395	0.0145273
841.473	0.0147691
841.551	0.0145116
841.629	0.0144552
841.707	0.0145871
841.785	0.0145184
841.863	0.0146777
841.942	0.0145208
842.020	0.0144819
842.098	0.0145845
842.176	0.0145853
842.254	0.0145548
842.332	0.0144289
842.410	0.0144617
842.488	0.0145317
842.567	0.0145885
842.645	0.0146278
842.723	0.0145354
842.801	0.0144341
842.879	0.0146883
842.957	0.0146812
843.035	0.0147414
843.113	0.0146949
843.192	0.0146554
843.270	0.0146955
843.348	0.0146755
843.426	0.0145539
843.504	0.0145535
843.582	0.0147262
843.660	0.0146184
843.738	0.0147050
843.817	0.0146191
843.895	0.0146673
843.973	0.0146074
844.051	0.0144897
844.129	0.0146040
844.207	0.0146433
844.285	0.0145058
844.363	0.0145423
844.442	0.0146718
844.520	0.0145713
844.598	0.0144960
844.676	0.0144888
844.754	0.0145897
844.832	0.0145778
844.910	0.0145370
844.988	0.0143855
845.067	0.0144799
845.145	0.0144583
845.223	0.0144799
845.301	0.0144774
845.379	0.0144328
845.457	0.0145705
845.535	0.0145067
845.613	0.0144292
845.692	0.0144342
845.770	0.0145612
845.848	0.0145187
845.926	0.0146152
846.004	0.0145111
846.082	0.0145252
846.160	0.0145014
846.238	0.0145169
846.317	0.0145137
846.395	0.0144564
846.473	0.0144920
846.551	0.0146360
846.629	0.0145149
846.707	0.0144135
846.785	0.0143718
846.863	0.0145799
846.942	0.0145316
847.020	0.0144778
847.098	0.0146568
847.176	0.0145857
847.254	0.0146108
847.332	0.0145066
847.410	0.0145965
847.488	0.0145543
847.567	0.0145887
847.645	0.0144886
847.723	0.0143849
847.801	0.0145667
847.879	0.0144427
847.957	0.0143788
848.035	0.0145304
848.113	0.0144229
848.192	0.0145044
848.270	0.0144699
848.348	0.0144652
848.426	0.0145140
848.504	0.0145375
848.582	0.0144262
848.660	0.0146114
848.738	0.0145827
848.817	0.0145200
848.895	0.0146252
848.973	0.0145343
849.051	0.0144074
849.129	0.0145296
849.207	0.0144726
849.285	0.0146233
849.363	0.0146376
849.442	0.0145908
849.520	0.0144576
849.598	0.0145746
849.676	0.0145498
849.754	0.0144745
849.832	0.0145168
849.910	0.0145843
849.988	0.0144976
850.067	0.0143614
850.145	0.0145339
850.223	0.0145104
850.301	0.0145777
850.379	0.0145036
850.457	0.0145722
850.535	0.0144565
850.613	0.0144723
850.692	0.0144763
850.770	0.0144164
850.848	0.0145718
850.926	0.0146415
851.004	0.0144917
851.082	0.0145816
851.160	0.0146373
851.238	0.0146406
851.317	0.0145638
851.395	0.0145804
851.473	0.0146159
851.551	0.0146339
851.629	0.0146178
851.707	0.0145964
851.785	0.0146698
851.863	0.0146234
851.942	0.0146770
852.020	0.0146581
852.098	0.0146877
852.176	0.0147593
852.254	0.0147281
852.332	0.0146664
852.410	0.0145224
852.488	0.0147162
852.567	0.0146806
852.645	0.0147183
852.723	0.0145952
852.801	0.0146061
852.879	0.0145799
852.957	0.0146339
853.035	0.0147187
853.113	0.0146251
853.192	0.0145909
853.270	0.0146381
853.348	0.0147120
853.426	0.0145319
853.504	0.0146023
853.582	0.0145827
853.660	0.0146507
853.738	0.0147202
853.817	0.0147425
853.895	0.0147242
853.973	0.0145110
854.051	0.0146690
854.129	0.0146616
854.207	0.0146035
854.285	0.0146776
854.363	0.0148057
854.442	0.0146085
854.520	0.0147839
854.598	0.0146704
854.676	0.0145139
854.754	0.0147203
854.832	0.0146930
854.910	0.0145284
854.988	0.0144431
855.067	0.0146558
855.145	0.0145839
855.223	0.0146767
855.301	0.0146212
855.379	0.0146024
855.457	0.0147218
855.535	0.0145158
855.613	0.0146308
855.692	0.0145862
855.770	0.0145694
855.848	0.0145949
855.926	0.0146796
856.004	0.0146370
856.082	0.0146172
856.160	0.0145847
856.238	0.0147298
856.317	0.0146870
856.395	0.0146385
856.473	0.0147408
856.551	0.0146776
856.629	0.0147860
856.707	0.0148486
856.785	0.0147292
856.863	0.0147896
856.942	0.0146848
857.020	0.0146780
857.098	0.0146939
857.176	0.0147339
857.254	0.0145787
857.332	0.0146171
857.410	0.0147124
857.488	0.0147741
857.567	0.0146230
857.645	0.0145584
857.723	0.0145843
857.801	0.0146536
857.879	0.0146512
857.957	0.0145555
858.035	0.0145905
858.113	0.0147133
858.192	0.0145499
858.270	0.0145770
858.348	0.0145969
858.426	0.0146036
858.504	0.0146738
858.582	0.0145898
858.660	0.0147872
858.738	0.0147471
858.817	0.0145882
858.895	0.0146112
858.973	0.0147449
859.051	0.0147598
859.129	0.0146787
859.207	0.0147412
859.285	0.0147473
859.363	0.0147155
859.442	0.0147451
859.520	0.0148153
859.598	0.0147218
859.676	0.0147369
859.754	0.0146163
859.832	0.0147527
859.910	0.0147531
859.988	0.0147246
860.067	0.0147021
860.145	0.0146094
860.223	0.0146113
860.301	0.0146395
860.379	0.0146323
860.457	0.0146345
860.535	0.0145719
860.613	0.0144981
860.692	0.0147433
860.770	0.0146953
860.848	0.0145889
860.926	0.0144675
861.004	0.0145390
861.082	0.0146654
861.160	0.0146164
861.238	0.0144852
861.317	0.0144685
861.395	0.0145216
861.473	0.0145869
861.551	0.0144854
861.629	0.0147334
861.707	0.0146754
861.785	0.0146641
861.863	0.0146151
861.942	0.0147091
862.020	0.0147455
862.098	0.0147682
862.176	0.0146571
862.254	0.0147005
862.332	0.0146148
862.410	0.0147372
862.488	0.0146767
862.567	0.0146182
862.645	0.0146239
862.723	0.0147321
862.801	0.0147458
862.879	0.0146693
862.957	0.0147313
863.035	0.0145327
863.113	0.0145303
863.192	0.0147267
863.270	0.0145133
863.348	0.0145847
863.426	0.0145788
863.504	0.0145294
863.582	0.0145284
863.660	0.0144398
863.738	0.0146688
863.817	0.0145404
863.895	0.0145154
863.973	0.0145215
864.051	0.0146046
864.129	0.0146070
864.207	0.0145480
864.285	0.0145911
864.363	0.0146522
864.442	0.0146571
864.520	0.0146504
864.598	0.0145725
864.676	0.0146133
864.754	0.0146205
864.832	0.0145460
864.910	0.0147018
864.988	0.0146353
865.067	0.0145605
865.145	0.0146163
865.223	0.0146441
865.301	0.0147299
865.379	0.0146589
865.457	0.0146426
865.535	0.0144469
865.613	0.0146649
865.692	0.0146316
865.770	0.0144563
865.848	0.0146167
865.926	0.0146968
866.004	0.0146199
866.082	0.0145790
866.160	0.0145775
866.238	0.0146567
866.317	0.0145956
866.395	0.0146322
866.473	0.0146639
866.551	0.0146761
866.629	0.0146445
866.707	0.0147200
866.785	0.0146511
866.863	0.0147540
866.942	0.0147171
867.020	0.0147019
867.098	0.0146697
867.176	0.0146409
867.254	0.0147042
867.332	0.0147237
867.410	0.0147057
867.488	0.0147018
867.567	0.0147871
867.645	0.0147464
867.723	0.0147742
867.801	0.0147087
867.879	0.0146655
867.957	0.0144974
868.035	0.0146414
868.113	0.0146208
868.192	0.0147377
868.270	0.0146088
868.348	0.0145383
868.426	0.0145663
868.504	0.0147238
868.582	0.0145229
868.660	0.0144511
868.738	0.0144359
868.817	0.0143899
868.895	0.0145531
868.973	0.0146086
869.051	0.0145953
869.129	0.0143822
869.207	0.0145293
869.285	0.0144762
869.363	0.0145953
869.442	0.0144571
869.520	0.0144711
869.598	0.0146048
869.676	0.0146179
869.754	0.0145986
869.832	0.0145668
869.910	0.0146995
869.988	0.0145539
870.067	0.0145194
870.145	0.0145449
870.223	0.0144959
870.301	0.0145715
870.379	0.0145322
870.457	0.0146425
870.535	0.0145711
870.613	0.0146216
870.692	0.0146154
870.770	0.0146142
870.848	0.0146572
870.926	0.0145049
871.004	0.0145570
871.082	0.0147240
871.160	0.0144823
871.238	0.0145077
871.317	0.0144700
871.395	0.0145660
871.473	0.0146417
871.551	0.0144436
871.629	0.0144944
871.707	0.0144736
871.785	0.0146093
871.863	0.0144858
871.942	0.0145651
872.020	0.0145732
872.098	0.0145262
872.176	0.0144656
872.254	0.0145042
872.332	0.0145472
872.410	0.0144662
872.488	0.0143191
872.567	0.0145185
872.645	0.0145194
872.723	0.0144911
872.801	0.0144868
872.879	0.0145088
872.957	0.0144469
873.035	0.0144979
873.113	0.0144917
873.192	0.0145582
873.270	0.0144037
873.348	0.0144633
873.426	0.0143328
873.504	0.0144684
873.582	0.0143718
873.660	0.0142784
873.738	0.0144122
873.817	0.0144997
873.895	0.0146101
873.973	0.0145183
874.051	0.0144617
874.129	0.0144950
874.207	0.0143108
874.285	0.0145687
874.363	0.0145434
874.442	0.0145513
874.520	0.0144929
874.598	0.0144953
874.676	0.0144722
874.754	0.0144653
874.832	0.0144021
874.910	0.0144052
874.988	0.0144569
875.067	0.0144765
875.145	0.0145365
875.223	0.0145644
875.301	0.0146638
875.379	0.0144238
875.457	0.0145285
875.535	0.0145588
875.613	0.0146490
875.692	0.0145501
875.770	0.0144802
875.848	0.0144966
875.926	0.0146230
876.004	0.0145967
876.082	0.0146687
876.160	0.0146428
876.238	0.0146657
876.317	0.0145705
876.395	0.0146406
876.473	0.0146371
876.551	0.0146236
876.629	0.0146592
876.707	0.0146149
876.785	0.0146471
876.863	0.0144605
876.942	0.0146016
877.020	0.0145727
877.098	0.0145568
877.176	0.0146290
877.254	0.0145242
877.332	0.0145583
877.410	0.0146830
877.488	0.0145612
877.567	0.0145664
877.645	0.0146424
877.723	0.0145293
877.801	0.0145466
877.879	0.0145449
877.957	0.0146548
878.035	0.0146254
878.113	0.0146309
878.192	0.0145923
878.270	0.0144995
878.348	0.0145112
878.426	0.0146480
878.504	0.0146078
878.582	0.0145874
878.660	0.0145501
878.738	0.0145198
878.817	0.0145826
878.895	0.0145461
878.973	0.0146147
879.051	0.0144556
879.129	0.0144563
879.207	0.0145876
879.285	0.0146490
879.363	0.0145071
879.442	0.0145953
879.520	0.0145512
879.598	0.0144788
879.676	0.0144621
879.754	0.0146529
879.832	0.0146418
879.910	0.0146548
879.988	0.0145238
880.067	0.0146170
880.145	0.0146591
880.223	0.0146768
880.301	0.0145947
880.379	0.0146810
880.457	0.0146426
880.535	0.0147163
880.613	0.0146611
880.692	0.0146783
880.770	0.0146005
880.848	0.0147528
880.926	0.0146902
881.004	0.0147414
881.082	0.0147891
881.160	0.0146685
881.238	0.0147300
881.317	0.0148299
881.395	0.0147623
881.473	0.0147762
881.551	0.0146756
881.629	0.0147020
881.707	0.0146786
881.785	0.0147022
881.863	0.0147875
881.942	0.0146474
882.020	0.0144924
882.098	0.0146521
882.176	0.0146787
882.254	0.0146120
882.332	0.0146714
882.410	0.0145391
882.488	0.0145248
882.567	0.0145293
882.645	0.0145892
882.723	0.0145048
882.801	0.0148341
882.879	0.0146194
882.957	0.0145362
883.035	0.0145436
883.113	0.0147711
883.192	0.0147633
883.270	0.0146194
883.348	0.0146495
883.426	0.0148060
883.504	0.0146513
883.582	0.0147516
883.660	0.0147262
883.738	0.0147128
883.817	0.0146495
883.895	0.0147626
883.973	0.0148167
884.051	0.0147915
884.129	0.0148151
884.207	0.0147642
884.285	0.0147626
884.363	0.0147782
884.442	0.0147234
884.520	0.0147397
884.598	0.0147062
884.676	0.0147775
884.754	0.0145911
884.832	0.0145377
884.910	0.0145485
884.988	0.0147977
885.067	0.0147786
885.145	0.0147785
885.223	0.0146134
885.301	0.0147295
885.379	0.0147111
885.457	0.0146444
885.535	0.0145950
885.613	0.0145737
885.692	0.0146221
885.770	0.0147086
885.848	0.0147350
885.926	0.0147839
886.004	0.0146743
886.082	0.0146487
886.160	0.0147797
886.238	0.0146663
886.317	0.0146048
886.395	0.0147645
886.473	0.0147839
886.551	0.0146992
886.629	0.0146175
886.707	0.0146729
886.785	0.0147366
886.863	0.0146571
886.942	0.0145859
887.020	0.0146726
887.098	0.0147064
887.176	0.0146453
887.254	0.0148152
887.332	0.0147108
887.410	0.0147214
887.488	0.0146870
887.567	0.0147046
887.645	0.0145418
887.723	0.0145978
887.801	0.0146112
887.879	0.0146291
887.957	0.0147025
888.035	0.0147453
888.113	0.0146698
888.192	0.0145930
888.270	0.0147433
888.348	0.0146980
888.426	0.0145483
888.504	0.0145986
888.582	0.0145944
888.660	0.0145387
888.738	0.0145788
888.817	0.0145731
888.895	0.0145030
888.973	0.0145186
889.051	0.0144706
889.129	0.0144198
889.207	0.0145828
889.285	0.0146043
889.363	0.0145470
889.442	0.0143325
889.520	0.0144855
889.598	0.0145654
889.676	0.0144340
889.754	0.0144421
889.832	0.0143491
889.910	0.0143805
889.988	0.0143990
890.067	0.0144824
890.145	0.0143165
890.223	0.0143891
890.301	0.0144566
890.379	0.0143236
890.457	0.0144382
890.535	0.0145592
890.613	0.0143273
890.692	0.0144059
890.770	0.0145100
890.848	0.0143998
890.926	0.0144481
891.004	0.0144648
891.082	0.0144505
891.160	0.0145410
891.238	0.0144872
891.317	0.0144777
891.395	0.0144758
891.473	0.0145428
891.551	0.0145394
891.629	0.0146929
891.707	0.0146993
891.785	0.0145823
891.863	0.0145928
891.942	0.0146501
892.020	0.0146698
892.098	0.0147193
892.176	0.0147488
892.254	0.0146214
892.332	0.0145947
892.410	0.0145954
892.488	0.0146656
892.567	0.0146096
892.645	0.0145825
892.723	0.0146179
892.801	0.0145811
892.879	0.0145696
892.957	0.0145950
893.035	0.0143453
893.113	0.0144164
893.192	0.0145205
893.270	0.0144462
893.348	0.0145293
893.426	0.0144547
893.504	0.0144573
893.582	0.0144410
893.660	0.0143878
893.738	0.0145922
893.817	0.0145206
893.895	0.0145239
893.973	0.0144915
894.051	0.0145499
894.129	0.0145989
894.207	0.0144012
894.285	0.0145444
894.363	0.0145461
894.442	0.0144486
894.520	0.0145647
894.598	0.0144156
894.676	0.0144250
894.754	0.0144354
894.832	0.0144595
894.910	0.0143781
894.988	0.0143378
895.067	0.0144305
895.145	0.0144006
895.223	0.0145544
895.301	0.0145543
895.379	0.0144853
895.457	0.0143333
895.535	0.0144282
895.613	0.0144686
895.692	0.0145014
895.770	0.0145047
895.848	0.0143125
895.926	0.0144893
896.004	0.0146120
896.082	0.0146330
896.160	0.0145267
896.238	0.0145171
896.317	0.0145390
896.395	0.0145583
896.473	0.0145807
896.551	0.0144317
896.629	0.0145052
896.707	0.0144723
896.785	0.0144110
896.863	0.0145120
896.942	0.0145225
897.020	0.0146024
897.098	0.0144893
897.176	0.0144878
897.254	0.0144415
897.332	0.0145769
897.410	0.0145168
897.488	0.0144723
897.567	0.0146026
897.645	0.0144318
897.723	0.0144536
897.801	0.0144672
897.879	0.0145506
897.957	0.0146626
898.035	0.0144776
898.113	0.0145690
898.192	0.0145388
898.270	0.0145345
898.348	0.0144601
898.426	0.0144253
898.504	0.0145045
898.582	0.0145390
898.660	0.0144144
898.738	0.0144537
898.817	0.0144572
898.895	0.0143880
898.973	0.0144737
899.051	0.0144462
899.129	0.0145349
899.207	0.0145631
899.285	0.0144898
899.363	0.0145598
899.442	0.0146025
899.520	0.0145368
899.598	0.0146240
899.676	0.0146512
899.754	0.0146690
899.832	0.0145911
899.910	0.0145594
899.988	0.0146236
900.067	0.0147489
900.145	0.0146691
900.223	0.0146158
900.301	0.0146648
900.379	0.0147106
900.457	0.0145679
900.535	0.0145274
900.613	0.0144872
900.692	0.0148588
900.770	0.0146420
900.848	0.0146712
900.926	0.0146264
901.004	0.0145934
901.082	0.0146577
901.160	0.0146104
901.238	0.0147056
901.317	0.0145959
901.395	0.0143999
901.473	0.0145643
901.551	0.0146616
901.629	0.0146143
901.707	0.0145789
901.785	0.0146030
901.863	0.0146920
901.942	0.0144484
902.020	0.0145820
902.098	0.0145607
902.176	0.0147260
902.254	0.0145514
902.332	0.0144427
902.410	0.0146894
902.488	0.0145522
902.567	0.0145774
902.645	0.0146222
902.723	0.0145941
902.801	0.0146835
902.879	0.0146436
902.957	0.0145574
903.035	0.0145527
903.113	0.0144652
903.192	0.0146104
903.270	0.0146749
903.348	0.0146863
903.426	0.0145037
903.504	0.0145787
903.582	0.0145675
903.660	0.0145919
903.738	0.0145363
903.817	0.0144966
903.895	0.0145220
903.973	0.0146033
904.051	0.0145077
904.129	0.0146198
904.207	0.0146925
904.285	0.0147427
904.363	0.0146297
904.442	0.0146429
904.520	0.0146144
904.598	0.0146349
904.676	0.0146387
904.754	0.0147443
904.832	0.0146215
904.910	0.0145802
904.988	0.0146332
905.067	0.0146755
905.145	0.0146382
905.223	0.0145778
905.301	0.0144811
905.379	0.0146467
905.457	0.0145422
905.535	0.0146136
905.613	0.0145035
905.692	0.0145116
905.770	0.0146648
905.848	0.0144926
905.926	0.0145669
906.004	0.0145141
906.082	0.0144096
906.160	0.0144228
906.238	0.0145390
906.317	0.0144415
906.395	0.0144780
906.473	0.0145766
906.551	0.0146480
906.629	0.0144106
906.707	0.0144484
906.785	0.0144695
906.863	0.0146072
906.942	0.0144506
907.020	0.0144928
907.098	0.0145102
907.176	0.0144971
907.254	0.0146556
907.332	0.0146799
907.410	0.0145074
907.488	0.0145344
907.567	0.0147097
907.645	0.0145281
907.723	0.0145205
907.801	0.0145976
907.879	0.0146432
907.957	0.0146509
908.035	0.0147031
908.113	0.0145435
908.192	0.0146024
908.270	0.0146049
908.348	0.0145272
908.426	0.0145856
908.504	0.0146521
908.582	0.0145338
908.660	0.0146296
908.738	0.0146203
908.817	0.0147066
908.895	0.0146973
908.973	0.0146164
909.051	0.0147297
909.129	0.0145999
909.207	0.0147524
909.285	0.0145486
909.363	0.0145136
909.442	0.0146498
909.520	0.0145692
909.598	0.0146085
909.676	0.0145544
909.754	0.0145834
909.832	0.0145586
909.910	0.0145690
909.988	0.0146507
910.067	0.0147379
910.145	0.0145096
910.223	0.0146298
910.301	0.0145796
910.379	0.0144537
910.457	0.0145966
910.535	0.0146832
910.613	0.0145395
910.692	0.0144794
910.770	0.0147135
910.848	0.0146458
910.926	0.0145226
911.004	0.0145532
911.082	0.0146387
911.160	0.0145878
911.238	0.0145865
911.317	0.0146523
911.395	0.0145319
911.473	0.0147215
911.551	0.0145130
911.629	0.0145305
911.707	0.0146011
911.785	0.0144116
911.863	0.0145789
911.942	0.0146145
912.020	0.0145890
912.098	0.0145531
912.176	0.0145130
912.254	0.0146109
912.332	0.0145073
912.410	0.0145380
912.488	0.0146506
912.567	0.0145844
912.645	0.0145233
912.723	0.0145595
912.801	0.0145673
912.879	0.0145851
912.957	0.0145559
913.035	0.0144424
913.113	0.0146407
913.192	0.0144238
913.270	0.0144466
913.348	0.0145947
913.426	0.0146502
913.504	0.0146861
913.582	0.0146471
913.660	0.0147214
913.738	0.0145415
913.817	0.0146128
913.895	0.0145802
913.973	0.0145840
914.051	0.0145607
914.129	0.0146006
914.207	0.0145254
914.285	0.0146197
914.363	0.0145521
914.442	0.0145811
914.520	0.0147707
914.598	0.0145087
914.676	0.0146255
914.754	0.0145874
914.832	0.0145969
914.910	0.0144791
914.988	0.0146673
915.067	0.0144555
915.145	0.0144245
915.223	0.0145596
915.301	0.0145036
915.379	0.0144448
915.457	0.0144457
915.535	0.0144489
915.613	0.0144514
915.692	0.0145336
915.770	0.0145065
915.848	0.0142857
915.926	0.0144064
916.004	0.0144588
916.082	0.0145755
916.160	0.0146021
916.238	0.0145240
916.317	0.0145512
916.395	0.0145818
916.473	0.0145726
916.551	0.0145876
916.629	0.0146271
916.707	0.0145928
916.785	0.0144854
916.863	0.0146715
916.942	0.0146426
917.020	0.0147140
917.098	0.0145947
917.176	0.0147115
917.254	0.0146778
917.332	0.0146275
917.410	0.0147342
917.488	0.0145556
917.567	0.0146690
917.645	0.0146880
917.723	0.0145525
917.801	0.0145288
917.879	0.0145863
917.957	0.0146158
918.035	0.0144508
918.113	0.0146307
918.192	0.0145402
918.270	0.0145792
918.348	0.0145883
918.426	0.0145545
918.504	0.0145573
918.582	0.0145242
918.660	0.0144987
918.738	0.0144841
918.817	0.0144012
918.895	0.0145190
918.973	0.0146088
919.051	0.0144119
919.129	0.0144735
919.207	0.0146074
919.285	0.0146204
919.363	0.0145573
919.442	0.0145905
919.520	0.0144952
919.598	0.0146014
919.676	0.0145695
919.754	0.0145557
919.832	0.0145581
919.910	0.0144595
