05/28/2022	14:16:21	Ver.	4.1	UNKNOWN
Optical Delay	599.988409	Delta X		0.078125	Sweeps	1	Scan Rate	0/0
Coordinates	Axis 1	NaN	Axis 2	NaN	Axis 3	NaN	Axis 4	NaN	Axis 5	NaN	Axis 6	0.000000
TX Power	0.000000	RX Power	0.000000

599.988	0.0146191
600.067	0.0147098
600.145	0.0146365
600.223	0.0145967
600.301	0.0146924
600.379	0.0146805
600.457	0.0144879
600.535	0.0146394
600.613	0.0146751
600.692	0.0146527
600.770	0.0147569
600.848	0.0145876
600.926	0.0146292
601.004	0.0147798
601.082	0.0147002
601.160	0.0145563
601.238	0.0147717
601.317	0.0146770
601.395	0.0146445
601.473	0.0146678
601.551	0.0146378
601.629	0.0146072
601.707	0.0146834
601.785	0.0145225
601.863	0.0147301
601.942	0.0146086
602.020	0.0146149
602.098	0.0146458
602.176	0.0145747
602.254	0.0146706
602.332	0.0147044
602.410	0.0146342
602.488	0.0145712
602.567	0.0147292
602.645	0.0146294
602.723	0.0145512
602.801	0.0147688
602.879	0.0147047
602.957	0.0146638
603.035	0.0146632
603.113	0.0146037
603.192	0.0147494
603.270	0.0146636
603.348	0.0146349
603.426	0.0145892
603.504	0.0146147
603.582	0.0146731
603.660	0.0146378
603.738	0.0147195
603.817	0.0145735
603.895	0.0146215
603.973	0.0146748
604.051	0.0147895
604.129	0.0146760
604.207	0.0146829
604.285	0.0146999
604.363	0.0146733
604.442	0.0146739
604.520	0.0145631
604.598	0.0146134
604.676	0.0148415
604.754	0.0145531
604.832	0.0144862
604.910	0.0146687
604.988	0.0145966
605.067	0.0145590
605.145	0.0146803
605.223	0.0144643
605.301	0.0145313
605.379	0.0145188
605.457	0.0146342
605.535	0.0146935
605.613	0.0146088
605.692	0.0146394
605.770	0.0146622
605.848	0.0147087
605.926	0.0145536
606.004	0.0146156
606.082	0.0147655
606.160	0.0146184
606.238	0.0145650
606.317	0.0146146
606.395	0.0147413
606.473	0.0146696
606.551	0.0147170
606.629	0.0146069
606.707	0.0145141
606.785	0.0146571
606.863	0.0146191
606.942	0.0146489
607.020	0.0147803
607.098	0.0147137
607.176	0.0146957
607.254	0.0145197
607.332	0.0146001
607.410	0.0146898
607.488	0.0146127
607.567	0.0145786
607.645	0.0146350
607.723	0.0146245
607.801	0.0145928
607.879	0.0146378
607.957	0.0147215
608.035	0.0146599
608.113	0.0147166
608.192	0.0146730
608.270	0.0145148
608.348	0.0145937
608.426	0.0147044
608.504	0.0145966
608.582	0.0146198
608.660	0.0145384
608.738	0.0147291
608.817	0.0147247
608.895	0.0146294
608.973	0.0146054
609.051	0.0145211
609.129	0.0146288
609.207	0.0146259
609.285	0.0146113
609.363	0.0146455
609.442	0.0147431
609.520	0.0146786
609.598	0.0147551
609.676	0.0145032
609.754	0.0146347
609.832	0.0145107
609.910	0.0146791
609.988	0.0146774
610.067	0.0147046
610.145	0.0144952
610.223	0.0145485
610.301	0.0146214
610.379	0.0146577
610.457	0.0148122
610.535	0.0147472
610.613	0.0146632
610.692	0.0146398
610.770	0.0144964
610.848	0.0147617
610.926	0.0146931
611.004	0.0146715
611.082	0.0146535
611.160	0.0144509
611.238	0.0147105
611.317	0.0145599
611.395	0.0145647
611.473	0.0147366
611.551	0.0146404
611.629	0.0146222
611.707	0.0146892
611.785	0.0147187
611.863	0.0146848
611.942	0.0146111
612.020	0.0146698
612.098	0.0147668
612.176	0.0146281
612.254	0.0146722
612.332	0.0147588
612.410	0.0146257
612.488	0.0147300
612.567	0.0147264
612.645	0.0147235
612.723	0.0146822
612.801	0.0147554
612.879	0.0146050
612.957	0.0147263
613.035	0.0148575
613.113	0.0146434
613.192	0.0146945
613.270	0.0146781
613.348	0.0146435
613.426	0.0146005
613.504	0.0147562
613.582	0.0148649
613.660	0.0147617
613.738	0.0147337
613.817	0.0147172
613.895	0.0147217
613.973	0.0146414
614.051	0.0146872
614.129	0.0148274
614.207	0.0146116
614.285	0.0146711
614.363	0.0146535
614.442	0.0146102
614.520	0.0146980
614.598	0.0147482
614.676	0.0146241
614.754	0.0146301
614.832	0.0146157
614.910	0.0146327
614.988	0.0146481
615.067	0.0145470
615.145	0.0146418
615.223	0.0145296
615.301	0.0146703
615.379	0.0146789
615.457	0.0144778
615.535	0.0145910
615.613	0.0145768
615.692	0.0145944
615.770	0.0146674
615.848	0.0145459
615.926	0.0145576
616.004	0.0145356
616.082	0.0146009
616.160	0.0145621
616.238	0.0145161
616.317	0.0147106
616.395	0.0144756
616.473	0.0144962
616.551	0.0145898
616.629	0.0147302
616.707	0.0145602
616.785	0.0145679
616.863	0.0146582
616.942	0.0145695
617.020	0.0145979
617.098	0.0146580
617.176	0.0146149
617.254	0.0146253
617.332	0.0146207
617.410	0.0146046
617.488	0.0147589
617.567	0.0145938
617.645	0.0147392
617.723	0.0145847
617.801	0.0144775
617.879	0.0145468
617.957	0.0145057
618.035	0.0145259
618.113	0.0146939
618.192	0.0146241
618.270	0.0145463
618.348	0.0146844
618.426	0.0147271
618.504	0.0146153
618.582	0.0146015
618.660	0.0146181
618.738	0.0146272
618.817	0.0146577
618.895	0.0145807
618.973	0.0145793
619.051	0.0146293
619.129	0.0146915
619.207	0.0146681
619.285	0.0146405
619.363	0.0146119
619.442	0.0146371
619.520	0.0146867
619.598	0.0146851
619.676	0.0146381
619.754	0.0147444
619.832	0.0145602
619.910	0.0145445
619.988	0.0147384
620.067	0.0147021
620.145	0.0145222
620.223	0.0144740
620.301	0.0145486
620.379	0.0147296
620.457	0.0146013
620.535	0.0145668
620.613	0.0145789
620.692	0.0146087
620.770	0.0146015
620.848	0.0145521
620.926	0.0146281
621.004	0.0145363
621.082	0.0146461
621.160	0.0147478
621.238	0.0145254
621.317	0.0146411
621.395	0.0147387
621.473	0.0146635
621.551	0.0145853
621.629	0.0146293
621.707	0.0145608
621.785	0.0145573
621.863	0.0145667
621.942	0.0146479
622.020	0.0146225
622.098	0.0145574
622.176	0.0145983
622.254	0.0145436
622.332	0.0145564
622.410	0.0145488
622.488	0.0146595
622.567	0.0145531
622.645	0.0146440
622.723	0.0146897
622.801	0.0146919
622.879	0.0146181
622.957	0.0146908
623.035	0.0146150
623.113	0.0145615
623.192	0.0145744
623.270	0.0147213
623.348	0.0147845
623.426	0.0147237
623.504	0.0145506
623.582	0.0145911
623.660	0.0146032
623.738	0.0145635
623.817	0.0146748
623.895	0.0147009
623.973	0.0146545
624.051	0.0146436
624.129	0.0146551
624.207	0.0146336
624.285	0.0148409
624.363	0.0147870
624.442	0.0146146
624.520	0.0146805
624.598	0.0147556
624.676	0.0146441
624.754	0.0146411
624.832	0.0146370
624.910	0.0147450
624.988	0.0146088
625.067	0.0147507
625.145	0.0147329
625.223	0.0146999
625.301	0.0146903
625.379	0.0147594
625.457	0.0146934
625.535	0.0146611
625.613	0.0146617
625.692	0.0146853
625.770	0.0146636
625.848	0.0146536
625.926	0.0148793
626.004	0.0146166
626.082	0.0147215
626.160	0.0147137
626.238	0.0146203
626.317	0.0145428
626.395	0.0146340
626.473	0.0147843
626.551	0.0148370
626.629	0.0146067
626.707	0.0146975
626.785	0.0146785
626.863	0.0146781
626.942	0.0145675
627.020	0.0146232
627.098	0.0146989
627.176	0.0145726
627.254	0.0146233
627.332	0.0146165
627.410	0.0146590
627.488	0.0145943
627.567	0.0145413
627.645	0.0146230
627.723	0.0146386
627.801	0.0145025
627.879	0.0147245
627.957	0.0145479
628.035	0.0147278
628.113	0.0146301
628.192	0.0145742
628.270	0.0146069
628.348	0.0146272
628.426	0.0146138
628.504	0.0147348
628.582	0.0147433
628.660	0.0146151
628.738	0.0146617
628.817	0.0145819
628.895	0.0146026
628.973	0.0146664
629.051	0.0146535
629.129	0.0146502
629.207	0.0146232
629.285	0.0145775
629.363	0.0145553
629.442	0.0146302
629.520	0.0147927
629.598	0.0145811
629.676	0.0147471
629.754	0.0145829
629.832	0.0144826
629.910	0.0146591
629.988	0.0146642
630.067	0.0146481
630.145	0.0147002
630.223	0.0146223
630.301	0.0147594
630.379	0.0145000
630.457	0.0145312
630.535	0.0146535
630.613	0.0146381
630.692	0.0146452
630.770	0.0144918
630.848	0.0146616
630.926	0.0147235
631.004	0.0145985
631.082	0.0146104
631.160	0.0145949
631.238	0.0145412
631.317	0.0147299
631.395	0.0146583
631.473	0.0147726
631.551	0.0147086
631.629	0.0146792
631.707	0.0147344
631.785	0.0147040
631.863	0.0146011
631.942	0.0146750
632.020	0.0145837
632.098	0.0147746
632.176	0.0146676
632.254	0.0147025
632.332	0.0146766
632.410	0.0147301
632.488	0.0147664
632.567	0.0147591
632.645	0.0148768
632.723	0.0147227
632.801	0.0147988
632.879	0.0146576
632.957	0.0147243
633.035	0.0148036
633.113	0.0146965
633.192	0.0147164
633.270	0.0147791
633.348	0.0146862
633.426	0.0147268
633.504	0.0145850
633.582	0.0147353
633.660	0.0145728
633.738	0.0145961
633.817	0.0148004
633.895	0.0147469
633.973	0.0147044
634.051	0.0145999
634.129	0.0145674
634.207	0.0147569
634.285	0.0145445
634.363	0.0147049
634.442	0.0147501
634.520	0.0144731
634.598	0.0145317
634.676	0.0146136
634.754	0.0146647
634.832	0.0145785
634.910	0.0147108
634.988	0.0145541
635.067	0.0146336
635.145	0.0146080
635.223	0.0147431
635.301	0.0146235
635.379	0.0146385
635.457	0.0145531
635.535	0.0147128
635.613	0.0147034
635.692	0.0145406
635.770	0.0146669
635.848	0.0147569
635.926	0.0146191
636.004	0.0147582
636.082	0.0146212
636.160	0.0147045
636.238	0.0146019
636.317	0.0146272
636.395	0.0146883
636.473	0.0146398
636.551	0.0147420
636.629	0.0145691
636.707	0.0146835
636.785	0.0146570
636.863	0.0145535
636.942	0.0146436
637.020	0.0146242
637.098	0.0145700
637.176	0.0144316
637.254	0.0146223
637.332	0.0147130
637.410	0.0146426
637.488	0.0146687
637.567	0.0146684
637.645	0.0144569
637.723	0.0145021
637.801	0.0144717
637.879	0.0144835
637.957	0.0147206
638.035	0.0145329
638.113	0.0146019
638.192	0.0146212
638.270	0.0145385
638.348	0.0146557
638.426	0.0147776
638.504	0.0146365
638.582	0.0146695
638.660	0.0147359
638.738	0.0146290
638.817	0.0147690
638.895	0.0147396
638.973	0.0146754
639.051	0.0147090
639.129	0.0147230
639.207	0.0145982
639.285	0.0145950
639.363	0.0146847
639.442	0.0145780
639.520	0.0145980
639.598	0.0144227
639.676	0.0146085
639.754	0.0145420
639.832	0.0146462
639.910	0.0145508
639.988	0.0145042
640.067	0.0145483
640.145	0.0146367
640.223	0.0146193
640.301	0.0146119
640.379	0.0145719
640.457	0.0144909
640.535	0.0144793
640.613	0.0145210
640.692	0.0147141
640.770	0.0145625
640.848	0.0144876
640.926	0.0145850
641.004	0.0146085
641.082	0.0146014
641.160	0.0145853
641.238	0.0144426
641.317	0.0145792
641.395	0.0147515
641.473	0.0146304
641.551	0.0146519
641.629	0.0147701
641.707	0.0146696
641.785	0.0146431
641.863	0.0147116
641.942	0.0147204
642.020	0.0147028
642.098	0.0144796
642.176	0.0146645
642.254	0.0145527
642.332	0.0146001
642.410	0.0144181
642.488	0.0145531
642.567	0.0144971
642.645	0.0144391
642.723	0.0145171
642.801	0.0146397
642.879	0.0145438
642.957	0.0146877
643.035	0.0145201
643.113	0.0144642
643.192	0.0145966
643.270	0.0146554
643.348	0.0145757
643.426	0.0146325
643.504	0.0145043
643.582	0.0145756
643.660	0.0146755
643.738	0.0145781
643.817	0.0146008
643.895	0.0145907
643.973	0.0146803
644.051	0.0147643
644.129	0.0147974
644.207	0.0145189
644.285	0.0146111
644.363	0.0147035
644.442	0.0145892
644.520	0.0146075
644.598	0.0147002
644.676	0.0146407
644.754	0.0146301
644.832	0.0146981
644.910	0.0147047
644.988	0.0147510
645.067	0.0146973
645.145	0.0148097
645.223	0.0147385
645.301	0.0148296
645.379	0.0147260
645.457	0.0148706
645.535	0.0147630
645.613	0.0146708
645.692	0.0146527
645.770	0.0147528
645.848	0.0146665
645.926	0.0144212
646.004	0.0145604
646.082	0.0144690
646.160	0.0144590
646.238	0.0144357
646.317	0.0145453
646.395	0.0145241
646.473	0.0148028
646.551	0.0144610
646.629	0.0145158
646.707	0.0145734
646.785	0.0146495
646.863	0.0146010
646.942	0.0146631
647.020	0.0145064
647.098	0.0144881
647.176	0.0143721
647.254	0.0143354
647.332	0.0142965
647.410	0.0142715
647.488	0.0141658
647.567	0.0142891
647.645	0.0143127
647.723	0.0142056
647.801	0.0142508
647.879	0.0143390
647.957	0.0145727
648.035	0.0146564
648.113	0.0145963
648.192	0.0148492
648.270	0.0149481
648.348	0.0149625
648.426	0.0150249
648.504	0.0150835
648.582	0.0151669
648.660	0.0149789
648.738	0.0150080
648.817	0.0149776
648.895	0.0151759
648.973	0.0151405
649.051	0.0150607
649.129	0.0151404
649.207	0.0149554
649.285	0.0149981
649.363	0.0151193
649.442	0.0149998
649.520	0.0149552
649.598	0.0149840
649.676	0.0149925
649.754	0.0148862
649.832	0.0149020
649.910	0.0147571
649.988	0.0149682
650.067	0.0147864
650.145	0.0147388
650.223	0.0147021
650.301	0.0148055
650.379	0.0147352
650.457	0.0145100
650.535	0.0145882
650.613	0.0145853
650.692	0.0146107
650.770	0.0146217
650.848	0.0146094
650.926	0.0145115
651.004	0.0145999
651.082	0.0143905
651.160	0.0142764
651.238	0.0143099
651.317	0.0142524
651.395	0.0141871
651.473	0.0143349
651.551	0.0143057
651.629	0.0142139
651.707	0.0140098
651.785	0.0141073
651.863	0.0141691
651.942	0.0141228
652.020	0.0140913
652.098	0.0142609
652.176	0.0143921
652.254	0.0144215
652.332	0.0145073
652.410	0.0144830
652.488	0.0145036
652.567	0.0147504
652.645	0.0146859
652.723	0.0148272
652.801	0.0147943
652.879	0.0148794
652.957	0.0147937
653.035	0.0149033
653.113	0.0149263
653.192	0.0149383
653.270	0.0149720
653.348	0.0151248
653.426	0.0149379
653.504	0.0148450
653.582	0.0149338
653.660	0.0150274
653.738	0.0150732
653.817	0.0149005
653.895	0.0150873
653.973	0.0150146
654.051	0.0150191
654.129	0.0150213
654.207	0.0149585
654.285	0.0151288
654.363	0.0150100
654.442	0.0150708
654.520	0.0149632
654.598	0.0149845
654.676	0.0148584
654.754	0.0149119
654.832	0.0148624
654.910	0.0148746
654.988	0.0147514
655.067	0.0148303
655.145	0.0145067
655.223	0.0146687
655.301	0.0146384
655.379	0.0144221
655.457	0.0143803
655.535	0.0144007
655.613	0.0143350
655.692	0.0144759
655.770	0.0143803
655.848	0.0143890
655.926	0.0142695
656.004	0.0141177
656.082	0.0142148
656.160	0.0140920
656.238	0.0141186
656.317	0.0140864
656.395	0.0142093
656.473	0.0141148
656.551	0.0142441
656.629	0.0141120
656.707	0.0141524
656.785	0.0144097
656.863	0.0140724
656.942	0.0142971
657.020	0.0142132
657.098	0.0142425
657.176	0.0142142
657.254	0.0142040
657.332	0.0143927
657.410	0.0143077
657.488	0.0144149
657.567	0.0144615
657.645	0.0144377
657.723	0.0145231
657.801	0.0145879
657.879	0.0145684
657.957	0.0147483
658.035	0.0148795
658.113	0.0149113
658.192	0.0151476
658.270	0.0150510
658.348	0.0150404
658.426	0.0151996
658.504	0.0152075
658.582	0.0152022
658.660	0.0152650
658.738	0.0151842
658.817	0.0151414
658.895	0.0150785
658.973	0.0151121
659.051	0.0151826
659.129	0.0153294
659.207	0.0152115
659.285	0.0148930
659.363	0.0148154
659.442	0.0150009
659.520	0.0150114
659.598	0.0149064
659.676	0.0148883
659.754	0.0146764
659.832	0.0147732
659.910	0.0147189
659.988	0.0146469
660.067	0.0145971
660.145	0.0146105
660.223	0.0143253
660.301	0.0142724
660.379	0.0143903
660.457	0.0143098
660.535	0.0142315
660.613	0.0142457
660.692	0.0140343
660.770	0.0141266
660.848	0.0140204
660.926	0.0140295
661.004	0.0139301
661.082	0.0139742
661.160	0.0139181
661.238	0.0139113
661.317	0.0140142
661.395	0.0141163
661.473	0.0141759
661.551	0.0141850
661.629	0.0142756
661.707	0.0143174
661.785	0.0143406
661.863	0.0143458
661.942	0.0145007
662.020	0.0146373
662.098	0.0145459
662.176	0.0146155
662.254	0.0145458
662.332	0.0147607
662.410	0.0146743
662.488	0.0147186
662.567	0.0147871
662.645	0.0145647
662.723	0.0147037
662.801	0.0148035
662.879	0.0148409
662.957	0.0145985
663.035	0.0146644
663.113	0.0148425
663.192	0.0148136
663.270	0.0147811
663.348	0.0147669
663.426	0.0149254
663.504	0.0149099
663.582	0.0148644
663.660	0.0149793
663.738	0.0150810
663.817	0.0150678
663.895	0.0150384
663.973	0.0150078
664.051	0.0152200
664.129	0.0152649
664.207	0.0151356
664.285	0.0151641
664.363	0.0153689
664.442	0.0153005
664.520	0.0152604
664.598	0.0152055
664.676	0.0151960
664.754	0.0150599
664.832	0.0149828
664.910	0.0149509
664.988	0.0146686
665.067	0.0145866
665.145	0.0145279
665.223	0.0145225
665.301	0.0142444
665.379	0.0141140
665.457	0.0140662
665.535	0.0140199
665.613	0.0140981
665.692	0.0141051
665.770	0.0141564
665.848	0.0140870
665.926	0.0140791
666.004	0.0142708
666.082	0.0144006
666.160	0.0142097
666.238	0.0143140
666.317	0.0143723
666.395	0.0145544
666.473	0.0144486
666.551	0.0145576
666.629	0.0145966
666.707	0.0146433
666.785	0.0147080
666.863	0.0148123
666.942	0.0148849
667.020	0.0150076
667.098	0.0149305
667.176	0.0149771
667.254	0.0149545
667.332	0.0149460
667.410	0.0149966
667.488	0.0150372
667.567	0.0150230
667.645	0.0149477
667.723	0.0149887
667.801	0.0148100
667.879	0.0147946
667.957	0.0146851
668.035	0.0147259
668.113	0.0147475
668.192	0.0145860
668.270	0.0147974
668.348	0.0146407
668.426	0.0146241
668.504	0.0145527
668.582	0.0145484
668.660	0.0145686
668.738	0.0144640
668.817	0.0144373
668.895	0.0144701
668.973	0.0144600
669.051	0.0145428
669.129	0.0144210
669.207	0.0145593
669.285	0.0146786
669.363	0.0146826
669.442	0.0147568
669.520	0.0146651
669.598	0.0147303
669.676	0.0148899
669.754	0.0149281
669.832	0.0148711
669.910	0.0149788
669.988	0.0151166
670.067	0.0151511
670.145	0.0150758
670.223	0.0150433
670.301	0.0150120
670.379	0.0149362
670.457	0.0150737
670.535	0.0150745
670.613	0.0148077
670.692	0.0151012
670.770	0.0149111
670.848	0.0149696
670.926	0.0149104
671.004	0.0145928
671.082	0.0147355
671.160	0.0147314
671.238	0.0146474
671.317	0.0145351
671.395	0.0146447
671.473	0.0145879
671.551	0.0144543
671.629	0.0144251
671.707	0.0144913
671.785	0.0142274
671.863	0.0143272
671.942	0.0143850
672.020	0.0142320
672.098	0.0143290
672.176	0.0145238
672.254	0.0144044
672.332	0.0144812
672.410	0.0145521
672.488	0.0144581
672.567	0.0145033
672.645	0.0147833
672.723	0.0146982
672.801	0.0147356
672.879	0.0149124
672.957	0.0149195
673.035	0.0149654
673.113	0.0149921
673.192	0.0149883
673.270	0.0147990
673.348	0.0146643
673.426	0.0147110
673.504	0.0145752
673.582	0.0143851
673.660	0.0143599
673.738	0.0142139
673.817	0.0141430
673.895	0.0140042
673.973	0.0140672
674.051	0.0139523
674.129	0.0139737
674.207	0.0139924
674.285	0.0140304
674.363	0.0141195
674.442	0.0142509
674.520	0.0141981
674.598	0.0143296
674.676	0.0144012
674.754	0.0146314
674.832	0.0148499
674.910	0.0150525
674.988	0.0152702
675.067	0.0151753
675.145	0.0152061
675.223	0.0153703
675.301	0.0153626
675.379	0.0154578
675.457	0.0156005
675.535	0.0156521
675.613	0.0155730
675.692	0.0154482
675.770	0.0154768
675.848	0.0153618
675.926	0.0153460
676.004	0.0153040
676.082	0.0151521
676.160	0.0149982
676.238	0.0148774
676.317	0.0149575
676.395	0.0147859
676.473	0.0146638
676.551	0.0145328
676.629	0.0143764
676.707	0.0142197
676.785	0.0142319
676.863	0.0142214
676.942	0.0140176
677.020	0.0139784
677.098	0.0138881
677.176	0.0139117
677.254	0.0139177
677.332	0.0138618
677.410	0.0137933
677.488	0.0139350
677.567	0.0138965
677.645	0.0138264
677.723	0.0139886
677.801	0.0142815
677.879	0.0140785
677.957	0.0142039
678.035	0.0145580
678.113	0.0144294
678.192	0.0144095
678.270	0.0146102
678.348	0.0146775
678.426	0.0146670
678.504	0.0148414
678.582	0.0148842
678.660	0.0148175
678.738	0.0149195
678.817	0.0149167
678.895	0.0149373
678.973	0.0150868
679.051	0.0150133
679.129	0.0150858
679.207	0.0151223
679.285	0.0149768
679.363	0.0150621
679.442	0.0150993
679.520	0.0151058
679.598	0.0149764
679.676	0.0149905
679.754	0.0148752
679.832	0.0148380
679.910	0.0147499
679.988	0.0145821
680.067	0.0146088
680.145	0.0144785
680.223	0.0145953
680.301	0.0144117
680.379	0.0143509
680.457	0.0143791
680.535	0.0142613
680.613	0.0142292
680.692	0.0141466
680.770	0.0140664
680.848	0.0139278
680.926	0.0139745
681.004	0.0137337
681.082	0.0138369
681.160	0.0137278
681.238	0.0137548
681.317	0.0138755
681.395	0.0139056
681.473	0.0141325
681.551	0.0140170
681.629	0.0142094
681.707	0.0142856
681.785	0.0144545
681.863	0.0147156
681.942	0.0147924
682.020	0.0148720
682.098	0.0148822
682.176	0.0151502
682.254	0.0153476
682.332	0.0152048
682.410	0.0153400
682.488	0.0152586
682.567	0.0151183
682.645	0.0152965
682.723	0.0151792
682.801	0.0150678
682.879	0.0150804
682.957	0.0152317
683.035	0.0151309
683.113	0.0150852
683.192	0.0150974
683.270	0.0150197
683.348	0.0149937
683.426	0.0150092
683.504	0.0150717
683.582	0.0150929
683.660	0.0148833
683.738	0.0148003
683.817	0.0148177
683.895	0.0148080
683.973	0.0146040
684.051	0.0144121
684.129	0.0145874
684.207	0.0144192
684.285	0.0142960
684.363	0.0142868
684.442	0.0141959
684.520	0.0142728
684.598	0.0141926
684.676	0.0141027
684.754	0.0141596
684.832	0.0142181
684.910	0.0141911
684.988	0.0142260
685.067	0.0142198
685.145	0.0142658
685.223	0.0143458
685.301	0.0143735
685.379	0.0144126
685.457	0.0144556
685.535	0.0144135
685.613	0.0145071
685.692	0.0144350
685.770	0.0143240
685.848	0.0144529
685.926	0.0143911
686.004	0.0144678
686.082	0.0144659
686.160	0.0143534
686.238	0.0145367
686.317	0.0145341
686.395	0.0146553
686.473	0.0147594
686.551	0.0148526
686.629	0.0149828
686.707	0.0151643
686.785	0.0151979
686.863	0.0152958
686.942	0.0153481
687.020	0.0156059
687.098	0.0156250
687.176	0.0155723
687.254	0.0156222
687.332	0.0155733
687.410	0.0154442
687.488	0.0153122
687.567	0.0153291
687.645	0.0152601
687.723	0.0150821
687.801	0.0149772
687.879	0.0147601
687.957	0.0147055
688.035	0.0145676
688.113	0.0143697
688.192	0.0143025
688.270	0.0142065
688.348	0.0140024
688.426	0.0139799
688.504	0.0139101
688.582	0.0138298
688.660	0.0137975
688.738	0.0137013
688.817	0.0138496
688.895	0.0139104
688.973	0.0139660
689.051	0.0140781
689.129	0.0142426
689.207	0.0141975
689.285	0.0143226
689.363	0.0143523
689.442	0.0145909
689.520	0.0145309
689.598	0.0147343
689.676	0.0147352
689.754	0.0147171
689.832	0.0147863
689.910	0.0149402
689.988	0.0149755
690.067	0.0148707
690.145	0.0150160
690.223	0.0151352
690.301	0.0151652
690.379	0.0151304
690.457	0.0150528
690.535	0.0150250
690.613	0.0151910
690.692	0.0151509
690.770	0.0149622
690.848	0.0150299
690.926	0.0151870
691.004	0.0151311
691.082	0.0149508
691.160	0.0149823
691.238	0.0150542
691.317	0.0148605
691.395	0.0148319
691.473	0.0147480
691.551	0.0146790
691.629	0.0147564
691.707	0.0145302
691.785	0.0146089
691.863	0.0146183
691.942	0.0145550
692.020	0.0145301
692.098	0.0143634
692.176	0.0143540
692.254	0.0144811
692.332	0.0144830
692.410	0.0144441
692.488	0.0144702
692.567	0.0145190
692.645	0.0145870
692.723	0.0145738
692.801	0.0145951
692.879	0.0145920
692.957	0.0146381
693.035	0.0147138
693.113	0.0147323
693.192	0.0146355
693.270	0.0146644
693.348	0.0147790
693.426	0.0145986
693.504	0.0145844
693.582	0.0147628
693.660	0.0146131
693.738	0.0145442
693.817	0.0145013
693.895	0.0143369
693.973	0.0144316
694.051	0.0142347
694.129	0.0142280
694.207	0.0142002
694.285	0.0140408
694.363	0.0140369
694.442	0.0141573
694.520	0.0140327
694.598	0.0140388
694.676	0.0139626
694.754	0.0139796
694.832	0.0138818
694.910	0.0140191
694.988	0.0140024
695.067	0.0141611
695.145	0.0143501
695.223	0.0144100
695.301	0.0143932
695.379	0.0146481
695.457	0.0149406
695.535	0.0149729
695.613	0.0151069
695.692	0.0151445
695.770	0.0152404
695.848	0.0154062
695.926	0.0153976
696.004	0.0154790
696.082	0.0155670
696.160	0.0154736
696.238	0.0155705
696.317	0.0156010
696.395	0.0156232
696.473	0.0155276
696.551	0.0155229
696.629	0.0155728
696.707	0.0156654
696.785	0.0155393
696.863	0.0155527
696.942	0.0156381
697.020	0.0154810
697.098	0.0156304
697.176	0.0153886
697.254	0.0152590
697.332	0.0152296
697.410	0.0151462
697.488	0.0149168
697.567	0.0149406
697.645	0.0146862
697.723	0.0145066
697.801	0.0144319
697.879	0.0142627
697.957	0.0140963
698.035	0.0139082
698.113	0.0137003
698.192	0.0136911
698.270	0.0134839
698.348	0.0132651
698.426	0.0132839
698.504	0.0131969
698.582	0.0132976
698.660	0.0130964
698.738	0.0131870
698.817	0.0131570
698.895	0.0132621
698.973	0.0133953
699.051	0.0134454
699.129	0.0136172
699.207	0.0138045
699.285	0.0138349
699.363	0.0140194
699.442	0.0142039
699.520	0.0143095
699.598	0.0145860
699.676	0.0146752
699.754	0.0146635
699.832	0.0149493
699.910	0.0150263
699.988	0.0152161
700.067	0.0153516
700.145	0.0155930
700.223	0.0157710
700.301	0.0157963
700.379	0.0158125
700.457	0.0158881
700.535	0.0162057
700.613	0.0161529
700.692	0.0160742
700.770	0.0162509
700.848	0.0161654
700.926	0.0160947
701.004	0.0161975
701.082	0.0161102
701.160	0.0159956
701.238	0.0157513
701.317	0.0158890
701.395	0.0155975
701.473	0.0155666
701.551	0.0152989
701.629	0.0150312
701.707	0.0148232
701.785	0.0145805
701.863	0.0144973
701.942	0.0140842
702.020	0.0139837
702.098	0.0136329
702.176	0.0135367
702.254	0.0134128
702.332	0.0131577
702.410	0.0131667
702.488	0.0130579
702.567	0.0129635
702.645	0.0130161
702.723	0.0130033
702.801	0.0131832
702.879	0.0131631
702.957	0.0132407
703.035	0.0134327
703.113	0.0135550
703.192	0.0135484
703.270	0.0137828
703.348	0.0138972
703.426	0.0140112
703.504	0.0141633
703.582	0.0142734
703.660	0.0145254
703.738	0.0145757
703.817	0.0149123
703.895	0.0147653
703.973	0.0151057
704.051	0.0151648
704.129	0.0152949
704.207	0.0154170
704.285	0.0154559
704.363	0.0154257
704.442	0.0155476
704.520	0.0157043
704.598	0.0156761
704.676	0.0157972
704.754	0.0156329
704.832	0.0158207
704.910	0.0156650
704.988	0.0155945
705.067	0.0155383
705.145	0.0155608
705.223	0.0155237
705.301	0.0153075
705.379	0.0153387
705.457	0.0152452
705.535	0.0152870
705.613	0.0152654
705.692	0.0150762
705.770	0.0150633
705.848	0.0149871
705.926	0.0148183
706.004	0.0149164
706.082	0.0147575
706.160	0.0145988
706.238	0.0145808
706.317	0.0143038
706.395	0.0142661
706.473	0.0142185
706.551	0.0140698
706.629	0.0140739
706.707	0.0139403
706.785	0.0139574
706.863	0.0138779
706.942	0.0138586
707.020	0.0139443
707.098	0.0140808
707.176	0.0140789
707.254	0.0139950
707.332	0.0141547
707.410	0.0142608
707.488	0.0143752
707.567	0.0143536
707.645	0.0143317
707.723	0.0143556
707.801	0.0145387
707.879	0.0144784
707.957	0.0145831
708.035	0.0146107
708.113	0.0147841
708.192	0.0148135
708.270	0.0147324
708.348	0.0147340
708.426	0.0146601
708.504	0.0148570
708.582	0.0147923
708.660	0.0146857
708.738	0.0147347
708.817	0.0146996
708.895	0.0145024
708.973	0.0145714
709.051	0.0144896
709.129	0.0143924
709.207	0.0144958
709.285	0.0144656
709.363	0.0143245
709.442	0.0142900
709.520	0.0144969
709.598	0.0146837
709.676	0.0147324
709.754	0.0145777
709.832	0.0146620
709.910	0.0147072
709.988	0.0147562
710.067	0.0148554
710.145	0.0148122
710.223	0.0146893
710.301	0.0148286
710.379	0.0147675
710.457	0.0148885
710.535	0.0147760
710.613	0.0147820
710.692	0.0148334
710.770	0.0146645
710.848	0.0148406
710.926	0.0148245
711.004	0.0148493
711.082	0.0148402
711.160	0.0147220
711.238	0.0149094
711.317	0.0149160
711.395	0.0149498
711.473	0.0149345
711.551	0.0149091
711.629	0.0149340
711.707	0.0149195
711.785	0.0148795
711.863	0.0148266
711.942	0.0147835
712.020	0.0146983
712.098	0.0147692
712.176	0.0146458
712.254	0.0145789
712.332	0.0145606
712.410	0.0145245
712.488	0.0143717
712.567	0.0142533
712.645	0.0145103
712.723	0.0144405
712.801	0.0143796
712.879	0.0143168
712.957	0.0143797
713.035	0.0144568
713.113	0.0143873
713.192	0.0143617
713.270	0.0143758
713.348	0.0144617
713.426	0.0144647
713.504	0.0144843
713.582	0.0143655
713.660	0.0144038
713.738	0.0143024
713.817	0.0143684
713.895	0.0142558
713.973	0.0143983
714.051	0.0143572
714.129	0.0142721
714.207	0.0142907
714.285	0.0142514
714.363	0.0144269
714.442	0.0145014
714.520	0.0145906
714.598	0.0145707
714.676	0.0146498
714.754	0.0146864
714.832	0.0148000
714.910	0.0148402
714.988	0.0147987
715.067	0.0148027
715.145	0.0149170
715.223	0.0150461
715.301	0.0148859
715.379	0.0150266
715.457	0.0149893
715.535	0.0147511
715.613	0.0147694
715.692	0.0147764
715.770	0.0147472
715.848	0.0149322
715.926	0.0146900
716.004	0.0146935
716.082	0.0148279
716.160	0.0145988
716.238	0.0146991
716.317	0.0143801
716.395	0.0144371
716.473	0.0146843
716.551	0.0146676
716.629	0.0145101
716.707	0.0145222
716.785	0.0144035
716.863	0.0144294
716.942	0.0144503
717.020	0.0144717
717.098	0.0142884
717.176	0.0143468
717.254	0.0144746
717.332	0.0144920
717.410	0.0143911
717.488	0.0144009
717.567	0.0144723
717.645	0.0144683
717.723	0.0146093
717.801	0.0145762
717.879	0.0145732
717.957	0.0146555
718.035	0.0147778
718.113	0.0146525
718.192	0.0144741
718.270	0.0144376
718.348	0.0147178
718.426	0.0146449
718.504	0.0144488
718.582	0.0144000
718.660	0.0143021
718.738	0.0143883
718.817	0.0144935
718.895	0.0144014
718.973	0.0145279
719.051	0.0146192
719.129	0.0145150
719.207	0.0147226
719.285	0.0147102
719.363	0.0146471
719.442	0.0147762
719.520	0.0147741
719.598	0.0146890
719.676	0.0148532
719.754	0.0146271
719.832	0.0146326
719.910	0.0146397
719.988	0.0146800
720.067	0.0147218
720.145	0.0144939
720.223	0.0143860
720.301	0.0144450
720.379	0.0144611
720.457	0.0145727
720.535	0.0143690
720.613	0.0143871
720.692	0.0143683
720.770	0.0145051
720.848	0.0144132
720.926	0.0143722
721.004	0.0145789
721.082	0.0145368
721.160	0.0147462
721.238	0.0147130
721.317	0.0146225
721.395	0.0146842
721.473	0.0149303
721.551	0.0150388
721.629	0.0151145
721.707	0.0150095
721.785	0.0150836
721.863	0.0150684
721.942	0.0149249
722.020	0.0150665
722.098	0.0149384
722.176	0.0148830
722.254	0.0148733
722.332	0.0148488
722.410	0.0148683
722.488	0.0146945
722.567	0.0145351
722.645	0.0145353
722.723	0.0145004
722.801	0.0143945
722.879	0.0145307
722.957	0.0144220
723.035	0.0143202
723.113	0.0142726
723.192	0.0143637
723.270	0.0144111
723.348	0.0144251
723.426	0.0143155
723.504	0.0143449
723.582	0.0143401
723.660	0.0142708
723.738	0.0143750
723.817	0.0144626
723.895	0.0144627
723.973	0.0144252
724.051	0.0145752
724.129	0.0146198
724.207	0.0145463
724.285	0.0146462
724.363	0.0147078
724.442	0.0148186
724.520	0.0149122
724.598	0.0149674
724.676	0.0148895
724.754	0.0149381
724.832	0.0149272
724.910	0.0149039
724.988	0.0150697
725.067	0.0147801
725.145	0.0147421
725.223	0.0148352
725.301	0.0147629
725.379	0.0146564
725.457	0.0146905
725.535	0.0146899
725.613	0.0148157
725.692	0.0147345
725.770	0.0147035
725.848	0.0147542
725.926	0.0146173
726.004	0.0145915
726.082	0.0147552
726.160	0.0148930
726.238	0.0147844
726.317	0.0147860
726.395	0.0147888
726.473	0.0147473
726.551	0.0148326
726.629	0.0149239
726.707	0.0147610
726.785	0.0146899
726.863	0.0148482
726.942	0.0146581
727.020	0.0145964
727.098	0.0145779
727.176	0.0146528
727.254	0.0146568
727.332	0.0146889
727.410	0.0147422
727.488	0.0146729
727.567	0.0147034
727.645	0.0146086
727.723	0.0145885
727.801	0.0147255
727.879	0.0146152
727.957	0.0148103
728.035	0.0146210
728.113	0.0147466
728.192	0.0146140
728.270	0.0145934
728.348	0.0146475
728.426	0.0146761
728.504	0.0145544
728.582	0.0146761
728.660	0.0144930
728.738	0.0146222
728.817	0.0147840
728.895	0.0147716
728.973	0.0148273
729.051	0.0149015
729.129	0.0150126
729.207	0.0148768
729.285	0.0148120
729.363	0.0149614
729.442	0.0148383
729.520	0.0149152
729.598	0.0149361
729.676	0.0148444
729.754	0.0149171
729.832	0.0147805
729.910	0.0148138
729.988	0.0148078
730.067	0.0148802
730.145	0.0148633
730.223	0.0146559
730.301	0.0146131
730.379	0.0146555
730.457	0.0146001
730.535	0.0145256
730.613	0.0145531
730.692	0.0147009
730.770	0.0144654
730.848	0.0144383
730.926	0.0145318
731.004	0.0145221
731.082	0.0143997
731.160	0.0144109
731.238	0.0145130
731.317	0.0145383
731.395	0.0145335
731.473	0.0147554
731.551	0.0147469
731.629	0.0146697
731.707	0.0146688
731.785	0.0146976
731.863	0.0147475
731.942	0.0147102
732.020	0.0146957
732.098	0.0147913
732.176	0.0147682
732.254	0.0149181
732.332	0.0147145
732.410	0.0147893
732.488	0.0146754
732.567	0.0148016
732.645	0.0147523
732.723	0.0147189
732.801	0.0147746
732.879	0.0148766
732.957	0.0147577
733.035	0.0146232
733.113	0.0146325
733.192	0.0146013
733.270	0.0144800
733.348	0.0144181
733.426	0.0145638
733.504	0.0146015
733.582	0.0145710
733.660	0.0143347
733.738	0.0144709
733.817	0.0145480
733.895	0.0146542
733.973	0.0145216
734.051	0.0146075
734.129	0.0145708
734.207	0.0144328
734.285	0.0144403
734.363	0.0145358
734.442	0.0143736
734.520	0.0145681
734.598	0.0145165
734.676	0.0145337
734.754	0.0144901
734.832	0.0145314
734.910	0.0143581
734.988	0.0144071
735.067	0.0144008
735.145	0.0145096
735.223	0.0144878
735.301	0.0143587
735.379	0.0143659
735.457	0.0143256
735.535	0.0143990
735.613	0.0144135
735.692	0.0144693
735.770	0.0143636
735.848	0.0144586
735.926	0.0144901
736.004	0.0144875
736.082	0.0145862
736.160	0.0146215
736.238	0.0145430
736.317	0.0144363
736.395	0.0145536
736.473	0.0147014
736.551	0.0145720
736.629	0.0146629
736.707	0.0147861
736.785	0.0146402
736.863	0.0146726
736.942	0.0147641
737.020	0.0146379
737.098	0.0147047
737.176	0.0147076
737.254	0.0146995
737.332	0.0147097
737.410	0.0147561
737.488	0.0148100
737.567	0.0148008
737.645	0.0146732
737.723	0.0146951
737.801	0.0147712
737.879	0.0147504
737.957	0.0147050
738.035	0.0145538
738.113	0.0146825
738.192	0.0146442
738.270	0.0146999
738.348	0.0146295
738.426	0.0146649
738.504	0.0146015
738.582	0.0144884
738.660	0.0143855
738.738	0.0144508
738.817	0.0145363
738.895	0.0145582
738.973	0.0144476
739.051	0.0144588
739.129	0.0144193
739.207	0.0144282
739.285	0.0143944
739.363	0.0145561
739.442	0.0145452
739.520	0.0145158
739.598	0.0145229
739.676	0.0144421
739.754	0.0146309
739.832	0.0147108
739.910	0.0146951
739.988	0.0146626
740.067	0.0146999
740.145	0.0147193
740.223	0.0146787
740.301	0.0147282
740.379	0.0146493
740.457	0.0146928
740.535	0.0145860
740.613	0.0145970
740.692	0.0146349
740.770	0.0146027
740.848	0.0146770
740.926	0.0147169
741.004	0.0145680
741.082	0.0146284
741.160	0.0144550
741.238	0.0145047
741.317	0.0145451
741.395	0.0145781
741.473	0.0144862
741.551	0.0145908
741.629	0.0145737
741.707	0.0145893
741.785	0.0144296
741.863	0.0146464
741.942	0.0145238
742.020	0.0145453
742.098	0.0144354
742.176	0.0146152
742.254	0.0146510
742.332	0.0144962
742.410	0.0146282
742.488	0.0147149
742.567	0.0145346
742.645	0.0146038
742.723	0.0146530
742.801	0.0146786
742.879	0.0146819
742.957	0.0146276
743.035	0.0147063
743.113	0.0146381
743.192	0.0146223
743.270	0.0145759
743.348	0.0146186
743.426	0.0146506
743.504	0.0147127
743.582	0.0146030
743.660	0.0145639
743.738	0.0145925
743.817	0.0144931
743.895	0.0144482
743.973	0.0144690
744.051	0.0143382
744.129	0.0143826
744.207	0.0145490
744.285	0.0145660
744.363	0.0143938
744.442	0.0145776
744.520	0.0145148
744.598	0.0146169
744.676	0.0146621
744.754	0.0146709
744.832	0.0146130
744.910	0.0147681
744.988	0.0146856
745.067	0.0146764
745.145	0.0146816
745.223	0.0147540
745.301	0.0148030
745.379	0.0147647
745.457	0.0146947
745.535	0.0148845
745.613	0.0148687
745.692	0.0148022
745.770	0.0148351
745.848	0.0148351
745.926	0.0148652
746.004	0.0148665
746.082	0.0147621
746.160	0.0146183
746.238	0.0147756
746.317	0.0148586
746.395	0.0147559
746.473	0.0145654
746.551	0.0146905
746.629	0.0148083
746.707	0.0147449
746.785	0.0146519
746.863	0.0146142
746.942	0.0146379
747.020	0.0145911
747.098	0.0144501
747.176	0.0148148
747.254	0.0146136
747.332	0.0145529
747.410	0.0146915
747.488	0.0147304
747.567	0.0146515
747.645	0.0146191
747.723	0.0145728
747.801	0.0147023
747.879	0.0146238
747.957	0.0147141
748.035	0.0147150
748.113	0.0145894
748.192	0.0146450
748.270	0.0146214
748.348	0.0146449
748.426	0.0145591
748.504	0.0146073
748.582	0.0146162
748.660	0.0147649
748.738	0.0146914
748.817	0.0147310
748.895	0.0147204
748.973	0.0149111
749.051	0.0147544
749.129	0.0149424
749.207	0.0148254
749.285	0.0149203
749.363	0.0147965
749.442	0.0148174
749.520	0.0148094
749.598	0.0148106
749.676	0.0146702
749.754	0.0148485
749.832	0.0147596
749.910	0.0147784
749.988	0.0147128
750.067	0.0144756
750.145	0.0145864
750.223	0.0145810
750.301	0.0146690
750.379	0.0145999
750.457	0.0147067
750.535	0.0145882
750.613	0.0145561
750.692	0.0147407
750.770	0.0146385
750.848	0.0145769
750.926	0.0146489
751.004	0.0145162
751.082	0.0145408
751.160	0.0146057
751.238	0.0146154
751.317	0.0146106
751.395	0.0146936
751.473	0.0146474
751.551	0.0145918
751.629	0.0145162
751.707	0.0147249
751.785	0.0147563
751.863	0.0147085
751.942	0.0146407
752.020	0.0147427
752.098	0.0146750
752.176	0.0146833
752.254	0.0146749
752.332	0.0146888
752.410	0.0147713
752.488	0.0144870
752.567	0.0145473
752.645	0.0147689
752.723	0.0145564
752.801	0.0147318
752.879	0.0146844
752.957	0.0146931
753.035	0.0147672
753.113	0.0146655
753.192	0.0147333
753.270	0.0148330
753.348	0.0148285
753.426	0.0148375
753.504	0.0146903
753.582	0.0147822
753.660	0.0148496
753.738	0.0148358
753.817	0.0147351
753.895	0.0148389
753.973	0.0147035
754.051	0.0147115
754.129	0.0146795
754.207	0.0146687
754.285	0.0146049
754.363	0.0147765
754.442	0.0147044
754.520	0.0144944
754.598	0.0147586
754.676	0.0146043
754.754	0.0144665
754.832	0.0146149
754.910	0.0145117
754.988	0.0144443
755.067	0.0146498
755.145	0.0145103
755.223	0.0146680
755.301	0.0145354
755.379	0.0145799
755.457	0.0145337
755.535	0.0145880
755.613	0.0145371
755.692	0.0145296
755.770	0.0145901
755.848	0.0145348
755.926	0.0147305
756.004	0.0147704
756.082	0.0145940
756.160	0.0145967
756.238	0.0145411
756.317	0.0145943
756.395	0.0147200
756.473	0.0145032
756.551	0.0144830
756.629	0.0147301
756.707	0.0146083
756.785	0.0145496
756.863	0.0146404
756.942	0.0146583
757.020	0.0146275
757.098	0.0146758
757.176	0.0144623
757.254	0.0145459
757.332	0.0146806
757.410	0.0144751
757.488	0.0145261
757.567	0.0145492
757.645	0.0145765
757.723	0.0144830
757.801	0.0145422
757.879	0.0145229
757.957	0.0146908
758.035	0.0147152
758.113	0.0146196
758.192	0.0145731
758.270	0.0145389
758.348	0.0147137
758.426	0.0146723
758.504	0.0144662
758.582	0.0145763
758.660	0.0147520
758.738	0.0145385
758.817	0.0145780
758.895	0.0145542
758.973	0.0143665
759.051	0.0145203
759.129	0.0144759
759.207	0.0143697
759.285	0.0145568
759.363	0.0145341
759.442	0.0146781
759.520	0.0145537
759.598	0.0145789
759.676	0.0144622
759.754	0.0145875
759.832	0.0144938
759.910	0.0144965
759.988	0.0145588
760.067	0.0145317
760.145	0.0145956
760.223	0.0146806
760.301	0.0145776
760.379	0.0144979
760.457	0.0145656
760.535	0.0146272
760.613	0.0148338
760.692	0.0146120
760.770	0.0148670
760.848	0.0149211
760.926	0.0147699
761.004	0.0147304
761.082	0.0148719
761.160	0.0148689
761.238	0.0150216
761.317	0.0148708
761.395	0.0150279
761.473	0.0149845
761.551	0.0148286
761.629	0.0149278
761.707	0.0149284
761.785	0.0148826
761.863	0.0148737
761.942	0.0147254
762.020	0.0147621
762.098	0.0147182
762.176	0.0146844
762.254	0.0146394
762.332	0.0145088
762.410	0.0145754
762.488	0.0144781
762.567	0.0144707
762.645	0.0143705
762.723	0.0143161
762.801	0.0143056
762.879	0.0143793
762.957	0.0143202
763.035	0.0143924
763.113	0.0144140
763.192	0.0143773
763.270	0.0143515
763.348	0.0145509
763.426	0.0145153
763.504	0.0144305
763.582	0.0144077
763.660	0.0145557
763.738	0.0145361
763.817	0.0146655
763.895	0.0146592
763.973	0.0147369
764.051	0.0146351
764.129	0.0146032
764.207	0.0147000
764.285	0.0148769
764.363	0.0148501
764.442	0.0147768
764.520	0.0148563
764.598	0.0146942
764.676	0.0147456
764.754	0.0147945
764.832	0.0147875
764.910	0.0149498
764.988	0.0146954
765.067	0.0147916
765.145	0.0148723
765.223	0.0146404
765.301	0.0146725
765.379	0.0147236
765.457	0.0147767
765.535	0.0146020
765.613	0.0146375
765.692	0.0147361
765.770	0.0146926
765.848	0.0147145
765.926	0.0146798
766.004	0.0147085
766.082	0.0146334
766.160	0.0146664
766.238	0.0147670
766.317	0.0147893
766.395	0.0148502
766.473	0.0147022
766.551	0.0146558
766.629	0.0146383
766.707	0.0146266
766.785	0.0146128
766.863	0.0146112
766.942	0.0145276
767.020	0.0148640
767.098	0.0146506
767.176	0.0145897
767.254	0.0145547
767.332	0.0145371
767.410	0.0145838
767.488	0.0146693
767.567	0.0145288
767.645	0.0145536
767.723	0.0145578
767.801	0.0143882
767.879	0.0146392
767.957	0.0144698
768.035	0.0144742
768.113	0.0146130
768.192	0.0145781
768.270	0.0146474
768.348	0.0146350
768.426	0.0147595
768.504	0.0147117
768.582	0.0146944
768.660	0.0145923
768.738	0.0146951
768.817	0.0147933
768.895	0.0147379
768.973	0.0147513
769.051	0.0147988
769.129	0.0147153
769.207	0.0147175
769.285	0.0148869
769.363	0.0147066
769.442	0.0148739
769.520	0.0148026
769.598	0.0149294
769.676	0.0148451
769.754	0.0148609
769.832	0.0147734
769.910	0.0147077
769.988	0.0146634
770.067	0.0148157
770.145	0.0147050
770.223	0.0149908
770.301	0.0147056
770.379	0.0147101
770.457	0.0147418
770.535	0.0147179
770.613	0.0146914
770.692	0.0146865
770.770	0.0145951
770.848	0.0146314
770.926	0.0145167
771.004	0.0146291
771.082	0.0146460
771.160	0.0147169
771.238	0.0146107
771.317	0.0145631
771.395	0.0145741
771.473	0.0147680
771.551	0.0147247
771.629	0.0146702
771.707	0.0146836
771.785	0.0147381
771.863	0.0146337
771.942	0.0149230
772.020	0.0147319
772.098	0.0145714
772.176	0.0148308
772.254	0.0147852
772.332	0.0148096
772.410	0.0146417
772.488	0.0146969
772.567	0.0147427
772.645	0.0145129
772.723	0.0145901
772.801	0.0146710
772.879	0.0147931
772.957	0.0146951
773.035	0.0147239
773.113	0.0147454
773.192	0.0146496
773.270	0.0146712
773.348	0.0146835
773.426	0.0145563
773.504	0.0147501
773.582	0.0147940
773.660	0.0146002
773.738	0.0146560
773.817	0.0146165
773.895	0.0146872
773.973	0.0147342
774.051	0.0146574
774.129	0.0146021
774.207	0.0145741
774.285	0.0148022
774.363	0.0145674
774.442	0.0146982
774.520	0.0146333
774.598	0.0147070
774.676	0.0147218
774.754	0.0146815
774.832	0.0146544
774.910	0.0147796
774.988	0.0146821
775.067	0.0146004
775.145	0.0145805
775.223	0.0147543
775.301	0.0146877
775.379	0.0147617
775.457	0.0148922
775.535	0.0146687
775.613	0.0148433
775.692	0.0146842
775.770	0.0147243
775.848	0.0146383
775.926	0.0147462
776.004	0.0146753
776.082	0.0146313
776.160	0.0146372
776.238	0.0146410
776.317	0.0145604
776.395	0.0144891
776.473	0.0145123
776.551	0.0146371
776.629	0.0145589
776.707	0.0146111
776.785	0.0146307
776.863	0.0145496
776.942	0.0145494
777.020	0.0144552
777.098	0.0144823
777.176	0.0146014
777.254	0.0145399
777.332	0.0144461
777.410	0.0145058
777.488	0.0144500
777.567	0.0144788
777.645	0.0144785
777.723	0.0145793
777.801	0.0145948
777.879	0.0144354
777.957	0.0145937
778.035	0.0147681
778.113	0.0145979
778.192	0.0147265
778.270	0.0145969
778.348	0.0146334
778.426	0.0146221
778.504	0.0146285
778.582	0.0146664
778.660	0.0145740
778.738	0.0146161
778.817	0.0147224
778.895	0.0148059
778.973	0.0146997
779.051	0.0146349
779.129	0.0147115
779.207	0.0144987
779.285	0.0145767
779.363	0.0145859
779.442	0.0146536
779.520	0.0145666
779.598	0.0145963
779.676	0.0147198
779.754	0.0145192
779.832	0.0146137
779.910	0.0146658
779.988	0.0146519
780.067	0.0146320
780.145	0.0146732
780.223	0.0146709
780.301	0.0146198
780.379	0.0147235
780.457	0.0146319
780.535	0.0145706
780.613	0.0147567
780.692	0.0147297
780.770	0.0147239
780.848	0.0146699
780.926	0.0146330
781.004	0.0145314
781.082	0.0147198
781.160	0.0146027
781.238	0.0145479
781.317	0.0147057
781.395	0.0145303
781.473	0.0145085
781.551	0.0146175
781.629	0.0146855
781.707	0.0145282
781.785	0.0146053
781.863	0.0145738
781.942	0.0146574
782.020	0.0145568
782.098	0.0146492
782.176	0.0145554
782.254	0.0145496
782.332	0.0146838
782.410	0.0145624
782.488	0.0145655
782.567	0.0144376
782.645	0.0146174
782.723	0.0145473
782.801	0.0146278
782.879	0.0145961
782.957	0.0147160
783.035	0.0145290
783.113	0.0145965
783.192	0.0146676
783.270	0.0147113
783.348	0.0145573
783.426	0.0146349
783.504	0.0146294
783.582	0.0146039
783.660	0.0145670
783.738	0.0146534
783.817	0.0144930
783.895	0.0145578
783.973	0.0145132
784.051	0.0145415
784.129	0.0145242
784.207	0.0145190
784.285	0.0143611
784.363	0.0144629
784.442	0.0143777
784.520	0.0144692
784.598	0.0143780
784.676	0.0144366
784.754	0.0145368
784.832	0.0143210
784.910	0.0146088
784.988	0.0145264
785.067	0.0143452
785.145	0.0144182
785.223	0.0144763
785.301	0.0144482
785.379	0.0146556
785.457	0.0146440
785.535	0.0146425
785.613	0.0146010
785.692	0.0144747
785.770	0.0146374
785.848	0.0146325
785.926	0.0146621
786.004	0.0144801
786.082	0.0145121
786.160	0.0145722
786.238	0.0147649
786.317	0.0146645
786.395	0.0146820
786.473	0.0146967
786.551	0.0148413
786.629	0.0147168
786.707	0.0146552
786.785	0.0147010
786.863	0.0147538
786.942	0.0148159
787.020	0.0147311
787.098	0.0147565
787.176	0.0146157
787.254	0.0147311
787.332	0.0147675
787.410	0.0146696
787.488	0.0146537
787.567	0.0147108
787.645	0.0146197
787.723	0.0146177
787.801	0.0146034
787.879	0.0146194
787.957	0.0147408
788.035	0.0147378
788.113	0.0145929
788.192	0.0145300
788.270	0.0144794
788.348	0.0144864
788.426	0.0145758
788.504	0.0145179
788.582	0.0146033
788.660	0.0145354
788.738	0.0146310
788.817	0.0145855
788.895	0.0146831
788.973	0.0145714
789.051	0.0146928
789.129	0.0147064
789.207	0.0145409
789.285	0.0145416
789.363	0.0146285
789.442	0.0146688
789.520	0.0145824
789.598	0.0145327
789.676	0.0147163
789.754	0.0146918
789.832	0.0147680
789.910	0.0146916
789.988	0.0146046
790.067	0.0146702
790.145	0.0147776
790.223	0.0148255
790.301	0.0147271
790.379	0.0148792
790.457	0.0147791
790.535	0.0148106
790.613	0.0148384
790.692	0.0148570
790.770	0.0146896
790.848	0.0147625
790.926	0.0147276
791.004	0.0146274
791.082	0.0146476
791.160	0.0148203
791.238	0.0145763
791.317	0.0146387
791.395	0.0147630
791.473	0.0147137
791.551	0.0147527
791.629	0.0147459
791.707	0.0145559
791.785	0.0147716
791.863	0.0148518
791.942	0.0147448
792.020	0.0146085
792.098	0.0147291
792.176	0.0148592
792.254	0.0148061
792.332	0.0147240
792.410	0.0147536
792.488	0.0147460
792.567	0.0147261
792.645	0.0147056
792.723	0.0147826
792.801	0.0147684
792.879	0.0147264
792.957	0.0146363
793.035	0.0147549
793.113	0.0148148
793.192	0.0147550
793.270	0.0145807
793.348	0.0146352
793.426	0.0146506
793.504	0.0146683
793.582	0.0146078
793.660	0.0146533
793.738	0.0144780
793.817	0.0145656
793.895	0.0146561
793.973	0.0145537
794.051	0.0146158
794.129	0.0145839
794.207	0.0144856
794.285	0.0145924
794.363	0.0146236
794.442	0.0146905
794.520	0.0146214
794.598	0.0146020
794.676	0.0147460
794.754	0.0146829
794.832	0.0146647
794.910	0.0146687
794.988	0.0145781
795.067	0.0146550
795.145	0.0145253
795.223	0.0146002
795.301	0.0145772
795.379	0.0146577
795.457	0.0145975
795.535	0.0145645
795.613	0.0145888
795.692	0.0145555
795.770	0.0148244
795.848	0.0146255
795.926	0.0146423
796.004	0.0147017
796.082	0.0146117
796.160	0.0146703
796.238	0.0147626
796.317	0.0148405
796.395	0.0146356
796.473	0.0147750
796.551	0.0147967
796.629	0.0147877
796.707	0.0146786
796.785	0.0147548
796.863	0.0147927
796.942	0.0147901
797.020	0.0146901
797.098	0.0148151
797.176	0.0148308
797.254	0.0147544
797.332	0.0148224
797.410	0.0148640
797.488	0.0148864
797.567	0.0147768
797.645	0.0147723
797.723	0.0148067
797.801	0.0148950
797.879	0.0147765
797.957	0.0147815
798.035	0.0147528
798.113	0.0148109
798.192	0.0149361
798.270	0.0147047
798.348	0.0147251
798.426	0.0146149
798.504	0.0145792
798.582	0.0146116
798.660	0.0145665
798.738	0.0145926
798.817	0.0145283
798.895	0.0144939
798.973	0.0143748
799.051	0.0143369
799.129	0.0145394
799.207	0.0144535
799.285	0.0145593
799.363	0.0143286
799.442	0.0143818
799.520	0.0144042
799.598	0.0143366
799.676	0.0142439
799.754	0.0143398
799.832	0.0142973
799.910	0.0142686
799.988	0.0145108
800.067	0.0144139
800.145	0.0144115
800.223	0.0143362
800.301	0.0145541
800.379	0.0145670
800.457	0.0145876
800.535	0.0145099
800.613	0.0146042
800.692	0.0147547
800.770	0.0146297
800.848	0.0147009
800.926	0.0146597
801.004	0.0148043
801.082	0.0147623
801.160	0.0148042
801.238	0.0146529
801.317	0.0148345
801.395	0.0146861
801.473	0.0148183
801.551	0.0146143
801.629	0.0145808
801.707	0.0147443
801.785	0.0145651
801.863	0.0146637
801.942	0.0146931
802.020	0.0146995
802.098	0.0146988
802.176	0.0146339
802.254	0.0147504
802.332	0.0146979
802.410	0.0147403
802.488	0.0147096
802.567	0.0146966
802.645	0.0145594
802.723	0.0146525
802.801	0.0146452
802.879	0.0145582
802.957	0.0146437
803.035	0.0145849
803.113	0.0146125
803.192	0.0146174
803.270	0.0146227
803.348	0.0145435
803.426	0.0146438
803.504	0.0146336
803.582	0.0145608
803.660	0.0145023
803.738	0.0147901
803.817	0.0146890
803.895	0.0145364
803.973	0.0146836
804.051	0.0144977
804.129	0.0145270
804.207	0.0145518
804.285	0.0145567
804.363	0.0145359
804.442	0.0147707
804.520	0.0145227
804.598	0.0144798
804.676	0.0144482
804.754	0.0146381
804.832	0.0144845
804.910	0.0144278
804.988	0.0145934
805.067	0.0145638
805.145	0.0144090
805.223	0.0144451
805.301	0.0145438
805.379	0.0144726
805.457	0.0144625
805.535	0.0146216
805.613	0.0145282
805.692	0.0144884
805.770	0.0145221
805.848	0.0146817
805.926	0.0146776
806.004	0.0146259
806.082	0.0146027
806.160	0.0146748
806.238	0.0146571
806.317	0.0146546
806.395	0.0147427
806.473	0.0146275
806.551	0.0147660
806.629	0.0146403
806.707	0.0145569
806.785	0.0146576
806.863	0.0147328
806.942	0.0144161
807.020	0.0145877
807.098	0.0145612
807.176	0.0145482
807.254	0.0144481
807.332	0.0143909
807.410	0.0145451
807.488	0.0144913
807.567	0.0143874
807.645	0.0144135
807.723	0.0146471
807.801	0.0145011
807.879	0.0144836
807.957	0.0145728
808.035	0.0144515
808.113	0.0145064
808.192	0.0144959
808.270	0.0146021
808.348	0.0146815
808.426	0.0146334
808.504	0.0146521
808.582	0.0145373
808.660	0.0144636
808.738	0.0146218
808.817	0.0145760
808.895	0.0146368
808.973	0.0145509
809.051	0.0145435
809.129	0.0146492
809.207	0.0149165
809.285	0.0146837
809.363	0.0144959
809.442	0.0146959
809.520	0.0146925
809.598	0.0145754
809.676	0.0144849
809.754	0.0145956
809.832	0.0147327
809.910	0.0146031
809.988	0.0145142
810.067	0.0145218
810.145	0.0146302
810.223	0.0143924
810.301	0.0144674
810.379	0.0144753
810.457	0.0146420
810.535	0.0145576
810.613	0.0145377
810.692	0.0145795
810.770	0.0145965
810.848	0.0145205
810.926	0.0145707
811.004	0.0147468
811.082	0.0147386
811.160	0.0145937
811.238	0.0147131
811.317	0.0145963
811.395	0.0146339
811.473	0.0146951
811.551	0.0146887
811.629	0.0146989
811.707	0.0147763
811.785	0.0146787
811.863	0.0147201
811.942	0.0146803
812.020	0.0148361
812.098	0.0147268
812.176	0.0146611
812.254	0.0147033
812.332	0.0146851
812.410	0.0147063
812.488	0.0147768
812.567	0.0147379
812.645	0.0147578
812.723	0.0147339
812.801	0.0146818
812.879	0.0146988
812.957	0.0146754
813.035	0.0146893
813.113	0.0145319
813.192	0.0145636
813.270	0.0146459
813.348	0.0145565
813.426	0.0145921
813.504	0.0146983
813.582	0.0146490
813.660	0.0146112
813.738	0.0146294
813.817	0.0145502
813.895	0.0144291
813.973	0.0146056
814.051	0.0145710
814.129	0.0147454
814.207	0.0146326
814.285	0.0146815
814.363	0.0145628
814.442	0.0146200
814.520	0.0146892
814.598	0.0146636
814.676	0.0147150
814.754	0.0147013
814.832	0.0146027
814.910	0.0147174
814.988	0.0147490
815.067	0.0147272
815.145	0.0146656
815.223	0.0145033
815.301	0.0145875
815.379	0.0145821
815.457	0.0145709
815.535	0.0145695
815.613	0.0145220
815.692	0.0146970
815.770	0.0145679
815.848	0.0146472
815.926	0.0146922
816.004	0.0146047
816.082	0.0147424
816.160	0.0146954
816.238	0.0146091
816.317	0.0146986
816.395	0.0148169
816.473	0.0147752
816.551	0.0147220
816.629	0.0146487
816.707	0.0146586
816.785	0.0146854
816.863	0.0148344
816.942	0.0147544
817.020	0.0146855
817.098	0.0147341
817.176	0.0146591
817.254	0.0146146
817.332	0.0148293
817.410	0.0147996
817.488	0.0148999
817.567	0.0147359
817.645	0.0147446
817.723	0.0148000
817.801	0.0148686
817.879	0.0146818
817.957	0.0147620
818.035	0.0147874
818.113	0.0147261
818.192	0.0146759
818.270	0.0146342
818.348	0.0146934
818.426	0.0145962
818.504	0.0147021
818.582	0.0146879
818.660	0.0146745
818.738	0.0147107
818.817	0.0145857
818.895	0.0147260
818.973	0.0146053
819.051	0.0145307
819.129	0.0147360
819.207	0.0146589
819.285	0.0145704
819.363	0.0145862
819.442	0.0146253
819.520	0.0145388
819.598	0.0146043
819.676	0.0145630
819.754	0.0146735
819.832	0.0145849
819.910	0.0146323
819.988	0.0146947
820.067	0.0147126
820.145	0.0147662
820.223	0.0147295
820.301	0.0146984
820.379	0.0147086
820.457	0.0146812
820.535	0.0146750
820.613	0.0146307
820.692	0.0147063
820.770	0.0147588
820.848	0.0147604
820.926	0.0147257
821.004	0.0147242
821.082	0.0148199
821.160	0.0147561
821.238	0.0146328
821.317	0.0146582
821.395	0.0146497
821.473	0.0145231
821.551	0.0146034
821.629	0.0145583
821.707	0.0145460
821.785	0.0146758
821.863	0.0146659
821.942	0.0145551
822.020	0.0146246
822.098	0.0146255
822.176	0.0146790
822.254	0.0147115
822.332	0.0147031
822.410	0.0146857
822.488	0.0146709
822.567	0.0146127
822.645	0.0148380
822.723	0.0146625
822.801	0.0146651
822.879	0.0148306
822.957	0.0148498
823.035	0.0147231
823.113	0.0147018
823.192	0.0146107
823.270	0.0147420
823.348	0.0146771
823.426	0.0147788
823.504	0.0147440
823.582	0.0148495
823.660	0.0148187
823.738	0.0147114
823.817	0.0147942
823.895	0.0148604
823.973	0.0146987
824.051	0.0146906
824.129	0.0147875
824.207	0.0147126
824.285	0.0146906
824.363	0.0147595
824.442	0.0146700
824.520	0.0147096
824.598	0.0146774
824.676	0.0146419
824.754	0.0146401
824.832	0.0147036
824.910	0.0147514
824.988	0.0146926
825.067	0.0145930
825.145	0.0146540
825.223	0.0146958
825.301	0.0147568
825.379	0.0146426
825.457	0.0145416
825.535	0.0146861
825.613	0.0146329
825.692	0.0145868
825.770	0.0146912
825.848	0.0146919
825.926	0.0146365
826.004	0.0146016
826.082	0.0146614
826.160	0.0146067
826.238	0.0145691
826.317	0.0146651
826.395	0.0146383
826.473	0.0146741
826.551	0.0146555
826.629	0.0146475
826.707	0.0145660
826.785	0.0147765
826.863	0.0146281
826.942	0.0145319
827.020	0.0145888
827.098	0.0147191
827.176	0.0146630
827.254	0.0145302
827.332	0.0145200
827.410	0.0146121
827.488	0.0146803
827.567	0.0147009
827.645	0.0146035
827.723	0.0146858
827.801	0.0145631
827.879	0.0147117
827.957	0.0147758
828.035	0.0147124
828.113	0.0147169
828.192	0.0147186
828.270	0.0146704
828.348	0.0146625
828.426	0.0146707
828.504	0.0147968
828.582	0.0148304
828.660	0.0147014
828.738	0.0145745
828.817	0.0146526
828.895	0.0146684
828.973	0.0146043
829.051	0.0147058
829.129	0.0146444
829.207	0.0145231
829.285	0.0145966
829.363	0.0146304
829.442	0.0146749
829.520	0.0145339
829.598	0.0145697
829.676	0.0144022
829.754	0.0145642
829.832	0.0145825
829.910	0.0146300
829.988	0.0147585
830.067	0.0145882
830.145	0.0144778
830.223	0.0146028
830.301	0.0145827
830.379	0.0146069
830.457	0.0145584
830.535	0.0145761
830.613	0.0146187
830.692	0.0146240
830.770	0.0145096
830.848	0.0145631
830.926	0.0147387
831.004	0.0146038
831.082	0.0145319
831.160	0.0145362
831.238	0.0148109
831.317	0.0145983
831.395	0.0146796
831.473	0.0147051
831.551	0.0144759
831.629	0.0145678
831.707	0.0146067
831.785	0.0147150
831.863	0.0146265
831.942	0.0145612
832.020	0.0145658
832.098	0.0146624
832.176	0.0147713
832.254	0.0146565
832.332	0.0146053
832.410	0.0146090
832.488	0.0145904
832.567	0.0146201
832.645	0.0146574
832.723	0.0146555
832.801	0.0145985
832.879	0.0146431
832.957	0.0146676
833.035	0.0145256
833.113	0.0145390
833.192	0.0144446
833.270	0.0146182
833.348	0.0145191
833.426	0.0146930
833.504	0.0147189
833.582	0.0146006
833.660	0.0146169
833.738	0.0145702
833.817	0.0145720
833.895	0.0146714
833.973	0.0147077
834.051	0.0146657
834.129	0.0147601
834.207	0.0146418
834.285	0.0145868
834.363	0.0145985
834.442	0.0145898
834.520	0.0146380
834.598	0.0145470
834.676	0.0145815
834.754	0.0144627
834.832	0.0144244
834.910	0.0145296
834.988	0.0144773
835.067	0.0144332
835.145	0.0143570
835.223	0.0144213
835.301	0.0144453
835.379	0.0145886
835.457	0.0144243
835.535	0.0144788
835.613	0.0144275
835.692	0.0143887
835.770	0.0144390
835.848	0.0144267
835.926	0.0144988
836.004	0.0144106
836.082	0.0145592
836.160	0.0144308
836.238	0.0144834
836.317	0.0146114
836.395	0.0145031
836.473	0.0145000
836.551	0.0144312
836.629	0.0146303
836.707	0.0147816
836.785	0.0146873
836.863	0.0146539
836.942	0.0146348
837.020	0.0145692
837.098	0.0146028
837.176	0.0145831
837.254	0.0146125
837.332	0.0145822
837.410	0.0145776
837.488	0.0145155
837.567	0.0145685
837.645	0.0146452
837.723	0.0145976
837.801	0.0146094
837.879	0.0146616
837.957	0.0146405
838.035	0.0145825
838.113	0.0146661
838.192	0.0145254
838.270	0.0144781
838.348	0.0145740
838.426	0.0145692
838.504	0.0146465
838.582	0.0147887
838.660	0.0146873
838.738	0.0146206
838.817	0.0144995
838.895	0.0144933
838.973	0.0145853
839.051	0.0147829
839.129	0.0146100
839.207	0.0146139
839.285	0.0146176
839.363	0.0146678
839.442	0.0147071
839.520	0.0146910
839.598	0.0145957
839.676	0.0146195
839.754	0.0146674
839.832	0.0146411
839.910	0.0146462
839.988	0.0146065
840.067	0.0146647
840.145	0.0146384
840.223	0.0146399
840.301	0.0146651
840.379	0.0146463
840.457	0.0145234
840.535	0.0146362
840.613	0.0146474
840.692	0.0145165
840.770	0.0146410
840.848	0.0147111
840.926	0.0147292
841.004	0.0146065
841.082	0.0145966
841.160	0.0146019
841.238	0.0146904
841.317	0.0145768
841.395	0.0145639
841.473	0.0146330
841.551	0.0147163
841.629	0.0146691
841.707	0.0148678
841.785	0.0147456
841.863	0.0146416
841.942	0.0145567
842.020	0.0146474
842.098	0.0147107
842.176	0.0147830
842.254	0.0146721
842.332	0.0147562
842.410	0.0147543
842.488	0.0147238
842.567	0.0148048
842.645	0.0146410
842.723	0.0146493
842.801	0.0145773
842.879	0.0146641
842.957	0.0146867
843.035	0.0146320
843.113	0.0147471
843.192	0.0146710
843.270	0.0146603
843.348	0.0146194
843.426	0.0146543
843.504	0.0146481
843.582	0.0147228
843.660	0.0147997
843.738	0.0146799
843.817	0.0146144
843.895	0.0146641
843.973	0.0146091
844.051	0.0145910
844.129	0.0146364
844.207	0.0147038
844.285	0.0147329
844.363	0.0146769
844.442	0.0146527
844.520	0.0146474
844.598	0.0146102
844.676	0.0146688
844.754	0.0146950
844.832	0.0145067
844.910	0.0147180
844.988	0.0145991
845.067	0.0146603
845.145	0.0146101
845.223	0.0146046
845.301	0.0145281
845.379	0.0147562
845.457	0.0146237
845.535	0.0146980
845.613	0.0146843
845.692	0.0148064
845.770	0.0147321
845.848	0.0146860
845.926	0.0147014
846.004	0.0147248
846.082	0.0147402
846.160	0.0147443
846.238	0.0145403
846.317	0.0146498
846.395	0.0147569
846.473	0.0146282
846.551	0.0146507
846.629	0.0147556
846.707	0.0145796
846.785	0.0145709
846.863	0.0146736
846.942	0.0146606
847.020	0.0146494
847.098	0.0147275
847.176	0.0146056
847.254	0.0145607
847.332	0.0147108
847.410	0.0148593
847.488	0.0147021
847.567	0.0146934
847.645	0.0144984
847.723	0.0146004
847.801	0.0146673
847.879	0.0146922
847.957	0.0147399
848.035	0.0147064
848.113	0.0146613
848.192	0.0147139
848.270	0.0147353
848.348	0.0148083
848.426	0.0148240
848.504	0.0145509
848.582	0.0146912
848.660	0.0146843
848.738	0.0147264
848.817	0.0146836
848.895	0.0146252
848.973	0.0145675
849.051	0.0146197
849.129	0.0147421
849.207	0.0146500
849.285	0.0145628
849.363	0.0147935
849.442	0.0147311
849.520	0.0143936
849.598	0.0147535
849.676	0.0146740
849.754	0.0147218
849.832	0.0148078
849.910	0.0147074
849.988	0.0147293
850.067	0.0146644
850.145	0.0148042
850.223	0.0146716
850.301	0.0147321
850.379	0.0147631
850.457	0.0147581
850.535	0.0146651
850.613	0.0146680
850.692	0.0148913
850.770	0.0148144
850.848	0.0146873
850.926	0.0147874
851.004	0.0147296
851.082	0.0147796
851.160	0.0147997
851.238	0.0147842
851.317	0.0146736
851.395	0.0146502
851.473	0.0148243
851.551	0.0148659
851.629	0.0147047
851.707	0.0146603
851.785	0.0147763
851.863	0.0147189
851.942	0.0146953
852.020	0.0147733
852.098	0.0146130
852.176	0.0146371
852.254	0.0147746
852.332	0.0145883
852.410	0.0146390
852.488	0.0146436
852.567	0.0147673
852.645	0.0147043
852.723	0.0146017
852.801	0.0146192
852.879	0.0147153
852.957	0.0147061
853.035	0.0146664
853.113	0.0146096
853.192	0.0145810
853.270	0.0146761
853.348	0.0147031
853.426	0.0146484
853.504	0.0147577
853.582	0.0146550
853.660	0.0145660
853.738	0.0146210
853.817	0.0146587
853.895	0.0147612
853.973	0.0146852
854.051	0.0146597
854.129	0.0146719
854.207	0.0146765
854.285	0.0147014
854.363	0.0146915
854.442	0.0147581
854.520	0.0147122
854.598	0.0147732
854.676	0.0147749
854.754	0.0146910
854.832	0.0145761
854.910	0.0147421
854.988	0.0147208
855.067	0.0147687
855.145	0.0149602
855.223	0.0148451
855.301	0.0147131
855.379	0.0147871
855.457	0.0147524
855.535	0.0148656
855.613	0.0147176
855.692	0.0148216
855.770	0.0147401
855.848	0.0148466
855.926	0.0146291
856.004	0.0145908
856.082	0.0147129
856.160	0.0147390
856.238	0.0147549
856.317	0.0145375
856.395	0.0146469
856.473	0.0147538
856.551	0.0146886
856.629	0.0146738
856.707	0.0147856
856.785	0.0146678
856.863	0.0145359
856.942	0.0145770
857.020	0.0145669
857.098	0.0146220
857.176	0.0146484
857.254	0.0146518
857.332	0.0147746
857.410	0.0146644
857.488	0.0145292
857.567	0.0145458
857.645	0.0146839
857.723	0.0146413
857.801	0.0146311
857.879	0.0147061
857.957	0.0146905
858.035	0.0146574
858.113	0.0146817
858.192	0.0146353
858.270	0.0147111
858.348	0.0146815
858.426	0.0147596
858.504	0.0146779
858.582	0.0145974
858.660	0.0147474
858.738	0.0147250
858.817	0.0146414
858.895	0.0145773
858.973	0.0145044
859.051	0.0146578
859.129	0.0147089
859.207	0.0146936
859.285	0.0147077
859.363	0.0146078
859.442	0.0146744
859.520	0.0147200
859.598	0.0147346
859.676	0.0146236
859.754	0.0146324
859.832	0.0145377
859.910	0.0145603
859.988	0.0145334
860.067	0.0146037
860.145	0.0146016
860.223	0.0145883
860.301	0.0144984
860.379	0.0145349
860.457	0.0146053
860.535	0.0144923
860.613	0.0144904
860.692	0.0145959
860.770	0.0145496
860.848	0.0146262
860.926	0.0145468
861.004	0.0144953
861.082	0.0146696
861.160	0.0146766
861.238	0.0146045
861.317	0.0145887
861.395	0.0146928
861.473	0.0145577
861.551	0.0145955
861.629	0.0144531
861.707	0.0145477
861.785	0.0146043
861.863	0.0146172
861.942	0.0145826
862.020	0.0145699
862.098	0.0147321
862.176	0.0145020
862.254	0.0145939
862.332	0.0145193
862.410	0.0144843
862.488	0.0144176
862.567	0.0144555
862.645	0.0145914
862.723	0.0144655
862.801	0.0145496
862.879	0.0145451
862.957	0.0144031
863.035	0.0145616
863.113	0.0145075
863.192	0.0145313
863.270	0.0144799
863.348	0.0145642
863.426	0.0144753
863.504	0.0146236
863.582	0.0145985
863.660	0.0146004
863.738	0.0146436
863.817	0.0145327
863.895	0.0146545
863.973	0.0146776
864.051	0.0147456
864.129	0.0145730
864.207	0.0144710
864.285	0.0146948
864.363	0.0145343
864.442	0.0147139
864.520	0.0146148
864.598	0.0145503
864.676	0.0146056
864.754	0.0147273
864.832	0.0145647
864.910	0.0145264
864.988	0.0146458
865.067	0.0144740
865.145	0.0145244
865.223	0.0145189
865.301	0.0143680
865.379	0.0145558
865.457	0.0145270
865.535	0.0145113
865.613	0.0144762
865.692	0.0145171
865.770	0.0144489
865.848	0.0145486
865.926	0.0145435
866.004	0.0144744
866.082	0.0144466
866.160	0.0147281
866.238	0.0146210
866.317	0.0146126
866.395	0.0147749
866.473	0.0146705
866.551	0.0145448
866.629	0.0147510
866.707	0.0146765
866.785	0.0148174
866.863	0.0146423
866.942	0.0145927
867.020	0.0147684
867.098	0.0147171
867.176	0.0146600
867.254	0.0146632
867.332	0.0145776
867.410	0.0146172
867.488	0.0145853
867.567	0.0145702
867.645	0.0146661
867.723	0.0147140
867.801	0.0145013
867.879	0.0144248
867.957	0.0145759
868.035	0.0146032
868.113	0.0146886
868.192	0.0145720
868.270	0.0145403
868.348	0.0145824
868.426	0.0145940
868.504	0.0146883
868.582	0.0145040
868.660	0.0145020
868.738	0.0145374
868.817	0.0147440
868.895	0.0145722
868.973	0.0145705
869.051	0.0146821
869.129	0.0147808
869.207	0.0146696
869.285	0.0146064
869.363	0.0146310
869.442	0.0146684
869.520	0.0147064
869.598	0.0146412
869.676	0.0147103
869.754	0.0148471
869.832	0.0148129
869.910	0.0148407
869.988	0.0147974
870.067	0.0146358
870.145	0.0146941
870.223	0.0146700
870.301	0.0146779
870.379	0.0146384
870.457	0.0145686
870.535	0.0147318
870.613	0.0148525
870.692	0.0145595
870.770	0.0147740
870.848	0.0147239
870.926	0.0145167
871.004	0.0147484
871.082	0.0147218
871.160	0.0146285
871.238	0.0145208
871.317	0.0147350
871.395	0.0147662
871.473	0.0145915
871.551	0.0147578
871.629	0.0148289
871.707	0.0145857
871.785	0.0146948
871.863	0.0148402
871.942	0.0147511
872.020	0.0146786
872.098	0.0146199
872.176	0.0147771
872.254	0.0147289
872.332	0.0146922
872.410	0.0146455
872.488	0.0147806
872.567	0.0146864
872.645	0.0146423
872.723	0.0146940
872.801	0.0146899
872.879	0.0147594
872.957	0.0146671
873.035	0.0146468
873.113	0.0145952
873.192	0.0146877
873.270	0.0147442
873.348	0.0146519
873.426	0.0147204
873.504	0.0147463
873.582	0.0146648
873.660	0.0148114
873.738	0.0147219
873.817	0.0148214
873.895	0.0147655
873.973	0.0148769
874.051	0.0148470
874.129	0.0147294
874.207	0.0149380
874.285	0.0148869
874.363	0.0147001
874.442	0.0146976
874.520	0.0148291
874.598	0.0149347
874.676	0.0148254
874.754	0.0148188
874.832	0.0148779
874.910	0.0147466
874.988	0.0146004
875.067	0.0147910
875.145	0.0148345
875.223	0.0148589
875.301	0.0148048
875.379	0.0147859
875.457	0.0147345
875.535	0.0148340
875.613	0.0147973
875.692	0.0146889
875.770	0.0146346
875.848	0.0148310
875.926	0.0148096
876.004	0.0147453
876.082	0.0147752
876.160	0.0147142
876.238	0.0147851
876.317	0.0147469
876.395	0.0145589
876.473	0.0147652
876.551	0.0146121
876.629	0.0146043
876.707	0.0147810
876.785	0.0145337
876.863	0.0147399
876.942	0.0145837
877.020	0.0145658
877.098	0.0146110
877.176	0.0145495
877.254	0.0144714
877.332	0.0146283
877.410	0.0147625
877.488	0.0146767
877.567	0.0146261
877.645	0.0146773
877.723	0.0145724
877.801	0.0146152
877.879	0.0146306
877.957	0.0145790
878.035	0.0146054
878.113	0.0147221
878.192	0.0146473
878.270	0.0147558
878.348	0.0145978
878.426	0.0146631
878.504	0.0146808
878.582	0.0147384
878.660	0.0145248
878.738	0.0146960
878.817	0.0147511
878.895	0.0146804
878.973	0.0146537
879.051	0.0147165
879.129	0.0146903
879.207	0.0145644
879.285	0.0146281
879.363	0.0146761
879.442	0.0146234
879.520	0.0145379
879.598	0.0146031
879.676	0.0145966
879.754	0.0145587
879.832	0.0146088
879.910	0.0148253
879.988	0.0144868
880.067	0.0145807
880.145	0.0146275
880.223	0.0144461
880.301	0.0144923
880.379	0.0145642
880.457	0.0144793
880.535	0.0145705
880.613	0.0146442
880.692	0.0146019
880.770	0.0145152
880.848	0.0145437
880.926	0.0147869
881.004	0.0146653
881.082	0.0146037
881.160	0.0145374
881.238	0.0146298
881.317	0.0147262
881.395	0.0144878
881.473	0.0146908
881.551	0.0146889
881.629	0.0145705
881.707	0.0146172
881.785	0.0145880
881.863	0.0146616
881.942	0.0147998
882.020	0.0146029
882.098	0.0146910
882.176	0.0148019
882.254	0.0147333
882.332	0.0143999
882.410	0.0146900
882.488	0.0146991
882.567	0.0145344
882.645	0.0145655
882.723	0.0146042
882.801	0.0146362
882.879	0.0145696
882.957	0.0145799
883.035	0.0146272
883.113	0.0146011
883.192	0.0146471
883.270	0.0146145
883.348	0.0145621
883.426	0.0146449
883.504	0.0145423
883.582	0.0146737
883.660	0.0146400
883.738	0.0145257
883.817	0.0144801
883.895	0.0144659
883.973	0.0145518
884.051	0.0146806
884.129	0.0145244
884.207	0.0145499
884.285	0.0143955
884.363	0.0145014
884.442	0.0144307
884.520	0.0145286
884.598	0.0145248
884.676	0.0144986
884.754	0.0144838
884.832	0.0145856
884.910	0.0145605
884.988	0.0145469
885.067	0.0145428
885.145	0.0144727
885.223	0.0145665
885.301	0.0145672
885.379	0.0145250
885.457	0.0145914
885.535	0.0145297
885.613	0.0144603
885.692	0.0144537
885.770	0.0145641
885.848	0.0144684
885.926	0.0146346
886.004	0.0145701
886.082	0.0145454
886.160	0.0145569
886.238	0.0145993
886.317	0.0146429
886.395	0.0145663
886.473	0.0146320
886.551	0.0145690
886.629	0.0146452
886.707	0.0147591
886.785	0.0146734
886.863	0.0146616
886.942	0.0145870
887.020	0.0147377
887.098	0.0146942
887.176	0.0146083
887.254	0.0147608
887.332	0.0147509
887.410	0.0147073
887.488	0.0146087
887.567	0.0147086
887.645	0.0144676
887.723	0.0145689
887.801	0.0145892
887.879	0.0145004
887.957	0.0145753
888.035	0.0146149
888.113	0.0146168
888.192	0.0146733
888.270	0.0146716
888.348	0.0145692
888.426	0.0146062
888.504	0.0146169
888.582	0.0145445
888.660	0.0145394
888.738	0.0145953
888.817	0.0146480
888.895	0.0146799
888.973	0.0144893
889.051	0.0146857
889.129	0.0147472
889.207	0.0145860
889.285	0.0144697
889.363	0.0145795
889.442	0.0146449
889.520	0.0146083
889.598	0.0145002
889.676	0.0144567
889.754	0.0144821
889.832	0.0144843
889.910	0.0146176
889.988	0.0146454
890.067	0.0147362
890.145	0.0148211
890.223	0.0146400
890.301	0.0146967
890.379	0.0147285
890.457	0.0147684
890.535	0.0146910
890.613	0.0147009
890.692	0.0146548
890.770	0.0147079
890.848	0.0147637
890.926	0.0146577
891.004	0.0147029
891.082	0.0147057
891.160	0.0146544
891.238	0.0147122
891.317	0.0148167
891.395	0.0148987
891.473	0.0147812
891.551	0.0146014
891.629	0.0146320
891.707	0.0147634
891.785	0.0147768
891.863	0.0147043
891.942	0.0147952
892.020	0.0148349
892.098	0.0146639
892.176	0.0145691
892.254	0.0146889
892.332	0.0147141
892.410	0.0146444
892.488	0.0145676
892.567	0.0147331
892.645	0.0145451
892.723	0.0145913
892.801	0.0145656
892.879	0.0147005
892.957	0.0146629
893.035	0.0146072
893.113	0.0146754
893.192	0.0145788
893.270	0.0146953
893.348	0.0146993
893.426	0.0147239
893.504	0.0146992
893.582	0.0146581
893.660	0.0147072
893.738	0.0147299
893.817	0.0146388
893.895	0.0145545
893.973	0.0147804
894.051	0.0145625
894.129	0.0145476
894.207	0.0146421
894.285	0.0147952
894.363	0.0146030
894.442	0.0146264
894.520	0.0146516
894.598	0.0146734
894.676	0.0147494
894.754	0.0145684
894.832	0.0145959
894.910	0.0147413
894.988	0.0145676
895.067	0.0148339
895.145	0.0146285
895.223	0.0147113
895.301	0.0147747
895.379	0.0147292
895.457	0.0147464
895.535	0.0147141
895.613	0.0146537
895.692	0.0147613
895.770	0.0147097
895.848	0.0146264
895.926	0.0145020
896.004	0.0147614
896.082	0.0147401
896.160	0.0147415
896.238	0.0147859
896.317	0.0147384
896.395	0.0147976
896.473	0.0146744
896.551	0.0145964
896.629	0.0146677
896.707	0.0146786
896.785	0.0147558
896.863	0.0145708
896.942	0.0146504
897.020	0.0146743
897.098	0.0146069
897.176	0.0146598
897.254	0.0147923
897.332	0.0146024
897.410	0.0145464
897.488	0.0146546
897.567	0.0145609
897.645	0.0146485
897.723	0.0146899
897.801	0.0145902
897.879	0.0146230
897.957	0.0145885
898.035	0.0146425
898.113	0.0146109
898.192	0.0146323
898.270	0.0145370
898.348	0.0145644
898.426	0.0147858
898.504	0.0146072
898.582	0.0145759
898.660	0.0146120
898.738	0.0146861
898.817	0.0145850
898.895	0.0147496
898.973	0.0145671
899.051	0.0147977
899.129	0.0147497
899.207	0.0146976
899.285	0.0147181
899.363	0.0147200
899.442	0.0146689
899.520	0.0146822
899.598	0.0148293
899.676	0.0147095
899.754	0.0145434
899.832	0.0146944
899.910	0.0146555
899.988	0.0146927
900.067	0.0147260
900.145	0.0147174
900.223	0.0147361
900.301	0.0147197
900.379	0.0145896
900.457	0.0146153
900.535	0.0146129
900.613	0.0147003
900.692	0.0147353
900.770	0.0146893
900.848	0.0146512
900.926	0.0146786
901.004	0.0146158
901.082	0.0146957
901.160	0.0147052
901.238	0.0145908
901.317	0.0146981
901.395	0.0146896
901.473	0.0145915
901.551	0.0146208
901.629	0.0145463
901.707	0.0146534
901.785	0.0146362
901.863	0.0147698
901.942	0.0147276
902.020	0.0144951
902.098	0.0145959
902.176	0.0145767
902.254	0.0146774
902.332	0.0146743
902.410	0.0145729
902.488	0.0145283
902.567	0.0147190
902.645	0.0146178
902.723	0.0145289
902.801	0.0147627
902.879	0.0146269
902.957	0.0144895
903.035	0.0147468
903.113	0.0146178
903.192	0.0146159
903.270	0.0146934
903.348	0.0146886
903.426	0.0146747
903.504	0.0146439
903.582	0.0145551
903.660	0.0145656
903.738	0.0147736
903.817	0.0146198
903.895	0.0145998
903.973	0.0147218
904.051	0.0146609
904.129	0.0145850
904.207	0.0146126
904.285	0.0146095
904.363	0.0146757
904.442	0.0145865
904.520	0.0147311
904.598	0.0144190
904.676	0.0146191
904.754	0.0145325
904.832	0.0147092
904.910	0.0146883
904.988	0.0146188
905.067	0.0145222
905.145	0.0145323
905.223	0.0147549
905.301	0.0145845
905.379	0.0146306
905.457	0.0146021
905.535	0.0147295
905.613	0.0145444
905.692	0.0145640
905.770	0.0146534
905.848	0.0146919
905.926	0.0146630
906.004	0.0145235
906.082	0.0146503
906.160	0.0146241
906.238	0.0146238
906.317	0.0147002
906.395	0.0146723
906.473	0.0145021
906.551	0.0145261
906.629	0.0145312
906.707	0.0147067
906.785	0.0146260
906.863	0.0145503
906.942	0.0145599
907.020	0.0145152
907.098	0.0146053
907.176	0.0145995
907.254	0.0145686
907.332	0.0147461
907.410	0.0145502
907.488	0.0146302
907.567	0.0145947
907.645	0.0145646
907.723	0.0145712
907.801	0.0146626
907.879	0.0145441
907.957	0.0145497
908.035	0.0147157
908.113	0.0146568
908.192	0.0148289
908.270	0.0145676
908.348	0.0147046
908.426	0.0147970
908.504	0.0146354
908.582	0.0146036
908.660	0.0146213
908.738	0.0148103
908.817	0.0147762
908.895	0.0145696
908.973	0.0146500
909.051	0.0147311
909.129	0.0146896
909.207	0.0148009
909.285	0.0147279
909.363	0.0146406
909.442	0.0146885
909.520	0.0146397
909.598	0.0146486
909.676	0.0147179
909.754	0.0145911
909.832	0.0145679
909.910	0.0146951
909.988	0.0145676
910.067	0.0146848
910.145	0.0146337
910.223	0.0145389
910.301	0.0147115
910.379	0.0147009
910.457	0.0145260
910.535	0.0147266
910.613	0.0147801
910.692	0.0145730
910.770	0.0145556
910.848	0.0147016
910.926	0.0147289
911.004	0.0146560
911.082	0.0147153
911.160	0.0146599
911.238	0.0147318
911.317	0.0146671
911.395	0.0146144
911.473	0.0145373
911.551	0.0147778
911.629	0.0147618
911.707	0.0147913
911.785	0.0146423
911.863	0.0146351
911.942	0.0146210
912.020	0.0146076
912.098	0.0146402
912.176	0.0144793
912.254	0.0146378
912.332	0.0146446
912.410	0.0146725
912.488	0.0146088
912.567	0.0144935
912.645	0.0146535
912.723	0.0147669
912.801	0.0146011
912.879	0.0147558
912.957	0.0148322
913.035	0.0146326
913.113	0.0146968
913.192	0.0148379
913.270	0.0146811
913.348	0.0146489
913.426	0.0147219
913.504	0.0147027
913.582	0.0146445
913.660	0.0147644
913.738	0.0147215
913.817	0.0146230
913.895	0.0147356
913.973	0.0146893
914.051	0.0147017
914.129	0.0148405
914.207	0.0146372
914.285	0.0146795
914.363	0.0146933
914.442	0.0144744
914.520	0.0146574
914.598	0.0147105
914.676	0.0146745
914.754	0.0147713
914.832	0.0147518
914.910	0.0146535
914.988	0.0147320
915.067	0.0146272
915.145	0.0146811
915.223	0.0145586
915.301	0.0146867
915.379	0.0145686
915.457	0.0145721
915.535	0.0147205
915.613	0.0145736
915.692	0.0146430
915.770	0.0147203
915.848	0.0145969
915.926	0.0146937
916.004	0.0146098
916.082	0.0145776
916.160	0.0146503
916.238	0.0147551
916.317	0.0147996
916.395	0.0144555
916.473	0.0146240
916.551	0.0147337
916.629	0.0146965
916.707	0.0146911
916.785	0.0148077
916.863	0.0147166
916.942	0.0146394
917.020	0.0147305
917.098	0.0147465
917.176	0.0147102
917.254	0.0147740
917.332	0.0147860
917.410	0.0146634
917.488	0.0146548
917.567	0.0146379
917.645	0.0147309
917.723	0.0147384
917.801	0.0147745
917.879	0.0146975
917.957	0.0145504
918.035	0.0147341
918.113	0.0146779
918.192	0.0147179
918.270	0.0145958
918.348	0.0147286
918.426	0.0147327
918.504	0.0146764
918.582	0.0147350
918.660	0.0146516
918.738	0.0146437
918.817	0.0147147
918.895	0.0147070
918.973	0.0146066
919.051	0.0147395
919.129	0.0145127
919.207	0.0146967
919.285	0.0146837
919.363	0.0147507
919.442	0.0146967
919.520	0.0146746
919.598	0.0146875
919.676	0.0145983
919.754	0.0146722
919.832	0.0146928
919.910	0.0146822
