05/28/2022	14:19:06	Ver.	4.1	UNKNOWN
Optical Delay	599.988409	Delta X		0.078125	Sweeps	1	Scan Rate	0/0
Coordinates	Axis 1	NaN	Axis 2	NaN	Axis 3	NaN	Axis 4	NaN	Axis 5	NaN	Axis 6	0.000000
TX Power	0.000000	RX Power	0.000000

599.988	0.0146133
600.067	0.0146416
600.145	0.0145800
600.223	0.0146165
600.301	0.0147240
600.379	0.0146506
600.457	0.0146856
600.535	0.0146404
600.613	0.0147469
600.692	0.0147861
600.770	0.0146001
600.848	0.0147646
600.926	0.0145557
601.004	0.0147577
601.082	0.0148329
601.160	0.0146768
601.238	0.0146655
601.317	0.0147498
601.395	0.0146726
601.473	0.0148392
601.551	0.0146746
601.629	0.0147171
601.707	0.0147322
601.785	0.0147669
601.863	0.0147729
601.942	0.0148557
602.020	0.0147289
602.098	0.0146811
602.176	0.0147362
602.254	0.0146513
602.332	0.0147099
602.410	0.0148144
602.488	0.0147876
602.567	0.0148508
602.645	0.0147494
602.723	0.0147704
602.801	0.0148134
602.879	0.0146738
602.957	0.0147452
603.035	0.0145934
603.113	0.0146342
603.192	0.0147173
603.270	0.0147415
603.348	0.0146796
603.426	0.0147047
603.504	0.0147243
603.582	0.0146796
603.660	0.0147779
603.738	0.0147311
603.817	0.0146133
603.895	0.0147154
603.973	0.0147900
604.051	0.0146587
604.129	0.0147384
604.207	0.0148389
604.285	0.0146703
604.363	0.0146291
604.442	0.0145790
604.520	0.0146246
604.598	0.0147084
604.676	0.0148383
604.754	0.0147183
604.832	0.0145486
604.910	0.0146880
604.988	0.0146676
605.067	0.0146507
605.145	0.0147518
605.223	0.0146190
605.301	0.0147124
605.379	0.0146030
605.457	0.0146262
605.535	0.0147393
605.613	0.0147121
605.692	0.0146349
605.770	0.0145593
605.848	0.0147215
605.926	0.0146963
606.004	0.0148561
606.082	0.0146911
606.160	0.0147202
606.238	0.0147121
606.317	0.0147226
606.395	0.0147161
606.473	0.0146545
606.551	0.0147616
606.629	0.0146936
606.707	0.0146435
606.785	0.0146227
606.863	0.0145957
606.942	0.0146099
607.020	0.0147959
607.098	0.0146957
607.176	0.0145992
607.254	0.0146339
607.332	0.0146120
607.410	0.0146978
607.488	0.0147420
607.567	0.0147468
607.645	0.0146432
607.723	0.0145966
607.801	0.0147282
607.879	0.0146301
607.957	0.0146992
608.035	0.0146487
608.113	0.0144824
608.192	0.0146355
608.270	0.0145409
608.348	0.0147385
608.426	0.0147285
608.504	0.0146526
608.582	0.0147034
608.660	0.0146614
608.738	0.0146820
608.817	0.0145229
608.895	0.0146481
608.973	0.0146943
609.051	0.0145442
609.129	0.0146808
609.207	0.0146026
609.285	0.0147446
609.363	0.0145447
609.442	0.0145615
609.520	0.0145741
609.598	0.0145920
609.676	0.0146588
609.754	0.0145837
609.832	0.0145218
609.910	0.0146645
609.988	0.0145951
610.067	0.0147572
610.145	0.0145689
610.223	0.0145493
610.301	0.0146008
610.379	0.0146404
610.457	0.0145760
610.535	0.0144878
610.613	0.0146409
610.692	0.0147043
610.770	0.0145583
610.848	0.0145126
610.926	0.0146516
611.004	0.0145369
611.082	0.0146639
611.160	0.0146314
611.238	0.0146561
611.317	0.0145680
611.395	0.0145174
611.473	0.0145934
611.551	0.0146004
611.629	0.0148122
611.707	0.0146992
611.785	0.0146218
611.863	0.0147188
611.942	0.0146960
612.020	0.0144781
612.098	0.0145036
612.176	0.0145829
612.254	0.0146207
612.332	0.0147201
612.410	0.0146423
612.488	0.0146362
612.567	0.0145678
612.645	0.0146986
612.723	0.0146487
612.801	0.0144821
612.879	0.0147067
612.957	0.0146844
613.035	0.0146645
613.113	0.0146059
613.192	0.0146410
613.270	0.0146616
613.348	0.0145601
613.426	0.0146124
613.504	0.0147224
613.582	0.0145616
613.660	0.0146130
613.738	0.0146286
613.817	0.0147048
613.895	0.0147220
613.973	0.0146453
614.051	0.0145467
614.129	0.0147604
614.207	0.0146629
614.285	0.0145528
614.363	0.0146461
614.442	0.0147065
614.520	0.0146352
614.598	0.0146945
614.676	0.0147561
614.754	0.0146748
614.832	0.0147674
614.910	0.0147786
614.988	0.0145806
615.067	0.0147043
615.145	0.0146921
615.223	0.0147002
615.301	0.0145619
615.379	0.0146984
615.457	0.0147677
615.535	0.0147578
615.613	0.0148446
615.692	0.0146330
615.770	0.0145878
615.848	0.0147021
615.926	0.0145779
616.004	0.0146318
616.082	0.0146627
616.160	0.0146241
616.238	0.0146130
616.317	0.0146359
616.395	0.0147715
616.473	0.0146200
616.551	0.0147025
616.629	0.0144999
616.707	0.0145856
616.785	0.0147046
616.863	0.0147606
616.942	0.0146383
617.020	0.0146424
617.098	0.0147027
617.176	0.0146307
617.254	0.0148245
617.332	0.0145714
617.410	0.0146122
617.488	0.0146596
617.567	0.0146567
617.645	0.0147862
617.723	0.0147091
617.801	0.0147311
617.879	0.0147350
617.957	0.0147480
618.035	0.0148287
618.113	0.0146960
618.192	0.0146915
618.270	0.0146429
618.348	0.0147459
618.426	0.0148486
618.504	0.0147626
618.582	0.0147892
618.660	0.0149048
618.738	0.0147889
618.817	0.0147318
618.895	0.0146520
618.973	0.0145947
619.051	0.0148352
619.129	0.0147789
619.207	0.0146324
619.285	0.0146348
619.363	0.0146788
619.442	0.0146422
619.520	0.0148351
619.598	0.0148049
619.676	0.0147360
619.754	0.0146239
619.832	0.0147329
619.910	0.0146711
619.988	0.0147583
620.067	0.0148699
620.145	0.0148224
620.223	0.0148582
620.301	0.0147260
620.379	0.0146873
620.457	0.0145770
620.535	0.0146504
620.613	0.0147449
620.692	0.0148235
620.770	0.0146405
620.848	0.0147647
620.926	0.0147822
621.004	0.0149097
621.082	0.0148325
621.160	0.0147797
621.238	0.0148020
621.317	0.0147980
621.395	0.0147681
621.473	0.0146580
621.551	0.0147629
621.629	0.0148889
621.707	0.0148956
621.785	0.0149085
621.863	0.0148314
621.942	0.0147892
622.020	0.0147885
622.098	0.0147080
622.176	0.0146815
622.254	0.0147791
622.332	0.0147640
622.410	0.0146706
622.488	0.0147336
622.567	0.0147370
622.645	0.0146266
622.723	0.0147113
622.801	0.0147422
622.879	0.0147516
622.957	0.0147372
623.035	0.0147321
623.113	0.0148029
623.192	0.0147732
623.270	0.0146653
623.348	0.0146244
623.426	0.0147455
623.504	0.0147383
623.582	0.0146669
623.660	0.0146811
623.738	0.0145306
623.817	0.0146487
623.895	0.0147406
623.973	0.0147063
624.051	0.0146824
624.129	0.0146487
624.207	0.0146464
624.285	0.0145364
624.363	0.0146145
624.442	0.0146392
624.520	0.0146275
624.598	0.0146131
624.676	0.0147070
624.754	0.0147493
624.832	0.0146617
624.910	0.0146448
624.988	0.0145970
625.067	0.0145696
625.145	0.0146494
625.223	0.0145811
625.301	0.0147110
625.379	0.0147245
625.457	0.0146758
625.535	0.0147693
625.613	0.0146678
625.692	0.0147704
625.770	0.0147250
625.848	0.0146660
625.926	0.0147214
626.004	0.0146175
626.082	0.0147056
626.160	0.0146327
626.238	0.0146085
626.317	0.0146868
626.395	0.0147128
626.473	0.0146967
626.551	0.0145977
626.629	0.0146718
626.707	0.0145237
626.785	0.0147035
626.863	0.0147513
626.942	0.0147592
627.020	0.0146989
627.098	0.0147091
627.176	0.0146014
627.254	0.0147095
627.332	0.0146292
627.410	0.0147110
627.488	0.0147388
627.567	0.0146503
627.645	0.0145852
627.723	0.0146553
627.801	0.0145060
627.879	0.0146027
627.957	0.0146958
628.035	0.0145753
628.113	0.0144586
628.192	0.0147202
628.270	0.0146233
628.348	0.0146497
628.426	0.0147012
628.504	0.0146805
628.582	0.0147279
628.660	0.0145739
628.738	0.0145971
628.817	0.0146444
628.895	0.0147483
628.973	0.0146101
629.051	0.0146144
629.129	0.0146477
629.207	0.0146213
629.285	0.0146249
629.363	0.0146262
629.442	0.0145714
629.520	0.0145447
629.598	0.0146545
629.676	0.0146200
629.754	0.0146504
629.832	0.0145901
629.910	0.0146287
629.988	0.0146609
630.067	0.0144241
630.145	0.0145295
630.223	0.0144893
630.301	0.0147113
630.379	0.0146053
630.457	0.0145378
630.535	0.0145744
630.613	0.0145671
630.692	0.0146299
630.770	0.0146466
630.848	0.0144998
630.926	0.0146826
631.004	0.0147134
631.082	0.0145454
631.160	0.0145998
631.238	0.0145964
631.317	0.0146250
631.395	0.0145264
631.473	0.0147366
631.551	0.0145737
631.629	0.0146359
631.707	0.0145951
631.785	0.0146536
631.863	0.0145808
631.942	0.0146407
632.020	0.0145993
632.098	0.0146426
632.176	0.0146552
632.254	0.0147225
632.332	0.0146035
632.410	0.0146219
632.488	0.0145737
632.567	0.0146267
632.645	0.0146548
632.723	0.0147278
632.801	0.0144962
632.879	0.0146692
632.957	0.0146468
633.035	0.0144480
633.113	0.0144568
633.192	0.0145622
633.270	0.0145772
633.348	0.0145947
633.426	0.0145792
633.504	0.0146854
633.582	0.0146698
633.660	0.0145685
633.738	0.0145778
633.817	0.0145447
633.895	0.0146220
633.973	0.0146487
634.051	0.0146407
634.129	0.0145201
634.207	0.0146143
634.285	0.0145898
634.363	0.0145690
634.442	0.0146762
634.520	0.0145680
634.598	0.0147120
634.676	0.0146426
634.754	0.0146387
634.832	0.0145410
634.910	0.0146958
634.988	0.0147473
635.067	0.0145063
635.145	0.0146757
635.223	0.0146012
635.301	0.0145857
635.379	0.0147510
635.457	0.0146862
635.535	0.0146843
635.613	0.0145513
635.692	0.0144603
635.770	0.0145102
635.848	0.0144599
635.926	0.0145217
636.004	0.0146072
636.082	0.0146088
636.160	0.0145749
636.238	0.0144530
636.317	0.0144930
636.395	0.0146459
636.473	0.0145541
636.551	0.0146142
636.629	0.0146340
636.707	0.0146255
636.785	0.0147023
636.863	0.0146908
636.942	0.0147649
637.020	0.0147258
637.098	0.0147809
637.176	0.0148011
637.254	0.0147909
637.332	0.0147983
637.410	0.0146932
637.488	0.0147759
637.567	0.0148325
637.645	0.0147065
637.723	0.0148106
637.801	0.0148360
637.879	0.0146976
637.957	0.0148043
638.035	0.0146975
638.113	0.0146807
638.192	0.0147001
638.270	0.0147330
638.348	0.0148150
638.426	0.0146875
638.504	0.0147226
638.582	0.0146505
638.660	0.0148824
638.738	0.0148140
638.817	0.0147055
638.895	0.0147131
638.973	0.0145626
639.051	0.0147967
639.129	0.0147768
639.207	0.0147651
639.285	0.0147638
639.363	0.0147613
639.442	0.0146553
639.520	0.0146952
639.598	0.0148624
639.676	0.0147119
639.754	0.0145656
639.832	0.0145331
639.910	0.0145766
639.988	0.0144872
640.067	0.0145671
640.145	0.0144196
640.223	0.0144839
640.301	0.0145029
640.379	0.0143790
640.457	0.0145068
640.535	0.0144080
640.613	0.0144078
640.692	0.0143253
640.770	0.0144556
640.848	0.0145983
640.926	0.0146481
641.004	0.0146525
641.082	0.0146413
641.160	0.0146086
641.238	0.0147158
641.317	0.0146779
641.395	0.0146552
641.473	0.0146807
641.551	0.0147527
641.629	0.0147948
641.707	0.0147961
641.785	0.0148828
641.863	0.0148936
641.942	0.0147230
642.020	0.0149287
642.098	0.0148460
642.176	0.0150301
642.254	0.0148798
642.332	0.0149530
642.410	0.0150614
642.488	0.0150364
642.567	0.0149823
642.645	0.0149333
642.723	0.0150134
642.801	0.0149150
642.879	0.0147966
642.957	0.0148288
643.035	0.0147646
643.113	0.0148302
643.192	0.0148310
643.270	0.0147963
643.348	0.0146394
643.426	0.0147407
643.504	0.0146103
643.582	0.0145062
643.660	0.0146202
643.738	0.0146336
643.817	0.0147385
643.895	0.0145743
643.973	0.0145913
644.051	0.0144930
644.129	0.0144798
644.207	0.0142871
644.285	0.0143637
644.363	0.0143165
644.442	0.0143370
644.520	0.0141820
644.598	0.0142744
644.676	0.0142355
644.754	0.0141299
644.832	0.0142062
644.910	0.0141774
644.988	0.0143430
645.067	0.0143757
645.145	0.0144623
645.223	0.0144314
645.301	0.0144487
645.379	0.0146281
645.457	0.0145918
645.535	0.0146390
645.613	0.0147188
645.692	0.0147583
645.770	0.0149310
645.848	0.0148801
645.926	0.0147669
646.004	0.0149451
646.082	0.0148730
646.160	0.0148820
646.238	0.0148683
646.317	0.0147716
646.395	0.0148273
646.473	0.0148405
646.551	0.0148250
646.629	0.0149017
646.707	0.0147713
646.785	0.0149541
646.863	0.0148727
646.942	0.0147482
647.020	0.0148059
647.098	0.0149007
647.176	0.0147853
647.254	0.0147725
647.332	0.0147980
647.410	0.0148403
647.488	0.0148148
647.567	0.0147537
647.645	0.0148578
647.723	0.0147956
647.801	0.0147411
647.879	0.0147775
647.957	0.0146471
648.035	0.0146838
648.113	0.0146085
648.192	0.0145299
648.270	0.0144244
648.348	0.0143359
648.426	0.0144248
648.504	0.0144984
648.582	0.0143703
648.660	0.0144540
648.738	0.0144069
648.817	0.0144415
648.895	0.0143829
648.973	0.0145152
649.051	0.0144255
649.129	0.0144654
649.207	0.0144811
649.285	0.0143717
649.363	0.0144537
649.442	0.0146141
649.520	0.0146642
649.598	0.0144199
649.676	0.0144885
649.754	0.0145676
649.832	0.0146132
649.910	0.0144527
649.988	0.0144834
650.067	0.0144662
650.145	0.0142530
650.223	0.0143233
650.301	0.0143766
650.379	0.0145118
650.457	0.0144061
650.535	0.0145124
650.613	0.0143675
650.692	0.0145342
650.770	0.0146143
650.848	0.0146569
650.926	0.0147235
651.004	0.0147639
651.082	0.0147880
651.160	0.0147588
651.238	0.0149130
651.317	0.0147760
651.395	0.0149255
651.473	0.0149508
651.551	0.0148966
651.629	0.0148960
651.707	0.0150201
651.785	0.0150365
651.863	0.0149590
651.942	0.0150607
652.020	0.0149615
652.098	0.0149095
652.176	0.0150124
652.254	0.0150287
652.332	0.0151144
652.410	0.0150655
652.488	0.0150572
652.567	0.0148420
652.645	0.0150337
652.723	0.0149967
652.801	0.0149705
652.879	0.0150837
652.957	0.0151749
653.035	0.0148848
653.113	0.0150002
653.192	0.0147957
653.270	0.0146178
653.348	0.0144215
653.426	0.0146181
653.504	0.0145024
653.582	0.0143803
653.660	0.0142748
653.738	0.0143280
653.817	0.0143583
653.895	0.0143598
653.973	0.0141565
654.051	0.0141150
654.129	0.0142023
654.207	0.0140742
654.285	0.0141627
654.363	0.0142181
654.442	0.0141302
654.520	0.0142613
654.598	0.0142157
654.676	0.0143207
654.754	0.0143983
654.832	0.0142276
654.910	0.0143948
654.988	0.0144580
655.067	0.0144276
655.145	0.0145920
655.223	0.0143020
655.301	0.0144003
655.379	0.0144352
655.457	0.0145889
655.535	0.0146485
655.613	0.0145261
655.692	0.0146161
655.770	0.0148346
655.848	0.0147826
655.926	0.0148309
656.004	0.0147930
656.082	0.0147527
656.160	0.0148237
656.238	0.0147434
656.317	0.0147076
656.395	0.0148338
656.473	0.0147466
656.551	0.0148088
656.629	0.0147463
656.707	0.0147878
656.785	0.0149026
656.863	0.0147813
656.942	0.0148002
657.020	0.0151024
657.098	0.0149267
657.176	0.0151024
657.254	0.0151096
657.332	0.0152198
657.410	0.0152408
657.488	0.0152478
657.567	0.0151598
657.645	0.0153412
657.723	0.0151692
657.801	0.0152097
657.879	0.0152309
657.957	0.0150828
658.035	0.0150047
658.113	0.0149984
658.192	0.0149426
658.270	0.0147083
658.348	0.0147655
658.426	0.0146056
658.504	0.0142965
658.582	0.0143473
658.660	0.0142123
658.738	0.0141209
658.817	0.0141724
658.895	0.0140733
658.973	0.0141898
659.051	0.0139719
659.129	0.0139294
659.207	0.0140047
659.285	0.0139531
659.363	0.0141753
659.442	0.0140411
659.520	0.0141069
659.598	0.0143304
659.676	0.0143031
659.754	0.0142496
659.832	0.0143685
659.910	0.0146072
659.988	0.0145321
660.067	0.0147717
660.145	0.0149001
660.223	0.0147047
660.301	0.0149899
660.379	0.0149904
660.457	0.0148802
660.535	0.0150442
660.613	0.0149516
660.692	0.0148977
660.770	0.0149611
660.848	0.0149229
660.926	0.0149141
661.004	0.0149697
661.082	0.0148669
661.160	0.0149083
661.238	0.0150330
661.317	0.0147507
661.395	0.0145574
661.473	0.0148153
661.551	0.0148115
661.629	0.0146721
661.707	0.0146468
661.785	0.0147035
661.863	0.0145950
661.942	0.0146967
662.020	0.0146667
662.098	0.0146964
662.176	0.0145550
662.254	0.0145354
662.332	0.0145568
662.410	0.0146909
662.488	0.0147248
662.567	0.0146426
662.645	0.0146633
662.723	0.0148586
662.801	0.0147852
662.879	0.0148312
662.957	0.0148858
663.035	0.0149712
663.113	0.0148701
663.192	0.0149902
663.270	0.0149263
663.348	0.0149306
663.426	0.0150623
663.504	0.0150500
663.582	0.0150278
663.660	0.0149785
663.738	0.0149586
663.817	0.0148409
663.895	0.0148901
663.973	0.0147031
664.051	0.0148673
664.129	0.0148574
664.207	0.0145493
664.285	0.0145829
664.363	0.0145534
664.442	0.0145663
664.520	0.0144940
664.598	0.0145706
664.676	0.0144498
664.754	0.0143190
664.832	0.0142180
664.910	0.0142905
664.988	0.0142207
665.067	0.0143378
665.145	0.0141112
665.223	0.0140512
665.301	0.0141263
665.379	0.0141425
665.457	0.0139898
665.535	0.0140403
665.613	0.0142158
665.692	0.0141268
665.770	0.0140623
665.848	0.0142669
665.926	0.0142669
666.004	0.0143675
666.082	0.0143481
666.160	0.0144920
666.238	0.0145079
666.317	0.0147490
666.395	0.0147302
666.473	0.0148163
666.551	0.0148723
666.629	0.0150286
666.707	0.0152124
666.785	0.0149991
666.863	0.0151856
666.942	0.0152582
667.020	0.0154090
667.098	0.0152151
667.176	0.0151365
667.254	0.0150580
667.332	0.0149837
667.410	0.0149991
667.488	0.0150243
667.567	0.0148049
667.645	0.0147423
667.723	0.0147723
667.801	0.0147272
667.879	0.0145600
667.957	0.0145351
668.035	0.0144437
668.113	0.0145378
668.192	0.0145444
668.270	0.0145443
668.348	0.0145126
668.426	0.0145261
668.504	0.0145679
668.582	0.0143213
668.660	0.0144756
668.738	0.0142882
668.817	0.0142555
668.895	0.0144216
668.973	0.0143577
669.051	0.0142258
669.129	0.0141750
669.207	0.0141623
669.285	0.0142191
669.363	0.0141449
669.442	0.0141298
669.520	0.0142256
669.598	0.0142872
669.676	0.0142247
669.754	0.0142135
669.832	0.0142648
669.910	0.0143826
669.988	0.0144694
670.067	0.0145525
670.145	0.0145884
670.223	0.0146120
670.301	0.0145833
670.379	0.0147653
670.457	0.0146629
670.535	0.0149614
670.613	0.0149951
670.692	0.0149505
670.770	0.0149409
670.848	0.0151084
670.926	0.0152299
671.004	0.0151032
671.082	0.0150298
671.160	0.0149779
671.238	0.0151495
671.317	0.0151505
671.395	0.0150627
671.473	0.0151493
671.551	0.0150488
671.629	0.0149075
671.707	0.0146836
671.785	0.0146830
671.863	0.0145969
671.942	0.0144054
672.020	0.0142567
672.098	0.0142712
672.176	0.0142802
672.254	0.0140469
672.332	0.0139417
672.410	0.0138625
672.488	0.0138898
672.567	0.0138942
672.645	0.0139050
672.723	0.0139812
672.801	0.0140292
672.879	0.0141012
672.957	0.0142456
673.035	0.0143654
673.113	0.0145203
673.192	0.0146717
673.270	0.0146933
673.348	0.0148120
673.426	0.0147903
673.504	0.0149065
673.582	0.0150495
673.660	0.0151166
673.738	0.0150949
673.817	0.0150596
673.895	0.0150675
673.973	0.0149423
674.051	0.0150070
674.129	0.0148771
674.207	0.0149382
674.285	0.0149186
674.363	0.0147628
674.442	0.0148189
674.520	0.0148953
674.598	0.0147022
674.676	0.0147569
674.754	0.0148096
674.832	0.0146402
674.910	0.0145857
674.988	0.0146967
675.067	0.0146347
675.145	0.0145522
675.223	0.0145979
675.301	0.0144795
675.379	0.0145354
675.457	0.0144664
675.535	0.0144100
675.613	0.0145087
675.692	0.0144850
675.770	0.0144219
675.848	0.0144598
675.926	0.0144062
676.004	0.0144453
676.082	0.0143447
676.160	0.0144730
676.238	0.0145052
676.317	0.0144963
676.395	0.0145969
676.473	0.0146137
676.551	0.0145846
676.629	0.0146634
676.707	0.0148013
676.785	0.0145959
676.863	0.0147093
676.942	0.0147123
677.020	0.0147293
677.098	0.0148146
677.176	0.0148523
677.254	0.0148234
677.332	0.0148856
677.410	0.0148881
677.488	0.0149331
677.567	0.0148325
677.645	0.0148188
677.723	0.0148682
677.801	0.0149800
677.879	0.0150244
677.957	0.0150613
678.035	0.0150559
678.113	0.0149274
678.192	0.0150648
678.270	0.0149622
678.348	0.0149672
678.426	0.0148904
678.504	0.0150503
678.582	0.0148338
678.660	0.0147433
678.738	0.0145753
678.817	0.0145088
678.895	0.0143234
678.973	0.0143383
679.051	0.0142165
679.129	0.0140962
679.207	0.0140981
679.285	0.0140434
679.363	0.0138948
679.442	0.0139964
679.520	0.0139233
679.598	0.0140160
679.676	0.0140421
679.754	0.0143192
679.832	0.0143113
679.910	0.0143614
679.988	0.0145000
680.067	0.0146581
680.145	0.0145875
680.223	0.0149216
680.301	0.0150394
680.379	0.0149144
680.457	0.0150697
680.535	0.0151449
680.613	0.0150464
680.692	0.0151098
680.770	0.0151411
680.848	0.0151698
680.926	0.0152782
681.004	0.0153771
681.082	0.0153185
681.160	0.0152714
681.238	0.0152821
681.317	0.0153065
681.395	0.0154704
681.473	0.0154875
681.551	0.0153574
681.629	0.0154856
681.707	0.0155370
681.785	0.0154713
681.863	0.0153768
681.942	0.0154145
682.020	0.0152380
682.098	0.0151734
682.176	0.0152268
682.254	0.0150671
682.332	0.0150970
682.410	0.0149400
682.488	0.0150459
682.567	0.0149118
682.645	0.0145737
682.723	0.0144555
682.801	0.0143165
682.879	0.0141678
682.957	0.0140446
683.035	0.0139912
683.113	0.0138210
683.192	0.0136939
683.270	0.0136781
683.348	0.0134568
683.426	0.0134840
683.504	0.0135498
683.582	0.0136115
683.660	0.0136305
683.738	0.0137162
683.817	0.0137949
683.895	0.0139683
683.973	0.0140558
684.051	0.0140907
684.129	0.0142994
684.207	0.0144322
684.285	0.0145392
684.363	0.0148195
684.442	0.0149181
684.520	0.0149529
684.598	0.0150653
684.676	0.0152940
684.754	0.0154016
684.832	0.0153661
684.910	0.0155334
684.988	0.0156034
685.067	0.0155530
685.145	0.0155150
685.223	0.0157464
685.301	0.0158655
685.379	0.0159150
685.457	0.0159622
685.535	0.0159547
685.613	0.0158202
685.692	0.0157246
685.770	0.0156776
685.848	0.0156313
685.926	0.0154245
686.004	0.0152836
686.082	0.0150382
686.160	0.0148238
686.238	0.0146275
686.317	0.0143922
686.395	0.0142385
686.473	0.0141190
686.551	0.0137257
686.629	0.0136805
686.707	0.0136085
686.785	0.0134892
686.863	0.0134020
686.942	0.0133389
687.020	0.0134380
687.098	0.0133450
687.176	0.0133669
687.254	0.0134537
687.332	0.0136378
687.410	0.0137960
687.488	0.0137110
687.567	0.0139693
687.645	0.0141891
687.723	0.0141989
687.801	0.0142053
687.879	0.0143152
687.957	0.0144263
688.035	0.0146048
688.113	0.0146413
688.192	0.0146453
688.270	0.0147659
688.348	0.0147517
688.426	0.0147984
688.504	0.0149749
688.582	0.0149863
688.660	0.0148721
688.738	0.0148008
688.817	0.0150369
688.895	0.0149368
688.973	0.0149803
689.051	0.0150303
689.129	0.0151508
689.207	0.0151317
689.285	0.0150778
689.363	0.0151247
689.442	0.0150304
689.520	0.0150512
689.598	0.0150574
689.676	0.0150323
689.754	0.0150196
689.832	0.0148551
689.910	0.0148962
689.988	0.0147519
690.067	0.0147516
690.145	0.0146786
690.223	0.0147192
690.301	0.0146333
690.379	0.0144230
690.457	0.0143299
690.535	0.0143566
690.613	0.0143293
690.692	0.0142699
690.770	0.0143691
690.848	0.0142249
690.926	0.0142120
691.004	0.0141466
691.082	0.0140710
691.160	0.0140873
691.238	0.0143687
691.317	0.0143456
691.395	0.0143562
691.473	0.0144202
691.551	0.0145282
691.629	0.0146703
691.707	0.0145013
691.785	0.0144935
691.863	0.0144665
691.942	0.0145744
692.020	0.0145136
692.098	0.0145207
692.176	0.0145430
692.254	0.0145286
692.332	0.0144871
692.410	0.0141930
692.488	0.0141089
692.567	0.0141882
692.645	0.0142600
692.723	0.0141791
692.801	0.0142503
692.879	0.0142811
692.957	0.0141557
693.035	0.0142229
693.113	0.0143122
693.192	0.0143963
693.270	0.0144366
693.348	0.0143877
693.426	0.0145808
693.504	0.0146191
693.582	0.0147825
693.660	0.0148322
693.738	0.0150519
693.817	0.0151019
693.895	0.0150905
693.973	0.0150899
694.051	0.0149784
694.129	0.0151151
694.207	0.0150868
694.285	0.0151752
694.363	0.0152218
694.442	0.0151167
694.520	0.0150472
694.598	0.0148882
694.676	0.0149650
694.754	0.0150372
694.832	0.0150171
694.910	0.0149313
694.988	0.0149896
695.067	0.0149841
695.145	0.0148332
695.223	0.0147641
695.301	0.0150016
695.379	0.0149443
695.457	0.0150034
695.535	0.0150035
695.613	0.0151538
695.692	0.0150079
695.770	0.0150493
695.848	0.0149414
695.926	0.0147897
696.004	0.0146983
696.082	0.0147061
696.160	0.0147891
696.238	0.0146381
696.317	0.0145335
696.395	0.0142992
696.473	0.0142493
696.551	0.0140318
696.629	0.0138867
696.707	0.0138609
696.785	0.0137118
696.863	0.0135098
696.942	0.0136122
697.020	0.0134789
697.098	0.0136447
697.176	0.0136500
697.254	0.0136427
697.332	0.0137340
697.410	0.0136860
697.488	0.0136355
697.567	0.0138200
697.645	0.0140122
697.723	0.0141377
697.801	0.0142645
697.879	0.0142468
697.957	0.0143275
698.035	0.0145840
698.113	0.0146653
698.192	0.0146918
698.270	0.0148795
698.348	0.0149631
698.426	0.0150710
698.504	0.0153418
698.582	0.0154783
698.660	0.0154815
698.738	0.0155954
698.817	0.0158477
698.895	0.0157864
698.973	0.0158298
699.051	0.0158458
699.129	0.0158646
699.207	0.0158695
699.285	0.0159048
699.363	0.0157907
699.442	0.0157906
699.520	0.0158571
699.598	0.0156896
699.676	0.0156906
699.754	0.0155714
699.832	0.0153000
699.910	0.0152712
699.988	0.0152605
700.067	0.0151729
700.145	0.0148649
700.223	0.0148760
700.301	0.0145140
700.379	0.0144118
700.457	0.0143449
700.535	0.0142140
700.613	0.0142036
700.692	0.0139756
700.770	0.0138535
700.848	0.0138424
700.926	0.0138908
701.004	0.0136335
701.082	0.0135532
701.160	0.0135401
701.238	0.0136326
701.317	0.0136190
701.395	0.0136220
701.473	0.0136923
701.551	0.0136647
701.629	0.0137383
701.707	0.0137692
701.785	0.0137731
701.863	0.0138145
701.942	0.0139878
702.020	0.0139622
702.098	0.0140820
702.176	0.0141724
702.254	0.0144046
702.332	0.0144929
702.410	0.0145057
702.488	0.0146397
702.567	0.0148113
702.645	0.0150736
702.723	0.0151904
702.801	0.0152139
702.879	0.0151510
702.957	0.0153022
703.035	0.0154950
703.113	0.0154888
703.192	0.0156047
703.270	0.0154727
703.348	0.0156775
703.426	0.0156246
703.504	0.0155381
703.582	0.0157504
703.660	0.0156940
703.738	0.0155744
703.817	0.0155206
703.895	0.0155318
703.973	0.0153968
704.051	0.0152602
704.129	0.0151981
704.207	0.0152008
704.285	0.0150295
704.363	0.0150620
704.442	0.0149098
704.520	0.0147556
704.598	0.0147446
704.676	0.0146012
704.754	0.0145234
704.832	0.0144785
704.910	0.0141844
704.988	0.0143876
705.067	0.0143837
705.145	0.0141914
705.223	0.0141575
705.301	0.0140678
705.379	0.0140762
705.457	0.0140050
705.535	0.0141377
705.613	0.0142371
705.692	0.0141544
705.770	0.0141743
705.848	0.0144388
705.926	0.0144004
706.004	0.0145073
706.082	0.0144893
706.160	0.0144868
706.238	0.0146119
706.317	0.0147446
706.395	0.0148592
706.473	0.0147552
706.551	0.0148113
706.629	0.0148274
706.707	0.0148283
706.785	0.0148924
706.863	0.0147742
706.942	0.0147531
707.020	0.0147359
707.098	0.0148088
707.176	0.0148739
707.254	0.0147289
707.332	0.0148050
707.410	0.0146228
707.488	0.0146921
707.567	0.0147768
707.645	0.0147337
707.723	0.0145988
707.801	0.0148620
707.879	0.0147469
707.957	0.0147393
708.035	0.0146282
708.113	0.0146204
708.192	0.0147408
708.270	0.0149328
708.348	0.0148388
708.426	0.0147802
708.504	0.0146633
708.582	0.0147873
708.660	0.0148887
708.738	0.0147445
708.817	0.0147795
708.895	0.0146001
708.973	0.0147266
709.051	0.0144439
709.129	0.0145728
709.207	0.0146883
709.285	0.0146206
709.363	0.0143900
709.442	0.0145332
709.520	0.0145924
709.598	0.0146746
709.676	0.0145276
709.754	0.0146944
709.832	0.0146664
709.910	0.0147295
709.988	0.0146866
710.067	0.0147469
710.145	0.0147799
710.223	0.0147851
710.301	0.0148206
710.379	0.0148019
710.457	0.0147961
710.535	0.0148751
710.613	0.0147908
710.692	0.0148412
710.770	0.0148413
710.848	0.0148760
710.926	0.0148544
711.004	0.0148797
711.082	0.0147314
711.160	0.0147942
711.238	0.0147100
711.317	0.0145469
711.395	0.0147116
711.473	0.0145266
711.551	0.0144981
711.629	0.0144641
711.707	0.0144285
711.785	0.0143382
711.863	0.0143634
711.942	0.0144333
712.020	0.0143301
712.098	0.0142811
712.176	0.0140913
712.254	0.0141450
712.332	0.0142251
712.410	0.0143041
712.488	0.0141984
712.567	0.0143504
712.645	0.0143847
712.723	0.0142711
712.801	0.0144377
712.879	0.0144768
712.957	0.0145303
713.035	0.0145672
713.113	0.0146188
713.192	0.0145345
713.270	0.0146744
713.348	0.0146759
713.426	0.0145596
713.504	0.0147697
713.582	0.0147639
713.660	0.0147005
713.738	0.0146415
713.817	0.0145808
713.895	0.0147423
713.973	0.0147348
714.051	0.0147596
714.129	0.0145667
714.207	0.0148274
714.285	0.0147458
714.363	0.0147312
714.442	0.0149019
714.520	0.0149374
714.598	0.0150848
714.676	0.0150398
714.754	0.0149990
714.832	0.0150417
714.910	0.0150726
714.988	0.0150906
715.067	0.0148988
715.145	0.0148421
715.223	0.0149560
715.301	0.0148008
715.379	0.0147413
715.457	0.0147699
715.535	0.0148053
715.613	0.0147050
715.692	0.0146420
715.770	0.0145286
715.848	0.0146045
715.926	0.0145607
716.004	0.0143585
716.082	0.0145582
716.160	0.0143135
716.238	0.0142809
716.317	0.0143358
716.395	0.0143091
716.473	0.0143745
716.551	0.0143050
716.629	0.0143207
716.707	0.0145204
716.785	0.0143922
716.863	0.0143739
716.942	0.0143572
717.020	0.0144618
717.098	0.0143970
717.176	0.0143774
717.254	0.0145327
717.332	0.0145815
717.410	0.0145134
717.488	0.0145904
717.567	0.0145914
717.645	0.0146030
717.723	0.0147694
717.801	0.0147324
717.879	0.0147108
717.957	0.0148560
718.035	0.0146329
718.113	0.0147373
718.192	0.0146755
718.270	0.0145660
718.348	0.0146714
718.426	0.0146764
718.504	0.0147763
718.582	0.0146642
718.660	0.0147117
718.738	0.0145578
718.817	0.0148090
718.895	0.0147504
718.973	0.0147233
719.051	0.0146815
719.129	0.0147734
719.207	0.0146786
719.285	0.0146621
719.363	0.0147442
719.442	0.0146661
719.520	0.0145640
719.598	0.0147204
719.676	0.0146614
719.754	0.0146484
719.832	0.0147473
719.910	0.0146701
719.988	0.0148565
720.067	0.0147861
720.145	0.0148923
720.223	0.0149079
720.301	0.0147920
720.379	0.0148024
720.457	0.0146741
720.535	0.0148278
720.613	0.0149238
720.692	0.0149798
720.770	0.0149619
720.848	0.0149897
720.926	0.0149118
721.004	0.0147710
721.082	0.0147498
721.160	0.0148635
721.238	0.0147453
721.317	0.0146516
721.395	0.0147203
721.473	0.0146871
721.551	0.0146560
721.629	0.0146420
721.707	0.0144114
721.785	0.0145345
721.863	0.0145715
721.942	0.0144372
722.020	0.0143998
722.098	0.0144145
722.176	0.0145470
722.254	0.0144963
722.332	0.0145428
722.410	0.0144691
722.488	0.0145721
722.567	0.0146313
722.645	0.0145607
722.723	0.0145839
722.801	0.0148274
722.879	0.0146993
722.957	0.0145856
723.035	0.0147545
723.113	0.0147022
723.192	0.0146071
723.270	0.0147146
723.348	0.0146127
723.426	0.0145287
723.504	0.0146638
723.582	0.0146095
723.660	0.0145227
723.738	0.0144290
723.817	0.0144433
723.895	0.0145728
723.973	0.0146981
724.051	0.0145695
724.129	0.0145432
724.207	0.0147172
724.285	0.0147232
724.363	0.0145798
724.442	0.0147713
724.520	0.0146511
724.598	0.0149176
724.676	0.0149038
724.754	0.0149124
724.832	0.0149212
724.910	0.0149043
724.988	0.0148175
725.067	0.0146738
725.145	0.0147585
725.223	0.0147370
725.301	0.0149827
725.379	0.0148904
725.457	0.0147567
725.535	0.0148067
725.613	0.0148888
725.692	0.0147465
725.770	0.0147005
725.848	0.0147610
725.926	0.0146691
726.004	0.0146863
726.082	0.0146899
726.160	0.0149601
726.238	0.0148032
726.317	0.0147724
726.395	0.0148464
726.473	0.0147939
726.551	0.0147604
726.629	0.0148322
726.707	0.0149241
726.785	0.0147581
726.863	0.0147271
726.942	0.0147939
727.020	0.0147381
727.098	0.0146220
727.176	0.0146538
727.254	0.0146066
727.332	0.0143739
727.410	0.0145483
727.488	0.0147311
727.567	0.0145786
727.645	0.0146214
727.723	0.0145805
727.801	0.0146053
727.879	0.0145067
727.957	0.0144824
728.035	0.0144944
728.113	0.0146600
728.192	0.0146926
728.270	0.0145176
728.348	0.0146143
728.426	0.0146026
728.504	0.0146297
728.582	0.0147280
728.660	0.0146955
728.738	0.0147180
728.817	0.0146654
728.895	0.0147066
728.973	0.0146990
729.051	0.0146295
729.129	0.0145521
729.207	0.0146724
729.285	0.0146503
729.363	0.0146207
729.442	0.0145717
729.520	0.0145493
729.598	0.0148737
729.676	0.0147321
729.754	0.0148508
729.832	0.0148386
729.910	0.0148344
729.988	0.0146843
730.067	0.0148540
730.145	0.0149285
730.223	0.0149496
730.301	0.0148456
730.379	0.0149106
730.457	0.0147806
730.535	0.0148698
730.613	0.0148046
730.692	0.0149569
730.770	0.0147670
730.848	0.0148035
730.926	0.0148070
731.004	0.0146743
731.082	0.0146469
731.160	0.0147403
731.238	0.0146627
731.317	0.0145747
731.395	0.0146423
731.473	0.0146074
731.551	0.0145460
731.629	0.0145265
731.707	0.0145090
731.785	0.0144664
731.863	0.0145364
731.942	0.0143848
732.020	0.0145564
732.098	0.0145853
732.176	0.0143720
732.254	0.0146405
732.332	0.0146572
732.410	0.0147156
732.488	0.0147547
732.567	0.0145731
732.645	0.0145127
732.723	0.0146241
732.801	0.0147370
732.879	0.0147290
732.957	0.0146975
733.035	0.0147050
733.113	0.0145712
733.192	0.0146818
733.270	0.0145818
733.348	0.0146699
733.426	0.0145889
733.504	0.0145544
733.582	0.0147504
733.660	0.0145406
733.738	0.0146827
733.817	0.0146265
733.895	0.0146319
733.973	0.0145295
734.051	0.0147749
734.129	0.0145619
734.207	0.0146555
734.285	0.0146227
734.363	0.0146423
734.442	0.0146589
734.520	0.0145769
734.598	0.0146887
734.676	0.0146142
734.754	0.0147321
734.832	0.0146354
734.910	0.0146197
734.988	0.0146737
735.067	0.0146333
735.145	0.0145564
735.223	0.0147455
735.301	0.0146909
735.379	0.0143884
735.457	0.0147055
735.535	0.0146658
735.613	0.0147421
735.692	0.0146426
735.770	0.0146909
735.848	0.0145989
735.926	0.0145802
736.004	0.0146284
736.082	0.0146313
736.160	0.0146044
736.238	0.0147594
736.317	0.0146146
736.395	0.0144789
736.473	0.0144501
736.551	0.0145576
736.629	0.0144731
736.707	0.0144649
736.785	0.0143675
736.863	0.0144947
736.942	0.0145126
737.020	0.0143571
737.098	0.0143895
737.176	0.0143655
737.254	0.0145258
737.332	0.0143253
737.410	0.0144453
737.488	0.0145184
737.567	0.0145493
737.645	0.0145049
737.723	0.0145763
737.801	0.0146286
737.879	0.0146461
737.957	0.0145345
738.035	0.0147527
738.113	0.0146237
738.192	0.0145865
738.270	0.0147208
738.348	0.0145325
738.426	0.0145007
738.504	0.0147540
738.582	0.0145722
738.660	0.0145794
738.738	0.0145657
738.817	0.0145126
738.895	0.0145251
738.973	0.0145703
739.051	0.0144024
739.129	0.0145096
739.207	0.0145666
739.285	0.0146564
739.363	0.0146275
739.442	0.0146943
739.520	0.0146352
739.598	0.0146124
739.676	0.0148530
739.754	0.0148018
739.832	0.0146964
739.910	0.0147474
739.988	0.0148489
740.067	0.0148234
740.145	0.0147620
740.223	0.0147911
740.301	0.0146289
740.379	0.0147793
740.457	0.0146130
740.535	0.0147578
740.613	0.0147282
740.692	0.0145502
740.770	0.0145236
740.848	0.0146914
740.926	0.0146712
741.004	0.0146286
741.082	0.0144848
741.160	0.0144679
741.238	0.0146329
741.317	0.0145877
741.395	0.0145084
741.473	0.0144626
741.551	0.0146296
741.629	0.0145647
741.707	0.0146678
741.785	0.0146027
741.863	0.0147237
741.942	0.0145922
742.020	0.0146922
742.098	0.0146807
742.176	0.0145941
742.254	0.0146294
742.332	0.0147282
742.410	0.0147507
742.488	0.0147176
742.567	0.0147306
742.645	0.0147117
742.723	0.0146496
742.801	0.0146877
742.879	0.0147188
742.957	0.0146944
743.035	0.0146255
743.113	0.0146096
743.192	0.0148404
743.270	0.0147858
743.348	0.0146384
743.426	0.0147675
743.504	0.0147216
743.582	0.0147633
743.660	0.0147300
743.738	0.0148475
743.817	0.0147552
743.895	0.0148225
743.973	0.0147900
744.051	0.0147163
744.129	0.0147556
744.207	0.0147596
744.285	0.0146436
744.363	0.0146906
744.442	0.0148279
744.520	0.0147623
744.598	0.0147352
744.676	0.0146232
744.754	0.0146872
744.832	0.0147740
744.910	0.0147213
744.988	0.0147578
745.067	0.0147687
745.145	0.0146645
745.223	0.0147783
745.301	0.0148022
745.379	0.0148269
745.457	0.0147028
745.535	0.0148373
745.613	0.0147962
745.692	0.0147767
745.770	0.0147049
745.848	0.0148315
745.926	0.0147557
746.004	0.0146870
746.082	0.0147560
746.160	0.0147959
746.238	0.0146436
746.317	0.0145224
746.395	0.0146201
746.473	0.0145931
746.551	0.0145086
746.629	0.0144765
746.707	0.0144524
746.785	0.0145499
746.863	0.0146008
746.942	0.0144578
747.020	0.0145251
747.098	0.0146275
747.176	0.0146841
747.254	0.0146472
747.332	0.0145958
747.410	0.0147691
747.488	0.0147257
747.567	0.0148462
747.645	0.0148089
747.723	0.0149367
747.801	0.0149591
747.879	0.0148625
747.957	0.0149014
748.035	0.0149638
748.113	0.0147383
748.192	0.0148406
748.270	0.0148590
748.348	0.0148975
748.426	0.0146833
748.504	0.0147303
748.582	0.0148142
748.660	0.0147188
748.738	0.0148061
748.817	0.0148032
748.895	0.0146754
748.973	0.0147130
749.051	0.0147489
749.129	0.0149248
749.207	0.0146476
749.285	0.0145059
749.363	0.0146858
749.442	0.0146979
749.520	0.0146410
749.598	0.0147147
749.676	0.0145999
749.754	0.0147247
749.832	0.0146568
749.910	0.0147010
749.988	0.0147523
750.067	0.0146508
750.145	0.0147214
750.223	0.0147069
750.301	0.0148107
750.379	0.0146529
750.457	0.0147173
750.535	0.0146259
750.613	0.0146639
750.692	0.0147088
750.770	0.0148385
750.848	0.0147195
750.926	0.0148613
751.004	0.0147247
751.082	0.0147724
751.160	0.0148164
751.238	0.0147254
751.317	0.0148190
751.395	0.0147671
751.473	0.0147047
751.551	0.0146813
751.629	0.0146936
751.707	0.0147601
751.785	0.0147887
751.863	0.0146591
751.942	0.0146227
752.020	0.0146980
752.098	0.0146597
752.176	0.0146299
752.254	0.0145665
752.332	0.0146779
752.410	0.0145787
752.488	0.0146729
752.567	0.0145654
752.645	0.0146414
752.723	0.0146922
752.801	0.0147427
752.879	0.0146533
752.957	0.0146635
753.035	0.0146690
753.113	0.0146690
753.192	0.0147306
753.270	0.0146578
753.348	0.0146634
753.426	0.0145689
753.504	0.0146092
753.582	0.0145603
753.660	0.0145959
753.738	0.0147433
753.817	0.0146254
753.895	0.0144825
753.973	0.0146337
754.051	0.0144298
754.129	0.0146114
754.207	0.0147289
754.285	0.0146903
754.363	0.0145741
754.442	0.0146595
754.520	0.0146504
754.598	0.0145024
754.676	0.0146635
754.754	0.0145597
754.832	0.0147213
754.910	0.0146431
754.988	0.0147440
755.067	0.0147337
755.145	0.0146635
755.223	0.0147113
755.301	0.0145463
755.379	0.0145959
755.457	0.0145354
755.535	0.0146084
755.613	0.0146955
755.692	0.0145374
755.770	0.0146999
755.848	0.0146625
755.926	0.0146284
756.004	0.0145315
756.082	0.0143899
756.160	0.0146183
756.238	0.0146355
756.317	0.0145030
756.395	0.0145148
756.473	0.0146417
756.551	0.0147634
756.629	0.0145026
756.707	0.0145741
756.785	0.0145810
756.863	0.0145869
756.942	0.0145510
757.020	0.0146834
757.098	0.0145930
757.176	0.0145521
757.254	0.0145588
757.332	0.0145699
757.410	0.0146625
757.488	0.0145391
757.567	0.0146964
757.645	0.0146107
757.723	0.0146535
757.801	0.0144197
757.879	0.0145325
757.957	0.0145068
758.035	0.0145595
758.113	0.0145623
758.192	0.0145435
758.270	0.0146244
758.348	0.0144824
758.426	0.0145853
758.504	0.0146180
758.582	0.0147050
758.660	0.0147540
758.738	0.0146185
758.817	0.0145992
758.895	0.0146079
758.973	0.0148549
759.051	0.0147569
759.129	0.0146642
759.207	0.0147240
759.285	0.0146687
759.363	0.0147706
759.442	0.0147340
759.520	0.0146125
759.598	0.0147461
759.676	0.0147871
759.754	0.0147407
759.832	0.0146496
759.910	0.0146606
759.988	0.0146928
760.067	0.0147502
760.145	0.0147023
760.223	0.0147158
760.301	0.0148222
760.379	0.0147115
760.457	0.0147173
760.535	0.0147028
760.613	0.0147237
760.692	0.0146613
760.770	0.0146246
760.848	0.0145515
760.926	0.0145926
761.004	0.0147147
761.082	0.0145673
761.160	0.0145699
761.238	0.0145975
761.317	0.0144083
761.395	0.0144707
761.473	0.0145375
761.551	0.0144798
761.629	0.0144529
761.707	0.0146227
761.785	0.0143558
761.863	0.0145253
761.942	0.0145033
762.020	0.0145058
762.098	0.0144408
762.176	0.0144998
762.254	0.0144059
762.332	0.0144781
762.410	0.0145236
762.488	0.0146410
762.567	0.0146435
762.645	0.0145869
762.723	0.0147724
762.801	0.0147155
762.879	0.0146837
762.957	0.0145969
763.035	0.0149371
763.113	0.0149886
763.192	0.0149238
763.270	0.0147562
763.348	0.0147348
763.426	0.0147247
763.504	0.0147863
763.582	0.0148450
763.660	0.0146860
763.738	0.0146037
763.817	0.0148138
763.895	0.0147032
763.973	0.0144997
764.051	0.0147096
764.129	0.0147125
764.207	0.0146645
764.285	0.0145564
764.363	0.0146330
764.442	0.0145763
764.520	0.0145881
764.598	0.0145471
764.676	0.0146195
764.754	0.0145099
764.832	0.0146522
764.910	0.0145917
764.988	0.0145911
765.067	0.0146899
765.145	0.0145966
765.223	0.0145226
765.301	0.0146426
765.379	0.0145774
765.457	0.0144156
765.535	0.0144107
765.613	0.0143875
765.692	0.0144738
765.770	0.0145472
765.848	0.0144904
765.926	0.0144259
766.004	0.0145198
766.082	0.0144035
766.160	0.0146253
766.238	0.0145290
766.317	0.0145679
766.395	0.0146858
766.473	0.0146481
766.551	0.0145963
766.629	0.0146162
766.707	0.0147151
766.785	0.0148760
766.863	0.0146945
766.942	0.0146310
767.020	0.0147521
767.098	0.0145753
767.176	0.0145930
767.254	0.0146782
767.332	0.0146640
767.410	0.0147627
767.488	0.0145236
767.567	0.0146907
767.645	0.0146246
767.723	0.0145815
767.801	0.0147170
767.879	0.0146787
767.957	0.0148411
768.035	0.0148013
768.113	0.0147735
768.192	0.0150075
768.270	0.0147848
768.348	0.0146723
768.426	0.0147527
768.504	0.0148969
768.582	0.0148354
768.660	0.0148607
768.738	0.0145867
768.817	0.0147426
768.895	0.0148339
768.973	0.0147988
769.051	0.0148328
769.129	0.0147361
769.207	0.0147037
769.285	0.0148000
769.363	0.0147940
769.442	0.0147552
769.520	0.0147180
769.598	0.0147339
769.676	0.0146643
769.754	0.0147182
769.832	0.0147574
769.910	0.0147076
769.988	0.0147013
770.067	0.0146279
770.145	0.0146867
770.223	0.0145053
770.301	0.0145407
770.379	0.0146834
770.457	0.0146213
770.535	0.0145241
770.613	0.0147905
770.692	0.0145140
770.770	0.0145593
770.848	0.0145506
770.926	0.0146284
771.004	0.0146527
771.082	0.0147781
771.160	0.0147521
771.238	0.0147169
771.317	0.0146965
771.395	0.0147433
771.473	0.0149297
771.551	0.0147794
771.629	0.0147254
771.707	0.0148576
771.785	0.0148107
771.863	0.0149409
771.942	0.0150217
772.020	0.0149057
772.098	0.0149474
772.176	0.0146908
772.254	0.0146497
772.332	0.0147340
772.410	0.0149364
772.488	0.0148048
772.567	0.0146320
772.645	0.0145743
772.723	0.0147794
772.801	0.0147440
772.879	0.0147688
772.957	0.0146847
773.035	0.0146718
773.113	0.0145042
773.192	0.0146442
773.270	0.0146631
773.348	0.0147828
773.426	0.0147444
773.504	0.0146092
773.582	0.0148315
773.660	0.0147176
773.738	0.0148399
773.817	0.0147802
773.895	0.0147026
773.973	0.0147478
774.051	0.0147232
774.129	0.0149370
774.207	0.0146427
774.285	0.0146751
774.363	0.0147971
774.442	0.0146284
774.520	0.0146905
774.598	0.0147214
774.676	0.0145473
774.754	0.0145992
774.832	0.0146854
774.910	0.0144324
774.988	0.0145823
775.067	0.0145307
775.145	0.0146288
775.223	0.0144675
775.301	0.0145306
775.379	0.0146340
775.457	0.0144917
775.535	0.0145967
775.613	0.0145175
775.692	0.0144832
775.770	0.0144868
775.848	0.0145070
775.926	0.0146643
776.004	0.0147256
776.082	0.0145691
776.160	0.0146312
776.238	0.0148315
776.317	0.0148117
776.395	0.0148221
776.473	0.0147197
776.551	0.0147581
776.629	0.0149580
776.707	0.0148233
776.785	0.0147173
776.863	0.0149010
776.942	0.0147641
777.020	0.0149561
777.098	0.0148823
777.176	0.0148813
777.254	0.0148531
777.332	0.0148634
777.410	0.0148486
777.488	0.0147993
777.567	0.0147546
777.645	0.0147067
777.723	0.0146897
777.801	0.0147235
777.879	0.0148053
777.957	0.0148842
778.035	0.0147901
778.113	0.0148017
778.192	0.0145620
778.270	0.0145292
778.348	0.0146606
778.426	0.0146631
778.504	0.0146747
778.582	0.0145235
778.660	0.0145926
778.738	0.0147444
778.817	0.0146457
778.895	0.0146949
778.973	0.0146896
779.051	0.0145800
779.129	0.0147399
779.207	0.0146217
779.285	0.0145708
779.363	0.0146186
779.442	0.0146735
779.520	0.0146883
779.598	0.0145444
779.676	0.0145795
779.754	0.0145781
779.832	0.0145904
779.910	0.0146644
779.988	0.0144851
780.067	0.0146775
780.145	0.0145835
780.223	0.0145874
780.301	0.0146628
780.379	0.0146059
780.457	0.0145948
780.535	0.0146694
780.613	0.0145565
780.692	0.0145595
780.770	0.0145819
780.848	0.0147557
780.926	0.0146821
781.004	0.0147105
781.082	0.0147743
781.160	0.0147121
781.238	0.0147390
781.317	0.0147015
781.395	0.0147743
781.473	0.0148978
781.551	0.0147016
781.629	0.0148237
781.707	0.0147991
781.785	0.0149072
781.863	0.0148547
781.942	0.0148777
782.020	0.0149085
782.098	0.0148653
782.176	0.0148619
782.254	0.0149124
782.332	0.0148047
782.410	0.0147237
782.488	0.0147903
782.567	0.0148386
782.645	0.0148442
782.723	0.0147894
782.801	0.0149221
782.879	0.0148118
782.957	0.0147924
783.035	0.0147930
783.113	0.0147457
783.192	0.0146816
783.270	0.0146999
783.348	0.0147554
783.426	0.0145638
783.504	0.0144775
783.582	0.0147021
783.660	0.0145346
783.738	0.0144485
783.817	0.0146358
783.895	0.0144526
783.973	0.0144845
784.051	0.0146369
784.129	0.0145877
784.207	0.0145569
784.285	0.0145581
784.363	0.0144344
784.442	0.0145972
784.520	0.0146322
784.598	0.0145976
784.676	0.0145726
784.754	0.0146510
784.832	0.0147238
784.910	0.0146984
784.988	0.0147919
785.067	0.0147733
785.145	0.0147894
785.223	0.0147227
785.301	0.0147548
785.379	0.0147765
785.457	0.0148959
785.535	0.0148839
785.613	0.0147944
785.692	0.0146352
785.770	0.0147542
785.848	0.0148370
785.926	0.0147966
786.004	0.0145737
786.082	0.0146055
786.160	0.0145395
786.238	0.0145892
786.317	0.0146482
786.395	0.0146678
786.473	0.0145594
786.551	0.0144025
786.629	0.0145512
786.707	0.0144557
786.785	0.0143845
786.863	0.0145377
786.942	0.0144434
787.020	0.0145042
787.098	0.0144569
787.176	0.0142830
787.254	0.0143870
787.332	0.0145378
787.410	0.0144566
787.488	0.0145337
787.567	0.0146403
787.645	0.0145792
787.723	0.0144528
787.801	0.0145540
787.879	0.0146328
787.957	0.0145490
788.035	0.0146056
788.113	0.0146273
788.192	0.0146561
788.270	0.0145735
788.348	0.0146548
788.426	0.0147659
788.504	0.0147109
788.582	0.0147210
788.660	0.0145982
788.738	0.0145801
788.817	0.0145632
788.895	0.0146081
788.973	0.0147020
789.051	0.0146057
789.129	0.0144913
789.207	0.0146008
789.285	0.0146664
789.363	0.0145195
789.442	0.0145344
789.520	0.0144733
789.598	0.0145206
789.676	0.0144865
789.754	0.0144708
789.832	0.0145280
789.910	0.0146227
789.988	0.0145482
790.067	0.0146092
790.145	0.0145561
790.223	0.0145379
790.301	0.0147086
790.379	0.0147446
790.457	0.0145520
790.535	0.0145383
790.613	0.0147578
790.692	0.0146855
790.770	0.0146765
790.848	0.0146349
790.926	0.0147513
791.004	0.0147894
791.082	0.0146024
791.160	0.0145386
791.238	0.0146677
791.317	0.0146100
791.395	0.0146201
791.473	0.0146468
791.551	0.0146017
791.629	0.0144749
791.707	0.0146198
791.785	0.0145139
791.863	0.0144733
791.942	0.0145148
792.020	0.0146185
792.098	0.0145746
792.176	0.0146220
792.254	0.0144379
792.332	0.0145370
792.410	0.0144763
792.488	0.0146002
792.567	0.0146151
792.645	0.0144353
792.723	0.0146498
792.801	0.0145411
792.879	0.0146449
792.957	0.0147429
793.035	0.0146401
793.113	0.0146919
793.192	0.0147495
793.270	0.0147407
793.348	0.0146795
793.426	0.0146098
793.504	0.0145586
793.582	0.0147199
793.660	0.0147505
793.738	0.0146255
793.817	0.0147832
793.895	0.0147845
793.973	0.0146941
794.051	0.0147420
794.129	0.0145950
794.207	0.0145811
794.285	0.0147601
794.363	0.0146576
794.442	0.0146275
794.520	0.0145354
794.598	0.0146044
794.676	0.0146443
794.754	0.0145965
794.832	0.0146445
794.910	0.0147049
794.988	0.0146886
795.067	0.0146409
795.145	0.0147569
795.223	0.0146767
795.301	0.0147790
795.379	0.0147523
795.457	0.0147903
795.535	0.0147501
795.613	0.0147779
795.692	0.0148132
795.770	0.0148672
795.848	0.0147556
795.926	0.0146800
796.004	0.0148513
796.082	0.0148736
796.160	0.0148006
796.238	0.0148076
796.317	0.0149644
796.395	0.0148492
796.473	0.0148544
796.551	0.0149168
796.629	0.0146627
796.707	0.0146410
796.785	0.0147501
796.863	0.0148127
796.942	0.0146901
797.020	0.0147639
797.098	0.0146676
797.176	0.0147456
797.254	0.0146199
797.332	0.0145801
797.410	0.0146219
797.488	0.0145865
797.567	0.0144499
797.645	0.0146295
797.723	0.0145493
797.801	0.0145370
797.879	0.0146193
797.957	0.0145304
798.035	0.0146059
798.113	0.0144711
798.192	0.0145029
798.270	0.0146339
798.348	0.0145458
798.426	0.0145635
798.504	0.0147674
798.582	0.0147627
798.660	0.0146479
798.738	0.0147376
798.817	0.0147543
798.895	0.0147981
798.973	0.0148923
799.051	0.0149770
799.129	0.0149011
799.207	0.0148153
799.285	0.0147933
799.363	0.0149060
799.442	0.0148651
799.520	0.0148682
799.598	0.0149503
799.676	0.0149309
799.754	0.0149257
799.832	0.0148373
799.910	0.0148195
799.988	0.0146677
800.067	0.0149220
800.145	0.0148880
800.223	0.0149020
800.301	0.0148743
800.379	0.0150026
800.457	0.0148299
800.535	0.0148252
800.613	0.0147132
800.692	0.0148061
800.770	0.0147696
800.848	0.0147575
800.926	0.0147941
801.004	0.0146992
801.082	0.0147385
801.160	0.0147196
801.238	0.0147456
801.317	0.0147411
801.395	0.0146090
801.473	0.0145956
801.551	0.0146671
801.629	0.0146721
801.707	0.0147523
801.785	0.0147728
801.863	0.0145998
801.942	0.0146597
802.020	0.0147492
802.098	0.0148206
802.176	0.0146548
802.254	0.0144834
802.332	0.0145826
802.410	0.0147194
802.488	0.0147704
802.567	0.0146520
802.645	0.0146138
802.723	0.0146295
802.801	0.0146599
802.879	0.0145803
802.957	0.0145495
803.035	0.0145840
803.113	0.0146635
803.192	0.0147003
803.270	0.0147157
803.348	0.0146658
803.426	0.0146987
803.504	0.0148210
803.582	0.0146188
803.660	0.0147430
803.738	0.0146645
803.817	0.0148151
803.895	0.0148092
803.973	0.0148591
804.051	0.0148035
804.129	0.0150600
804.207	0.0148396
804.285	0.0147875
804.363	0.0148434
804.442	0.0148589
804.520	0.0148316
804.598	0.0147987
804.676	0.0149971
804.754	0.0148454
804.832	0.0147513
804.910	0.0148182
804.988	0.0146944
805.067	0.0147892
805.145	0.0148497
805.223	0.0148427
805.301	0.0147915
805.379	0.0147728
805.457	0.0146654
805.535	0.0147924
805.613	0.0146104
805.692	0.0147204
805.770	0.0145230
805.848	0.0146983
805.926	0.0147244
806.004	0.0146493
806.082	0.0145510
806.160	0.0146287
806.238	0.0146269
806.317	0.0146510
806.395	0.0145633
806.473	0.0145322
806.551	0.0145934
806.629	0.0146281
806.707	0.0146584
806.785	0.0146237
806.863	0.0145063
806.942	0.0147215
807.020	0.0144577
807.098	0.0146349
807.176	0.0147729
807.254	0.0147536
807.332	0.0146538
807.410	0.0148025
807.488	0.0148997
807.567	0.0146700
807.645	0.0147616
807.723	0.0148425
807.801	0.0147158
807.879	0.0147308
807.957	0.0147137
808.035	0.0147388
808.113	0.0147170
808.192	0.0146573
808.270	0.0146455
808.348	0.0147459
808.426	0.0147430
808.504	0.0145921
808.582	0.0146724
808.660	0.0146158
808.738	0.0146030
808.817	0.0146775
808.895	0.0146363
808.973	0.0145246
809.051	0.0145260
809.129	0.0145556
809.207	0.0146359
809.285	0.0147059
809.363	0.0146043
809.442	0.0145306
809.520	0.0145934
809.598	0.0146272
809.676	0.0146462
809.754	0.0147091
809.832	0.0147975
809.910	0.0146970
809.988	0.0147025
810.067	0.0146322
810.145	0.0147820
810.223	0.0146908
810.301	0.0147238
810.379	0.0146358
810.457	0.0146028
810.535	0.0146973
810.613	0.0148546
810.692	0.0148584
810.770	0.0147719
810.848	0.0147753
810.926	0.0147710
811.004	0.0147331
811.082	0.0147436
811.160	0.0146587
811.238	0.0147965
811.317	0.0147655
811.395	0.0147779
811.473	0.0146906
811.551	0.0145428
811.629	0.0147336
811.707	0.0146584
811.785	0.0144133
811.863	0.0145402
811.942	0.0146529
812.020	0.0146722
812.098	0.0147036
812.176	0.0146415
812.254	0.0145318
812.332	0.0147260
812.410	0.0146016
812.488	0.0146719
812.567	0.0146236
812.645	0.0147871
812.723	0.0145900
812.801	0.0144794
812.879	0.0147287
812.957	0.0146327
813.035	0.0144211
813.113	0.0144951
813.192	0.0145685
813.270	0.0145270
813.348	0.0145958
813.426	0.0144890
813.504	0.0143478
813.582	0.0145486
813.660	0.0144849
813.738	0.0144750
813.817	0.0144627
813.895	0.0144061
813.973	0.0144789
814.051	0.0143993
814.129	0.0145483
814.207	0.0145322
814.285	0.0144753
814.363	0.0145002
814.442	0.0145625
814.520	0.0143943
814.598	0.0144742
814.676	0.0145882
814.754	0.0144398
814.832	0.0145065
814.910	0.0145000
814.988	0.0144273
815.067	0.0144897
815.145	0.0144382
815.223	0.0146531
815.301	0.0144901
815.379	0.0144525
815.457	0.0145132
815.535	0.0146366
815.613	0.0146302
815.692	0.0145078
815.770	0.0145292
815.848	0.0145053
815.926	0.0145852
816.004	0.0145861
816.082	0.0146281
816.160	0.0145600
816.238	0.0146328
816.317	0.0145512
816.395	0.0144947
816.473	0.0146086
816.551	0.0145453
816.629	0.0145922
816.707	0.0145229
816.785	0.0145808
816.863	0.0144569
816.942	0.0144696
817.020	0.0144280
817.098	0.0145078
817.176	0.0145094
817.254	0.0144986
817.332	0.0145224
817.410	0.0145393
817.488	0.0145620
817.567	0.0145695
817.645	0.0144489
817.723	0.0145052
817.801	0.0146477
817.879	0.0145377
817.957	0.0145988
818.035	0.0145892
818.113	0.0145866
818.192	0.0146077
818.270	0.0144454
818.348	0.0146004
818.426	0.0144458
818.504	0.0146014
818.582	0.0146868
818.660	0.0145871
818.738	0.0144667
818.817	0.0145432
818.895	0.0145617
818.973	0.0146554
819.051	0.0147033
819.129	0.0145368
819.207	0.0144807
819.285	0.0146092
819.363	0.0145346
819.442	0.0146732
819.520	0.0144308
819.598	0.0146444
819.676	0.0146612
819.754	0.0145256
819.832	0.0146377
819.910	0.0146977
819.988	0.0146539
820.067	0.0146214
820.145	0.0146554
820.223	0.0145062
820.301	0.0146014
820.379	0.0147176
820.457	0.0145994
820.535	0.0145785
820.613	0.0147048
820.692	0.0146942
820.770	0.0144852
820.848	0.0146213
820.926	0.0146478
821.004	0.0146207
821.082	0.0146030
821.160	0.0145414
821.238	0.0145319
821.317	0.0146941
821.395	0.0146186
821.473	0.0146700
821.551	0.0147313
821.629	0.0146499
821.707	0.0146980
821.785	0.0147370
821.863	0.0145844
821.942	0.0146807
822.020	0.0146188
822.098	0.0147019
822.176	0.0146523
822.254	0.0146902
822.332	0.0146237
822.410	0.0146899
822.488	0.0147007
822.567	0.0147195
822.645	0.0146596
822.723	0.0147216
822.801	0.0146396
822.879	0.0147402
822.957	0.0146642
823.035	0.0148190
823.113	0.0147253
823.192	0.0148090
823.270	0.0147833
823.348	0.0148078
823.426	0.0146317
823.504	0.0146582
823.582	0.0148439
823.660	0.0148186
823.738	0.0147681
823.817	0.0146320
823.895	0.0147120
823.973	0.0146652
824.051	0.0148170
824.129	0.0147191
824.207	0.0147725
824.285	0.0148942
824.363	0.0146816
824.442	0.0147655
824.520	0.0146812
824.598	0.0147224
824.676	0.0147141
824.754	0.0147893
824.832	0.0148553
824.910	0.0146758
824.988	0.0147228
825.067	0.0146383
825.145	0.0147045
825.223	0.0147073
825.301	0.0147313
825.379	0.0147298
825.457	0.0145367
825.535	0.0146571
825.613	0.0146629
825.692	0.0146555
825.770	0.0147729
825.848	0.0147128
825.926	0.0147427
826.004	0.0146773
826.082	0.0147857
826.160	0.0147806
826.238	0.0148205
826.317	0.0148100
826.395	0.0147269
826.473	0.0147837
826.551	0.0147575
826.629	0.0147298
826.707	0.0147181
826.785	0.0147465
826.863	0.0149084
826.942	0.0148524
827.020	0.0147070
827.098	0.0148009
827.176	0.0147945
827.254	0.0147224
827.332	0.0147121
827.410	0.0147261
827.488	0.0146886
827.567	0.0148771
827.645	0.0146899
827.723	0.0146637
827.801	0.0148215
827.879	0.0147006
827.957	0.0147425
828.035	0.0147060
828.113	0.0146275
828.192	0.0146516
828.270	0.0147976
828.348	0.0147417
828.426	0.0146347
828.504	0.0147616
828.582	0.0147064
828.660	0.0146265
828.738	0.0146192
828.817	0.0145892
828.895	0.0146948
828.973	0.0146418
829.051	0.0147494
829.129	0.0146114
829.207	0.0145853
829.285	0.0146193
829.363	0.0146590
829.442	0.0147408
829.520	0.0146320
829.598	0.0146326
829.676	0.0147073
829.754	0.0146822
829.832	0.0146098
829.910	0.0145510
829.988	0.0145409
830.067	0.0147394
830.145	0.0146596
830.223	0.0146668
830.301	0.0147131
830.379	0.0146949
830.457	0.0146655
830.535	0.0147292
830.613	0.0146056
830.692	0.0147155
830.770	0.0148354
830.848	0.0147031
830.926	0.0146778
831.004	0.0147890
831.082	0.0149400
831.160	0.0147253
831.238	0.0146303
831.317	0.0147381
831.395	0.0146337
831.473	0.0146626
831.551	0.0147895
831.629	0.0147063
831.707	0.0147639
831.785	0.0147517
831.863	0.0147781
831.942	0.0146576
832.020	0.0147375
832.098	0.0146995
832.176	0.0146282
832.254	0.0147354
832.332	0.0147518
832.410	0.0146343
832.488	0.0146690
832.567	0.0146428
832.645	0.0146071
832.723	0.0145393
832.801	0.0146645
832.879	0.0147542
832.957	0.0146482
833.035	0.0147450
833.113	0.0146769
833.192	0.0145594
833.270	0.0145441
833.348	0.0146915
833.426	0.0146835
833.504	0.0145028
833.582	0.0146752
833.660	0.0146154
833.738	0.0146038
833.817	0.0146754
833.895	0.0146265
833.973	0.0147961
834.051	0.0147079
834.129	0.0147610
834.207	0.0146596
834.285	0.0146744
834.363	0.0145927
834.442	0.0146412
834.520	0.0147283
834.598	0.0146910
834.676	0.0145604
834.754	0.0146624
834.832	0.0147196
834.910	0.0146442
834.988	0.0146106
835.067	0.0145938
835.145	0.0146547
835.223	0.0145368
835.301	0.0145396
835.379	0.0147153
835.457	0.0145383
835.535	0.0146606
835.613	0.0146259
835.692	0.0146762
835.770	0.0145691
835.848	0.0145844
835.926	0.0145865
836.004	0.0145944
836.082	0.0145703
836.160	0.0145463
836.238	0.0144854
836.317	0.0146128
836.395	0.0145294
836.473	0.0146906
836.551	0.0144939
836.629	0.0145229
836.707	0.0144556
836.785	0.0145602
836.863	0.0145541
836.942	0.0145057
837.020	0.0146082
837.098	0.0145106
837.176	0.0146481
837.254	0.0146326
837.332	0.0146368
837.410	0.0145686
837.488	0.0144796
837.567	0.0145588
837.645	0.0146165
837.723	0.0144459
837.801	0.0144819
837.879	0.0144387
837.957	0.0146017
838.035	0.0144907
838.113	0.0144974
838.192	0.0146629
838.270	0.0145152
838.348	0.0145804
838.426	0.0146149
838.504	0.0145731
838.582	0.0145074
838.660	0.0144649
838.738	0.0145876
838.817	0.0147115
838.895	0.0146432
838.973	0.0145660
839.051	0.0145524
839.129	0.0145823
839.207	0.0147416
839.285	0.0145322
839.363	0.0144981
839.442	0.0146140
839.520	0.0145849
839.598	0.0144683
839.676	0.0145660
839.754	0.0146536
839.832	0.0146738
839.910	0.0145718
839.988	0.0146121
840.067	0.0146584
840.145	0.0145294
840.223	0.0145660
840.301	0.0146454
840.379	0.0145143
840.457	0.0144635
840.535	0.0145267
840.613	0.0145568
840.692	0.0145544
840.770	0.0145879
840.848	0.0145168
840.926	0.0146479
841.004	0.0145196
841.082	0.0146040
841.160	0.0145299
841.238	0.0146302
841.317	0.0145084
841.395	0.0145866
841.473	0.0146165
841.551	0.0146140
841.629	0.0145621
841.707	0.0147012
841.785	0.0146277
841.863	0.0145872
841.942	0.0146900
842.020	0.0145706
842.098	0.0146526
842.176	0.0147120
842.254	0.0145764
842.332	0.0147362
842.410	0.0146791
842.488	0.0147503
842.567	0.0146774
842.645	0.0146491
842.723	0.0147301
842.801	0.0147755
842.879	0.0147382
842.957	0.0146527
843.035	0.0145541
843.113	0.0145449
843.192	0.0145775
843.270	0.0147060
843.348	0.0146432
843.426	0.0147007
843.504	0.0147644
843.582	0.0146168
843.660	0.0146923
843.738	0.0146227
843.817	0.0146064
843.895	0.0146764
843.973	0.0145926
844.051	0.0146217
844.129	0.0145634
844.207	0.0146215
844.285	0.0145345
844.363	0.0145968
844.442	0.0147205
844.520	0.0145547
844.598	0.0145708
844.676	0.0145908
844.754	0.0147485
844.832	0.0146362
844.910	0.0145522
844.988	0.0146001
845.067	0.0146613
845.145	0.0146444
845.223	0.0147105
845.301	0.0145851
845.379	0.0146234
845.457	0.0144884
845.535	0.0145518
845.613	0.0146663
845.692	0.0147143
845.770	0.0146498
845.848	0.0146061
845.926	0.0146107
846.004	0.0146938
846.082	0.0146657
846.160	0.0145637
846.238	0.0145476
846.317	0.0146774
846.395	0.0147266
846.473	0.0147208
846.551	0.0146868
846.629	0.0146613
846.707	0.0145926
846.785	0.0146912
846.863	0.0147580
846.942	0.0148042
847.020	0.0147881
847.098	0.0147668
847.176	0.0147192
847.254	0.0148249
847.332	0.0147985
847.410	0.0147248
847.488	0.0149104
847.567	0.0147275
847.645	0.0147024
847.723	0.0147032
847.801	0.0147987
847.879	0.0148183
847.957	0.0148592
848.035	0.0148489
848.113	0.0146478
848.192	0.0146113
848.270	0.0147569
848.348	0.0147069
848.426	0.0147206
848.504	0.0146538
848.582	0.0146639
848.660	0.0147781
848.738	0.0147957
848.817	0.0146144
848.895	0.0146287
848.973	0.0146925
849.051	0.0146856
849.129	0.0148055
849.207	0.0147946
849.285	0.0147465
849.363	0.0146866
849.442	0.0147494
849.520	0.0148981
849.598	0.0146397
849.676	0.0147066
849.754	0.0147286
849.832	0.0147726
849.910	0.0146913
849.988	0.0147359
850.067	0.0146628
850.145	0.0146347
850.223	0.0146635
850.301	0.0146653
850.379	0.0147971
850.457	0.0147255
850.535	0.0146722
850.613	0.0146200
850.692	0.0146516
850.770	0.0146138
850.848	0.0147054
850.926	0.0147780
851.004	0.0146154
851.082	0.0145984
851.160	0.0146639
851.238	0.0148222
851.317	0.0145976
851.395	0.0146855
851.473	0.0147670
851.551	0.0147899
851.629	0.0147072
851.707	0.0147296
851.785	0.0147473
851.863	0.0147778
851.942	0.0147744
852.020	0.0148090
852.098	0.0146970
852.176	0.0147574
852.254	0.0147998
852.332	0.0147054
852.410	0.0146970
852.488	0.0148373
852.567	0.0148092
852.645	0.0147290
852.723	0.0147423
852.801	0.0146659
852.879	0.0146325
852.957	0.0148354
853.035	0.0146378
853.113	0.0147355
853.192	0.0148293
853.270	0.0147935
853.348	0.0146758
853.426	0.0146939
853.504	0.0146780
853.582	0.0146112
853.660	0.0146765
853.738	0.0148248
853.817	0.0145627
853.895	0.0146207
853.973	0.0146880
854.051	0.0147163
854.129	0.0146614
854.207	0.0146008
854.285	0.0145602
854.363	0.0145559
854.442	0.0146679
854.520	0.0145746
854.598	0.0146430
854.676	0.0146582
854.754	0.0144376
854.832	0.0145560
854.910	0.0146198
854.988	0.0145893
855.067	0.0147390
855.145	0.0145615
855.223	0.0145743
855.301	0.0145667
855.379	0.0146597
855.457	0.0146754
855.535	0.0144504
855.613	0.0145966
855.692	0.0146267
855.770	0.0146666
855.848	0.0147244
855.926	0.0145980
856.004	0.0145300
856.082	0.0145998
856.160	0.0146893
856.238	0.0147530
856.317	0.0146679
856.395	0.0147214
856.473	0.0146190
856.551	0.0146431
856.629	0.0146351
856.707	0.0147804
856.785	0.0147449
856.863	0.0146598
856.942	0.0145995
857.020	0.0147016
857.098	0.0146478
857.176	0.0145081
857.254	0.0146950
857.332	0.0147044
857.410	0.0146247
857.488	0.0145175
857.567	0.0146989
857.645	0.0146967
857.723	0.0147444
857.801	0.0146336
857.879	0.0147282
857.957	0.0146441
858.035	0.0145284
858.113	0.0147330
858.192	0.0147807
858.270	0.0147295
858.348	0.0146452
858.426	0.0146165
858.504	0.0148434
858.582	0.0146773
858.660	0.0147621
858.738	0.0146979
858.817	0.0146359
858.895	0.0146366
858.973	0.0146412
859.051	0.0147205
859.129	0.0144914
859.207	0.0145415
859.285	0.0145973
859.363	0.0144965
859.442	0.0146588
859.520	0.0146053
859.598	0.0146547
859.676	0.0146264
859.754	0.0144981
859.832	0.0145508
859.910	0.0145544
859.988	0.0146613
860.067	0.0146323
860.145	0.0146273
860.223	0.0143439
860.301	0.0144836
860.379	0.0146086
860.457	0.0146873
860.535	0.0146009
860.613	0.0145201
860.692	0.0146028
860.770	0.0146218
860.848	0.0145574
860.926	0.0145589
861.004	0.0145691
861.082	0.0146218
861.160	0.0146773
861.238	0.0145830
861.317	0.0145127
861.395	0.0147865
861.473	0.0146100
861.551	0.0146194
861.629	0.0146288
861.707	0.0147293
861.785	0.0146283
861.863	0.0146523
861.942	0.0146494
862.020	0.0146629
862.098	0.0147289
862.176	0.0145811
862.254	0.0146232
862.332	0.0146578
862.410	0.0146093
862.488	0.0146720
862.567	0.0147012
862.645	0.0146673
862.723	0.0147603
862.801	0.0146303
862.879	0.0146587
862.957	0.0144276
863.035	0.0144951
863.113	0.0147248
863.192	0.0146431
863.270	0.0146619
863.348	0.0145840
863.426	0.0144838
863.504	0.0145348
863.582	0.0144876
863.660	0.0145175
863.738	0.0146117
863.817	0.0144972
863.895	0.0144476
863.973	0.0146059
864.051	0.0147034
864.129	0.0145706
864.207	0.0144797
864.285	0.0145330
864.363	0.0146078
864.442	0.0145580
864.520	0.0146740
864.598	0.0146175
864.676	0.0146104
864.754	0.0146760
864.832	0.0146590
864.910	0.0147819
864.988	0.0146564
865.067	0.0145988
865.145	0.0146628
865.223	0.0147821
865.301	0.0145950
865.379	0.0146100
865.457	0.0146830
865.535	0.0147681
865.613	0.0147678
865.692	0.0147556
865.770	0.0145609
865.848	0.0145540
865.926	0.0146607
866.004	0.0146696
866.082	0.0149000
866.160	0.0145412
866.238	0.0146565
866.317	0.0146326
866.395	0.0147865
866.473	0.0147124
866.551	0.0146198
866.629	0.0147007
866.707	0.0147200
866.785	0.0147402
866.863	0.0147684
866.942	0.0147958
867.020	0.0146195
867.098	0.0147591
867.176	0.0146735
867.254	0.0147504
867.332	0.0146748
867.410	0.0147556
867.488	0.0147216
867.567	0.0148109
867.645	0.0146400
867.723	0.0147529
867.801	0.0147906
867.879	0.0148450
867.957	0.0147714
868.035	0.0147778
868.113	0.0148159
868.192	0.0147432
868.270	0.0148682
868.348	0.0148236
868.426	0.0146558
868.504	0.0145405
868.582	0.0147368
868.660	0.0146140
868.738	0.0148416
868.817	0.0147242
868.895	0.0147149
868.973	0.0145985
869.051	0.0145978
869.129	0.0146286
869.207	0.0146996
869.285	0.0146399
869.363	0.0147723
869.442	0.0146750
869.520	0.0147245
869.598	0.0147143
869.676	0.0146585
869.754	0.0146851
869.832	0.0148031
869.910	0.0147102
869.988	0.0146977
870.067	0.0146947
870.145	0.0146862
870.223	0.0146645
870.301	0.0146980
870.379	0.0146428
870.457	0.0146404
870.535	0.0146460
870.613	0.0146169
870.692	0.0146317
870.770	0.0146922
870.848	0.0147191
870.926	0.0146736
871.004	0.0145933
871.082	0.0145988
871.160	0.0146104
871.238	0.0146456
871.317	0.0147066
871.395	0.0146372
871.473	0.0145875
871.551	0.0146723
871.629	0.0147175
871.707	0.0146731
871.785	0.0146294
871.863	0.0147823
871.942	0.0146687
872.020	0.0145553
872.098	0.0146177
872.176	0.0146687
872.254	0.0146249
872.332	0.0146501
872.410	0.0145989
872.488	0.0146188
872.567	0.0147066
872.645	0.0145898
872.723	0.0146611
872.801	0.0146336
872.879	0.0145626
872.957	0.0144519
873.035	0.0146021
873.113	0.0146460
873.192	0.0146748
873.270	0.0145169
873.348	0.0144753
873.426	0.0146494
873.504	0.0146303
873.582	0.0144888
873.660	0.0146855
873.738	0.0145721
873.817	0.0145460
873.895	0.0146838
873.973	0.0145309
874.051	0.0147153
874.129	0.0146271
874.207	0.0147326
874.285	0.0146091
874.363	0.0145853
874.442	0.0146021
874.520	0.0145348
874.598	0.0146048
874.676	0.0145302
874.754	0.0146255
874.832	0.0144992
874.910	0.0146569
874.988	0.0144685
875.067	0.0144968
875.145	0.0146864
875.223	0.0146325
875.301	0.0147356
875.379	0.0146582
875.457	0.0145525
875.535	0.0145853
875.613	0.0145473
875.692	0.0146535
875.770	0.0146135
875.848	0.0146001
875.926	0.0145914
876.004	0.0147764
876.082	0.0147393
876.160	0.0146849
876.238	0.0146923
876.317	0.0146687
876.395	0.0147784
876.473	0.0146566
876.551	0.0147429
876.629	0.0146320
876.707	0.0146749
876.785	0.0147520
876.863	0.0147350
876.942	0.0148262
877.020	0.0146252
877.098	0.0147145
877.176	0.0147261
877.254	0.0146758
877.332	0.0146999
877.410	0.0147355
877.488	0.0147547
877.567	0.0146039
877.645	0.0146544
877.723	0.0146442
877.801	0.0147218
877.879	0.0145538
877.957	0.0146057
878.035	0.0147272
878.113	0.0145553
878.192	0.0146618
878.270	0.0146700
878.348	0.0146412
878.426	0.0145321
878.504	0.0146942
878.582	0.0146761
878.660	0.0146075
878.738	0.0146204
878.817	0.0146940
878.895	0.0147125
878.973	0.0146103
879.051	0.0145512
879.129	0.0147501
879.207	0.0147536
879.285	0.0145655
879.363	0.0146274
879.442	0.0147011
879.520	0.0145947
879.598	0.0147266
879.676	0.0147548
879.754	0.0148108
879.832	0.0147341
879.910	0.0147371
879.988	0.0147911
880.067	0.0146616
880.145	0.0146669
880.223	0.0146959
880.301	0.0148952
880.379	0.0147453
880.457	0.0146734
880.535	0.0146584
880.613	0.0148008
880.692	0.0147606
880.770	0.0148863
880.848	0.0149180
880.926	0.0147156
881.004	0.0148293
881.082	0.0148111
881.160	0.0146935
881.238	0.0148347
881.317	0.0148165
881.395	0.0147102
881.473	0.0147450
881.551	0.0146329
881.629	0.0146780
881.707	0.0147687
881.785	0.0148131
881.863	0.0147009
881.942	0.0146430
882.020	0.0146395
882.098	0.0147925
882.176	0.0146756
882.254	0.0147117
882.332	0.0147630
882.410	0.0147792
882.488	0.0146394
882.567	0.0147573
882.645	0.0148582
882.723	0.0148065
882.801	0.0147675
882.879	0.0147124
882.957	0.0147311
883.035	0.0147201
883.113	0.0149257
883.192	0.0148455
883.270	0.0146712
883.348	0.0147702
883.426	0.0147147
883.504	0.0146870
883.582	0.0147949
883.660	0.0147279
883.738	0.0147828
883.817	0.0147009
883.895	0.0146524
883.973	0.0147084
884.051	0.0145841
884.129	0.0147559
884.207	0.0146660
884.285	0.0147020
884.363	0.0146341
884.442	0.0145271
884.520	0.0147260
884.598	0.0144752
884.676	0.0146497
884.754	0.0146967
884.832	0.0147036
884.910	0.0145808
884.988	0.0146737
885.067	0.0146696
885.145	0.0145193
885.223	0.0147784
885.301	0.0146941
885.379	0.0146256
885.457	0.0145356
885.535	0.0146802
885.613	0.0147327
885.692	0.0146886
885.770	0.0146638
885.848	0.0147589
885.926	0.0146922
886.004	0.0146862
886.082	0.0147279
886.160	0.0146555
886.238	0.0146973
886.317	0.0145461
886.395	0.0147302
886.473	0.0147758
886.551	0.0145405
886.629	0.0147159
886.707	0.0146315
886.785	0.0146537
886.863	0.0147780
886.942	0.0146938
887.020	0.0146076
887.098	0.0147437
887.176	0.0146597
887.254	0.0145708
887.332	0.0146931
887.410	0.0146560
887.488	0.0147464
887.567	0.0147417
887.645	0.0146637
887.723	0.0146520
887.801	0.0146487
887.879	0.0146783
887.957	0.0147765
888.035	0.0147984
888.113	0.0146137
888.192	0.0146243
888.270	0.0146523
888.348	0.0145908
888.426	0.0146276
888.504	0.0146197
888.582	0.0145648
888.660	0.0145644
888.738	0.0146223
888.817	0.0145715
888.895	0.0144564
888.973	0.0145968
889.051	0.0146083
889.129	0.0146625
889.207	0.0146951
889.285	0.0147338
889.363	0.0146918
889.442	0.0146738
889.520	0.0147951
889.598	0.0147453
889.676	0.0146130
889.754	0.0146586
889.832	0.0146655
889.910	0.0146763
889.988	0.0146353
890.067	0.0145499
890.145	0.0147906
890.223	0.0147231
890.301	0.0146046
890.379	0.0145890
890.457	0.0147088
890.535	0.0147003
890.613	0.0146810
890.692	0.0146873
890.770	0.0146494
890.848	0.0147549
890.926	0.0146012
891.004	0.0145835
891.082	0.0146703
891.160	0.0147746
891.238	0.0146989
891.317	0.0145830
891.395	0.0146613
891.473	0.0144682
891.551	0.0146951
891.629	0.0146748
891.707	0.0144737
891.785	0.0146841
891.863	0.0146320
891.942	0.0145662
892.020	0.0145850
892.098	0.0144978
892.176	0.0144994
892.254	0.0145550
892.332	0.0144913
892.410	0.0145593
892.488	0.0145091
892.567	0.0144699
892.645	0.0144952
892.723	0.0145185
892.801	0.0145913
892.879	0.0145750
892.957	0.0146699
893.035	0.0145127
893.113	0.0145007
893.192	0.0146000
893.270	0.0144717
893.348	0.0144547
893.426	0.0146310
893.504	0.0144733
893.582	0.0146764
893.660	0.0146667
893.738	0.0146251
893.817	0.0146264
893.895	0.0147195
893.973	0.0147202
894.051	0.0146950
894.129	0.0147536
894.207	0.0148502
894.285	0.0148016
894.363	0.0146722
894.442	0.0147678
894.520	0.0146270
894.598	0.0147334
894.676	0.0146075
894.754	0.0147491
894.832	0.0147343
894.910	0.0148339
894.988	0.0147121
895.067	0.0147085
895.145	0.0148499
895.223	0.0148145
895.301	0.0147274
895.379	0.0146411
895.457	0.0146308
895.535	0.0147119
895.613	0.0146668
895.692	0.0146809
895.770	0.0145817
895.848	0.0147945
895.926	0.0148235
896.004	0.0145431
896.082	0.0146333
896.160	0.0145610
896.238	0.0147485
896.317	0.0147783
896.395	0.0145084
896.473	0.0146532
896.551	0.0147437
896.629	0.0145972
896.707	0.0147637
896.785	0.0146852
896.863	0.0146272
896.942	0.0146822
897.020	0.0147144
897.098	0.0147297
897.176	0.0146603
897.254	0.0147201
897.332	0.0145747
897.410	0.0146290
897.488	0.0147220
897.567	0.0146716
897.645	0.0147806
897.723	0.0147379
897.801	0.0146367
897.879	0.0147610
897.957	0.0146156
898.035	0.0148108
898.113	0.0147912
898.192	0.0146619
898.270	0.0146829
898.348	0.0146966
898.426	0.0146864
898.504	0.0147731
898.582	0.0147912
898.660	0.0146888
898.738	0.0147454
898.817	0.0147029
898.895	0.0146510
898.973	0.0147061
899.051	0.0147027
899.129	0.0146422
899.207	0.0145439
899.285	0.0146999
899.363	0.0146279
899.442	0.0146823
899.520	0.0146228
899.598	0.0146278
899.676	0.0147081
899.754	0.0147469
899.832	0.0145074
899.910	0.0145551
899.988	0.0147701
900.067	0.0146397
900.145	0.0146999
900.223	0.0147039
900.301	0.0147431
900.379	0.0146632
900.457	0.0146812
900.535	0.0147687
900.613	0.0146542
900.692	0.0147449
900.770	0.0147575
900.848	0.0146797
900.926	0.0146710
901.004	0.0147650
901.082	0.0146525
901.160	0.0146732
901.238	0.0147794
901.317	0.0147765
901.395	0.0146324
901.473	0.0147844
901.551	0.0147025
901.629	0.0147649
901.707	0.0146921
901.785	0.0147250
901.863	0.0147324
901.942	0.0147779
902.020	0.0148189
902.098	0.0147086
902.176	0.0147163
902.254	0.0148150
902.332	0.0148635
902.410	0.0147526
902.488	0.0147635
902.567	0.0148858
902.645	0.0149401
902.723	0.0148312
902.801	0.0149309
902.879	0.0149358
902.957	0.0148608
903.035	0.0148643
903.113	0.0147744
903.192	0.0149059
903.270	0.0147189
903.348	0.0148997
903.426	0.0147473
903.504	0.0148708
903.582	0.0147926
903.660	0.0147816
903.738	0.0148129
903.817	0.0148006
903.895	0.0147926
903.973	0.0147153
904.051	0.0146734
904.129	0.0145454
904.207	0.0149131
904.285	0.0147508
904.363	0.0146445
904.442	0.0147054
904.520	0.0146006
904.598	0.0145524
904.676	0.0147017
904.754	0.0145361
904.832	0.0146073
904.910	0.0146140
904.988	0.0145207
905.067	0.0145427
905.145	0.0146731
905.223	0.0146237
905.301	0.0146154
905.379	0.0145556
905.457	0.0146116
905.535	0.0145365
905.613	0.0144807
905.692	0.0146304
905.770	0.0146883
905.848	0.0146309
905.926	0.0147070
906.004	0.0146239
906.082	0.0146839
906.160	0.0145502
906.238	0.0146774
906.317	0.0145548
906.395	0.0146796
906.473	0.0148348
906.551	0.0144713
906.629	0.0146497
906.707	0.0147416
906.785	0.0146844
906.863	0.0147292
906.942	0.0147415
907.020	0.0145216
907.098	0.0146875
907.176	0.0148098
907.254	0.0147897
907.332	0.0145678
907.410	0.0146318
907.488	0.0146630
907.567	0.0146185
907.645	0.0145525
907.723	0.0146500
907.801	0.0148404
907.879	0.0145238
907.957	0.0145909
908.035	0.0145929
908.113	0.0146074
908.192	0.0145486
908.270	0.0146249
908.348	0.0145707
908.426	0.0145911
908.504	0.0145441
908.582	0.0145864
908.660	0.0145182
908.738	0.0144772
908.817	0.0145616
908.895	0.0146136
908.973	0.0144679
909.051	0.0145403
909.129	0.0145187
909.207	0.0145264
909.285	0.0146542
909.363	0.0146957
909.442	0.0145776
909.520	0.0145467
909.598	0.0145629
909.676	0.0146055
909.754	0.0146472
909.832	0.0145604
909.910	0.0145171
909.988	0.0144629
910.067	0.0144677
910.145	0.0146089
910.223	0.0145311
910.301	0.0146151
910.379	0.0146997
910.457	0.0145825
910.535	0.0146828
910.613	0.0146272
910.692	0.0145311
910.770	0.0145386
910.848	0.0146210
910.926	0.0146092
911.004	0.0147309
911.082	0.0145199
911.160	0.0146055
911.238	0.0145783
911.317	0.0146194
911.395	0.0146613
911.473	0.0147053
911.551	0.0146999
911.629	0.0146606
911.707	0.0146823
911.785	0.0147682
911.863	0.0147269
911.942	0.0147069
912.020	0.0147022
912.098	0.0148016
912.176	0.0148130
912.254	0.0146722
912.332	0.0147435
912.410	0.0146807
912.488	0.0146313
912.567	0.0146793
912.645	0.0146986
912.723	0.0146568
912.801	0.0146205
912.879	0.0144584
912.957	0.0145859
913.035	0.0147196
913.113	0.0145609
913.192	0.0146383
913.270	0.0145188
913.348	0.0145296
913.426	0.0145693
913.504	0.0146027
913.582	0.0146992
913.660	0.0146104
913.738	0.0145779
913.817	0.0146522
913.895	0.0145473
913.973	0.0145691
914.051	0.0146490
914.129	0.0146876
914.207	0.0145386
914.285	0.0147014
914.363	0.0147359
914.442	0.0146490
914.520	0.0145024
914.598	0.0147009
914.676	0.0147286
914.754	0.0146642
914.832	0.0146738
914.910	0.0146407
914.988	0.0147454
915.067	0.0146965
915.145	0.0146702
915.223	0.0146480
915.301	0.0145549
915.379	0.0146796
915.457	0.0146532
915.535	0.0146000
915.613	0.0147091
915.692	0.0146927
915.770	0.0146670
915.848	0.0146294
915.926	0.0145370
916.004	0.0147494
916.082	0.0147295
916.160	0.0148073
916.238	0.0147082
916.317	0.0146870
916.395	0.0147491
916.473	0.0146366
916.551	0.0147078
916.629	0.0146607
916.707	0.0145892
916.785	0.0146404
916.863	0.0146253
916.942	0.0146700
917.020	0.0146601
917.098	0.0146889
917.176	0.0145824
917.254	0.0145772
917.332	0.0145988
917.410	0.0145456
917.488	0.0146091
917.567	0.0146755
917.645	0.0145841
917.723	0.0146522
917.801	0.0146278
917.879	0.0144893
917.957	0.0145812
918.035	0.0145413
918.113	0.0145210
918.192	0.0145792
918.270	0.0146675
918.348	0.0145225
918.426	0.0144993
918.504	0.0145540
918.582	0.0146837
918.660	0.0145737
918.738	0.0145913
918.817	0.0146130
918.895	0.0145927
918.973	0.0146100
919.051	0.0146223
919.129	0.0146241
919.207	0.0146107
919.285	0.0146462
919.363	0.0145765
919.442	0.0146087
919.520	0.0146705
919.598	0.0147119
919.676	0.0147190
919.754	0.0147590
919.832	0.0145718
919.910	0.0148120
