05/28/2022	14:26:22	Ver.	4.1	UNKNOWN
Optical Delay	599.988409	Delta X		0.078125	Sweeps	1	Scan Rate	0/0
Coordinates	Axis 1	NaN	Axis 2	NaN	Axis 3	NaN	Axis 4	NaN	Axis 5	NaN	Axis 6	0.000000
TX Power	0.000000	RX Power	0.000000

599.988	0.0146457
600.067	0.0144685
600.145	0.0146240
600.223	0.0146426
600.301	0.0147317
600.379	0.0145929
600.457	0.0146122
600.535	0.0146925
600.613	0.0144681
600.692	0.0146818
600.770	0.0145191
600.848	0.0145915
600.926	0.0146539
601.004	0.0146533
601.082	0.0146857
601.160	0.0147405
601.238	0.0146051
601.317	0.0146611
601.395	0.0145945
601.473	0.0146207
601.551	0.0147510
601.629	0.0146581
601.707	0.0145017
601.785	0.0147089
601.863	0.0145653
601.942	0.0145822
602.020	0.0147069
602.098	0.0145475
602.176	0.0147293
602.254	0.0145288
602.332	0.0146120
602.410	0.0145660
602.488	0.0146089
602.567	0.0144637
602.645	0.0147055
602.723	0.0147363
602.801	0.0146558
602.879	0.0145213
602.957	0.0145242
603.035	0.0145985
603.113	0.0145839
603.192	0.0145155
603.270	0.0146661
603.348	0.0145646
603.426	0.0144941
603.504	0.0146510
603.582	0.0145448
603.660	0.0145968
603.738	0.0144772
603.817	0.0145049
603.895	0.0144857
603.973	0.0145959
604.051	0.0145272
604.129	0.0145808
604.207	0.0145152
604.285	0.0145448
604.363	0.0147378
604.442	0.0146360
604.520	0.0146423
604.598	0.0144858
604.676	0.0146377
604.754	0.0145037
604.832	0.0145644
604.910	0.0145622
604.988	0.0146080
605.067	0.0146668
605.145	0.0146602
605.223	0.0147243
605.301	0.0145966
605.379	0.0145918
605.457	0.0146783
605.535	0.0146420
605.613	0.0146746
605.692	0.0145061
605.770	0.0146668
605.848	0.0146897
605.926	0.0148090
606.004	0.0146924
606.082	0.0146912
606.160	0.0146371
606.238	0.0146556
606.317	0.0146523
606.395	0.0145695
606.473	0.0146548
606.551	0.0145053
606.629	0.0146370
606.707	0.0147328
606.785	0.0144949
606.863	0.0147237
606.942	0.0145673
607.020	0.0146386
607.098	0.0147062
607.176	0.0147006
607.254	0.0144423
607.332	0.0147317
607.410	0.0145978
607.488	0.0145476
607.567	0.0144832
607.645	0.0145778
607.723	0.0147133
607.801	0.0145432
607.879	0.0146215
607.957	0.0146303
608.035	0.0145703
608.113	0.0146590
608.192	0.0145648
608.270	0.0146732
608.348	0.0145615
608.426	0.0146252
608.504	0.0146976
608.582	0.0146384
608.660	0.0146239
608.738	0.0147460
608.817	0.0146993
608.895	0.0146266
608.973	0.0145631
609.051	0.0146053
609.129	0.0146447
609.207	0.0146404
609.285	0.0147239
609.363	0.0146175
609.442	0.0145840
609.520	0.0145839
609.598	0.0146163
609.676	0.0147254
609.754	0.0146825
609.832	0.0146780
609.910	0.0146603
609.988	0.0146078
610.067	0.0146800
610.145	0.0146015
610.223	0.0145758
610.301	0.0147363
610.379	0.0146761
610.457	0.0145890
610.535	0.0146502
610.613	0.0148011
610.692	0.0147190
610.770	0.0146533
610.848	0.0146279
610.926	0.0147309
611.004	0.0145962
611.082	0.0146148
611.160	0.0146040
611.238	0.0145903
611.317	0.0146126
611.395	0.0145284
611.473	0.0146107
611.551	0.0145870
611.629	0.0146012
611.707	0.0146243
611.785	0.0146270
611.863	0.0145432
611.942	0.0145110
612.020	0.0146310
612.098	0.0146419
612.176	0.0145302
612.254	0.0144029
612.332	0.0144866
612.410	0.0145519
612.488	0.0145257
612.567	0.0144614
612.645	0.0143555
612.723	0.0144042
612.801	0.0143871
612.879	0.0144048
612.957	0.0144614
613.035	0.0145525
613.113	0.0144880
613.192	0.0144026
613.270	0.0145170
613.348	0.0145734
613.426	0.0144596
613.504	0.0146344
613.582	0.0146699
613.660	0.0145710
613.738	0.0146007
613.817	0.0146043
613.895	0.0147838
613.973	0.0147672
614.051	0.0148248
614.129	0.0146503
614.207	0.0148025
614.285	0.0146574
614.363	0.0148896
614.442	0.0148699
614.520	0.0148395
614.598	0.0148436
614.676	0.0147991
614.754	0.0146250
614.832	0.0146887
614.910	0.0146328
614.988	0.0146392
615.067	0.0148174
615.145	0.0147175
615.223	0.0144860
615.301	0.0144321
615.379	0.0144495
615.457	0.0145203
615.535	0.0146059
615.613	0.0145244
615.692	0.0146265
615.770	0.0146780
615.848	0.0146356
615.926	0.0144173
616.004	0.0146918
616.082	0.0146082
616.160	0.0146165
616.238	0.0146516
616.317	0.0146881
616.395	0.0146611
616.473	0.0146080
616.551	0.0146503
616.629	0.0147716
616.707	0.0146550
616.785	0.0145723
616.863	0.0146527
616.942	0.0145251
617.020	0.0146752
617.098	0.0146288
617.176	0.0146114
617.254	0.0145063
617.332	0.0146432
617.410	0.0144918
617.488	0.0146498
617.567	0.0146766
617.645	0.0145477
617.723	0.0145354
617.801	0.0144692
617.879	0.0144863
617.957	0.0146731
618.035	0.0146577
618.113	0.0145872
618.192	0.0145041
618.270	0.0145988
618.348	0.0146398
618.426	0.0145874
618.504	0.0145912
618.582	0.0145502
618.660	0.0145879
618.738	0.0146957
618.817	0.0146647
618.895	0.0145988
618.973	0.0146900
619.051	0.0146352
619.129	0.0146751
619.207	0.0146264
619.285	0.0145981
619.363	0.0145355
619.442	0.0147245
619.520	0.0147250
619.598	0.0145923
619.676	0.0146761
619.754	0.0145356
619.832	0.0147987
619.910	0.0146216
619.988	0.0146223
620.067	0.0146789
620.145	0.0145321
620.223	0.0144838
620.301	0.0146143
620.379	0.0147500
620.457	0.0145410
620.535	0.0144374
620.613	0.0147654
620.692	0.0146770
620.770	0.0145573
620.848	0.0144602
620.926	0.0146268
621.004	0.0146061
621.082	0.0145929
621.160	0.0145521
621.238	0.0144756
621.317	0.0146576
621.395	0.0146031
621.473	0.0146944
621.551	0.0145825
621.629	0.0142886
621.707	0.0145610
621.785	0.0146683
621.863	0.0145956
621.942	0.0145394
622.020	0.0146361
622.098	0.0146048
622.176	0.0146017
622.254	0.0146365
622.332	0.0146578
622.410	0.0147314
622.488	0.0146025
622.567	0.0146317
622.645	0.0147539
622.723	0.0146792
622.801	0.0146205
622.879	0.0145761
622.957	0.0146554
623.035	0.0146858
623.113	0.0145939
623.192	0.0145733
623.270	0.0146389
623.348	0.0147395
623.426	0.0146889
623.504	0.0146954
623.582	0.0146567
623.660	0.0146445
623.738	0.0145520
623.817	0.0146146
623.895	0.0145850
623.973	0.0146364
624.051	0.0147019
624.129	0.0146303
624.207	0.0146527
624.285	0.0146275
624.363	0.0149012
624.442	0.0147623
624.520	0.0146191
624.598	0.0146487
624.676	0.0147481
624.754	0.0146919
624.832	0.0145818
624.910	0.0146285
624.988	0.0145860
625.067	0.0145856
625.145	0.0146083
625.223	0.0146923
625.301	0.0146112
625.379	0.0145645
625.457	0.0145132
625.535	0.0146166
625.613	0.0145873
625.692	0.0146558
625.770	0.0145945
625.848	0.0145490
625.926	0.0145638
626.004	0.0145310
626.082	0.0145845
626.160	0.0146378
626.238	0.0145591
626.317	0.0145721
626.395	0.0146806
626.473	0.0144847
626.551	0.0145398
626.629	0.0145921
626.707	0.0145963
626.785	0.0145517
626.863	0.0145882
626.942	0.0145422
627.020	0.0144874
627.098	0.0145297
627.176	0.0147802
627.254	0.0146001
627.332	0.0145836
627.410	0.0145173
627.488	0.0145950
627.567	0.0146000
627.645	0.0145679
627.723	0.0145158
627.801	0.0145109
627.879	0.0147194
627.957	0.0146001
628.035	0.0146178
628.113	0.0144955
628.192	0.0146117
628.270	0.0144817
628.348	0.0143879
628.426	0.0146103
628.504	0.0146645
628.582	0.0145457
628.660	0.0146098
628.738	0.0146930
628.817	0.0145674
628.895	0.0146056
628.973	0.0145950
629.051	0.0144362
629.129	0.0146893
629.207	0.0146178
629.285	0.0145261
629.363	0.0146552
629.442	0.0147050
629.520	0.0146082
629.598	0.0146596
629.676	0.0145793
629.754	0.0146356
629.832	0.0145786
629.910	0.0146073
629.988	0.0147893
630.067	0.0146626
630.145	0.0147072
630.223	0.0147234
630.301	0.0147152
630.379	0.0148327
630.457	0.0146517
630.535	0.0148471
630.613	0.0146507
630.692	0.0146911
630.770	0.0147669
630.848	0.0146822
630.926	0.0147572
631.004	0.0146931
631.082	0.0148460
631.160	0.0149081
631.238	0.0146831
631.317	0.0147872
631.395	0.0146959
631.473	0.0147012
631.551	0.0147758
631.629	0.0147279
631.707	0.0146148
631.785	0.0146616
631.863	0.0145385
631.942	0.0147379
632.020	0.0147437
632.098	0.0147569
632.176	0.0146772
632.254	0.0145229
632.332	0.0146187
632.410	0.0145695
632.488	0.0146767
632.567	0.0147087
632.645	0.0147348
632.723	0.0146618
632.801	0.0144862
632.879	0.0148114
632.957	0.0145882
633.035	0.0146191
633.113	0.0145669
633.192	0.0147038
633.270	0.0147739
633.348	0.0146124
633.426	0.0147950
633.504	0.0148013
633.582	0.0146378
633.660	0.0145901
633.738	0.0146756
633.817	0.0146529
633.895	0.0146204
633.973	0.0147558
634.051	0.0147002
634.129	0.0147477
634.207	0.0148009
634.285	0.0146770
634.363	0.0147318
634.442	0.0146844
634.520	0.0146589
634.598	0.0146299
634.676	0.0146903
634.754	0.0147222
634.832	0.0145786
634.910	0.0146506
634.988	0.0146336
635.067	0.0143560
635.145	0.0145370
635.223	0.0144976
635.301	0.0146561
635.379	0.0145474
635.457	0.0145100
635.535	0.0146108
635.613	0.0145654
635.692	0.0146046
635.770	0.0144802
635.848	0.0143999
635.926	0.0145594
636.004	0.0145800
636.082	0.0147160
636.160	0.0146520
636.238	0.0147318
636.317	0.0146716
636.395	0.0145773
636.473	0.0147036
636.551	0.0147289
636.629	0.0146823
636.707	0.0148025
636.785	0.0147456
636.863	0.0147019
636.942	0.0146413
637.020	0.0146648
637.098	0.0146648
637.176	0.0146265
637.254	0.0145858
637.332	0.0146526
637.410	0.0147633
637.488	0.0146698
637.567	0.0146798
637.645	0.0146306
637.723	0.0146185
637.801	0.0146824
637.879	0.0146669
637.957	0.0146110
638.035	0.0146262
638.113	0.0146661
638.192	0.0145762
638.270	0.0146548
638.348	0.0146521
638.426	0.0146920
638.504	0.0146562
638.582	0.0147062
638.660	0.0147873
638.738	0.0146248
638.817	0.0146069
638.895	0.0145260
638.973	0.0145293
639.051	0.0145021
639.129	0.0145568
639.207	0.0144421
639.285	0.0144493
639.363	0.0143678
639.442	0.0142047
639.520	0.0141302
639.598	0.0143203
639.676	0.0143069
639.754	0.0142725
639.832	0.0142229
639.910	0.0143971
639.988	0.0143386
640.067	0.0143238
640.145	0.0145185
640.223	0.0143491
640.301	0.0143204
640.379	0.0144541
640.457	0.0145089
640.535	0.0144837
640.613	0.0146495
640.692	0.0144711
640.770	0.0145389
640.848	0.0146297
640.926	0.0144687
641.004	0.0144981
641.082	0.0145260
641.160	0.0145522
641.238	0.0146270
641.317	0.0146866
641.395	0.0147195
641.473	0.0148268
641.551	0.0147706
641.629	0.0148443
641.707	0.0148052
641.785	0.0147604
641.863	0.0147041
641.942	0.0147578
642.020	0.0147671
642.098	0.0147101
642.176	0.0147952
642.254	0.0147174
642.332	0.0146187
642.410	0.0144726
642.488	0.0144954
642.567	0.0145777
642.645	0.0146017
642.723	0.0144358
642.801	0.0144041
642.879	0.0145577
642.957	0.0144136
643.035	0.0142735
643.113	0.0144279
643.192	0.0143100
643.270	0.0142535
643.348	0.0141917
643.426	0.0143849
643.504	0.0141889
643.582	0.0143539
643.660	0.0140938
643.738	0.0141325
643.817	0.0141746
643.895	0.0140623
643.973	0.0138890
644.051	0.0140895
644.129	0.0141154
644.207	0.0140537
644.285	0.0141295
644.363	0.0142596
644.442	0.0142250
644.520	0.0143054
644.598	0.0143559
644.676	0.0144332
644.754	0.0143826
644.832	0.0144523
644.910	0.0144801
644.988	0.0145295
645.067	0.0146661
645.145	0.0147322
645.223	0.0146819
645.301	0.0146333
645.379	0.0148010
645.457	0.0149767
645.535	0.0148384
645.613	0.0147241
645.692	0.0147701
645.770	0.0148122
645.848	0.0147885
645.926	0.0147905
646.004	0.0148341
646.082	0.0147984
646.160	0.0147648
646.238	0.0148283
646.317	0.0147785
646.395	0.0147085
646.473	0.0147838
646.551	0.0148353
646.629	0.0148787
646.707	0.0148514
646.785	0.0148154
646.863	0.0148866
646.942	0.0147861
647.020	0.0148307
647.098	0.0148134
647.176	0.0145898
647.254	0.0145993
647.332	0.0146980
647.410	0.0145727
647.488	0.0147592
647.567	0.0145224
647.645	0.0143555
647.723	0.0143262
647.801	0.0142493
647.879	0.0141984
647.957	0.0143105
648.035	0.0141928
648.113	0.0143269
648.192	0.0142454
648.270	0.0142502
648.348	0.0142170
648.426	0.0142387
648.504	0.0143081
648.582	0.0143826
648.660	0.0143602
648.738	0.0142899
648.817	0.0144383
648.895	0.0144665
648.973	0.0144560
649.051	0.0143301
649.129	0.0143314
649.207	0.0142381
649.285	0.0142944
649.363	0.0144252
649.442	0.0142822
649.520	0.0143493
649.598	0.0144366
649.676	0.0141859
649.754	0.0142696
649.832	0.0142986
649.910	0.0143307
649.988	0.0144238
650.067	0.0143005
650.145	0.0144131
650.223	0.0145356
650.301	0.0145962
650.379	0.0145435
650.457	0.0146411
650.535	0.0146700
650.613	0.0146576
650.692	0.0147345
650.770	0.0147886
650.848	0.0146922
650.926	0.0147903
651.004	0.0149712
651.082	0.0148180
651.160	0.0147246
651.238	0.0148620
651.317	0.0147714
651.395	0.0148820
651.473	0.0147662
651.551	0.0149449
651.629	0.0148604
651.707	0.0148455
651.785	0.0147943
651.863	0.0148129
651.942	0.0148090
652.020	0.0149061
652.098	0.0147732
652.176	0.0148582
652.254	0.0147923
652.332	0.0148684
652.410	0.0147488
652.488	0.0148200
652.567	0.0146227
652.645	0.0146484
652.723	0.0146618
652.801	0.0145626
652.879	0.0145657
652.957	0.0144612
653.035	0.0144344
653.113	0.0145768
653.192	0.0144270
653.270	0.0142316
653.348	0.0141927
653.426	0.0142202
653.504	0.0142099
653.582	0.0141538
653.660	0.0142182
653.738	0.0141758
653.817	0.0141467
653.895	0.0141969
653.973	0.0143869
654.051	0.0142348
654.129	0.0142899
654.207	0.0143797
654.285	0.0142905
654.363	0.0144209
654.442	0.0145062
654.520	0.0144108
654.598	0.0145076
654.676	0.0146275
654.754	0.0145071
654.832	0.0144799
654.910	0.0145498
654.988	0.0146729
655.067	0.0146571
655.145	0.0147170
655.223	0.0147269
655.301	0.0148154
655.379	0.0147736
655.457	0.0147929
655.535	0.0148730
655.613	0.0148079
655.692	0.0148669
655.770	0.0148854
655.848	0.0148374
655.926	0.0147237
656.004	0.0147046
656.082	0.0148370
656.160	0.0147923
656.238	0.0148377
656.317	0.0148454
656.395	0.0150397
656.473	0.0149837
656.551	0.0150338
656.629	0.0149111
656.707	0.0150452
656.785	0.0150118
656.863	0.0149895
656.942	0.0150005
657.020	0.0150701
657.098	0.0150869
657.176	0.0150592
657.254	0.0149043
657.332	0.0150847
657.410	0.0149802
657.488	0.0149824
657.567	0.0149848
657.645	0.0147565
657.723	0.0147741
657.801	0.0147177
657.879	0.0144499
657.957	0.0145342
658.035	0.0144659
658.113	0.0143933
658.192	0.0142754
658.270	0.0140194
658.348	0.0140926
658.426	0.0139726
658.504	0.0140341
658.582	0.0140629
658.660	0.0139037
658.738	0.0138274
658.817	0.0139459
658.895	0.0138004
658.973	0.0138058
659.051	0.0139778
659.129	0.0139209
659.207	0.0140642
659.285	0.0141097
659.363	0.0140755
659.442	0.0141880
659.520	0.0142271
659.598	0.0144860
659.676	0.0145411
659.754	0.0145766
659.832	0.0145223
659.910	0.0147112
659.988	0.0147234
660.067	0.0147925
660.145	0.0146813
660.223	0.0147164
660.301	0.0148613
660.379	0.0147768
660.457	0.0148701
660.535	0.0148750
660.613	0.0146671
660.692	0.0146275
660.770	0.0146621
660.848	0.0144646
660.926	0.0146559
661.004	0.0146307
661.082	0.0145494
661.160	0.0146336
661.238	0.0145142
661.317	0.0144830
661.395	0.0143345
661.473	0.0144708
661.551	0.0144292
661.629	0.0143301
661.707	0.0142518
661.785	0.0143577
661.863	0.0144019
661.942	0.0143991
662.020	0.0143250
662.098	0.0143813
662.176	0.0144886
662.254	0.0145259
662.332	0.0145885
662.410	0.0145724
662.488	0.0147037
662.567	0.0147752
662.645	0.0146894
662.723	0.0146896
662.801	0.0148237
662.879	0.0147688
662.957	0.0147933
663.035	0.0148720
663.113	0.0147533
663.192	0.0146994
663.270	0.0148038
663.348	0.0147411
663.426	0.0147114
663.504	0.0145450
663.582	0.0145769
663.660	0.0144636
663.738	0.0144290
663.817	0.0143826
663.895	0.0144618
663.973	0.0142903
664.051	0.0141720
664.129	0.0141984
664.207	0.0142669
664.285	0.0140904
664.363	0.0139916
664.442	0.0141292
664.520	0.0141047
664.598	0.0140476
664.676	0.0139192
664.754	0.0142786
664.832	0.0141704
664.910	0.0139600
664.988	0.0140742
665.067	0.0140972
665.145	0.0139404
665.223	0.0140950
665.301	0.0141722
665.379	0.0140074
665.457	0.0141160
665.535	0.0141096
665.613	0.0141227
665.692	0.0143259
665.770	0.0142892
665.848	0.0142560
665.926	0.0144356
666.004	0.0143576
666.082	0.0145626
666.160	0.0147005
666.238	0.0147382
666.317	0.0149091
666.395	0.0148038
666.473	0.0148412
666.551	0.0148215
666.629	0.0148501
666.707	0.0149901
666.785	0.0149959
666.863	0.0149384
666.942	0.0148882
667.020	0.0148295
667.098	0.0148624
667.176	0.0146832
667.254	0.0145744
667.332	0.0145873
667.410	0.0146114
667.488	0.0144827
667.567	0.0144346
667.645	0.0143154
667.723	0.0143092
667.801	0.0143580
667.879	0.0141877
667.957	0.0143518
668.035	0.0143087
668.113	0.0143357
668.192	0.0141746
668.270	0.0140970
668.348	0.0141551
668.426	0.0142017
668.504	0.0140211
668.582	0.0142004
668.660	0.0142304
668.738	0.0142371
668.817	0.0142110
668.895	0.0142510
668.973	0.0140555
669.051	0.0141968
669.129	0.0142050
669.207	0.0141460
669.285	0.0142799
669.363	0.0143742
669.442	0.0142652
669.520	0.0144405
669.598	0.0144273
669.676	0.0144521
669.754	0.0144684
669.832	0.0143369
669.910	0.0144994
669.988	0.0144711
670.067	0.0146909
670.145	0.0146799
670.223	0.0147182
670.301	0.0148742
670.379	0.0148813
670.457	0.0148157
670.535	0.0148604
670.613	0.0148063
670.692	0.0149020
670.770	0.0149981
670.848	0.0148643
670.926	0.0150599
671.004	0.0150195
671.082	0.0149821
671.160	0.0147604
671.238	0.0148597
671.317	0.0151011
671.395	0.0150586
671.473	0.0148938
671.551	0.0149616
671.629	0.0147314
671.707	0.0146301
671.785	0.0145699
671.863	0.0144671
671.942	0.0144003
672.020	0.0143293
672.098	0.0141263
672.176	0.0140392
672.254	0.0140453
672.332	0.0139543
672.410	0.0140086
672.488	0.0140576
672.567	0.0140553
672.645	0.0140464
672.723	0.0142189
672.801	0.0142278
672.879	0.0143409
672.957	0.0144465
673.035	0.0145753
673.113	0.0147002
673.192	0.0148030
673.270	0.0148564
673.348	0.0149426
673.426	0.0151277
673.504	0.0151175
673.582	0.0151495
673.660	0.0148933
673.738	0.0152543
673.817	0.0152551
673.895	0.0150741
673.973	0.0151394
674.051	0.0150880
674.129	0.0151171
674.207	0.0149992
674.285	0.0150607
674.363	0.0150968
674.442	0.0149078
674.520	0.0147477
674.598	0.0147950
674.676	0.0148409
674.754	0.0147353
674.832	0.0147232
674.910	0.0146417
674.988	0.0147190
675.067	0.0147100
675.145	0.0146324
675.223	0.0145015
675.301	0.0144746
675.379	0.0146293
675.457	0.0145170
675.535	0.0145250
675.613	0.0144297
675.692	0.0144181
675.770	0.0145296
675.848	0.0144775
675.926	0.0143603
676.004	0.0142899
676.082	0.0142807
676.160	0.0143140
676.238	0.0144302
676.317	0.0145954
676.395	0.0145775
676.473	0.0145480
676.551	0.0145601
676.629	0.0145353
676.707	0.0144441
676.785	0.0146400
676.863	0.0147824
676.942	0.0147887
677.020	0.0148497
677.098	0.0147668
677.176	0.0148457
677.254	0.0148657
677.332	0.0150610
677.410	0.0149629
677.488	0.0150736
677.567	0.0150795
677.645	0.0150831
677.723	0.0150504
677.801	0.0149884
677.879	0.0149434
677.957	0.0150399
678.035	0.0150346
678.113	0.0148827
678.192	0.0147273
678.270	0.0148135
678.348	0.0149157
678.426	0.0147298
678.504	0.0145802
678.582	0.0145272
678.660	0.0143575
678.738	0.0142268
678.817	0.0142188
678.895	0.0141459
678.973	0.0139971
679.051	0.0140830
679.129	0.0138508
679.207	0.0136173
679.285	0.0137971
679.363	0.0138713
679.442	0.0139874
679.520	0.0138815
679.598	0.0138790
679.676	0.0139682
679.754	0.0141045
679.832	0.0141804
679.910	0.0143439
679.988	0.0143685
680.067	0.0144310
680.145	0.0146799
680.223	0.0145222
680.301	0.0147606
680.379	0.0149916
680.457	0.0148460
680.535	0.0149262
680.613	0.0149523
680.692	0.0150360
680.770	0.0150441
680.848	0.0150709
680.926	0.0152538
681.004	0.0151973
681.082	0.0151671
681.160	0.0151463
681.238	0.0150127
681.317	0.0151630
681.395	0.0152907
681.473	0.0153078
681.551	0.0152104
681.629	0.0153178
681.707	0.0154210
681.785	0.0153011
681.863	0.0150488
681.942	0.0152253
682.020	0.0150935
682.098	0.0150158
682.176	0.0148298
682.254	0.0148248
682.332	0.0146195
682.410	0.0145599
682.488	0.0144511
682.567	0.0143516
682.645	0.0140373
682.723	0.0138741
682.801	0.0137937
682.879	0.0136855
682.957	0.0136541
683.035	0.0135059
683.113	0.0134103
683.192	0.0135295
683.270	0.0133098
683.348	0.0133300
683.426	0.0133663
683.504	0.0134325
683.582	0.0134772
683.660	0.0135320
683.738	0.0137908
683.817	0.0136642
683.895	0.0138002
683.973	0.0138918
684.051	0.0140604
684.129	0.0142716
684.207	0.0143790
684.285	0.0144531
684.363	0.0145854
684.442	0.0146682
684.520	0.0146546
684.598	0.0148934
684.676	0.0150724
684.754	0.0151888
684.832	0.0152298
684.910	0.0152482
684.988	0.0153793
685.067	0.0153722
685.145	0.0157162
685.223	0.0156932
685.301	0.0156863
685.379	0.0156716
685.457	0.0156552
685.535	0.0156319
685.613	0.0155066
685.692	0.0155814
685.770	0.0153873
685.848	0.0151371
685.926	0.0150690
686.004	0.0147559
686.082	0.0145381
686.160	0.0145033
686.238	0.0142434
686.317	0.0141097
686.395	0.0140504
686.473	0.0137649
686.551	0.0137164
686.629	0.0135378
686.707	0.0135283
686.785	0.0133258
686.863	0.0134435
686.942	0.0134950
687.020	0.0136018
687.098	0.0134576
687.176	0.0136944
687.254	0.0137019
687.332	0.0136126
687.410	0.0138081
687.488	0.0138828
687.567	0.0139544
687.645	0.0141734
687.723	0.0143342
687.801	0.0143114
687.879	0.0143771
687.957	0.0145366
688.035	0.0146062
688.113	0.0146102
688.192	0.0144600
688.270	0.0146446
688.348	0.0147236
688.426	0.0146375
688.504	0.0147390
688.582	0.0149065
688.660	0.0148442
688.738	0.0147660
688.817	0.0148178
688.895	0.0149351
688.973	0.0149241
689.051	0.0149270
689.129	0.0149924
689.207	0.0150714
689.285	0.0150109
689.363	0.0149335
689.442	0.0149340
689.520	0.0148725
689.598	0.0148811
689.676	0.0149474
689.754	0.0148235
689.832	0.0148399
689.910	0.0148198
689.988	0.0148415
690.067	0.0147893
690.145	0.0146919
690.223	0.0148617
690.301	0.0147205
690.379	0.0145152
690.457	0.0145296
690.535	0.0146008
690.613	0.0143960
690.692	0.0142986
690.770	0.0143305
690.848	0.0143623
690.926	0.0145502
691.004	0.0144024
691.082	0.0142944
691.160	0.0143895
691.238	0.0144262
691.317	0.0144456
691.395	0.0145947
691.473	0.0145740
691.551	0.0144673
691.629	0.0145604
691.707	0.0146175
691.785	0.0146552
691.863	0.0146604
691.942	0.0145264
692.020	0.0146766
692.098	0.0144378
692.176	0.0142963
692.254	0.0143311
692.332	0.0143922
692.410	0.0142868
692.488	0.0142517
692.567	0.0140965
692.645	0.0139939
692.723	0.0139960
692.801	0.0139157
692.879	0.0139311
692.957	0.0139342
693.035	0.0140158
693.113	0.0142662
693.192	0.0144218
693.270	0.0143642
693.348	0.0143777
693.426	0.0144571
693.504	0.0146368
693.582	0.0147518
693.660	0.0148879
693.738	0.0149072
693.817	0.0151019
693.895	0.0151205
693.973	0.0152268
694.051	0.0152866
694.129	0.0152544
694.207	0.0153156
694.285	0.0151869
694.363	0.0151886
694.442	0.0151091
694.520	0.0151814
694.598	0.0151073
694.676	0.0152000
694.754	0.0151160
694.832	0.0151163
694.910	0.0150221
694.988	0.0150409
695.067	0.0149471
695.145	0.0150093
695.223	0.0149847
695.301	0.0151297
695.379	0.0151977
695.457	0.0150161
695.535	0.0150387
695.613	0.0150533
695.692	0.0150522
695.770	0.0150201
695.848	0.0150417
695.926	0.0148354
696.004	0.0149252
696.082	0.0147044
696.160	0.0144829
696.238	0.0143942
696.317	0.0143465
696.395	0.0141917
696.473	0.0139809
696.551	0.0139186
696.629	0.0137555
696.707	0.0137640
696.785	0.0137096
696.863	0.0135569
696.942	0.0136165
697.020	0.0135442
697.098	0.0135001
697.176	0.0136859
697.254	0.0136098
697.332	0.0137331
697.410	0.0138749
697.488	0.0137879
697.567	0.0139914
697.645	0.0141276
697.723	0.0140819
697.801	0.0144242
697.879	0.0144572
697.957	0.0145390
698.035	0.0147739
698.113	0.0148004
698.192	0.0151226
698.270	0.0151344
698.348	0.0151941
698.426	0.0153196
698.504	0.0153467
698.582	0.0156390
698.660	0.0155267
698.738	0.0156143
698.817	0.0155615
698.895	0.0155950
698.973	0.0156901
699.051	0.0156065
699.129	0.0157336
699.207	0.0156609
699.285	0.0157984
699.363	0.0158247
699.442	0.0156673
699.520	0.0157243
699.598	0.0156982
699.676	0.0155855
699.754	0.0155697
699.832	0.0152911
699.910	0.0152979
699.988	0.0151826
700.067	0.0150288
700.145	0.0149175
700.223	0.0145654
700.301	0.0145305
700.379	0.0143575
700.457	0.0142291
700.535	0.0141348
700.613	0.0140339
700.692	0.0139754
700.770	0.0137790
700.848	0.0138671
700.926	0.0137878
701.004	0.0137292
701.082	0.0137850
701.160	0.0136979
701.238	0.0136338
701.317	0.0138416
701.395	0.0138004
701.473	0.0138760
701.551	0.0139140
701.629	0.0139292
701.707	0.0139834
701.785	0.0139950
701.863	0.0141340
701.942	0.0142433
702.020	0.0143583
702.098	0.0143859
702.176	0.0144154
702.254	0.0145065
702.332	0.0146131
702.410	0.0147659
702.488	0.0148895
702.567	0.0149735
702.645	0.0150835
702.723	0.0150960
702.801	0.0152476
702.879	0.0153638
702.957	0.0154373
703.035	0.0154153
703.113	0.0154415
703.192	0.0155283
703.270	0.0156162
703.348	0.0155235
703.426	0.0156676
703.504	0.0155932
703.582	0.0155282
703.660	0.0155006
703.738	0.0152949
703.817	0.0153211
703.895	0.0151409
703.973	0.0152157
704.051	0.0152700
704.129	0.0150533
704.207	0.0149491
704.285	0.0148646
704.363	0.0147411
704.442	0.0147630
704.520	0.0145358
704.598	0.0144695
704.676	0.0144191
704.754	0.0145078
704.832	0.0143728
704.910	0.0142895
704.988	0.0142268
705.067	0.0142178
705.145	0.0143214
705.223	0.0142104
705.301	0.0141090
705.379	0.0141701
705.457	0.0142036
705.535	0.0141592
705.613	0.0142282
705.692	0.0142753
705.770	0.0141830
705.848	0.0143755
705.926	0.0144005
706.004	0.0144057
706.082	0.0144336
706.160	0.0146083
706.238	0.0145281
706.317	0.0145956
706.395	0.0146355
706.473	0.0147332
706.551	0.0145667
706.629	0.0146053
706.707	0.0147700
706.785	0.0144559
706.863	0.0145769
706.942	0.0145265
707.020	0.0145039
707.098	0.0144671
707.176	0.0146085
707.254	0.0145771
707.332	0.0144466
707.410	0.0144958
707.488	0.0144279
707.567	0.0145306
707.645	0.0144576
707.723	0.0146249
707.801	0.0145804
707.879	0.0145258
707.957	0.0145164
708.035	0.0146751
708.113	0.0147597
708.192	0.0145068
708.270	0.0146558
708.348	0.0147843
708.426	0.0146463
708.504	0.0144950
708.582	0.0145241
708.660	0.0143965
708.738	0.0144469
708.817	0.0145007
708.895	0.0145802
708.973	0.0146051
709.051	0.0144153
709.129	0.0145735
709.207	0.0144553
709.285	0.0143888
709.363	0.0143371
709.442	0.0144588
709.520	0.0143766
709.598	0.0146187
709.676	0.0146291
709.754	0.0146847
709.832	0.0147493
709.910	0.0147068
709.988	0.0146751
710.067	0.0147955
710.145	0.0146634
710.223	0.0147542
710.301	0.0147906
710.379	0.0146526
710.457	0.0145864
710.535	0.0145111
710.613	0.0147347
710.692	0.0146748
710.770	0.0144817
710.848	0.0144574
710.926	0.0145480
711.004	0.0144315
711.082	0.0144622
711.160	0.0143315
711.238	0.0142999
711.317	0.0142715
711.395	0.0143080
711.473	0.0141804
711.551	0.0141212
711.629	0.0140366
711.707	0.0141977
711.785	0.0142091
711.863	0.0140845
711.942	0.0140312
712.020	0.0141163
712.098	0.0142566
712.176	0.0141634
712.254	0.0140998
712.332	0.0142429
712.410	0.0142547
712.488	0.0141392
712.567	0.0141940
712.645	0.0142203
712.723	0.0142194
712.801	0.0141450
712.879	0.0144087
712.957	0.0145265
713.035	0.0145248
713.113	0.0144103
713.192	0.0143781
713.270	0.0144250
713.348	0.0146539
713.426	0.0146266
713.504	0.0146590
713.582	0.0145924
713.660	0.0145532
713.738	0.0146375
713.817	0.0146211
713.895	0.0148306
713.973	0.0147517
714.051	0.0146124
714.129	0.0147832
714.207	0.0147255
714.285	0.0148660
714.363	0.0148914
714.442	0.0149134
714.520	0.0149582
714.598	0.0149611
714.676	0.0149964
714.754	0.0150747
714.832	0.0150443
714.910	0.0150195
714.988	0.0152155
715.067	0.0150491
715.145	0.0149405
715.223	0.0149377
715.301	0.0148974
715.379	0.0149213
715.457	0.0146176
715.535	0.0147031
715.613	0.0146904
715.692	0.0146147
715.770	0.0146008
715.848	0.0144790
715.926	0.0145670
716.004	0.0145673
716.082	0.0143790
716.160	0.0143872
716.238	0.0146208
716.317	0.0145155
716.395	0.0145387
716.473	0.0144912
716.551	0.0144727
716.629	0.0143604
716.707	0.0144263
716.785	0.0143197
716.863	0.0144715
716.942	0.0144369
717.020	0.0143909
717.098	0.0144179
717.176	0.0145830
717.254	0.0145603
717.332	0.0145113
717.410	0.0144321
717.488	0.0146322
717.567	0.0146438
717.645	0.0145776
717.723	0.0146778
717.801	0.0146486
717.879	0.0145953
717.957	0.0146621
718.035	0.0146655
718.113	0.0145702
718.192	0.0146601
718.270	0.0145804
718.348	0.0145017
718.426	0.0146658
718.504	0.0146993
718.582	0.0145686
718.660	0.0146591
718.738	0.0147141
718.817	0.0146821
718.895	0.0146364
718.973	0.0146209
719.051	0.0147186
719.129	0.0147779
719.207	0.0147679
719.285	0.0147096
719.363	0.0147575
719.442	0.0146403
719.520	0.0147836
719.598	0.0148937
719.676	0.0148045
719.754	0.0147839
719.832	0.0148763
719.910	0.0147814
719.988	0.0148927
720.067	0.0149948
720.145	0.0150430
720.223	0.0150827
720.301	0.0150839
720.379	0.0152531
720.457	0.0150189
720.535	0.0150487
720.613	0.0149893
720.692	0.0151991
720.770	0.0151086
720.848	0.0152149
720.926	0.0151366
721.004	0.0150946
721.082	0.0151046
721.160	0.0151780
721.238	0.0150775
721.317	0.0149799
721.395	0.0150199
721.473	0.0148707
721.551	0.0149060
721.629	0.0148819
721.707	0.0147248
721.785	0.0148125
721.863	0.0147668
721.942	0.0146807
722.020	0.0145779
722.098	0.0146444
722.176	0.0146542
722.254	0.0146251
722.332	0.0145544
722.410	0.0145164
722.488	0.0146069
722.567	0.0145932
722.645	0.0144746
722.723	0.0144840
722.801	0.0143410
722.879	0.0144863
722.957	0.0144569
723.035	0.0144386
723.113	0.0143204
723.192	0.0143462
723.270	0.0142448
723.348	0.0141854
723.426	0.0142506
723.504	0.0141547
723.582	0.0139467
723.660	0.0140967
723.738	0.0142627
723.817	0.0142753
723.895	0.0141714
723.973	0.0143359
724.051	0.0143279
724.129	0.0142644
724.207	0.0143817
724.285	0.0145234
724.363	0.0145345
724.442	0.0145947
724.520	0.0145387
724.598	0.0145868
724.676	0.0144904
724.754	0.0146392
724.832	0.0145763
724.910	0.0143659
724.988	0.0145213
725.067	0.0145174
725.145	0.0145371
725.223	0.0145621
725.301	0.0145456
725.379	0.0146230
725.457	0.0144136
725.535	0.0142879
725.613	0.0144032
725.692	0.0143201
725.770	0.0144138
725.848	0.0143410
725.926	0.0141708
726.004	0.0142403
726.082	0.0143780
726.160	0.0143034
726.238	0.0145126
726.317	0.0145121
726.395	0.0143504
726.473	0.0144050
726.551	0.0145103
726.629	0.0144666
726.707	0.0145145
726.785	0.0144022
726.863	0.0145114
726.942	0.0143690
727.020	0.0143513
727.098	0.0144605
727.176	0.0144077
727.254	0.0143859
727.332	0.0144431
727.410	0.0142484
727.488	0.0143875
727.567	0.0144707
727.645	0.0142611
727.723	0.0143182
727.801	0.0143911
727.879	0.0145056
727.957	0.0143417
728.035	0.0144110
728.113	0.0145547
728.192	0.0144779
728.270	0.0146003
728.348	0.0144640
728.426	0.0146641
728.504	0.0147895
728.582	0.0147520
728.660	0.0148052
728.738	0.0147445
728.817	0.0147295
728.895	0.0147791
728.973	0.0147874
729.051	0.0147718
729.129	0.0148031
729.207	0.0147073
729.285	0.0146815
729.363	0.0147247
729.442	0.0148938
729.520	0.0148761
729.598	0.0148365
729.676	0.0146123
729.754	0.0148627
729.832	0.0148322
729.910	0.0149847
729.988	0.0150571
730.067	0.0150326
730.145	0.0150962
730.223	0.0149583
730.301	0.0151074
730.379	0.0148321
730.457	0.0149440
730.535	0.0151291
730.613	0.0150591
730.692	0.0148421
730.770	0.0149238
730.848	0.0148654
730.926	0.0148236
731.004	0.0146794
731.082	0.0146778
731.160	0.0147710
731.238	0.0146754
731.317	0.0145409
731.395	0.0145470
731.473	0.0145230
731.551	0.0143484
731.629	0.0143653
731.707	0.0144086
731.785	0.0143256
731.863	0.0143434
731.942	0.0142728
732.020	0.0143881
732.098	0.0144831
732.176	0.0143269
732.254	0.0143755
732.332	0.0144097
732.410	0.0144086
732.488	0.0144100
732.567	0.0143782
732.645	0.0144032
732.723	0.0144169
732.801	0.0144112
732.879	0.0143513
732.957	0.0143874
733.035	0.0143867
733.113	0.0143254
733.192	0.0143791
733.270	0.0144686
733.348	0.0144417
733.426	0.0143420
733.504	0.0144735
733.582	0.0144397
733.660	0.0143542
733.738	0.0143734
733.817	0.0144002
733.895	0.0143566
733.973	0.0144698
734.051	0.0145399
734.129	0.0144530
734.207	0.0145039
734.285	0.0145319
734.363	0.0145171
734.442	0.0145301
734.520	0.0143277
734.598	0.0145197
734.676	0.0145541
734.754	0.0144546
734.832	0.0144719
734.910	0.0145323
734.988	0.0145557
735.067	0.0143953
735.145	0.0144911
735.223	0.0145142
735.301	0.0144228
735.379	0.0145348
735.457	0.0144827
735.535	0.0146107
735.613	0.0145440
735.692	0.0146322
735.770	0.0144457
735.848	0.0144929
735.926	0.0145905
736.004	0.0145631
736.082	0.0145131
736.160	0.0146005
736.238	0.0145587
736.317	0.0144804
736.395	0.0144632
736.473	0.0143359
736.551	0.0144189
736.629	0.0144958
736.707	0.0143594
736.785	0.0143685
736.863	0.0144736
736.942	0.0144555
737.020	0.0144607
737.098	0.0143437
737.176	0.0143802
737.254	0.0145210
737.332	0.0144708
737.410	0.0146277
737.488	0.0147662
737.567	0.0145472
737.645	0.0146664
737.723	0.0147209
737.801	0.0147029
737.879	0.0146892
737.957	0.0147375
738.035	0.0148726
738.113	0.0146979
738.192	0.0147740
738.270	0.0148606
738.348	0.0148438
738.426	0.0148805
738.504	0.0148469
738.582	0.0146724
738.660	0.0147479
738.738	0.0146367
738.817	0.0147431
738.895	0.0145667
738.973	0.0147421
739.051	0.0147331
739.129	0.0147472
739.207	0.0146583
739.285	0.0146072
739.363	0.0146741
739.442	0.0146931
739.520	0.0146474
739.598	0.0147993
739.676	0.0146977
739.754	0.0147225
739.832	0.0145631
739.910	0.0147039
739.988	0.0146304
740.067	0.0146082
740.145	0.0146082
740.223	0.0145280
740.301	0.0146238
740.379	0.0145934
740.457	0.0145493
740.535	0.0144447
740.613	0.0142430
740.692	0.0144007
740.770	0.0144655
740.848	0.0144360
740.926	0.0143658
741.004	0.0143471
741.082	0.0142718
741.160	0.0143863
741.238	0.0143471
741.317	0.0143002
741.395	0.0144584
741.473	0.0144312
741.551	0.0143861
741.629	0.0143977
741.707	0.0144798
741.785	0.0145423
741.863	0.0145140
741.942	0.0146156
742.020	0.0146754
742.098	0.0144907
742.176	0.0145931
742.254	0.0145958
742.332	0.0146692
742.410	0.0146452
742.488	0.0146266
742.567	0.0147115
742.645	0.0146420
742.723	0.0145443
742.801	0.0146569
742.879	0.0148429
742.957	0.0146705
743.035	0.0147305
743.113	0.0146996
743.192	0.0147592
743.270	0.0147591
743.348	0.0146571
743.426	0.0145174
743.504	0.0147627
743.582	0.0147581
743.660	0.0147273
743.738	0.0146523
743.817	0.0146831
743.895	0.0147503
743.973	0.0147453
744.051	0.0145967
744.129	0.0147907
744.207	0.0147285
744.285	0.0146970
744.363	0.0147997
744.442	0.0148154
744.520	0.0146293
744.598	0.0146474
744.676	0.0147430
744.754	0.0148041
744.832	0.0147697
744.910	0.0147712
744.988	0.0148003
745.067	0.0148170
745.145	0.0147801
745.223	0.0147303
745.301	0.0147675
745.379	0.0146642
745.457	0.0147652
745.535	0.0148624
745.613	0.0145891
745.692	0.0146954
745.770	0.0147802
745.848	0.0147526
745.926	0.0146162
746.004	0.0145705
746.082	0.0146384
746.160	0.0146024
746.238	0.0145838
746.317	0.0143362
746.395	0.0144729
746.473	0.0144659
746.551	0.0143940
746.629	0.0143619
746.707	0.0143600
746.785	0.0144239
746.863	0.0143740
746.942	0.0142110
747.020	0.0144423
747.098	0.0143237
747.176	0.0144283
747.254	0.0144244
747.332	0.0145793
747.410	0.0144475
747.488	0.0144897
747.567	0.0144669
747.645	0.0143997
747.723	0.0145605
747.801	0.0145282
747.879	0.0146391
747.957	0.0144135
748.035	0.0145608
748.113	0.0145768
748.192	0.0144541
748.270	0.0145290
748.348	0.0146264
748.426	0.0143956
748.504	0.0144039
748.582	0.0145202
748.660	0.0143275
748.738	0.0144150
748.817	0.0144221
748.895	0.0143518
748.973	0.0144843
749.051	0.0145337
749.129	0.0144654
749.207	0.0144254
749.285	0.0144781
749.363	0.0146124
749.442	0.0145984
749.520	0.0146180
749.598	0.0145851
749.676	0.0145954
749.754	0.0147760
749.832	0.0149112
749.910	0.0147298
749.988	0.0146947
750.067	0.0148041
750.145	0.0146252
750.223	0.0149070
750.301	0.0148908
750.379	0.0147871
750.457	0.0147927
750.535	0.0147748
750.613	0.0149080
750.692	0.0146294
750.770	0.0145961
750.848	0.0145664
750.926	0.0146584
751.004	0.0147101
751.082	0.0146730
751.160	0.0145715
751.238	0.0146607
751.317	0.0145601
751.395	0.0146123
751.473	0.0145335
751.551	0.0146996
751.629	0.0145856
751.707	0.0144533
751.785	0.0145055
751.863	0.0146051
751.942	0.0146948
752.020	0.0144674
752.098	0.0145702
752.176	0.0144439
752.254	0.0146059
752.332	0.0144902
752.410	0.0146200
752.488	0.0145481
752.567	0.0145434
752.645	0.0144793
752.723	0.0143761
752.801	0.0143185
752.879	0.0143781
752.957	0.0143478
753.035	0.0144395
753.113	0.0145986
753.192	0.0144346
753.270	0.0143871
753.348	0.0144442
753.426	0.0144177
753.504	0.0143392
753.582	0.0145627
753.660	0.0144506
753.738	0.0142890
753.817	0.0144388
753.895	0.0143744
753.973	0.0143665
754.051	0.0142859
754.129	0.0142770
754.207	0.0143694
754.285	0.0142082
754.363	0.0143813
754.442	0.0143402
754.520	0.0142090
754.598	0.0142769
754.676	0.0144006
754.754	0.0143692
754.832	0.0142542
754.910	0.0143299
754.988	0.0144297
755.067	0.0143654
755.145	0.0143305
755.223	0.0143858
755.301	0.0144940
755.379	0.0144621
755.457	0.0143578
755.535	0.0144163
755.613	0.0145408
755.692	0.0144571
755.770	0.0143528
755.848	0.0144725
755.926	0.0144142
756.004	0.0144977
756.082	0.0144678
756.160	0.0142864
756.238	0.0144097
756.317	0.0143336
756.395	0.0143839
756.473	0.0144433
756.551	0.0144517
756.629	0.0144229
756.707	0.0143442
756.785	0.0141693
756.863	0.0144994
756.942	0.0143964
757.020	0.0144167
757.098	0.0143379
757.176	0.0143374
757.254	0.0144164
757.332	0.0142772
757.410	0.0143954
757.488	0.0146013
757.567	0.0144035
757.645	0.0143903
757.723	0.0145001
757.801	0.0144363
757.879	0.0144276
757.957	0.0145132
758.035	0.0145376
758.113	0.0144141
758.192	0.0143882
758.270	0.0144051
758.348	0.0143803
758.426	0.0144919
758.504	0.0143857
758.582	0.0143004
758.660	0.0144453
758.738	0.0142905
758.817	0.0143593
758.895	0.0144058
758.973	0.0145049
759.051	0.0144333
759.129	0.0145497
759.207	0.0145529
759.285	0.0145910
759.363	0.0145818
759.442	0.0147018
759.520	0.0145526
759.598	0.0146671
759.676	0.0147177
759.754	0.0146474
759.832	0.0147466
759.910	0.0147639
759.988	0.0147047
760.067	0.0148193
760.145	0.0148196
760.223	0.0148281
760.301	0.0147630
760.379	0.0147561
760.457	0.0147447
760.535	0.0146973
760.613	0.0145907
760.692	0.0147993
760.770	0.0147104
760.848	0.0146297
760.926	0.0146965
761.004	0.0146376
761.082	0.0145410
761.160	0.0146145
761.238	0.0146964
761.317	0.0146281
761.395	0.0146490
761.473	0.0146562
761.551	0.0146257
761.629	0.0147984
761.707	0.0147942
761.785	0.0146432
761.863	0.0147390
761.942	0.0147120
762.020	0.0147609
762.098	0.0148874
762.176	0.0147466
762.254	0.0148249
762.332	0.0148688
762.410	0.0147668
762.488	0.0148102
762.567	0.0149923
762.645	0.0149878
762.723	0.0148873
762.801	0.0150294
762.879	0.0150448
762.957	0.0148689
763.035	0.0149429
763.113	0.0150012
763.192	0.0149356
763.270	0.0149664
763.348	0.0149892
763.426	0.0148358
763.504	0.0147976
763.582	0.0148770
763.660	0.0147676
763.738	0.0148702
763.817	0.0148254
763.895	0.0147219
763.973	0.0147515
764.051	0.0148319
764.129	0.0146193
764.207	0.0145598
764.285	0.0146558
764.363	0.0146810
764.442	0.0146170
764.520	0.0144785
764.598	0.0144736
764.676	0.0146103
764.754	0.0145296
764.832	0.0145354
764.910	0.0145271
764.988	0.0145401
765.067	0.0143510
765.145	0.0144951
765.223	0.0143874
765.301	0.0144563
765.379	0.0144572
765.457	0.0143500
765.535	0.0143327
765.613	0.0143592
765.692	0.0144230
765.770	0.0142914
765.848	0.0143439
765.926	0.0142706
766.004	0.0142748
766.082	0.0143150
766.160	0.0143583
766.238	0.0143527
766.317	0.0143195
766.395	0.0144374
766.473	0.0143877
766.551	0.0143807
766.629	0.0144288
766.707	0.0144978
766.785	0.0143918
766.863	0.0143793
766.942	0.0145848
767.020	0.0145612
767.098	0.0145232
767.176	0.0143478
767.254	0.0145789
767.332	0.0145387
767.410	0.0144634
767.488	0.0145029
767.567	0.0145705
767.645	0.0145556
767.723	0.0146760
767.801	0.0145963
767.879	0.0145097
767.957	0.0146774
768.035	0.0146309
768.113	0.0148138
768.192	0.0146524
768.270	0.0146833
768.348	0.0148508
768.426	0.0148262
768.504	0.0149733
768.582	0.0148984
768.660	0.0147858
768.738	0.0147531
768.817	0.0146371
768.895	0.0146837
768.973	0.0146250
769.051	0.0146902
769.129	0.0147645
769.207	0.0146962
769.285	0.0145574
769.363	0.0145923
769.442	0.0145908
769.520	0.0145233
769.598	0.0147953
769.676	0.0146749
769.754	0.0145966
769.832	0.0145320
769.910	0.0145875
769.988	0.0144960
770.067	0.0145113
770.145	0.0146362
770.223	0.0145196
770.301	0.0144620
770.379	0.0146077
770.457	0.0144835
770.535	0.0145701
770.613	0.0145586
770.692	0.0145297
770.770	0.0145081
770.848	0.0145409
770.926	0.0144229
771.004	0.0146062
771.082	0.0146439
771.160	0.0146085
771.238	0.0145275
771.317	0.0144039
771.395	0.0146271
771.473	0.0147553
771.551	0.0147310
771.629	0.0145385
771.707	0.0145781
771.785	0.0146986
771.863	0.0147266
771.942	0.0144217
772.020	0.0146593
772.098	0.0147057
772.176	0.0146883
772.254	0.0146419
772.332	0.0145374
772.410	0.0146086
772.488	0.0146240
772.567	0.0144806
772.645	0.0145259
772.723	0.0147126
772.801	0.0146892
772.879	0.0146503
772.957	0.0147123
773.035	0.0147161
773.113	0.0146563
773.192	0.0147047
773.270	0.0147918
773.348	0.0145614
773.426	0.0146487
773.504	0.0147770
773.582	0.0147205
773.660	0.0146729
773.738	0.0149328
773.817	0.0148019
773.895	0.0147983
773.973	0.0146732
774.051	0.0146867
774.129	0.0147746
774.207	0.0146700
774.285	0.0147205
774.363	0.0146811
774.442	0.0146644
774.520	0.0145219
774.598	0.0145225
774.676	0.0146557
774.754	0.0145572
774.832	0.0146215
774.910	0.0145166
774.988	0.0144543
775.067	0.0144858
775.145	0.0143897
775.223	0.0143995
775.301	0.0144588
775.379	0.0144666
775.457	0.0143626
775.535	0.0143412
775.613	0.0144305
775.692	0.0144748
775.770	0.0144976
775.848	0.0145466
775.926	0.0144994
776.004	0.0144262
776.082	0.0146729
776.160	0.0146240
776.238	0.0146615
776.317	0.0146474
776.395	0.0146777
776.473	0.0146428
776.551	0.0146706
776.629	0.0146400
776.707	0.0147818
776.785	0.0147131
776.863	0.0147604
776.942	0.0147532
777.020	0.0146467
777.098	0.0147395
777.176	0.0146599
777.254	0.0147367
777.332	0.0145878
777.410	0.0146346
777.488	0.0145985
777.567	0.0146175
777.645	0.0146734
777.723	0.0145609
777.801	0.0145499
777.879	0.0145213
777.957	0.0145061
778.035	0.0145600
778.113	0.0146321
778.192	0.0145100
778.270	0.0145307
778.348	0.0145551
778.426	0.0143108
778.504	0.0144070
778.582	0.0143488
778.660	0.0145525
778.738	0.0144467
778.817	0.0144895
778.895	0.0144926
778.973	0.0143515
779.051	0.0144504
779.129	0.0145411
779.207	0.0144682
779.285	0.0144492
779.363	0.0145307
779.442	0.0144907
779.520	0.0145347
779.598	0.0144496
779.676	0.0145262
779.754	0.0143931
779.832	0.0146826
779.910	0.0143941
779.988	0.0144717
780.067	0.0145609
780.145	0.0144605
780.223	0.0145296
780.301	0.0145280
780.379	0.0145715
780.457	0.0145746
780.535	0.0145625
780.613	0.0145890
780.692	0.0145261
780.770	0.0145490
780.848	0.0147198
780.926	0.0145885
781.004	0.0146803
781.082	0.0145547
781.160	0.0145500
781.238	0.0146922
781.317	0.0147926
781.395	0.0147526
781.473	0.0146278
781.551	0.0145919
781.629	0.0148029
781.707	0.0147028
781.785	0.0146941
781.863	0.0147002
781.942	0.0148958
782.020	0.0149210
782.098	0.0146893
782.176	0.0147001
782.254	0.0147533
782.332	0.0148806
782.410	0.0147178
782.488	0.0146017
782.567	0.0146942
782.645	0.0146132
782.723	0.0146584
782.801	0.0147448
782.879	0.0145868
782.957	0.0145620
783.035	0.0147051
783.113	0.0145931
783.192	0.0146095
783.270	0.0144793
783.348	0.0144677
783.426	0.0144797
783.504	0.0144627
783.582	0.0144101
783.660	0.0144960
783.738	0.0144404
783.817	0.0145142
783.895	0.0144695
783.973	0.0144097
784.051	0.0143962
784.129	0.0142961
784.207	0.0145107
784.285	0.0145624
784.363	0.0145499
784.442	0.0145000
784.520	0.0144567
784.598	0.0146048
784.676	0.0145726
784.754	0.0148137
784.832	0.0146779
784.910	0.0146706
784.988	0.0148291
785.067	0.0147287
785.145	0.0148163
785.223	0.0146571
785.301	0.0147697
785.379	0.0148181
785.457	0.0147282
785.535	0.0146665
785.613	0.0147452
785.692	0.0146655
785.770	0.0146049
785.848	0.0144855
785.926	0.0143839
786.004	0.0144914
786.082	0.0144598
786.160	0.0144241
786.238	0.0143169
786.317	0.0143889
786.395	0.0143314
786.473	0.0144727
786.551	0.0144332
786.629	0.0143180
786.707	0.0142624
786.785	0.0142415
786.863	0.0143705
786.942	0.0141874
787.020	0.0143328
787.098	0.0142918
787.176	0.0143281
787.254	0.0143363
787.332	0.0143637
787.410	0.0143166
787.488	0.0143347
787.567	0.0144544
787.645	0.0144951
787.723	0.0144619
787.801	0.0144624
787.879	0.0145053
787.957	0.0145735
788.035	0.0143887
788.113	0.0144083
788.192	0.0145255
788.270	0.0146345
788.348	0.0147461
788.426	0.0147511
788.504	0.0147412
788.582	0.0147128
788.660	0.0145954
788.738	0.0147120
788.817	0.0147128
788.895	0.0146305
788.973	0.0146551
789.051	0.0146023
789.129	0.0147980
789.207	0.0147074
789.285	0.0147404
789.363	0.0147351
789.442	0.0145770
789.520	0.0148460
789.598	0.0147542
789.676	0.0146745
789.754	0.0147189
789.832	0.0147054
789.910	0.0146569
789.988	0.0147295
790.067	0.0148066
790.145	0.0147678
790.223	0.0148117
790.301	0.0148284
790.379	0.0146415
790.457	0.0147874
790.535	0.0147600
790.613	0.0149125
790.692	0.0147298
790.770	0.0147040
790.848	0.0148614
790.926	0.0146584
791.004	0.0148225
791.082	0.0148217
791.160	0.0147891
791.238	0.0147637
791.317	0.0147977
791.395	0.0147111
791.473	0.0147485
791.551	0.0147672
791.629	0.0146375
791.707	0.0146929
791.785	0.0145890
791.863	0.0146642
791.942	0.0146681
792.020	0.0147925
792.098	0.0146953
792.176	0.0148476
792.254	0.0146240
792.332	0.0146944
792.410	0.0147346
792.488	0.0146551
792.567	0.0147215
792.645	0.0147167
792.723	0.0148143
792.801	0.0145979
792.879	0.0146695
792.957	0.0146360
793.035	0.0147377
793.113	0.0147441
793.192	0.0146590
793.270	0.0146503
793.348	0.0145100
793.426	0.0144678
793.504	0.0145561
793.582	0.0146544
793.660	0.0147704
793.738	0.0145248
793.817	0.0145964
793.895	0.0145618
793.973	0.0146802
794.051	0.0146293
794.129	0.0145413
794.207	0.0144845
794.285	0.0143414
794.363	0.0145641
794.442	0.0144862
794.520	0.0144440
794.598	0.0145411
794.676	0.0144181
794.754	0.0145702
794.832	0.0144371
794.910	0.0143472
794.988	0.0145927
795.067	0.0146286
795.145	0.0146493
795.223	0.0145654
795.301	0.0145167
795.379	0.0146313
795.457	0.0146571
795.535	0.0147530
795.613	0.0146065
795.692	0.0145914
795.770	0.0147250
795.848	0.0146886
795.926	0.0147003
796.004	0.0146310
796.082	0.0146519
796.160	0.0147577
796.238	0.0147562
796.317	0.0145825
796.395	0.0146438
796.473	0.0145918
796.551	0.0146250
796.629	0.0145851
796.707	0.0146691
796.785	0.0147005
796.863	0.0145532
796.942	0.0147458
797.020	0.0146457
797.098	0.0147817
797.176	0.0145507
797.254	0.0146156
797.332	0.0145404
797.410	0.0145840
797.488	0.0145038
797.567	0.0144263
797.645	0.0144103
797.723	0.0145321
797.801	0.0144581
797.879	0.0144726
797.957	0.0143959
798.035	0.0144075
798.113	0.0144417
798.192	0.0144379
798.270	0.0145540
798.348	0.0145735
798.426	0.0144824
798.504	0.0144987
798.582	0.0145862
798.660	0.0145156
798.738	0.0145271
798.817	0.0146498
798.895	0.0146717
798.973	0.0145788
799.051	0.0148059
799.129	0.0146645
799.207	0.0146377
799.285	0.0145836
799.363	0.0148344
799.442	0.0147501
799.520	0.0146373
799.598	0.0145887
799.676	0.0147044
799.754	0.0146680
799.832	0.0146817
799.910	0.0147286
799.988	0.0147363
800.067	0.0146412
800.145	0.0147364
800.223	0.0146920
800.301	0.0146336
800.379	0.0147363
800.457	0.0148280
800.535	0.0147312
800.613	0.0147184
800.692	0.0146733
800.770	0.0146030
800.848	0.0148082
800.926	0.0147310
801.004	0.0146687
801.082	0.0146712
801.160	0.0146305
801.238	0.0145602
801.317	0.0146227
801.395	0.0144595
801.473	0.0145190
801.551	0.0145696
801.629	0.0143575
801.707	0.0146012
801.785	0.0144895
801.863	0.0143545
801.942	0.0143762
802.020	0.0144055
802.098	0.0144869
802.176	0.0143235
802.254	0.0143911
802.332	0.0145381
802.410	0.0143176
802.488	0.0145278
802.567	0.0144817
802.645	0.0145318
802.723	0.0144452
802.801	0.0146098
802.879	0.0145230
802.957	0.0145795
803.035	0.0145200
803.113	0.0144637
803.192	0.0146265
803.270	0.0146226
803.348	0.0146037
803.426	0.0147207
803.504	0.0146536
803.582	0.0146682
803.660	0.0148567
803.738	0.0146986
803.817	0.0148100
803.895	0.0147016
803.973	0.0148102
804.051	0.0148367
804.129	0.0148425
804.207	0.0148461
804.285	0.0150195
804.363	0.0149834
804.442	0.0149359
804.520	0.0149008
804.598	0.0148611
804.676	0.0149028
804.754	0.0149000
804.832	0.0147932
804.910	0.0147919
804.988	0.0148592
805.067	0.0149117
805.145	0.0147233
805.223	0.0147001
805.301	0.0147681
805.379	0.0146519
805.457	0.0147562
805.535	0.0147231
805.613	0.0148224
805.692	0.0148052
805.770	0.0145639
805.848	0.0147622
805.926	0.0146931
806.004	0.0145643
806.082	0.0145884
806.160	0.0147549
806.238	0.0146973
806.317	0.0145660
806.395	0.0147012
806.473	0.0146487
806.551	0.0145583
806.629	0.0145444
806.707	0.0145628
806.785	0.0144969
806.863	0.0146671
806.942	0.0145398
807.020	0.0145300
807.098	0.0144283
807.176	0.0147098
807.254	0.0144897
807.332	0.0144942
807.410	0.0144983
807.488	0.0145415
807.567	0.0144659
807.645	0.0144241
807.723	0.0145950
807.801	0.0144411
807.879	0.0144247
807.957	0.0144443
808.035	0.0143745
808.113	0.0143073
808.192	0.0142672
808.270	0.0143658
808.348	0.0145001
808.426	0.0142691
808.504	0.0144486
808.582	0.0144473
808.660	0.0142935
808.738	0.0143027
808.817	0.0143315
808.895	0.0143523
808.973	0.0144067
809.051	0.0143124
809.129	0.0142741
809.207	0.0143723
809.285	0.0144659
809.363	0.0144492
809.442	0.0143824
809.520	0.0145206
809.598	0.0144978
809.676	0.0143748
809.754	0.0144406
809.832	0.0144035
809.910	0.0143095
809.988	0.0143130
810.067	0.0143082
810.145	0.0143918
810.223	0.0143906
810.301	0.0143646
810.379	0.0143814
810.457	0.0142670
810.535	0.0144306
810.613	0.0145499
810.692	0.0144431
810.770	0.0143997
810.848	0.0142638
810.926	0.0142925
811.004	0.0144676
811.082	0.0144923
811.160	0.0144496
811.238	0.0145007
811.317	0.0143963
811.395	0.0142809
811.473	0.0144312
811.551	0.0144292
811.629	0.0143102
811.707	0.0144775
811.785	0.0144058
811.863	0.0143105
811.942	0.0144487
812.020	0.0144722
812.098	0.0143513
812.176	0.0143781
812.254	0.0145433
812.332	0.0144115
812.410	0.0144933
812.488	0.0144913
812.567	0.0146426
812.645	0.0146559
812.723	0.0145731
812.801	0.0145028
812.879	0.0146088
812.957	0.0146195
813.035	0.0146174
813.113	0.0145088
813.192	0.0144349
813.270	0.0144904
813.348	0.0146350
813.426	0.0145896
813.504	0.0144668
813.582	0.0145088
813.660	0.0144410
813.738	0.0144395
813.817	0.0144747
813.895	0.0145612
813.973	0.0144632
814.051	0.0144891
814.129	0.0144997
814.207	0.0143475
814.285	0.0143995
814.363	0.0144838
814.442	0.0144238
814.520	0.0143251
814.598	0.0142529
814.676	0.0143618
814.754	0.0144750
814.832	0.0144482
814.910	0.0144637
814.988	0.0145459
815.067	0.0142926
815.145	0.0144313
815.223	0.0145039
815.301	0.0146171
815.379	0.0145374
815.457	0.0144917
815.535	0.0145370
815.613	0.0144906
815.692	0.0143850
815.770	0.0145383
815.848	0.0145737
815.926	0.0145738
816.004	0.0146101
816.082	0.0146037
816.160	0.0145399
816.238	0.0146087
816.317	0.0146878
816.395	0.0146272
816.473	0.0146037
816.551	0.0145792
816.629	0.0145187
816.707	0.0146268
816.785	0.0145815
816.863	0.0144820
816.942	0.0144631
817.020	0.0144711
817.098	0.0144926
817.176	0.0145116
817.254	0.0145194
817.332	0.0144814
817.410	0.0145688
817.488	0.0144894
817.567	0.0143790
817.645	0.0145372
817.723	0.0144884
817.801	0.0144650
817.879	0.0143678
817.957	0.0144762
818.035	0.0146518
818.113	0.0143832
818.192	0.0145398
818.270	0.0145219
818.348	0.0144688
818.426	0.0145692
818.504	0.0146033
818.582	0.0146020
818.660	0.0145287
818.738	0.0144198
818.817	0.0144626
818.895	0.0146292
818.973	0.0146358
819.051	0.0146186
819.129	0.0146799
819.207	0.0145649
819.285	0.0144908
819.363	0.0145845
819.442	0.0146381
819.520	0.0147541
819.598	0.0145722
819.676	0.0145569
819.754	0.0145569
819.832	0.0145444
819.910	0.0144350
819.988	0.0145705
820.067	0.0146205
820.145	0.0144692
820.223	0.0144852
820.301	0.0143580
820.379	0.0145700
820.457	0.0145415
820.535	0.0145276
820.613	0.0144501
820.692	0.0145741
820.770	0.0146326
820.848	0.0144021
820.926	0.0145714
821.004	0.0145088
821.082	0.0143762
821.160	0.0145210
821.238	0.0145435
821.317	0.0144457
821.395	0.0144046
821.473	0.0143343
821.551	0.0144869
821.629	0.0144815
821.707	0.0144670
821.785	0.0144120
821.863	0.0143314
821.942	0.0144656
822.020	0.0144279
822.098	0.0143742
822.176	0.0144936
822.254	0.0145219
822.332	0.0142731
822.410	0.0145149
822.488	0.0145871
822.567	0.0145125
822.645	0.0144409
822.723	0.0143445
822.801	0.0143845
822.879	0.0144284
822.957	0.0145022
823.035	0.0145375
823.113	0.0144080
823.192	0.0143327
823.270	0.0145648
823.348	0.0146013
823.426	0.0145621
823.504	0.0145972
823.582	0.0145625
823.660	0.0144449
823.738	0.0146458
823.817	0.0143847
823.895	0.0145821
823.973	0.0145097
824.051	0.0144797
824.129	0.0144756
824.207	0.0146649
824.285	0.0144859
824.363	0.0145987
824.442	0.0146396
824.520	0.0145505
824.598	0.0144860
824.676	0.0143746
824.754	0.0145372
824.832	0.0145107
824.910	0.0145540
824.988	0.0144691
825.067	0.0146184
825.145	0.0147124
825.223	0.0146060
825.301	0.0144238
825.379	0.0144713
825.457	0.0144656
825.535	0.0146633
825.613	0.0146193
825.692	0.0147411
825.770	0.0145175
825.848	0.0145348
825.926	0.0146377
826.004	0.0147535
826.082	0.0147084
826.160	0.0147215
826.238	0.0147437
826.317	0.0146013
826.395	0.0147677
826.473	0.0147529
826.551	0.0147898
826.629	0.0148141
826.707	0.0146897
826.785	0.0148257
826.863	0.0146590
826.942	0.0148104
827.020	0.0147465
827.098	0.0148177
827.176	0.0146806
827.254	0.0148427
827.332	0.0147951
827.410	0.0148592
827.488	0.0148083
827.567	0.0148811
827.645	0.0146929
827.723	0.0147765
827.801	0.0149490
827.879	0.0148669
827.957	0.0148678
828.035	0.0148179
828.113	0.0147545
828.192	0.0148644
828.270	0.0148139
828.348	0.0147163
828.426	0.0147257
828.504	0.0148701
828.582	0.0147791
828.660	0.0148099
828.738	0.0147211
828.817	0.0146232
828.895	0.0146104
828.973	0.0147051
829.051	0.0147972
829.129	0.0145469
829.207	0.0145433
829.285	0.0146122
829.363	0.0145722
829.442	0.0145862
829.520	0.0145808
829.598	0.0145912
829.676	0.0144659
829.754	0.0145268
829.832	0.0144159
829.910	0.0145278
829.988	0.0145712
830.067	0.0144167
830.145	0.0144447
830.223	0.0143547
830.301	0.0143441
830.379	0.0145254
830.457	0.0143209
830.535	0.0144213
830.613	0.0144296
830.692	0.0143168
830.770	0.0143903
830.848	0.0143956
830.926	0.0142734
831.004	0.0143663
831.082	0.0142384
831.160	0.0144044
831.238	0.0143034
831.317	0.0143157
831.395	0.0144128
831.473	0.0143822
831.551	0.0143501
831.629	0.0143156
831.707	0.0143623
831.785	0.0143513
831.863	0.0144431
831.942	0.0144930
832.020	0.0143687
832.098	0.0143241
832.176	0.0141996
832.254	0.0144688
832.332	0.0144634
832.410	0.0144689
832.488	0.0144653
832.567	0.0144971
832.645	0.0143768
832.723	0.0144798
832.801	0.0145927
832.879	0.0144997
832.957	0.0143561
833.035	0.0145050
833.113	0.0145164
833.192	0.0143659
833.270	0.0144495
833.348	0.0145101
833.426	0.0144287
833.504	0.0142988
833.582	0.0144830
833.660	0.0144482
833.738	0.0143375
833.817	0.0145559
833.895	0.0144232
833.973	0.0144160
834.051	0.0143844
834.129	0.0144975
834.207	0.0144619
834.285	0.0145010
834.363	0.0143172
834.442	0.0144184
834.520	0.0144621
834.598	0.0144498
834.676	0.0144991
834.754	0.0145877
834.832	0.0146640
834.910	0.0144061
834.988	0.0146262
835.067	0.0144727
835.145	0.0145343
835.223	0.0145177
835.301	0.0146387
835.379	0.0146140
835.457	0.0146100
835.535	0.0145741
835.613	0.0146023
835.692	0.0146590
835.770	0.0144809
835.848	0.0145169
835.926	0.0146013
836.004	0.0144851
836.082	0.0146046
836.160	0.0147224
836.238	0.0145476
836.317	0.0143864
836.395	0.0144933
836.473	0.0145251
836.551	0.0144949
836.629	0.0144920
836.707	0.0146209
836.785	0.0145068
836.863	0.0144902
836.942	0.0145152
837.020	0.0143728
837.098	0.0145407
837.176	0.0146162
837.254	0.0144641
837.332	0.0145671
837.410	0.0145809
837.488	0.0145827
837.567	0.0146754
837.645	0.0145243
837.723	0.0145808
837.801	0.0145974
837.879	0.0145161
837.957	0.0147664
838.035	0.0147035
838.113	0.0144949
838.192	0.0145969
838.270	0.0145618
838.348	0.0144727
838.426	0.0143714
838.504	0.0144295
838.582	0.0145260
838.660	0.0147187
838.738	0.0146331
838.817	0.0144881
838.895	0.0145334
838.973	0.0144572
839.051	0.0144961
839.129	0.0146320
839.207	0.0145782
839.285	0.0144866
839.363	0.0145884
839.442	0.0145325
839.520	0.0145136
839.598	0.0145764
839.676	0.0145838
839.754	0.0145403
839.832	0.0146593
839.910	0.0145849
839.988	0.0143999
840.067	0.0145297
840.145	0.0145126
840.223	0.0144738
840.301	0.0143264
840.379	0.0144917
840.457	0.0145806
840.535	0.0143844
840.613	0.0145831
840.692	0.0144037
840.770	0.0144463
840.848	0.0144723
840.926	0.0144881
841.004	0.0145832
841.082	0.0143421
841.160	0.0145066
841.238	0.0144411
841.317	0.0143836
841.395	0.0144925
841.473	0.0145958
841.551	0.0146201
841.629	0.0146212
841.707	0.0144598
841.785	0.0145435
841.863	0.0144577
841.942	0.0145540
842.020	0.0147427
842.098	0.0146584
842.176	0.0146249
842.254	0.0144864
842.332	0.0145618
842.410	0.0146268
842.488	0.0145859
842.567	0.0145992
842.645	0.0145456
842.723	0.0145515
842.801	0.0145543
842.879	0.0145047
842.957	0.0145838
843.035	0.0145986
843.113	0.0145009
843.192	0.0146904
843.270	0.0145926
843.348	0.0146627
843.426	0.0145467
843.504	0.0146490
843.582	0.0146353
843.660	0.0145090
843.738	0.0146056
843.817	0.0145724
843.895	0.0146532
843.973	0.0146025
844.051	0.0146004
844.129	0.0144082
844.207	0.0143936
844.285	0.0144840
844.363	0.0145925
844.442	0.0144954
844.520	0.0144247
844.598	0.0143965
844.676	0.0143594
844.754	0.0144174
844.832	0.0143898
844.910	0.0144366
844.988	0.0143538
845.067	0.0143951
845.145	0.0145152
845.223	0.0144501
845.301	0.0143972
845.379	0.0143827
845.457	0.0144474
845.535	0.0142927
845.613	0.0143690
845.692	0.0144001
845.770	0.0144285
845.848	0.0142515
845.926	0.0143613
846.004	0.0143913
846.082	0.0144544
846.160	0.0145865
846.238	0.0145410
846.317	0.0144595
846.395	0.0146185
846.473	0.0146887
846.551	0.0144564
846.629	0.0144348
846.707	0.0146033
846.785	0.0144801
846.863	0.0144808
846.942	0.0145639
847.020	0.0146822
847.098	0.0145049
847.176	0.0147023
847.254	0.0145751
847.332	0.0146895
847.410	0.0145789
847.488	0.0145826
847.567	0.0146676
847.645	0.0145921
847.723	0.0146931
847.801	0.0147393
847.879	0.0147126
847.957	0.0145454
848.035	0.0147954
848.113	0.0148447
848.192	0.0147949
848.270	0.0147574
848.348	0.0147762
848.426	0.0147942
848.504	0.0147835
848.582	0.0147522
848.660	0.0146949
848.738	0.0148781
848.817	0.0148009
848.895	0.0146903
848.973	0.0147095
849.051	0.0147429
849.129	0.0146856
849.207	0.0147572
849.285	0.0146786
849.363	0.0147845
849.442	0.0146849
849.520	0.0146931
849.598	0.0147286
849.676	0.0144842
849.754	0.0146922
849.832	0.0146615
849.910	0.0146252
849.988	0.0146754
850.067	0.0147942
850.145	0.0147071
850.223	0.0147454
850.301	0.0146915
850.379	0.0147282
850.457	0.0147551
850.535	0.0146787
850.613	0.0145060
850.692	0.0146919
850.770	0.0147974
850.848	0.0146109
850.926	0.0146927
851.004	0.0147099
851.082	0.0145774
851.160	0.0148232
851.238	0.0146422
851.317	0.0147030
851.395	0.0147374
851.473	0.0146753
851.551	0.0147597
851.629	0.0146655
851.707	0.0146867
851.785	0.0146655
851.863	0.0146086
851.942	0.0147137
852.020	0.0146451
852.098	0.0147073
852.176	0.0146405
852.254	0.0147263
852.332	0.0147167
852.410	0.0145686
852.488	0.0145866
852.567	0.0147015
852.645	0.0147673
852.723	0.0147047
852.801	0.0146444
852.879	0.0145604
852.957	0.0146619
853.035	0.0145721
853.113	0.0146581
853.192	0.0146597
853.270	0.0145673
853.348	0.0145485
853.426	0.0145702
853.504	0.0147040
853.582	0.0144638
853.660	0.0144485
853.738	0.0144047
853.817	0.0145229
853.895	0.0145483
853.973	0.0145143
854.051	0.0144804
854.129	0.0144669
854.207	0.0144199
854.285	0.0145154
854.363	0.0145478
854.442	0.0143421
854.520	0.0142796
854.598	0.0146345
854.676	0.0144498
854.754	0.0144079
854.832	0.0144651
854.910	0.0144166
854.988	0.0144811
855.067	0.0143865
855.145	0.0145113
855.223	0.0145289
855.301	0.0144881
855.379	0.0145619
855.457	0.0144552
855.535	0.0144395
855.613	0.0143946
855.692	0.0145831
855.770	0.0144050
855.848	0.0145094
855.926	0.0144921
856.004	0.0144679
856.082	0.0146105
856.160	0.0146706
856.238	0.0146694
856.317	0.0145957
856.395	0.0144372
856.473	0.0147040
856.551	0.0146136
856.629	0.0146107
856.707	0.0146709
856.785	0.0145987
856.863	0.0146314
856.942	0.0146035
857.020	0.0146784
857.098	0.0144987
857.176	0.0145073
857.254	0.0144662
857.332	0.0146185
857.410	0.0145844
857.488	0.0146445
857.567	0.0145583
857.645	0.0146728
857.723	0.0144670
857.801	0.0146230
857.879	0.0146723
857.957	0.0145921
858.035	0.0146404
858.113	0.0147259
858.192	0.0147419
858.270	0.0146271
858.348	0.0147651
858.426	0.0147107
858.504	0.0147005
858.582	0.0146481
858.660	0.0146652
858.738	0.0147788
858.817	0.0145970
858.895	0.0146320
858.973	0.0146130
859.051	0.0146038
859.129	0.0145242
859.207	0.0146164
859.285	0.0146694
859.363	0.0145145
859.442	0.0147118
859.520	0.0146322
859.598	0.0145748
859.676	0.0146023
859.754	0.0146536
859.832	0.0146028
859.910	0.0146647
859.988	0.0145848
860.067	0.0146986
860.145	0.0147507
860.223	0.0146313
860.301	0.0146688
860.379	0.0145975
860.457	0.0147366
860.535	0.0147237
860.613	0.0146634
860.692	0.0147609
860.770	0.0146345
860.848	0.0146037
860.926	0.0146686
861.004	0.0147917
861.082	0.0147807
861.160	0.0147627
861.238	0.0147787
861.317	0.0147026
861.395	0.0148325
861.473	0.0147440
861.551	0.0145902
861.629	0.0146503
861.707	0.0145726
861.785	0.0147124
861.863	0.0147153
861.942	0.0148833
862.020	0.0148193
862.098	0.0145740
862.176	0.0147518
862.254	0.0146207
862.332	0.0146700
862.410	0.0147161
862.488	0.0147947
862.567	0.0147668
862.645	0.0145691
862.723	0.0145889
862.801	0.0147925
862.879	0.0147417
862.957	0.0147252
863.035	0.0147244
863.113	0.0146403
863.192	0.0147478
863.270	0.0144975
863.348	0.0145821
863.426	0.0145502
863.504	0.0144750
863.582	0.0144525
863.660	0.0146487
863.738	0.0145953
863.817	0.0145185
863.895	0.0143826
863.973	0.0144357
864.051	0.0144974
864.129	0.0145828
864.207	0.0144284
864.285	0.0144445
864.363	0.0144789
864.442	0.0145322
864.520	0.0145046
864.598	0.0145282
864.676	0.0144376
864.754	0.0143986
864.832	0.0145827
864.910	0.0145032
864.988	0.0144012
865.067	0.0144624
865.145	0.0144371
865.223	0.0145480
865.301	0.0144693
865.379	0.0143844
865.457	0.0144856
865.535	0.0145373
865.613	0.0146233
865.692	0.0145926
865.770	0.0145509
865.848	0.0144765
865.926	0.0144943
866.004	0.0146233
866.082	0.0145332
866.160	0.0144245
866.238	0.0145795
866.317	0.0146568
866.395	0.0144891
866.473	0.0144854
866.551	0.0145889
866.629	0.0145518
866.707	0.0144874
866.785	0.0144757
866.863	0.0144861
866.942	0.0146030
867.020	0.0145874
867.098	0.0143936
867.176	0.0145837
867.254	0.0145879
867.332	0.0145018
867.410	0.0145937
867.488	0.0144524
867.567	0.0146230
867.645	0.0146228
867.723	0.0145413
867.801	0.0144570
867.879	0.0144180
867.957	0.0144591
868.035	0.0144981
868.113	0.0145982
868.192	0.0145268
868.270	0.0143770
868.348	0.0145078
868.426	0.0145444
868.504	0.0144468
868.582	0.0144422
868.660	0.0145485
868.738	0.0146066
868.817	0.0146098
868.895	0.0147183
868.973	0.0145618
869.051	0.0146157
869.129	0.0145442
869.207	0.0145569
869.285	0.0146149
869.363	0.0145588
869.442	0.0146634
869.520	0.0146778
869.598	0.0145088
869.676	0.0146136
869.754	0.0146826
869.832	0.0146904
869.910	0.0145878
869.988	0.0146332
870.067	0.0145470
870.145	0.0146976
870.223	0.0145457
870.301	0.0146039
870.379	0.0146032
870.457	0.0147826
870.535	0.0146951
870.613	0.0147422
870.692	0.0145483
870.770	0.0147696
870.848	0.0146299
870.926	0.0148466
871.004	0.0147047
871.082	0.0147523
871.160	0.0148225
871.238	0.0148409
871.317	0.0147803
871.395	0.0148435
871.473	0.0148167
871.551	0.0147389
871.629	0.0148563
871.707	0.0147683
871.785	0.0148064
871.863	0.0147701
871.942	0.0148739
872.020	0.0146500
872.098	0.0147005
872.176	0.0147801
872.254	0.0147822
872.332	0.0145908
872.410	0.0146563
872.488	0.0147467
872.567	0.0147082
872.645	0.0148219
872.723	0.0146825
872.801	0.0146349
872.879	0.0147036
872.957	0.0145813
873.035	0.0146127
873.113	0.0146195
873.192	0.0146166
873.270	0.0145629
873.348	0.0145232
873.426	0.0147105
873.504	0.0146716
873.582	0.0145559
873.660	0.0146036
873.738	0.0145863
873.817	0.0145903
873.895	0.0145285
873.973	0.0144945
874.051	0.0145935
874.129	0.0144949
874.207	0.0146521
874.285	0.0145748
874.363	0.0144863
874.442	0.0144117
874.520	0.0144545
874.598	0.0145845
874.676	0.0144295
874.754	0.0144027
874.832	0.0145290
874.910	0.0144523
874.988	0.0145972
875.067	0.0145444
875.145	0.0145478
875.223	0.0145195
875.301	0.0144544
875.379	0.0146898
875.457	0.0146170
875.535	0.0144587
875.613	0.0146201
875.692	0.0146925
875.770	0.0145329
875.848	0.0144958
875.926	0.0146301
876.004	0.0146531
876.082	0.0146928
876.160	0.0145815
876.238	0.0144943
876.317	0.0146622
876.395	0.0146761
876.473	0.0145464
876.551	0.0145846
876.629	0.0145088
876.707	0.0146925
876.785	0.0146828
876.863	0.0146026
876.942	0.0145508
877.020	0.0145129
877.098	0.0146149
877.176	0.0146136
877.254	0.0147009
877.332	0.0145107
877.410	0.0145786
877.488	0.0145902
877.567	0.0146585
877.645	0.0146890
877.723	0.0144916
877.801	0.0146442
877.879	0.0145406
877.957	0.0146567
878.035	0.0145186
878.113	0.0144771
878.192	0.0145097
878.270	0.0146072
878.348	0.0144645
878.426	0.0144397
878.504	0.0142573
878.582	0.0144025
878.660	0.0143657
878.738	0.0144742
878.817	0.0144099
878.895	0.0144542
878.973	0.0143917
879.051	0.0143246
879.129	0.0143673
879.207	0.0144583
879.285	0.0144726
879.363	0.0145472
879.442	0.0144600
879.520	0.0145397
879.598	0.0145381
879.676	0.0144541
879.754	0.0146018
879.832	0.0144715
879.910	0.0144741
879.988	0.0146381
880.067	0.0144778
880.145	0.0143858
880.223	0.0145641
880.301	0.0144415
880.379	0.0145349
880.457	0.0145865
880.535	0.0145835
880.613	0.0145377
880.692	0.0145859
880.770	0.0144469
880.848	0.0145325
880.926	0.0144819
881.004	0.0145331
881.082	0.0145554
881.160	0.0145759
881.238	0.0143633
881.317	0.0145660
881.395	0.0146534
881.473	0.0145735
881.551	0.0144894
881.629	0.0146154
881.707	0.0146347
881.785	0.0146248
881.863	0.0145661
881.942	0.0146077
882.020	0.0146722
882.098	0.0146729
882.176	0.0148099
882.254	0.0149265
882.332	0.0146185
882.410	0.0147247
882.488	0.0149295
882.567	0.0147388
882.645	0.0147336
882.723	0.0147665
882.801	0.0147265
882.879	0.0147988
882.957	0.0147246
883.035	0.0147272
883.113	0.0148176
883.192	0.0149086
883.270	0.0148264
883.348	0.0148248
883.426	0.0148596
883.504	0.0147485
883.582	0.0148096
883.660	0.0149136
883.738	0.0147881
883.817	0.0147934
883.895	0.0148436
883.973	0.0148952
884.051	0.0148131
884.129	0.0149086
884.207	0.0149484
884.285	0.0147250
884.363	0.0146949
884.442	0.0148928
884.520	0.0148714
884.598	0.0148673
884.676	0.0148324
884.754	0.0148737
884.832	0.0147398
884.910	0.0147939
884.988	0.0147995
885.067	0.0148127
885.145	0.0147996
885.223	0.0147897
885.301	0.0147998
885.379	0.0146577
885.457	0.0148486
885.535	0.0148067
885.613	0.0148670
885.692	0.0148008
885.770	0.0147008
885.848	0.0147758
885.926	0.0146068
886.004	0.0147025
886.082	0.0145518
886.160	0.0146725
886.238	0.0146664
886.317	0.0144205
886.395	0.0145412
886.473	0.0145340
886.551	0.0143540
886.629	0.0145147
886.707	0.0145411
886.785	0.0145525
886.863	0.0144692
886.942	0.0144344
887.020	0.0144163
887.098	0.0144268
887.176	0.0143937
887.254	0.0144552
887.332	0.0144347
887.410	0.0145233
887.488	0.0146042
887.567	0.0145615
887.645	0.0144586
887.723	0.0145189
887.801	0.0144571
887.879	0.0144527
887.957	0.0143463
888.035	0.0145058
888.113	0.0145453
888.192	0.0144381
888.270	0.0141987
888.348	0.0144917
888.426	0.0144521
888.504	0.0144139
888.582	0.0143209
888.660	0.0144698
888.738	0.0145249
888.817	0.0144039
888.895	0.0144546
888.973	0.0143662
889.051	0.0143407
889.129	0.0144061
889.207	0.0144295
889.285	0.0144788
889.363	0.0145495
889.442	0.0144974
889.520	0.0145409
889.598	0.0145744
889.676	0.0146155
889.754	0.0145393
889.832	0.0145243
889.910	0.0145052
889.988	0.0147002
890.067	0.0146338
890.145	0.0146561
890.223	0.0146547
890.301	0.0146848
890.379	0.0145825
890.457	0.0146516
890.535	0.0147548
890.613	0.0146239
890.692	0.0146976
890.770	0.0146463
890.848	0.0145293
890.926	0.0146853
891.004	0.0146683
891.082	0.0146023
891.160	0.0146828
891.238	0.0145289
891.317	0.0147643
891.395	0.0146556
891.473	0.0148433
891.551	0.0148594
891.629	0.0148119
891.707	0.0148537
891.785	0.0148179
891.863	0.0147647
891.942	0.0147125
892.020	0.0147407
892.098	0.0147086
892.176	0.0147353
892.254	0.0147720
892.332	0.0149364
892.410	0.0147197
892.488	0.0147308
892.567	0.0147353
892.645	0.0149115
892.723	0.0148064
892.801	0.0148598
892.879	0.0148167
892.957	0.0148186
893.035	0.0148425
893.113	0.0148323
893.192	0.0148325
893.270	0.0147130
893.348	0.0147331
893.426	0.0146614
893.504	0.0147249
893.582	0.0146857
893.660	0.0146774
893.738	0.0147343
893.817	0.0147602
893.895	0.0146415
893.973	0.0147360
894.051	0.0146955
894.129	0.0146231
894.207	0.0145496
894.285	0.0145631
894.363	0.0146865
894.442	0.0147608
894.520	0.0146803
894.598	0.0145440
894.676	0.0145670
894.754	0.0145455
894.832	0.0145342
894.910	0.0145644
894.988	0.0145049
895.067	0.0146223
895.145	0.0145724
895.223	0.0146243
895.301	0.0145756
895.379	0.0145301
895.457	0.0145053
895.535	0.0145734
895.613	0.0145889
895.692	0.0145218
895.770	0.0143643
895.848	0.0144637
895.926	0.0145781
896.004	0.0144720
896.082	0.0143816
896.160	0.0144849
896.238	0.0144112
896.317	0.0145013
896.395	0.0143908
896.473	0.0144830
896.551	0.0144983
896.629	0.0145264
896.707	0.0145242
896.785	0.0145037
896.863	0.0146028
896.942	0.0144685
897.020	0.0144050
897.098	0.0144524
897.176	0.0145815
897.254	0.0144806
897.332	0.0145110
897.410	0.0146241
897.488	0.0146265
897.567	0.0145635
897.645	0.0146973
897.723	0.0147375
897.801	0.0147277
897.879	0.0145728
897.957	0.0146468
898.035	0.0146722
898.113	0.0146427
898.192	0.0147056
898.270	0.0146161
898.348	0.0145653
898.426	0.0146584
898.504	0.0145898
898.582	0.0145959
898.660	0.0146162
898.738	0.0143590
898.817	0.0145280
898.895	0.0146959
898.973	0.0144925
899.051	0.0143898
899.129	0.0145854
899.207	0.0145702
899.285	0.0145655
899.363	0.0144395
899.442	0.0145674
899.520	0.0145162
899.598	0.0144499
899.676	0.0144571
899.754	0.0144305
899.832	0.0145520
899.910	0.0145770
899.988	0.0144341
900.067	0.0145103
900.145	0.0145798
900.223	0.0147089
900.301	0.0145358
900.379	0.0144879
900.457	0.0145392
900.535	0.0144116
900.613	0.0145017
900.692	0.0144746
900.770	0.0146244
900.848	0.0146400
900.926	0.0145362
901.004	0.0145428
901.082	0.0145520
901.160	0.0144670
901.238	0.0144148
901.317	0.0144225
901.395	0.0145490
901.473	0.0143893
901.551	0.0145101
901.629	0.0144199
901.707	0.0144949
901.785	0.0144393
901.863	0.0144536
901.942	0.0144398
902.020	0.0144054
902.098	0.0144699
902.176	0.0144927
902.254	0.0144114
902.332	0.0144197
902.410	0.0144812
902.488	0.0144184
902.567	0.0145254
902.645	0.0145712
902.723	0.0144772
902.801	0.0146683
902.879	0.0147141
902.957	0.0146345
903.035	0.0146675
903.113	0.0146019
903.192	0.0145689
903.270	0.0146808
903.348	0.0145409
903.426	0.0145055
903.504	0.0145131
903.582	0.0145293
903.660	0.0145245
903.738	0.0146312
903.817	0.0146987
903.895	0.0145532
903.973	0.0146055
904.051	0.0146568
904.129	0.0144898
904.207	0.0146160
904.285	0.0146139
904.363	0.0146761
904.442	0.0146274
904.520	0.0145927
904.598	0.0145000
904.676	0.0144650
904.754	0.0145612
904.832	0.0146330
904.910	0.0145502
904.988	0.0145569
905.067	0.0146033
905.145	0.0145343
905.223	0.0145747
905.301	0.0142924
905.379	0.0143594
905.457	0.0143485
905.535	0.0143485
905.613	0.0142020
905.692	0.0144522
905.770	0.0144477
905.848	0.0143865
905.926	0.0143955
906.004	0.0144910
906.082	0.0143196
906.160	0.0143021
906.238	0.0144344
906.317	0.0144759
906.395	0.0143761
906.473	0.0144203
906.551	0.0144724
906.629	0.0145483
906.707	0.0145832
906.785	0.0144823
906.863	0.0145512
906.942	0.0145609
907.020	0.0145325
907.098	0.0145715
907.176	0.0145456
907.254	0.0145489
907.332	0.0145545
907.410	0.0146101
907.488	0.0146751
907.567	0.0146212
907.645	0.0145633
907.723	0.0146483
907.801	0.0146852
907.879	0.0146972
907.957	0.0146141
908.035	0.0146120
908.113	0.0145717
908.192	0.0145637
908.270	0.0146860
908.348	0.0147523
908.426	0.0144758
908.504	0.0146649
908.582	0.0146273
908.660	0.0145304
908.738	0.0145398
908.817	0.0145074
908.895	0.0145293
908.973	0.0146280
909.051	0.0143578
909.129	0.0144564
909.207	0.0144642
909.285	0.0144466
909.363	0.0144739
909.442	0.0144220
909.520	0.0144267
909.598	0.0144103
909.676	0.0145174
909.754	0.0144954
909.832	0.0142712
909.910	0.0143497
909.988	0.0142981
910.067	0.0143449
910.145	0.0143249
910.223	0.0143661
910.301	0.0144172
910.379	0.0142657
910.457	0.0142760
910.535	0.0143458
910.613	0.0145415
910.692	0.0144642
910.770	0.0145942
910.848	0.0145064
910.926	0.0145175
911.004	0.0143935
911.082	0.0146232
911.160	0.0146111
911.238	0.0145496
911.317	0.0146323
911.395	0.0145551
911.473	0.0145932
911.551	0.0146227
911.629	0.0145831
911.707	0.0146092
911.785	0.0146597
911.863	0.0146232
911.942	0.0146120
912.020	0.0145693
912.098	0.0145251
912.176	0.0144666
912.254	0.0145007
912.332	0.0143539
912.410	0.0145548
912.488	0.0146161
912.567	0.0144170
912.645	0.0143977
912.723	0.0144184
912.801	0.0143217
912.879	0.0143580
912.957	0.0143973
913.035	0.0142897
913.113	0.0144079
913.192	0.0144547
913.270	0.0144897
913.348	0.0144619
913.426	0.0144733
913.504	0.0144205
913.582	0.0143966
913.660	0.0144592
913.738	0.0144559
913.817	0.0145222
913.895	0.0144466
913.973	0.0144315
914.051	0.0144403
914.129	0.0144688
914.207	0.0145152
914.285	0.0143972
914.363	0.0144741
914.442	0.0144913
914.520	0.0145470
914.598	0.0146081
914.676	0.0145805
914.754	0.0145125
914.832	0.0146774
914.910	0.0146932
914.988	0.0145041
915.067	0.0145817
915.145	0.0147057
915.223	0.0147387
915.301	0.0146679
915.379	0.0145291
915.457	0.0146590
915.535	0.0147551
915.613	0.0147121
915.692	0.0146767
915.770	0.0146908
915.848	0.0146903
915.926	0.0146802
916.004	0.0147471
916.082	0.0148584
916.160	0.0146465
916.238	0.0147282
916.317	0.0147720
916.395	0.0148859
916.473	0.0147206
916.551	0.0146030
916.629	0.0147233
916.707	0.0147758
916.785	0.0147577
916.863	0.0147660
916.942	0.0147676
917.020	0.0146972
917.098	0.0148173
917.176	0.0148182
917.254	0.0147848
917.332	0.0146001
917.410	0.0148049
917.488	0.0147366
917.567	0.0147913
917.645	0.0147494
917.723	0.0148582
917.801	0.0147965
917.879	0.0148387
917.957	0.0147292
918.035	0.0146953
918.113	0.0148386
918.192	0.0147172
918.270	0.0147198
918.348	0.0147912
918.426	0.0148256
918.504	0.0145322
918.582	0.0146715
918.660	0.0147754
918.738	0.0145882
918.817	0.0145750
918.895	0.0146329
918.973	0.0145656
919.051	0.0145930
919.129	0.0144878
919.207	0.0145619
919.285	0.0145432
919.363	0.0145435
919.442	0.0144997
919.520	0.0144865
919.598	0.0144705
919.676	0.0144886
919.754	0.0144285
919.832	0.0144756
919.910	0.0144311
