05/28/2022	14:28:22	Ver.	4.1	UNKNOWN
Optical Delay	599.988409	Delta X		0.078125	Sweeps	1	Scan Rate	0/0
Coordinates	Axis 1	NaN	Axis 2	NaN	Axis 3	NaN	Axis 4	NaN	Axis 5	NaN	Axis 6	0.000000
TX Power	0.000000	RX Power	0.000000

599.988	0.0144254
600.067	0.0144665
600.145	0.0143712
600.223	0.0143784
600.301	0.0145027
600.379	0.0144311
600.457	0.0143457
600.535	0.0145370
600.613	0.0143736
600.692	0.0144543
600.770	0.0144496
600.848	0.0143510
600.926	0.0144180
601.004	0.0143516
601.082	0.0143084
601.160	0.0143469
601.238	0.0143047
601.317	0.0144187
601.395	0.0144107
601.473	0.0143198
601.551	0.0142352
601.629	0.0142895
601.707	0.0143292
601.785	0.0143695
601.863	0.0142736
601.942	0.0142207
602.020	0.0143057
602.098	0.0143277
602.176	0.0143676
602.254	0.0142379
602.332	0.0143732
602.410	0.0143224
602.488	0.0142931
602.567	0.0144197
602.645	0.0143654
602.723	0.0142477
602.801	0.0144620
602.879	0.0143468
602.957	0.0142490
603.035	0.0143505
603.113	0.0144299
603.192	0.0143542
603.270	0.0143984
603.348	0.0145331
603.426	0.0142910
603.504	0.0142727
603.582	0.0142702
603.660	0.0143591
603.738	0.0143923
603.817	0.0142181
603.895	0.0144077
603.973	0.0143962
604.051	0.0142432
604.129	0.0143204
604.207	0.0144872
604.285	0.0143604
604.363	0.0143679
604.442	0.0142840
604.520	0.0144675
604.598	0.0144037
604.676	0.0141689
604.754	0.0143939
604.832	0.0143118
604.910	0.0143179
604.988	0.0142183
605.067	0.0143362
605.145	0.0143486
605.223	0.0143499
605.301	0.0144080
605.379	0.0143346
605.457	0.0143213
605.535	0.0142630
605.613	0.0143037
605.692	0.0143800
605.770	0.0143614
605.848	0.0142838
605.926	0.0142873
606.004	0.0143478
606.082	0.0142410
606.160	0.0142801
606.238	0.0143061
606.317	0.0143578
606.395	0.0143378
606.473	0.0143382
606.551	0.0143009
606.629	0.0143595
606.707	0.0143456
606.785	0.0144073
606.863	0.0142007
606.942	0.0143000
607.020	0.0144113
607.098	0.0143369
607.176	0.0143684
607.254	0.0143439
607.332	0.0142467
607.410	0.0145048
607.488	0.0143568
607.567	0.0142001
607.645	0.0142929
607.723	0.0143997
607.801	0.0144900
607.879	0.0143792
607.957	0.0143488
608.035	0.0144369
608.113	0.0145051
608.192	0.0142164
608.270	0.0142884
608.348	0.0143491
608.426	0.0144564
608.504	0.0142928
608.582	0.0143189
608.660	0.0144039
608.738	0.0143391
608.817	0.0143658
608.895	0.0143931
608.973	0.0143519
609.051	0.0144275
609.129	0.0145397
609.207	0.0144039
609.285	0.0144140
609.363	0.0143971
609.442	0.0145767
609.520	0.0144885
609.598	0.0144746
609.676	0.0143924
609.754	0.0144186
609.832	0.0144408
609.910	0.0144637
609.988	0.0143881
610.067	0.0144659
610.145	0.0144637
610.223	0.0145300
610.301	0.0144370
610.379	0.0145607
610.457	0.0145927
610.535	0.0143235
610.613	0.0143974
610.692	0.0143929
610.770	0.0145043
610.848	0.0145475
610.926	0.0142994
611.004	0.0142991
611.082	0.0145236
611.160	0.0143286
611.238	0.0143063
611.317	0.0144437
611.395	0.0144791
611.473	0.0143267
611.551	0.0143553
611.629	0.0143403
611.707	0.0144592
611.785	0.0142859
611.863	0.0143312
611.942	0.0143107
612.020	0.0143662
612.098	0.0143587
612.176	0.0144352
612.254	0.0142989
612.332	0.0142737
612.410	0.0143299
612.488	0.0143369
612.567	0.0142043
612.645	0.0143939
612.723	0.0143250
612.801	0.0143791
612.879	0.0143549
612.957	0.0144025
613.035	0.0143714
613.113	0.0143547
613.192	0.0143836
613.270	0.0144195
613.348	0.0144751
613.426	0.0144419
613.504	0.0142781
613.582	0.0145585
613.660	0.0144000
613.738	0.0144257
613.817	0.0143701
613.895	0.0144590
613.973	0.0144054
614.051	0.0143853
614.129	0.0143817
614.207	0.0144529
614.285	0.0145398
614.363	0.0144757
614.442	0.0144603
614.520	0.0144262
614.598	0.0143768
614.676	0.0144749
614.754	0.0143156
614.832	0.0143136
614.910	0.0144688
614.988	0.0145420
615.067	0.0144663
615.145	0.0143656
615.223	0.0144467
615.301	0.0143100
615.379	0.0144052
615.457	0.0145618
615.535	0.0144210
615.613	0.0143894
615.692	0.0141639
615.770	0.0144790
615.848	0.0144425
615.926	0.0143453
616.004	0.0144269
616.082	0.0145807
616.160	0.0146112
616.238	0.0144283
616.317	0.0145374
616.395	0.0143352
616.473	0.0143068
616.551	0.0143680
616.629	0.0142927
616.707	0.0143451
616.785	0.0144147
616.863	0.0143214
616.942	0.0144013
617.020	0.0145244
617.098	0.0144884
617.176	0.0144716
617.254	0.0145242
617.332	0.0143553
617.410	0.0143650
617.488	0.0143935
617.567	0.0143771
617.645	0.0145430
617.723	0.0145769
617.801	0.0144532
617.879	0.0145522
617.957	0.0144665
618.035	0.0145153
618.113	0.0143706
618.192	0.0142413
618.270	0.0143763
618.348	0.0144275
618.426	0.0144222
618.504	0.0144547
618.582	0.0144118
618.660	0.0143925
618.738	0.0143644
618.817	0.0143323
618.895	0.0144734
618.973	0.0142850
619.051	0.0143177
619.129	0.0143048
619.207	0.0143244
619.285	0.0145066
619.363	0.0144833
619.442	0.0142781
619.520	0.0144180
619.598	0.0144398
619.676	0.0143168
619.754	0.0143629
619.832	0.0143203
619.910	0.0142844
619.988	0.0145586
620.067	0.0144004
620.145	0.0142407
620.223	0.0144866
620.301	0.0144456
620.379	0.0143993
620.457	0.0143015
620.535	0.0142979
620.613	0.0143156
620.692	0.0143948
620.770	0.0142690
620.848	0.0143527
620.926	0.0144183
621.004	0.0143359
621.082	0.0143364
621.160	0.0143782
621.238	0.0144138
621.317	0.0142673
621.395	0.0142672
621.473	0.0143325
621.551	0.0143073
621.629	0.0141588
621.707	0.0142612
621.785	0.0142970
621.863	0.0143810
621.942	0.0143690
622.020	0.0143222
622.098	0.0145075
622.176	0.0144475
622.254	0.0142643
622.332	0.0143434
622.410	0.0143958
622.488	0.0143401
622.567	0.0142346
622.645	0.0143398
622.723	0.0142461
622.801	0.0143352
622.879	0.0142215
622.957	0.0141609
623.035	0.0141994
623.113	0.0143568
623.192	0.0143822
623.270	0.0143667
623.348	0.0142147
623.426	0.0143227
623.504	0.0143429
623.582	0.0143261
623.660	0.0141684
623.738	0.0143066
623.817	0.0141991
623.895	0.0142397
623.973	0.0144023
624.051	0.0142940
624.129	0.0141672
624.207	0.0141136
624.285	0.0141492
624.363	0.0142523
624.442	0.0143181
624.520	0.0143474
624.598	0.0142731
624.676	0.0143533
624.754	0.0142635
624.832	0.0142330
624.910	0.0142571
624.988	0.0141929
625.067	0.0143493
625.145	0.0142229
625.223	0.0143862
625.301	0.0143730
625.379	0.0142110
625.457	0.0142685
625.535	0.0143559
625.613	0.0142337
625.692	0.0142879
625.770	0.0141992
625.848	0.0144364
625.926	0.0143420
626.004	0.0142835
626.082	0.0143161
626.160	0.0142702
626.238	0.0143616
626.317	0.0143405
626.395	0.0143594
626.473	0.0143595
626.551	0.0144963
626.629	0.0143819
626.707	0.0143015
626.785	0.0145076
626.863	0.0143536
626.942	0.0142542
627.020	0.0143161
627.098	0.0142030
627.176	0.0143618
627.254	0.0142696
627.332	0.0143414
627.410	0.0142667
627.488	0.0143461
627.567	0.0142759
627.645	0.0143767
627.723	0.0143918
627.801	0.0143931
627.879	0.0144133
627.957	0.0143369
628.035	0.0144766
628.113	0.0143290
628.192	0.0143755
628.270	0.0144063
628.348	0.0144781
628.426	0.0143495
628.504	0.0144798
628.582	0.0143301
628.660	0.0144189
628.738	0.0145535
628.817	0.0145309
628.895	0.0144894
628.973	0.0144415
629.051	0.0144562
629.129	0.0144357
629.207	0.0144764
629.285	0.0144547
629.363	0.0144123
629.442	0.0144585
629.520	0.0143673
629.598	0.0144706
629.676	0.0144184
629.754	0.0144045
629.832	0.0143267
629.910	0.0143004
629.988	0.0143821
630.067	0.0143815
630.145	0.0144020
630.223	0.0142738
630.301	0.0144031
630.379	0.0142024
630.457	0.0143800
630.535	0.0143088
630.613	0.0142466
630.692	0.0141470
630.770	0.0141423
630.848	0.0140215
630.926	0.0141807
631.004	0.0143138
631.082	0.0140012
631.160	0.0141190
631.238	0.0141166
631.317	0.0142291
631.395	0.0142563
631.473	0.0143095
631.551	0.0141453
631.629	0.0141837
631.707	0.0142801
631.785	0.0142094
631.863	0.0142152
631.942	0.0142400
632.020	0.0144053
632.098	0.0142707
632.176	0.0144230
632.254	0.0143568
632.332	0.0144011
632.410	0.0145242
632.488	0.0143870
632.567	0.0144724
632.645	0.0143423
632.723	0.0143777
632.801	0.0144406
632.879	0.0143999
632.957	0.0142580
633.035	0.0143233
633.113	0.0144009
633.192	0.0143285
633.270	0.0142385
633.348	0.0143002
633.426	0.0143127
633.504	0.0142152
633.582	0.0141779
633.660	0.0141109
633.738	0.0140384
633.817	0.0142979
633.895	0.0141002
633.973	0.0140959
634.051	0.0142020
634.129	0.0143926
634.207	0.0142469
634.285	0.0143968
634.363	0.0143389
634.442	0.0142995
634.520	0.0142509
634.598	0.0143711
634.676	0.0143522
634.754	0.0142825
634.832	0.0143467
634.910	0.0144459
634.988	0.0144269
635.067	0.0141588
635.145	0.0142558
635.223	0.0143429
635.301	0.0142319
635.379	0.0142064
635.457	0.0141424
635.535	0.0142453
635.613	0.0142719
635.692	0.0142472
635.770	0.0141611
635.848	0.0141891
635.926	0.0142946
636.004	0.0142433
636.082	0.0143144
636.160	0.0142337
636.238	0.0144199
636.317	0.0144733
636.395	0.0144080
636.473	0.0143733
636.551	0.0144548
636.629	0.0144504
636.707	0.0144852
636.785	0.0144395
636.863	0.0146316
636.942	0.0145464
637.020	0.0145388
637.098	0.0145133
637.176	0.0145025
637.254	0.0145724
637.332	0.0145592
637.410	0.0145560
637.488	0.0144872
637.567	0.0145424
637.645	0.0145502
637.723	0.0143720
637.801	0.0144824
637.879	0.0144734
637.957	0.0144736
638.035	0.0144521
638.113	0.0144247
638.192	0.0146279
638.270	0.0143996
638.348	0.0145164
638.426	0.0143650
638.504	0.0143391
638.582	0.0143040
638.660	0.0142124
638.738	0.0142868
638.817	0.0143623
638.895	0.0140802
638.973	0.0140390
639.051	0.0141156
639.129	0.0140790
639.207	0.0139966
639.285	0.0138895
639.363	0.0138531
639.442	0.0138182
639.520	0.0140241
639.598	0.0140102
639.676	0.0140721
639.754	0.0141444
639.832	0.0140880
639.910	0.0140007
639.988	0.0141697
640.067	0.0142696
640.145	0.0142812
640.223	0.0142112
640.301	0.0142414
640.379	0.0142664
640.457	0.0143201
640.535	0.0144573
640.613	0.0144071
640.692	0.0144911
640.770	0.0145186
640.848	0.0143536
640.926	0.0144775
641.004	0.0145398
641.082	0.0145702
641.160	0.0145435
641.238	0.0146037
641.317	0.0146522
641.395	0.0146910
641.473	0.0146855
641.551	0.0147138
641.629	0.0146523
641.707	0.0148506
641.785	0.0147491
641.863	0.0146391
641.942	0.0146712
642.020	0.0147494
642.098	0.0147845
642.176	0.0146861
642.254	0.0146053
642.332	0.0145477
642.410	0.0146475
642.488	0.0145836
642.567	0.0145135
642.645	0.0144145
642.723	0.0146062
642.801	0.0145506
642.879	0.0144815
642.957	0.0145228
643.035	0.0143250
643.113	0.0144032
643.192	0.0143524
643.270	0.0143930
643.348	0.0144035
643.426	0.0142739
643.504	0.0143647
643.582	0.0142548
643.660	0.0142307
643.738	0.0142452
643.817	0.0142404
643.895	0.0141449
643.973	0.0142476
644.051	0.0141424
644.129	0.0140218
644.207	0.0141685
644.285	0.0142615
644.363	0.0142695
644.442	0.0142483
644.520	0.0144431
644.598	0.0143853
644.676	0.0144593
644.754	0.0144201
644.832	0.0145592
644.910	0.0145740
644.988	0.0145116
645.067	0.0145361
645.145	0.0144901
645.223	0.0145303
645.301	0.0145723
645.379	0.0146235
645.457	0.0146403
645.535	0.0145924
645.613	0.0145335
645.692	0.0146218
645.770	0.0146879
645.848	0.0145769
645.926	0.0146461
646.004	0.0146311
646.082	0.0145250
646.160	0.0146188
646.238	0.0146017
646.317	0.0147513
646.395	0.0147240
646.473	0.0145150
646.551	0.0148181
646.629	0.0147251
646.707	0.0145245
646.785	0.0145258
646.863	0.0147610
646.942	0.0146355
647.020	0.0145595
647.098	0.0146746
647.176	0.0145835
647.254	0.0145950
647.332	0.0144007
647.410	0.0144570
647.488	0.0145404
647.567	0.0145023
647.645	0.0143491
647.723	0.0143916
647.801	0.0142716
647.879	0.0142957
647.957	0.0141704
648.035	0.0141236
648.113	0.0141964
648.192	0.0140681
648.270	0.0142097
648.348	0.0141210
648.426	0.0141315
648.504	0.0141912
648.582	0.0141313
648.660	0.0141270
648.738	0.0140621
648.817	0.0138993
648.895	0.0142887
648.973	0.0142844
649.051	0.0142308
649.129	0.0142015
649.207	0.0141435
649.285	0.0141518
649.363	0.0142188
649.442	0.0140631
649.520	0.0141668
649.598	0.0141897
649.676	0.0140441
649.754	0.0141698
649.832	0.0141472
649.910	0.0141012
649.988	0.0142366
650.067	0.0140014
650.145	0.0141051
650.223	0.0141550
650.301	0.0140344
650.379	0.0140682
650.457	0.0139899
650.535	0.0139169
650.613	0.0140806
650.692	0.0140155
650.770	0.0139959
650.848	0.0140500
650.926	0.0139846
651.004	0.0140421
651.082	0.0140444
651.160	0.0141101
651.238	0.0142107
651.317	0.0142030
651.395	0.0142661
651.473	0.0142850
651.551	0.0142992
651.629	0.0142678
651.707	0.0143925
651.785	0.0143578
651.863	0.0145432
651.942	0.0145375
652.020	0.0143935
652.098	0.0146398
652.176	0.0144829
652.254	0.0145199
652.332	0.0147670
652.410	0.0145964
652.488	0.0146218
652.567	0.0146166
652.645	0.0145603
652.723	0.0145634
652.801	0.0145914
652.879	0.0145691
652.957	0.0144946
653.035	0.0144476
653.113	0.0143813
653.192	0.0144798
653.270	0.0143782
653.348	0.0143130
653.426	0.0142426
653.504	0.0143282
653.582	0.0141177
653.660	0.0142065
653.738	0.0142252
653.817	0.0141196
653.895	0.0140547
653.973	0.0141623
654.051	0.0141491
654.129	0.0139375
654.207	0.0139577
654.285	0.0141217
654.363	0.0143066
654.442	0.0141874
654.520	0.0143166
654.598	0.0142483
654.676	0.0143187
654.754	0.0142897
654.832	0.0145245
654.910	0.0144077
654.988	0.0144691
655.067	0.0146118
655.145	0.0146329
655.223	0.0146540
655.301	0.0146870
655.379	0.0145028
655.457	0.0145342
655.535	0.0146741
655.613	0.0145240
655.692	0.0143856
655.770	0.0144836
655.848	0.0143877
655.926	0.0143113
656.004	0.0142764
656.082	0.0142367
656.160	0.0142863
656.238	0.0143317
656.317	0.0141633
656.395	0.0140217
656.473	0.0140633
656.551	0.0142170
656.629	0.0141029
656.707	0.0141351
656.785	0.0142727
656.863	0.0141805
656.942	0.0142795
657.020	0.0144561
657.098	0.0142614
657.176	0.0142957
657.254	0.0143808
657.332	0.0145539
657.410	0.0146112
657.488	0.0146634
657.567	0.0147198
657.645	0.0147070
657.723	0.0147609
657.801	0.0148620
657.879	0.0146615
657.957	0.0148489
658.035	0.0148260
658.113	0.0148740
658.192	0.0147771
658.270	0.0147803
658.348	0.0147178
658.426	0.0146919
658.504	0.0146667
658.582	0.0146336
658.660	0.0146645
658.738	0.0145955
658.817	0.0145103
658.895	0.0145465
658.973	0.0144082
659.051	0.0144521
659.129	0.0142699
659.207	0.0143432
659.285	0.0142249
659.363	0.0143167
659.442	0.0142136
659.520	0.0140678
659.598	0.0141875
659.676	0.0142437
659.754	0.0141949
659.832	0.0142405
659.910	0.0140687
659.988	0.0141138
660.067	0.0143415
660.145	0.0141904
660.223	0.0141700
660.301	0.0142569
660.379	0.0141272
660.457	0.0141023
660.535	0.0141151
660.613	0.0141447
660.692	0.0139218
660.770	0.0139711
660.848	0.0140645
660.926	0.0140910
661.004	0.0139340
661.082	0.0139059
661.160	0.0138580
661.238	0.0139884
661.317	0.0139944
661.395	0.0138998
661.473	0.0139026
661.551	0.0140742
661.629	0.0140186
661.707	0.0140744
661.785	0.0141678
661.863	0.0141475
661.942	0.0142198
662.020	0.0143812
662.098	0.0144701
662.176	0.0145488
662.254	0.0146471
662.332	0.0146799
662.410	0.0147244
662.488	0.0148841
662.567	0.0147693
662.645	0.0147953
662.723	0.0147453
662.801	0.0148144
662.879	0.0148018
662.957	0.0148277
663.035	0.0146081
663.113	0.0147643
663.192	0.0147189
663.270	0.0145300
663.348	0.0146409
663.426	0.0147168
663.504	0.0144930
663.582	0.0144415
663.660	0.0145228
663.738	0.0143811
663.817	0.0142962
663.895	0.0143808
663.973	0.0142648
664.051	0.0141687
664.129	0.0141516
664.207	0.0142194
664.285	0.0141288
664.363	0.0141484
664.442	0.0140661
664.520	0.0140977
664.598	0.0140779
664.676	0.0140834
664.754	0.0141355
664.832	0.0142576
664.910	0.0142188
664.988	0.0141832
665.067	0.0143291
665.145	0.0143477
665.223	0.0144051
665.301	0.0144506
665.379	0.0145931
665.457	0.0145811
665.535	0.0147248
665.613	0.0147172
665.692	0.0148232
665.770	0.0148165
665.848	0.0149163
665.926	0.0148690
666.004	0.0147752
666.082	0.0148363
666.160	0.0147079
666.238	0.0147351
666.317	0.0147557
666.395	0.0145828
666.473	0.0144196
666.551	0.0144070
666.629	0.0142883
666.707	0.0142931
666.785	0.0143321
666.863	0.0142857
666.942	0.0141047
667.020	0.0141477
667.098	0.0142135
667.176	0.0142133
667.254	0.0140655
667.332	0.0142642
667.410	0.0141410
667.488	0.0142529
667.567	0.0143996
667.645	0.0145129
667.723	0.0145458
667.801	0.0146223
667.879	0.0145211
667.957	0.0147032
668.035	0.0148471
668.113	0.0148466
668.192	0.0147900
668.270	0.0148770
668.348	0.0147626
668.426	0.0147089
668.504	0.0148463
668.582	0.0147285
668.660	0.0147093
668.738	0.0146832
668.817	0.0147586
668.895	0.0147721
668.973	0.0146383
669.051	0.0146765
669.129	0.0147182
669.207	0.0144875
669.285	0.0145250
669.363	0.0145444
669.442	0.0144990
669.520	0.0145572
669.598	0.0145795
669.676	0.0145493
669.754	0.0145783
669.832	0.0145300
669.910	0.0143726
669.988	0.0145110
670.067	0.0146151
670.145	0.0145538
670.223	0.0147490
670.301	0.0146771
670.379	0.0146166
670.457	0.0146455
670.535	0.0147073
670.613	0.0148658
670.692	0.0146876
670.770	0.0145743
670.848	0.0147661
670.926	0.0146299
671.004	0.0145939
671.082	0.0144346
671.160	0.0143138
671.238	0.0142451
671.317	0.0140998
671.395	0.0140553
671.473	0.0140589
671.551	0.0137898
671.629	0.0138236
671.707	0.0136089
671.785	0.0136874
671.863	0.0135286
671.942	0.0135824
672.020	0.0135838
672.098	0.0136647
672.176	0.0138338
672.254	0.0139007
672.332	0.0140382
672.410	0.0139791
672.488	0.0143476
672.567	0.0144474
672.645	0.0146064
672.723	0.0147252
672.801	0.0147913
672.879	0.0149730
672.957	0.0151039
673.035	0.0152166
673.113	0.0152914
673.192	0.0152506
673.270	0.0153852
673.348	0.0152001
673.426	0.0151923
673.504	0.0149928
673.582	0.0149823
673.660	0.0149879
673.738	0.0148903
673.817	0.0147606
673.895	0.0146693
673.973	0.0146099
674.051	0.0144266
674.129	0.0141679
674.207	0.0142453
674.285	0.0142432
674.363	0.0139629
674.442	0.0140294
674.520	0.0138766
674.598	0.0139985
674.676	0.0138511
674.754	0.0139478
674.832	0.0137971
674.910	0.0139422
674.988	0.0137984
675.067	0.0138335
675.145	0.0138246
675.223	0.0139336
675.301	0.0138395
675.379	0.0140249
675.457	0.0139928
675.535	0.0140001
675.613	0.0140076
675.692	0.0142126
675.770	0.0143735
675.848	0.0143594
675.926	0.0143536
676.004	0.0142930
676.082	0.0146781
676.160	0.0147730
676.238	0.0147923
676.317	0.0149117
676.395	0.0146785
676.473	0.0149017
676.551	0.0148584
676.629	0.0148164
676.707	0.0149874
676.785	0.0149050
676.863	0.0148066
676.942	0.0149007
677.020	0.0147002
677.098	0.0145729
677.176	0.0145540
677.254	0.0145457
677.332	0.0145561
677.410	0.0144401
677.488	0.0144331
677.567	0.0143142
677.645	0.0143502
677.723	0.0142975
677.801	0.0141322
677.879	0.0141122
677.957	0.0142439
678.035	0.0141962
678.113	0.0141853
678.192	0.0142080
678.270	0.0141795
678.348	0.0140952
678.426	0.0142487
678.504	0.0141807
678.582	0.0140098
678.660	0.0142788
678.738	0.0142056
678.817	0.0141434
678.895	0.0143101
678.973	0.0143491
679.051	0.0143168
679.129	0.0142709
679.207	0.0142957
679.285	0.0142870
679.363	0.0143241
679.442	0.0145649
679.520	0.0146496
679.598	0.0144621
679.676	0.0145710
679.754	0.0146144
679.832	0.0146845
679.910	0.0147548
679.988	0.0146592
680.067	0.0147607
680.145	0.0148570
680.223	0.0147475
680.301	0.0149653
680.379	0.0148830
680.457	0.0148299
680.535	0.0148083
680.613	0.0147755
680.692	0.0147434
680.770	0.0148422
680.848	0.0149061
680.926	0.0144170
681.004	0.0145266
681.082	0.0145535
681.160	0.0144238
681.238	0.0144917
681.317	0.0144220
681.395	0.0145613
681.473	0.0144762
681.551	0.0142927
681.629	0.0143253
681.707	0.0142589
681.785	0.0141732
681.863	0.0140784
681.942	0.0142864
682.020	0.0142496
682.098	0.0142512
682.176	0.0140533
682.254	0.0139850
682.332	0.0138981
682.410	0.0136934
682.488	0.0140159
682.567	0.0138139
682.645	0.0139323
682.723	0.0138680
682.801	0.0138583
682.879	0.0138625
682.957	0.0138555
683.035	0.0138315
683.113	0.0137450
683.192	0.0138426
683.270	0.0139835
683.348	0.0141735
683.426	0.0141180
683.504	0.0140337
683.582	0.0142556
683.660	0.0143300
683.738	0.0140585
683.817	0.0142401
683.895	0.0145033
683.973	0.0142992
684.051	0.0142603
684.129	0.0145368
684.207	0.0143763
684.285	0.0144039
684.363	0.0144773
684.442	0.0145748
684.520	0.0146351
684.598	0.0147115
684.676	0.0148302
684.754	0.0149249
684.832	0.0151155
684.910	0.0147825
684.988	0.0150928
685.067	0.0148897
685.145	0.0148305
685.223	0.0148502
685.301	0.0147990
685.379	0.0149015
685.457	0.0147852
685.535	0.0146028
685.613	0.0143810
685.692	0.0141787
685.770	0.0143814
685.848	0.0142384
685.926	0.0140774
686.004	0.0138897
686.082	0.0138605
686.160	0.0139756
686.238	0.0139603
686.317	0.0140017
686.395	0.0138444
686.473	0.0138496
686.551	0.0139394
686.629	0.0141061
686.707	0.0140412
686.785	0.0140600
686.863	0.0140529
686.942	0.0139977
687.020	0.0139474
687.098	0.0142034
687.176	0.0141791
687.254	0.0140531
687.332	0.0140347
687.410	0.0140154
687.488	0.0139632
687.567	0.0139327
687.645	0.0140406
687.723	0.0140202
687.801	0.0141070
687.879	0.0141816
687.957	0.0141680
688.035	0.0142705
688.113	0.0144176
688.192	0.0143749
688.270	0.0144672
688.348	0.0148119
688.426	0.0149650
688.504	0.0148009
688.582	0.0150151
688.660	0.0149639
688.738	0.0148743
688.817	0.0150340
688.895	0.0150143
688.973	0.0152143
689.051	0.0151106
689.129	0.0150189
689.207	0.0149854
689.285	0.0150205
689.363	0.0150830
689.442	0.0149531
689.520	0.0149941
689.598	0.0149014
689.676	0.0147523
689.754	0.0148735
689.832	0.0148820
689.910	0.0147841
689.988	0.0147405
690.067	0.0147095
690.145	0.0146848
690.223	0.0147325
690.301	0.0146036
690.379	0.0144299
690.457	0.0145076
690.535	0.0145770
690.613	0.0145525
690.692	0.0143461
690.770	0.0145112
690.848	0.0143546
690.926	0.0144578
691.004	0.0143403
691.082	0.0144173
691.160	0.0142892
691.238	0.0141222
691.317	0.0141578
691.395	0.0141222
691.473	0.0140881
691.551	0.0140395
691.629	0.0139368
691.707	0.0138353
691.785	0.0139154
691.863	0.0138486
691.942	0.0137891
692.020	0.0137611
692.098	0.0136762
692.176	0.0136737
692.254	0.0136015
692.332	0.0136529
692.410	0.0137255
692.488	0.0137682
692.567	0.0138449
692.645	0.0138468
692.723	0.0140077
692.801	0.0140858
692.879	0.0142473
692.957	0.0142878
693.035	0.0144688
693.113	0.0147021
693.192	0.0146532
693.270	0.0148340
693.348	0.0148336
693.426	0.0149741
693.504	0.0152958
693.582	0.0152554
693.660	0.0152625
693.738	0.0153900
693.817	0.0154591
693.895	0.0154967
693.973	0.0153842
694.051	0.0155917
694.129	0.0155145
694.207	0.0156204
694.285	0.0155442
694.363	0.0155435
694.442	0.0155401
694.520	0.0154720
694.598	0.0154115
694.676	0.0153297
694.754	0.0152899
694.832	0.0151189
694.910	0.0148566
694.988	0.0148843
695.067	0.0148164
695.145	0.0144425
695.223	0.0145086
695.301	0.0145059
695.379	0.0143093
695.457	0.0143381
695.535	0.0140252
695.613	0.0139756
695.692	0.0139729
695.770	0.0137691
695.848	0.0135989
695.926	0.0137081
696.004	0.0135939
696.082	0.0135737
696.160	0.0135114
696.238	0.0132660
696.317	0.0131866
696.395	0.0132341
696.473	0.0132030
696.551	0.0131241
696.629	0.0132578
696.707	0.0131460
696.785	0.0130813
696.863	0.0132562
696.942	0.0134422
697.020	0.0132680
697.098	0.0135297
697.176	0.0135057
697.254	0.0136683
697.332	0.0138984
697.410	0.0139776
697.488	0.0141193
697.567	0.0140289
697.645	0.0143446
697.723	0.0143677
697.801	0.0145107
697.879	0.0144854
697.957	0.0145800
698.035	0.0146401
698.113	0.0148743
698.192	0.0150192
698.270	0.0148021
698.348	0.0148708
698.426	0.0151640
698.504	0.0151439
698.582	0.0151041
698.660	0.0150098
698.738	0.0151485
698.817	0.0152451
698.895	0.0151858
698.973	0.0150342
699.051	0.0150214
699.129	0.0150346
699.207	0.0149972
699.285	0.0148081
699.363	0.0148078
699.442	0.0148547
699.520	0.0143919
699.598	0.0143503
699.676	0.0142407
699.754	0.0140804
699.832	0.0139348
699.910	0.0139066
699.988	0.0137209
700.067	0.0136570
700.145	0.0134747
700.223	0.0134690
700.301	0.0134144
700.379	0.0133652
700.457	0.0133334
700.535	0.0132186
700.613	0.0132056
700.692	0.0133633
700.770	0.0135036
700.848	0.0133952
700.926	0.0134165
701.004	0.0134179
701.082	0.0136064
701.160	0.0138865
701.238	0.0138497
701.317	0.0139977
701.395	0.0142202
701.473	0.0143259
701.551	0.0143336
701.629	0.0144289
701.707	0.0145583
701.785	0.0145223
701.863	0.0146542
701.942	0.0147091
702.020	0.0148026
702.098	0.0148557
702.176	0.0147424
702.254	0.0149918
702.332	0.0150103
702.410	0.0150771
702.488	0.0150586
702.567	0.0151310
702.645	0.0152145
702.723	0.0152240
702.801	0.0153320
702.879	0.0153571
702.957	0.0153368
703.035	0.0153600
703.113	0.0153539
703.192	0.0153394
703.270	0.0153003
703.348	0.0153736
703.426	0.0152473
703.504	0.0150728
703.582	0.0151302
703.660	0.0148911
703.738	0.0148557
703.817	0.0147980
703.895	0.0148328
703.973	0.0146087
704.051	0.0145464
704.129	0.0143593
704.207	0.0142743
704.285	0.0142365
704.363	0.0141067
704.442	0.0140157
704.520	0.0139176
704.598	0.0140070
704.676	0.0139101
704.754	0.0138271
704.832	0.0138053
704.910	0.0136888
704.988	0.0139011
705.067	0.0138892
705.145	0.0139287
705.223	0.0138914
705.301	0.0138496
705.379	0.0138080
705.457	0.0138808
705.535	0.0139093
705.613	0.0139223
705.692	0.0139735
705.770	0.0140957
705.848	0.0141817
705.926	0.0141619
706.004	0.0142270
706.082	0.0142619
706.160	0.0143478
706.238	0.0141850
706.317	0.0142375
706.395	0.0142282
706.473	0.0141012
706.551	0.0141199
706.629	0.0142136
706.707	0.0142400
706.785	0.0142107
706.863	0.0140331
706.942	0.0140849
707.020	0.0141504
707.098	0.0143119
707.176	0.0143027
707.254	0.0143502
707.332	0.0144158
707.410	0.0145599
707.488	0.0144538
707.567	0.0145108
707.645	0.0145299
707.723	0.0146195
707.801	0.0145844
707.879	0.0145471
707.957	0.0147392
708.035	0.0146473
708.113	0.0144690
708.192	0.0146192
708.270	0.0146115
708.348	0.0145864
708.426	0.0146069
708.504	0.0145531
708.582	0.0145290
708.660	0.0143988
708.738	0.0145076
708.817	0.0145839
708.895	0.0146581
708.973	0.0145515
709.051	0.0145973
709.129	0.0146040
709.207	0.0146825
709.285	0.0148246
709.363	0.0144953
709.442	0.0146532
709.520	0.0147077
709.598	0.0148552
709.676	0.0145789
709.754	0.0146674
709.832	0.0147421
709.910	0.0146879
709.988	0.0145651
710.067	0.0145065
710.145	0.0146207
710.223	0.0145551
710.301	0.0145108
710.379	0.0145760
710.457	0.0144854
710.535	0.0144255
710.613	0.0142426
710.692	0.0145771
710.770	0.0144626
710.848	0.0144327
710.926	0.0144770
711.004	0.0144876
711.082	0.0143368
711.160	0.0143273
711.238	0.0145051
711.317	0.0144771
711.395	0.0142444
711.473	0.0142733
711.551	0.0143381
711.629	0.0143172
711.707	0.0143642
711.785	0.0142815
711.863	0.0143804
711.942	0.0143626
712.020	0.0143051
712.098	0.0141650
712.176	0.0144115
712.254	0.0143286
712.332	0.0143043
712.410	0.0144115
712.488	0.0144668
712.567	0.0145982
712.645	0.0145167
712.723	0.0144768
712.801	0.0146017
712.879	0.0146954
712.957	0.0145430
713.035	0.0143956
713.113	0.0144295
713.192	0.0146954
713.270	0.0145615
713.348	0.0144566
713.426	0.0143961
713.504	0.0143225
713.582	0.0142747
713.660	0.0143227
713.738	0.0143553
713.817	0.0145025
713.895	0.0144313
713.973	0.0143626
714.051	0.0141618
714.129	0.0143822
714.207	0.0143732
714.285	0.0143905
714.363	0.0144491
714.442	0.0142844
714.520	0.0144382
714.598	0.0143981
714.676	0.0143914
714.754	0.0143927
714.832	0.0142746
714.910	0.0143391
714.988	0.0143732
715.067	0.0144035
715.145	0.0142964
715.223	0.0141803
715.301	0.0142960
715.379	0.0142019
715.457	0.0141714
715.535	0.0140983
715.613	0.0140700
715.692	0.0141035
715.770	0.0141449
715.848	0.0139927
715.926	0.0140244
716.004	0.0140305
716.082	0.0139254
716.160	0.0139986
716.238	0.0141770
716.317	0.0141369
716.395	0.0141396
716.473	0.0141412
716.551	0.0141161
716.629	0.0142318
716.707	0.0143456
716.785	0.0142802
716.863	0.0143004
716.942	0.0143813
717.020	0.0142352
717.098	0.0143982
717.176	0.0142558
717.254	0.0143256
717.332	0.0143271
717.410	0.0143219
717.488	0.0142634
717.567	0.0143140
717.645	0.0143011
717.723	0.0142937
717.801	0.0141804
717.879	0.0142857
717.957	0.0143512
718.035	0.0142156
718.113	0.0142274
718.192	0.0142255
718.270	0.0141460
718.348	0.0142731
718.426	0.0140979
718.504	0.0142532
718.582	0.0142203
718.660	0.0142361
718.738	0.0142416
718.817	0.0142564
718.895	0.0141163
718.973	0.0141411
719.051	0.0140759
719.129	0.0141010
719.207	0.0140861
719.285	0.0141146
719.363	0.0141154
719.442	0.0141849
719.520	0.0142100
719.598	0.0141153
719.676	0.0140308
719.754	0.0141080
719.832	0.0141131
719.910	0.0141366
719.988	0.0142013
720.067	0.0141988
720.145	0.0141898
720.223	0.0141669
720.301	0.0141917
720.379	0.0142087
720.457	0.0142424
720.535	0.0143050
720.613	0.0141402
720.692	0.0143317
720.770	0.0142371
720.848	0.0142348
720.926	0.0143274
721.004	0.0141775
721.082	0.0142603
721.160	0.0142390
721.238	0.0142004
721.317	0.0141174
721.395	0.0143246
721.473	0.0142594
721.551	0.0143181
721.629	0.0143667
721.707	0.0144921
721.785	0.0144488
721.863	0.0144456
721.942	0.0143326
722.020	0.0145651
722.098	0.0144445
722.176	0.0144524
722.254	0.0145129
722.332	0.0146703
722.410	0.0143729
722.488	0.0145186
722.567	0.0143718
722.645	0.0144971
722.723	0.0144715
722.801	0.0144919
722.879	0.0144002
722.957	0.0142274
723.035	0.0141490
723.113	0.0142793
723.192	0.0142339
723.270	0.0142704
723.348	0.0143668
723.426	0.0143168
723.504	0.0141991
723.582	0.0143577
723.660	0.0143262
723.738	0.0142278
723.817	0.0143173
723.895	0.0144002
723.973	0.0146029
724.051	0.0144775
724.129	0.0145562
724.207	0.0146525
724.285	0.0146914
724.363	0.0146068
724.442	0.0145888
724.520	0.0146445
724.598	0.0146858
724.676	0.0145941
724.754	0.0146384
724.832	0.0147296
724.910	0.0145152
724.988	0.0144635
725.067	0.0147050
725.145	0.0144884
725.223	0.0143726
725.301	0.0143785
725.379	0.0144971
725.457	0.0144147
725.535	0.0146190
725.613	0.0143619
725.692	0.0143557
725.770	0.0144726
725.848	0.0143361
725.926	0.0143288
726.004	0.0144114
726.082	0.0144725
726.160	0.0142998
726.238	0.0143439
726.317	0.0143921
726.395	0.0144711
726.473	0.0145282
726.551	0.0144124
726.629	0.0143029
726.707	0.0142915
726.785	0.0144112
726.863	0.0144006
726.942	0.0142969
727.020	0.0142593
727.098	0.0141302
727.176	0.0142918
727.254	0.0142587
727.332	0.0142239
727.410	0.0143433
727.488	0.0142433
727.567	0.0140587
727.645	0.0139996
727.723	0.0141902
727.801	0.0142287
727.879	0.0139983
727.957	0.0140037
728.035	0.0139699
728.113	0.0139473
728.192	0.0141174
728.270	0.0141064
728.348	0.0140487
728.426	0.0141244
728.504	0.0140694
728.582	0.0139899
728.660	0.0138718
728.738	0.0141665
728.817	0.0140068
728.895	0.0142270
728.973	0.0142361
729.051	0.0141019
729.129	0.0143264
729.207	0.0142483
729.285	0.0142326
729.363	0.0144428
729.442	0.0145241
729.520	0.0144557
729.598	0.0142830
729.676	0.0143793
729.754	0.0144151
729.832	0.0144181
729.910	0.0144039
729.988	0.0143880
730.067	0.0144406
730.145	0.0144285
730.223	0.0144556
730.301	0.0144034
730.379	0.0143650
730.457	0.0144784
730.535	0.0143923
730.613	0.0143654
730.692	0.0142880
730.770	0.0141852
730.848	0.0141202
730.926	0.0142332
731.004	0.0142109
731.082	0.0141165
731.160	0.0141132
731.238	0.0142612
731.317	0.0141867
731.395	0.0142777
731.473	0.0143101
731.551	0.0143020
731.629	0.0144943
731.707	0.0143452
731.785	0.0143082
731.863	0.0143089
731.942	0.0144090
732.020	0.0145473
732.098	0.0145264
732.176	0.0145380
732.254	0.0145944
732.332	0.0146193
732.410	0.0146534
732.488	0.0146211
732.567	0.0146149
732.645	0.0146033
732.723	0.0145691
732.801	0.0146557
732.879	0.0146483
732.957	0.0145734
733.035	0.0145756
733.113	0.0145869
733.192	0.0144745
733.270	0.0146282
733.348	0.0145517
733.426	0.0143201
733.504	0.0144998
733.582	0.0146133
733.660	0.0144463
733.738	0.0143216
733.817	0.0143806
733.895	0.0143024
733.973	0.0145856
734.051	0.0143562
734.129	0.0145107
734.207	0.0142191
734.285	0.0144819
734.363	0.0143907
734.442	0.0143305
734.520	0.0144129
734.598	0.0143919
734.676	0.0144720
734.754	0.0145650
734.832	0.0144857
734.910	0.0145897
734.988	0.0143358
735.067	0.0143466
735.145	0.0144238
735.223	0.0143701
735.301	0.0145494
735.379	0.0145016
735.457	0.0146336
735.535	0.0145229
735.613	0.0145128
735.692	0.0145915
735.770	0.0145335
735.848	0.0144997
735.926	0.0144887
736.004	0.0144102
736.082	0.0143970
736.160	0.0143997
736.238	0.0143561
736.317	0.0144776
736.395	0.0144431
736.473	0.0144080
736.551	0.0142651
736.629	0.0146036
736.707	0.0145467
736.785	0.0143906
736.863	0.0144254
736.942	0.0145018
737.020	0.0145596
737.098	0.0146568
737.176	0.0146727
737.254	0.0145472
737.332	0.0146350
737.410	0.0145821
737.488	0.0146436
737.567	0.0146782
737.645	0.0145733
737.723	0.0145322
737.801	0.0145340
737.879	0.0146401
737.957	0.0145015
738.035	0.0145393
738.113	0.0145280
738.192	0.0144402
738.270	0.0144545
738.348	0.0145082
738.426	0.0143395
738.504	0.0143746
738.582	0.0143523
738.660	0.0142702
738.738	0.0143346
738.817	0.0142888
738.895	0.0143102
738.973	0.0143319
739.051	0.0142064
739.129	0.0142947
739.207	0.0143450
739.285	0.0142771
739.363	0.0143286
739.442	0.0143469
739.520	0.0142029
739.598	0.0143781
739.676	0.0142905
739.754	0.0141859
739.832	0.0141920
739.910	0.0140858
739.988	0.0140742
740.067	0.0141364
740.145	0.0142207
740.223	0.0141708
740.301	0.0140731
740.379	0.0140308
740.457	0.0139914
740.535	0.0140295
740.613	0.0140182
740.692	0.0140436
740.770	0.0142117
740.848	0.0141216
740.926	0.0141061
741.004	0.0142492
741.082	0.0142697
741.160	0.0141746
741.238	0.0143780
741.317	0.0142493
741.395	0.0142884
741.473	0.0143719
741.551	0.0142409
741.629	0.0142062
741.707	0.0145142
741.785	0.0144048
741.863	0.0142407
741.942	0.0143645
742.020	0.0143827
742.098	0.0144561
742.176	0.0141912
742.254	0.0142278
742.332	0.0143567
742.410	0.0142605
742.488	0.0143537
742.567	0.0143888
742.645	0.0142439
742.723	0.0143694
742.801	0.0142046
742.879	0.0143557
742.957	0.0144146
743.035	0.0143771
743.113	0.0141983
743.192	0.0143581
743.270	0.0144128
743.348	0.0143953
743.426	0.0144321
743.504	0.0143180
743.582	0.0144280
743.660	0.0145539
743.738	0.0144601
743.817	0.0143045
743.895	0.0144793
743.973	0.0143406
744.051	0.0143684
744.129	0.0142673
744.207	0.0143903
744.285	0.0144700
744.363	0.0144160
744.442	0.0142897
744.520	0.0143696
744.598	0.0142586
744.676	0.0144258
744.754	0.0143200
744.832	0.0144453
744.910	0.0143935
744.988	0.0143533
745.067	0.0144336
745.145	0.0143519
745.223	0.0143478
745.301	0.0144498
745.379	0.0144279
745.457	0.0144552
745.535	0.0143533
745.613	0.0144546
745.692	0.0143607
745.770	0.0143512
745.848	0.0142895
745.926	0.0144128
746.004	0.0144440
746.082	0.0144283
746.160	0.0144179
746.238	0.0145097
746.317	0.0144538
746.395	0.0143556
746.473	0.0143698
746.551	0.0144041
746.629	0.0145353
746.707	0.0144855
746.785	0.0145934
746.863	0.0146631
746.942	0.0146105
747.020	0.0144186
747.098	0.0147034
747.176	0.0146868
747.254	0.0147358
747.332	0.0146625
747.410	0.0147108
747.488	0.0146854
747.567	0.0147237
747.645	0.0146881
747.723	0.0147366
747.801	0.0148383
747.879	0.0147018
747.957	0.0146758
748.035	0.0146566
748.113	0.0146906
748.192	0.0145370
748.270	0.0145638
748.348	0.0145290
748.426	0.0145166
748.504	0.0145087
748.582	0.0145264
748.660	0.0145735
748.738	0.0144566
748.817	0.0145344
748.895	0.0145583
748.973	0.0143794
749.051	0.0144121
749.129	0.0145489
749.207	0.0144289
749.285	0.0143511
749.363	0.0145187
749.442	0.0145419
749.520	0.0145825
749.598	0.0145461
749.676	0.0145412
749.754	0.0144973
749.832	0.0146303
749.910	0.0146081
749.988	0.0146729
750.067	0.0145468
750.145	0.0145422
750.223	0.0145355
750.301	0.0145238
750.379	0.0147104
750.457	0.0145543
750.535	0.0145078
750.613	0.0144846
750.692	0.0145166
750.770	0.0144894
750.848	0.0144831
750.926	0.0145760
751.004	0.0144424
751.082	0.0144417
751.160	0.0144191
751.238	0.0144750
751.317	0.0144216
751.395	0.0145100
751.473	0.0144541
751.551	0.0143830
751.629	0.0144334
751.707	0.0143317
751.785	0.0143900
751.863	0.0144268
751.942	0.0144213
752.020	0.0143149
752.098	0.0143360
752.176	0.0143430
752.254	0.0142870
752.332	0.0143785
752.410	0.0142077
752.488	0.0144120
752.567	0.0142641
752.645	0.0141542
752.723	0.0141206
752.801	0.0141804
752.879	0.0142895
752.957	0.0143118
753.035	0.0142625
753.113	0.0141863
753.192	0.0142942
753.270	0.0143140
753.348	0.0142564
753.426	0.0143711
753.504	0.0144369
753.582	0.0143884
753.660	0.0144781
753.738	0.0143826
753.817	0.0143514
753.895	0.0143332
753.973	0.0144270
754.051	0.0142505
754.129	0.0144070
754.207	0.0144478
754.285	0.0144549
754.363	0.0143852
754.442	0.0143171
754.520	0.0141563
754.598	0.0142666
754.676	0.0144437
754.754	0.0144300
754.832	0.0143634
754.910	0.0143130
754.988	0.0143130
755.067	0.0142818
755.145	0.0144001
755.223	0.0143243
755.301	0.0142308
755.379	0.0143947
755.457	0.0143526
755.535	0.0143623
755.613	0.0144769
755.692	0.0144703
755.770	0.0144646
755.848	0.0143494
755.926	0.0143953
756.004	0.0145432
756.082	0.0145303
756.160	0.0144263
756.238	0.0143876
756.317	0.0143099
756.395	0.0144209
756.473	0.0143393
756.551	0.0143018
756.629	0.0142824
756.707	0.0143665
756.785	0.0141670
756.863	0.0142831
756.942	0.0143906
757.020	0.0143540
757.098	0.0143090
757.176	0.0143368
757.254	0.0143195
757.332	0.0144003
757.410	0.0144254
757.488	0.0144076
757.567	0.0144359
757.645	0.0143894
757.723	0.0144736
757.801	0.0143818
757.879	0.0144478
757.957	0.0145148
758.035	0.0145306
758.113	0.0145185
758.192	0.0145135
758.270	0.0144750
758.348	0.0144675
758.426	0.0143805
758.504	0.0144120
758.582	0.0145107
758.660	0.0143589
758.738	0.0145695
758.817	0.0145315
758.895	0.0143860
758.973	0.0145498
759.051	0.0145427
759.129	0.0145210
759.207	0.0145583
759.285	0.0145345
759.363	0.0147143
759.442	0.0146568
759.520	0.0144826
759.598	0.0144637
759.676	0.0144736
759.754	0.0145676
759.832	0.0145824
759.910	0.0144531
759.988	0.0144209
760.067	0.0143527
760.145	0.0144144
760.223	0.0142622
760.301	0.0141838
760.379	0.0141890
760.457	0.0142275
760.535	0.0141864
760.613	0.0140723
760.692	0.0142561
760.770	0.0142149
760.848	0.0143165
760.926	0.0143313
761.004	0.0141654
761.082	0.0141616
761.160	0.0143421
761.238	0.0142542
761.317	0.0141637
761.395	0.0142115
761.473	0.0143207
761.551	0.0143708
761.629	0.0144102
761.707	0.0143491
761.785	0.0143315
761.863	0.0143141
761.942	0.0141387
762.020	0.0142999
762.098	0.0142781
762.176	0.0144101
762.254	0.0144852
762.332	0.0144393
762.410	0.0143681
762.488	0.0143409
762.567	0.0144062
762.645	0.0144711
762.723	0.0143945
762.801	0.0143620
762.879	0.0144276
762.957	0.0144409
763.035	0.0143511
763.113	0.0144249
763.192	0.0145102
763.270	0.0143752
763.348	0.0144777
763.426	0.0143452
763.504	0.0144318
763.582	0.0144400
763.660	0.0144261
763.738	0.0145090
763.817	0.0146071
763.895	0.0146497
763.973	0.0145768
764.051	0.0145029
764.129	0.0146027
764.207	0.0144785
764.285	0.0145967
764.363	0.0145260
764.442	0.0145538
764.520	0.0145585
764.598	0.0146022
764.676	0.0145521
764.754	0.0145544
764.832	0.0145483
764.910	0.0144656
764.988	0.0143468
765.067	0.0144979
765.145	0.0144818
765.223	0.0143490
765.301	0.0143328
765.379	0.0143568
765.457	0.0143826
765.535	0.0144270
765.613	0.0144044
765.692	0.0143966
765.770	0.0144016
765.848	0.0143614
765.926	0.0143751
766.004	0.0144500
766.082	0.0144659
766.160	0.0145396
766.238	0.0144228
766.317	0.0144304
766.395	0.0146336
766.473	0.0145898
766.551	0.0144777
766.629	0.0143674
766.707	0.0145502
766.785	0.0146597
766.863	0.0146004
766.942	0.0146077
767.020	0.0145016
767.098	0.0145127
767.176	0.0145922
767.254	0.0145444
767.332	0.0146696
767.410	0.0145790
767.488	0.0145044
767.567	0.0145335
767.645	0.0145762
767.723	0.0143687
767.801	0.0144508
767.879	0.0144556
767.957	0.0144736
768.035	0.0144779
768.113	0.0144646
768.192	0.0143114
768.270	0.0144163
768.348	0.0144048
768.426	0.0145151
768.504	0.0144105
768.582	0.0144674
768.660	0.0143945
768.738	0.0144638
768.817	0.0144474
768.895	0.0144543
768.973	0.0144718
769.051	0.0144437
769.129	0.0144902
769.207	0.0145352
769.285	0.0145476
769.363	0.0145619
769.442	0.0143740
769.520	0.0143950
769.598	0.0144222
769.676	0.0143981
769.754	0.0144673
769.832	0.0145186
769.910	0.0144685
769.988	0.0146246
770.067	0.0145254
770.145	0.0143147
770.223	0.0143663
770.301	0.0144199
770.379	0.0144376
770.457	0.0144062
770.535	0.0144711
770.613	0.0144617
770.692	0.0144357
770.770	0.0143472
770.848	0.0144957
770.926	0.0144044
771.004	0.0143672
771.082	0.0143201
771.160	0.0144989
771.238	0.0144881
771.317	0.0144551
771.395	0.0144128
771.473	0.0143459
771.551	0.0143898
771.629	0.0144958
771.707	0.0144147
771.785	0.0144140
771.863	0.0143536
771.942	0.0144354
772.020	0.0144364
772.098	0.0143241
772.176	0.0144001
772.254	0.0144788
772.332	0.0144756
772.410	0.0144569
772.488	0.0144060
772.567	0.0144522
772.645	0.0144981
772.723	0.0144271
772.801	0.0144466
772.879	0.0142853
772.957	0.0143237
773.035	0.0145015
773.113	0.0143213
773.192	0.0143822
773.270	0.0143581
773.348	0.0143542
773.426	0.0143058
773.504	0.0142937
773.582	0.0143246
773.660	0.0145242
773.738	0.0143101
773.817	0.0142984
773.895	0.0141703
773.973	0.0142761
774.051	0.0142130
774.129	0.0142774
774.207	0.0142288
774.285	0.0141454
774.363	0.0142776
774.442	0.0142052
774.520	0.0141591
774.598	0.0143256
774.676	0.0141934
774.754	0.0140840
774.832	0.0142078
774.910	0.0142134
774.988	0.0141476
775.067	0.0142521
775.145	0.0141735
775.223	0.0142108
775.301	0.0143797
775.379	0.0142682
775.457	0.0142534
775.535	0.0144238
775.613	0.0143442
775.692	0.0142902
775.770	0.0143826
775.848	0.0144865
775.926	0.0146009
776.004	0.0144101
776.082	0.0143387
776.160	0.0145843
776.238	0.0143774
776.317	0.0143512
776.395	0.0146938
776.473	0.0146010
776.551	0.0144534
776.629	0.0145615
776.707	0.0147142
776.785	0.0145784
776.863	0.0144353
776.942	0.0145577
777.020	0.0145413
777.098	0.0145647
777.176	0.0144798
777.254	0.0144089
777.332	0.0145063
777.410	0.0143490
777.488	0.0143799
777.567	0.0144335
777.645	0.0144936
777.723	0.0145203
777.801	0.0144678
777.879	0.0143944
777.957	0.0144110
778.035	0.0144028
778.113	0.0142439
778.192	0.0144028
778.270	0.0143753
778.348	0.0145274
778.426	0.0142982
778.504	0.0144116
778.582	0.0145565
778.660	0.0143864
778.738	0.0144405
778.817	0.0144456
778.895	0.0145496
778.973	0.0144731
779.051	0.0144479
779.129	0.0146626
779.207	0.0144279
779.285	0.0144150
779.363	0.0145535
779.442	0.0144705
779.520	0.0143136
779.598	0.0142857
779.676	0.0143681
779.754	0.0143520
779.832	0.0143362
779.910	0.0143463
779.988	0.0143385
780.067	0.0143645
780.145	0.0143261
780.223	0.0143793
780.301	0.0143505
780.379	0.0143526
780.457	0.0144116
780.535	0.0144414
780.613	0.0142945
780.692	0.0144570
780.770	0.0143464
780.848	0.0142326
780.926	0.0143122
781.004	0.0143958
781.082	0.0142504
781.160	0.0142876
781.238	0.0141991
781.317	0.0142567
781.395	0.0143710
781.473	0.0142462
781.551	0.0141779
781.629	0.0141382
781.707	0.0141476
781.785	0.0142163
781.863	0.0142442
781.942	0.0141834
782.020	0.0141652
782.098	0.0141753
782.176	0.0141525
782.254	0.0140130
782.332	0.0140112
782.410	0.0141766
782.488	0.0141676
782.567	0.0140956
782.645	0.0140799
782.723	0.0141904
782.801	0.0141416
782.879	0.0141177
782.957	0.0141934
783.035	0.0142250
783.113	0.0142017
783.192	0.0142107
783.270	0.0142435
783.348	0.0142766
783.426	0.0143211
783.504	0.0142877
783.582	0.0141053
783.660	0.0143332
783.738	0.0140746
783.817	0.0140475
783.895	0.0144296
783.973	0.0142853
784.051	0.0141510
784.129	0.0143719
784.207	0.0140734
784.285	0.0141779
784.363	0.0141933
784.442	0.0142606
784.520	0.0141959
784.598	0.0141805
784.676	0.0142133
784.754	0.0141121
784.832	0.0141571
784.910	0.0144011
784.988	0.0141827
785.067	0.0142357
785.145	0.0142721
785.223	0.0142881
785.301	0.0142322
785.379	0.0141928
785.457	0.0142603
785.535	0.0143293
785.613	0.0142367
785.692	0.0143420
785.770	0.0142735
785.848	0.0143529
785.926	0.0142706
786.004	0.0143420
786.082	0.0143423
786.160	0.0143213
786.238	0.0142393
786.317	0.0144185
786.395	0.0143833
786.473	0.0143808
786.551	0.0144730
786.629	0.0144678
786.707	0.0144455
786.785	0.0144163
786.863	0.0143948
786.942	0.0146113
787.020	0.0145264
787.098	0.0145424
787.176	0.0143710
787.254	0.0144962
787.332	0.0143919
787.410	0.0144918
787.488	0.0143938
787.567	0.0144283
787.645	0.0144645
787.723	0.0144782
787.801	0.0144804
787.879	0.0144610
787.957	0.0144083
788.035	0.0144931
788.113	0.0144547
788.192	0.0144814
788.270	0.0145487
788.348	0.0144227
788.426	0.0144868
788.504	0.0145253
788.582	0.0144813
788.660	0.0144269
788.738	0.0144240
788.817	0.0143965
788.895	0.0144981
788.973	0.0144038
789.051	0.0144623
789.129	0.0144902
789.207	0.0144646
789.285	0.0144118
789.363	0.0143633
789.442	0.0144222
789.520	0.0144731
789.598	0.0146003
789.676	0.0144648
789.754	0.0144523
789.832	0.0143719
789.910	0.0143961
789.988	0.0146190
790.067	0.0144567
790.145	0.0145439
790.223	0.0145750
790.301	0.0146239
790.379	0.0145862
790.457	0.0146584
790.535	0.0145768
790.613	0.0145873
790.692	0.0146996
790.770	0.0145776
790.848	0.0146410
790.926	0.0146727
791.004	0.0145918
791.082	0.0145379
791.160	0.0146462
791.238	0.0146278
791.317	0.0145188
791.395	0.0145643
791.473	0.0145530
791.551	0.0145081
791.629	0.0145427
791.707	0.0145131
791.785	0.0145174
791.863	0.0145010
791.942	0.0145296
792.020	0.0144998
792.098	0.0144398
792.176	0.0143963
792.254	0.0144468
792.332	0.0142507
792.410	0.0144094
792.488	0.0145049
792.567	0.0144323
792.645	0.0142769
792.723	0.0143629
792.801	0.0142780
792.879	0.0142268
792.957	0.0143737
793.035	0.0142583
793.113	0.0143582
793.192	0.0141826
793.270	0.0143283
793.348	0.0142448
793.426	0.0143383
793.504	0.0142101
793.582	0.0144117
793.660	0.0142493
793.738	0.0142556
793.817	0.0143055
793.895	0.0144003
793.973	0.0143827
794.051	0.0143876
794.129	0.0143347
794.207	0.0141661
794.285	0.0144375
794.363	0.0142830
794.442	0.0142633
794.520	0.0142413
794.598	0.0143287
794.676	0.0142928
794.754	0.0143902
794.832	0.0142513
794.910	0.0144336
794.988	0.0142691
795.067	0.0142592
795.145	0.0143851
795.223	0.0144268
795.301	0.0143557
795.379	0.0144734
795.457	0.0144080
795.535	0.0143803
795.613	0.0144851
795.692	0.0144109
795.770	0.0143925
795.848	0.0142648
795.926	0.0142904
796.004	0.0143380
796.082	0.0143475
796.160	0.0140997
796.238	0.0141479
796.317	0.0143172
796.395	0.0141798
796.473	0.0142406
796.551	0.0141897
796.629	0.0141585
796.707	0.0141584
796.785	0.0141019
796.863	0.0141578
796.942	0.0140813
797.020	0.0139419
797.098	0.0140576
797.176	0.0141496
797.254	0.0140250
797.332	0.0141150
797.410	0.0139297
797.488	0.0139980
797.567	0.0140888
797.645	0.0140965
797.723	0.0139947
797.801	0.0140198
797.879	0.0139319
797.957	0.0140565
798.035	0.0141177
798.113	0.0140675
798.192	0.0140239
798.270	0.0141790
798.348	0.0140294
798.426	0.0141375
798.504	0.0141632
798.582	0.0141358
798.660	0.0141821
798.738	0.0140140
798.817	0.0142407
798.895	0.0141895
798.973	0.0142686
799.051	0.0141319
799.129	0.0142026
799.207	0.0143436
799.285	0.0144261
799.363	0.0142846
799.442	0.0142853
799.520	0.0143683
799.598	0.0144659
799.676	0.0144643
799.754	0.0142399
799.832	0.0143078
799.910	0.0143400
799.988	0.0142766
800.067	0.0144035
800.145	0.0144183
800.223	0.0143897
800.301	0.0143288
800.379	0.0143534
800.457	0.0141900
800.535	0.0144451
800.613	0.0143143
800.692	0.0145230
800.770	0.0143902
800.848	0.0142942
800.926	0.0143174
801.004	0.0144206
801.082	0.0142163
801.160	0.0142252
801.238	0.0142554
801.317	0.0142655
801.395	0.0142607
801.473	0.0142466
801.551	0.0141554
801.629	0.0141073
801.707	0.0141178
801.785	0.0141755
801.863	0.0142612
801.942	0.0141803
802.020	0.0141934
802.098	0.0142050
802.176	0.0142532
802.254	0.0142155
802.332	0.0142780
802.410	0.0143254
802.488	0.0141768
802.567	0.0142182
802.645	0.0141541
802.723	0.0142442
802.801	0.0141990
802.879	0.0141912
802.957	0.0141077
803.035	0.0141268
803.113	0.0141678
803.192	0.0142266
803.270	0.0142863
803.348	0.0142421
803.426	0.0142929
803.504	0.0142020
803.582	0.0141943
803.660	0.0142494
803.738	0.0142696
803.817	0.0142103
803.895	0.0143841
803.973	0.0142251
804.051	0.0141792
804.129	0.0142792
804.207	0.0142301
804.285	0.0142942
804.363	0.0140688
804.442	0.0142164
804.520	0.0143652
804.598	0.0143045
804.676	0.0141686
804.754	0.0142727
804.832	0.0143700
804.910	0.0143433
804.988	0.0142278
805.067	0.0142886
805.145	0.0142808
805.223	0.0143894
805.301	0.0142521
805.379	0.0140667
805.457	0.0142083
805.535	0.0143510
805.613	0.0142233
805.692	0.0141505
805.770	0.0142311
805.848	0.0142411
805.926	0.0143158
806.004	0.0142021
806.082	0.0142518
806.160	0.0143568
806.238	0.0142342
806.317	0.0142432
806.395	0.0144318
806.473	0.0143422
806.551	0.0143668
806.629	0.0143790
806.707	0.0144562
806.785	0.0143913
806.863	0.0145726
806.942	0.0146366
807.020	0.0145872
807.098	0.0144678
807.176	0.0145208
807.254	0.0147332
807.332	0.0145139
807.410	0.0146368
807.488	0.0146313
807.567	0.0145919
807.645	0.0146851
807.723	0.0146303
807.801	0.0145314
807.879	0.0143771
807.957	0.0146265
808.035	0.0145097
808.113	0.0143862
808.192	0.0145215
808.270	0.0144724
808.348	0.0145174
808.426	0.0144839
808.504	0.0145574
808.582	0.0145938
808.660	0.0146345
808.738	0.0145597
808.817	0.0144967
808.895	0.0146861
808.973	0.0146317
809.051	0.0145367
809.129	0.0146562
809.207	0.0146606
809.285	0.0146607
809.363	0.0145814
809.442	0.0146089
809.520	0.0145768
809.598	0.0145850
809.676	0.0145750
809.754	0.0146210
809.832	0.0147048
809.910	0.0147534
809.988	0.0146333
810.067	0.0145158
810.145	0.0146062
810.223	0.0148034
810.301	0.0146321
810.379	0.0145821
810.457	0.0146584
810.535	0.0145768
810.613	0.0145657
810.692	0.0146429
810.770	0.0145872
810.848	0.0145082
810.926	0.0145274
811.004	0.0146406
811.082	0.0146442
811.160	0.0145614
811.238	0.0144607
811.317	0.0145083
811.395	0.0146193
811.473	0.0144678
811.551	0.0144106
811.629	0.0145511
811.707	0.0145528
811.785	0.0144155
811.863	0.0143963
811.942	0.0145399
812.020	0.0145214
812.098	0.0144164
812.176	0.0144789
812.254	0.0143272
812.332	0.0144004
812.410	0.0143527
812.488	0.0144202
812.567	0.0144553
812.645	0.0144930
812.723	0.0144245
812.801	0.0144845
812.879	0.0145003
812.957	0.0144073
813.035	0.0144441
813.113	0.0143524
813.192	0.0144943
813.270	0.0146053
813.348	0.0144096
813.426	0.0144456
813.504	0.0144302
813.582	0.0144503
813.660	0.0145569
813.738	0.0144427
813.817	0.0144560
813.895	0.0144238
813.973	0.0143629
814.051	0.0145319
814.129	0.0145000
814.207	0.0144054
814.285	0.0144096
814.363	0.0144394
814.442	0.0146003
814.520	0.0142995
814.598	0.0143974
814.676	0.0142901
814.754	0.0144240
814.832	0.0144341
814.910	0.0144066
814.988	0.0143504
815.067	0.0144846
815.145	0.0145369
815.223	0.0144412
815.301	0.0144769
815.379	0.0146490
815.457	0.0145172
815.535	0.0144627
815.613	0.0145934
815.692	0.0145853
815.770	0.0144199
815.848	0.0144959
815.926	0.0145705
816.004	0.0144579
816.082	0.0144324
816.160	0.0144214
816.238	0.0143886
816.317	0.0144461
816.395	0.0142752
816.473	0.0142429
816.551	0.0142818
816.629	0.0143505
816.707	0.0143645
816.785	0.0141328
816.863	0.0141470
816.942	0.0142788
817.020	0.0141876
817.098	0.0142189
817.176	0.0142554
817.254	0.0142922
817.332	0.0142210
817.410	0.0141956
817.488	0.0143019
817.567	0.0144624
817.645	0.0142495
817.723	0.0142804
817.801	0.0143945
817.879	0.0142747
817.957	0.0143267
818.035	0.0143179
818.113	0.0142426
818.192	0.0142092
818.270	0.0142781
818.348	0.0143427
818.426	0.0144021
818.504	0.0142524
818.582	0.0141374
818.660	0.0142423
818.738	0.0142878
818.817	0.0142525
818.895	0.0142512
818.973	0.0140007
819.051	0.0142509
819.129	0.0141684
819.207	0.0140993
819.285	0.0141889
819.363	0.0139961
819.442	0.0140408
819.520	0.0140252
819.598	0.0140358
819.676	0.0139875
819.754	0.0140553
819.832	0.0139608
819.910	0.0141317
819.988	0.0141442
820.067	0.0140772
820.145	0.0139684
820.223	0.0141189
820.301	0.0141109
820.379	0.0141457
820.457	0.0140848
820.535	0.0141322
820.613	0.0142682
820.692	0.0141545
820.770	0.0142096
820.848	0.0141991
820.926	0.0142711
821.004	0.0143506
821.082	0.0142487
821.160	0.0143382
821.238	0.0143113
821.317	0.0143058
821.395	0.0142883
821.473	0.0143186
821.551	0.0144225
821.629	0.0142947
821.707	0.0142600
821.785	0.0143809
821.863	0.0143996
821.942	0.0143314
822.020	0.0143271
822.098	0.0142619
822.176	0.0144627
822.254	0.0144598
822.332	0.0143938
822.410	0.0144577
822.488	0.0143908
822.567	0.0145019
822.645	0.0144304
822.723	0.0144672
822.801	0.0144227
822.879	0.0144986
822.957	0.0146312
823.035	0.0144267
823.113	0.0144405
823.192	0.0144089
823.270	0.0143578
823.348	0.0143902
823.426	0.0142964
823.504	0.0143507
823.582	0.0145624
823.660	0.0144785
823.738	0.0142838
823.817	0.0144781
823.895	0.0144595
823.973	0.0142791
824.051	0.0144801
824.129	0.0144040
824.207	0.0143788
824.285	0.0142886
824.363	0.0144344
824.442	0.0143317
824.520	0.0141445
824.598	0.0143391
824.676	0.0142442
824.754	0.0141795
824.832	0.0141579
824.910	0.0143103
824.988	0.0142595
825.067	0.0143927
825.145	0.0143179
825.223	0.0142611
825.301	0.0142819
825.379	0.0143563
825.457	0.0144119
825.535	0.0144275
825.613	0.0144821
825.692	0.0143301
825.770	0.0144656
825.848	0.0145371
825.926	0.0144776
826.004	0.0144799
826.082	0.0143898
826.160	0.0144839
826.238	0.0143764
826.317	0.0145133
826.395	0.0144577
826.473	0.0143121
826.551	0.0144450
826.629	0.0144376
826.707	0.0144173
826.785	0.0144543
826.863	0.0143211
826.942	0.0143886
827.020	0.0143494
827.098	0.0143548
827.176	0.0142471
827.254	0.0142120
827.332	0.0143262
827.410	0.0143402
827.488	0.0143486
827.567	0.0143054
827.645	0.0141865
827.723	0.0144373
827.801	0.0143929
827.879	0.0143525
827.957	0.0144386
828.035	0.0143282
828.113	0.0142798
828.192	0.0143494
828.270	0.0143388
828.348	0.0144165
828.426	0.0145595
828.504	0.0144910
828.582	0.0145493
828.660	0.0144666
828.738	0.0144379
828.817	0.0145200
828.895	0.0146416
828.973	0.0145632
829.051	0.0145311
829.129	0.0146233
829.207	0.0146046
829.285	0.0144138
829.363	0.0145770
829.442	0.0144904
829.520	0.0145432
829.598	0.0145532
829.676	0.0146545
829.754	0.0146618
829.832	0.0146653
829.910	0.0146227
829.988	0.0147060
830.067	0.0146514
830.145	0.0146525
830.223	0.0146133
830.301	0.0145158
830.379	0.0144721
830.457	0.0147669
830.535	0.0146979
830.613	0.0145162
830.692	0.0145690
830.770	0.0145846
830.848	0.0145714
830.926	0.0144976
831.004	0.0144489
831.082	0.0145351
831.160	0.0145199
831.238	0.0144504
831.317	0.0144690
831.395	0.0145066
831.473	0.0146445
831.551	0.0146191
831.629	0.0144770
831.707	0.0145179
831.785	0.0144138
831.863	0.0145545
831.942	0.0145934
832.020	0.0144662
832.098	0.0144792
832.176	0.0144950
832.254	0.0145100
832.332	0.0143964
832.410	0.0144435
832.488	0.0144458
832.567	0.0144172
832.645	0.0143468
832.723	0.0143176
832.801	0.0145071
832.879	0.0143539
832.957	0.0143006
833.035	0.0143983
833.113	0.0144370
833.192	0.0145110
833.270	0.0143713
833.348	0.0144225
833.426	0.0143922
833.504	0.0144355
833.582	0.0144971
833.660	0.0144254
833.738	0.0144875
833.817	0.0144290
833.895	0.0146907
833.973	0.0145705
834.051	0.0145911
834.129	0.0144556
834.207	0.0143425
834.285	0.0144745
834.363	0.0145588
834.442	0.0144776
834.520	0.0143704
834.598	0.0144166
834.676	0.0146735
834.754	0.0145793
834.832	0.0144971
834.910	0.0145387
834.988	0.0144666
835.067	0.0144750
835.145	0.0145499
835.223	0.0144679
835.301	0.0145103
835.379	0.0146787
835.457	0.0144585
835.535	0.0144182
835.613	0.0145002
835.692	0.0144631
835.770	0.0145149
835.848	0.0144125
835.926	0.0143678
836.004	0.0144083
836.082	0.0143006
836.160	0.0143547
836.238	0.0145273
836.317	0.0143626
836.395	0.0144073
836.473	0.0143970
836.551	0.0143973
836.629	0.0143137
836.707	0.0144528
836.785	0.0143970
836.863	0.0143353
836.942	0.0143397
837.020	0.0142916
837.098	0.0143401
837.176	0.0143533
837.254	0.0144566
837.332	0.0143313
837.410	0.0143422
837.488	0.0142619
837.567	0.0143217
837.645	0.0145042
837.723	0.0143693
837.801	0.0142983
837.879	0.0142879
837.957	0.0143576
838.035	0.0143806
838.113	0.0143831
838.192	0.0143162
838.270	0.0143943
838.348	0.0143790
838.426	0.0142636
838.504	0.0143731
838.582	0.0142599
838.660	0.0144143
838.738	0.0144026
838.817	0.0144766
838.895	0.0143761
838.973	0.0143915
839.051	0.0143031
839.129	0.0144775
839.207	0.0143735
839.285	0.0143974
839.363	0.0146080
839.442	0.0143744
839.520	0.0145061
839.598	0.0144000
839.676	0.0144283
839.754	0.0144639
839.832	0.0142976
839.910	0.0145317
839.988	0.0143959
840.067	0.0143668
840.145	0.0143359
840.223	0.0144412
840.301	0.0144654
840.379	0.0144169
840.457	0.0144283
840.535	0.0144085
840.613	0.0144767
840.692	0.0144120
840.770	0.0143450
840.848	0.0144251
840.926	0.0143810
841.004	0.0143423
841.082	0.0143132
841.160	0.0144245
841.238	0.0143295
841.317	0.0143314
841.395	0.0143707
841.473	0.0143305
841.551	0.0145591
841.629	0.0144431
841.707	0.0143300
841.785	0.0143943
841.863	0.0143164
841.942	0.0143661
842.020	0.0144141
842.098	0.0144620
842.176	0.0144095
842.254	0.0144824
842.332	0.0143830
842.410	0.0144408
842.488	0.0144784
842.567	0.0146195
842.645	0.0145612
842.723	0.0145836
842.801	0.0144541
842.879	0.0146238
842.957	0.0147713
843.035	0.0145798
843.113	0.0145512
843.192	0.0147033
843.270	0.0146784
843.348	0.0145379
843.426	0.0146590
843.504	0.0147332
843.582	0.0146864
843.660	0.0145419
843.738	0.0146221
843.817	0.0148063
843.895	0.0145219
843.973	0.0145917
844.051	0.0147078
844.129	0.0146371
844.207	0.0146714
844.285	0.0146151
844.363	0.0144911
844.442	0.0145401
844.520	0.0145704
844.598	0.0145559
844.676	0.0145116
844.754	0.0143977
844.832	0.0144150
844.910	0.0144620
844.988	0.0142767
845.067	0.0143385
845.145	0.0144770
845.223	0.0142907
845.301	0.0142710
845.379	0.0143751
845.457	0.0144333
845.535	0.0142623
845.613	0.0142933
845.692	0.0142879
845.770	0.0143376
845.848	0.0143820
845.926	0.0141067
846.004	0.0142381
846.082	0.0142625
846.160	0.0142686
846.238	0.0142651
846.317	0.0142871
846.395	0.0143997
846.473	0.0143523
846.551	0.0142429
846.629	0.0143407
846.707	0.0141856
846.785	0.0144681
846.863	0.0143960
846.942	0.0144871
847.020	0.0142945
847.098	0.0143677
847.176	0.0144290
847.254	0.0144392
847.332	0.0145011
847.410	0.0145547
847.488	0.0144363
847.567	0.0145541
847.645	0.0144602
847.723	0.0143829
847.801	0.0144386
847.879	0.0144592
847.957	0.0145858
848.035	0.0145307
848.113	0.0144765
848.192	0.0145129
848.270	0.0144804
848.348	0.0144337
848.426	0.0144765
848.504	0.0145081
848.582	0.0145842
848.660	0.0144975
848.738	0.0144716
848.817	0.0143459
848.895	0.0143786
848.973	0.0145342
849.051	0.0144695
849.129	0.0143838
849.207	0.0144402
849.285	0.0144434
849.363	0.0143583
849.442	0.0143410
849.520	0.0142631
849.598	0.0144730
849.676	0.0143521
849.754	0.0143108
849.832	0.0144006
849.910	0.0143916
849.988	0.0143417
850.067	0.0143336
850.145	0.0142731
850.223	0.0143070
850.301	0.0144282
850.379	0.0143295
850.457	0.0143710
850.535	0.0144083
850.613	0.0142819
850.692	0.0143069
850.770	0.0143929
850.848	0.0143942
850.926	0.0142893
851.004	0.0142683
851.082	0.0143935
851.160	0.0144416
851.238	0.0143198
851.317	0.0143343
851.395	0.0143577
851.473	0.0144094
851.551	0.0144071
851.629	0.0143748
851.707	0.0143992
851.785	0.0144307
851.863	0.0143062
851.942	0.0143404
852.020	0.0144843
852.098	0.0143978
852.176	0.0144985
852.254	0.0144646
852.332	0.0144960
852.410	0.0146043
852.488	0.0144894
852.567	0.0143534
852.645	0.0144936
852.723	0.0144739
852.801	0.0144495
852.879	0.0144503
852.957	0.0144273
853.035	0.0143905
853.113	0.0143456
853.192	0.0144951
853.270	0.0143570
853.348	0.0143314
853.426	0.0144306
853.504	0.0142790
853.582	0.0142669
853.660	0.0142530
853.738	0.0142835
853.817	0.0143674
853.895	0.0143179
853.973	0.0141257
854.051	0.0143690
854.129	0.0144244
854.207	0.0143364
854.285	0.0144495
854.363	0.0144501
854.442	0.0144141
854.520	0.0143958
854.598	0.0143620
854.676	0.0143947
854.754	0.0143535
854.832	0.0143413
854.910	0.0144514
854.988	0.0143703
855.067	0.0144579
855.145	0.0145869
855.223	0.0144578
855.301	0.0145039
855.379	0.0144414
855.457	0.0143855
855.535	0.0144012
855.613	0.0146123
855.692	0.0145197
855.770	0.0145238
855.848	0.0145716
855.926	0.0145585
856.004	0.0145309
856.082	0.0145364
856.160	0.0145580
856.238	0.0144736
856.317	0.0144734
856.395	0.0145238
856.473	0.0144866
856.551	0.0146230
856.629	0.0146374
856.707	0.0145537
856.785	0.0144125
856.863	0.0145686
856.942	0.0145644
857.020	0.0145152
857.098	0.0144854
857.176	0.0145546
857.254	0.0145001
857.332	0.0145255
857.410	0.0144277
857.488	0.0143946
857.567	0.0144762
857.645	0.0143763
857.723	0.0144054
857.801	0.0144528
857.879	0.0145465
857.957	0.0144841
858.035	0.0144099
858.113	0.0145132
858.192	0.0145277
858.270	0.0144975
858.348	0.0144206
858.426	0.0144801
858.504	0.0143564
858.582	0.0144850
858.660	0.0145447
858.738	0.0144780
858.817	0.0143964
858.895	0.0145492
858.973	0.0145522
859.051	0.0145071
859.129	0.0146131
859.207	0.0144944
859.285	0.0144268
859.363	0.0145481
859.442	0.0145321
859.520	0.0144441
859.598	0.0143931
859.676	0.0143591
859.754	0.0144547
859.832	0.0143797
859.910	0.0144689
859.988	0.0144121
860.067	0.0144441
860.145	0.0143067
860.223	0.0142866
860.301	0.0143080
860.379	0.0143379
860.457	0.0141999
860.535	0.0143063
860.613	0.0142406
860.692	0.0143333
860.770	0.0142324
860.848	0.0142599
860.926	0.0142405
861.004	0.0143285
861.082	0.0141721
861.160	0.0142944
861.238	0.0143279
861.317	0.0142728
861.395	0.0142075
861.473	0.0142191
861.551	0.0140761
861.629	0.0141461
861.707	0.0141374
861.785	0.0141763
861.863	0.0140780
861.942	0.0141111
862.020	0.0140832
862.098	0.0142731
862.176	0.0141188
862.254	0.0140248
862.332	0.0140965
862.410	0.0141045
862.488	0.0141293
862.567	0.0142722
862.645	0.0141667
862.723	0.0141017
862.801	0.0141193
862.879	0.0141978
862.957	0.0142228
863.035	0.0142154
863.113	0.0141882
863.192	0.0141522
863.270	0.0142316
863.348	0.0142988
863.426	0.0141760
863.504	0.0141835
863.582	0.0142135
863.660	0.0142471
863.738	0.0142463
863.817	0.0143668
863.895	0.0142319
863.973	0.0142739
864.051	0.0143127
864.129	0.0144578
864.207	0.0143291
864.285	0.0144572
864.363	0.0143568
864.442	0.0143702
864.520	0.0144425
864.598	0.0144636
864.676	0.0143308
864.754	0.0142619
864.832	0.0144262
864.910	0.0144949
864.988	0.0144359
865.067	0.0144505
865.145	0.0142952
865.223	0.0143311
865.301	0.0143553
865.379	0.0144814
865.457	0.0143825
865.535	0.0143799
865.613	0.0144826
865.692	0.0145583
865.770	0.0143806
865.848	0.0143505
865.926	0.0145449
866.004	0.0144691
866.082	0.0143546
866.160	0.0144616
866.238	0.0144011
866.317	0.0144275
866.395	0.0144109
866.473	0.0143340
866.551	0.0145188
866.629	0.0144981
866.707	0.0143650
866.785	0.0144206
866.863	0.0145705
866.942	0.0145661
867.020	0.0144436
867.098	0.0144035
867.176	0.0145191
867.254	0.0145692
867.332	0.0142899
867.410	0.0144853
867.488	0.0145245
867.567	0.0145724
867.645	0.0145046
867.723	0.0146611
867.801	0.0144174
867.879	0.0145589
867.957	0.0146600
868.035	0.0145714
868.113	0.0144328
868.192	0.0144363
868.270	0.0147008
868.348	0.0144884
868.426	0.0145041
868.504	0.0144121
868.582	0.0145948
868.660	0.0145292
868.738	0.0145389
868.817	0.0144768
868.895	0.0145412
868.973	0.0144663
869.051	0.0143741
869.129	0.0145937
869.207	0.0145673
869.285	0.0145712
869.363	0.0143977
869.442	0.0144246
869.520	0.0143713
869.598	0.0143700
869.676	0.0145090
869.754	0.0143919
869.832	0.0144529
869.910	0.0144140
869.988	0.0144398
870.067	0.0144080
870.145	0.0144657
870.223	0.0144297
870.301	0.0144902
870.379	0.0144096
870.457	0.0142522
870.535	0.0143864
870.613	0.0145895
870.692	0.0143246
870.770	0.0143546
870.848	0.0144846
870.926	0.0144041
871.004	0.0144389
871.082	0.0144522
871.160	0.0144444
871.238	0.0144081
871.317	0.0145225
871.395	0.0144833
871.473	0.0143092
871.551	0.0143505
871.629	0.0142735
871.707	0.0143607
871.785	0.0142149
871.863	0.0144545
871.942	0.0143363
872.020	0.0144715
872.098	0.0143171
872.176	0.0142716
872.254	0.0143408
872.332	0.0144011
872.410	0.0143937
872.488	0.0143885
872.567	0.0144057
872.645	0.0142521
872.723	0.0144433
872.801	0.0143533
872.879	0.0144893
872.957	0.0143278
873.035	0.0142554
873.113	0.0143150
873.192	0.0143805
873.270	0.0143036
873.348	0.0143649
873.426	0.0145789
873.504	0.0144945
873.582	0.0143774
873.660	0.0145016
873.738	0.0144746
873.817	0.0142512
873.895	0.0144621
873.973	0.0145406
874.051	0.0142561
874.129	0.0143842
874.207	0.0144569
874.285	0.0144193
874.363	0.0143784
874.442	0.0143720
874.520	0.0143445
874.598	0.0145072
874.676	0.0143684
874.754	0.0143645
874.832	0.0143575
874.910	0.0143354
874.988	0.0143659
875.067	0.0144020
875.145	0.0143873
875.223	0.0143018
875.301	0.0145136
875.379	0.0144502
875.457	0.0143618
875.535	0.0143674
875.613	0.0142605
875.692	0.0144090
875.770	0.0144260
875.848	0.0143124
875.926	0.0143903
876.004	0.0144268
876.082	0.0144341
876.160	0.0144995
876.238	0.0144389
876.317	0.0143699
876.395	0.0143855
876.473	0.0145051
876.551	0.0143542
876.629	0.0143796
876.707	0.0144805
876.785	0.0144382
876.863	0.0144664
876.942	0.0142850
877.020	0.0145548
877.098	0.0143855
877.176	0.0143459
877.254	0.0144374
877.332	0.0142900
877.410	0.0143245
877.488	0.0145072
877.567	0.0144900
877.645	0.0142913
877.723	0.0143160
877.801	0.0143770
877.879	0.0143228
877.957	0.0144315
878.035	0.0145160
878.113	0.0143602
878.192	0.0143719
878.270	0.0142994
878.348	0.0144242
878.426	0.0142696
878.504	0.0141564
878.582	0.0143500
878.660	0.0141801
878.738	0.0143331
878.817	0.0144046
878.895	0.0143304
878.973	0.0142242
879.051	0.0142322
879.129	0.0142110
879.207	0.0142023
879.285	0.0143174
879.363	0.0142730
879.442	0.0142470
879.520	0.0142692
879.598	0.0142130
879.676	0.0141711
879.754	0.0141056
879.832	0.0142372
879.910	0.0140797
879.988	0.0141752
880.067	0.0142442
880.145	0.0141675
880.223	0.0141875
880.301	0.0141817
880.379	0.0142103
880.457	0.0141150
880.535	0.0142062
880.613	0.0141780
880.692	0.0141066
880.770	0.0140804
880.848	0.0140968
880.926	0.0141168
881.004	0.0142371
881.082	0.0140846
881.160	0.0141750
881.238	0.0141319
881.317	0.0142261
881.395	0.0142305
881.473	0.0141659
881.551	0.0142255
881.629	0.0141544
881.707	0.0140773
881.785	0.0141156
881.863	0.0141666
881.942	0.0140765
882.020	0.0140450
882.098	0.0141792
882.176	0.0140923
882.254	0.0141685
882.332	0.0141334
882.410	0.0140682
882.488	0.0140610
882.567	0.0141273
882.645	0.0141721
882.723	0.0141076
882.801	0.0141836
882.879	0.0141086
882.957	0.0141084
883.035	0.0141505
883.113	0.0141631
883.192	0.0141344
883.270	0.0144187
883.348	0.0142863
883.426	0.0141861
883.504	0.0142040
883.582	0.0141906
883.660	0.0142126
883.738	0.0143554
883.817	0.0143856
883.895	0.0143972
883.973	0.0143320
884.051	0.0144197
884.129	0.0144378
884.207	0.0143106
884.285	0.0144122
884.363	0.0144368
884.442	0.0145146
884.520	0.0144301
884.598	0.0145470
884.676	0.0144991
884.754	0.0145786
884.832	0.0145287
884.910	0.0144914
884.988	0.0144524
885.067	0.0146265
885.145	0.0145673
885.223	0.0147448
885.301	0.0145369
885.379	0.0145296
885.457	0.0145762
885.535	0.0146679
885.613	0.0146826
885.692	0.0144944
885.770	0.0145266
885.848	0.0144411
885.926	0.0143719
886.004	0.0144994
886.082	0.0145932
886.160	0.0145421
886.238	0.0145190
886.317	0.0142757
886.395	0.0144678
886.473	0.0142410
886.551	0.0142326
886.629	0.0144247
886.707	0.0143931
886.785	0.0143539
886.863	0.0142973
886.942	0.0142822
887.020	0.0143388
887.098	0.0142680
887.176	0.0143269
887.254	0.0143436
887.332	0.0143401
887.410	0.0142446
887.488	0.0144049
887.567	0.0142942
887.645	0.0142277
887.723	0.0142384
887.801	0.0142558
887.879	0.0141728
887.957	0.0142965
888.035	0.0144213
888.113	0.0143230
888.192	0.0142725
888.270	0.0142806
888.348	0.0141710
888.426	0.0142028
888.504	0.0143082
888.582	0.0143195
888.660	0.0141943
888.738	0.0141297
888.817	0.0143728
888.895	0.0144305
888.973	0.0143839
889.051	0.0143060
889.129	0.0143555
889.207	0.0144098
889.285	0.0145420
889.363	0.0144346
889.442	0.0143898
889.520	0.0143334
889.598	0.0143473
889.676	0.0143604
889.754	0.0144495
889.832	0.0143877
889.910	0.0144276
889.988	0.0144185
890.067	0.0145351
890.145	0.0143478
890.223	0.0142210
890.301	0.0141959
890.379	0.0143275
890.457	0.0144141
890.535	0.0142724
890.613	0.0143308
890.692	0.0142184
890.770	0.0140669
890.848	0.0142720
890.926	0.0142622
891.004	0.0142395
891.082	0.0143008
891.160	0.0142937
891.238	0.0142298
891.317	0.0142914
891.395	0.0143114
891.473	0.0142311
891.551	0.0142335
891.629	0.0142254
891.707	0.0141660
891.785	0.0142606
891.863	0.0142418
891.942	0.0142382
892.020	0.0143604
892.098	0.0142626
892.176	0.0142262
892.254	0.0141315
892.332	0.0142261
892.410	0.0142529
892.488	0.0142075
892.567	0.0143864
892.645	0.0142703
892.723	0.0142606
892.801	0.0143851
892.879	0.0143464
892.957	0.0143644
893.035	0.0143953
893.113	0.0143815
893.192	0.0145022
893.270	0.0144359
893.348	0.0143732
893.426	0.0145639
893.504	0.0144075
893.582	0.0144105
893.660	0.0144565
893.738	0.0144482
893.817	0.0142999
893.895	0.0143120
893.973	0.0143568
894.051	0.0144903
894.129	0.0142990
894.207	0.0143733
894.285	0.0143454
894.363	0.0142769
894.442	0.0143958
894.520	0.0142230
894.598	0.0142745
894.676	0.0142767
894.754	0.0142519
894.832	0.0142261
894.910	0.0143062
894.988	0.0142578
895.067	0.0141490
895.145	0.0142305
895.223	0.0141985
895.301	0.0142285
895.379	0.0145071
895.457	0.0141645
895.535	0.0142433
895.613	0.0142857
895.692	0.0142122
895.770	0.0141505
895.848	0.0143157
895.926	0.0142501
896.004	0.0143163
896.082	0.0142971
896.160	0.0142669
896.238	0.0142760
896.317	0.0142525
896.395	0.0143520
896.473	0.0143414
896.551	0.0142885
896.629	0.0142921
896.707	0.0143115
896.785	0.0143548
896.863	0.0143350
896.942	0.0142725
897.020	0.0145330
897.098	0.0143998
897.176	0.0145341
897.254	0.0145445
897.332	0.0143630
897.410	0.0144212
897.488	0.0144175
897.567	0.0143606
897.645	0.0145377
897.723	0.0145625
897.801	0.0143720
897.879	0.0145145
897.957	0.0144833
898.035	0.0145772
898.113	0.0146133
898.192	0.0145069
898.270	0.0144572
898.348	0.0144219
898.426	0.0144923
898.504	0.0145101
898.582	0.0145379
898.660	0.0144595
898.738	0.0143443
898.817	0.0144382
898.895	0.0144109
898.973	0.0142680
899.051	0.0142677
899.129	0.0143834
899.207	0.0142803
899.285	0.0143130
899.363	0.0141984
899.442	0.0143682
899.520	0.0144376
899.598	0.0144452
899.676	0.0141056
899.754	0.0142052
899.832	0.0143565
899.910	0.0142101
899.988	0.0142156
900.067	0.0141066
900.145	0.0143112
900.223	0.0142559
900.301	0.0142143
900.379	0.0143006
900.457	0.0142095
900.535	0.0141890
900.613	0.0142360
900.692	0.0141808
900.770	0.0143824
900.848	0.0142165
900.926	0.0142081
901.004	0.0141523
901.082	0.0142918
901.160	0.0142130
901.238	0.0142527
901.317	0.0142014
901.395	0.0143399
901.473	0.0144038
901.551	0.0142048
901.629	0.0142603
901.707	0.0142845
901.785	0.0142104
901.863	0.0143432
901.942	0.0143246
902.020	0.0142751
902.098	0.0142155
902.176	0.0141266
902.254	0.0142763
902.332	0.0142453
902.410	0.0142711
902.488	0.0144293
902.567	0.0142210
902.645	0.0142302
902.723	0.0143738
902.801	0.0142159
902.879	0.0143954
902.957	0.0142745
903.035	0.0143607
903.113	0.0141689
903.192	0.0141043
903.270	0.0142295
903.348	0.0140647
903.426	0.0141707
903.504	0.0141476
903.582	0.0140650
903.660	0.0141920
903.738	0.0141398
903.817	0.0142280
903.895	0.0141071
903.973	0.0141936
904.051	0.0142979
904.129	0.0142103
904.207	0.0141069
904.285	0.0141367
904.363	0.0142605
904.442	0.0141544
904.520	0.0141075
904.598	0.0141901
904.676	0.0143436
904.754	0.0142752
904.832	0.0142001
904.910	0.0142295
904.988	0.0142239
905.067	0.0141812
905.145	0.0142092
905.223	0.0142393
905.301	0.0142875
905.379	0.0144090
905.457	0.0143013
905.535	0.0144751
905.613	0.0143668
905.692	0.0143063
905.770	0.0144103
905.848	0.0144387
905.926	0.0145145
906.004	0.0143276
906.082	0.0145465
906.160	0.0145370
906.238	0.0145435
906.317	0.0144888
906.395	0.0143346
906.473	0.0144119
906.551	0.0145058
906.629	0.0144543
906.707	0.0144211
906.785	0.0144494
906.863	0.0144775
906.942	0.0145145
907.020	0.0144508
907.098	0.0144817
907.176	0.0143972
907.254	0.0143538
907.332	0.0144805
907.410	0.0144121
907.488	0.0143869
907.567	0.0144367
907.645	0.0144100
907.723	0.0142277
907.801	0.0144355
907.879	0.0143970
907.957	0.0142612
908.035	0.0143932
908.113	0.0142274
908.192	0.0143578
908.270	0.0143509
908.348	0.0143857
908.426	0.0143612
908.504	0.0141948
908.582	0.0144371
908.660	0.0143903
908.738	0.0142887
908.817	0.0143755
908.895	0.0143124
908.973	0.0141867
909.051	0.0143243
909.129	0.0142156
909.207	0.0142269
909.285	0.0141843
909.363	0.0143114
909.442	0.0143950
909.520	0.0143510
909.598	0.0142599
909.676	0.0142240
909.754	0.0142819
909.832	0.0144492
909.910	0.0143333
909.988	0.0142924
910.067	0.0143748
910.145	0.0145279
910.223	0.0144244
910.301	0.0143509
910.379	0.0145512
910.457	0.0146987
910.535	0.0146970
910.613	0.0145000
910.692	0.0145447
910.770	0.0144305
910.848	0.0145422
910.926	0.0144662
911.004	0.0144993
911.082	0.0145118
911.160	0.0145423
911.238	0.0144767
911.317	0.0144696
911.395	0.0144609
911.473	0.0145781
911.551	0.0144842
911.629	0.0143269
911.707	0.0144685
911.785	0.0142814
911.863	0.0143960
911.942	0.0144501
912.020	0.0145286
912.098	0.0143889
912.176	0.0142677
912.254	0.0143063
912.332	0.0144343
912.410	0.0144459
912.488	0.0143816
912.567	0.0142855
912.645	0.0143665
912.723	0.0143670
912.801	0.0142641
912.879	0.0143410
912.957	0.0144203
913.035	0.0144816
913.113	0.0145191
913.192	0.0145211
913.270	0.0143815
913.348	0.0143309
913.426	0.0144034
913.504	0.0145011
913.582	0.0145161
913.660	0.0144277
913.738	0.0143324
913.817	0.0143894
913.895	0.0143680
913.973	0.0144732
914.051	0.0144786
914.129	0.0144187
914.207	0.0143716
914.285	0.0142603
914.363	0.0144194
914.442	0.0144073
914.520	0.0143600
914.598	0.0142622
914.676	0.0143329
914.754	0.0143394
914.832	0.0144760
914.910	0.0142523
914.988	0.0144337
915.067	0.0143832
915.145	0.0142990
915.223	0.0142560
915.301	0.0142929
915.379	0.0143816
915.457	0.0143211
915.535	0.0144032
915.613	0.0143787
915.692	0.0143130
915.770	0.0143615
915.848	0.0143416
915.926	0.0144334
916.004	0.0143826
916.082	0.0142863
916.160	0.0142010
916.238	0.0142128
916.317	0.0142871
916.395	0.0144096
916.473	0.0143696
916.551	0.0142587
916.629	0.0142945
916.707	0.0142934
916.785	0.0142857
916.863	0.0143509
916.942	0.0142747
917.020	0.0143533
917.098	0.0143720
917.176	0.0145451
917.254	0.0144270
917.332	0.0143693
917.410	0.0143154
917.488	0.0143321
917.567	0.0144028
917.645	0.0145057
917.723	0.0144574
917.801	0.0143706
917.879	0.0143232
917.957	0.0143710
918.035	0.0146168
918.113	0.0144791
918.192	0.0144352
918.270	0.0145628
918.348	0.0144427
918.426	0.0145794
918.504	0.0146600
918.582	0.0144559
918.660	0.0146061
918.738	0.0145557
918.817	0.0146382
918.895	0.0146366
918.973	0.0146304
919.051	0.0146838
919.129	0.0146888
919.207	0.0146503
919.285	0.0147094
919.363	0.0146735
919.442	0.0146859
919.520	0.0146927
919.598	0.0146465
919.676	0.0147182
919.754	0.0147481
919.832	0.0145914
919.910	0.0146468
