06/29/2022	22:58:00	Ver.	4.1	UNKNOWN
Optical Delay	629.995835	Delta X		0.078125	Sweeps	1	Scan Rate	0/0
Coordinates	Axis 1	NaN	Axis 2	NaN	Axis 3	NaN	Axis 4	NaN	Axis 5	NaN	Axis 6	0.000000
TX Power	0.000000	RX Power	0.000000

629.996	0.0146177
630.074	0.0147319
630.152	0.0146111
630.230	0.0147141
630.308	0.0146512
630.386	0.0146305
630.465	0.0146165
630.543	0.0147104
630.621	0.0145450
630.699	0.0145683
630.777	0.0146397
630.855	0.0147404
630.933	0.0146819
631.011	0.0146946
631.090	0.0147634
631.168	0.0146740
631.246	0.0146284
631.324	0.0145863
631.402	0.0146918
631.480	0.0145351
631.558	0.0146185
631.636	0.0146246
631.715	0.0145275
631.793	0.0146300
631.871	0.0147449
631.949	0.0145637
632.027	0.0145616
632.105	0.0146285
632.183	0.0145110
632.261	0.0145801
632.340	0.0147610
632.418	0.0146737
632.496	0.0145845
632.574	0.0146312
632.652	0.0145257
632.730	0.0146310
632.808	0.0145955
632.886	0.0146038
632.965	0.0146030
633.043	0.0145090
633.121	0.0145696
633.199	0.0145856
633.277	0.0145012
633.355	0.0147239
633.433	0.0145896
633.511	0.0146862
633.590	0.0146416
633.668	0.0146442
633.746	0.0144535
633.824	0.0146153
633.902	0.0145005
633.980	0.0146539
634.058	0.0146673
634.136	0.0144637
634.215	0.0145320
634.293	0.0146594
634.371	0.0147728
634.449	0.0146507
634.527	0.0145278
634.605	0.0146470
634.683	0.0145807
634.761	0.0146787
634.840	0.0146336
634.918	0.0146130
634.996	0.0145639
635.074	0.0146510
635.152	0.0146693
635.230	0.0146176
635.308	0.0146785
635.386	0.0146245
635.465	0.0145947
635.543	0.0145432
635.621	0.0145819
635.699	0.0146789
635.777	0.0145673
635.855	0.0145892
635.933	0.0147356
636.011	0.0145450
636.090	0.0146347
636.168	0.0145744
636.246	0.0146494
636.324	0.0145386
636.402	0.0145245
636.480	0.0146648
636.558	0.0145755
636.636	0.0146940
636.715	0.0147009
636.793	0.0144617
636.871	0.0145062
636.949	0.0146582
637.027	0.0147456
637.105	0.0144939
637.183	0.0145269
637.261	0.0147635
637.340	0.0146457
637.418	0.0146277
637.496	0.0146625
637.574	0.0145165
637.652	0.0145587
637.730	0.0147074
637.808	0.0146278
637.886	0.0145679
637.965	0.0145547
638.043	0.0147367
638.121	0.0145648
638.199	0.0145699
638.277	0.0145636
638.355	0.0146732
638.433	0.0147449
638.511	0.0146886
638.590	0.0144474
638.668	0.0145884
638.746	0.0147452
638.824	0.0145926
638.902	0.0147466
638.980	0.0146348
639.058	0.0145121
639.136	0.0147156
639.215	0.0147799
639.293	0.0146158
639.371	0.0146433
639.449	0.0145550
639.527	0.0146895
639.605	0.0146243
639.683	0.0146890
639.761	0.0146654
639.840	0.0146587
639.918	0.0147062
639.996	0.0145973
640.074	0.0146562
640.152	0.0147375
640.230	0.0147803
640.308	0.0146622
640.386	0.0146488
640.465	0.0145689
640.543	0.0146026
640.621	0.0146319
640.699	0.0147390
640.777	0.0146803
640.855	0.0146337
640.933	0.0146159
641.011	0.0147183
641.090	0.0147142
641.168	0.0146045
641.246	0.0146563
641.324	0.0147308
641.402	0.0146838
641.480	0.0146165
641.558	0.0147118
641.636	0.0145850
641.715	0.0146674
641.793	0.0147153
641.871	0.0146765
641.949	0.0146972
642.027	0.0146223
642.105	0.0146115
642.183	0.0147621
642.261	0.0146575
642.340	0.0145676
642.418	0.0147234
642.496	0.0145878
642.574	0.0146606
642.652	0.0145560
642.730	0.0146169
642.808	0.0146197
642.886	0.0145910
642.965	0.0146822
643.043	0.0147116
643.121	0.0147232
643.199	0.0147587
643.277	0.0146789
643.355	0.0145695
643.433	0.0146764
643.511	0.0147565
643.590	0.0146317
643.668	0.0147747
643.746	0.0146472
643.824	0.0147000
643.902	0.0146107
643.980	0.0146500
644.058	0.0147102
644.136	0.0146067
644.215	0.0146381
644.293	0.0146105
644.371	0.0146848
644.449	0.0146702
644.527	0.0146301
644.605	0.0146976
644.683	0.0146665
644.761	0.0146635
644.840	0.0146469
644.918	0.0145706
644.996	0.0146998
645.074	0.0144693
645.152	0.0147688
645.230	0.0146107
645.308	0.0146243
645.386	0.0145164
645.465	0.0146880
645.543	0.0146048
645.621	0.0146485
645.699	0.0146671
645.777	0.0144630
645.855	0.0147610
645.933	0.0146971
646.011	0.0146679
646.090	0.0147085
646.168	0.0146227
646.246	0.0146729
646.324	0.0146462
646.402	0.0146497
646.480	0.0147432
646.558	0.0145576
646.636	0.0146293
646.715	0.0147327
646.793	0.0146039
646.871	0.0147257
646.949	0.0146902
647.027	0.0145216
647.105	0.0146478
647.183	0.0147345
647.261	0.0146471
647.340	0.0145942
647.418	0.0147236
647.496	0.0145977
647.574	0.0145388
647.652	0.0145623
647.730	0.0146198
647.808	0.0146473
647.886	0.0144275
647.965	0.0146024
648.043	0.0147055
648.121	0.0146774
648.199	0.0146026
648.277	0.0146107
648.355	0.0145608
648.433	0.0145692
648.511	0.0145634
648.590	0.0146645
648.668	0.0146579
648.746	0.0146897
648.824	0.0146547
648.902	0.0146169
648.980	0.0146739
649.058	0.0146165
649.136	0.0147083
649.215	0.0146218
649.293	0.0146135
649.371	0.0146528
649.449	0.0146293
649.527	0.0146758
649.605	0.0147210
649.683	0.0146198
649.761	0.0145685
649.840	0.0145733
649.918	0.0145790
649.996	0.0145480
650.074	0.0146841
650.152	0.0146180
650.230	0.0146335
650.308	0.0146564
650.386	0.0146407
650.465	0.0145816
650.543	0.0147559
650.621	0.0147329
650.699	0.0147777
650.777	0.0145804
650.855	0.0146344
650.933	0.0146243
651.011	0.0145816
651.090	0.0147546
651.168	0.0146951
651.246	0.0147727
651.324	0.0146558
651.402	0.0146410
651.480	0.0146495
651.558	0.0147182
651.636	0.0144521
651.715	0.0145124
651.793	0.0147170
651.871	0.0147103
651.949	0.0146032
652.027	0.0146568
652.105	0.0146358
652.183	0.0146687
652.261	0.0146210
652.340	0.0146887
652.418	0.0145711
652.496	0.0146557
652.574	0.0145737
652.652	0.0147457
652.730	0.0147495
652.808	0.0145840
652.886	0.0145975
652.965	0.0146134
653.043	0.0146398
653.121	0.0146677
653.199	0.0146157
653.277	0.0145781
653.355	0.0145986
653.433	0.0147560
653.511	0.0147014
653.590	0.0146095
653.668	0.0145467
653.746	0.0147114
653.824	0.0146807
653.902	0.0146433
653.980	0.0146593
654.058	0.0146621
654.136	0.0146553
654.215	0.0145956
654.293	0.0147234
654.371	0.0146995
654.449	0.0146500
654.527	0.0145580
654.605	0.0146916
654.683	0.0147008
654.761	0.0145287
654.840	0.0145777
654.918	0.0147704
654.996	0.0146908
655.074	0.0145586
655.152	0.0146844
655.230	0.0145766
655.308	0.0147717
655.386	0.0148013
655.465	0.0147029
655.543	0.0144936
655.621	0.0145480
655.699	0.0147083
655.777	0.0147194
655.855	0.0147266
655.933	0.0146416
656.011	0.0145677
656.090	0.0146474
656.168	0.0147058
656.246	0.0147212
656.324	0.0145850
656.402	0.0145977
656.480	0.0145746
656.558	0.0146812
656.636	0.0144400
656.715	0.0145895
656.793	0.0146005
656.871	0.0146375
656.949	0.0146536
657.027	0.0146808
657.105	0.0145456
657.183	0.0145982
657.261	0.0147172
657.340	0.0146136
657.418	0.0148038
657.496	0.0145571
657.574	0.0146480
657.652	0.0146726
657.730	0.0146006
657.808	0.0145966
657.886	0.0145986
657.965	0.0146352
658.043	0.0147237
658.121	0.0145634
658.199	0.0146362
658.277	0.0147685
658.355	0.0146838
658.433	0.0146315
658.511	0.0146008
658.590	0.0145625
658.668	0.0144389
658.746	0.0147002
658.824	0.0147427
658.902	0.0147803
658.980	0.0147470
659.058	0.0146545
659.136	0.0145301
659.215	0.0146972
659.293	0.0147014
659.371	0.0146420
659.449	0.0146922
659.527	0.0146174
659.605	0.0145808
659.683	0.0147337
659.761	0.0145403
659.840	0.0146195
659.918	0.0147471
659.996	0.0145910
660.074	0.0147724
660.152	0.0146357
660.230	0.0147132
660.308	0.0146012
660.386	0.0144787
660.465	0.0147782
660.543	0.0146638
660.621	0.0146999
660.699	0.0146505
660.777	0.0147646
660.855	0.0146645
660.933	0.0147433
661.011	0.0146416
661.090	0.0146944
661.168	0.0146490
661.246	0.0146559
661.324	0.0145879
661.402	0.0146113
661.480	0.0146217
661.558	0.0145390
661.636	0.0146040
661.715	0.0147025
661.793	0.0145824
661.871	0.0146142
661.949	0.0146050
662.027	0.0146719
662.105	0.0145437
662.183	0.0146465
662.261	0.0145634
662.340	0.0146719
662.418	0.0146258
662.496	0.0146323
662.574	0.0147176
662.652	0.0146700
662.730	0.0146408
662.808	0.0145872
662.886	0.0146975
662.965	0.0145972
663.043	0.0147520
663.121	0.0147472
663.199	0.0146136
663.277	0.0145929
663.355	0.0146063
663.433	0.0146207
663.511	0.0146899
663.590	0.0147738
663.668	0.0147822
663.746	0.0147199
663.824	0.0146600
663.902	0.0146313
663.980	0.0146377
664.058	0.0147099
664.136	0.0146928
664.215	0.0145452
664.293	0.0146710
664.371	0.0147062
664.449	0.0148265
664.527	0.0147204
664.605	0.0145595
664.683	0.0145805
664.761	0.0146868
664.840	0.0147082
664.918	0.0146477
664.996	0.0147504
665.074	0.0146432
665.152	0.0147012
665.230	0.0146810
665.308	0.0146391
665.386	0.0146480
665.465	0.0145742
665.543	0.0147095
665.621	0.0147628
665.699	0.0146095
665.777	0.0145858
665.855	0.0146578
665.933	0.0146828
666.011	0.0147724
666.090	0.0146445
666.168	0.0145612
666.246	0.0146910
666.324	0.0146657
666.402	0.0145534
666.480	0.0146851
666.558	0.0146388
666.636	0.0146384
666.715	0.0145638
666.793	0.0145766
666.871	0.0145522
666.949	0.0148078
667.027	0.0147604
667.105	0.0147033
667.183	0.0147473
667.261	0.0144212
667.340	0.0146587
667.418	0.0147218
667.496	0.0145442
667.574	0.0147361
667.652	0.0147640
667.730	0.0146958
667.808	0.0146518
667.886	0.0146578
667.965	0.0146100
668.043	0.0146148
668.121	0.0146812
668.199	0.0146496
668.277	0.0144839
668.355	0.0147261
668.433	0.0146812
668.511	0.0147871
668.590	0.0146507
668.668	0.0146471
668.746	0.0146548
668.824	0.0145442
668.902	0.0146499
668.980	0.0145113
669.058	0.0145839
669.136	0.0146147
669.215	0.0146799
669.293	0.0145673
669.371	0.0145065
669.449	0.0146597
669.527	0.0146400
669.605	0.0145590
669.683	0.0146485
669.761	0.0145489
669.840	0.0146548
669.918	0.0145337
669.996	0.0147150
670.074	0.0147074
670.152	0.0145863
670.230	0.0144070
670.308	0.0145824
670.386	0.0144887
670.465	0.0146111
670.543	0.0145886
670.621	0.0146047
670.699	0.0146193
670.777	0.0145320
670.855	0.0145208
670.933	0.0146806
671.011	0.0146529
671.090	0.0147620
671.168	0.0146220
671.246	0.0145409
671.324	0.0147282
671.402	0.0146764
671.480	0.0147030
671.558	0.0146217
671.636	0.0147694
671.715	0.0146556
671.793	0.0146541
671.871	0.0145657
671.949	0.0146922
672.027	0.0146377
672.105	0.0145836
672.183	0.0146442
672.261	0.0145001
672.340	0.0145965
672.418	0.0146433
672.496	0.0146570
672.574	0.0146392
672.652	0.0146390
672.730	0.0146204
672.808	0.0146082
672.886	0.0145275
672.965	0.0146257
673.043	0.0146688
673.121	0.0147568
673.199	0.0147137
673.277	0.0146583
673.355	0.0147041
673.433	0.0146125
673.511	0.0145794
673.590	0.0147422
673.668	0.0146832
673.746	0.0146499
673.824	0.0147020
673.902	0.0149012
673.980	0.0147586
674.058	0.0146257
674.136	0.0144893
674.215	0.0147664
674.293	0.0146680
674.371	0.0146226
674.449	0.0146819
674.527	0.0147440
674.605	0.0146648
674.683	0.0145422
674.761	0.0146320
674.840	0.0147220
674.918	0.0144964
674.996	0.0146655
675.074	0.0148389
675.152	0.0145240
675.230	0.0145879
675.308	0.0147342
675.386	0.0146194
675.465	0.0146760
675.543	0.0146081
675.621	0.0145576
675.699	0.0146298
675.777	0.0146545
675.855	0.0146111
675.933	0.0145090
676.011	0.0146036
676.090	0.0145598
676.168	0.0146375
676.246	0.0146139
676.324	0.0144961
676.402	0.0146895
676.480	0.0147643
676.558	0.0146270
676.636	0.0146258
676.715	0.0145750
676.793	0.0146054
676.871	0.0146652
676.949	0.0147469
677.027	0.0145335
677.105	0.0146497
677.183	0.0145908
677.261	0.0145644
677.340	0.0145760
677.418	0.0145872
677.496	0.0146168
677.574	0.0145512
677.652	0.0144917
677.730	0.0145413
677.808	0.0146965
677.886	0.0146390
677.965	0.0146746
678.043	0.0147691
678.121	0.0146540
678.199	0.0145557
678.277	0.0146074
678.355	0.0147846
678.433	0.0146120
678.511	0.0145619
678.590	0.0146068
678.668	0.0145190
678.746	0.0147580
678.824	0.0147321
678.902	0.0145790
678.980	0.0144369
679.058	0.0145680
679.136	0.0145580
679.215	0.0145400
679.293	0.0146230
679.371	0.0145702
679.449	0.0145705
679.527	0.0145851
679.605	0.0147178
679.683	0.0146349
679.761	0.0146828
679.840	0.0146944
679.918	0.0146198
679.996	0.0146096
680.074	0.0146947
680.152	0.0145715
680.230	0.0146742
680.308	0.0146149
680.386	0.0146751
680.465	0.0146793
680.543	0.0147350
680.621	0.0146788
680.699	0.0145689
680.777	0.0145892
680.855	0.0145851
680.933	0.0145440
681.011	0.0146159
681.090	0.0145499
681.168	0.0146108
681.246	0.0146344
681.324	0.0146467
681.402	0.0146030
681.480	0.0146576
681.558	0.0146910
681.636	0.0145430
681.715	0.0145811
681.793	0.0146519
681.871	0.0147633
681.949	0.0145508
682.027	0.0146067
682.105	0.0146043
682.183	0.0146883
682.261	0.0146864
682.340	0.0145643
682.418	0.0147092
682.496	0.0147405
682.574	0.0145455
682.652	0.0145379
682.730	0.0145102
682.808	0.0146375
682.886	0.0146420
682.965	0.0147427
683.043	0.0145040
683.121	0.0147068
683.199	0.0148052
683.277	0.0146985
683.355	0.0146736
683.433	0.0146127
683.511	0.0147015
683.590	0.0147260
683.668	0.0147905
683.746	0.0147597
683.824	0.0147459
683.902	0.0147407
683.980	0.0147533
684.058	0.0147095
684.136	0.0146445
684.215	0.0145866
684.293	0.0145789
684.371	0.0145850
684.449	0.0146768
684.527	0.0146696
684.605	0.0147103
684.683	0.0146612
684.761	0.0147432
684.840	0.0147252
684.918	0.0146631
684.996	0.0147278
685.074	0.0147807
685.152	0.0146593
685.230	0.0147495
685.308	0.0145888
685.386	0.0147139
685.465	0.0147791
685.543	0.0147608
685.621	0.0146812
685.699	0.0146041
685.777	0.0146261
685.855	0.0146011
685.933	0.0147749
686.011	0.0146221
686.090	0.0146590
686.168	0.0147073
686.246	0.0147112
686.324	0.0146616
686.402	0.0147179
686.480	0.0146143
686.558	0.0145905
686.636	0.0147470
686.715	0.0148123
686.793	0.0146765
686.871	0.0146578
686.949	0.0146727
687.027	0.0146627
687.105	0.0146761
687.183	0.0145398
687.261	0.0146060
687.340	0.0146294
687.418	0.0147360
687.496	0.0145210
687.574	0.0146320
687.652	0.0146674
687.730	0.0146621
687.808	0.0145530
687.886	0.0146729
687.965	0.0145715
688.043	0.0146664
688.121	0.0146466
688.199	0.0146347
688.277	0.0146506
688.355	0.0146128
688.433	0.0146307
688.511	0.0146300
688.590	0.0145323
688.668	0.0146613
688.746	0.0146764
688.824	0.0147264
688.902	0.0146968
688.980	0.0146847
689.058	0.0146594
689.136	0.0147436
689.215	0.0147228
689.293	0.0147504
689.371	0.0147038
689.449	0.0146555
689.527	0.0146887
689.605	0.0147115
689.683	0.0146783
689.761	0.0146828
689.840	0.0145078
689.918	0.0145982
689.996	0.0146369
690.074	0.0146586
690.152	0.0147355
690.230	0.0147653
690.308	0.0147051
690.386	0.0146326
690.465	0.0146967
690.543	0.0147816
690.621	0.0147122
690.699	0.0145929
690.777	0.0147178
690.855	0.0147036
690.933	0.0146187
691.011	0.0145982
691.090	0.0146658
691.168	0.0146518
691.246	0.0146424
691.324	0.0146262
691.402	0.0144890
691.480	0.0147282
691.558	0.0146875
691.636	0.0146400
691.715	0.0146831
691.793	0.0147494
691.871	0.0146461
691.949	0.0146960
692.027	0.0146033
692.105	0.0145857
692.183	0.0146419
692.261	0.0145147
692.340	0.0143940
692.418	0.0145032
692.496	0.0144809
692.574	0.0145995
692.652	0.0146031
692.730	0.0146026
692.808	0.0146109
692.886	0.0145959
692.965	0.0144631
693.043	0.0145307
693.121	0.0145346
693.199	0.0145992
693.277	0.0145315
693.355	0.0145487
693.433	0.0146773
693.511	0.0147028
693.590	0.0147375
693.668	0.0148698
693.746	0.0148499
693.824	0.0148238
693.902	0.0145997
693.980	0.0147130
694.058	0.0145454
694.136	0.0145773
694.215	0.0145037
694.293	0.0142759
694.371	0.0143494
694.449	0.0142349
694.527	0.0143999
694.605	0.0143752
694.683	0.0143517
694.761	0.0145458
694.840	0.0148708
694.918	0.0147665
694.996	0.0149823
695.074	0.0148551
695.152	0.0149523
695.230	0.0150002
695.308	0.0149194
695.386	0.0147882
695.465	0.0146861
695.543	0.0145977
695.621	0.0145026
695.699	0.0144479
695.777	0.0142075
695.855	0.0141940
695.933	0.0142490
696.011	0.0141733
696.090	0.0142580
696.168	0.0142968
696.246	0.0144334
696.324	0.0145006
696.402	0.0146117
696.480	0.0147762
696.558	0.0148524
696.636	0.0150486
696.715	0.0151221
696.793	0.0150330
696.871	0.0149567
696.949	0.0150772
697.027	0.0148949
697.105	0.0148204
697.183	0.0147074
697.261	0.0144500
697.340	0.0144953
697.418	0.0143717
697.496	0.0143626
697.574	0.0144108
697.652	0.0142523
697.730	0.0143059
697.808	0.0142374
697.886	0.0143807
697.965	0.0145509
698.043	0.0146787
698.121	0.0147342
698.199	0.0149612
698.277	0.0150934
698.355	0.0149822
698.433	0.0150325
698.511	0.0151029
698.590	0.0150676
698.668	0.0149667
698.746	0.0148091
698.824	0.0147498
698.902	0.0146525
698.980	0.0145892
699.058	0.0143655
699.136	0.0143262
699.215	0.0143413
699.293	0.0141241
699.371	0.0141228
699.449	0.0143267
699.527	0.0144172
699.605	0.0144407
699.683	0.0146568
699.761	0.0146068
699.840	0.0147019
699.918	0.0148058
699.996	0.0148311
700.074	0.0147735
700.152	0.0147202
700.230	0.0147984
700.308	0.0148586
700.386	0.0149634
700.465	0.0149476
700.543	0.0148880
700.621	0.0150098
700.699	0.0149341
700.777	0.0147584
700.855	0.0146790
700.933	0.0146540
701.011	0.0144652
701.090	0.0143535
701.168	0.0143017
701.246	0.0142302
701.324	0.0141980
701.402	0.0141550
701.480	0.0142362
701.558	0.0142752
701.636	0.0144464
701.715	0.0146439
701.793	0.0145731
701.871	0.0148484
701.949	0.0149650
702.027	0.0152208
702.105	0.0152364
702.183	0.0149377
702.261	0.0150819
702.340	0.0149493
702.418	0.0147431
702.496	0.0148820
702.574	0.0146382
702.652	0.0145679
702.730	0.0143943
702.808	0.0144655
702.886	0.0143628
702.965	0.0143159
703.043	0.0140825
703.121	0.0142577
703.199	0.0143912
703.277	0.0142989
703.355	0.0144899
703.433	0.0145811
703.511	0.0146296
703.590	0.0147681
703.668	0.0147213
703.746	0.0150649
703.824	0.0147421
703.902	0.0149277
703.980	0.0150079
704.058	0.0150776
704.136	0.0148736
704.215	0.0149910
704.293	0.0147861
704.371	0.0148914
704.449	0.0148384
704.527	0.0147252
704.605	0.0145462
704.683	0.0143739
704.761	0.0142816
704.840	0.0143056
704.918	0.0142365
704.996	0.0141767
705.074	0.0143704
705.152	0.0144347
705.230	0.0141991
705.308	0.0143945
705.386	0.0143145
705.465	0.0146689
705.543	0.0147083
705.621	0.0145998
705.699	0.0147802
705.777	0.0148797
705.855	0.0150803
705.933	0.0150002
706.011	0.0150920
706.090	0.0150814
706.168	0.0150228
706.246	0.0151302
706.324	0.0149700
706.402	0.0149448
706.480	0.0147694
706.558	0.0146490
706.636	0.0144411
706.715	0.0143613
706.793	0.0143661
706.871	0.0141404
706.949	0.0139182
707.027	0.0139954
707.105	0.0141537
707.183	0.0141904
707.261	0.0143284
707.340	0.0146272
707.418	0.0147310
707.496	0.0146591
707.574	0.0149090
707.652	0.0151674
707.730	0.0151423
707.808	0.0151496
707.886	0.0151689
707.965	0.0150423
708.043	0.0149424
708.121	0.0148829
708.199	0.0148573
708.277	0.0145296
708.355	0.0143493
708.433	0.0142659
708.511	0.0142140
708.590	0.0140541
708.668	0.0140882
708.746	0.0141127
708.824	0.0141556
708.902	0.0144016
708.980	0.0145518
709.058	0.0147179
709.136	0.0148273
709.215	0.0149858
709.293	0.0150239
709.371	0.0151367
709.449	0.0151458
709.527	0.0152158
709.605	0.0150222
709.683	0.0150272
709.761	0.0147934
709.840	0.0147514
709.918	0.0145351
709.996	0.0143274
710.074	0.0143133
710.152	0.0143581
710.230	0.0142265
710.308	0.0142741
710.386	0.0143250
710.465	0.0144610
710.543	0.0145349
710.621	0.0146384
710.699	0.0148087
710.777	0.0148942
710.855	0.0147966
710.933	0.0150793
711.011	0.0148882
711.090	0.0149624
711.168	0.0148431
711.246	0.0147863
711.324	0.0146510
711.402	0.0147709
711.480	0.0145097
711.558	0.0143833
711.636	0.0142310
711.715	0.0141807
711.793	0.0141930
711.871	0.0144145
711.949	0.0143913
712.027	0.0144656
712.105	0.0146106
712.183	0.0147027
712.261	0.0150570
712.340	0.0152191
712.418	0.0149844
712.496	0.0152247
712.574	0.0151556
712.652	0.0150833
712.730	0.0150879
712.808	0.0150138
712.886	0.0147450
712.965	0.0146330
713.043	0.0142802
713.121	0.0141598
713.199	0.0142668
713.277	0.0141599
713.355	0.0141487
713.433	0.0141520
713.511	0.0143298
713.590	0.0144215
713.668	0.0144634
713.746	0.0146873
713.824	0.0146502
713.902	0.0147147
713.980	0.0149047
714.058	0.0147438
714.136	0.0148626
714.215	0.0149916
714.293	0.0149418
714.371	0.0149075
714.449	0.0149815
714.527	0.0150069
714.605	0.0150583
714.683	0.0149002
714.761	0.0149548
714.840	0.0148220
714.918	0.0145303
714.996	0.0145368
715.074	0.0143484
715.152	0.0141579
715.230	0.0141204
715.308	0.0140645
715.386	0.0139013
715.465	0.0137975
715.543	0.0139330
715.621	0.0139162
715.699	0.0139150
715.777	0.0142830
715.855	0.0145087
715.933	0.0145714
716.011	0.0149594
716.090	0.0150816
716.168	0.0152439
716.246	0.0154653
716.324	0.0155980
716.402	0.0154975
716.480	0.0155695
716.558	0.0153140
716.636	0.0153033
716.715	0.0150180
716.793	0.0148429
716.871	0.0147792
716.949	0.0144083
717.027	0.0140091
717.105	0.0139714
717.183	0.0138139
717.261	0.0138529
717.340	0.0139253
717.418	0.0138273
717.496	0.0140123
717.574	0.0141814
717.652	0.0142747
717.730	0.0143640
717.808	0.0147694
717.886	0.0147765
717.965	0.0150471
718.043	0.0149872
718.121	0.0151617
718.199	0.0152550
718.277	0.0151754
718.355	0.0151600
718.433	0.0152553
718.511	0.0151556
718.590	0.0150830
718.668	0.0149375
718.746	0.0148584
718.824	0.0146436
718.902	0.0145645
718.980	0.0144236
719.058	0.0142912
719.136	0.0142992
719.215	0.0142355
719.293	0.0142431
719.371	0.0140079
719.449	0.0140621
719.527	0.0140662
719.605	0.0142877
719.683	0.0142039
719.761	0.0141580
719.840	0.0141973
719.918	0.0143027
719.996	0.0144862
720.074	0.0145155
720.152	0.0145410
720.230	0.0145964
720.308	0.0145681
720.386	0.0144754
720.465	0.0145508
720.543	0.0145634
720.621	0.0145422
720.699	0.0147265
720.777	0.0148439
720.855	0.0150823
720.933	0.0152555
721.011	0.0154707
721.090	0.0154688
721.168	0.0153962
721.246	0.0154248
721.324	0.0153831
721.402	0.0152424
721.480	0.0153590
721.558	0.0150123
721.636	0.0147916
721.715	0.0146366
721.793	0.0144000
721.871	0.0141693
721.949	0.0141733
722.027	0.0141189
722.105	0.0142304
722.183	0.0141499
722.261	0.0140916
722.340	0.0141920
722.418	0.0142837
722.496	0.0144907
722.574	0.0145809
722.652	0.0144373
722.730	0.0145685
722.808	0.0147218
722.886	0.0145727
722.965	0.0149511
723.043	0.0149689
723.121	0.0149586
723.199	0.0151064
723.277	0.0152980
723.355	0.0151861
723.433	0.0151256
723.511	0.0152501
723.590	0.0153296
723.668	0.0153720
723.746	0.0153549
723.824	0.0152063
723.902	0.0150622
723.980	0.0150759
724.058	0.0149870
724.136	0.0149001
724.215	0.0145353
724.293	0.0143488
724.371	0.0142500
724.449	0.0140769
724.527	0.0139576
724.605	0.0137518
724.683	0.0137235
724.761	0.0136528
724.840	0.0136180
724.918	0.0137527
724.996	0.0137102
725.074	0.0139209
725.152	0.0138586
725.230	0.0140774
725.308	0.0142509
725.386	0.0144630
725.465	0.0143468
725.543	0.0145364
725.621	0.0148880
725.699	0.0147021
725.777	0.0147343
725.855	0.0148223
725.933	0.0148124
726.011	0.0148004
726.090	0.0148818
726.168	0.0148840
726.246	0.0152257
726.324	0.0151083
726.402	0.0151847
726.480	0.0151220
726.558	0.0153123
726.636	0.0152330
726.715	0.0151509
726.793	0.0153076
726.871	0.0153239
726.949	0.0154253
727.027	0.0154232
727.105	0.0153284
727.183	0.0152299
727.261	0.0152879
727.340	0.0152279
727.418	0.0150989
727.496	0.0151084
727.574	0.0149578
727.652	0.0146899
727.730	0.0145214
727.808	0.0144427
727.886	0.0142523
727.965	0.0140224
728.043	0.0138287
728.121	0.0137759
728.199	0.0137862
728.277	0.0137305
728.355	0.0137832
728.433	0.0137421
728.511	0.0138338
728.590	0.0138763
728.668	0.0140869
728.746	0.0141916
728.824	0.0141045
728.902	0.0142348
728.980	0.0141438
729.058	0.0142203
729.136	0.0142099
729.215	0.0143083
729.293	0.0143656
729.371	0.0143098
729.449	0.0143677
729.527	0.0145139
729.605	0.0146977
729.683	0.0148174
729.761	0.0148475
729.840	0.0149715
729.918	0.0150972
729.996	0.0150715
730.074	0.0151808
730.152	0.0154357
730.230	0.0153984
730.308	0.0154464
730.386	0.0154596
730.465	0.0155862
730.543	0.0155877
730.621	0.0155657
730.699	0.0154694
730.777	0.0155272
730.855	0.0152829
730.933	0.0151685
731.011	0.0151847
731.090	0.0149736
731.168	0.0149554
731.246	0.0148348
731.324	0.0146301
731.402	0.0144555
731.480	0.0141929
731.558	0.0141592
731.636	0.0137761
731.715	0.0135420
731.793	0.0133404
731.871	0.0132536
731.949	0.0131371
732.027	0.0128466
732.105	0.0126274
732.183	0.0127011
732.261	0.0126134
732.340	0.0128044
732.418	0.0130004
732.496	0.0132535
732.574	0.0136012
732.652	0.0138161
732.730	0.0141124
732.808	0.0144093
732.886	0.0148524
732.965	0.0151679
733.043	0.0154488
733.121	0.0159309
733.199	0.0160623
733.277	0.0163355
733.355	0.0165492
733.433	0.0166525
733.511	0.0167714
733.590	0.0168149
733.668	0.0168484
733.746	0.0166169
733.824	0.0165635
733.902	0.0164174
733.980	0.0164014
734.058	0.0161745
734.136	0.0159147
734.215	0.0156522
734.293	0.0154958
734.371	0.0154375
734.449	0.0154706
734.527	0.0150593
734.605	0.0148689
734.683	0.0148757
734.761	0.0146459
734.840	0.0144042
734.918	0.0140762
734.996	0.0138339
735.074	0.0136167
735.152	0.0135091
735.230	0.0132745
735.308	0.0130194
735.386	0.0127084
735.465	0.0126059
735.543	0.0127371
735.621	0.0126259
735.699	0.0124171
735.777	0.0124699
735.855	0.0125697
735.933	0.0127313
736.011	0.0127856
736.090	0.0130318
736.168	0.0131853
736.246	0.0133910
736.324	0.0135227
736.402	0.0137829
736.480	0.0139960
736.558	0.0143014
736.636	0.0145332
736.715	0.0149304
736.793	0.0150933
736.871	0.0153803
736.949	0.0154970
737.027	0.0156639
737.105	0.0159068
737.183	0.0159299
737.261	0.0160281
737.340	0.0159836
737.418	0.0160838
737.496	0.0161404
737.574	0.0161085
737.652	0.0161184
737.730	0.0160643
737.808	0.0158761
737.886	0.0158347
737.965	0.0156389
738.043	0.0156528
738.121	0.0155891
738.199	0.0154359
738.277	0.0153640
738.355	0.0152206
738.433	0.0153526
738.511	0.0154338
738.590	0.0153677
738.668	0.0153011
738.746	0.0153390
738.824	0.0154227
738.902	0.0154200
738.980	0.0153460
739.058	0.0151756
739.136	0.0150715
739.215	0.0150348
739.293	0.0149345
739.371	0.0147607
739.449	0.0145231
739.527	0.0144043
739.605	0.0141543
739.683	0.0140957
739.761	0.0138460
739.840	0.0137029
739.918	0.0135739
739.996	0.0135145
740.074	0.0134541
740.152	0.0135161
740.230	0.0133243
740.308	0.0134074
740.386	0.0134016
740.465	0.0133836
740.543	0.0133924
740.621	0.0132044
740.699	0.0131946
740.777	0.0133070
740.855	0.0133029
740.933	0.0134026
741.011	0.0134646
741.090	0.0134283
741.168	0.0135968
741.246	0.0135521
741.324	0.0139041
741.402	0.0139105
741.480	0.0141270
741.558	0.0142458
741.636	0.0144954
741.715	0.0146983
741.793	0.0148740
741.871	0.0150388
741.949	0.0152599
742.027	0.0154948
742.105	0.0154591
742.183	0.0155551
742.261	0.0157882
742.340	0.0157373
742.418	0.0156531
742.496	0.0156683
742.574	0.0159595
742.652	0.0160014
742.730	0.0158157
742.808	0.0157877
742.886	0.0156917
742.965	0.0156756
743.043	0.0154952
743.121	0.0153827
743.199	0.0151022
743.277	0.0150400
743.355	0.0148331
743.433	0.0145819
743.511	0.0145007
743.590	0.0145451
743.668	0.0145484
743.746	0.0144460
743.824	0.0144365
743.902	0.0144305
743.980	0.0146376
744.058	0.0146012
744.136	0.0147375
744.215	0.0146557
744.293	0.0148445
744.371	0.0148274
744.449	0.0148791
744.527	0.0149574
744.605	0.0148359
744.683	0.0149015
744.761	0.0147559
744.840	0.0148041
744.918	0.0148885
744.996	0.0147874
745.074	0.0147294
745.152	0.0148193
745.230	0.0148778
745.308	0.0150175
745.386	0.0149291
745.465	0.0149226
745.543	0.0149469
745.621	0.0148974
745.699	0.0149197
745.777	0.0148885
745.855	0.0146899
745.933	0.0147668
746.011	0.0144789
746.090	0.0141630
746.168	0.0139867
746.246	0.0137563
746.324	0.0132080
746.402	0.0130504
746.480	0.0125915
746.558	0.0121667
746.636	0.0119477
746.715	0.0117136
746.793	0.0115997
746.871	0.0115777
746.949	0.0115656
747.027	0.0118004
747.105	0.0122711
747.183	0.0126978
747.261	0.0129980
747.340	0.0137601
747.418	0.0143859
747.496	0.0150632
747.574	0.0157925
747.652	0.0162865
747.730	0.0167985
747.808	0.0173438
747.886	0.0175844
747.965	0.0179013
748.043	0.0179441
748.121	0.0179549
748.199	0.0177331
748.277	0.0175103
748.355	0.0172678
748.433	0.0168956
748.511	0.0163924
748.590	0.0159324
748.668	0.0155174
748.746	0.0150584
748.824	0.0146832
748.902	0.0143288
748.980	0.0139057
749.058	0.0139179
749.136	0.0138672
749.215	0.0137761
749.293	0.0136885
749.371	0.0138710
749.449	0.0139671
749.527	0.0140833
749.605	0.0143398
749.683	0.0145490
749.761	0.0145131
749.840	0.0146885
749.918	0.0148524
749.996	0.0148954
750.074	0.0148786
750.152	0.0147932
750.230	0.0147387
750.308	0.0146445
750.386	0.0146571
750.465	0.0145409
750.543	0.0144054
750.621	0.0144339
750.699	0.0143295
750.777	0.0145514
750.855	0.0145195
750.933	0.0144945
751.011	0.0145844
751.090	0.0146079
751.168	0.0146696
751.246	0.0147282
751.324	0.0147927
751.402	0.0146628
751.480	0.0147982
751.558	0.0148085
751.636	0.0148502
751.715	0.0146622
751.793	0.0146053
751.871	0.0144353
751.949	0.0140878
752.027	0.0139713
752.105	0.0137355
752.183	0.0134945
752.261	0.0130913
752.340	0.0128609
752.418	0.0127164
752.496	0.0125089
752.574	0.0123955
752.652	0.0122308
752.730	0.0122741
752.808	0.0125272
752.886	0.0127504
752.965	0.0129577
753.043	0.0131516
753.121	0.0135153
753.199	0.0141896
753.277	0.0145775
753.355	0.0149277
753.433	0.0154086
753.511	0.0157947
753.590	0.0163022
753.668	0.0165200
753.746	0.0166363
753.824	0.0169432
753.902	0.0170702
753.980	0.0171715
754.058	0.0170984
754.136	0.0169759
754.215	0.0168840
754.293	0.0165345
754.371	0.0163374
754.449	0.0160473
754.527	0.0157827
754.605	0.0153963
754.683	0.0152068
754.761	0.0148008
754.840	0.0145675
754.918	0.0142445
754.996	0.0140205
755.074	0.0140627
755.152	0.0138849
755.230	0.0137183
755.308	0.0135559
755.386	0.0136335
755.465	0.0138725
755.543	0.0137775
755.621	0.0136770
755.699	0.0139658
755.777	0.0139063
755.855	0.0141109
755.933	0.0142658
756.011	0.0144777
756.090	0.0145933
756.168	0.0146805
756.246	0.0148827
756.324	0.0148740
756.402	0.0150673
756.480	0.0151733
756.558	0.0150252
756.636	0.0151744
756.715	0.0151596
756.793	0.0152808
756.871	0.0153340
756.949	0.0152366
757.027	0.0151150
757.105	0.0150571
757.183	0.0151654
757.261	0.0148045
757.340	0.0147193
757.418	0.0145169
757.496	0.0143215
757.574	0.0141435
757.652	0.0138246
757.730	0.0135520
757.808	0.0134166
757.886	0.0130276
757.965	0.0127383
758.043	0.0125719
758.121	0.0122964
758.199	0.0121018
758.277	0.0120226
758.355	0.0120140
758.433	0.0120852
758.511	0.0121951
758.590	0.0124393
758.668	0.0127500
758.746	0.0132087
758.824	0.0135199
758.902	0.0139721
758.980	0.0146147
759.058	0.0151036
759.136	0.0155787
759.215	0.0160287
759.293	0.0164613
759.371	0.0168121
759.449	0.0170021
759.527	0.0171848
759.605	0.0173126
759.683	0.0172395
759.761	0.0172650
759.840	0.0170663
759.918	0.0166939
759.996	0.0164588
760.074	0.0160996
760.152	0.0158832
760.230	0.0155605
760.308	0.0151652
760.386	0.0149623
760.465	0.0148620
760.543	0.0145621
760.621	0.0144485
760.699	0.0143232
760.777	0.0142314
760.855	0.0143257
760.933	0.0142472
761.011	0.0143877
761.090	0.0143267
761.168	0.0144321
761.246	0.0144424
761.324	0.0143177
761.402	0.0143708
761.480	0.0142924
761.558	0.0143086
761.636	0.0143395
761.715	0.0142472
761.793	0.0142870
761.871	0.0143460
761.949	0.0142980
762.027	0.0143064
762.105	0.0142949
762.183	0.0146137
762.261	0.0146425
762.340	0.0147968
762.418	0.0148634
762.496	0.0148434
762.574	0.0148976
762.652	0.0152437
762.730	0.0151625
762.808	0.0150700
762.886	0.0152569
762.965	0.0150740
763.043	0.0150951
763.121	0.0150435
763.199	0.0147720
763.277	0.0145592
763.355	0.0145152
763.433	0.0142538
763.511	0.0137698
763.590	0.0134785
763.668	0.0132436
763.746	0.0128609
763.824	0.0126349
763.902	0.0123586
763.980	0.0123557
764.058	0.0120309
764.136	0.0119962
764.215	0.0123391
764.293	0.0126058
764.371	0.0128281
764.449	0.0133233
764.527	0.0137376
764.605	0.0143650
764.683	0.0148086
764.761	0.0151026
764.840	0.0156571
764.918	0.0159261
764.996	0.0162349
765.074	0.0163078
765.152	0.0163940
765.230	0.0168774
765.308	0.0167980
765.386	0.0166550
765.465	0.0166161
765.543	0.0164873
765.621	0.0162523
765.699	0.0160678
765.777	0.0157908
765.855	0.0154894
765.933	0.0152579
766.011	0.0151115
766.090	0.0147918
766.168	0.0145607
766.246	0.0144590
766.324	0.0144238
766.402	0.0143031
766.480	0.0143209
766.558	0.0145944
766.636	0.0145580
766.715	0.0146597
766.793	0.0146474
766.871	0.0146970
766.949	0.0146872
767.027	0.0146447
767.105	0.0147504
767.183	0.0146650
767.261	0.0147144
767.340	0.0146259
767.418	0.0146632
767.496	0.0145857
767.574	0.0146791
767.652	0.0146609
767.730	0.0146417
767.808	0.0146467
767.886	0.0147713
767.965	0.0146457
768.043	0.0146894
768.121	0.0147229
768.199	0.0147732
768.277	0.0147907
768.355	0.0146626
768.433	0.0148173
768.511	0.0147525
768.590	0.0146484
768.668	0.0145142
768.746	0.0146438
768.824	0.0145961
768.902	0.0143308
768.980	0.0144135
769.058	0.0141494
769.136	0.0141405
769.215	0.0140723
769.293	0.0137889
769.371	0.0136372
769.449	0.0133720
769.527	0.0131054
769.605	0.0129320
769.683	0.0128251
769.761	0.0127282
769.840	0.0128522
769.918	0.0126642
769.996	0.0128154
770.074	0.0131086
770.152	0.0133679
770.230	0.0136370
770.308	0.0139149
770.386	0.0143252
770.465	0.0146458
770.543	0.0150705
770.621	0.0153516
770.699	0.0157732
770.777	0.0160694
770.855	0.0164211
770.933	0.0165369
771.011	0.0168075
771.090	0.0168256
771.168	0.0167443
771.246	0.0167110
771.324	0.0165008
771.402	0.0164019
771.480	0.0160999
771.558	0.0158096
771.636	0.0154523
771.715	0.0151603
771.793	0.0148186
771.871	0.0146822
771.949	0.0144688
772.027	0.0142266
772.105	0.0142941
772.183	0.0140688
772.261	0.0139977
772.340	0.0140124
772.418	0.0141410
772.496	0.0140993
772.574	0.0141013
772.652	0.0140638
772.730	0.0141434
772.808	0.0142101
772.886	0.0141021
772.965	0.0142339
773.043	0.0144060
773.121	0.0145799
773.199	0.0144093
773.277	0.0144495
773.355	0.0146676
773.433	0.0146738
773.511	0.0148203
773.590	0.0147968
773.668	0.0148022
773.746	0.0148598
773.824	0.0151106
773.902	0.0152987
773.980	0.0153561
774.058	0.0152536
774.136	0.0152501
774.215	0.0154129
774.293	0.0151612
774.371	0.0151057
774.449	0.0151506
774.527	0.0149380
774.605	0.0146384
774.683	0.0144610
774.761	0.0143909
774.840	0.0141434
774.918	0.0140906
774.996	0.0140314
775.074	0.0138750
775.152	0.0137142
775.230	0.0135984
775.308	0.0135285
775.386	0.0133102
775.465	0.0131478
775.543	0.0130013
775.621	0.0131154
775.699	0.0130558
775.777	0.0130143
775.855	0.0132425
775.933	0.0133134
776.011	0.0135379
776.090	0.0139256
776.168	0.0142239
776.246	0.0145238
776.324	0.0147810
776.402	0.0151362
776.480	0.0154084
776.558	0.0157732
776.636	0.0160162
776.715	0.0160513
776.793	0.0162708
776.871	0.0162794
776.949	0.0162908
777.027	0.0163200
777.105	0.0163683
777.183	0.0161332
777.261	0.0160088
777.340	0.0157884
777.418	0.0154415
777.496	0.0151390
777.574	0.0149390
777.652	0.0147121
777.730	0.0144883
777.808	0.0143083
777.886	0.0141872
777.965	0.0142824
778.043	0.0140488
778.121	0.0140009
778.199	0.0139856
778.277	0.0140270
778.355	0.0142204
778.433	0.0139894
778.511	0.0142666
778.590	0.0142686
778.668	0.0143454
778.746	0.0143554
778.824	0.0145364
778.902	0.0145132
778.980	0.0145798
779.058	0.0147920
779.136	0.0149070
779.215	0.0147643
779.293	0.0148430
779.371	0.0150606
779.449	0.0151105
779.527	0.0151151
779.605	0.0151568
779.683	0.0152116
779.761	0.0153292
779.840	0.0152876
779.918	0.0151653
779.996	0.0150961
780.074	0.0151360
780.152	0.0149551
780.230	0.0149341
780.308	0.0146897
780.386	0.0145956
780.465	0.0143719
780.543	0.0143516
780.621	0.0142885
780.699	0.0141376
780.777	0.0140287
780.855	0.0139014
780.933	0.0138438
781.011	0.0137662
781.090	0.0136201
781.168	0.0134510
781.246	0.0133287
781.324	0.0132899
781.402	0.0132615
781.480	0.0131728
781.558	0.0131084
781.636	0.0131215
781.715	0.0133728
781.793	0.0134184
781.871	0.0135478
781.949	0.0138593
782.027	0.0139516
782.105	0.0143472
782.183	0.0146252
782.261	0.0148098
782.340	0.0149173
782.418	0.0153201
782.496	0.0155227
782.574	0.0157296
782.652	0.0159016
782.730	0.0160297
782.808	0.0161366
782.886	0.0162249
782.965	0.0161832
783.043	0.0160266
783.121	0.0160691
783.199	0.0161520
783.277	0.0159159
783.355	0.0156603
783.433	0.0154134
783.511	0.0152280
783.590	0.0149932
783.668	0.0148264
783.746	0.0147300
783.824	0.0144507
783.902	0.0143763
783.980	0.0140215
784.058	0.0142646
784.136	0.0140318
784.215	0.0139407
784.293	0.0137224
784.371	0.0137884
784.449	0.0137151
784.527	0.0138434
784.605	0.0138062
784.683	0.0139702
784.761	0.0140353
784.840	0.0142113
784.918	0.0142625
784.996	0.0142333
785.074	0.0143152
785.152	0.0144867
785.230	0.0146150
785.308	0.0146941
785.386	0.0148090
785.465	0.0148473
785.543	0.0148348
785.621	0.0148375
785.699	0.0148846
785.777	0.0148907
785.855	0.0150076
785.933	0.0148266
786.011	0.0149948
786.090	0.0148991
786.168	0.0147460
786.246	0.0148476
786.324	0.0147532
786.402	0.0146211
786.480	0.0144324
786.558	0.0147446
786.636	0.0147116
786.715	0.0146385
786.793	0.0144957
786.871	0.0145655
786.949	0.0144641
787.027	0.0144881
787.105	0.0143338
787.183	0.0144338
787.261	0.0143018
787.340	0.0142085
787.418	0.0142751
787.496	0.0142133
787.574	0.0140135
787.652	0.0140010
787.730	0.0141228
787.808	0.0140078
787.886	0.0138808
787.965	0.0141652
788.043	0.0141497
788.121	0.0141190
788.199	0.0141613
788.277	0.0145564
788.355	0.0146133
788.433	0.0146343
788.511	0.0147308
788.590	0.0150336
788.668	0.0150883
788.746	0.0150126
788.824	0.0152065
788.902	0.0151987
788.980	0.0153625
789.058	0.0152843
789.136	0.0152126
789.215	0.0153602
789.293	0.0152603
789.371	0.0150883
789.449	0.0152213
789.527	0.0150870
789.605	0.0148885
789.683	0.0149220
789.761	0.0147282
789.840	0.0147723
789.918	0.0147125
789.996	0.0146115
790.074	0.0143462
790.152	0.0144098
790.230	0.0144115
790.308	0.0144896
790.386	0.0145061
790.465	0.0144411
790.543	0.0144352
790.621	0.0145141
790.699	0.0145645
790.777	0.0144820
790.855	0.0145515
790.933	0.0147167
791.011	0.0146499
791.090	0.0147021
791.168	0.0148789
791.246	0.0148589
791.324	0.0147918
791.402	0.0147652
791.480	0.0148840
791.558	0.0148315
791.636	0.0147366
791.715	0.0146836
791.793	0.0147746
791.871	0.0146218
791.949	0.0145045
792.027	0.0145226
792.105	0.0144999
792.183	0.0144229
792.261	0.0146049
792.340	0.0143407
792.418	0.0145328
792.496	0.0145515
792.574	0.0145154
792.652	0.0144193
792.730	0.0142809
792.808	0.0143757
792.886	0.0143928
792.965	0.0144006
793.043	0.0143432
793.121	0.0143431
793.199	0.0141235
793.277	0.0141376
793.355	0.0140963
793.433	0.0142240
793.511	0.0141827
793.590	0.0141315
793.668	0.0142095
793.746	0.0141919
793.824	0.0141295
793.902	0.0144139
793.980	0.0144672
794.058	0.0145969
794.136	0.0145963
794.215	0.0148240
794.293	0.0148660
794.371	0.0150152
794.449	0.0149617
794.527	0.0150045
794.605	0.0151687
794.683	0.0150415
794.761	0.0148782
794.840	0.0150643
794.918	0.0150457
794.996	0.0151054
795.074	0.0150372
795.152	0.0148663
795.230	0.0150155
795.308	0.0149117
795.386	0.0149535
795.465	0.0148882
795.543	0.0147362
795.621	0.0147909
795.699	0.0146227
795.777	0.0147659
795.855	0.0146931
795.933	0.0146957
796.011	0.0146108
796.090	0.0146396
796.168	0.0145387
796.246	0.0145990
796.324	0.0147002
796.402	0.0145274
796.480	0.0145297
796.558	0.0144421
796.636	0.0144724
796.715	0.0144353
796.793	0.0145548
796.871	0.0145443
796.949	0.0144593
797.027	0.0145483
797.105	0.0144508
797.183	0.0143417
797.261	0.0144456
797.340	0.0144302
797.418	0.0145180
797.496	0.0145689
797.574	0.0145621
797.652	0.0144527
797.730	0.0147042
797.808	0.0147708
797.886	0.0147492
797.965	0.0148398
798.043	0.0146423
798.121	0.0148695
798.199	0.0149474
798.277	0.0149035
798.355	0.0149249
798.433	0.0147710
798.511	0.0147498
798.590	0.0147199
798.668	0.0147316
798.746	0.0147230
798.824	0.0146631
798.902	0.0146274
798.980	0.0146358
799.058	0.0146647
799.136	0.0144509
799.215	0.0142517
799.293	0.0142073
799.371	0.0141689
799.449	0.0142484
799.527	0.0141443
799.605	0.0142471
799.683	0.0141339
799.761	0.0143073
799.840	0.0143080
799.918	0.0143729
799.996	0.0144518
800.074	0.0145061
800.152	0.0146775
800.230	0.0147039
800.308	0.0147176
800.386	0.0147986
800.465	0.0147647
800.543	0.0148263
800.621	0.0147407
800.699	0.0147432
800.777	0.0148236
800.855	0.0148350
800.933	0.0149368
801.011	0.0147650
801.090	0.0146272
801.168	0.0147005
801.246	0.0146977
801.324	0.0146908
801.402	0.0147482
801.480	0.0146878
801.558	0.0147162
801.636	0.0147311
801.715	0.0146835
801.793	0.0147218
801.871	0.0147753
801.949	0.0149779
802.027	0.0146323
802.105	0.0148129
802.183	0.0148025
802.261	0.0146613
802.340	0.0145967
802.418	0.0146450
802.496	0.0144821
802.574	0.0144497
802.652	0.0144566
802.730	0.0143849
802.808	0.0145001
802.886	0.0146200
802.965	0.0144678
803.043	0.0144145
803.121	0.0144963
803.199	0.0146064
803.277	0.0146100
803.355	0.0144334
803.433	0.0147318
803.511	0.0147134
803.590	0.0146203
803.668	0.0145744
803.746	0.0146440
803.824	0.0145280
803.902	0.0146032
803.980	0.0147703
804.058	0.0146841
804.136	0.0146233
804.215	0.0146848
804.293	0.0145943
804.371	0.0147195
804.449	0.0145881
804.527	0.0146908
804.605	0.0146857
804.683	0.0145746
804.761	0.0144859
804.840	0.0146606
804.918	0.0146524
804.996	0.0145490
805.074	0.0145697
805.152	0.0144588
805.230	0.0144585
805.308	0.0144078
805.386	0.0143522
805.465	0.0144492
805.543	0.0144872
805.621	0.0145158
805.699	0.0143153
805.777	0.0144752
805.855	0.0145999
805.933	0.0146140
806.011	0.0146103
806.090	0.0146832
806.168	0.0147918
806.246	0.0148014
806.324	0.0147311
806.402	0.0148505
806.480	0.0148476
806.558	0.0148925
806.636	0.0148474
806.715	0.0148245
806.793	0.0146348
806.871	0.0149316
806.949	0.0147776
807.027	0.0147092
807.105	0.0145899
807.183	0.0147026
807.261	0.0146895
807.340	0.0146529
807.418	0.0146719
807.496	0.0147755
807.574	0.0147540
807.652	0.0146985
807.730	0.0147852
807.808	0.0149220
807.886	0.0148454
807.965	0.0147875
808.043	0.0148544
808.121	0.0147797
808.199	0.0146376
808.277	0.0146406
808.355	0.0147244
808.433	0.0146500
808.511	0.0143960
808.590	0.0142751
808.668	0.0144762
808.746	0.0144359
808.824	0.0142807
808.902	0.0142191
808.980	0.0143501
809.058	0.0142683
809.136	0.0142130
809.215	0.0142984
809.293	0.0143535
809.371	0.0143664
809.449	0.0143697
809.527	0.0144942
809.605	0.0146251
809.683	0.0147057
809.761	0.0146697
809.840	0.0148183
809.918	0.0147330
809.996	0.0148412
810.074	0.0148074
810.152	0.0148729
810.230	0.0149144
810.308	0.0148148
810.386	0.0147252
810.465	0.0149075
810.543	0.0149899
810.621	0.0147919
810.699	0.0146097
810.777	0.0147967
810.855	0.0147914
810.933	0.0145991
811.011	0.0145580
811.090	0.0145689
811.168	0.0144961
811.246	0.0145426
811.324	0.0146214
811.402	0.0144982
811.480	0.0145227
811.558	0.0145829
811.636	0.0145606
811.715	0.0145150
811.793	0.0144972
811.871	0.0144081
811.949	0.0144924
812.027	0.0145781
812.105	0.0145339
812.183	0.0144751
812.261	0.0144199
812.340	0.0144116
812.418	0.0145253
812.496	0.0146358
812.574	0.0144889
812.652	0.0144139
812.730	0.0144829
812.808	0.0143825
812.886	0.0143452
812.965	0.0144280
813.043	0.0144065
813.121	0.0145577
813.199	0.0144776
813.277	0.0144776
813.355	0.0146840
813.433	0.0147512
813.511	0.0148669
813.590	0.0149495
813.668	0.0148750
813.746	0.0150249
813.824	0.0150439
813.902	0.0150966
813.980	0.0151402
814.058	0.0151331
814.136	0.0150157
814.215	0.0151521
814.293	0.0150063
814.371	0.0150263
814.449	0.0147538
814.527	0.0147990
814.605	0.0148096
814.683	0.0145694
814.761	0.0148795
814.840	0.0146395
814.918	0.0145141
814.996	0.0145596
815.074	0.0144594
815.152	0.0145441
815.230	0.0144823
815.308	0.0146125
815.386	0.0145313
815.465	0.0144896
815.543	0.0144343
815.621	0.0145750
815.699	0.0145457
815.777	0.0145523
815.855	0.0145977
815.933	0.0144348
816.011	0.0145137
816.090	0.0146408
816.168	0.0145609
816.246	0.0145348
816.324	0.0144584
816.402	0.0144263
816.480	0.0146545
816.558	0.0144966
816.636	0.0146474
816.715	0.0143906
816.793	0.0143972
816.871	0.0145338
816.949	0.0145208
817.027	0.0146967
817.105	0.0145998
817.183	0.0148502
817.261	0.0147936
817.340	0.0147733
817.418	0.0148831
817.496	0.0147869
817.574	0.0148625
817.652	0.0148779
817.730	0.0148758
817.808	0.0146317
817.886	0.0148222
817.965	0.0147494
818.043	0.0147168
818.121	0.0147787
818.199	0.0146051
818.277	0.0145466
818.355	0.0144817
818.433	0.0144547
818.511	0.0144448
818.590	0.0142696
818.668	0.0142778
818.746	0.0143689
818.824	0.0143835
818.902	0.0143537
818.980	0.0142903
819.058	0.0143710
819.136	0.0144347
819.215	0.0144823
819.293	0.0145809
819.371	0.0145655
819.449	0.0146160
819.527	0.0146538
819.605	0.0147498
819.683	0.0146096
819.761	0.0146902
819.840	0.0146852
819.918	0.0146548
819.996	0.0145900
820.074	0.0146333
820.152	0.0145278
820.230	0.0146789
820.308	0.0144797
820.386	0.0145568
820.465	0.0145087
820.543	0.0143906
820.621	0.0145268
820.699	0.0145359
820.777	0.0145060
820.855	0.0143836
820.933	0.0146827
821.011	0.0146035
821.090	0.0146672
821.168	0.0146953
821.246	0.0147195
821.324	0.0148035
821.402	0.0148043
821.480	0.0148383
821.558	0.0149271
821.636	0.0148805
821.715	0.0150400
821.793	0.0148111
821.871	0.0148800
821.949	0.0147324
822.027	0.0147023
822.105	0.0147208
822.183	0.0147961
822.261	0.0145683
822.340	0.0143843
822.418	0.0144984
822.496	0.0143887
822.574	0.0145429
822.652	0.0144721
822.730	0.0144408
822.808	0.0145534
822.886	0.0146499
822.965	0.0146508
823.043	0.0146597
823.121	0.0147054
823.199	0.0147423
823.277	0.0147772
823.355	0.0148268
823.433	0.0147775
823.511	0.0147766
823.590	0.0148505
823.668	0.0149168
823.746	0.0148389
823.824	0.0146420
823.902	0.0146075
823.980	0.0147446
824.058	0.0146156
824.136	0.0144941
824.215	0.0145704
824.293	0.0145116
824.371	0.0143217
824.449	0.0143044
824.527	0.0142355
824.605	0.0143417
824.683	0.0142876
824.761	0.0142702
824.840	0.0144315
824.918	0.0141886
824.996	0.0144064
825.074	0.0143512
825.152	0.0143060
825.230	0.0145193
825.308	0.0144839
825.386	0.0143687
825.465	0.0144028
825.543	0.0146729
825.621	0.0145674
825.699	0.0145763
825.777	0.0145562
825.855	0.0146950
825.933	0.0145091
826.011	0.0144957
826.090	0.0146613
826.168	0.0146022
826.246	0.0146129
826.324	0.0146137
826.402	0.0147150
826.480	0.0147717
826.558	0.0146425
826.636	0.0146967
826.715	0.0146859
826.793	0.0148982
826.871	0.0149020
826.949	0.0149993
827.027	0.0149270
827.105	0.0151263
827.183	0.0150674
827.261	0.0150860
827.340	0.0149929
827.418	0.0150842
827.496	0.0150330
827.574	0.0149313
827.652	0.0148856
827.730	0.0149210
827.808	0.0147734
827.886	0.0147050
827.965	0.0146726
828.043	0.0145226
828.121	0.0144012
828.199	0.0144443
828.277	0.0144766
828.355	0.0143459
828.433	0.0143398
828.511	0.0142724
828.590	0.0142598
828.668	0.0142664
828.746	0.0141646
828.824	0.0143420
828.902	0.0142678
828.980	0.0141743
829.058	0.0142432
829.136	0.0142533
829.215	0.0143744
829.293	0.0143719
829.371	0.0144350
829.449	0.0144258
829.527	0.0145395
829.605	0.0146957
829.683	0.0145631
829.761	0.0146712
829.840	0.0148309
829.918	0.0148456
829.996	0.0147057
830.074	0.0147243
830.152	0.0149285
830.230	0.0150504
830.308	0.0148906
830.386	0.0151306
830.465	0.0151343
830.543	0.0150338
830.621	0.0149146
830.699	0.0148484
830.777	0.0148931
830.855	0.0148557
830.933	0.0147383
831.011	0.0146147
831.090	0.0145775
831.168	0.0145396
831.246	0.0143998
831.324	0.0143356
831.402	0.0144071
831.480	0.0143881
831.558	0.0142905
831.636	0.0142554
831.715	0.0142241
831.793	0.0142553
831.871	0.0142761
831.949	0.0141624
832.027	0.0143619
832.105	0.0141254
832.183	0.0142533
832.261	0.0142825
832.340	0.0141209
832.418	0.0143016
832.496	0.0143031
832.574	0.0143426
832.652	0.0144437
832.730	0.0143565
832.808	0.0143468
832.886	0.0145187
832.965	0.0146347
833.043	0.0147546
833.121	0.0147378
833.199	0.0147704
833.277	0.0148096
833.355	0.0147963
833.433	0.0149078
833.511	0.0148767
833.590	0.0150205
833.668	0.0148811
833.746	0.0149387
833.824	0.0151172
833.902	0.0150095
833.980	0.0149596
834.058	0.0150978
834.136	0.0150978
834.215	0.0150517
834.293	0.0149344
834.371	0.0150228
834.449	0.0149038
834.527	0.0149689
834.605	0.0150626
834.683	0.0149019
834.761	0.0149780
834.840	0.0150716
834.918	0.0149137
834.996	0.0149265
835.074	0.0147586
835.152	0.0147871
835.230	0.0147697
835.308	0.0147699
835.386	0.0147457
835.465	0.0145891
835.543	0.0146777
835.621	0.0145114
835.699	0.0144044
835.777	0.0143945
835.855	0.0143221
835.933	0.0141578
836.011	0.0141469
836.090	0.0141493
836.168	0.0142896
836.246	0.0142554
836.324	0.0142500
836.402	0.0142340
836.480	0.0142563
836.558	0.0144009
836.636	0.0143138
836.715	0.0143050
836.793	0.0143407
836.871	0.0143748
836.949	0.0142748
837.027	0.0143019
837.105	0.0145032
837.183	0.0145453
837.261	0.0145615
837.340	0.0144810
837.418	0.0144701
837.496	0.0144975
837.574	0.0145029
837.652	0.0144864
837.730	0.0143974
837.808	0.0145597
837.886	0.0143432
837.965	0.0143336
838.043	0.0143420
838.121	0.0144659
838.199	0.0145578
838.277	0.0145186
838.355	0.0147015
838.433	0.0146346
838.511	0.0146451
838.590	0.0148415
838.668	0.0149091
838.746	0.0148972
838.824	0.0149963
838.902	0.0149551
838.980	0.0150941
839.058	0.0150719
839.136	0.0150153
839.215	0.0150336
839.293	0.0150069
839.371	0.0150539
839.449	0.0148988
839.527	0.0150108
839.605	0.0147619
839.683	0.0147524
839.761	0.0147714
839.840	0.0147448
839.918	0.0147059
839.996	0.0147530
840.074	0.0145852
840.152	0.0146648
840.230	0.0145074
840.308	0.0146013
840.386	0.0146017
840.465	0.0146340
840.543	0.0146955
840.621	0.0145498
840.699	0.0146703
840.777	0.0145984
840.855	0.0147481
840.933	0.0146864
841.011	0.0147923
841.090	0.0147420
841.168	0.0148890
841.246	0.0147546
841.324	0.0146493
841.402	0.0146378
841.480	0.0147273
841.558	0.0147150
841.636	0.0147633
841.715	0.0146017
841.793	0.0145728
841.871	0.0145557
841.949	0.0144302
842.027	0.0144437
842.105	0.0143185
842.183	0.0143391
842.261	0.0142329
842.340	0.0142495
842.418	0.0142706
842.496	0.0141319
842.574	0.0141212
842.652	0.0142075
842.730	0.0142296
842.808	0.0142883
842.886	0.0141384
842.965	0.0140948
843.043	0.0140858
843.121	0.0141108
843.199	0.0140170
843.277	0.0140309
843.355	0.0141040
843.433	0.0142489
843.511	0.0141808
843.590	0.0142354
843.668	0.0144287
843.746	0.0144607
843.824	0.0144899
843.902	0.0146034
843.980	0.0147391
844.058	0.0146499
844.136	0.0147749
844.215	0.0148280
844.293	0.0149287
844.371	0.0148947
844.449	0.0148872
844.527	0.0150874
844.605	0.0151258
844.683	0.0151777
844.761	0.0151557
844.840	0.0150233
844.918	0.0150124
844.996	0.0150291
845.074	0.0149513
845.152	0.0150466
845.230	0.0149621
845.308	0.0148483
845.386	0.0147874
845.465	0.0149174
845.543	0.0148740
845.621	0.0147779
845.699	0.0148353
845.777	0.0149575
845.855	0.0146566
845.933	0.0147581
846.011	0.0148496
846.090	0.0146871
846.168	0.0147569
846.246	0.0148235
846.324	0.0149612
846.402	0.0146833
846.480	0.0147942
846.558	0.0146069
846.636	0.0147231
846.715	0.0147544
846.793	0.0146149
846.871	0.0145525
846.949	0.0146175
847.027	0.0146003
847.105	0.0145502
847.183	0.0145308
847.261	0.0145657
847.340	0.0144602
847.418	0.0143806
847.496	0.0146783
847.574	0.0144461
847.652	0.0143624
847.730	0.0143662
847.808	0.0143436
847.886	0.0143665
847.965	0.0143580
848.043	0.0142989
848.121	0.0141970
848.199	0.0142284
848.277	0.0143156
848.355	0.0141433
848.433	0.0142558
848.511	0.0143350
848.590	0.0141859
848.668	0.0142831
848.746	0.0142845
848.824	0.0142979
848.902	0.0144071
848.980	0.0142896
849.058	0.0142760
849.136	0.0142744
849.215	0.0142566
849.293	0.0145300
849.371	0.0144403
849.449	0.0144976
849.527	0.0145789
849.605	0.0145238
849.683	0.0145226
849.761	0.0146374
849.840	0.0149007
849.918	0.0149188
849.996	0.0148970
850.074	0.0148773
850.152	0.0150232
850.230	0.0149966
850.308	0.0150177
850.386	0.0149930
850.465	0.0151852
850.543	0.0151771
850.621	0.0150675
850.699	0.0150420
850.777	0.0151351
850.855	0.0150130
850.933	0.0151315
851.011	0.0149969
851.090	0.0150801
851.168	0.0148780
851.246	0.0148618
851.324	0.0148536
851.402	0.0147115
851.480	0.0147006
851.558	0.0146664
851.636	0.0147228
851.715	0.0145912
851.793	0.0145267
851.871	0.0146055
851.949	0.0144569
852.027	0.0145951
852.105	0.0146273
852.183	0.0147232
852.261	0.0145844
852.340	0.0146062
852.418	0.0145326
852.496	0.0145638
852.574	0.0146989
852.652	0.0146035
852.730	0.0145556
852.808	0.0145447
852.886	0.0145216
852.965	0.0145231
853.043	0.0145457
853.121	0.0145084
853.199	0.0144181
853.277	0.0146178
853.355	0.0146254
853.433	0.0143730
853.511	0.0144140
853.590	0.0146346
853.668	0.0144674
853.746	0.0143915
853.824	0.0143977
853.902	0.0144530
853.980	0.0144926
854.058	0.0144197
854.136	0.0144140
854.215	0.0143800
854.293	0.0144612
854.371	0.0144604
854.449	0.0145226
854.527	0.0144498
854.605	0.0144304
854.683	0.0145428
854.761	0.0144624
854.840	0.0143704
854.918	0.0145761
854.996	0.0145018
855.074	0.0145105
855.152	0.0145847
855.230	0.0146886
855.308	0.0147295
855.386	0.0146653
855.465	0.0146792
855.543	0.0146548
855.621	0.0146268
855.699	0.0146680
855.777	0.0147718
855.855	0.0148074
855.933	0.0148357
856.011	0.0147810
856.090	0.0147662
856.168	0.0147224
856.246	0.0147977
856.324	0.0149866
856.402	0.0148394
856.480	0.0147278
856.558	0.0148411
856.636	0.0147854
856.715	0.0147773
856.793	0.0148959
856.871	0.0148190
856.949	0.0149118
857.027	0.0149689
857.105	0.0148336
857.183	0.0147288
857.261	0.0147135
857.340	0.0148659
857.418	0.0148291
857.496	0.0147951
857.574	0.0146909
857.652	0.0145577
857.730	0.0147385
857.808	0.0147762
857.886	0.0147128
857.965	0.0146747
858.043	0.0147041
858.121	0.0146841
858.199	0.0147395
858.277	0.0145721
858.355	0.0144154
858.433	0.0146152
858.511	0.0147221
858.590	0.0143479
858.668	0.0144556
858.746	0.0143378
858.824	0.0145692
858.902	0.0145547
858.980	0.0143815
859.058	0.0144546
859.136	0.0143855
859.215	0.0143864
859.293	0.0143932
859.371	0.0142332
859.449	0.0141936
859.527	0.0143835
859.605	0.0143773
859.683	0.0142173
859.761	0.0142513
859.840	0.0143454
859.918	0.0143769
859.996	0.0143835
860.074	0.0143333
860.152	0.0143911
860.230	0.0142486
860.308	0.0143567
860.386	0.0143556
860.465	0.0143847
860.543	0.0145142
860.621	0.0144872
860.699	0.0145525
860.777	0.0144546
860.855	0.0146192
860.933	0.0146888
861.011	0.0147165
861.090	0.0147558
861.168	0.0146941
861.246	0.0147881
861.324	0.0149076
861.402	0.0150310
861.480	0.0149637
861.558	0.0150451
861.636	0.0150710
861.715	0.0149918
861.793	0.0149963
861.871	0.0150802
861.949	0.0149777
862.027	0.0148975
862.105	0.0149130
862.183	0.0150091
862.261	0.0149968
862.340	0.0148267
862.418	0.0148408
862.496	0.0148447
862.574	0.0148091
862.652	0.0147270
862.730	0.0146205
862.808	0.0147585
862.886	0.0147415
862.965	0.0146666
863.043	0.0147980
863.121	0.0147347
863.199	0.0146595
863.277	0.0145956
863.355	0.0144862
863.433	0.0146371
863.511	0.0146268
863.590	0.0145834
863.668	0.0144073
863.746	0.0145798
863.824	0.0145154
863.902	0.0144147
863.980	0.0145647
864.058	0.0144978
864.136	0.0143407
864.215	0.0144611
864.293	0.0144215
864.371	0.0143694
864.449	0.0144829
864.527	0.0143321
864.605	0.0144621
864.683	0.0145977
864.761	0.0144231
864.840	0.0144318
864.918	0.0145115
864.996	0.0145116
865.074	0.0146222
865.152	0.0144141
865.230	0.0145402
865.308	0.0145660
865.386	0.0144405
865.465	0.0144073
865.543	0.0145761
865.621	0.0145122
865.699	0.0146410
865.777	0.0145112
865.855	0.0144504
865.933	0.0145695
866.011	0.0146184
866.090	0.0145258
866.168	0.0145692
866.246	0.0145981
866.324	0.0144475
866.402	0.0144877
866.480	0.0143681
866.558	0.0146198
866.636	0.0145679
866.715	0.0145931
866.793	0.0145866
866.871	0.0146593
866.949	0.0146952
867.027	0.0146451
867.105	0.0145765
867.183	0.0147549
867.261	0.0146300
867.340	0.0148168
867.418	0.0147871
867.496	0.0148566
867.574	0.0147749
867.652	0.0148874
867.730	0.0148941
867.808	0.0148353
867.886	0.0148586
867.965	0.0149374
868.043	0.0149037
868.121	0.0148292
868.199	0.0147141
868.277	0.0148402
868.355	0.0147784
868.433	0.0148232
868.511	0.0147466
868.590	0.0147878
868.668	0.0147217
868.746	0.0147874
868.824	0.0148454
868.902	0.0148027
868.980	0.0147449
869.058	0.0147446
869.136	0.0146298
869.215	0.0146479
869.293	0.0147966
869.371	0.0145756
869.449	0.0145820
869.527	0.0145222
869.605	0.0146564
869.683	0.0146404
869.761	0.0146137
869.840	0.0144954
869.918	0.0144598
869.996	0.0145110
870.074	0.0144463
870.152	0.0144043
870.230	0.0143491
870.308	0.0146439
870.386	0.0145710
870.465	0.0144801
870.543	0.0145500
870.621	0.0145175
870.699	0.0144316
870.777	0.0146886
870.855	0.0146188
870.933	0.0145310
871.011	0.0144488
871.090	0.0146975
871.168	0.0144591
871.246	0.0146156
871.324	0.0145901
871.402	0.0145837
871.480	0.0145371
871.558	0.0143983
871.636	0.0145158
871.715	0.0145831
871.793	0.0145684
871.871	0.0145202
871.949	0.0145764
872.027	0.0145026
872.105	0.0144128
872.183	0.0145370
872.261	0.0144752
872.340	0.0146517
872.418	0.0146426
872.496	0.0146424
872.574	0.0145096
872.652	0.0146857
872.730	0.0146111
872.808	0.0147629
872.886	0.0147447
872.965	0.0146753
873.043	0.0147903
873.121	0.0147436
873.199	0.0148547
873.277	0.0147845
873.355	0.0147015
873.433	0.0147913
873.511	0.0148249
873.590	0.0148984
873.668	0.0147853
873.746	0.0146757
873.824	0.0147543
873.902	0.0146392
873.980	0.0146334
874.058	0.0148191
874.136	0.0147255
874.215	0.0146313
874.293	0.0145677
874.371	0.0146557
874.449	0.0146478
874.527	0.0146674
874.605	0.0146938
874.683	0.0144623
874.761	0.0145185
874.840	0.0146362
874.918	0.0147174
874.996	0.0146313
875.074	0.0144584
875.152	0.0145916
875.230	0.0145557
875.308	0.0146106
875.386	0.0146554
875.465	0.0145860
875.543	0.0147250
875.621	0.0146519
875.699	0.0145546
875.777	0.0145067
875.855	0.0146272
875.933	0.0146404
876.011	0.0145253
876.090	0.0143937
876.168	0.0146652
876.246	0.0147031
876.324	0.0146080
876.402	0.0145198
876.480	0.0143530
876.558	0.0145602
876.636	0.0147166
876.715	0.0146117
876.793	0.0144811
876.871	0.0145728
876.949	0.0145489
877.027	0.0145663
877.105	0.0145649
877.183	0.0144783
877.261	0.0146052
877.340	0.0145975
877.418	0.0146587
877.496	0.0145782
877.574	0.0144501
877.652	0.0145689
877.730	0.0145995
877.808	0.0146440
877.886	0.0146853
877.965	0.0144574
878.043	0.0145213
878.121	0.0145663
878.199	0.0144735
878.277	0.0145509
878.355	0.0143795
878.433	0.0144808
878.511	0.0145274
878.590	0.0144431
878.668	0.0144910
878.746	0.0145197
878.824	0.0144040
878.902	0.0145216
878.980	0.0146667
879.058	0.0145576
879.136	0.0146089
879.215	0.0145796
879.293	0.0148021
879.371	0.0146913
879.449	0.0147154
879.527	0.0148074
879.605	0.0147542
879.683	0.0147546
879.761	0.0146654
879.840	0.0147766
879.918	0.0146856
879.996	0.0147245
880.074	0.0146791
880.152	0.0147214
880.230	0.0146503
880.308	0.0145442
880.386	0.0146535
880.465	0.0146217
880.543	0.0146465
880.621	0.0148453
880.699	0.0149194
880.777	0.0147162
880.855	0.0147482
880.933	0.0147561
881.011	0.0146400
881.090	0.0147281
881.168	0.0146511
881.246	0.0147311
881.324	0.0147388
881.402	0.0147180
881.480	0.0147185
881.558	0.0146623
881.636	0.0147547
881.715	0.0146590
881.793	0.0146106
881.871	0.0144740
881.949	0.0146619
882.027	0.0148096
882.105	0.0147100
882.183	0.0146227
882.261	0.0146220
882.340	0.0148181
882.418	0.0146085
882.496	0.0146613
882.574	0.0146638
882.652	0.0145823
882.730	0.0144897
882.808	0.0145000
882.886	0.0146767
882.965	0.0144537
883.043	0.0146099
883.121	0.0145589
883.199	0.0144075
883.277	0.0144373
883.355	0.0142860
883.433	0.0145112
883.511	0.0145253
883.590	0.0144720
883.668	0.0144824
883.746	0.0145409
883.824	0.0145387
883.902	0.0144605
883.980	0.0146065
884.058	0.0145659
884.136	0.0144456
884.215	0.0146188
884.293	0.0147253
884.371	0.0145634
884.449	0.0146066
884.527	0.0145090
884.605	0.0146506
884.683	0.0145882
884.761	0.0146046
884.840	0.0145630
884.918	0.0145723
884.996	0.0145548
885.074	0.0145412
885.152	0.0145557
885.230	0.0144809
885.308	0.0145598
885.386	0.0144844
885.465	0.0144656
885.543	0.0145551
885.621	0.0144943
885.699	0.0145240
885.777	0.0147047
885.855	0.0145804
885.933	0.0146188
886.011	0.0146208
886.090	0.0145760
886.168	0.0146305
886.246	0.0147015
886.324	0.0146893
886.402	0.0147973
886.480	0.0147252
886.558	0.0146905
886.636	0.0147215
886.715	0.0147570
886.793	0.0148433
886.871	0.0146537
886.949	0.0148360
887.027	0.0146856
887.105	0.0147173
887.183	0.0146539
887.261	0.0145612
887.340	0.0144484
887.418	0.0145695
887.496	0.0146442
887.574	0.0145808
887.652	0.0146773
887.730	0.0146361
887.808	0.0146300
887.886	0.0144517
887.965	0.0145674
888.043	0.0145427
888.121	0.0145876
888.199	0.0144658
888.277	0.0146133
888.355	0.0145267
888.433	0.0145406
888.511	0.0145491
888.590	0.0145101
888.668	0.0144113
888.746	0.0146459
888.824	0.0145183
888.902	0.0144425
888.980	0.0143982
889.058	0.0144577
889.136	0.0145605
889.215	0.0144818
889.293	0.0147018
889.371	0.0144711
889.449	0.0144980
889.527	0.0145310
889.605	0.0145715
889.683	0.0146474
889.761	0.0146558
889.840	0.0145793
889.918	0.0145696
889.996	0.0146487
890.074	0.0145741
890.152	0.0146964
890.230	0.0145303
890.308	0.0145303
890.386	0.0144405
890.465	0.0145018
890.543	0.0144096
890.621	0.0144005
890.699	0.0145776
890.777	0.0145056
890.855	0.0145587
890.933	0.0145635
891.011	0.0144833
891.090	0.0146928
891.168	0.0146352
891.246	0.0146117
891.324	0.0146344
891.402	0.0146341
891.480	0.0148274
891.558	0.0146069
891.636	0.0146227
891.715	0.0147668
891.793	0.0147463
891.871	0.0149273
891.949	0.0149574
892.027	0.0148429
892.105	0.0148264
892.183	0.0149003
892.261	0.0149547
892.340	0.0148081
892.418	0.0148386
892.496	0.0148587
892.574	0.0147919
892.652	0.0148177
892.730	0.0148229
892.808	0.0146992
892.886	0.0146062
892.965	0.0147501
893.043	0.0147282
893.121	0.0147166
893.199	0.0147110
893.277	0.0146581
893.355	0.0148000
893.433	0.0145676
893.511	0.0146058
893.590	0.0145997
893.668	0.0145361
893.746	0.0147816
893.824	0.0144894
893.902	0.0146281
893.980	0.0145582
894.058	0.0145269
894.136	0.0145338
894.215	0.0145483
894.293	0.0146474
894.371	0.0144456
894.449	0.0144017
894.527	0.0144350
894.605	0.0143859
894.683	0.0144875
894.761	0.0143710
894.840	0.0146471
894.918	0.0144951
894.996	0.0145154
895.074	0.0144481
895.152	0.0145684
895.230	0.0145699
895.308	0.0144352
895.386	0.0145360
895.465	0.0144863
895.543	0.0144044
895.621	0.0144193
895.699	0.0145507
895.777	0.0144470
895.855	0.0144241
895.933	0.0143768
896.011	0.0145295
896.090	0.0143887
896.168	0.0143771
896.246	0.0144798
896.324	0.0145959
896.402	0.0144072
896.480	0.0143281
896.558	0.0144746
896.636	0.0144376
896.715	0.0143896
896.793	0.0144765
896.871	0.0144868
896.949	0.0145554
897.027	0.0144903
897.105	0.0144962
897.183	0.0145245
897.261	0.0144769
897.340	0.0147446
897.418	0.0146581
897.496	0.0147636
897.574	0.0148628
897.652	0.0147235
897.730	0.0146379
897.808	0.0146758
897.886	0.0147979
897.965	0.0148128
898.043	0.0146909
898.121	0.0147531
898.199	0.0148120
898.277	0.0150437
898.355	0.0148615
898.433	0.0147929
898.511	0.0146680
898.590	0.0146664
898.668	0.0146088
898.746	0.0147795
898.824	0.0147254
898.902	0.0147597
898.980	0.0147427
899.058	0.0146989
899.136	0.0146552
899.215	0.0146043
899.293	0.0146297
899.371	0.0146104
899.449	0.0146458
899.527	0.0146581
899.605	0.0146627
899.683	0.0145384
899.761	0.0146232
899.840	0.0146060
899.918	0.0147078
899.996	0.0144508
900.074	0.0145621
900.152	0.0145165
900.230	0.0145414
900.308	0.0145383
900.386	0.0145257
900.465	0.0145863
900.543	0.0145278
900.621	0.0146390
900.699	0.0145089
900.777	0.0145263
900.855	0.0145521
900.933	0.0146632
901.011	0.0144807
901.090	0.0144276
901.168	0.0145219
901.246	0.0143157
901.324	0.0145078
901.402	0.0144878
901.480	0.0144130
901.558	0.0143343
901.636	0.0143870
901.715	0.0143634
901.793	0.0143502
901.871	0.0143768
901.949	0.0143914
902.027	0.0143354
902.105	0.0144183
902.183	0.0144371
902.261	0.0144474
902.340	0.0144427
902.418	0.0144156
902.496	0.0143368
902.574	0.0146595
902.652	0.0144704
902.730	0.0143968
902.808	0.0145144
902.886	0.0145169
902.965	0.0145343
903.043	0.0146288
903.121	0.0146394
903.199	0.0146266
903.277	0.0146982
903.355	0.0145621
903.433	0.0146397
903.511	0.0147926
903.590	0.0147481
903.668	0.0147650
903.746	0.0148672
903.824	0.0148917
903.902	0.0147784
903.980	0.0148820
904.058	0.0148273
904.136	0.0147925
904.215	0.0149511
904.293	0.0149134
904.371	0.0149915
904.449	0.0148013
904.527	0.0147978
904.605	0.0147202
904.683	0.0146949
904.761	0.0147254
904.840	0.0148061
904.918	0.0144930
904.996	0.0145802
905.074	0.0146641
905.152	0.0145366
905.230	0.0145193
905.308	0.0145576
905.386	0.0146373
905.465	0.0146455
905.543	0.0145199
905.621	0.0146321
905.699	0.0147033
905.777	0.0146484
905.855	0.0145639
905.933	0.0148569
906.011	0.0146269
906.090	0.0146566
906.168	0.0147533
906.246	0.0146171
906.324	0.0146434
906.402	0.0147443
906.480	0.0146112
906.558	0.0144409
906.636	0.0144753
906.715	0.0145392
906.793	0.0145927
906.871	0.0145176
906.949	0.0142689
907.027	0.0144067
907.105	0.0144059
907.183	0.0143662
907.261	0.0143476
907.340	0.0142697
907.418	0.0142711
907.496	0.0142972
907.574	0.0145444
907.652	0.0144334
907.730	0.0143005
907.808	0.0144030
907.886	0.0147151
907.965	0.0146367
908.043	0.0145210
908.121	0.0144572
908.199	0.0146254
908.277	0.0146411
908.355	0.0146407
908.433	0.0146581
908.511	0.0145989
908.590	0.0145616
908.668	0.0145643
908.746	0.0146828
908.824	0.0146346
908.902	0.0145512
908.980	0.0146163
909.058	0.0146417
909.136	0.0146769
909.215	0.0146894
909.293	0.0146173
909.371	0.0146459
909.449	0.0148006
909.527	0.0148270
909.605	0.0146164
909.683	0.0146992
909.761	0.0147711
909.840	0.0147308
909.918	0.0146558
909.996	0.0147411
910.074	0.0147133
910.152	0.0146123
910.230	0.0146426
910.308	0.0145981
910.386	0.0145995
910.465	0.0145963
910.543	0.0144336
910.621	0.0144523
910.699	0.0143851
910.777	0.0145451
910.855	0.0145000
910.933	0.0145063
911.011	0.0146149
911.090	0.0145432
911.168	0.0144571
911.246	0.0145483
911.324	0.0145539
911.402	0.0146648
911.480	0.0145570
911.558	0.0145575
911.636	0.0145633
911.715	0.0144818
911.793	0.0145044
911.871	0.0147090
911.949	0.0144623
912.027	0.0148367
912.105	0.0146320
912.183	0.0145702
912.261	0.0146183
912.340	0.0145213
912.418	0.0146358
912.496	0.0146713
912.574	0.0147714
912.652	0.0147661
912.730	0.0146693
912.808	0.0146758
912.886	0.0146838
912.965	0.0146736
913.043	0.0145152
913.121	0.0146041
913.199	0.0146439
913.277	0.0146278
913.355	0.0146213
913.433	0.0145695
913.511	0.0143626
913.590	0.0144220
913.668	0.0147266
913.746	0.0145213
913.824	0.0144786
913.902	0.0145361
913.980	0.0145238
914.058	0.0144864
914.136	0.0145326
914.215	0.0147042
914.293	0.0146066
914.371	0.0146176
914.449	0.0145885
914.527	0.0147819
914.605	0.0147253
914.683	0.0146906
914.761	0.0147608
914.840	0.0147691
914.918	0.0147524
914.996	0.0146054
915.074	0.0146690
915.152	0.0148190
915.230	0.0147669
915.308	0.0145973
915.386	0.0146288
915.465	0.0146611
915.543	0.0147784
915.621	0.0146436
915.699	0.0147061
915.777	0.0147443
915.855	0.0146359
915.933	0.0145488
916.011	0.0146999
916.090	0.0146262
916.168	0.0145628
916.246	0.0145852
916.324	0.0145643
916.402	0.0145981
916.480	0.0145217
916.558	0.0145013
916.636	0.0145757
916.715	0.0145306
916.793	0.0144728
916.871	0.0145255
916.949	0.0145972
917.027	0.0145561
917.105	0.0146690
917.183	0.0146558
917.261	0.0144385
917.340	0.0145414
917.418	0.0146743
917.496	0.0145232
917.574	0.0146107
917.652	0.0146793
917.730	0.0145601
917.808	0.0145182
917.886	0.0147229
917.965	0.0145513
918.043	0.0145631
918.121	0.0146668
918.199	0.0145942
918.277	0.0145818
918.355	0.0144522
918.433	0.0144885
918.511	0.0145988
918.590	0.0144865
918.668	0.0146098
918.746	0.0144519
918.824	0.0145481
918.902	0.0146396
918.980	0.0144844
919.058	0.0143983
919.136	0.0144231
919.215	0.0143649
919.293	0.0144225
919.371	0.0144351
919.449	0.0144303
919.527	0.0144293
919.605	0.0145779
919.683	0.0145094
919.761	0.0144952
919.840	0.0146189
919.918	0.0146895
919.996	0.0146580
920.074	0.0146427
920.152	0.0146298
920.230	0.0147979
920.308	0.0147338
920.386	0.0148235
920.465	0.0148897
920.543	0.0147797
920.621	0.0146844
920.699	0.0147811
920.777	0.0147479
920.855	0.0147198
920.933	0.0147301
921.011	0.0146648
921.090	0.0147073
921.168	0.0146307
921.246	0.0146654
921.324	0.0147003
921.402	0.0144884
921.480	0.0146308
921.558	0.0145248
921.636	0.0147131
921.715	0.0146265
921.793	0.0145897
921.871	0.0146571
921.949	0.0146894
922.027	0.0146378
922.105	0.0146548
922.183	0.0145939
922.261	0.0144782
922.340	0.0145793
922.418	0.0143952
922.496	0.0144508
922.574	0.0145912
922.652	0.0144650
922.730	0.0143721
922.808	0.0144991
922.886	0.0145566
922.965	0.0145982
923.043	0.0145947
923.121	0.0144820
923.199	0.0144751
923.277	0.0145133
923.355	0.0144215
923.433	0.0143800
923.511	0.0145508
923.590	0.0145209
923.668	0.0143550
923.746	0.0145591
923.824	0.0147555
923.902	0.0145288
923.980	0.0145679
924.058	0.0145380
924.136	0.0147263
924.215	0.0147975
924.293	0.0147997
924.371	0.0146909
924.449	0.0148750
924.527	0.0148349
924.605	0.0147289
924.683	0.0147810
924.761	0.0148401
924.840	0.0148449
924.918	0.0147192
924.996	0.0145607
925.074	0.0146604
925.152	0.0146356
925.230	0.0146403
925.308	0.0146536
925.386	0.0145294
925.465	0.0145253
925.543	0.0144268
925.621	0.0144887
925.699	0.0145610
925.777	0.0143382
925.855	0.0144204
925.933	0.0144482
926.011	0.0145734
926.090	0.0145314
926.168	0.0145013
926.246	0.0143813
926.324	0.0143980
926.402	0.0143988
926.480	0.0145290
926.558	0.0144746
926.636	0.0144342
926.715	0.0144998
926.793	0.0144599
926.871	0.0144763
926.949	0.0145116
927.027	0.0145671
927.105	0.0145219
927.183	0.0146085
927.261	0.0145072
927.340	0.0146132
927.418	0.0146417
927.496	0.0146996
927.574	0.0147451
927.652	0.0147443
927.730	0.0148427
927.808	0.0147531
927.886	0.0146214
927.965	0.0146670
928.043	0.0147493
928.121	0.0147616
928.199	0.0147173
928.277	0.0147304
928.355	0.0146635
928.433	0.0147821
928.511	0.0147074
928.590	0.0147367
928.668	0.0146745
928.746	0.0147067
928.824	0.0146462
928.902	0.0145689
928.980	0.0145750
929.058	0.0146111
929.136	0.0144942
929.215	0.0145543
929.293	0.0143820
929.371	0.0145041
929.449	0.0145278
929.527	0.0144221
929.605	0.0145595
929.683	0.0145171
929.761	0.0145130
929.840	0.0146091
929.918	0.0144812
929.996	0.0144773
930.074	0.0145963
930.152	0.0144952
930.230	0.0145594
930.308	0.0146725
930.386	0.0146045
930.465	0.0144947
930.543	0.0145950
930.621	0.0147202
930.699	0.0146433
930.777	0.0146126
930.855	0.0146684
930.933	0.0146441
931.011	0.0145222
931.090	0.0146946
931.168	0.0146727
931.246	0.0146410
931.324	0.0145632
931.402	0.0145828
931.480	0.0146735
931.558	0.0146373
931.636	0.0145470
931.715	0.0146246
931.793	0.0146165
931.871	0.0146684
931.949	0.0144373
932.027	0.0145412
932.105	0.0145638
932.183	0.0145694
932.261	0.0146635
932.340	0.0145425
932.418	0.0145118
932.496	0.0144833
932.574	0.0145267
932.652	0.0144967
932.730	0.0145483
932.808	0.0146858
932.886	0.0145998
932.965	0.0145565
933.043	0.0145114
933.121	0.0146001
933.199	0.0146728
933.277	0.0146021
933.355	0.0145516
933.433	0.0146574
933.511	0.0146574
933.590	0.0146723
933.668	0.0144916
933.746	0.0145046
933.824	0.0145923
933.902	0.0146593
933.980	0.0145814
934.058	0.0146278
934.136	0.0146274
934.215	0.0148032
934.293	0.0145824
934.371	0.0145469
934.449	0.0145823
934.527	0.0145007
934.605	0.0146442
934.683	0.0146093
934.761	0.0145155
934.840	0.0146350
934.918	0.0146078
934.996	0.0146391
935.074	0.0145971
935.152	0.0145975
935.230	0.0146384
935.308	0.0145255
935.386	0.0147128
935.465	0.0147174
935.543	0.0146971
935.621	0.0146252
935.699	0.0147198
935.777	0.0147060
935.855	0.0148174
935.933	0.0146435
936.011	0.0146835
936.090	0.0145990
936.168	0.0145274
936.246	0.0146046
936.324	0.0146241
936.402	0.0145728
936.480	0.0146272
936.558	0.0147148
936.636	0.0145772
936.715	0.0145565
936.793	0.0146677
936.871	0.0147186
936.949	0.0148057
937.027	0.0145687
937.105	0.0146172
937.183	0.0145035
937.261	0.0148058
937.340	0.0147706
937.418	0.0147034
937.496	0.0146230
937.574	0.0145865
937.652	0.0145581
937.730	0.0146616
937.808	0.0147470
937.886	0.0146664
937.965	0.0146062
938.043	0.0146587
938.121	0.0143867
938.199	0.0144196
938.277	0.0145341
938.355	0.0144260
938.433	0.0146248
938.511	0.0145428
938.590	0.0144353
938.668	0.0142606
938.746	0.0145034
938.824	0.0145302
938.902	0.0144261
938.980	0.0143102
939.058	0.0146057
939.136	0.0145993
939.215	0.0145210
939.293	0.0146947
939.371	0.0146113
939.449	0.0146165
939.527	0.0147289
939.605	0.0148827
939.683	0.0147686
939.761	0.0149446
939.840	0.0149462
939.918	0.0147795
939.996	0.0146032
940.074	0.0148129
940.152	0.0147002
940.230	0.0146409
940.308	0.0144589
940.386	0.0145185
940.465	0.0146301
940.543	0.0145393
940.621	0.0146201
940.699	0.0144422
940.777	0.0145148
940.855	0.0145668
940.933	0.0145266
941.011	0.0145783
941.090	0.0145473
941.168	0.0145412
941.246	0.0146559
941.324	0.0146303
941.402	0.0146541
941.480	0.0146512
941.558	0.0147061
941.636	0.0146435
941.715	0.0146144
941.793	0.0146017
941.871	0.0146809
941.949	0.0146725
942.027	0.0148338
942.105	0.0146059
942.183	0.0147166
942.261	0.0146701
942.340	0.0147315
942.418	0.0147542
942.496	0.0146539
942.574	0.0145752
942.652	0.0147334
942.730	0.0147826
942.808	0.0149443
942.886	0.0147015
942.965	0.0147167
943.043	0.0147300
943.121	0.0146867
943.199	0.0145849
943.277	0.0147337
943.355	0.0148014
943.433	0.0147225
943.511	0.0146445
943.590	0.0146886
943.668	0.0148164
943.746	0.0147261
943.824	0.0146603
943.902	0.0145466
943.980	0.0144392
944.058	0.0145509
944.136	0.0146283
944.215	0.0146072
944.293	0.0145452
944.371	0.0143793
944.449	0.0143568
944.527	0.0143557
944.605	0.0144899
944.683	0.0144259
944.761	0.0145480
944.840	0.0145122
944.918	0.0145615
944.996	0.0145601
945.074	0.0145999
945.152	0.0146051
945.230	0.0146995
945.308	0.0148058
945.386	0.0147970
945.465	0.0147789
945.543	0.0147060
945.621	0.0147778
945.699	0.0148730
945.777	0.0147989
945.855	0.0146469
945.933	0.0146687
946.011	0.0148154
946.090	0.0147819
946.168	0.0144991
946.246	0.0144905
946.324	0.0144808
946.402	0.0145581
946.480	0.0145229
946.558	0.0144292
946.636	0.0143836
946.715	0.0144380
946.793	0.0145175
946.871	0.0146665
946.949	0.0146983
947.027	0.0144488
947.105	0.0146385
947.183	0.0145092
947.261	0.0145295
947.340	0.0146792
947.418	0.0146635
947.496	0.0146383
947.574	0.0146141
947.652	0.0146384
947.730	0.0145760
947.808	0.0145834
947.886	0.0146652
947.965	0.0146552
948.043	0.0145828
948.121	0.0146085
948.199	0.0148174
948.277	0.0147408
948.355	0.0146257
948.433	0.0145958
948.511	0.0147511
948.590	0.0146879
948.668	0.0146691
948.746	0.0147311
948.824	0.0147629
948.902	0.0146679
948.980	0.0146986
949.058	0.0147755
949.136	0.0147196
949.215	0.0146392
949.293	0.0147929
949.371	0.0147678
949.449	0.0147577
949.527	0.0146873
949.605	0.0146705
949.683	0.0146160
949.761	0.0146024
949.840	0.0145262
949.918	0.0146619
