05/03/2022	20:06:26	Ver.	4.1	UNKNOWN
Optical Delay	660.003261	Delta X		0.078125	Sweeps	1	Scan Rate	0/0
Coordinates	Axis 1	NaN	Axis 2	NaN	Axis 3	NaN	Axis 4	NaN	Axis 5	NaN	Axis 6	0.000000
TX Power	0.000000	RX Power	0.000000

660.003	0.0143747
660.081	0.0143987
660.160	0.0143882
660.238	0.0143755
660.316	0.0142305
660.394	0.0142333
660.472	0.0143439
660.550	0.0143795
660.628	0.0144309
660.706	0.0143960
660.785	0.0142796
660.863	0.0142270
660.941	0.0144471
661.019	0.0144784
661.097	0.0144215
661.175	0.0142997
661.253	0.0143894
661.331	0.0144509
661.410	0.0142810
661.488	0.0142633
661.566	0.0143300
661.644	0.0142920
661.722	0.0143378
661.800	0.0142717
661.878	0.0142921
661.956	0.0143729
662.035	0.0143742
662.113	0.0143725
662.191	0.0143675
662.269	0.0144170
662.347	0.0143311
662.425	0.0143249
662.503	0.0143870
662.581	0.0143907
662.660	0.0144255
662.738	0.0143623
662.816	0.0145358
662.894	0.0144547
662.972	0.0143774
663.050	0.0142735
663.128	0.0143211
663.206	0.0144353
663.285	0.0144368
663.363	0.0144106
663.441	0.0144034
663.519	0.0144204
663.597	0.0143710
663.675	0.0144468
663.753	0.0143710
663.831	0.0142725
663.910	0.0144571
663.988	0.0143286
664.066	0.0144695
664.144	0.0143535
664.222	0.0143774
664.300	0.0143195
664.378	0.0144221
664.456	0.0144738
664.535	0.0143137
664.613	0.0143996
664.691	0.0143836
664.769	0.0143920
664.847	0.0144416
664.925	0.0143655
665.003	0.0144618
665.081	0.0143900
665.160	0.0144069
665.238	0.0144802
665.316	0.0143211
665.394	0.0143668
665.472	0.0143889
665.550	0.0143311
665.628	0.0142651
665.706	0.0144724
665.785	0.0143872
665.863	0.0143210
665.941	0.0143729
666.019	0.0144421
666.097	0.0143972
666.175	0.0143672
666.253	0.0143724
666.331	0.0142801
666.410	0.0143107
666.488	0.0143144
666.566	0.0142989
666.644	0.0143182
666.722	0.0143237
666.800	0.0142814
666.878	0.0144865
666.956	0.0144614
667.035	0.0144588
667.113	0.0143668
667.191	0.0144107
667.269	0.0144540
667.347	0.0143456
667.425	0.0143460
667.503	0.0143651
667.581	0.0144469
667.660	0.0144769
667.738	0.0144334
667.816	0.0143956
667.894	0.0143396
667.972	0.0143009
668.050	0.0143502
668.128	0.0142518
668.206	0.0142971
668.285	0.0144583
668.363	0.0144321
668.441	0.0144224
668.519	0.0143444
668.597	0.0143832
668.675	0.0143557
668.753	0.0144328
668.831	0.0144041
668.910	0.0143010
668.988	0.0144473
669.066	0.0143588
669.144	0.0143857
669.222	0.0144444
669.300	0.0142784
669.378	0.0143170
669.456	0.0143591
669.535	0.0142378
669.613	0.0145103
669.691	0.0144461
669.769	0.0144974
669.847	0.0142992
669.925	0.0142395
670.003	0.0144486
670.081	0.0144046
670.160	0.0143026
670.238	0.0144422
670.316	0.0142386
670.394	0.0143734
670.472	0.0144875
670.550	0.0143843
670.628	0.0143340
670.706	0.0144527
670.785	0.0144427
670.863	0.0144324
670.941	0.0142553
671.019	0.0143148
671.097	0.0144027
671.175	0.0143259
671.253	0.0143814
671.331	0.0143174
671.410	0.0142518
671.488	0.0144033
671.566	0.0144732
671.644	0.0143635
671.722	0.0143987
671.800	0.0142941
671.878	0.0143182
671.956	0.0144105
672.035	0.0144647
672.113	0.0144217
672.191	0.0144217
672.269	0.0143633
672.347	0.0143826
672.425	0.0143732
672.503	0.0143572
672.581	0.0144102
672.660	0.0143494
672.738	0.0144174
672.816	0.0143889
672.894	0.0144290
672.972	0.0143217
673.050	0.0143796
673.128	0.0143131
673.206	0.0143377
673.285	0.0143401
673.363	0.0143983
673.441	0.0143584
673.519	0.0143637
673.597	0.0143350
673.675	0.0143520
673.753	0.0143798
673.831	0.0143501
673.910	0.0142625
673.988	0.0143190
674.066	0.0143450
674.144	0.0142619
674.222	0.0142854
674.300	0.0144086
674.378	0.0143015
674.456	0.0143587
674.535	0.0143777
674.613	0.0144633
674.691	0.0142570
674.769	0.0143211
674.847	0.0144527
674.925	0.0143449
675.003	0.0142943
675.081	0.0143206
675.160	0.0143298
675.238	0.0143884
675.316	0.0144248
675.394	0.0143024
675.472	0.0143420
675.550	0.0142580
675.628	0.0142416
675.706	0.0142990
675.785	0.0145335
675.863	0.0142442
675.941	0.0142549
676.019	0.0142911
676.097	0.0142870
676.175	0.0143663
676.253	0.0143597
676.331	0.0144104
676.410	0.0142264
676.488	0.0142725
676.566	0.0142553
676.644	0.0142086
676.722	0.0141725
676.800	0.0143420
676.878	0.0144579
676.956	0.0143489
677.035	0.0143820
677.113	0.0142265
677.191	0.0143236
677.269	0.0144398
677.347	0.0141695
677.425	0.0143157
677.503	0.0142334
677.581	0.0143861
677.660	0.0142429
677.738	0.0143319
677.816	0.0143826
677.894	0.0143250
677.972	0.0143128
678.050	0.0143900
678.128	0.0143125
678.206	0.0143130
678.285	0.0142783
678.363	0.0143417
678.441	0.0143635
678.519	0.0143669
678.597	0.0143879
678.675	0.0144098
678.753	0.0143437
678.831	0.0142425
678.910	0.0143401
678.988	0.0144083
679.066	0.0144191
679.144	0.0142921
679.222	0.0142898
679.300	0.0143983
679.378	0.0143435
679.456	0.0142249
679.535	0.0141900
679.613	0.0144386
679.691	0.0143423
679.769	0.0144049
679.847	0.0145242
679.925	0.0143121
680.003	0.0143249
680.081	0.0143239
680.160	0.0143372
680.238	0.0143057
680.316	0.0143847
680.394	0.0143362
680.472	0.0143349
680.550	0.0144215
680.628	0.0143391
680.706	0.0143748
680.785	0.0142369
680.863	0.0144257
680.941	0.0144052
681.019	0.0143557
681.097	0.0143342
681.175	0.0143700
681.253	0.0142919
681.331	0.0142949
681.410	0.0143449
681.488	0.0143269
681.566	0.0143322
681.644	0.0144722
681.722	0.0143817
681.800	0.0143213
681.878	0.0145252
681.956	0.0142969
682.035	0.0142843
682.113	0.0143813
682.191	0.0143675
682.269	0.0143541
682.347	0.0143373
682.425	0.0142961
682.503	0.0144939
682.581	0.0142918
682.660	0.0143726
682.738	0.0144339
682.816	0.0142734
682.894	0.0143709
682.972	0.0144115
683.050	0.0144157
683.128	0.0145002
683.206	0.0144315
683.285	0.0142875
683.363	0.0142867
683.441	0.0143620
683.519	0.0143717
683.597	0.0143168
683.675	0.0143481
683.753	0.0144708
683.831	0.0145029
683.910	0.0144703
683.988	0.0142995
684.066	0.0145165
684.144	0.0145004
684.222	0.0142639
684.300	0.0143426
684.378	0.0143125
684.456	0.0143825
684.535	0.0143903
684.613	0.0142594
684.691	0.0143494
684.769	0.0144327
684.847	0.0142758
684.925	0.0142700
685.003	0.0143377
685.081	0.0143789
685.160	0.0143871
685.238	0.0145061
685.316	0.0143887
685.394	0.0142690
685.472	0.0143300
685.550	0.0144218
685.628	0.0144048
685.706	0.0142433
685.785	0.0143156
685.863	0.0144928
685.941	0.0142681
686.019	0.0142303
686.097	0.0143864
686.175	0.0142687
686.253	0.0141365
686.331	0.0143836
686.410	0.0144489
686.488	0.0143669
686.566	0.0144170
686.644	0.0143508
686.722	0.0143571
686.800	0.0143784
686.878	0.0143672
686.956	0.0142958
687.035	0.0144978
687.113	0.0143652
687.191	0.0142659
687.269	0.0142977
687.347	0.0142735
687.425	0.0143533
687.503	0.0143469
687.581	0.0143831
687.660	0.0143666
687.738	0.0143259
687.816	0.0142171
687.894	0.0143517
687.972	0.0144061
688.050	0.0142816
688.128	0.0143739
688.206	0.0142324
688.285	0.0142835
688.363	0.0144724
688.441	0.0144030
688.519	0.0143362
688.597	0.0141656
688.675	0.0143590
688.753	0.0143100
688.831	0.0143599
688.910	0.0143217
688.988	0.0144021
689.066	0.0144507
689.144	0.0144198
689.222	0.0143642
689.300	0.0143101
689.378	0.0142552
689.456	0.0143777
689.535	0.0144484
689.613	0.0142403
689.691	0.0142142
689.769	0.0144256
689.847	0.0144948
689.925	0.0144328
690.003	0.0143095
690.081	0.0144484
690.160	0.0143562
690.238	0.0143380
690.316	0.0142917
690.394	0.0143653
690.472	0.0142359
690.550	0.0143759
690.628	0.0143609
690.706	0.0143832
690.785	0.0143717
690.863	0.0143698
690.941	0.0143558
691.019	0.0142407
691.097	0.0142776
691.175	0.0143198
691.253	0.0144003
691.331	0.0143668
691.410	0.0144938
691.488	0.0144064
691.566	0.0143446
691.644	0.0144146
691.722	0.0143718
691.800	0.0142480
691.878	0.0144112
691.956	0.0144721
692.035	0.0143647
692.113	0.0144510
692.191	0.0143549
692.269	0.0142490
692.347	0.0142538
692.425	0.0143542
692.503	0.0144234
692.581	0.0143597
692.660	0.0143554
692.738	0.0143454
692.816	0.0144494
692.894	0.0144131
692.972	0.0143317
693.050	0.0144044
693.128	0.0142736
693.206	0.0142688
693.285	0.0143450
693.363	0.0143721
693.441	0.0143752
693.519	0.0143216
693.597	0.0143717
693.675	0.0144256
693.753	0.0143590
693.831	0.0144122
693.910	0.0144208
693.988	0.0143474
694.066	0.0143079
694.144	0.0144357
694.222	0.0143190
694.300	0.0142738
694.378	0.0144039
694.456	0.0142217
694.535	0.0143488
694.613	0.0144280
694.691	0.0142840
694.769	0.0143648
694.847	0.0143913
694.925	0.0143668
695.003	0.0144036
695.081	0.0144157
695.160	0.0144323
695.238	0.0143048
695.316	0.0143697
695.394	0.0143483
695.472	0.0144083
695.550	0.0142978
695.628	0.0143872
695.706	0.0142905
695.785	0.0144735
695.863	0.0143554
695.941	0.0143078
696.019	0.0143205
696.097	0.0143310
696.175	0.0143513
696.253	0.0143890
696.331	0.0143208
696.410	0.0142768
696.488	0.0142648
696.566	0.0142785
696.644	0.0142138
696.722	0.0144745
696.800	0.0143317
696.878	0.0142364
696.956	0.0142273
697.035	0.0145226
697.113	0.0143335
697.191	0.0143045
697.269	0.0143584
697.347	0.0142582
697.425	0.0143890
697.503	0.0143302
697.581	0.0143876
697.660	0.0143198
697.738	0.0144978
697.816	0.0143843
697.894	0.0144678
697.972	0.0142759
698.050	0.0142859
698.128	0.0143893
698.206	0.0144038
698.285	0.0143197
698.363	0.0142796
698.441	0.0143689
698.519	0.0143832
698.597	0.0143339
698.675	0.0143587
698.753	0.0144154
698.831	0.0142944
698.910	0.0143876
698.988	0.0144954
699.066	0.0144139
699.144	0.0144349
699.222	0.0143482
699.300	0.0143209
699.378	0.0143818
699.456	0.0144143
699.535	0.0143391
699.613	0.0141940
699.691	0.0143562
699.769	0.0144908
699.847	0.0142113
699.925	0.0143841
700.003	0.0143291
700.081	0.0143475
700.160	0.0142905
700.238	0.0143688
700.316	0.0142816
700.394	0.0141095
700.472	0.0142389
700.550	0.0143616
700.628	0.0144746
700.706	0.0143709
700.785	0.0142905
700.863	0.0144920
700.941	0.0145164
701.019	0.0143725
701.097	0.0143969
701.175	0.0145588
701.253	0.0144893
701.331	0.0144998
701.410	0.0144158
701.488	0.0144065
701.566	0.0143339
701.644	0.0143839
701.722	0.0144250
701.800	0.0144801
701.878	0.0142704
701.956	0.0140800
702.035	0.0142707
702.113	0.0143345
702.191	0.0142834
702.269	0.0142767
702.347	0.0142916
702.425	0.0142638
702.503	0.0143166
702.581	0.0143694
702.660	0.0143504
702.738	0.0143322
702.816	0.0143404
702.894	0.0144211
702.972	0.0143298
703.050	0.0142780
703.128	0.0142592
703.206	0.0143048
703.285	0.0144795
703.363	0.0144009
703.441	0.0145105
703.519	0.0144614
703.597	0.0144627
703.675	0.0144038
703.753	0.0143489
703.831	0.0145419
703.910	0.0145038
703.988	0.0143259
704.066	0.0144073
704.144	0.0145561
704.222	0.0144691
704.300	0.0143677
704.378	0.0144371
704.456	0.0146217
704.535	0.0144456
704.613	0.0144990
704.691	0.0143955
704.769	0.0144083
704.847	0.0145669
704.925	0.0144482
705.003	0.0143498
705.081	0.0145455
705.160	0.0146156
705.238	0.0144262
705.316	0.0143575
705.394	0.0144403
705.472	0.0144122
705.550	0.0144359
705.628	0.0145217
705.706	0.0145914
705.785	0.0146155
705.863	0.0146189
705.941	0.0147153
706.019	0.0147490
706.097	0.0147822
706.175	0.0146769
706.253	0.0147476
706.331	0.0149765
706.410	0.0146882
706.488	0.0147020
706.566	0.0148647
706.644	0.0147932
706.722	0.0146326
706.800	0.0147733
706.878	0.0147058
706.956	0.0146005
707.035	0.0146899
707.113	0.0146589
707.191	0.0145222
707.269	0.0143932
707.347	0.0142317
707.425	0.0142664
707.503	0.0142096
707.581	0.0139764
707.660	0.0140255
707.738	0.0138335
707.816	0.0136159
707.894	0.0134058
707.972	0.0131422
708.050	0.0130476
708.128	0.0126659
708.206	0.0124438
708.285	0.0119251
708.363	0.0112054
708.441	0.0107447
708.519	0.0102003
708.597	0.00956795
708.675	0.00922218
708.753	0.00886353
708.831	0.00891373
708.910	0.00938049
708.988	0.0101113
709.066	0.0113725
709.144	0.0130134
709.222	0.0145586
709.300	0.0161580
709.378	0.0176972
709.456	0.0187833
709.535	0.0195638
709.613	0.0199932
709.691	0.0199185
709.769	0.0196282
709.847	0.0189188
709.925	0.0182504
710.003	0.0173612
710.081	0.0169112
710.160	0.0163808
710.238	0.0160683
710.316	0.0159819
710.394	0.0158186
710.472	0.0160214
710.550	0.0165679
710.628	0.0166202
710.706	0.0169019
710.785	0.0171951
710.863	0.0175591
710.941	0.0175616
711.019	0.0177417
711.097	0.0177509
711.175	0.0175719
711.253	0.0172330
711.331	0.0167590
711.410	0.0159047
711.488	0.0149068
711.566	0.0137695
711.644	0.0127050
711.722	0.0111661
711.800	0.00998718
711.878	0.00873856
711.956	0.00759521
712.035	0.00639076
712.113	0.00565536
712.191	0.00521248
712.269	0.00540405
712.347	0.00600227
712.425	0.00677803
712.503	0.00830238
712.581	0.00991692
712.660	0.0115678
712.738	0.0134330
712.816	0.0149991
712.894	0.0162447
712.972	0.0173555
713.050	0.0179501
713.128	0.0182249
713.206	0.0181950
713.285	0.0181355
713.363	0.0174077
713.441	0.0169353
713.519	0.0161784
713.597	0.0154256
713.675	0.0149673
713.753	0.0148357
713.831	0.0149243
713.910	0.0152518
713.988	0.0160106
714.066	0.0169156
714.144	0.0181067
714.222	0.0193545
714.300	0.0204043
714.378	0.0214199
714.456	0.0221618
714.535	0.0224492
714.613	0.0221603
714.691	0.0215319
714.769	0.0203757
714.847	0.0188525
714.925	0.0172609
715.003	0.0154251
715.081	0.0132198
715.160	0.0113119
715.238	0.00957146
715.316	0.00783386
715.394	0.00655914
715.472	0.00564629
715.550	0.00538490
715.628	0.00515793
715.706	0.00550873
715.785	0.00609871
715.863	0.00706627
715.941	0.00784439
716.019	0.00905243
716.097	0.0100465
716.175	0.0110930
716.253	0.0121835
716.331	0.0132093
716.410	0.0143048
716.488	0.0150798
716.566	0.0161399
716.644	0.0169058
716.722	0.0174918
716.800	0.0180249
716.878	0.0185193
716.956	0.0188329
717.035	0.0192627
717.113	0.0194028
717.191	0.0195506
717.269	0.0195907
717.347	0.0197011
717.425	0.0197170
717.503	0.0196521
717.581	0.0195241
717.660	0.0193817
717.738	0.0190583
717.816	0.0186063
717.894	0.0179282
717.972	0.0174432
718.050	0.0166262
718.128	0.0159342
718.206	0.0151230
718.285	0.0142238
718.363	0.0133452
718.441	0.0125095
718.519	0.0115827
718.597	0.0106863
718.675	0.0101440
718.753	0.00947090
718.831	0.00910179
718.910	0.00890427
718.988	0.00867935
719.066	0.00868973
719.144	0.00881676
719.222	0.00898621
719.300	0.00940887
719.378	0.00977364
719.456	0.0102314
719.535	0.0109091
719.613	0.0116338
719.691	0.0121899
719.769	0.0127396
719.847	0.0133575
719.925	0.0138329
720.003	0.0142842
720.081	0.0146194
720.160	0.0151337
720.238	0.0153065
720.316	0.0155482
720.394	0.0156212
720.472	0.0157093
720.550	0.0159258
720.628	0.0158736
720.706	0.0158078
720.785	0.0159934
720.863	0.0159352
720.941	0.0158855
721.019	0.0157644
721.097	0.0156469
721.175	0.0157285
721.253	0.0158089
721.331	0.0156274
721.410	0.0155017
721.488	0.0155312
721.566	0.0156831
721.644	0.0156142
721.722	0.0158125
721.800	0.0156712
721.878	0.0157400
721.956	0.0157978
722.035	0.0157929
722.113	0.0157678
722.191	0.0159718
722.269	0.0158106
722.347	0.0158788
722.425	0.0159924
722.503	0.0157626
722.581	0.0156539
722.660	0.0155991
722.738	0.0155670
722.816	0.0152633
722.894	0.0152102
722.972	0.0149227
723.050	0.0148580
723.128	0.0146482
723.206	0.0145718
723.285	0.0143390
723.363	0.0139780
723.441	0.0138511
723.519	0.0134879
723.597	0.0131995
723.675	0.0128912
723.753	0.0123964
723.831	0.0118336
723.910	0.0115935
723.988	0.0113904
724.066	0.0108892
724.144	0.0106809
724.222	0.0106350
724.300	0.0103483
724.378	0.0104622
724.456	0.0105569
724.535	0.0106477
724.613	0.0107866
724.691	0.0111256
724.769	0.0115031
724.847	0.0117709
724.925	0.0123689
725.003	0.0128194
725.081	0.0132989
725.160	0.0137498
725.238	0.0143773
725.316	0.0146053
725.394	0.0150314
725.472	0.0153974
725.550	0.0157269
725.628	0.0158295
725.706	0.0163530
725.785	0.0165863
725.863	0.0169239
725.941	0.0171848
726.019	0.0175623
726.097	0.0179697
726.175	0.0181176
726.253	0.0181976
726.331	0.0182970
726.410	0.0183360
726.488	0.0182406
726.566	0.0178721
726.644	0.0176854
726.722	0.0174126
726.800	0.0169754
726.878	0.0166838
726.956	0.0164159
727.035	0.0161269
727.113	0.0158389
727.191	0.0154229
727.269	0.0153413
727.347	0.0151128
727.425	0.0148379
727.503	0.0147520
727.581	0.0146103
727.660	0.0147522
727.738	0.0146628
727.816	0.0146645
727.894	0.0146333
727.972	0.0146607
728.050	0.0146713
728.128	0.0145938
728.206	0.0143845
728.285	0.0140805
728.363	0.0138309
728.441	0.0135312
728.519	0.0132193
728.597	0.0125925
728.675	0.0121017
728.753	0.0117877
728.831	0.0113236
728.910	0.0109798
728.988	0.0107423
729.066	0.0105717
729.144	0.0104078
729.222	0.0102837
729.300	0.0105294
729.378	0.0108226
729.456	0.0111172
729.535	0.0113114
729.613	0.0115347
729.691	0.0119617
729.769	0.0123207
729.847	0.0127070
729.925	0.0130484
730.003	0.0130817
730.081	0.0135744
730.160	0.0137683
730.238	0.0138670
730.316	0.0141103
730.394	0.0142353
730.472	0.0144441
730.550	0.0145768
730.628	0.0147063
730.706	0.0147071
730.785	0.0148845
730.863	0.0149985
730.941	0.0151708
731.019	0.0153970
731.097	0.0156853
731.175	0.0158765
731.253	0.0161740
731.331	0.0163569
731.410	0.0166563
731.488	0.0168561
731.566	0.0168976
731.644	0.0168406
731.722	0.0169677
731.800	0.0168855
731.878	0.0168958
731.956	0.0169025
732.035	0.0165480
732.113	0.0163371
732.191	0.0159850
732.269	0.0157381
732.347	0.0154968
732.425	0.0152780
732.503	0.0148942
732.581	0.0148635
732.660	0.0145697
732.738	0.0144270
732.816	0.0144254
732.894	0.0145464
732.972	0.0145103
733.050	0.0144816
733.128	0.0143910
733.206	0.0145691
733.285	0.0146915
733.363	0.0148119
733.441	0.0151023
733.519	0.0149970
733.597	0.0151278
733.675	0.0150944
733.753	0.0152141
733.831	0.0150472
733.910	0.0150282
733.988	0.0144415
734.066	0.0140830
734.144	0.0136597
734.222	0.0132661
734.300	0.0128806
734.378	0.0125197
734.456	0.0120823
734.535	0.0117502
734.613	0.0114614
734.691	0.0112009
734.769	0.0113109
734.847	0.0112494
734.925	0.0116063
735.003	0.0116329
735.081	0.0119230
735.160	0.0121758
735.238	0.0126303
735.316	0.0129755
735.394	0.0130721
735.472	0.0131792
735.550	0.0133599
735.628	0.0136234
735.706	0.0137300
735.785	0.0137865
735.863	0.0137025
735.941	0.0136053
736.019	0.0134762
736.097	0.0137172
736.175	0.0137347
736.253	0.0137332
736.331	0.0139305
736.410	0.0140158
736.488	0.0143014
736.566	0.0143860
736.644	0.0145861
736.722	0.0149578
736.800	0.0150416
736.878	0.0153804
736.956	0.0157607
737.035	0.0159542
737.113	0.0161572
737.191	0.0160918
737.269	0.0162825
737.347	0.0163546
737.425	0.0164762
737.503	0.0164058
737.581	0.0162485
737.660	0.0160711
737.738	0.0162096
737.816	0.0160600
737.894	0.0158286
737.972	0.0157229
738.050	0.0156384
738.128	0.0155999
738.206	0.0157256
738.285	0.0155891
738.363	0.0156210
738.441	0.0156567
738.519	0.0156837
738.597	0.0155793
738.675	0.0156779
738.753	0.0155450
738.831	0.0154887
738.910	0.0152500
738.988	0.0151588
739.066	0.0150787
739.144	0.0147772
739.222	0.0144166
739.300	0.0144518
739.378	0.0141797
739.456	0.0138535
739.535	0.0135516
739.613	0.0134474
739.691	0.0133913
739.769	0.0132528
739.847	0.0132227
739.925	0.0132118
740.003	0.0132478
740.081	0.0131244
740.160	0.0133643
740.238	0.0133652
740.316	0.0133070
740.394	0.0133229
740.472	0.0134427
740.550	0.0132755
740.628	0.0131982
740.706	0.0133457
740.785	0.0132845
740.863	0.0131908
740.941	0.0130446
741.019	0.0130463
741.097	0.0131583
741.175	0.0129240
741.253	0.0131628
741.331	0.0132990
741.410	0.0133154
741.488	0.0134022
741.566	0.0134947
741.644	0.0136246
741.722	0.0138443
741.800	0.0138007
741.878	0.0138492
741.956	0.0138396
742.035	0.0138242
742.113	0.0138687
742.191	0.0137351
742.269	0.0137148
742.347	0.0137246
742.425	0.0136911
742.503	0.0136385
742.581	0.0137720
742.660	0.0139156
742.738	0.0140838
742.816	0.0142662
742.894	0.0143712
742.972	0.0145972
743.050	0.0148769
743.128	0.0149049
743.206	0.0151205
743.285	0.0151521
743.363	0.0152753
743.441	0.0153161
743.519	0.0154159
743.597	0.0152785
743.675	0.0154417
743.753	0.0156207
743.831	0.0156427
743.910	0.0155894
743.988	0.0155627
744.066	0.0157634
744.144	0.0157081
744.222	0.0157588
744.300	0.0157903
744.378	0.0159442
744.456	0.0158801
744.535	0.0159658
744.613	0.0157307
744.691	0.0158684
744.769	0.0158569
744.847	0.0157256
744.925	0.0156351
745.003	0.0154931
745.081	0.0152985
745.160	0.0152193
745.238	0.0150352
745.316	0.0148551
745.394	0.0148354
745.472	0.0145019
745.550	0.0143368
745.628	0.0141254
745.706	0.0139832
745.785	0.0137588
745.863	0.0135684
745.941	0.0135036
746.019	0.0135165
746.097	0.0134692
746.175	0.0135927
746.253	0.0135497
746.331	0.0135855
746.410	0.0136781
746.488	0.0136600
746.566	0.0137500
746.644	0.0135600
746.722	0.0133933
746.800	0.0133172
746.878	0.0132405
746.956	0.0131578
747.035	0.0130107
747.113	0.0129594
747.191	0.0130106
747.269	0.0128011
747.347	0.0128209
747.425	0.0128039
747.503	0.0129166
747.581	0.0130260
747.660	0.0131653
747.738	0.0132560
747.816	0.0132957
747.894	0.0133540
747.972	0.0137777
748.050	0.0139043
748.128	0.0139834
748.206	0.0141100
748.285	0.0142413
748.363	0.0142675
748.441	0.0143137
748.519	0.0144151
748.597	0.0145761
748.675	0.0145642
748.753	0.0144170
748.831	0.0145481
748.910	0.0146728
748.988	0.0145190
749.066	0.0146960
749.144	0.0148883
749.222	0.0149571
749.300	0.0151756
749.378	0.0152010
749.456	0.0153277
749.535	0.0154333
749.613	0.0157291
749.691	0.0157215
749.769	0.0157713
749.847	0.0157668
749.925	0.0157926
750.003	0.0156603
750.081	0.0155904
750.160	0.0155620
750.238	0.0154356
750.316	0.0151699
750.394	0.0150483
750.472	0.0150219
750.550	0.0148571
750.628	0.0149288
750.706	0.0148443
750.785	0.0148397
750.863	0.0147270
750.941	0.0148313
751.019	0.0150067
751.097	0.0149939
751.175	0.0151167
751.253	0.0151409
751.331	0.0151951
751.410	0.0152071
751.488	0.0152115
751.566	0.0153265
751.644	0.0152721
751.722	0.0152350
751.800	0.0150500
751.878	0.0147696
751.956	0.0148276
752.035	0.0146839
752.113	0.0145964
752.191	0.0144467
752.269	0.0143252
752.347	0.0141837
752.425	0.0141821
752.503	0.0140723
752.581	0.0138866
752.660	0.0139851
752.738	0.0139785
752.816	0.0138017
752.894	0.0138010
752.972	0.0137876
753.050	0.0137506
753.128	0.0137200
753.206	0.0136283
753.285	0.0136493
753.363	0.0135906
753.441	0.0134944
753.519	0.0135724
753.597	0.0135979
753.675	0.0133923
753.753	0.0132625
753.831	0.0131139
753.910	0.0131665
753.988	0.0130833
754.066	0.0130502
754.144	0.0130011
754.222	0.0129219
754.300	0.0130531
754.378	0.0131293
754.456	0.0131747
754.535	0.0131854
754.613	0.0135123
754.691	0.0136781
754.769	0.0138899
754.847	0.0140118
754.925	0.0140262
755.003	0.0142930
755.081	0.0144293
755.160	0.0146722
755.238	0.0147400
755.316	0.0148254
755.394	0.0149297
755.472	0.0148872
755.550	0.0149269
755.628	0.0149762
755.706	0.0149795
755.785	0.0150294
755.863	0.0146775
755.941	0.0146245
756.019	0.0149181
756.097	0.0148369
756.175	0.0147573
756.253	0.0151402
756.331	0.0150305
756.410	0.0151763
756.488	0.0152021
756.566	0.0152733
756.644	0.0153677
756.722	0.0152876
756.800	0.0154546
756.878	0.0154494
756.956	0.0154567
757.035	0.0153827
757.113	0.0153480
757.191	0.0154443
757.269	0.0151915
757.347	0.0151255
757.425	0.0151331
757.503	0.0149953
757.581	0.0149076
757.660	0.0150552
757.738	0.0147866
757.816	0.0149024
757.894	0.0149690
757.972	0.0149150
758.050	0.0147469
758.128	0.0146114
758.206	0.0146367
758.285	0.0145761
758.363	0.0145821
758.441	0.0145650
758.519	0.0145704
758.597	0.0145432
758.675	0.0142628
758.753	0.0143123
758.831	0.0141028
758.910	0.0142496
758.988	0.0139964
759.066	0.0138690
759.144	0.0139184
759.222	0.0138403
759.300	0.0136368
759.378	0.0135162
759.456	0.0133636
759.535	0.0134003
759.613	0.0132431
759.691	0.0131811
759.769	0.0132904
759.847	0.0132987
759.925	0.0133485
760.003	0.0135496
760.081	0.0135950
760.160	0.0136517
760.238	0.0136985
760.316	0.0137720
760.394	0.0140240
760.472	0.0140513
760.550	0.0140382
760.628	0.0139358
760.706	0.0138476
760.785	0.0139900
760.863	0.0139366
760.941	0.0137691
761.019	0.0137640
761.097	0.0138003
761.175	0.0139529
761.253	0.0138805
761.331	0.0137975
761.410	0.0139349
761.488	0.0140846
761.566	0.0141849
761.644	0.0140893
761.722	0.0141769
761.800	0.0143982
761.878	0.0146271
761.956	0.0146134
762.035	0.0145724
762.113	0.0146519
762.191	0.0144646
762.269	0.0144187
762.347	0.0146193
762.425	0.0147409
762.503	0.0146404
762.581	0.0145470
762.660	0.0148200
762.738	0.0147584
762.816	0.0148093
762.894	0.0149124
762.972	0.0148557
763.050	0.0150465
763.128	0.0151018
763.206	0.0151894
763.285	0.0151656
763.363	0.0153535
763.441	0.0155772
763.519	0.0154115
763.597	0.0152153
763.675	0.0154118
763.753	0.0153960
763.831	0.0153030
763.910	0.0153146
763.988	0.0151781
764.066	0.0151840
764.144	0.0150037
764.222	0.0147014
764.300	0.0147791
764.378	0.0147592
764.456	0.0147800
764.535	0.0144694
764.613	0.0144761
764.691	0.0144891
764.769	0.0142700
764.847	0.0143387
764.925	0.0143510
765.003	0.0143718
765.081	0.0142254
765.160	0.0143188
765.238	0.0142537
765.316	0.0143205
765.394	0.0143546
765.472	0.0143679
765.550	0.0143925
765.628	0.0142579
765.706	0.0143466
765.785	0.0143219
765.863	0.0142733
765.941	0.0140853
766.019	0.0142922
766.097	0.0143029
766.175	0.0142088
766.253	0.0141208
766.331	0.0140838
766.410	0.0138808
766.488	0.0140551
766.566	0.0140522
766.644	0.0138236
766.722	0.0137169
766.800	0.0137336
766.878	0.0137509
766.956	0.0136977
767.035	0.0135097
767.113	0.0135342
767.191	0.0134914
767.269	0.0137086
767.347	0.0136800
767.425	0.0138227
767.503	0.0137380
767.581	0.0137965
767.660	0.0138416
767.738	0.0138178
767.816	0.0137935
767.894	0.0139490
767.972	0.0139723
768.050	0.0137901
768.128	0.0139397
768.206	0.0140626
768.285	0.0142071
768.363	0.0141754
768.441	0.0140343
768.519	0.0141350
768.597	0.0140797
768.675	0.0143162
768.753	0.0144987
768.831	0.0143594
768.910	0.0143909
768.988	0.0144946
769.066	0.0145485
769.144	0.0146863
769.222	0.0148542
769.300	0.0145876
769.378	0.0149285
769.456	0.0148142
769.535	0.0148437
769.613	0.0147744
769.691	0.0148997
769.769	0.0149150
769.847	0.0150414
769.925	0.0148989
770.003	0.0147525
770.081	0.0149294
770.160	0.0148116
770.238	0.0148254
770.316	0.0147469
770.394	0.0146062
770.472	0.0147425
770.550	0.0148030
770.628	0.0147746
770.706	0.0146886
770.785	0.0148969
770.863	0.0148470
770.941	0.0148781
771.019	0.0148870
771.097	0.0148975
771.175	0.0146798
771.253	0.0147304
771.331	0.0147929
771.410	0.0146648
771.488	0.0147990
771.566	0.0147181
771.644	0.0147206
771.722	0.0147806
771.800	0.0148335
771.878	0.0147343
771.956	0.0148376
772.035	0.0148127
772.113	0.0148074
772.191	0.0147414
772.269	0.0147850
772.347	0.0147618
772.425	0.0146452
772.503	0.0146702
772.581	0.0145338
772.660	0.0145490
772.738	0.0146049
772.816	0.0145148
772.894	0.0145248
772.972	0.0143793
773.050	0.0143192
773.128	0.0140839
773.206	0.0140979
773.285	0.0142155
773.363	0.0142092
773.441	0.0140707
773.519	0.0138418
773.597	0.0137083
773.675	0.0137868
773.753	0.0136859
773.831	0.0136123
773.910	0.0134922
773.988	0.0135985
774.066	0.0135098
774.144	0.0134875
774.222	0.0136252
774.300	0.0134702
774.378	0.0134837
774.456	0.0136721
774.535	0.0135958
774.613	0.0136649
774.691	0.0136932
774.769	0.0137442
774.847	0.0138772
774.925	0.0138972
775.003	0.0140034
775.081	0.0139088
775.160	0.0140377
775.238	0.0139722
775.316	0.0140517
775.394	0.0140306
775.472	0.0141467
775.550	0.0142757
775.628	0.0142254
775.706	0.0141534
775.785	0.0142109
775.863	0.0142056
775.941	0.0143759
776.019	0.0146090
776.097	0.0146609
776.175	0.0146428
776.253	0.0146793
776.331	0.0149402
776.410	0.0150538
776.488	0.0149255
776.566	0.0151163
776.644	0.0152204
776.722	0.0152745
776.800	0.0152754
776.878	0.0153248
776.956	0.0153799
777.035	0.0152282
777.113	0.0151852
777.191	0.0152050
777.269	0.0150816
777.347	0.0150815
777.425	0.0150848
777.503	0.0150206
777.581	0.0150819
777.660	0.0148878
777.738	0.0149458
777.816	0.0149663
777.894	0.0146942
777.972	0.0147304
778.050	0.0147517
778.128	0.0148406
778.206	0.0148180
778.285	0.0146429
778.363	0.0146069
778.441	0.0146915
778.519	0.0146936
778.597	0.0148597
778.675	0.0147011
778.753	0.0144922
778.831	0.0145166
778.910	0.0145049
778.988	0.0145181
779.066	0.0146300
779.144	0.0144378
779.222	0.0145408
779.300	0.0145517
779.378	0.0144016
779.456	0.0144913
779.535	0.0144760
779.613	0.0143826
779.691	0.0143008
779.769	0.0141973
779.847	0.0142306
779.925	0.0142874
780.003	0.0142657
780.081	0.0141829
780.160	0.0143513
780.238	0.0141692
780.316	0.0141888
780.394	0.0140958
780.472	0.0141049
780.550	0.0140661
780.628	0.0141143
780.706	0.0139869
780.785	0.0139574
780.863	0.0139286
780.941	0.0138937
781.019	0.0140828
781.097	0.0139490
781.175	0.0140013
781.253	0.0139425
781.331	0.0139070
781.410	0.0141287
781.488	0.0139047
781.566	0.0140633
781.644	0.0140441
781.722	0.0138773
781.800	0.0139285
781.878	0.0140502
781.956	0.0140533
782.035	0.0138880
782.113	0.0137988
782.191	0.0138694
782.269	0.0138226
782.347	0.0139069
782.425	0.0139624
782.503	0.0141079
782.581	0.0141262
782.660	0.0141000
782.738	0.0140930
782.816	0.0142627
782.894	0.0143467
782.972	0.0143886
783.050	0.0144581
783.128	0.0143967
783.206	0.0146838
783.285	0.0145747
783.363	0.0147215
783.441	0.0147894
783.519	0.0147291
783.597	0.0147414
783.675	0.0147881
783.753	0.0148830
783.831	0.0147213
783.910	0.0146856
783.988	0.0147698
784.066	0.0148019
784.144	0.0146903
784.222	0.0145895
784.300	0.0146566
784.378	0.0148046
784.456	0.0147041
784.535	0.0146858
784.613	0.0144469
784.691	0.0146269
784.769	0.0146349
784.847	0.0147004
784.925	0.0146178
785.003	0.0146817
785.081	0.0146379
785.160	0.0145054
785.238	0.0147185
785.316	0.0148435
785.394	0.0146625
785.472	0.0146983
785.550	0.0148812
785.628	0.0148844
785.706	0.0146694
785.785	0.0146883
785.863	0.0146776
785.941	0.0145637
786.019	0.0145234
786.097	0.0145364
786.175	0.0142769
786.253	0.0143224
786.331	0.0141869
786.410	0.0143285
786.488	0.0142145
786.566	0.0140564
786.644	0.0140830
786.722	0.0139861
786.800	0.0138302
786.878	0.0140565
786.956	0.0139544
787.035	0.0140025
787.113	0.0141142
787.191	0.0140858
787.269	0.0139928
787.347	0.0138217
787.425	0.0140428
787.503	0.0140849
787.581	0.0141211
787.660	0.0140670
787.738	0.0140475
787.816	0.0141354
787.894	0.0140434
787.972	0.0140451
788.050	0.0139793
788.128	0.0139179
788.206	0.0139805
788.285	0.0140560
788.363	0.0139820
788.441	0.0139222
788.519	0.0139008
788.597	0.0140904
788.675	0.0141640
788.753	0.0141612
788.831	0.0141517
788.910	0.0141848
788.988	0.0142521
789.066	0.0141723
789.144	0.0142651
789.222	0.0142215
789.300	0.0142514
789.378	0.0141970
789.456	0.0141731
789.535	0.0143398
789.613	0.0142291
789.691	0.0142036
789.769	0.0141485
789.847	0.0143116
789.925	0.0143488
790.003	0.0142764
790.081	0.0142997
790.160	0.0143991
790.238	0.0143717
790.316	0.0144092
790.394	0.0144868
790.472	0.0144577
790.550	0.0144453
790.628	0.0144749
790.706	0.0146034
790.785	0.0144282
790.863	0.0145706
790.941	0.0145718
791.019	0.0145294
791.097	0.0145453
791.175	0.0145335
791.253	0.0144500
791.331	0.0145328
791.410	0.0145130
791.488	0.0144858
791.566	0.0144754
791.644	0.0144793
791.722	0.0145435
791.800	0.0146933
791.878	0.0146877
791.956	0.0146669
792.035	0.0147099
792.113	0.0147707
792.191	0.0147700
792.269	0.0147276
792.347	0.0149083
792.425	0.0149311
792.503	0.0148611
792.581	0.0149152
792.660	0.0149178
792.738	0.0148352
792.816	0.0148584
792.894	0.0148230
792.972	0.0147656
793.050	0.0146040
793.128	0.0147457
793.206	0.0146866
793.285	0.0147859
793.363	0.0144975
793.441	0.0146326
793.519	0.0144955
793.597	0.0145094
793.675	0.0145481
793.753	0.0145162
793.831	0.0143024
793.910	0.0144665
793.988	0.0143324
794.066	0.0143789
794.144	0.0141754
794.222	0.0141695
794.300	0.0140379
794.378	0.0140959
794.456	0.0140394
794.535	0.0140680
794.613	0.0140916
794.691	0.0139671
794.769	0.0140465
794.847	0.0140007
794.925	0.0140499
795.003	0.0140057
795.081	0.0138987
795.160	0.0137933
795.238	0.0137745
795.316	0.0138737
795.394	0.0139359
795.472	0.0138888
795.550	0.0137241
795.628	0.0139401
795.706	0.0139007
795.785	0.0138992
795.863	0.0139359
795.941	0.0140568
796.019	0.0139999
796.097	0.0139915
796.175	0.0141061
796.253	0.0140272
796.331	0.0141244
796.410	0.0143043
796.488	0.0142918
796.566	0.0142710
796.644	0.0142565
796.722	0.0142595
796.800	0.0143140
796.878	0.0143397
796.956	0.0142693
797.035	0.0143589
797.113	0.0142723
797.191	0.0142245
797.269	0.0144157
797.347	0.0142844
797.425	0.0143573
797.503	0.0143510
797.581	0.0143800
797.660	0.0143421
797.738	0.0144625
797.816	0.0145018
797.894	0.0145034
797.972	0.0145972
798.050	0.0145165
798.128	0.0145418
798.206	0.0145784
798.285	0.0145961
798.363	0.0145535
798.441	0.0144593
798.519	0.0144409
798.597	0.0144773
798.675	0.0144775
798.753	0.0144725
798.831	0.0144344
798.910	0.0143132
798.988	0.0145399
799.066	0.0145158
799.144	0.0144695
799.222	0.0145354
799.300	0.0144891
799.378	0.0146748
799.456	0.0147135
799.535	0.0145988
799.613	0.0145752
799.691	0.0146827
799.769	0.0145801
799.847	0.0145276
799.925	0.0145495
800.003	0.0147469
800.081	0.0146520
800.160	0.0146889
800.238	0.0146478
800.316	0.0146526
800.394	0.0146263
800.472	0.0145222
800.550	0.0146570
800.628	0.0145213
800.706	0.0146338
800.785	0.0145867
800.863	0.0146868
800.941	0.0146271
801.019	0.0147374
801.097	0.0146141
801.175	0.0144351
801.253	0.0145175
801.331	0.0146098
801.410	0.0145828
801.488	0.0146956
801.566	0.0144983
801.644	0.0144574
801.722	0.0145409
801.800	0.0144634
801.878	0.0142879
801.956	0.0143743
802.035	0.0143725
802.113	0.0142231
802.191	0.0141600
802.269	0.0142328
802.347	0.0140545
802.425	0.0140929
802.503	0.0138326
802.581	0.0137912
802.660	0.0138834
802.738	0.0137142
802.816	0.0138131
802.894	0.0137574
802.972	0.0137562
803.050	0.0137395
803.128	0.0137871
803.206	0.0137653
803.285	0.0137244
803.363	0.0138109
803.441	0.0136929
803.519	0.0139693
803.597	0.0138979
803.675	0.0138995
803.753	0.0139988
803.831	0.0139137
803.910	0.0139292
803.988	0.0140066
804.066	0.0140408
804.144	0.0140314
804.222	0.0139755
804.300	0.0140279
804.378	0.0141731
804.456	0.0140501
804.535	0.0141596
804.613	0.0141322
804.691	0.0141839
804.769	0.0140644
804.847	0.0140375
804.925	0.0140005
805.003	0.0138071
805.081	0.0140115
805.160	0.0141749
805.238	0.0142288
805.316	0.0143488
805.394	0.0145406
805.472	0.0147258
805.550	0.0149789
805.628	0.0149515
805.706	0.0150542
805.785	0.0151455
805.863	0.0150831
805.941	0.0150788
806.019	0.0149092
806.097	0.0147678
806.175	0.0148869
806.253	0.0147401
806.331	0.0148974
806.410	0.0150065
806.488	0.0149114
806.566	0.0151679
806.644	0.0152547
806.722	0.0154977
806.800	0.0154966
806.878	0.0157113
806.956	0.0157479
807.035	0.0158176
807.113	0.0157569
807.191	0.0159073
807.269	0.0156767
807.347	0.0155206
807.425	0.0152321
807.503	0.0152316
807.581	0.0150878
807.660	0.0147546
807.738	0.0144756
807.816	0.0142924
807.894	0.0140600
807.972	0.0139701
808.050	0.0138214
808.128	0.0134734
808.206	0.0133324
808.285	0.0132128
808.363	0.0129114
808.441	0.0128841
808.519	0.0129806
808.597	0.0129592
808.675	0.0129388
808.753	0.0130823
808.831	0.0130499
808.910	0.0133179
808.988	0.0135802
809.066	0.0137270
809.144	0.0138321
809.222	0.0141057
809.300	0.0141248
809.378	0.0144318
809.456	0.0145020
809.535	0.0144635
809.613	0.0145545
809.691	0.0146206
809.769	0.0144825
809.847	0.0146362
809.925	0.0148482
810.003	0.0145600
810.081	0.0147365
810.160	0.0148150
810.238	0.0147026
810.316	0.0147032
810.394	0.0148419
810.472	0.0149050
810.550	0.0148110
810.628	0.0147835
810.706	0.0147108
810.785	0.0147141
810.863	0.0146743
810.941	0.0146032
811.019	0.0145666
811.097	0.0141717
811.175	0.0142372
811.253	0.0142060
811.331	0.0139680
811.410	0.0139580
811.488	0.0136560
811.566	0.0136288
811.644	0.0137214
811.722	0.0137398
811.800	0.0134209
811.878	0.0136505
811.956	0.0136367
812.035	0.0136127
812.113	0.0137584
812.191	0.0138143
812.269	0.0140250
812.347	0.0139936
812.425	0.0141373
812.503	0.0142561
812.581	0.0144291
812.660	0.0146577
812.738	0.0146900
812.816	0.0148050
812.894	0.0148728
812.972	0.0150658
813.050	0.0150986
813.128	0.0151534
813.206	0.0152796
813.285	0.0154135
813.363	0.0153463
813.441	0.0153627
813.519	0.0154800
813.597	0.0154392
813.675	0.0152927
813.753	0.0152588
813.831	0.0153740
813.910	0.0152312
813.988	0.0149997
814.066	0.0147673
814.144	0.0147189
814.222	0.0147182
814.300	0.0146271
814.378	0.0144649
814.456	0.0144304
814.535	0.0142439
814.613	0.0140820
814.691	0.0140704
814.769	0.0139751
814.847	0.0138944
814.925	0.0138377
815.003	0.0137848
815.081	0.0138494
815.160	0.0138029
815.238	0.0137455
815.316	0.0137285
815.394	0.0136047
815.472	0.0136494
815.550	0.0137685
815.628	0.0136877
815.706	0.0137660
815.785	0.0136923
815.863	0.0138661
815.941	0.0139219
816.019	0.0138192
816.097	0.0139462
816.175	0.0139186
816.253	0.0139659
816.331	0.0140186
816.410	0.0139799
816.488	0.0141605
816.566	0.0141412
816.644	0.0140188
816.722	0.0140602
816.800	0.0140783
816.878	0.0141106
816.956	0.0142462
817.035	0.0143581
817.113	0.0144322
817.191	0.0144276
817.269	0.0145021
817.347	0.0146240
817.425	0.0145875
817.503	0.0146545
817.581	0.0147945
817.660	0.0147227
817.738	0.0148074
817.816	0.0149652
817.894	0.0148728
817.972	0.0147127
818.050	0.0146892
818.128	0.0147684
818.206	0.0146497
818.285	0.0144940
818.363	0.0145619
818.441	0.0145538
818.519	0.0143330
818.597	0.0143922
818.675	0.0143156
818.753	0.0142342
818.831	0.0143499
818.910	0.0143002
818.988	0.0143430
819.066	0.0142394
819.144	0.0143842
819.222	0.0143901
819.300	0.0143155
819.378	0.0143261
819.456	0.0145684
819.535	0.0145426
819.613	0.0145206
819.691	0.0145582
819.769	0.0144536
819.847	0.0142522
819.925	0.0142935
820.003	0.0141032
820.081	0.0141776
820.160	0.0140040
820.238	0.0138908
820.316	0.0138850
820.394	0.0137625
820.472	0.0138310
820.550	0.0138485
820.628	0.0138638
820.706	0.0140067
820.785	0.0139938
820.863	0.0139529
820.941	0.0140884
821.019	0.0143725
821.097	0.0143272
821.175	0.0144690
821.253	0.0145716
821.331	0.0146023
821.410	0.0147325
821.488	0.0145061
821.566	0.0146481
821.644	0.0145559
821.722	0.0145225
821.800	0.0144795
821.878	0.0146475
821.956	0.0146986
822.035	0.0147433
822.113	0.0146961
822.191	0.0148009
822.269	0.0148270
822.347	0.0148606
822.425	0.0150686
822.503	0.0151447
822.581	0.0149605
822.660	0.0149330
822.738	0.0149908
822.816	0.0147961
822.894	0.0148631
822.972	0.0146513
823.050	0.0146050
823.128	0.0145169
823.206	0.0144490
823.285	0.0143057
823.363	0.0141343
823.441	0.0140588
823.519	0.0139869
823.597	0.0137492
823.675	0.0138816
823.753	0.0139715
823.831	0.0138521
823.910	0.0137955
823.988	0.0138560
824.066	0.0139042
824.144	0.0139551
824.222	0.0141058
824.300	0.0141641
824.378	0.0141158
824.456	0.0140814
824.535	0.0142500
824.613	0.0141218
824.691	0.0141601
824.769	0.0140813
824.847	0.0141145
824.925	0.0141208
825.003	0.0140688
825.081	0.0140281
825.160	0.0138920
825.238	0.0139416
825.316	0.0140148
825.394	0.0140461
825.472	0.0139681
825.550	0.0139037
825.628	0.0139221
825.706	0.0139233
825.785	0.0140147
825.863	0.0138666
825.941	0.0140241
826.019	0.0140791
826.097	0.0139955
826.175	0.0140755
826.253	0.0142098
826.331	0.0142738
826.410	0.0142162
826.488	0.0142226
826.566	0.0144102
826.644	0.0145425
826.722	0.0144282
826.800	0.0144882
826.878	0.0146246
826.956	0.0144978
827.035	0.0144780
827.113	0.0145159
827.191	0.0144753
827.269	0.0145904
827.347	0.0146361
827.425	0.0145320
827.503	0.0147237
827.581	0.0147572
827.660	0.0147307
827.738	0.0147506
827.816	0.0148340
827.894	0.0148577
827.972	0.0148164
828.050	0.0148347
828.128	0.0148497
828.206	0.0150803
828.285	0.0150004
828.363	0.0150495
828.441	0.0151063
828.519	0.0151606
828.597	0.0150876
828.675	0.0152367
828.753	0.0150901
828.831	0.0150714
828.910	0.0150468
828.988	0.0151453
829.066	0.0151416
829.144	0.0150115
829.222	0.0151052
829.300	0.0149786
829.378	0.0149213
829.456	0.0149131
829.535	0.0147658
829.613	0.0146490
829.691	0.0145664
829.769	0.0145782
829.847	0.0144416
829.925	0.0142149
830.003	0.0140215
830.081	0.0141408
830.160	0.0140015
830.238	0.0138830
830.316	0.0137144
830.394	0.0135532
830.472	0.0135555
830.550	0.0136350
830.628	0.0134309
830.706	0.0133515
830.785	0.0134121
830.863	0.0133266
830.941	0.0132391
831.019	0.0133984
831.097	0.0133375
831.175	0.0133138
831.253	0.0134409
831.331	0.0135870
831.410	0.0137195
831.488	0.0136311
831.566	0.0135981
831.644	0.0137006
831.722	0.0136808
831.800	0.0135473
831.878	0.0138393
831.956	0.0138165
832.035	0.0140347
832.113	0.0140412
832.191	0.0141143
832.269	0.0144863
832.347	0.0146021
832.425	0.0146358
832.503	0.0148113
832.581	0.0149050
832.660	0.0151948
832.738	0.0151026
832.816	0.0149889
832.894	0.0148810
832.972	0.0147417
833.050	0.0146473
833.128	0.0145713
833.206	0.0145235
833.285	0.0144010
833.363	0.0144170
833.441	0.0143309
833.519	0.0144904
833.597	0.0146362
833.675	0.0148522
833.753	0.0148257
833.831	0.0149928
833.910	0.0150999
833.988	0.0150946
834.066	0.0152207
834.144	0.0153394
834.222	0.0153397
834.300	0.0150715
834.378	0.0151335
834.456	0.0148882
834.535	0.0147672
834.613	0.0144303
834.691	0.0142767
834.769	0.0141579
834.847	0.0138840
834.925	0.0139404
835.003	0.0138494
835.081	0.0137917
835.160	0.0139211
835.238	0.0140281
835.316	0.0142110
835.394	0.0142785
835.472	0.0145251
835.550	0.0146918
835.628	0.0147813
835.706	0.0150824
835.785	0.0152171
835.863	0.0153149
835.941	0.0152284
836.019	0.0151641
836.097	0.0150930
836.175	0.0149850
836.253	0.0148923
836.331	0.0148005
836.410	0.0146817
836.488	0.0143940
836.566	0.0140835
836.644	0.0141257
836.722	0.0140009
836.800	0.0136398
836.878	0.0135600
836.956	0.0133683
837.035	0.0133371
837.113	0.0132768
837.191	0.0134897
837.269	0.0134411
837.347	0.0135461
837.425	0.0137010
837.503	0.0138964
837.581	0.0141572
837.660	0.0141720
837.738	0.0143974
837.816	0.0145724
837.894	0.0145477
837.972	0.0147182
838.050	0.0147736
838.128	0.0149052
838.206	0.0147288
838.285	0.0147968
838.363	0.0147936
838.441	0.0145456
838.519	0.0144290
838.597	0.0145322
838.675	0.0142859
838.753	0.0141670
838.831	0.0142863
838.910	0.0141251
838.988	0.0138968
839.066	0.0140572
839.144	0.0140006
839.222	0.0140983
839.300	0.0140245
839.378	0.0140440
839.456	0.0140973
839.535	0.0141788
839.613	0.0141416
839.691	0.0141269
839.769	0.0143190
839.847	0.0142437
839.925	0.0143706
840.003	0.0144815
840.081	0.0145379
840.160	0.0144573
840.238	0.0145399
840.316	0.0146210
840.394	0.0147546
840.472	0.0146030
840.550	0.0145984
840.628	0.0146256
840.706	0.0146713
840.785	0.0148371
840.863	0.0149514
840.941	0.0148731
841.019	0.0150628
841.097	0.0149388
841.175	0.0147620
841.253	0.0149129
841.331	0.0148325
841.410	0.0148174
841.488	0.0147688
841.566	0.0144717
841.644	0.0144451
841.722	0.0143335
841.800	0.0142267
841.878	0.0140334
841.956	0.0139758
842.035	0.0140401
842.113	0.0138474
842.191	0.0138821
842.269	0.0138722
842.347	0.0138978
842.425	0.0138953
842.503	0.0137769
842.581	0.0138824
842.660	0.0141129
842.738	0.0142650
842.816	0.0143359
842.894	0.0145190
842.972	0.0144209
843.050	0.0147999
843.128	0.0147813
843.206	0.0148038
843.285	0.0146579
843.363	0.0148746
843.441	0.0149332
843.519	0.0147526
843.597	0.0147301
843.675	0.0147072
843.753	0.0145685
843.831	0.0144763
843.910	0.0145313
843.988	0.0144080
844.066	0.0143525
844.144	0.0142934
844.222	0.0143377
844.300	0.0143147
844.378	0.0142553
844.456	0.0142413
844.535	0.0143031
844.613	0.0143249
844.691	0.0142550
844.769	0.0143126
844.847	0.0143049
844.925	0.0143950
845.003	0.0142982
845.081	0.0143214
845.160	0.0143772
845.238	0.0143546
845.316	0.0143681
845.394	0.0143004
845.472	0.0142620
845.550	0.0143346
845.628	0.0142081
845.706	0.0142890
845.785	0.0141957
845.863	0.0141117
845.941	0.0142066
846.019	0.0142177
846.097	0.0141464
846.175	0.0141570
846.253	0.0143021
846.331	0.0143169
846.410	0.0143049
846.488	0.0144576
846.566	0.0144012
846.644	0.0145110
846.722	0.0145811
846.800	0.0146033
846.878	0.0144370
846.956	0.0144859
847.035	0.0146396
847.113	0.0146606
847.191	0.0145198
847.269	0.0145131
847.347	0.0145058
847.425	0.0146118
847.503	0.0144708
847.581	0.0145184
847.660	0.0145657
847.738	0.0144239
847.816	0.0144023
847.894	0.0143143
847.972	0.0142992
848.050	0.0142123
848.128	0.0142424
848.206	0.0142749
848.285	0.0141325
848.363	0.0140723
848.441	0.0140311
848.519	0.0140688
848.597	0.0140311
848.675	0.0140055
848.753	0.0140405
848.831	0.0142166
848.910	0.0141860
848.988	0.0141040
849.066	0.0143562
849.144	0.0145969
849.222	0.0143898
849.300	0.0145721
849.378	0.0145818
849.456	0.0146549
849.535	0.0145855
849.613	0.0146737
849.691	0.0148614
849.769	0.0147003
849.847	0.0147142
849.925	0.0146354
850.003	0.0146657
850.081	0.0146175
850.160	0.0143775
850.238	0.0143512
850.316	0.0142915
850.394	0.0141796
850.472	0.0142566
850.550	0.0141402
850.628	0.0141487
850.706	0.0142293
850.785	0.0142135
850.863	0.0142774
850.941	0.0143882
851.019	0.0144479
851.097	0.0144817
851.175	0.0144852
851.253	0.0144866
851.331	0.0144733
851.410	0.0147307
851.488	0.0145287
851.566	0.0145758
851.644	0.0143428
851.722	0.0144746
851.800	0.0144350
851.878	0.0142748
851.956	0.0142018
852.035	0.0142309
852.113	0.0142990
852.191	0.0141917
852.269	0.0141118
852.347	0.0142347
852.425	0.0141472
852.503	0.0141001
852.581	0.0142271
852.660	0.0142676
852.738	0.0143185
852.816	0.0143260
852.894	0.0143251
852.972	0.0143237
853.050	0.0142276
853.128	0.0143150
853.206	0.0142967
853.285	0.0142808
853.363	0.0142347
853.441	0.0142591
853.519	0.0143655
853.597	0.0143089
853.675	0.0142905
853.753	0.0143127
853.831	0.0142859
853.910	0.0144177
853.988	0.0143733
854.066	0.0143148
854.144	0.0142365
854.222	0.0142632
854.300	0.0143228
854.378	0.0144615
854.456	0.0146241
854.535	0.0147040
854.613	0.0145481
854.691	0.0146218
854.769	0.0146944
854.847	0.0147672
854.925	0.0147395
855.003	0.0147463
855.081	0.0146501
855.160	0.0145221
855.238	0.0146547
855.316	0.0144997
855.394	0.0143763
855.472	0.0146330
855.550	0.0143633
855.628	0.0143929
855.706	0.0144507
855.785	0.0144395
855.863	0.0144657
855.941	0.0145444
856.019	0.0143556
856.097	0.0143620
856.175	0.0144530
856.253	0.0142169
856.331	0.0144212
856.410	0.0144960
856.488	0.0144914
856.566	0.0145567
856.644	0.0144769
856.722	0.0144819
856.800	0.0145558
856.878	0.0145181
856.956	0.0144440
857.035	0.0145566
857.113	0.0144439
857.191	0.0144886
857.269	0.0144667
857.347	0.0144801
857.425	0.0145457
857.503	0.0144346
857.581	0.0144738
857.660	0.0144908
857.738	0.0143674
857.816	0.0143192
857.894	0.0144028
857.972	0.0143628
858.050	0.0142245
858.128	0.0142155
858.206	0.0143925
858.285	0.0143373
858.363	0.0143083
858.441	0.0142391
858.519	0.0141711
858.597	0.0141986
858.675	0.0142413
858.753	0.0141491
858.831	0.0142484
858.910	0.0141965
858.988	0.0143745
859.066	0.0142474
859.144	0.0142302
859.222	0.0143225
859.300	0.0142981
859.378	0.0144745
859.456	0.0143776
859.535	0.0144698
859.613	0.0144356
859.691	0.0144581
859.769	0.0144619
859.847	0.0145010
859.925	0.0145929
860.003	0.0146450
860.081	0.0147546
860.160	0.0147176
860.238	0.0146127
860.316	0.0147494
860.394	0.0147067
860.472	0.0147041
860.550	0.0147269
860.628	0.0143755
860.706	0.0144502
860.785	0.0144363
860.863	0.0144962
860.941	0.0144543
861.019	0.0142066
861.097	0.0141679
861.175	0.0141301
861.253	0.0141071
861.331	0.0140621
861.410	0.0140496
861.488	0.0140536
861.566	0.0140450
861.644	0.0139862
861.722	0.0139542
861.800	0.0141245
861.878	0.0139901
861.956	0.0139182
862.035	0.0140633
862.113	0.0141490
862.191	0.0140765
862.269	0.0141439
862.347	0.0142429
862.425	0.0142381
862.503	0.0141421
862.581	0.0141959
862.660	0.0142161
862.738	0.0142976
862.816	0.0142533
862.894	0.0143503
862.972	0.0142823
863.050	0.0144744
863.128	0.0143663
863.206	0.0144036
863.285	0.0145541
863.363	0.0144953
863.441	0.0145953
863.519	0.0146442
863.597	0.0144951
863.675	0.0145939
863.753	0.0146956
863.831	0.0147031
863.910	0.0146099
863.988	0.0147195
864.066	0.0146549
864.144	0.0146502
864.222	0.0146059
864.300	0.0145264
864.378	0.0145043
864.456	0.0145935
864.535	0.0146080
864.613	0.0144163
864.691	0.0144779
864.769	0.0144353
864.847	0.0143832
864.925	0.0145315
865.003	0.0146038
865.081	0.0142934
865.160	0.0143797
865.238	0.0145982
865.316	0.0144010
865.394	0.0145039
865.472	0.0143665
865.550	0.0144460
865.628	0.0145367
865.706	0.0144221
865.785	0.0145061
865.863	0.0145538
865.941	0.0145830
866.019	0.0144411
866.097	0.0145058
866.175	0.0144786
866.253	0.0145383
866.331	0.0143656
866.410	0.0143472
866.488	0.0145502
866.566	0.0143356
866.644	0.0143603
866.722	0.0142702
866.800	0.0143520
866.878	0.0143130
866.956	0.0141274
867.035	0.0141027
867.113	0.0141266
867.191	0.0140946
867.269	0.0140836
867.347	0.0140980
867.425	0.0140314
867.503	0.0141178
867.581	0.0140514
867.660	0.0139788
867.738	0.0139961
867.816	0.0140585
867.894	0.0139884
867.972	0.0139682
868.050	0.0139098
868.128	0.0140088
868.206	0.0140349
868.285	0.0139890
868.363	0.0143503
868.441	0.0143453
868.519	0.0143364
868.597	0.0143102
868.675	0.0143707
868.753	0.0144357
868.831	0.0145943
868.910	0.0145734
868.988	0.0144392
869.066	0.0144459
869.144	0.0144022
869.222	0.0144110
869.300	0.0143501
869.378	0.0144539
869.456	0.0143162
869.535	0.0142801
869.613	0.0142484
869.691	0.0141821
869.769	0.0142327
869.847	0.0141743
869.925	0.0141144
870.003	0.0141888
870.081	0.0142642
870.160	0.0143881
870.238	0.0143436
870.316	0.0145509
870.394	0.0146223
870.472	0.0147486
870.550	0.0145862
870.628	0.0147729
870.706	0.0149048
870.785	0.0148941
870.863	0.0148557
870.941	0.0147550
871.019	0.0149300
871.097	0.0147839
871.175	0.0148028
871.253	0.0146391
871.331	0.0144553
871.410	0.0145065
871.488	0.0143935
871.566	0.0142247
871.644	0.0141289
871.722	0.0141458
871.800	0.0140545
871.878	0.0140348
871.956	0.0137740
872.035	0.0137524
872.113	0.0138455
872.191	0.0139049
872.269	0.0139794
872.347	0.0139933
872.425	0.0142918
872.503	0.0142029
872.581	0.0142680
872.660	0.0144928
872.738	0.0144976
872.816	0.0145693
872.894	0.0148178
872.972	0.0147946
873.050	0.0146985
873.128	0.0147822
873.206	0.0149756
873.285	0.0150956
873.363	0.0149563
873.441	0.0147806
873.519	0.0148550
873.597	0.0146981
873.675	0.0146445
873.753	0.0145535
873.831	0.0144713
873.910	0.0144654
873.988	0.0144289
874.066	0.0143118
874.144	0.0141492
874.222	0.0142130
874.300	0.0142195
874.378	0.0141420
874.456	0.0142126
874.535	0.0142937
874.613	0.0141714
874.691	0.0141762
874.769	0.0140701
874.847	0.0142850
874.925	0.0142719
875.003	0.0143748
875.081	0.0143227
875.160	0.0144067
875.238	0.0143754
875.316	0.0145161
875.394	0.0144152
875.472	0.0143752
875.550	0.0144343
875.628	0.0143970
875.706	0.0143813
875.785	0.0142997
875.863	0.0143329
875.941	0.0142847
876.019	0.0141289
876.097	0.0139757
876.175	0.0141222
876.253	0.0139157
876.331	0.0138848
876.410	0.0137737
876.488	0.0139743
876.566	0.0140823
876.644	0.0140569
876.722	0.0140291
876.800	0.0141199
876.878	0.0143247
876.956	0.0143932
877.035	0.0143443
877.113	0.0145515
877.191	0.0144854
877.269	0.0145602
877.347	0.0145480
877.425	0.0144103
877.503	0.0146075
877.581	0.0146178
877.660	0.0146175
877.738	0.0143993
877.816	0.0144856
877.894	0.0143355
877.972	0.0143096
878.050	0.0145742
878.128	0.0143948
878.206	0.0141866
878.285	0.0142706
878.363	0.0142558
878.441	0.0140839
878.519	0.0141948
878.597	0.0140945
878.675	0.0140638
878.753	0.0141554
878.831	0.0140236
878.910	0.0139986
878.988	0.0140630
879.066	0.0141600
879.144	0.0142051
879.222	0.0140965
879.300	0.0142624
879.378	0.0143574
879.456	0.0143143
879.535	0.0143502
879.613	0.0144924
879.691	0.0145287
879.769	0.0146651
879.847	0.0145503
879.925	0.0146262
880.003	0.0146808
880.081	0.0145792
880.160	0.0147451
880.238	0.0147142
880.316	0.0147723
880.394	0.0147664
880.472	0.0147566
880.550	0.0146935
880.628	0.0147112
880.706	0.0145789
880.785	0.0145149
880.863	0.0144422
880.941	0.0145512
881.019	0.0143802
881.097	0.0142341
881.175	0.0141091
881.253	0.0142540
881.331	0.0142743
881.410	0.0141724
881.488	0.0141187
881.566	0.0141239
881.644	0.0141167
881.722	0.0142135
881.800	0.0143073
881.878	0.0144588
881.956	0.0144669
882.035	0.0144256
882.113	0.0143624
882.191	0.0144614
882.269	0.0144741
882.347	0.0145672
882.425	0.0144954
882.503	0.0146708
882.581	0.0144566
882.660	0.0146856
882.738	0.0146234
882.816	0.0145055
882.894	0.0144509
882.972	0.0145863
883.050	0.0145938
883.128	0.0144547
883.206	0.0142163
883.285	0.0142409
883.363	0.0140473
883.441	0.0140804
883.519	0.0139568
883.597	0.0139815
883.675	0.0140987
883.753	0.0141464
883.831	0.0139199
883.910	0.0139925
883.988	0.0140730
884.066	0.0140572
884.144	0.0140695
884.222	0.0140874
884.300	0.0142471
884.378	0.0143457
884.456	0.0142507
884.535	0.0142179
884.613	0.0141862
884.691	0.0142927
884.769	0.0142495
884.847	0.0143039
884.925	0.0143208
885.003	0.0143074
885.081	0.0142771
885.160	0.0142584
885.238	0.0142556
885.316	0.0143212
885.394	0.0141911
885.472	0.0143470
885.550	0.0144123
885.628	0.0143784
885.706	0.0144112
885.785	0.0144948
885.863	0.0145594
885.941	0.0146075
886.019	0.0144175
886.097	0.0144397
886.175	0.0144900
886.253	0.0144116
886.331	0.0143419
886.410	0.0143407
886.488	0.0144278
886.566	0.0144609
886.644	0.0145871
886.722	0.0145823
886.800	0.0144373
886.878	0.0144838
886.956	0.0144891
887.035	0.0144523
887.113	0.0143499
887.191	0.0145687
887.269	0.0144968
887.347	0.0144832
887.425	0.0144222
887.503	0.0144131
887.581	0.0142451
887.660	0.0141698
887.738	0.0141819
887.816	0.0141476
887.894	0.0141236
887.972	0.0141283
888.050	0.0141689
888.128	0.0141856
888.206	0.0140440
888.285	0.0141475
888.363	0.0142194
888.441	0.0143591
888.519	0.0143328
888.597	0.0143237
888.675	0.0142461
888.753	0.0144620
888.831	0.0143580
888.910	0.0145439
888.988	0.0143501
889.066	0.0145381
889.144	0.0143674
889.222	0.0143101
889.300	0.0142829
889.378	0.0142406
889.456	0.0142010
889.535	0.0143404
889.613	0.0142090
889.691	0.0141189
889.769	0.0141577
889.847	0.0140562
889.925	0.0144215
890.003	0.0144324
890.081	0.0142664
890.160	0.0143169
890.238	0.0142554
890.316	0.0142046
890.394	0.0141489
890.472	0.0141266
890.550	0.0141235
890.628	0.0140395
890.706	0.0138902
890.785	0.0141270
890.863	0.0139948
890.941	0.0140217
891.019	0.0139907
891.097	0.0140102
891.175	0.0140329
891.253	0.0140916
891.331	0.0140807
891.410	0.0140737
891.488	0.0141124
891.566	0.0142136
891.644	0.0143919
891.722	0.0143172
891.800	0.0142907
891.878	0.0143321
891.956	0.0144181
892.035	0.0143730
892.113	0.0143744
892.191	0.0142009
892.269	0.0142781
892.347	0.0143895
892.425	0.0142619
892.503	0.0142105
892.581	0.0144383
892.660	0.0142635
892.738	0.0142574
892.816	0.0142677
892.894	0.0145007
892.972	0.0144998
893.050	0.0144224
893.128	0.0144362
893.206	0.0145747
893.285	0.0145035
893.363	0.0146108
893.441	0.0146156
893.519	0.0145049
893.597	0.0144875
893.675	0.0146364
893.753	0.0145403
893.831	0.0145985
893.910	0.0143941
893.988	0.0145361
894.066	0.0145070
894.144	0.0144416
894.222	0.0144254
894.300	0.0145186
894.378	0.0145618
894.456	0.0144183
894.535	0.0144534
894.613	0.0145306
894.691	0.0145426
894.769	0.0145832
894.847	0.0144072
894.925	0.0146081
895.003	0.0145930
895.081	0.0146880
895.160	0.0146149
895.238	0.0143800
895.316	0.0143758
895.394	0.0143887
895.472	0.0143799
895.550	0.0142534
895.628	0.0141151
895.706	0.0142303
895.785	0.0141774
895.863	0.0143078
895.941	0.0142512
896.019	0.0143074
896.097	0.0143275
896.175	0.0142606
896.253	0.0143745
896.331	0.0144505
896.410	0.0144209
896.488	0.0143453
896.566	0.0144405
896.644	0.0144715
896.722	0.0144108
896.800	0.0144710
896.878	0.0144087
896.956	0.0144318
897.035	0.0142841
897.113	0.0142947
897.191	0.0143504
897.269	0.0142682
897.347	0.0142496
897.425	0.0144125
897.503	0.0142849
897.581	0.0143797
897.660	0.0143829
897.738	0.0143943
897.816	0.0144123
897.894	0.0145168
897.972	0.0145103
898.050	0.0143839
898.128	0.0144364
898.206	0.0145131
898.285	0.0143754
898.363	0.0144655
898.441	0.0142601
898.519	0.0141285
898.597	0.0140985
898.675	0.0142168
898.753	0.0141367
898.831	0.0140368
898.910	0.0140056
898.988	0.0140836
899.066	0.0139988
899.144	0.0138825
899.222	0.0139798
899.300	0.0138589
899.378	0.0139789
899.456	0.0139984
899.535	0.0139871
899.613	0.0140619
899.691	0.0141339
899.769	0.0139487
899.847	0.0141751
899.925	0.0141533
900.003	0.0141518
900.081	0.0138703
900.160	0.0138382
900.238	0.0140646
900.316	0.0139165
900.394	0.0139565
900.472	0.0140430
900.550	0.0141892
900.628	0.0144028
900.706	0.0145155
900.785	0.0146760
900.863	0.0150197
900.941	0.0151874
901.019	0.0154451
901.097	0.0156203
901.175	0.0157710
901.253	0.0157889
901.331	0.0158219
901.410	0.0156776
901.488	0.0155213
901.566	0.0151223
901.644	0.0147221
901.722	0.0142027
901.800	0.0138340
901.878	0.0136626
901.956	0.0135895
902.035	0.0134145
902.113	0.0134451
902.191	0.0136488
902.269	0.0138368
902.347	0.0142070
902.425	0.0145172
902.503	0.0146488
902.581	0.0145545
902.660	0.0144926
902.738	0.0143276
902.816	0.0141978
902.894	0.0138661
902.972	0.0135536
903.050	0.0133192
903.128	0.0129654
903.206	0.0128925
903.285	0.0127935
903.363	0.0129854
903.441	0.0130740
903.519	0.0132300
903.597	0.0135093
903.675	0.0138947
903.753	0.0142197
903.831	0.0145566
903.910	0.0149157
903.988	0.0152236
904.066	0.0155153
904.144	0.0156932
904.222	0.0157150
904.300	0.0158591
904.378	0.0159453
904.456	0.0159351
904.535	0.0158530
904.613	0.0158186
904.691	0.0157126
904.769	0.0154896
904.847	0.0152194
904.925	0.0149297
905.003	0.0145369
905.081	0.0144592
905.160	0.0141505
905.238	0.0137871
905.316	0.0135976
905.394	0.0134967
905.472	0.0133572
905.550	0.0134288
905.628	0.0133486
905.706	0.0133704
905.785	0.0135821
905.863	0.0138003
905.941	0.0138911
906.019	0.0141613
906.097	0.0144973
906.175	0.0146680
906.253	0.0148151
906.331	0.0149969
906.410	0.0150367
906.488	0.0151174
906.566	0.0149485
906.644	0.0148814
906.722	0.0148064
906.800	0.0145480
906.878	0.0144669
906.956	0.0141938
907.035	0.0141199
907.113	0.0139248
907.191	0.0137536
907.269	0.0137523
907.347	0.0135427
907.425	0.0138346
907.503	0.0137473
907.581	0.0138538
907.660	0.0138908
907.738	0.0139426
907.816	0.0141415
907.894	0.0142149
907.972	0.0142787
908.050	0.0144284
908.128	0.0144679
908.206	0.0146232
908.285	0.0144976
908.363	0.0147330
908.441	0.0146530
908.519	0.0148739
908.597	0.0149657
908.675	0.0148431
908.753	0.0148581
908.831	0.0150473
908.910	0.0149712
908.988	0.0148856
909.066	0.0148532
909.144	0.0146281
909.222	0.0146474
909.300	0.0144627
909.378	0.0144418
909.456	0.0143693
909.535	0.0141435
909.613	0.0141222
909.691	0.0142498
909.769	0.0142358
909.847	0.0140655
909.925	0.0141169
910.003	0.0143735
910.081	0.0143318
910.160	0.0141280
910.238	0.0140788
910.316	0.0142684
910.394	0.0141057
910.472	0.0141409
910.550	0.0142103
910.628	0.0141100
910.706	0.0141357
910.785	0.0140541
910.863	0.0139895
910.941	0.0139769
911.019	0.0140813
911.097	0.0142147
911.175	0.0143160
911.253	0.0142936
911.331	0.0143936
911.410	0.0144271
911.488	0.0144388
911.566	0.0146480
911.644	0.0146251
911.722	0.0146256
911.800	0.0145101
911.878	0.0146344
911.956	0.0144596
912.035	0.0145558
912.113	0.0144483
912.191	0.0146058
912.269	0.0142949
912.347	0.0144496
912.425	0.0143007
912.503	0.0144801
912.581	0.0143919
912.660	0.0143297
912.738	0.0142305
912.816	0.0143040
912.894	0.0142023
912.972	0.0143327
913.050	0.0141293
913.128	0.0140755
913.206	0.0141968
913.285	0.0140280
913.363	0.0142319
913.441	0.0141840
913.519	0.0141573
913.597	0.0141348
913.675	0.0141297
913.753	0.0142432
913.831	0.0143902
913.910	0.0145043
913.988	0.0145719
914.066	0.0144582
914.144	0.0145776
914.222	0.0146376
914.300	0.0145843
914.378	0.0144244
914.456	0.0146762
914.535	0.0147348
914.613	0.0146514
914.691	0.0146555
914.769	0.0145626
914.847	0.0146027
914.925	0.0144524
915.003	0.0147014
915.081	0.0144798
915.160	0.0142290
915.238	0.0142754
915.316	0.0142255
915.394	0.0142210
915.472	0.0141512
915.550	0.0141570
915.628	0.0141978
915.706	0.0141288
915.785	0.0141706
915.863	0.0142281
915.941	0.0141212
916.019	0.0141652
916.097	0.0142669
916.175	0.0143392
916.253	0.0142186
916.331	0.0143737
916.410	0.0143100
916.488	0.0143530
916.566	0.0142745
916.644	0.0144284
916.722	0.0143892
916.800	0.0144301
916.878	0.0143719
916.956	0.0145482
917.035	0.0145677
917.113	0.0145253
917.191	0.0147585
917.269	0.0147467
917.347	0.0147401
917.425	0.0148901
917.503	0.0148457
917.581	0.0147251
917.660	0.0147578
917.738	0.0147634
917.816	0.0147566
917.894	0.0145087
917.972	0.0144964
918.050	0.0143807
918.128	0.0140134
918.206	0.0141583
918.285	0.0138748
918.363	0.0139715
918.441	0.0137186
918.519	0.0137953
918.597	0.0137142
918.675	0.0136938
918.753	0.0138247
918.831	0.0140491
918.910	0.0140566
918.988	0.0143558
919.066	0.0144350
919.144	0.0144751
919.222	0.0146751
919.300	0.0146550
919.378	0.0148755
919.456	0.0149406
919.535	0.0150345
919.613	0.0147869
919.691	0.0147855
919.769	0.0146275
919.847	0.0145564
919.925	0.0145184
920.003	0.0143985
920.081	0.0143687
920.160	0.0141437
920.238	0.0140900
920.316	0.0140439
920.394	0.0139962
920.472	0.0138762
920.550	0.0139337
920.628	0.0140223
920.706	0.0141734
920.785	0.0139877
920.863	0.0140315
920.941	0.0142039
921.019	0.0142258
921.097	0.0142076
921.175	0.0143633
921.253	0.0145777
921.331	0.0145728
921.410	0.0147042
921.488	0.0145531
921.566	0.0146078
921.644	0.0147213
921.722	0.0145209
921.800	0.0145685
921.878	0.0144093
921.956	0.0143544
922.035	0.0143216
922.113	0.0143449
922.191	0.0143671
922.269	0.0142391
922.347	0.0142513
922.425	0.0141806
922.503	0.0142102
922.581	0.0143127
922.660	0.0141574
922.738	0.0143417
922.816	0.0143137
922.894	0.0143932
922.972	0.0145425
923.050	0.0145668
923.128	0.0147483
923.206	0.0147607
923.285	0.0148122
923.363	0.0149101
923.441	0.0148868
923.519	0.0148159
923.597	0.0149257
923.675	0.0149427
923.753	0.0148251
923.831	0.0147852
923.910	0.0146713
923.988	0.0144729
924.066	0.0145558
924.144	0.0144836
924.222	0.0144643
924.300	0.0144196
924.378	0.0143871
924.456	0.0142450
924.535	0.0142089
924.613	0.0141679
924.691	0.0142348
924.769	0.0140743
924.847	0.0141759
924.925	0.0142016
925.003	0.0141819
925.081	0.0141314
925.160	0.0140444
925.238	0.0140733
925.316	0.0142799
925.394	0.0141240
925.472	0.0141003
925.550	0.0142713
925.628	0.0143578
925.706	0.0142172
925.785	0.0143484
925.863	0.0141453
925.941	0.0139911
926.019	0.0141339
926.097	0.0142035
926.175	0.0142529
926.253	0.0142350
926.331	0.0141919
926.410	0.0143376
926.488	0.0143688
926.566	0.0144322
926.644	0.0143546
926.722	0.0145409
926.800	0.0146071
926.878	0.0144764
926.956	0.0145267
927.035	0.0146426
927.113	0.0145477
927.191	0.0144101
927.269	0.0144094
927.347	0.0143395
927.425	0.0144025
927.503	0.0143535
927.581	0.0141886
927.660	0.0140887
927.738	0.0142484
927.816	0.0142802
927.894	0.0142815
927.972	0.0144108
928.050	0.0144237
928.128	0.0143957
928.206	0.0144459
928.285	0.0143461
928.363	0.0145475
928.441	0.0146446
928.519	0.0145332
928.597	0.0146990
928.675	0.0146747
928.753	0.0146023
928.831	0.0146654
928.910	0.0146616
928.988	0.0146825
929.066	0.0146751
929.144	0.0144534
929.222	0.0145749
929.300	0.0145354
929.378	0.0144495
929.456	0.0145747
929.535	0.0145454
929.613	0.0144690
929.691	0.0145173
929.769	0.0144907
929.847	0.0144678
929.925	0.0143877
930.003	0.0144840
930.081	0.0145603
930.160	0.0144442
930.238	0.0144565
930.316	0.0144582
930.394	0.0144118
930.472	0.0144310
930.550	0.0143753
930.628	0.0144036
930.706	0.0144794
930.785	0.0145482
930.863	0.0144754
930.941	0.0146033
931.019	0.0144284
931.097	0.0144494
931.175	0.0143223
931.253	0.0145067
931.331	0.0143641
931.410	0.0143416
931.488	0.0142421
931.566	0.0143312
931.644	0.0142139
931.722	0.0141656
931.800	0.0141920
931.878	0.0141389
931.956	0.0141332
932.035	0.0143389
932.113	0.0142761
932.191	0.0142492
932.269	0.0143778
932.347	0.0142729
932.425	0.0144053
932.503	0.0145084
932.581	0.0143733
932.660	0.0142545
932.738	0.0144303
932.816	0.0143029
932.894	0.0143974
932.972	0.0144357
933.050	0.0142307
933.128	0.0142768
933.206	0.0142103
933.285	0.0141428
933.363	0.0140459
933.441	0.0141096
933.519	0.0142816
933.597	0.0141584
933.675	0.0139548
933.753	0.0141410
933.831	0.0140176
933.910	0.0140694
933.988	0.0140687
934.066	0.0141286
934.144	0.0143950
934.222	0.0143909
934.300	0.0144514
934.378	0.0145264
934.456	0.0145154
934.535	0.0144855
934.613	0.0145576
934.691	0.0147334
934.769	0.0146523
934.847	0.0147173
934.925	0.0147216
935.003	0.0146284
935.081	0.0145849
935.160	0.0146392
935.238	0.0145569
935.316	0.0144243
935.394	0.0143961
935.472	0.0143895
935.550	0.0143316
935.628	0.0142148
935.706	0.0142286
935.785	0.0141250
935.863	0.0140567
935.941	0.0140412
936.019	0.0142726
936.097	0.0141937
936.175	0.0140061
936.253	0.0142014
936.331	0.0142657
936.410	0.0142839
936.488	0.0142542
936.566	0.0144264
936.644	0.0144729
936.722	0.0144769
936.800	0.0143828
936.878	0.0144608
936.956	0.0145163
937.035	0.0145829
937.113	0.0146786
937.191	0.0147063
937.269	0.0144636
937.347	0.0144733
937.425	0.0144825
937.503	0.0144817
937.581	0.0144162
937.660	0.0142842
937.738	0.0143173
937.816	0.0142831
937.894	0.0142546
937.972	0.0142225
938.050	0.0141662
938.128	0.0141615
938.206	0.0142757
938.285	0.0140508
938.363	0.0140990
938.441	0.0141200
938.519	0.0141315
938.597	0.0140644
938.675	0.0141486
938.753	0.0141620
938.831	0.0142049
938.910	0.0140409
938.988	0.0142258
939.066	0.0143697
939.144	0.0143839
939.222	0.0145210
939.300	0.0145326
939.378	0.0146568
939.456	0.0147518
939.535	0.0147774
939.613	0.0148577
939.691	0.0149541
939.769	0.0149313
939.847	0.0149062
939.925	0.0148495
940.003	0.0147948
940.081	0.0146994
940.160	0.0145477
940.238	0.0144667
940.316	0.0143819
940.394	0.0144659
940.472	0.0144179
940.550	0.0142037
940.628	0.0142468
940.706	0.0143193
940.785	0.0143501
940.863	0.0143092
940.941	0.0142625
941.019	0.0143626
941.097	0.0143192
941.175	0.0143738
941.253	0.0144588
941.331	0.0144569
941.410	0.0144995
941.488	0.0143649
941.566	0.0143676
941.644	0.0142545
941.722	0.0140973
941.800	0.0141831
941.878	0.0142591
941.956	0.0141022
942.035	0.0139662
942.113	0.0139816
942.191	0.0139178
942.269	0.0139513
942.347	0.0139397
942.425	0.0140788
942.503	0.0139986
942.581	0.0140127
942.660	0.0140785
942.738	0.0140914
942.816	0.0143488
942.894	0.0144662
942.972	0.0143277
943.050	0.0145840
943.128	0.0146391
943.206	0.0149617
943.285	0.0147117
943.363	0.0147797
943.441	0.0147839
943.519	0.0147527
943.597	0.0150101
943.675	0.0147703
943.753	0.0147380
943.831	0.0148426
943.910	0.0147691
943.988	0.0147211
944.066	0.0148010
944.144	0.0147030
944.222	0.0146507
944.300	0.0144238
944.378	0.0144873
944.456	0.0145207
944.535	0.0145325
944.613	0.0145541
944.691	0.0145369
944.769	0.0144445
944.847	0.0144357
944.925	0.0145540
945.003	0.0145448
945.081	0.0144016
945.160	0.0145749
945.238	0.0144922
945.316	0.0144988
945.394	0.0145959
945.472	0.0145547
945.550	0.0145331
945.628	0.0144723
945.706	0.0145263
945.785	0.0144872
945.863	0.0146592
945.941	0.0146046
946.019	0.0144050
946.097	0.0145443
946.175	0.0145226
946.253	0.0145523
946.331	0.0144734
946.410	0.0145790
946.488	0.0145577
946.566	0.0144167
946.644	0.0144215
946.722	0.0146554
946.800	0.0145260
946.878	0.0144470
946.956	0.0145332
947.035	0.0145045
947.113	0.0143560
947.191	0.0142973
947.269	0.0142587
947.347	0.0141497
947.425	0.0139345
947.503	0.0139600
947.581	0.0138815
947.660	0.0137679
947.738	0.0138656
947.816	0.0138065
947.894	0.0139762
947.972	0.0138071
948.050	0.0140068
948.128	0.0141904
948.206	0.0142709
948.285	0.0143678
948.363	0.0143895
948.441	0.0144368
948.519	0.0144464
948.597	0.0145634
948.675	0.0145768
948.753	0.0144226
948.831	0.0144689
948.910	0.0143473
948.988	0.0143682
949.066	0.0143603
949.144	0.0143600
949.222	0.0140335
949.300	0.0140887
949.378	0.0140787
949.456	0.0140737
949.535	0.0140755
949.613	0.0141420
949.691	0.0142107
949.769	0.0141882
949.847	0.0141833
949.925	0.0142603
950.003	0.0142163
950.081	0.0143042
950.160	0.0143376
950.238	0.0142149
950.316	0.0143133
950.394	0.0141615
950.472	0.0142235
950.550	0.0142477
950.628	0.0142622
950.706	0.0142791
950.785	0.0141528
950.863	0.0140790
950.941	0.0142866
951.019	0.0142941
951.097	0.0143123
951.175	0.0142616
951.253	0.0142374
951.331	0.0143999
951.410	0.0143255
951.488	0.0142973
951.566	0.0142764
951.644	0.0142618
951.722	0.0143806
951.800	0.0145058
951.878	0.0144045
951.956	0.0144821
952.035	0.0143824
952.113	0.0144263
952.191	0.0143726
952.269	0.0143809
952.347	0.0145124
952.425	0.0142630
952.503	0.0144083
952.581	0.0143784
952.660	0.0143185
952.738	0.0142904
952.816	0.0143945
952.894	0.0144431
952.972	0.0143616
953.050	0.0144341
953.128	0.0143234
953.206	0.0143336
953.285	0.0141959
953.363	0.0142524
953.441	0.0143445
953.519	0.0143421
953.597	0.0143778
953.675	0.0144695
953.753	0.0145660
953.831	0.0145006
953.910	0.0145270
953.988	0.0145164
954.066	0.0145673
954.144	0.0145734
954.222	0.0146642
954.300	0.0145777
954.378	0.0145887
954.456	0.0146790
954.535	0.0145768
954.613	0.0145522
954.691	0.0144468
954.769	0.0145989
954.847	0.0143830
954.925	0.0144779
955.003	0.0145715
955.081	0.0143652
955.160	0.0142798
955.238	0.0143377
955.316	0.0143385
955.394	0.0144105
955.472	0.0141735
955.550	0.0143555
955.628	0.0144449
955.706	0.0143131
955.785	0.0143017
955.863	0.0142638
955.941	0.0142386
956.019	0.0142526
956.097	0.0143502
956.175	0.0142432
956.253	0.0142473
956.331	0.0142010
956.410	0.0143826
956.488	0.0143417
956.566	0.0142759
956.644	0.0143459
956.722	0.0142602
956.800	0.0144022
956.878	0.0142759
956.956	0.0144370
957.035	0.0143650
957.113	0.0143227
957.191	0.0144152
957.269	0.0142781
957.347	0.0143316
957.425	0.0144677
957.503	0.0144453
957.581	0.0144115
957.660	0.0142899
957.738	0.0142775
957.816	0.0144318
957.894	0.0142729
957.972	0.0144009
958.050	0.0144720
958.128	0.0144567
958.206	0.0143221
958.285	0.0144989
958.363	0.0144719
958.441	0.0145789
958.519	0.0144095
958.597	0.0145319
958.675	0.0146183
958.753	0.0145922
958.831	0.0146690
958.910	0.0146497
958.988	0.0145203
959.066	0.0145018
959.144	0.0145382
959.222	0.0145312
959.300	0.0144058
959.378	0.0145869
959.456	0.0143790
959.535	0.0142906
959.613	0.0144125
959.691	0.0142825
959.769	0.0141035
959.847	0.0139165
959.925	0.0138885
960.003	0.0138480
960.081	0.0136848
960.160	0.0137162
960.238	0.0137497
960.316	0.0137286
960.394	0.0138185
960.472	0.0137481
960.550	0.0137298
960.628	0.0139654
960.706	0.0141287
960.785	0.0141359
960.863	0.0141471
960.941	0.0143703
961.019	0.0145187
961.097	0.0145744
961.175	0.0146046
961.253	0.0147265
961.331	0.0147073
961.410	0.0147185
961.488	0.0149068
961.566	0.0147641
961.644	0.0148344
961.722	0.0147163
961.800	0.0145667
961.878	0.0145032
961.956	0.0142789
962.035	0.0141718
962.113	0.0142397
962.191	0.0141671
962.269	0.0142085
962.347	0.0139584
962.425	0.0138544
962.503	0.0139182
962.581	0.0140112
962.660	0.0140565
962.738	0.0140474
962.816	0.0140665
962.894	0.0141774
962.972	0.0141927
963.050	0.0142432
963.128	0.0142758
963.206	0.0142892
963.285	0.0143282
963.363	0.0145063
963.441	0.0144637
963.519	0.0145128
963.597	0.0145141
963.675	0.0145673
963.753	0.0145978
963.831	0.0144008
963.910	0.0145473
963.988	0.0145133
964.066	0.0144086
964.144	0.0144202
964.222	0.0142731
964.300	0.0140431
964.378	0.0140992
964.456	0.0140865
964.535	0.0141294
964.613	0.0140663
964.691	0.0141073
964.769	0.0140380
964.847	0.0142390
964.925	0.0142877
965.003	0.0141770
965.081	0.0143077
965.160	0.0143297
965.238	0.0144054
965.316	0.0144027
965.394	0.0144926
965.472	0.0145293
965.550	0.0143737
965.628	0.0144385
965.706	0.0144997
965.785	0.0144959
965.863	0.0144186
965.941	0.0144650
966.019	0.0144159
966.097	0.0144664
966.175	0.0144135
966.253	0.0144065
966.331	0.0143715
966.410	0.0144962
966.488	0.0144836
966.566	0.0144853
966.644	0.0144110
966.722	0.0144966
966.800	0.0145232
966.878	0.0146906
966.956	0.0146241
967.035	0.0147101
967.113	0.0146401
967.191	0.0148492
967.269	0.0147598
967.347	0.0146088
967.425	0.0145535
967.503	0.0146424
967.581	0.0147327
967.660	0.0146517
967.738	0.0145242
967.816	0.0145930
967.894	0.0146097
967.972	0.0145125
968.050	0.0144903
968.128	0.0145096
968.206	0.0145047
968.285	0.0143829
968.363	0.0143792
968.441	0.0143374
968.519	0.0143672
968.597	0.0142880
968.675	0.0142818
968.753	0.0141935
968.831	0.0141903
968.910	0.0141266
968.988	0.0141628
969.066	0.0140627
969.144	0.0141050
969.222	0.0141528
969.300	0.0140799
969.378	0.0141606
969.456	0.0141019
969.535	0.0140262
969.613	0.0140725
969.691	0.0142422
969.769	0.0139482
969.847	0.0139718
969.925	0.0141375
970.003	0.0142152
970.081	0.0142104
970.160	0.0142741
970.238	0.0143303
970.316	0.0142432
970.394	0.0142375
970.472	0.0142421
970.550	0.0143414
970.628	0.0143898
970.706	0.0143578
970.785	0.0141345
970.863	0.0141920
970.941	0.0141805
971.019	0.0142077
971.097	0.0142644
971.175	0.0143353
971.253	0.0142445
971.331	0.0141624
971.410	0.0143101
971.488	0.0143504
971.566	0.0144678
971.644	0.0144223
971.722	0.0144172
971.800	0.0144719
971.878	0.0144067
971.956	0.0145378
972.035	0.0146803
972.113	0.0145512
972.191	0.0145216
972.269	0.0145122
972.347	0.0145589
972.425	0.0145524
972.503	0.0145238
972.581	0.0146554
972.660	0.0145322
972.738	0.0144047
972.816	0.0145007
972.894	0.0143986
972.972	0.0144878
973.050	0.0143242
973.128	0.0144415
973.206	0.0143255
973.285	0.0143031
973.363	0.0142074
973.441	0.0142657
973.519	0.0140622
973.597	0.0140275
973.675	0.0139204
973.753	0.0139751
973.831	0.0138869
973.910	0.0139247
973.988	0.0138821
974.066	0.0140487
974.144	0.0139002
974.222	0.0140204
974.300	0.0140289
974.378	0.0140712
974.456	0.0141750
974.535	0.0141130
974.613	0.0142635
974.691	0.0144345
974.769	0.0143999
974.847	0.0144373
974.925	0.0143577
975.003	0.0144274
975.081	0.0144585
975.160	0.0144026
975.238	0.0143530
975.316	0.0141800
975.394	0.0142854
975.472	0.0143094
975.550	0.0143978
975.628	0.0143852
975.706	0.0142535
975.785	0.0142713
975.863	0.0142437
975.941	0.0144143
976.019	0.0144157
976.097	0.0144321
976.175	0.0144540
976.253	0.0143609
976.331	0.0145805
976.410	0.0144986
976.488	0.0146307
976.566	0.0146133
976.644	0.0145817
976.722	0.0146530
976.800	0.0146874
976.878	0.0147707
976.956	0.0147977
977.035	0.0147443
977.113	0.0148765
977.191	0.0149596
977.269	0.0147495
977.347	0.0148133
977.425	0.0147591
977.503	0.0147032
977.581	0.0146461
977.660	0.0144967
977.738	0.0143098
977.816	0.0144302
977.894	0.0143147
977.972	0.0142320
978.050	0.0142116
978.128	0.0141040
978.206	0.0141739
978.285	0.0141951
978.363	0.0142266
978.441	0.0140965
978.519	0.0141460
978.597	0.0142638
978.675	0.0144070
978.753	0.0145096
978.831	0.0145669
978.910	0.0143964
978.988	0.0144907
979.066	0.0144424
979.144	0.0143224
979.222	0.0143138
979.300	0.0142725
979.378	0.0142527
979.456	0.0141074
979.535	0.0141319
979.613	0.0140894
979.691	0.0141957
979.769	0.0142579
979.847	0.0142915
979.925	0.0141140
