05/03/2022	20:13:36	Ver.	4.1	UNKNOWN
Optical Delay	660.003261	Delta X		0.078125	Sweeps	1	Scan Rate	0/0
Coordinates	Axis 1	NaN	Axis 2	NaN	Axis 3	NaN	Axis 4	NaN	Axis 5	NaN	Axis 6	0.000000
TX Power	0.000000	RX Power	0.000000

660.003	0.0146922
660.081	0.0147990
660.160	0.0145850
660.238	0.0146958
660.316	0.0146838
660.394	0.0146012
660.472	0.0146878
660.550	0.0144897
660.628	0.0147030
660.706	0.0147110
660.785	0.0147514
660.863	0.0147107
660.941	0.0145513
661.019	0.0145417
661.097	0.0146405
661.175	0.0146385
661.253	0.0146742
661.331	0.0146751
661.410	0.0146196
661.488	0.0147097
661.566	0.0147810
661.644	0.0145907
661.722	0.0147388
661.800	0.0145816
661.878	0.0144577
661.956	0.0146047
662.035	0.0146696
662.113	0.0147353
662.191	0.0147034
662.269	0.0146956
662.347	0.0147491
662.425	0.0147301
662.503	0.0145965
662.581	0.0146620
662.660	0.0146456
662.738	0.0147807
662.816	0.0147880
662.894	0.0148439
662.972	0.0149003
663.050	0.0146314
663.128	0.0145910
663.206	0.0146893
663.285	0.0146211
663.363	0.0145528
663.441	0.0146436
663.519	0.0146732
663.597	0.0147232
663.675	0.0145589
663.753	0.0146110
663.831	0.0146259
663.910	0.0148077
663.988	0.0146673
664.066	0.0145338
664.144	0.0146835
664.222	0.0147002
664.300	0.0147124
664.378	0.0146055
664.456	0.0147128
664.535	0.0147329
664.613	0.0146235
664.691	0.0146132
664.769	0.0146721
664.847	0.0146900
664.925	0.0146237
665.003	0.0146446
665.081	0.0147034
665.160	0.0147296
665.238	0.0145953
665.316	0.0146995
665.394	0.0147607
665.472	0.0146717
665.550	0.0148138
665.628	0.0147334
665.706	0.0147395
665.785	0.0147444
665.863	0.0146960
665.941	0.0148112
666.019	0.0148430
666.097	0.0146552
666.175	0.0145895
666.253	0.0147430
666.331	0.0147171
666.410	0.0146519
666.488	0.0146526
666.566	0.0148444
666.644	0.0146485
666.722	0.0147346
666.800	0.0148492
666.878	0.0147009
666.956	0.0147318
667.035	0.0148109
667.113	0.0147461
667.191	0.0147577
667.269	0.0148222
667.347	0.0148775
667.425	0.0146326
667.503	0.0147190
667.581	0.0146070
667.660	0.0146422
667.738	0.0147646
667.816	0.0147263
667.894	0.0146544
667.972	0.0146669
668.050	0.0147040
668.128	0.0148506
668.206	0.0146779
668.285	0.0146014
668.363	0.0146526
668.441	0.0147137
668.519	0.0146758
668.597	0.0146465
668.675	0.0146794
668.753	0.0146598
668.831	0.0148323
668.910	0.0147027
668.988	0.0147682
669.066	0.0147740
669.144	0.0147299
669.222	0.0146988
669.300	0.0147643
669.378	0.0145535
669.456	0.0146844
669.535	0.0147709
669.613	0.0147279
669.691	0.0147687
669.769	0.0144966
669.847	0.0147848
669.925	0.0146960
670.003	0.0146619
670.081	0.0146513
670.160	0.0146822
670.238	0.0146957
670.316	0.0147720
670.394	0.0146977
670.472	0.0147832
670.550	0.0147596
670.628	0.0146382
670.706	0.0146304
670.785	0.0147407
670.863	0.0147789
670.941	0.0146062
671.019	0.0146623
671.097	0.0146728
671.175	0.0147778
671.253	0.0146886
671.331	0.0146210
671.410	0.0146613
671.488	0.0147370
671.566	0.0147945
671.644	0.0146985
671.722	0.0146265
671.800	0.0147657
671.878	0.0147396
671.956	0.0146483
672.035	0.0147003
672.113	0.0145930
672.191	0.0144473
672.269	0.0146761
672.347	0.0145142
672.425	0.0146874
672.503	0.0147218
672.581	0.0147265
672.660	0.0146587
672.738	0.0146398
672.816	0.0147530
672.894	0.0147382
672.972	0.0146826
673.050	0.0146030
673.128	0.0146722
673.206	0.0147200
673.285	0.0147008
673.363	0.0146693
673.441	0.0146391
673.519	0.0146284
673.597	0.0145064
673.675	0.0148250
673.753	0.0147710
673.831	0.0146122
673.910	0.0148064
673.988	0.0146466
674.066	0.0145687
674.144	0.0147271
674.222	0.0147236
674.300	0.0147631
674.378	0.0146172
674.456	0.0147173
674.535	0.0147488
674.613	0.0147240
674.691	0.0147119
674.769	0.0147439
674.847	0.0146159
674.925	0.0145985
675.003	0.0146978
675.081	0.0147536
675.160	0.0146247
675.238	0.0147054
675.316	0.0147034
675.394	0.0146814
675.472	0.0147781
675.550	0.0147024
675.628	0.0148310
675.706	0.0147309
675.785	0.0146233
675.863	0.0145421
675.941	0.0147659
676.019	0.0147330
676.097	0.0145389
676.175	0.0146539
676.253	0.0145324
676.331	0.0147649
676.410	0.0145779
676.488	0.0146938
676.566	0.0146142
676.644	0.0146531
676.722	0.0146737
676.800	0.0146918
676.878	0.0147937
676.956	0.0145518
677.035	0.0145967
677.113	0.0147988
677.191	0.0146996
677.269	0.0147166
677.347	0.0147651
677.425	0.0146142
677.503	0.0146793
677.581	0.0146426
677.660	0.0144805
677.738	0.0147911
677.816	0.0147156
677.894	0.0147192
677.972	0.0147353
678.050	0.0146951
678.128	0.0145496
678.206	0.0146688
678.285	0.0147250
678.363	0.0146722
678.441	0.0147421
678.519	0.0146774
678.597	0.0147581
678.675	0.0147051
678.753	0.0145375
678.831	0.0146658
678.910	0.0146313
678.988	0.0147414
679.066	0.0146881
679.144	0.0146172
679.222	0.0146175
679.300	0.0147015
679.378	0.0146072
679.456	0.0146046
679.535	0.0146866
679.613	0.0146081
679.691	0.0146278
679.769	0.0147621
679.847	0.0146204
679.925	0.0146745
680.003	0.0146572
680.081	0.0146645
680.160	0.0147133
680.238	0.0146622
680.316	0.0146751
680.394	0.0146049
680.472	0.0147462
680.550	0.0146518
680.628	0.0147771
680.706	0.0146912
680.785	0.0146851
680.863	0.0147698
680.941	0.0146967
681.019	0.0148587
681.097	0.0145673
681.175	0.0146839
681.253	0.0146430
681.331	0.0145824
681.410	0.0147601
681.488	0.0146703
681.566	0.0147746
681.644	0.0148000
681.722	0.0146404
681.800	0.0145380
681.878	0.0146111
681.956	0.0145641
682.035	0.0145956
682.113	0.0146616
682.191	0.0147468
682.269	0.0146764
682.347	0.0145817
682.425	0.0147406
682.503	0.0147022
682.581	0.0147749
682.660	0.0147594
682.738	0.0146716
682.816	0.0145314
682.894	0.0146118
682.972	0.0147057
683.050	0.0146747
683.128	0.0145583
683.206	0.0147379
683.285	0.0147360
683.363	0.0146570
683.441	0.0148132
683.519	0.0147021
683.597	0.0147573
683.675	0.0147499
683.753	0.0146025
683.831	0.0146276
683.910	0.0147086
683.988	0.0147208
684.066	0.0146886
684.144	0.0148016
684.222	0.0147301
684.300	0.0146183
684.378	0.0147001
684.456	0.0146583
684.535	0.0146719
684.613	0.0145793
684.691	0.0147346
684.769	0.0147716
684.847	0.0148003
684.925	0.0147137
685.003	0.0145039
685.081	0.0146458
685.160	0.0147649
685.238	0.0147919
685.316	0.0148421
685.394	0.0145273
685.472	0.0146574
685.550	0.0146600
685.628	0.0147083
685.706	0.0146594
685.785	0.0146198
685.863	0.0146864
685.941	0.0145107
686.019	0.0146657
686.097	0.0146975
686.175	0.0146661
686.253	0.0147833
686.331	0.0144874
686.410	0.0146524
686.488	0.0146782
686.566	0.0145249
686.644	0.0146445
686.722	0.0146889
686.800	0.0146673
686.878	0.0147105
686.956	0.0146053
687.035	0.0146954
687.113	0.0146716
687.191	0.0145875
687.269	0.0146350
687.347	0.0145905
687.425	0.0144532
687.503	0.0146039
687.581	0.0146236
687.660	0.0146586
687.738	0.0147547
687.816	0.0146647
687.894	0.0147459
687.972	0.0146563
688.050	0.0146632
688.128	0.0147201
688.206	0.0148215
688.285	0.0146219
688.363	0.0147203
688.441	0.0147397
688.519	0.0147050
688.597	0.0146787
688.675	0.0146866
688.753	0.0146112
688.831	0.0145926
688.910	0.0146091
688.988	0.0145837
689.066	0.0145768
689.144	0.0147723
689.222	0.0145038
689.300	0.0147054
689.378	0.0146059
689.456	0.0145769
689.535	0.0146597
689.613	0.0147425
689.691	0.0147108
689.769	0.0145844
689.847	0.0147099
689.925	0.0146355
690.003	0.0146549
690.081	0.0146703
690.160	0.0145432
690.238	0.0145795
690.316	0.0146124
690.394	0.0145486
690.472	0.0146024
690.550	0.0146419
690.628	0.0146687
690.706	0.0146909
690.785	0.0146510
690.863	0.0145470
690.941	0.0147277
691.019	0.0146808
691.097	0.0144712
691.175	0.0145502
691.253	0.0145119
691.331	0.0145978
691.410	0.0146442
691.488	0.0146793
691.566	0.0145396
691.644	0.0145664
691.722	0.0145934
691.800	0.0146829
691.878	0.0146968
691.956	0.0145303
692.035	0.0148039
692.113	0.0145872
692.191	0.0144898
692.269	0.0147080
692.347	0.0147034
692.425	0.0145953
692.503	0.0146130
692.581	0.0145922
692.660	0.0146716
692.738	0.0146801
692.816	0.0146897
692.894	0.0145914
692.972	0.0148274
693.050	0.0145330
693.128	0.0146439
693.206	0.0148019
693.285	0.0145998
693.363	0.0146417
693.441	0.0145589
693.519	0.0146185
693.597	0.0145354
693.675	0.0146546
693.753	0.0145967
693.831	0.0146355
693.910	0.0145331
693.988	0.0145015
694.066	0.0145989
694.144	0.0147311
694.222	0.0146677
694.300	0.0147572
694.378	0.0145944
694.456	0.0145956
694.535	0.0147024
694.613	0.0147119
694.691	0.0147842
694.769	0.0146944
694.847	0.0146300
694.925	0.0145997
695.003	0.0147634
695.081	0.0146991
695.160	0.0146272
695.238	0.0145637
695.316	0.0147031
695.394	0.0147269
695.472	0.0146496
695.550	0.0145531
695.628	0.0146257
695.706	0.0146754
695.785	0.0146165
695.863	0.0145978
695.941	0.0146299
696.019	0.0145759
696.097	0.0146563
696.175	0.0146184
696.253	0.0146701
696.331	0.0147572
696.410	0.0146979
696.488	0.0147661
696.566	0.0147575
696.644	0.0146152
696.722	0.0146735
696.800	0.0148304
696.878	0.0146723
696.956	0.0147999
697.035	0.0145895
697.113	0.0145811
697.191	0.0146519
697.269	0.0146671
697.347	0.0147239
697.425	0.0145608
697.503	0.0145438
697.581	0.0145429
697.660	0.0146981
697.738	0.0147009
697.816	0.0146127
697.894	0.0146228
697.972	0.0147483
698.050	0.0147126
698.128	0.0146452
698.206	0.0145409
698.285	0.0145769
698.363	0.0148757
698.441	0.0148000
698.519	0.0147685
698.597	0.0147109
698.675	0.0147366
698.753	0.0148067
698.831	0.0146951
698.910	0.0145458
698.988	0.0147196
699.066	0.0147723
699.144	0.0146577
699.222	0.0148645
699.300	0.0147969
699.378	0.0146576
699.456	0.0144421
699.535	0.0147073
699.613	0.0146745
699.691	0.0146465
699.769	0.0147929
699.847	0.0148777
699.925	0.0146832
700.003	0.0146510
700.081	0.0146275
700.160	0.0145751
700.238	0.0146350
700.316	0.0147552
700.394	0.0147427
700.472	0.0146171
700.550	0.0146546
700.628	0.0146163
700.706	0.0147515
700.785	0.0146928
700.863	0.0147352
700.941	0.0147005
701.019	0.0147440
701.097	0.0145956
701.175	0.0147296
701.253	0.0146955
701.331	0.0146711
701.410	0.0144955
701.488	0.0147403
701.566	0.0148623
701.644	0.0147952
701.722	0.0147192
701.800	0.0147658
701.878	0.0148150
701.956	0.0148257
702.035	0.0148663
702.113	0.0147886
702.191	0.0147521
702.269	0.0149287
702.347	0.0149612
702.425	0.0149496
702.503	0.0149593
702.581	0.0148589
702.660	0.0147605
702.738	0.0149789
702.816	0.0149044
702.894	0.0148769
702.972	0.0149681
703.050	0.0149369
703.128	0.0149127
703.206	0.0148913
703.285	0.0149635
703.363	0.0148817
703.441	0.0148043
703.519	0.0148649
703.597	0.0148604
703.675	0.0147342
703.753	0.0148529
703.831	0.0148067
703.910	0.0146262
703.988	0.0143806
704.066	0.0140926
704.144	0.0139283
704.222	0.0136652
704.300	0.0134783
704.378	0.0134869
704.456	0.0135003
704.535	0.0137418
704.613	0.0144748
704.691	0.0149985
704.769	0.0157789
704.847	0.0165878
704.925	0.0169247
705.003	0.0170560
705.081	0.0166512
705.160	0.0159474
705.238	0.0148493
705.316	0.0131852
705.394	0.0115356
705.472	0.0101222
705.550	0.00890068
705.628	0.00821793
705.706	0.00790955
705.785	0.00836182
705.863	0.00912514
705.941	0.0106702
706.019	0.0129720
706.097	0.0156586
706.175	0.0186994
706.253	0.0220643
706.331	0.0254720
706.410	0.0281432
706.488	0.0300014
706.566	0.0307656
706.644	0.0302532
706.722	0.0283671
706.800	0.0251439
706.878	0.0207523
706.956	0.0159929
707.035	0.0105630
707.113	0.00550743
707.191	0.00102341
707.269	-0.00264404
707.347	-0.00490440
707.425	-0.00591797
707.503	-0.00568245
707.581	-0.00405762
707.660	-0.00151680
707.738	0.00165421
707.816	0.00547668
707.894	0.00961006
707.972	0.0139462
708.050	0.0183907
708.128	0.0223482
708.206	0.0261859
708.285	0.0292047
708.363	0.0318845
708.441	0.0334812
708.519	0.0345783
708.597	0.0346343
708.675	0.0338120
708.753	0.0322124
708.831	0.0296539
708.910	0.0264944
708.988	0.0228055
709.066	0.0185467
709.144	0.0140305
709.222	0.00939751
709.300	0.00526550
709.378	0.00188416
709.456	-0.000800171
709.535	-0.00246170
709.613	-0.00344582
709.691	-0.00340424
709.769	-0.00263725
709.847	-0.00130600
709.925	0.000660477
710.003	0.00311783
710.081	0.00577538
710.160	0.00869812
710.238	0.0115249
710.316	0.0144176
710.394	0.0173277
710.472	0.0197708
710.550	0.0221452
710.628	0.0241852
710.706	0.0257895
710.785	0.0269967
710.863	0.0277825
710.941	0.0281891
711.019	0.0281864
711.097	0.0278175
711.175	0.0268163
711.253	0.0253841
711.331	0.0237824
711.410	0.0217439
711.488	0.0194973
711.566	0.0169780
711.644	0.0144372
711.722	0.0118780
711.800	0.00924873
711.878	0.00709908
711.956	0.00553955
712.035	0.00444824
712.113	0.00376862
712.191	0.00358398
712.269	0.00381866
712.347	0.00436317
712.425	0.00521500
712.503	0.00649811
712.581	0.00782341
712.660	0.00910255
712.738	0.0104945
712.816	0.0120139
712.894	0.0136912
712.972	0.0151903
713.050	0.0168394
713.128	0.0186186
713.206	0.0200317
713.285	0.0215230
713.363	0.0225190
713.441	0.0233478
713.519	0.0238618
713.597	0.0237960
713.675	0.0235541
713.753	0.0228612
713.831	0.0217487
713.910	0.0205974
713.988	0.0194389
714.066	0.0180819
714.144	0.0169080
714.222	0.0155229
714.300	0.0143987
714.378	0.0132796
714.456	0.0122251
714.535	0.0113280
714.613	0.0104574
714.691	0.0100135
714.769	0.00939682
714.847	0.00896469
714.925	0.00882080
715.003	0.00866447
715.081	0.00869041
715.160	0.00881752
715.238	0.00928925
715.316	0.00956726
715.394	0.00987488
715.472	0.0103741
715.550	0.0110223
715.628	0.0116790
715.706	0.0121458
715.785	0.0128545
715.863	0.0136612
715.941	0.0144501
716.019	0.0152120
716.097	0.0162328
716.175	0.0171282
716.253	0.0180830
716.331	0.0188031
716.410	0.0195580
716.488	0.0200452
716.566	0.0203348
716.644	0.0205710
716.722	0.0204749
716.800	0.0204517
716.878	0.0201021
716.956	0.0198180
717.035	0.0194892
717.113	0.0188929
717.191	0.0180756
717.269	0.0174351
717.347	0.0165195
717.425	0.0154825
717.503	0.0144419
717.581	0.0131087
717.660	0.0121015
717.738	0.0113147
717.816	0.0104043
717.894	0.0100249
717.972	0.00965019
718.050	0.00965401
718.128	0.00984512
718.206	0.0101295
718.285	0.0105743
718.363	0.0110035
718.441	0.0115047
718.519	0.0119186
718.597	0.0123535
718.675	0.0126064
718.753	0.0128361
718.831	0.0132467
718.910	0.0134579
718.988	0.0138327
719.066	0.0141702
719.144	0.0144945
719.222	0.0148496
719.300	0.0151988
719.378	0.0155081
719.456	0.0158248
719.535	0.0162651
719.613	0.0165109
719.691	0.0168519
719.769	0.0170744
719.847	0.0171770
719.925	0.0173602
720.003	0.0172256
720.081	0.0170089
720.160	0.0168169
720.238	0.0164540
720.316	0.0161438
720.394	0.0158262
720.472	0.0155071
720.550	0.0153633
720.628	0.0152103
720.706	0.0148419
720.785	0.0146333
720.863	0.0143650
720.941	0.0141645
721.019	0.0139330
721.097	0.0138435
721.175	0.0136823
721.253	0.0137203
721.331	0.0135768
721.410	0.0139921
721.488	0.0144314
721.566	0.0148164
721.644	0.0151610
721.722	0.0154591
721.800	0.0157565
721.878	0.0158390
721.956	0.0155330
722.035	0.0152956
722.113	0.0148008
722.191	0.0145403
722.269	0.0139978
722.347	0.0133999
722.425	0.0130379
722.503	0.0124335
722.581	0.0120183
722.660	0.0119084
722.738	0.0117693
722.816	0.0119904
722.894	0.0120854
722.972	0.0126276
723.050	0.0132544
723.128	0.0139167
723.206	0.0146409
723.285	0.0154820
723.363	0.0162164
723.441	0.0167220
723.519	0.0172689
723.597	0.0175798
723.675	0.0176569
723.753	0.0177579
723.831	0.0176495
723.910	0.0174205
723.988	0.0173484
724.066	0.0172856
724.144	0.0168156
724.222	0.0164194
724.300	0.0161423
724.378	0.0156812
724.456	0.0154632
724.535	0.0149494
724.613	0.0146541
724.691	0.0143080
724.769	0.0139661
724.847	0.0137019
724.925	0.0137150
725.003	0.0135947
725.081	0.0136526
725.160	0.0137059
725.238	0.0136909
725.316	0.0137077
725.394	0.0137777
725.472	0.0136574
725.550	0.0137102
725.628	0.0136944
725.706	0.0136395
725.785	0.0136678
725.863	0.0134654
725.941	0.0132800
726.019	0.0131519
726.097	0.0129739
726.175	0.0128917
726.253	0.0129540
726.331	0.0128354
726.410	0.0129209
726.488	0.0131101
726.566	0.0132128
726.644	0.0134919
726.722	0.0138361
726.800	0.0143310
726.878	0.0147397
726.956	0.0151261
727.035	0.0156345
727.113	0.0158272
727.191	0.0162181
727.269	0.0165553
727.347	0.0167234
727.425	0.0168784
727.503	0.0169670
727.581	0.0170606
727.660	0.0170035
727.738	0.0167032
727.816	0.0168159
727.894	0.0164276
727.972	0.0161782
728.050	0.0158826
728.128	0.0156842
728.206	0.0155318
728.285	0.0154660
728.363	0.0153790
728.441	0.0152728
728.519	0.0152486
728.597	0.0151778
728.675	0.0154034
728.753	0.0150932
728.831	0.0151767
728.910	0.0152656
728.988	0.0150565
729.066	0.0150667
729.144	0.0150561
729.222	0.0148381
729.300	0.0145423
729.378	0.0142434
729.456	0.0138557
729.535	0.0134363
729.613	0.0130039
729.691	0.0127419
729.769	0.0124362
729.847	0.0121054
729.925	0.0120639
730.003	0.0120371
730.081	0.0120589
730.160	0.0121775
730.238	0.0124684
730.316	0.0126178
730.394	0.0127705
730.472	0.0131414
730.550	0.0136302
730.628	0.0137855
730.706	0.0140926
730.785	0.0144170
730.863	0.0146659
730.941	0.0150840
731.019	0.0153333
731.097	0.0155195
731.175	0.0159071
731.253	0.0157732
731.331	0.0158341
731.410	0.0160474
731.488	0.0160031
731.566	0.0160748
731.644	0.0160154
731.722	0.0159872
731.800	0.0160445
731.878	0.0159320
731.956	0.0160057
732.035	0.0158427
732.113	0.0157801
732.191	0.0156650
732.269	0.0157153
732.347	0.0155206
732.425	0.0157011
732.503	0.0155248
732.581	0.0154765
732.660	0.0153974
732.738	0.0154298
732.816	0.0152791
732.894	0.0152588
732.972	0.0149428
733.050	0.0149013
733.128	0.0148201
733.206	0.0146584
733.285	0.0146844
733.363	0.0143842
733.441	0.0143719
733.519	0.0142400
733.597	0.0143230
733.675	0.0142162
733.753	0.0142662
733.831	0.0141541
733.910	0.0140714
733.988	0.0139731
734.066	0.0138740
734.144	0.0139173
734.222	0.0139802
734.300	0.0141668
734.378	0.0140610
734.456	0.0141125
734.535	0.0141798
734.613	0.0141504
734.691	0.0140376
734.769	0.0140115
734.847	0.0139240
734.925	0.0138427
735.003	0.0137176
735.081	0.0136553
735.160	0.0134924
735.238	0.0134286
735.316	0.0134320
735.394	0.0136674
735.472	0.0138807
735.550	0.0139848
735.628	0.0141911
735.706	0.0145015
735.785	0.0148595
735.863	0.0152953
735.941	0.0157818
736.019	0.0158962
736.097	0.0162770
736.175	0.0166837
736.253	0.0168475
736.331	0.0168111
736.410	0.0170229
736.488	0.0169940
736.566	0.0166103
736.644	0.0163630
736.722	0.0160683
736.800	0.0156168
736.878	0.0152895
736.956	0.0148991
737.035	0.0145060
737.113	0.0142507
737.191	0.0140143
737.269	0.0138315
737.347	0.0138055
737.425	0.0137320
737.503	0.0138360
737.581	0.0139692
737.660	0.0141528
737.738	0.0142798
737.816	0.0142896
737.894	0.0145387
737.972	0.0145947
738.050	0.0146959
738.128	0.0148728
738.206	0.0146803
738.285	0.0148732
738.363	0.0146348
738.441	0.0144997
738.519	0.0145326
738.597	0.0144358
738.675	0.0140974
738.753	0.0139165
738.831	0.0138158
738.910	0.0137089
738.988	0.0136568
739.066	0.0136883
739.144	0.0136361
739.222	0.0136815
739.300	0.0138101
739.378	0.0142004
739.456	0.0142493
739.535	0.0142667
739.613	0.0146465
739.691	0.0148608
739.769	0.0150087
739.847	0.0150837
739.925	0.0153955
740.003	0.0155119
740.081	0.0155287
740.160	0.0154790
740.238	0.0154546
740.316	0.0154186
740.394	0.0155399
740.472	0.0153104
740.550	0.0149798
740.628	0.0149903
740.706	0.0147511
740.785	0.0147722
740.863	0.0147523
740.941	0.0148159
741.019	0.0146669
741.097	0.0147421
741.175	0.0147519
741.253	0.0147687
741.331	0.0150655
741.410	0.0150378
741.488	0.0151569
741.566	0.0150347
741.644	0.0150494
741.722	0.0150513
741.800	0.0149838
741.878	0.0151171
741.956	0.0148740
742.035	0.0147661
742.113	0.0148199
742.191	0.0145290
742.269	0.0144472
742.347	0.0142143
742.425	0.0139965
742.503	0.0139122
742.581	0.0138435
742.660	0.0137144
742.738	0.0136461
742.816	0.0136605
742.894	0.0138692
742.972	0.0139708
743.050	0.0140815
743.128	0.0142776
743.206	0.0143170
743.285	0.0144479
743.363	0.0145473
743.441	0.0145522
743.519	0.0146294
743.597	0.0146632
743.675	0.0146301
743.753	0.0146849
743.831	0.0147444
743.910	0.0148600
743.988	0.0147527
744.066	0.0147131
744.144	0.0145869
744.222	0.0145399
744.300	0.0144835
744.378	0.0144261
744.456	0.0142574
744.535	0.0142016
744.613	0.0142724
744.691	0.0142970
744.769	0.0144012
744.847	0.0142990
744.925	0.0142743
745.003	0.0145267
745.081	0.0144949
745.160	0.0145947
745.238	0.0146360
745.316	0.0146988
745.394	0.0148699
745.472	0.0149245
745.550	0.0147240
745.628	0.0147215
745.706	0.0150282
745.785	0.0150011
745.863	0.0151074
745.941	0.0150732
746.019	0.0152396
746.097	0.0153265
746.175	0.0153515
746.253	0.0155510
746.331	0.0155164
746.410	0.0156775
746.488	0.0157788
746.566	0.0158401
746.644	0.0158792
746.722	0.0158319
746.800	0.0158685
746.878	0.0158994
746.956	0.0156678
747.035	0.0156139
747.113	0.0153152
747.191	0.0151200
747.269	0.0150900
747.347	0.0147605
747.425	0.0143960
747.503	0.0144286
747.581	0.0141129
747.660	0.0140705
747.738	0.0137827
747.816	0.0136074
747.894	0.0136872
747.972	0.0135915
748.050	0.0136823
748.128	0.0137448
748.206	0.0139619
748.285	0.0139359
748.363	0.0140282
748.441	0.0142534
748.519	0.0142924
748.597	0.0143549
748.675	0.0142850
748.753	0.0145263
748.831	0.0144569
748.910	0.0143941
748.988	0.0145287
749.066	0.0145004
749.144	0.0143555
749.222	0.0144728
749.300	0.0143505
749.378	0.0144681
749.456	0.0145358
749.535	0.0145171
749.613	0.0144961
749.691	0.0145879
749.769	0.0146082
749.847	0.0147781
749.925	0.0147574
750.003	0.0146641
750.081	0.0149062
750.160	0.0149618
750.238	0.0149659
750.316	0.0149497
750.394	0.0148984
750.472	0.0149422
750.550	0.0149274
750.628	0.0150114
750.706	0.0151366
750.785	0.0152237
750.863	0.0151669
750.941	0.0151665
751.019	0.0152271
751.097	0.0152695
751.175	0.0150780
751.253	0.0150397
751.331	0.0148923
751.410	0.0148784
751.488	0.0148003
751.566	0.0147021
751.644	0.0146797
751.722	0.0145621
751.800	0.0147098
751.878	0.0145782
751.956	0.0145997
752.035	0.0147162
752.113	0.0148280
752.191	0.0147520
752.269	0.0147067
752.347	0.0148831
752.425	0.0148087
752.503	0.0149105
752.581	0.0148538
752.660	0.0149005
752.738	0.0145914
752.816	0.0145038
752.894	0.0144898
752.972	0.0142891
753.050	0.0142276
753.128	0.0140902
753.206	0.0139968
753.285	0.0140286
753.363	0.0141752
753.441	0.0140795
753.519	0.0141767
753.597	0.0141470
753.675	0.0143010
753.753	0.0144157
753.831	0.0144334
753.910	0.0145033
753.988	0.0144251
754.066	0.0146316
754.144	0.0146529
754.222	0.0146547
754.300	0.0148049
754.378	0.0148962
754.456	0.0148591
754.535	0.0151520
754.613	0.0149717
754.691	0.0149948
754.769	0.0151165
754.847	0.0151008
754.925	0.0151243
755.003	0.0152016
755.081	0.0150591
755.160	0.0150642
755.238	0.0150352
755.316	0.0149906
755.394	0.0149453
755.472	0.0148429
755.550	0.0150474
755.628	0.0149034
755.706	0.0149164
755.785	0.0148748
755.863	0.0148995
755.941	0.0147512
756.019	0.0149078
756.097	0.0146938
756.175	0.0148030
756.253	0.0145888
756.331	0.0146017
756.410	0.0146673
756.488	0.0145137
756.566	0.0144317
756.644	0.0143726
756.722	0.0144836
756.800	0.0143311
756.878	0.0143402
756.956	0.0143022
757.035	0.0143497
757.113	0.0145414
757.191	0.0144625
757.269	0.0144573
757.347	0.0145739
757.425	0.0145810
757.503	0.0146080
757.581	0.0145790
757.660	0.0146955
757.738	0.0146539
757.816	0.0145142
757.894	0.0142928
757.972	0.0144308
758.050	0.0142634
758.128	0.0141781
758.206	0.0142435
758.285	0.0141866
758.363	0.0141748
758.441	0.0141344
758.519	0.0141451
758.597	0.0142751
758.675	0.0143492
758.753	0.0144147
758.831	0.0145493
758.910	0.0146553
758.988	0.0148058
759.066	0.0149842
759.144	0.0151368
759.222	0.0149950
759.300	0.0151485
759.378	0.0153342
759.456	0.0153130
759.535	0.0152397
759.613	0.0153048
759.691	0.0152612
759.769	0.0151829
759.847	0.0151442
759.925	0.0153117
760.003	0.0152532
760.081	0.0153838
760.160	0.0151770
760.238	0.0151908
760.316	0.0151297
760.394	0.0152527
760.472	0.0150778
760.550	0.0150331
760.628	0.0150024
760.706	0.0149966
760.785	0.0150045
760.863	0.0150093
760.941	0.0149209
761.019	0.0147652
761.097	0.0147537
761.175	0.0146357
761.253	0.0144656
761.331	0.0145467
761.410	0.0146516
761.488	0.0142925
761.566	0.0143806
761.644	0.0142593
761.722	0.0142891
761.800	0.0142332
761.878	0.0142105
761.956	0.0140198
762.035	0.0138299
762.113	0.0138121
762.191	0.0138686
762.269	0.0136711
762.347	0.0139052
762.425	0.0137523
762.503	0.0137822
762.581	0.0139098
762.660	0.0143135
762.738	0.0142528
762.816	0.0143376
762.894	0.0144698
762.972	0.0144395
763.050	0.0145013
763.128	0.0149319
763.206	0.0150601
763.285	0.0150538
763.363	0.0150275
763.441	0.0151054
763.519	0.0153420
763.597	0.0154462
763.675	0.0152878
763.753	0.0154245
763.831	0.0154441
763.910	0.0153122
763.988	0.0152921
764.066	0.0154350
764.144	0.0153135
764.222	0.0151674
764.300	0.0149924
764.378	0.0151192
764.456	0.0150505
764.535	0.0148666
764.613	0.0146187
764.691	0.0146239
764.769	0.0144003
764.847	0.0143544
764.925	0.0143348
765.003	0.0142229
765.081	0.0140976
765.160	0.0140056
765.238	0.0139410
765.316	0.0139639
765.394	0.0138799
765.472	0.0140668
765.550	0.0140198
765.628	0.0139213
765.706	0.0139563
765.785	0.0141034
765.863	0.0142409
765.941	0.0142759
766.019	0.0144041
766.097	0.0145368
766.175	0.0146812
766.253	0.0148371
766.331	0.0148370
766.410	0.0150966
766.488	0.0151440
766.566	0.0153125
766.644	0.0154164
766.722	0.0154275
766.800	0.0154456
766.878	0.0155203
766.956	0.0154376
767.035	0.0155727
767.113	0.0153343
767.191	0.0153482
767.269	0.0152292
767.347	0.0151255
767.425	0.0150864
767.503	0.0150240
767.581	0.0148322
767.660	0.0148186
767.738	0.0146226
767.816	0.0147401
767.894	0.0147163
767.972	0.0147007
768.050	0.0145057
768.128	0.0147066
768.206	0.0145495
768.285	0.0145164
768.363	0.0143601
768.441	0.0142124
768.519	0.0142126
768.597	0.0142577
768.675	0.0141895
768.753	0.0140625
768.831	0.0140262
768.910	0.0139718
768.988	0.0139719
769.066	0.0137995
769.144	0.0140041
769.222	0.0140216
769.300	0.0138992
769.378	0.0141335
769.456	0.0142624
769.535	0.0142792
769.613	0.0142656
769.691	0.0144443
769.769	0.0146415
769.847	0.0147205
769.925	0.0148470
770.003	0.0149056
770.081	0.0149412
770.160	0.0149754
770.238	0.0149001
770.316	0.0151913
770.394	0.0150597
770.472	0.0150454
770.550	0.0150554
770.628	0.0149918
770.706	0.0150900
770.785	0.0149743
770.863	0.0149999
770.941	0.0149654
771.019	0.0148838
771.097	0.0146814
771.175	0.0147678
771.253	0.0147888
771.331	0.0147731
771.410	0.0145567
771.488	0.0145795
771.566	0.0146133
771.644	0.0146342
771.722	0.0147810
771.800	0.0147633
771.878	0.0147082
771.956	0.0148031
772.035	0.0146823
772.113	0.0148112
772.191	0.0148211
772.269	0.0146806
772.347	0.0146642
772.425	0.0146583
772.503	0.0145040
772.581	0.0143935
772.660	0.0144063
772.738	0.0144529
772.816	0.0142380
772.894	0.0142918
772.972	0.0141936
773.050	0.0143330
773.128	0.0143833
773.206	0.0143234
773.285	0.0143428
773.363	0.0145595
773.441	0.0145196
773.519	0.0145694
773.597	0.0146445
773.675	0.0147699
773.753	0.0148012
773.831	0.0147565
773.910	0.0148911
773.988	0.0149039
774.066	0.0148038
774.144	0.0149620
774.222	0.0149535
774.300	0.0150173
774.378	0.0148762
774.456	0.0148639
774.535	0.0149477
774.613	0.0150054
774.691	0.0149910
774.769	0.0149615
774.847	0.0149332
774.925	0.0149870
775.003	0.0149375
775.081	0.0148292
775.160	0.0150368
775.238	0.0150550
775.316	0.0149169
775.394	0.0148030
775.472	0.0149297
775.550	0.0148092
775.628	0.0149960
775.706	0.0147864
775.785	0.0147357
775.863	0.0147182
775.941	0.0147020
776.019	0.0146059
776.097	0.0145420
776.175	0.0146329
776.253	0.0144077
776.331	0.0143801
776.410	0.0144472
776.488	0.0144820
776.566	0.0143529
776.644	0.0142030
776.722	0.0143999
776.800	0.0141214
776.878	0.0143918
776.956	0.0144460
777.035	0.0144453
777.113	0.0144522
777.191	0.0144207
777.269	0.0144132
777.347	0.0144958
777.425	0.0145039
777.503	0.0143959
777.581	0.0145066
777.660	0.0146494
777.738	0.0144367
777.816	0.0145624
777.894	0.0144892
777.972	0.0145441
778.050	0.0145885
778.128	0.0144102
778.206	0.0146068
778.285	0.0144549
778.363	0.0145346
778.441	0.0146576
778.519	0.0146644
778.597	0.0147083
778.675	0.0146871
778.753	0.0146906
778.831	0.0148585
778.910	0.0148161
778.988	0.0148201
779.066	0.0148868
779.144	0.0149654
779.222	0.0149041
779.300	0.0149609
779.378	0.0148723
779.456	0.0148958
779.535	0.0149663
779.613	0.0148198
779.691	0.0147475
779.769	0.0147725
779.847	0.0147015
779.925	0.0147953
780.003	0.0146769
780.081	0.0147157
780.160	0.0147856
780.238	0.0146253
780.316	0.0145171
780.394	0.0146190
780.472	0.0146133
780.550	0.0145777
780.628	0.0146082
780.706	0.0145934
780.785	0.0144817
780.863	0.0146571
780.941	0.0147638
781.019	0.0146351
781.097	0.0146471
781.175	0.0148346
781.253	0.0148385
781.331	0.0147296
781.410	0.0146103
781.488	0.0146779
781.566	0.0147471
781.644	0.0146555
781.722	0.0146359
781.800	0.0146136
781.878	0.0145179
781.956	0.0145240
782.035	0.0145284
782.113	0.0146061
782.191	0.0147256
782.269	0.0147956
782.347	0.0147341
782.425	0.0148135
782.503	0.0148108
782.581	0.0149028
782.660	0.0148076
782.738	0.0149429
782.816	0.0148720
782.894	0.0148718
782.972	0.0146757
783.050	0.0146640
783.128	0.0147498
783.206	0.0146810
783.285	0.0145812
783.363	0.0145693
783.441	0.0145358
783.519	0.0145734
783.597	0.0144915
783.675	0.0145367
783.753	0.0146993
783.831	0.0146754
783.910	0.0146301
783.988	0.0145588
784.066	0.0144912
784.144	0.0146790
784.222	0.0148404
784.300	0.0147729
784.378	0.0148706
784.456	0.0146811
784.535	0.0149643
784.613	0.0147747
784.691	0.0147723
784.769	0.0148605
784.847	0.0146910
784.925	0.0146254
785.003	0.0146635
785.081	0.0146964
785.160	0.0146646
785.238	0.0145531
785.316	0.0146046
785.394	0.0145679
785.472	0.0145141
785.550	0.0144440
785.628	0.0142847
785.706	0.0143060
785.785	0.0143013
785.863	0.0144088
785.941	0.0142661
786.019	0.0141475
786.097	0.0140266
786.175	0.0140633
786.253	0.0141389
786.331	0.0140145
786.410	0.0140691
786.488	0.0141024
786.566	0.0141763
786.644	0.0141294
786.722	0.0143134
786.800	0.0143867
786.878	0.0144604
786.956	0.0146449
787.035	0.0147653
787.113	0.0147899
787.191	0.0148392
787.269	0.0149784
787.347	0.0150861
787.425	0.0151410
787.503	0.0152079
787.581	0.0152908
787.660	0.0153653
787.738	0.0152409
787.816	0.0153347
787.894	0.0154307
787.972	0.0153784
788.050	0.0153520
788.128	0.0153717
788.206	0.0151999
788.285	0.0152689
788.363	0.0150906
788.441	0.0150425
788.519	0.0148705
788.597	0.0146857
788.675	0.0145366
788.753	0.0144786
788.831	0.0143502
788.910	0.0141918
788.988	0.0143230
789.066	0.0142246
789.144	0.0141254
789.222	0.0141923
789.300	0.0142040
789.378	0.0142439
789.456	0.0143606
789.535	0.0142279
789.613	0.0144067
789.691	0.0146275
789.769	0.0144352
789.847	0.0143514
789.925	0.0143961
790.003	0.0146238
790.081	0.0146346
790.160	0.0145299
790.238	0.0145396
790.316	0.0143387
790.394	0.0144742
790.472	0.0144879
790.550	0.0146024
790.628	0.0145818
790.706	0.0145817
790.785	0.0145929
790.863	0.0146117
790.941	0.0145789
791.019	0.0146097
791.097	0.0144452
791.175	0.0146519
791.253	0.0147193
791.331	0.0148297
791.410	0.0147337
791.488	0.0146815
791.566	0.0147385
791.644	0.0147997
791.722	0.0148903
791.800	0.0148439
791.878	0.0149689
791.956	0.0149926
792.035	0.0149515
792.113	0.0149315
792.191	0.0148062
792.269	0.0150349
792.347	0.0148308
792.425	0.0149481
792.503	0.0149043
792.581	0.0147194
792.660	0.0148015
792.738	0.0147202
792.816	0.0145608
792.894	0.0146937
792.972	0.0145192
793.050	0.0143784
793.128	0.0145401
793.206	0.0147317
793.285	0.0146413
793.363	0.0146394
793.441	0.0145785
793.519	0.0145924
793.597	0.0145367
793.675	0.0146030
793.753	0.0145853
793.831	0.0145152
793.910	0.0145245
793.988	0.0144760
794.066	0.0144334
794.144	0.0145686
794.222	0.0143713
794.300	0.0144601
794.378	0.0144395
794.456	0.0145100
794.535	0.0144860
794.613	0.0146065
794.691	0.0146854
794.769	0.0146848
794.847	0.0146807
794.925	0.0148039
795.003	0.0149843
795.081	0.0149115
795.160	0.0150182
795.238	0.0150439
795.316	0.0150080
795.394	0.0151373
795.472	0.0150711
795.550	0.0150502
795.628	0.0149987
795.706	0.0149546
795.785	0.0149132
795.863	0.0151115
795.941	0.0148367
796.019	0.0148459
796.097	0.0148839
796.175	0.0147915
796.253	0.0147009
796.331	0.0147054
796.410	0.0146315
796.488	0.0145957
796.566	0.0146194
796.644	0.0144690
796.722	0.0144414
796.800	0.0144601
796.878	0.0144945
796.956	0.0144633
797.035	0.0143858
797.113	0.0143066
797.191	0.0144002
797.269	0.0144148
797.347	0.0144476
797.425	0.0143116
797.503	0.0143543
797.581	0.0142689
797.660	0.0141509
797.738	0.0142905
797.816	0.0143527
797.894	0.0143037
797.972	0.0142701
798.050	0.0144314
798.128	0.0145093
798.206	0.0145470
798.285	0.0144404
798.363	0.0144194
798.441	0.0145285
798.519	0.0147322
798.597	0.0146214
798.675	0.0146796
798.753	0.0148054
798.831	0.0147780
798.910	0.0148438
798.988	0.0148414
799.066	0.0147625
799.144	0.0149075
799.222	0.0148414
799.300	0.0148051
799.378	0.0148698
799.456	0.0146938
799.535	0.0146592
799.613	0.0148215
799.691	0.0148182
799.769	0.0147413
799.847	0.0147696
799.925	0.0145835
800.003	0.0147150
800.081	0.0147247
800.160	0.0146156
800.238	0.0148511
800.316	0.0148287
800.394	0.0148749
800.472	0.0148750
800.550	0.0147765
800.628	0.0148878
800.706	0.0148543
800.785	0.0147060
800.863	0.0146473
800.941	0.0147153
801.019	0.0146374
801.097	0.0142459
801.175	0.0142641
801.253	0.0141348
801.331	0.0139991
801.410	0.0139819
801.488	0.0138011
801.566	0.0138314
801.644	0.0138612
801.722	0.0142563
801.800	0.0143367
801.878	0.0144466
801.956	0.0147905
802.035	0.0151459
802.113	0.0153347
802.191	0.0152898
802.269	0.0155524
802.347	0.0157573
802.425	0.0158355
802.503	0.0157589
802.581	0.0157319
802.660	0.0155521
802.738	0.0154442
802.816	0.0150784
802.894	0.0145678
802.972	0.0144233
803.050	0.0140681
803.128	0.0137208
803.206	0.0137206
803.285	0.0135134
803.363	0.0136525
803.441	0.0136262
803.519	0.0135819
803.597	0.0136340
803.675	0.0138885
803.753	0.0140134
803.831	0.0142528
803.910	0.0144594
803.988	0.0147272
804.066	0.0149048
804.144	0.0150975
804.222	0.0153028
804.300	0.0155830
804.378	0.0157490
804.456	0.0158640
804.535	0.0159591
804.613	0.0158565
804.691	0.0160241
804.769	0.0159574
804.847	0.0158974
804.925	0.0157099
805.003	0.0154836
805.081	0.0153164
805.160	0.0149687
805.238	0.0147003
805.316	0.0144070
805.394	0.0141740
805.472	0.0139169
805.550	0.0134982
805.628	0.0131802
805.706	0.0132030
805.785	0.0130784
805.863	0.0130189
805.941	0.0130087
806.019	0.0127382
806.097	0.0130606
806.175	0.0132016
806.253	0.0133238
806.331	0.0135055
806.410	0.0137152
806.488	0.0137677
806.566	0.0140530
806.644	0.0143993
806.722	0.0147470
806.800	0.0149891
806.878	0.0152692
806.956	0.0155660
807.035	0.0157156
807.113	0.0158028
807.191	0.0160045
807.269	0.0161224
807.347	0.0162268
807.425	0.0160126
807.503	0.0161192
807.581	0.0160781
807.660	0.0160350
807.738	0.0157516
807.816	0.0156893
807.894	0.0153898
807.972	0.0153693
808.050	0.0151596
808.128	0.0148653
808.206	0.0146085
808.285	0.0145467
808.363	0.0145052
808.441	0.0143608
808.519	0.0142894
808.597	0.0140647
808.675	0.0140208
808.753	0.0138923
808.831	0.0137608
808.910	0.0139115
808.988	0.0138378
809.066	0.0136512
809.144	0.0137457
809.222	0.0137604
809.300	0.0139582
809.378	0.0140634
809.456	0.0141418
809.535	0.0142212
809.613	0.0142867
809.691	0.0143684
809.769	0.0146285
809.847	0.0146770
809.925	0.0149178
810.003	0.0149732
810.081	0.0151074
810.160	0.0148946
810.238	0.0149366
810.316	0.0149737
810.394	0.0149903
810.472	0.0150117
810.550	0.0149612
810.628	0.0151547
810.706	0.0150370
810.785	0.0149459
810.863	0.0150669
810.941	0.0150439
811.019	0.0152509
811.097	0.0153008
811.175	0.0151802
811.253	0.0150082
811.331	0.0151456
811.410	0.0151905
811.488	0.0150542
811.566	0.0150270
811.644	0.0149306
811.722	0.0149023
811.800	0.0147353
811.878	0.0147344
811.956	0.0146587
812.035	0.0146243
812.113	0.0143953
812.191	0.0143926
812.269	0.0144497
812.347	0.0144035
812.425	0.0142595
812.503	0.0142780
812.581	0.0142813
812.660	0.0142554
812.738	0.0144112
812.816	0.0144401
812.894	0.0144208
812.972	0.0144408
813.050	0.0144007
813.128	0.0143479
813.206	0.0143421
813.285	0.0144077
813.363	0.0142846
813.441	0.0143076
813.519	0.0143139
813.597	0.0142067
813.675	0.0141718
813.753	0.0142778
813.831	0.0142501
813.910	0.0143413
813.988	0.0143475
814.066	0.0144247
814.144	0.0144707
814.222	0.0146172
814.300	0.0146065
814.378	0.0148257
814.456	0.0149933
814.535	0.0149117
814.613	0.0149487
814.691	0.0149532
814.769	0.0148272
814.847	0.0150872
814.925	0.0149596
815.003	0.0150009
815.081	0.0149859
815.160	0.0148563
815.238	0.0148920
815.316	0.0147852
815.394	0.0148715
815.472	0.0148616
815.550	0.0147134
815.628	0.0148090
815.706	0.0148074
815.785	0.0146835
815.863	0.0147508
815.941	0.0146040
816.019	0.0145090
816.097	0.0147401
816.175	0.0147002
816.253	0.0144324
816.331	0.0146795
816.410	0.0146192
816.488	0.0146920
816.566	0.0145100
816.644	0.0144682
816.722	0.0144418
816.800	0.0145033
816.878	0.0145133
816.956	0.0144405
817.035	0.0145280
817.113	0.0144426
817.191	0.0144870
817.269	0.0146700
817.347	0.0145840
817.425	0.0147533
817.503	0.0148217
817.581	0.0147615
817.660	0.0149607
817.738	0.0148966
817.816	0.0149277
817.894	0.0149063
817.972	0.0149206
818.050	0.0149833
818.128	0.0148890
818.206	0.0148322
818.285	0.0149012
818.363	0.0149118
818.441	0.0147906
818.519	0.0146827
818.597	0.0147834
818.675	0.0147603
818.753	0.0146919
818.831	0.0145186
818.910	0.0145693
818.988	0.0145456
819.066	0.0145899
819.144	0.0146048
819.222	0.0143871
819.300	0.0145210
819.378	0.0145492
819.456	0.0145663
819.535	0.0144771
819.613	0.0145449
819.691	0.0145710
819.769	0.0145088
819.847	0.0146232
819.925	0.0145892
820.003	0.0145074
820.081	0.0145975
820.160	0.0146883
820.238	0.0146591
820.316	0.0146948
820.394	0.0147120
820.472	0.0146963
820.550	0.0145345
820.628	0.0145659
820.706	0.0145938
820.785	0.0145676
820.863	0.0145948
820.941	0.0145986
821.019	0.0146049
821.097	0.0145520
821.175	0.0146377
821.253	0.0146976
821.331	0.0148076
821.410	0.0147937
821.488	0.0146462
821.566	0.0147614
821.644	0.0147736
821.722	0.0146565
821.800	0.0146840
821.878	0.0147639
821.956	0.0149010
822.035	0.0146802
822.113	0.0147903
822.191	0.0148064
822.269	0.0146643
822.347	0.0147670
822.425	0.0147683
822.503	0.0148546
822.581	0.0149040
822.660	0.0147897
822.738	0.0148382
822.816	0.0147501
822.894	0.0149000
822.972	0.0148456
823.050	0.0147986
823.128	0.0147806
823.206	0.0148463
823.285	0.0147875
823.363	0.0148838
823.441	0.0148120
823.519	0.0148232
823.597	0.0147881
823.675	0.0147285
823.753	0.0146359
823.831	0.0146795
823.910	0.0147486
823.988	0.0148053
824.066	0.0145216
824.144	0.0145722
824.222	0.0146558
824.300	0.0146261
824.378	0.0145197
824.456	0.0143539
824.535	0.0145264
824.613	0.0144908
824.691	0.0145242
824.769	0.0145155
824.847	0.0143435
824.925	0.0144907
825.003	0.0144621
825.081	0.0145056
825.160	0.0147626
825.238	0.0148410
825.316	0.0147911
825.394	0.0148905
825.472	0.0149464
825.550	0.0150838
825.628	0.0151529
825.706	0.0153028
825.785	0.0153717
825.863	0.0153175
825.941	0.0152940
826.019	0.0154554
826.097	0.0152484
826.175	0.0152374
826.253	0.0151920
826.331	0.0151627
826.410	0.0149786
826.488	0.0147823
826.566	0.0147709
826.644	0.0145327
826.722	0.0143981
826.800	0.0143300
826.878	0.0142268
826.956	0.0141300
827.035	0.0140770
827.113	0.0139810
827.191	0.0140352
827.269	0.0139840
827.347	0.0139930
827.425	0.0142000
827.503	0.0141185
827.581	0.0142850
827.660	0.0143184
827.738	0.0144389
827.816	0.0145426
827.894	0.0145461
827.972	0.0147723
828.050	0.0146672
828.128	0.0146527
828.206	0.0147021
828.285	0.0146354
828.363	0.0145603
828.441	0.0145574
828.519	0.0147266
828.597	0.0145761
828.675	0.0144673
828.753	0.0145387
828.831	0.0145788
828.910	0.0146050
828.988	0.0147363
829.066	0.0147563
829.144	0.0150774
829.222	0.0152557
829.300	0.0153795
829.378	0.0154634
829.456	0.0155359
829.535	0.0156340
829.613	0.0157245
829.691	0.0157458
829.769	0.0154821
829.847	0.0154555
829.925	0.0155465
830.003	0.0150734
830.081	0.0151402
830.160	0.0148959
830.238	0.0147856
830.316	0.0146700
830.394	0.0143874
830.472	0.0142172
830.550	0.0140455
830.628	0.0139115
830.706	0.0137875
830.785	0.0139349
830.863	0.0137200
830.941	0.0137467
831.019	0.0137979
831.097	0.0137290
831.175	0.0136189
831.253	0.0138939
831.331	0.0141277
831.410	0.0141240
831.488	0.0143208
831.566	0.0146639
831.644	0.0148104
831.722	0.0148058
831.800	0.0151524
831.878	0.0151347
831.956	0.0151720
832.035	0.0152774
832.113	0.0154871
832.191	0.0154422
832.269	0.0153717
832.347	0.0155018
832.425	0.0153500
832.503	0.0150840
832.581	0.0149519
832.660	0.0150283
832.738	0.0150035
832.816	0.0148175
832.894	0.0146198
832.972	0.0145966
833.050	0.0145251
833.128	0.0144146
833.206	0.0144511
833.285	0.0143901
833.363	0.0142941
833.441	0.0142962
833.519	0.0144831
833.597	0.0144266
833.675	0.0144269
833.753	0.0145136
833.831	0.0145528
833.910	0.0145725
833.988	0.0146660
834.066	0.0144849
834.144	0.0146561
834.222	0.0147035
834.300	0.0147549
834.378	0.0148276
834.456	0.0148337
834.535	0.0148959
834.613	0.0148376
834.691	0.0146543
834.769	0.0149023
834.847	0.0148615
834.925	0.0148739
835.003	0.0149988
835.081	0.0149058
835.160	0.0147706
835.238	0.0147652
835.316	0.0147743
835.394	0.0146119
835.472	0.0145586
835.550	0.0145740
835.628	0.0145185
835.706	0.0143562
835.785	0.0144809
835.863	0.0143993
835.941	0.0143730
836.019	0.0142649
836.097	0.0142657
836.175	0.0143531
836.253	0.0144071
836.331	0.0143555
836.410	0.0145107
836.488	0.0142696
836.566	0.0144189
836.644	0.0146629
836.722	0.0145372
836.800	0.0146674
836.878	0.0146072
836.956	0.0146954
837.035	0.0147433
837.113	0.0148067
837.191	0.0150365
837.269	0.0149529
837.347	0.0149737
837.425	0.0151034
837.503	0.0152992
837.581	0.0151883
837.660	0.0151659
837.738	0.0152966
837.816	0.0153406
837.894	0.0152941
837.972	0.0152628
838.050	0.0152699
838.128	0.0151510
838.206	0.0149968
838.285	0.0150237
838.363	0.0149475
838.441	0.0148157
838.519	0.0148355
838.597	0.0146280
838.675	0.0145448
838.753	0.0145698
838.831	0.0142487
838.910	0.0142471
838.988	0.0142054
839.066	0.0141190
839.144	0.0141031
839.222	0.0138769
839.300	0.0137766
839.378	0.0138615
839.456	0.0139474
839.535	0.0140915
839.613	0.0139510
839.691	0.0139402
839.769	0.0139725
839.847	0.0140633
839.925	0.0142582
840.003	0.0142296
840.081	0.0143363
840.160	0.0143333
840.238	0.0145795
840.316	0.0147384
840.394	0.0146407
840.472	0.0148460
840.550	0.0148785
840.628	0.0149442
840.706	0.0151038
840.785	0.0151293
840.863	0.0152945
840.941	0.0152264
841.019	0.0152519
841.097	0.0153957
841.175	0.0154563
841.253	0.0153341
841.331	0.0153345
841.410	0.0151859
841.488	0.0152394
841.566	0.0150380
841.644	0.0150171
841.722	0.0148161
841.800	0.0147351
841.878	0.0146246
841.956	0.0145060
842.035	0.0144656
842.113	0.0143752
842.191	0.0142653
842.269	0.0141435
842.347	0.0142255
842.425	0.0142088
842.503	0.0143124
842.581	0.0140151
842.660	0.0139577
842.738	0.0139691
842.816	0.0139458
842.894	0.0140022
842.972	0.0143307
843.050	0.0143697
843.128	0.0143610
843.206	0.0143501
843.285	0.0144234
843.363	0.0146436
843.441	0.0147559
843.519	0.0147849
843.597	0.0148121
843.675	0.0148858
843.753	0.0149473
843.831	0.0149277
843.910	0.0150075
843.988	0.0150493
844.066	0.0149374
844.144	0.0149634
844.222	0.0149493
844.300	0.0148819
844.378	0.0149662
844.456	0.0148597
844.535	0.0149780
844.613	0.0149815
844.691	0.0149313
844.769	0.0151215
844.847	0.0149165
844.925	0.0149815
845.003	0.0149330
845.081	0.0149660
845.160	0.0148452
845.238	0.0147657
845.316	0.0146661
845.394	0.0145814
845.472	0.0146584
845.550	0.0143903
845.628	0.0145004
845.706	0.0145364
845.785	0.0146207
845.863	0.0145546
845.941	0.0146685
846.019	0.0146770
846.097	0.0146722
846.175	0.0146831
846.253	0.0146932
846.331	0.0146634
846.410	0.0146011
846.488	0.0145796
846.566	0.0146449
846.644	0.0145309
846.722	0.0146013
846.800	0.0145692
846.878	0.0145761
846.956	0.0145423
847.035	0.0144576
847.113	0.0145226
847.191	0.0145113
847.269	0.0144118
847.347	0.0145444
847.425	0.0144249
847.503	0.0144592
847.581	0.0144810
847.660	0.0144681
847.738	0.0144514
847.816	0.0145043
847.894	0.0145371
847.972	0.0145554
848.050	0.0144937
848.128	0.0147620
848.206	0.0147083
848.285	0.0147731
848.363	0.0149513
848.441	0.0148633
848.519	0.0150462
848.597	0.0150721
848.675	0.0151326
848.753	0.0151835
848.831	0.0150342
848.910	0.0153011
848.988	0.0151538
849.066	0.0152061
849.144	0.0152543
849.222	0.0150048
849.300	0.0149873
849.378	0.0148909
849.456	0.0148790
849.535	0.0147861
849.613	0.0145534
849.691	0.0145500
849.769	0.0146354
849.847	0.0146359
849.925	0.0144336
850.003	0.0142656
850.081	0.0141656
850.160	0.0142868
850.238	0.0142613
850.316	0.0142509
850.394	0.0141411
850.472	0.0142764
850.550	0.0141546
850.628	0.0141715
850.706	0.0144580
850.785	0.0144285
850.863	0.0143911
850.941	0.0145383
851.019	0.0146689
851.097	0.0146632
851.175	0.0147686
851.253	0.0148131
851.331	0.0149133
851.410	0.0150045
851.488	0.0149559
851.566	0.0149465
851.644	0.0148615
851.722	0.0148994
851.800	0.0148987
851.878	0.0149361
851.956	0.0149899
852.035	0.0149118
852.113	0.0149335
852.191	0.0150780
852.269	0.0150134
852.347	0.0150674
852.425	0.0151252
852.503	0.0151096
852.581	0.0150534
852.660	0.0149620
852.738	0.0150603
852.816	0.0149358
852.894	0.0149150
852.972	0.0148820
853.050	0.0147278
853.128	0.0147435
853.206	0.0147078
853.285	0.0146894
853.363	0.0145669
853.441	0.0144506
853.519	0.0144327
853.597	0.0145194
853.675	0.0144197
853.753	0.0144670
853.831	0.0144022
853.910	0.0144010
853.988	0.0145678
854.066	0.0145094
854.144	0.0144395
854.222	0.0146294
854.300	0.0146270
854.378	0.0146474
854.456	0.0147392
854.535	0.0147672
854.613	0.0146485
854.691	0.0147782
854.769	0.0148433
854.847	0.0146159
854.925	0.0147803
855.003	0.0148199
855.081	0.0147894
855.160	0.0148211
855.238	0.0148864
855.316	0.0147769
855.394	0.0149121
855.472	0.0147487
855.550	0.0148252
855.628	0.0147211
855.706	0.0148392
855.785	0.0146033
855.863	0.0145587
855.941	0.0145589
856.019	0.0146246
856.097	0.0143871
856.175	0.0145073
856.253	0.0144101
856.331	0.0144418
856.410	0.0144444
856.488	0.0144425
856.566	0.0145475
856.644	0.0145307
856.722	0.0145609
856.800	0.0146093
856.878	0.0147264
856.956	0.0147398
857.035	0.0146988
857.113	0.0147772
857.191	0.0147949
857.269	0.0147816
857.347	0.0148115
857.425	0.0149149
857.503	0.0148692
857.581	0.0148934
857.660	0.0147505
857.738	0.0146098
857.816	0.0147163
857.894	0.0147172
857.972	0.0147528
858.050	0.0147279
858.128	0.0146209
858.206	0.0146320
858.285	0.0145927
858.363	0.0146053
858.441	0.0145862
858.519	0.0143980
858.597	0.0144896
858.675	0.0144466
858.753	0.0144468
858.831	0.0144473
858.910	0.0144566
858.988	0.0146617
859.066	0.0144982
859.144	0.0145385
859.222	0.0146545
859.300	0.0146697
859.378	0.0146685
859.456	0.0146668
859.535	0.0145758
859.613	0.0145599
859.691	0.0145358
859.769	0.0145885
859.847	0.0146760
859.925	0.0146555
860.003	0.0146405
860.081	0.0146995
860.160	0.0147617
860.238	0.0146552
860.316	0.0145585
860.394	0.0145805
860.472	0.0145678
860.550	0.0146085
860.628	0.0145983
860.706	0.0146628
860.785	0.0147720
860.863	0.0146693
860.941	0.0146337
861.019	0.0146072
861.097	0.0146515
861.175	0.0146072
861.253	0.0147323
861.331	0.0147949
861.410	0.0146428
861.488	0.0147388
861.566	0.0146150
861.644	0.0148923
861.722	0.0147302
861.800	0.0147021
861.878	0.0147134
861.956	0.0146750
862.035	0.0145491
862.113	0.0145655
862.191	0.0146669
862.269	0.0146795
862.347	0.0146471
862.425	0.0145256
862.503	0.0145544
862.581	0.0144749
862.660	0.0144571
862.738	0.0145086
862.816	0.0144554
862.894	0.0143763
862.972	0.0145885
863.050	0.0145532
863.128	0.0144417
863.206	0.0145440
863.285	0.0146405
863.363	0.0145597
863.441	0.0147858
863.519	0.0146729
863.597	0.0147612
863.675	0.0146790
863.753	0.0148080
863.831	0.0147813
863.910	0.0146452
863.988	0.0146790
864.066	0.0146247
864.144	0.0146058
864.222	0.0145566
864.300	0.0145020
864.378	0.0144405
864.456	0.0144357
864.535	0.0143790
864.613	0.0146241
864.691	0.0145264
864.769	0.0144887
864.847	0.0144466
864.925	0.0144462
865.003	0.0144329
865.081	0.0146251
865.160	0.0146709
865.238	0.0147137
865.316	0.0146766
865.394	0.0147816
865.472	0.0148824
865.550	0.0147867
865.628	0.0148679
865.706	0.0147369
865.785	0.0146652
865.863	0.0146857
865.941	0.0146323
866.019	0.0145213
866.097	0.0145452
866.175	0.0144751
866.253	0.0143164
866.331	0.0142255
866.410	0.0141431
866.488	0.0141740
866.566	0.0142456
866.644	0.0141584
866.722	0.0141524
866.800	0.0142933
866.878	0.0142467
866.956	0.0141884
867.035	0.0143840
867.113	0.0146205
867.191	0.0146268
867.269	0.0146145
867.347	0.0148726
867.425	0.0148438
867.503	0.0149857
867.581	0.0149535
867.660	0.0150729
867.738	0.0149741
867.816	0.0150299
867.894	0.0150040
867.972	0.0149776
868.050	0.0150200
868.128	0.0148785
868.206	0.0149651
868.285	0.0146856
868.363	0.0146664
868.441	0.0145926
868.519	0.0146040
868.597	0.0146105
868.675	0.0146549
868.753	0.0144506
868.831	0.0145965
868.910	0.0145872
868.988	0.0148502
869.066	0.0146833
869.144	0.0146308
869.222	0.0148953
869.300	0.0150150
869.378	0.0149111
869.456	0.0147681
869.535	0.0149952
869.613	0.0149847
869.691	0.0149210
869.769	0.0149385
869.847	0.0148743
869.925	0.0149519
870.003	0.0149635
870.081	0.0148013
870.160	0.0146705
870.238	0.0146548
870.316	0.0146284
870.394	0.0146845
870.472	0.0145856
870.550	0.0145137
870.628	0.0144810
870.706	0.0146204
870.785	0.0145284
870.863	0.0142799
870.941	0.0143907
871.019	0.0143085
871.097	0.0143456
871.175	0.0142193
871.253	0.0140998
871.331	0.0143576
871.410	0.0142979
871.488	0.0143838
871.566	0.0143865
871.644	0.0143431
871.722	0.0143170
871.800	0.0145250
871.878	0.0147913
871.956	0.0146503
872.035	0.0145370
872.113	0.0145753
872.191	0.0147510
872.269	0.0148304
872.347	0.0147571
872.425	0.0147806
872.503	0.0147938
872.581	0.0147580
872.660	0.0148224
872.738	0.0148964
872.816	0.0148743
872.894	0.0147446
872.972	0.0147298
873.050	0.0146211
873.128	0.0147921
873.206	0.0147254
873.285	0.0145609
873.363	0.0146524
873.441	0.0147362
873.519	0.0145612
873.597	0.0146209
873.675	0.0145570
873.753	0.0146593
873.831	0.0147597
873.910	0.0145981
873.988	0.0147043
874.066	0.0146967
874.144	0.0148048
874.222	0.0147705
874.300	0.0148041
874.378	0.0147999
874.456	0.0147110
874.535	0.0148073
874.613	0.0147242
874.691	0.0146321
874.769	0.0145596
874.847	0.0146152
874.925	0.0147451
875.003	0.0144675
875.081	0.0145640
875.160	0.0147142
875.238	0.0145214
875.316	0.0144653
875.394	0.0146780
875.472	0.0146085
875.550	0.0144511
875.628	0.0145559
875.706	0.0145882
875.785	0.0144827
875.863	0.0144231
875.941	0.0145316
876.019	0.0145352
876.097	0.0147762
876.175	0.0146694
876.253	0.0146315
876.331	0.0146861
876.410	0.0146773
876.488	0.0146665
876.566	0.0146193
876.644	0.0147586
876.722	0.0146622
876.800	0.0145649
876.878	0.0145435
876.956	0.0147082
877.035	0.0148088
877.113	0.0144796
877.191	0.0145903
877.269	0.0145991
877.347	0.0145666
877.425	0.0146710
877.503	0.0145908
877.581	0.0147024
877.660	0.0147135
877.738	0.0145014
877.816	0.0146242
877.894	0.0146896
877.972	0.0146808
878.050	0.0145161
878.128	0.0145461
878.206	0.0146342
878.285	0.0145107
878.363	0.0144620
878.441	0.0145393
878.519	0.0144131
878.597	0.0145694
878.675	0.0144838
878.753	0.0143898
878.831	0.0145144
878.910	0.0146516
878.988	0.0146118
879.066	0.0143575
879.144	0.0145200
879.222	0.0145676
879.300	0.0144995
879.378	0.0146667
879.456	0.0146852
879.535	0.0145573
879.613	0.0147043
879.691	0.0146232
879.769	0.0146844
879.847	0.0148123
879.925	0.0146304
880.003	0.0147358
880.081	0.0147339
880.160	0.0148176
880.238	0.0148477
880.316	0.0148864
880.394	0.0147892
880.472	0.0148096
880.550	0.0149856
880.628	0.0148602
880.706	0.0148100
880.785	0.0148616
880.863	0.0149151
880.941	0.0149684
881.019	0.0147382
881.097	0.0148815
881.175	0.0147537
881.253	0.0147414
881.331	0.0147626
881.410	0.0146057
881.488	0.0146120
881.566	0.0147068
881.644	0.0146953
881.722	0.0146177
881.800	0.0147694
881.878	0.0147808
881.956	0.0146326
882.035	0.0146687
882.113	0.0145210
882.191	0.0146043
882.269	0.0147887
882.347	0.0148145
882.425	0.0147286
882.503	0.0146585
882.581	0.0146693
882.660	0.0145530
882.738	0.0145919
882.816	0.0146265
882.894	0.0144952
882.972	0.0144035
883.050	0.0143658
883.128	0.0143698
883.206	0.0143980
883.285	0.0144720
883.363	0.0144892
883.441	0.0144036
883.519	0.0144875
883.597	0.0144682
883.675	0.0145994
883.753	0.0145961
883.831	0.0146703
883.910	0.0146387
883.988	0.0147844
884.066	0.0148260
884.144	0.0147848
884.222	0.0148833
884.300	0.0147083
884.378	0.0148405
884.456	0.0147530
884.535	0.0148338
884.613	0.0149279
884.691	0.0147633
884.769	0.0146633
884.847	0.0148692
884.925	0.0148994
885.003	0.0148440
885.081	0.0147718
885.160	0.0147984
885.238	0.0148160
885.316	0.0148268
885.394	0.0148249
885.472	0.0148115
885.550	0.0148273
885.628	0.0146459
885.706	0.0145741
885.785	0.0145504
885.863	0.0146690
885.941	0.0146245
886.019	0.0145387
886.097	0.0144328
886.175	0.0144930
886.253	0.0144109
886.331	0.0143940
886.410	0.0145127
886.488	0.0143817
886.566	0.0145200
886.644	0.0145024
886.722	0.0145269
886.800	0.0145827
886.878	0.0146391
886.956	0.0143929
887.035	0.0146519
887.113	0.0147086
887.191	0.0145806
887.269	0.0147778
887.347	0.0147938
887.425	0.0146716
887.503	0.0148252
887.581	0.0147924
887.660	0.0146741
887.738	0.0147661
887.816	0.0146025
887.894	0.0146442
887.972	0.0148502
888.050	0.0147188
888.128	0.0146290
888.206	0.0146993
888.285	0.0146886
888.363	0.0147099
888.441	0.0146875
888.519	0.0146246
888.597	0.0147245
888.675	0.0146948
888.753	0.0145197
888.831	0.0146439
888.910	0.0146033
888.988	0.0145499
889.066	0.0147499
889.144	0.0145794
889.222	0.0146532
889.300	0.0145658
889.378	0.0145612
889.456	0.0146560
889.535	0.0145422
889.613	0.0145816
889.691	0.0146616
889.769	0.0146334
889.847	0.0146344
889.925	0.0148132
890.003	0.0148887
890.081	0.0148765
890.160	0.0149956
890.238	0.0148208
890.316	0.0148468
890.394	0.0147962
890.472	0.0148772
890.550	0.0146905
890.628	0.0146011
890.706	0.0145892
890.785	0.0144293
890.863	0.0145546
890.941	0.0144680
891.019	0.0144704
891.097	0.0144038
891.175	0.0144975
891.253	0.0143584
891.331	0.0144617
891.410	0.0145462
891.488	0.0146471
891.566	0.0147244
891.644	0.0146325
891.722	0.0147871
891.800	0.0146710
891.878	0.0145288
891.956	0.0147416
892.035	0.0148177
892.113	0.0146276
892.191	0.0146037
892.269	0.0146552
892.347	0.0146008
892.425	0.0146476
892.503	0.0145265
892.581	0.0146284
892.660	0.0145138
892.738	0.0144716
892.816	0.0143380
892.894	0.0144794
892.972	0.0145954
893.050	0.0145280
893.128	0.0143519
893.206	0.0147495
893.285	0.0148114
893.363	0.0148281
893.441	0.0148411
893.519	0.0147756
893.597	0.0147702
893.675	0.0148374
893.753	0.0147448
893.831	0.0146608
893.910	0.0147639
893.988	0.0147285
894.066	0.0146493
894.144	0.0144950
894.222	0.0146268
894.300	0.0145967
894.378	0.0146263
894.456	0.0146369
894.535	0.0146608
894.613	0.0148174
894.691	0.0146880
894.769	0.0147682
894.847	0.0148337
894.925	0.0148656
895.003	0.0149472
895.081	0.0148328
895.160	0.0147625
895.238	0.0146430
895.316	0.0146320
895.394	0.0147002
895.472	0.0146069
895.550	0.0145952
895.628	0.0144478
895.706	0.0142381
895.785	0.0144884
895.863	0.0143553
895.941	0.0143582
896.019	0.0143124
896.097	0.0144614
896.175	0.0145116
896.253	0.0146206
896.331	0.0146627
896.410	0.0148904
896.488	0.0149930
896.566	0.0150613
896.644	0.0150095
896.722	0.0151212
896.800	0.0149973
896.878	0.0148804
896.956	0.0147739
897.035	0.0146446
897.113	0.0144803
897.191	0.0143551
897.269	0.0142423
897.347	0.0142248
897.425	0.0143932
897.503	0.0143961
897.581	0.0145474
897.660	0.0146503
897.738	0.0149276
897.816	0.0153805
897.894	0.0155672
897.972	0.0157159
898.050	0.0158270
898.128	0.0158990
898.206	0.0156139
898.285	0.0154501
898.363	0.0150027
898.441	0.0146835
898.519	0.0141331
898.597	0.0135648
898.675	0.0130644
898.753	0.0128111
898.831	0.0127474
898.910	0.0127778
898.988	0.0128854
899.066	0.0133472
899.144	0.0138048
899.222	0.0142529
899.300	0.0147994
899.378	0.0154517
899.456	0.0159941
899.535	0.0163555
899.613	0.0165363
899.691	0.0167233
899.769	0.0168196
899.847	0.0168459
899.925	0.0165896
900.003	0.0161709
900.081	0.0158760
900.160	0.0156389
900.238	0.0152079
900.316	0.0149040
900.394	0.0145325
900.472	0.0139588
900.550	0.0137222
900.628	0.0130723
900.706	0.0128422
900.785	0.0125507
900.863	0.0124101
900.941	0.0123573
901.019	0.0122215
901.097	0.0124976
901.175	0.0127927
901.253	0.0132373
901.331	0.0135967
901.410	0.0142532
901.488	0.0146566
901.566	0.0151609
901.644	0.0157408
901.722	0.0160891
901.800	0.0163921
901.878	0.0166150
901.956	0.0167645
902.035	0.0169703
902.113	0.0167876
902.191	0.0168604
902.269	0.0168627
902.347	0.0166597
902.425	0.0164889
902.503	0.0162260
902.581	0.0157476
902.660	0.0154745
902.738	0.0151236
902.816	0.0147453
902.894	0.0143655
902.972	0.0139854
903.050	0.0135935
903.128	0.0133483
903.206	0.0128896
903.285	0.0127003
903.363	0.0125101
903.441	0.0124664
903.519	0.0124493
903.597	0.0124488
903.675	0.0125839
903.753	0.0129107
903.831	0.0129665
903.910	0.0133668
903.988	0.0136985
904.066	0.0141067
904.144	0.0143716
904.222	0.0147295
904.300	0.0151071
904.378	0.0151913
904.456	0.0155269
904.535	0.0157311
904.613	0.0159899
904.691	0.0162922
904.769	0.0163519
904.847	0.0164591
904.925	0.0167273
905.003	0.0165732
905.081	0.0167098
905.160	0.0164730
905.238	0.0165160
905.316	0.0162233
905.394	0.0160854
905.472	0.0158723
905.550	0.0154881
905.628	0.0151469
905.706	0.0148109
905.785	0.0145024
905.863	0.0143562
905.941	0.0140411
906.019	0.0138523
906.097	0.0135479
906.175	0.0135663
906.253	0.0134520
906.331	0.0132711
906.410	0.0133497
906.488	0.0133214
906.566	0.0133691
906.644	0.0133606
906.722	0.0134671
906.800	0.0135298
906.878	0.0136856
906.956	0.0136680
907.035	0.0139374
907.113	0.0140457
907.191	0.0141231
907.269	0.0143338
907.347	0.0145087
907.425	0.0147081
907.503	0.0148606
907.581	0.0150110
907.660	0.0150745
907.738	0.0152770
907.816	0.0153882
907.894	0.0155509
907.972	0.0155979
908.050	0.0156815
908.128	0.0157771
908.206	0.0158130
908.285	0.0158065
908.363	0.0157082
908.441	0.0155763
908.519	0.0154613
908.597	0.0154119
908.675	0.0151848
908.753	0.0151118
908.831	0.0149397
908.910	0.0148227
908.988	0.0146281
909.066	0.0144129
909.144	0.0142213
909.222	0.0141282
909.300	0.0140849
909.378	0.0140474
909.456	0.0139663
909.535	0.0138644
909.613	0.0138307
909.691	0.0139057
909.769	0.0139082
909.847	0.0140438
909.925	0.0141927
910.003	0.0143716
910.081	0.0143211
910.160	0.0144625
910.238	0.0145119
910.316	0.0145088
910.394	0.0146842
910.472	0.0147016
910.550	0.0146365
910.628	0.0147047
910.706	0.0145994
910.785	0.0146578
910.863	0.0146270
910.941	0.0147336
911.019	0.0147124
911.097	0.0148454
911.175	0.0149055
911.253	0.0149221
911.331	0.0152228
911.410	0.0150777
911.488	0.0152335
911.566	0.0152000
911.644	0.0150939
911.722	0.0150460
911.800	0.0152558
911.878	0.0150202
911.956	0.0149165
912.035	0.0148219
912.113	0.0146165
912.191	0.0146980
912.269	0.0144826
912.347	0.0146832
912.425	0.0146550
912.503	0.0145810
912.581	0.0147054
912.660	0.0148194
912.738	0.0147868
912.816	0.0147922
912.894	0.0149761
912.972	0.0150358
913.050	0.0150007
913.128	0.0148984
913.206	0.0148853
913.285	0.0149889
913.363	0.0149370
913.441	0.0148531
913.519	0.0149702
913.597	0.0147440
913.675	0.0146935
913.753	0.0145155
913.831	0.0146654
913.910	0.0144098
913.988	0.0144034
914.066	0.0144646
914.144	0.0143683
914.222	0.0142809
914.300	0.0141537
914.378	0.0142141
914.456	0.0142191
914.535	0.0143406
914.613	0.0142384
914.691	0.0143239
914.769	0.0145057
914.847	0.0145364
914.925	0.0145706
915.003	0.0146529
915.081	0.0146581
915.160	0.0146993
915.238	0.0148315
915.316	0.0147224
915.394	0.0147564
915.472	0.0148139
915.550	0.0147879
915.628	0.0145651
915.706	0.0146600
915.785	0.0144951
915.863	0.0143971
915.941	0.0145002
916.019	0.0145450
916.097	0.0145138
916.175	0.0145197
916.253	0.0144976
916.331	0.0146557
916.410	0.0146613
916.488	0.0146889
916.566	0.0148202
916.644	0.0146960
916.722	0.0147770
916.800	0.0148494
916.878	0.0149509
916.956	0.0149850
917.035	0.0149728
917.113	0.0149686
917.191	0.0148785
917.269	0.0149325
917.347	0.0148796
917.425	0.0147034
917.503	0.0146468
917.581	0.0146544
917.660	0.0146235
917.738	0.0146358
917.816	0.0145563
917.894	0.0145773
917.972	0.0145763
918.050	0.0145184
918.128	0.0145111
918.206	0.0146703
918.285	0.0143404
918.363	0.0144597
918.441	0.0145638
918.519	0.0145165
918.597	0.0144344
918.675	0.0144060
918.753	0.0144735
918.831	0.0144182
918.910	0.0145094
918.988	0.0146031
919.066	0.0145453
919.144	0.0145464
919.222	0.0146723
919.300	0.0148968
919.378	0.0145740
919.456	0.0145975
919.535	0.0147321
919.613	0.0147219
919.691	0.0148176
919.769	0.0146810
919.847	0.0148607
919.925	0.0148970
920.003	0.0149155
920.081	0.0150446
920.160	0.0148473
920.238	0.0150581
920.316	0.0150890
920.394	0.0150581
920.472	0.0152345
920.550	0.0151753
920.628	0.0150956
920.706	0.0152939
920.785	0.0152206
920.863	0.0151313
920.941	0.0151131
921.019	0.0151012
921.097	0.0150570
921.175	0.0149365
921.253	0.0149746
921.331	0.0149201
921.410	0.0148882
921.488	0.0149093
921.566	0.0148093
921.644	0.0147680
921.722	0.0145937
921.800	0.0144685
921.878	0.0146545
921.956	0.0144454
922.035	0.0145256
922.113	0.0145961
922.191	0.0145065
922.269	0.0144621
922.347	0.0143155
922.425	0.0144003
922.503	0.0144019
922.581	0.0145279
922.660	0.0145011
922.738	0.0145177
922.816	0.0145081
922.894	0.0146770
922.972	0.0146309
923.050	0.0146248
923.128	0.0147201
923.206	0.0147606
923.285	0.0145976
923.363	0.0148121
923.441	0.0148518
923.519	0.0147119
923.597	0.0149400
923.675	0.0148023
923.753	0.0149218
923.831	0.0149200
923.910	0.0147569
923.988	0.0148553
924.066	0.0148627
924.144	0.0145988
924.222	0.0146395
924.300	0.0148065
924.378	0.0147423
924.456	0.0147149
924.535	0.0147029
924.613	0.0147128
924.691	0.0147871
924.769	0.0146483
924.847	0.0147359
924.925	0.0148455
925.003	0.0149387
925.081	0.0149730
925.160	0.0149850
925.238	0.0148526
925.316	0.0147824
925.394	0.0148416
925.472	0.0147514
925.550	0.0150185
925.628	0.0148623
925.706	0.0146147
925.785	0.0147520
925.863	0.0146841
925.941	0.0147037
926.019	0.0148589
926.097	0.0148618
926.175	0.0149033
926.253	0.0148158
926.331	0.0148747
926.410	0.0149853
926.488	0.0149900
926.566	0.0149661
926.644	0.0150906
926.722	0.0149243
926.800	0.0149007
926.878	0.0148697
926.956	0.0148653
927.035	0.0147630
927.113	0.0146716
927.191	0.0146794
927.269	0.0144673
927.347	0.0145486
927.425	0.0145155
927.503	0.0145516
927.581	0.0145153
927.660	0.0145186
927.738	0.0145042
927.816	0.0145512
927.894	0.0144688
927.972	0.0146117
928.050	0.0146084
928.128	0.0145259
928.206	0.0145351
928.285	0.0144372
928.363	0.0144300
928.441	0.0144865
928.519	0.0144331
928.597	0.0145806
928.675	0.0144639
928.753	0.0144673
928.831	0.0145509
928.910	0.0145176
928.988	0.0147058
929.066	0.0147546
929.144	0.0148546
929.222	0.0148106
929.300	0.0147614
929.378	0.0148385
929.456	0.0148628
929.535	0.0148097
929.613	0.0148179
929.691	0.0148736
929.769	0.0147999
929.847	0.0148842
929.925	0.0147057
930.003	0.0147306
930.081	0.0147116
930.160	0.0147816
930.238	0.0146456
930.316	0.0147271
930.394	0.0146037
930.472	0.0144678
930.550	0.0144402
930.628	0.0144950
930.706	0.0145954
930.785	0.0146191
930.863	0.0145697
930.941	0.0146593
931.019	0.0145544
931.097	0.0146474
931.175	0.0148743
931.253	0.0147783
931.331	0.0147636
931.410	0.0149073
931.488	0.0150171
931.566	0.0149557
931.644	0.0149327
931.722	0.0150842
931.800	0.0149371
931.878	0.0150251
931.956	0.0149262
932.035	0.0147237
932.113	0.0147622
932.191	0.0147143
932.269	0.0148490
932.347	0.0147620
932.425	0.0146822
932.503	0.0144133
932.581	0.0144431
932.660	0.0145340
932.738	0.0144180
932.816	0.0144531
932.894	0.0144842
932.972	0.0143128
933.050	0.0144187
933.128	0.0143692
933.206	0.0143930
933.285	0.0145288
933.363	0.0144909
933.441	0.0144047
933.519	0.0145073
933.597	0.0143205
933.675	0.0146188
933.753	0.0146971
933.831	0.0146455
933.910	0.0147918
933.988	0.0148163
934.066	0.0147406
934.144	0.0149486
934.222	0.0150702
934.300	0.0150537
934.378	0.0151136
934.456	0.0152747
934.535	0.0151474
934.613	0.0151674
934.691	0.0152172
934.769	0.0152196
934.847	0.0150909
934.925	0.0150708
935.003	0.0150305
935.081	0.0150558
935.160	0.0149108
935.238	0.0148412
935.316	0.0148382
935.394	0.0147841
935.472	0.0146895
935.550	0.0145489
935.628	0.0145450
935.706	0.0145492
935.785	0.0143531
935.863	0.0143501
935.941	0.0144679
936.019	0.0143956
936.097	0.0143375
936.175	0.0142838
936.253	0.0144324
936.331	0.0143778
936.410	0.0143890
936.488	0.0142804
936.566	0.0143875
936.644	0.0143781
936.722	0.0143245
936.800	0.0144277
936.878	0.0144971
936.956	0.0144504
937.035	0.0145599
937.113	0.0144721
937.191	0.0145675
937.269	0.0144935
937.347	0.0146292
937.425	0.0146790
937.503	0.0146859
937.581	0.0147187
937.660	0.0148346
937.738	0.0147828
937.816	0.0146371
937.894	0.0147762
937.972	0.0147829
938.050	0.0145830
938.128	0.0147042
938.206	0.0146936
938.285	0.0147585
938.363	0.0149117
938.441	0.0148546
938.519	0.0146757
938.597	0.0147290
938.675	0.0147797
938.753	0.0145852
938.831	0.0145188
938.910	0.0146022
938.988	0.0146306
939.066	0.0145405
939.144	0.0145995
939.222	0.0145524
939.300	0.0145670
939.378	0.0145515
939.456	0.0145847
939.535	0.0147936
939.613	0.0145257
939.691	0.0147993
939.769	0.0148112
939.847	0.0148472
939.925	0.0148497
940.003	0.0148764
940.081	0.0148919
940.160	0.0149534
940.238	0.0148779
940.316	0.0148306
940.394	0.0147955
940.472	0.0148835
940.550	0.0148451
940.628	0.0148033
940.706	0.0149094
940.785	0.0149352
940.863	0.0147285
940.941	0.0147808
941.019	0.0148492
941.097	0.0147651
941.175	0.0145724
941.253	0.0147784
941.331	0.0147425
941.410	0.0146502
941.488	0.0147282
941.566	0.0146761
941.644	0.0147195
941.722	0.0146985
941.800	0.0147378
941.878	0.0146171
941.956	0.0147260
942.035	0.0147375
942.113	0.0147498
942.191	0.0146861
942.269	0.0147798
942.347	0.0148042
942.425	0.0147082
942.503	0.0147634
942.581	0.0148248
942.660	0.0148015
942.738	0.0147306
942.816	0.0147849
942.894	0.0146085
942.972	0.0145641
943.050	0.0146691
943.128	0.0145025
943.206	0.0144391
943.285	0.0143427
943.363	0.0143711
943.441	0.0142664
943.519	0.0143491
943.597	0.0143410
943.675	0.0142957
943.753	0.0144222
943.831	0.0143938
943.910	0.0144860
943.988	0.0145441
944.066	0.0145657
944.144	0.0145242
944.222	0.0146548
944.300	0.0146584
944.378	0.0145593
944.456	0.0146277
944.535	0.0145821
944.613	0.0146095
944.691	0.0145555
944.769	0.0145142
944.847	0.0146230
944.925	0.0147241
945.003	0.0146968
945.081	0.0147263
945.160	0.0146100
945.238	0.0146709
945.316	0.0146952
945.394	0.0146426
945.472	0.0147642
945.550	0.0145025
945.628	0.0146463
945.706	0.0146515
945.785	0.0146642
945.863	0.0146577
945.941	0.0146398
946.019	0.0147593
946.097	0.0148998
946.175	0.0148963
946.253	0.0148612
946.331	0.0150133
946.410	0.0150228
946.488	0.0149973
946.566	0.0151102
946.644	0.0152052
946.722	0.0151167
946.800	0.0149797
946.878	0.0150790
946.956	0.0150927
947.035	0.0150233
947.113	0.0149643
947.191	0.0148757
947.269	0.0147605
947.347	0.0146889
947.425	0.0145789
947.503	0.0145552
947.581	0.0144931
947.660	0.0143646
947.738	0.0143890
947.816	0.0144069
947.894	0.0141877
947.972	0.0141766
948.050	0.0141961
948.128	0.0141682
948.206	0.0142640
948.285	0.0140493
948.363	0.0141196
948.441	0.0141725
948.519	0.0140923
948.597	0.0141673
948.675	0.0141576
948.753	0.0141080
948.831	0.0142819
948.910	0.0142796
948.988	0.0143018
949.066	0.0145081
949.144	0.0146070
949.222	0.0145816
949.300	0.0146679
949.378	0.0146666
949.456	0.0146844
949.535	0.0147354
949.613	0.0148587
949.691	0.0149369
949.769	0.0147799
949.847	0.0149280
949.925	0.0148730
950.003	0.0148776
950.081	0.0149884
950.160	0.0148824
950.238	0.0149371
950.316	0.0150763
950.394	0.0149005
950.472	0.0148574
950.550	0.0149601
950.628	0.0148564
950.706	0.0148884
950.785	0.0147650
950.863	0.0149694
950.941	0.0148338
951.019	0.0148836
951.097	0.0147987
951.175	0.0148053
951.253	0.0146948
951.331	0.0147054
951.410	0.0146387
951.488	0.0147743
951.566	0.0147421
951.644	0.0147062
951.722	0.0147626
951.800	0.0146766
951.878	0.0147642
951.956	0.0147032
952.035	0.0147206
952.113	0.0146535
952.191	0.0145994
952.269	0.0147678
952.347	0.0146661
952.425	0.0147103
952.503	0.0146090
952.581	0.0146440
952.660	0.0146993
952.738	0.0146775
952.816	0.0147124
952.894	0.0146980
952.972	0.0146972
953.050	0.0147737
953.128	0.0147630
953.206	0.0146361
953.285	0.0147161
953.363	0.0146087
953.441	0.0146162
953.519	0.0146564
953.597	0.0145227
953.675	0.0146511
953.753	0.0146066
953.831	0.0144516
953.910	0.0143487
953.988	0.0143277
954.066	0.0141903
954.144	0.0142137
954.222	0.0141774
954.300	0.0142839
954.378	0.0141309
954.456	0.0141563
954.535	0.0142062
954.613	0.0141783
954.691	0.0143245
954.769	0.0143502
954.847	0.0145877
954.925	0.0144855
955.003	0.0147330
955.081	0.0147710
955.160	0.0148711
955.238	0.0150174
955.316	0.0149904
955.394	0.0151636
955.472	0.0152370
955.550	0.0151697
955.628	0.0153966
955.706	0.0152063
955.785	0.0150900
955.863	0.0153519
955.941	0.0153535
956.019	0.0153088
956.097	0.0151975
956.175	0.0153296
956.253	0.0151826
956.331	0.0149487
956.410	0.0150124
956.488	0.0150903
956.566	0.0149409
956.644	0.0149065
956.722	0.0147904
956.800	0.0147267
956.878	0.0145837
956.956	0.0146680
957.035	0.0146059
957.113	0.0145672
957.191	0.0143583
957.269	0.0142382
957.347	0.0142302
957.425	0.0142085
957.503	0.0141854
957.581	0.0141061
957.660	0.0142593
957.738	0.0141048
957.816	0.0141048
957.894	0.0142011
957.972	0.0143160
958.050	0.0142967
958.128	0.0145199
958.206	0.0145058
958.285	0.0145402
958.363	0.0144919
958.441	0.0145780
958.519	0.0145737
958.597	0.0145610
958.675	0.0147341
958.753	0.0147253
958.831	0.0145342
958.910	0.0147153
958.988	0.0148384
959.066	0.0146082
959.144	0.0146688
959.222	0.0147960
959.300	0.0145840
959.378	0.0145942
959.456	0.0145879
959.535	0.0146848
959.613	0.0146336
959.691	0.0145826
959.769	0.0146203
959.847	0.0146825
959.925	0.0145727
960.003	0.0147324
960.081	0.0146990
960.160	0.0146159
960.238	0.0149165
960.316	0.0148497
960.394	0.0149093
960.472	0.0149097
960.550	0.0149619
960.628	0.0150491
960.706	0.0149177
960.785	0.0149931
960.863	0.0150208
960.941	0.0148136
961.019	0.0148989
961.097	0.0148949
961.175	0.0147171
961.253	0.0148030
961.331	0.0148373
961.410	0.0147066
961.488	0.0146544
961.566	0.0145866
961.644	0.0145441
961.722	0.0145741
961.800	0.0144249
961.878	0.0143671
961.956	0.0143615
962.035	0.0143401
962.113	0.0143468
962.191	0.0143008
962.269	0.0143278
962.347	0.0143628
962.425	0.0143010
962.503	0.0143007
962.581	0.0144308
962.660	0.0142223
962.738	0.0143652
962.816	0.0142432
962.894	0.0143816
962.972	0.0144418
963.050	0.0144378
963.128	0.0143082
963.206	0.0144371
963.285	0.0145212
963.363	0.0144131
963.441	0.0146365
963.519	0.0145388
963.597	0.0146256
963.675	0.0146469
963.753	0.0146259
963.831	0.0147768
963.910	0.0148147
963.988	0.0146072
964.066	0.0146689
964.144	0.0146999
964.222	0.0147918
964.300	0.0146310
964.378	0.0147336
964.456	0.0147644
964.535	0.0146239
964.613	0.0146004
964.691	0.0144298
964.769	0.0145412
964.847	0.0144599
964.925	0.0146674
965.003	0.0145678
965.081	0.0143906
965.160	0.0144723
965.238	0.0146056
965.316	0.0146571
965.394	0.0145032
965.472	0.0147513
965.550	0.0146572
965.628	0.0145332
965.706	0.0147307
965.785	0.0147046
965.863	0.0147805
965.941	0.0147833
966.019	0.0146097
966.097	0.0146030
966.175	0.0146370
966.253	0.0146855
966.331	0.0146900
966.410	0.0146546
966.488	0.0145383
966.566	0.0147118
966.644	0.0147090
966.722	0.0145039
966.800	0.0145932
966.878	0.0146216
966.956	0.0145435
967.035	0.0145143
967.113	0.0144516
967.191	0.0144174
967.269	0.0145967
967.347	0.0146230
967.425	0.0146669
967.503	0.0147063
967.581	0.0145810
967.660	0.0145403
967.738	0.0146106
967.816	0.0146510
967.894	0.0146370
967.972	0.0146806
968.050	0.0147071
968.128	0.0147284
968.206	0.0146098
968.285	0.0145551
968.363	0.0146090
968.441	0.0145711
968.519	0.0146516
968.597	0.0147638
968.675	0.0146751
968.753	0.0145840
968.831	0.0146657
968.910	0.0147292
968.988	0.0146580
969.066	0.0146345
969.144	0.0144774
969.222	0.0145599
969.300	0.0146502
969.378	0.0146035
969.456	0.0147281
969.535	0.0145987
969.613	0.0146912
969.691	0.0145881
969.769	0.0148247
969.847	0.0149545
969.925	0.0147781
970.003	0.0150475
970.081	0.0149282
970.160	0.0148861
970.238	0.0148190
970.316	0.0150613
970.394	0.0149557
970.472	0.0148891
970.550	0.0147881
970.628	0.0148400
970.706	0.0146031
970.785	0.0146741
970.863	0.0144765
970.941	0.0145504
971.019	0.0145903
971.097	0.0144785
971.175	0.0143654
971.253	0.0145362
971.331	0.0145750
971.410	0.0144234
971.488	0.0145250
971.566	0.0145548
971.644	0.0145638
971.722	0.0146237
971.800	0.0145362
971.878	0.0145728
971.956	0.0146473
972.035	0.0146835
972.113	0.0146586
972.191	0.0147079
972.269	0.0148188
972.347	0.0146590
972.425	0.0146227
972.503	0.0147031
972.581	0.0145542
972.660	0.0146304
972.738	0.0146442
972.816	0.0145535
972.894	0.0145734
972.972	0.0144647
973.050	0.0144408
973.128	0.0144177
973.206	0.0144427
973.285	0.0143915
973.363	0.0145037
973.441	0.0144617
973.519	0.0145014
973.597	0.0145242
973.675	0.0146050
973.753	0.0147134
973.831	0.0146622
973.910	0.0147679
973.988	0.0147865
974.066	0.0146897
974.144	0.0148312
974.222	0.0147977
974.300	0.0146561
974.378	0.0145875
974.456	0.0146119
974.535	0.0145027
974.613	0.0144220
974.691	0.0142673
974.769	0.0143071
974.847	0.0141907
974.925	0.0144712
975.003	0.0144673
975.081	0.0143668
975.160	0.0144314
975.238	0.0144891
975.316	0.0146262
975.394	0.0144779
975.472	0.0143841
975.550	0.0145885
975.628	0.0146533
975.706	0.0147749
975.785	0.0147157
975.863	0.0147879
975.941	0.0146568
976.019	0.0146944
976.097	0.0147167
976.175	0.0147031
976.253	0.0146864
976.331	0.0146794
976.410	0.0146659
976.488	0.0146027
976.566	0.0146763
976.644	0.0147609
976.722	0.0148058
976.800	0.0148137
976.878	0.0147406
976.956	0.0147855
977.035	0.0147633
977.113	0.0147679
977.191	0.0148073
977.269	0.0148275
977.347	0.0148741
977.425	0.0148407
977.503	0.0147646
977.581	0.0147948
977.660	0.0146920
977.738	0.0146850
977.816	0.0147966
977.894	0.0147227
977.972	0.0147298
978.050	0.0146737
978.128	0.0147669
978.206	0.0148041
978.285	0.0146962
978.363	0.0147842
978.441	0.0148531
978.519	0.0149184
978.597	0.0149436
978.675	0.0147626
978.753	0.0148278
978.831	0.0147971
978.910	0.0148817
978.988	0.0148795
979.066	0.0149055
979.144	0.0148902
979.222	0.0147727
979.300	0.0149010
979.378	0.0147733
979.456	0.0148202
979.535	0.0148501
979.613	0.0147366
979.691	0.0148303
979.769	0.0147602
979.847	0.0145676
979.925	0.0147684
