05/03/2022	20:14:41	Ver.	4.1	UNKNOWN
Optical Delay	660.003261	Delta X		0.078125	Sweeps	1	Scan Rate	0/0
Coordinates	Axis 1	NaN	Axis 2	NaN	Axis 3	NaN	Axis 4	NaN	Axis 5	NaN	Axis 6	0.000000
TX Power	0.000000	RX Power	0.000000

660.003	0.0146965
660.081	0.0146036
660.160	0.0145955
660.238	0.0147256
660.316	0.0146756
660.394	0.0146835
660.472	0.0147884
660.550	0.0147193
660.628	0.0147044
660.706	0.0145803
660.785	0.0147185
660.863	0.0146882
660.941	0.0146397
661.019	0.0147565
661.097	0.0147307
661.175	0.0146603
661.253	0.0146739
661.331	0.0147400
661.410	0.0147477
661.488	0.0147558
661.566	0.0145435
661.644	0.0147029
661.722	0.0145753
661.800	0.0147644
661.878	0.0145982
661.956	0.0146199
662.035	0.0147746
662.113	0.0147038
662.191	0.0146821
662.269	0.0148075
662.347	0.0147082
662.425	0.0147302
662.503	0.0147303
662.581	0.0147727
662.660	0.0145879
662.738	0.0146641
662.816	0.0148016
662.894	0.0147813
662.972	0.0147331
663.050	0.0146801
663.128	0.0146422
663.206	0.0147500
663.285	0.0146822
663.363	0.0147156
663.441	0.0147787
663.519	0.0147013
663.597	0.0147734
663.675	0.0146850
663.753	0.0145019
663.831	0.0147886
663.910	0.0146331
663.988	0.0147778
664.066	0.0147891
664.144	0.0145741
664.222	0.0146980
664.300	0.0146958
664.378	0.0146619
664.456	0.0147189
664.535	0.0146073
664.613	0.0145831
664.691	0.0147775
664.769	0.0147648
664.847	0.0147753
664.925	0.0146532
665.003	0.0146010
665.081	0.0146804
665.160	0.0147303
665.238	0.0146515
665.316	0.0146601
665.394	0.0147570
665.472	0.0146587
665.550	0.0147556
665.628	0.0147345
665.706	0.0146956
665.785	0.0146043
665.863	0.0146391
665.941	0.0147179
666.019	0.0148614
666.097	0.0146790
666.175	0.0147021
666.253	0.0146210
666.331	0.0146085
666.410	0.0146211
666.488	0.0146951
666.566	0.0147655
666.644	0.0147195
666.722	0.0148714
666.800	0.0147091
666.878	0.0146896
666.956	0.0147409
667.035	0.0147714
667.113	0.0147732
667.191	0.0147113
667.269	0.0147948
667.347	0.0148798
667.425	0.0147363
667.503	0.0147772
667.581	0.0147158
667.660	0.0146777
667.738	0.0146432
667.816	0.0147690
667.894	0.0148050
667.972	0.0147158
668.050	0.0146307
668.128	0.0147040
668.206	0.0146182
668.285	0.0146162
668.363	0.0146686
668.441	0.0146230
668.519	0.0146223
668.597	0.0147418
668.675	0.0146989
668.753	0.0147025
668.831	0.0147402
668.910	0.0147178
668.988	0.0144819
669.066	0.0147169
669.144	0.0145398
669.222	0.0145470
669.300	0.0145945
669.378	0.0146580
669.456	0.0146265
669.535	0.0146363
669.613	0.0145586
669.691	0.0146102
669.769	0.0146801
669.847	0.0147089
669.925	0.0147576
670.003	0.0146642
670.081	0.0147553
670.160	0.0146289
670.238	0.0145977
670.316	0.0145609
670.394	0.0146768
670.472	0.0147011
670.550	0.0147491
670.628	0.0146119
670.706	0.0146343
670.785	0.0146381
670.863	0.0146497
670.941	0.0147495
671.019	0.0147466
671.097	0.0146870
671.175	0.0146902
671.253	0.0146811
671.331	0.0146201
671.410	0.0148753
671.488	0.0147443
671.566	0.0146893
671.644	0.0147208
671.722	0.0146648
671.800	0.0145631
671.878	0.0147638
671.956	0.0146839
672.035	0.0145630
672.113	0.0145653
672.191	0.0147148
672.269	0.0145718
672.347	0.0145089
672.425	0.0146820
672.503	0.0147198
672.581	0.0146315
672.660	0.0145528
672.738	0.0147477
672.816	0.0147532
672.894	0.0146966
672.972	0.0145607
673.050	0.0145796
673.128	0.0147780
673.206	0.0146344
673.285	0.0147533
673.363	0.0147426
673.441	0.0145883
673.519	0.0147300
673.597	0.0147527
673.675	0.0146887
673.753	0.0146048
673.831	0.0147258
673.910	0.0148252
673.988	0.0147736
674.066	0.0146469
674.144	0.0146746
674.222	0.0146226
674.300	0.0147381
674.378	0.0147900
674.456	0.0148140
674.535	0.0147272
674.613	0.0147150
674.691	0.0146162
674.769	0.0145540
674.847	0.0147221
674.925	0.0147789
675.003	0.0146008
675.081	0.0147704
675.160	0.0147458
675.238	0.0147954
675.316	0.0146693
675.394	0.0147263
675.472	0.0147474
675.550	0.0146932
675.628	0.0146455
675.706	0.0146504
675.785	0.0147693
675.863	0.0146587
675.941	0.0145609
676.019	0.0146182
676.097	0.0145378
676.175	0.0146765
676.253	0.0146825
676.331	0.0147461
676.410	0.0147655
676.488	0.0146758
676.566	0.0146129
676.644	0.0148057
676.722	0.0147935
676.800	0.0147713
676.878	0.0148638
676.956	0.0147520
677.035	0.0145748
677.113	0.0146865
677.191	0.0146498
677.269	0.0146879
677.347	0.0146190
677.425	0.0147604
677.503	0.0148280
677.581	0.0147224
677.660	0.0148063
677.738	0.0148157
677.816	0.0145812
677.894	0.0146321
677.972	0.0147057
678.050	0.0146679
678.128	0.0146558
678.206	0.0147118
678.285	0.0147315
678.363	0.0146085
678.441	0.0146955
678.519	0.0146832
678.597	0.0146622
678.675	0.0148017
678.753	0.0144845
678.831	0.0146030
678.910	0.0147134
678.988	0.0147924
679.066	0.0147783
679.144	0.0145451
679.222	0.0146255
679.300	0.0146835
679.378	0.0146262
679.456	0.0147176
679.535	0.0148416
679.613	0.0146230
679.691	0.0146173
679.769	0.0146619
679.847	0.0145811
679.925	0.0147686
680.003	0.0148208
680.081	0.0145856
680.160	0.0146097
680.238	0.0146572
680.316	0.0147667
680.394	0.0146500
680.472	0.0146136
680.550	0.0146854
680.628	0.0146363
680.706	0.0146870
680.785	0.0146861
680.863	0.0147196
680.941	0.0145853
681.019	0.0146338
681.097	0.0147423
681.175	0.0146712
681.253	0.0146211
681.331	0.0146667
681.410	0.0146062
681.488	0.0145874
681.566	0.0146975
681.644	0.0146294
681.722	0.0146323
681.800	0.0146949
681.878	0.0146480
681.956	0.0146682
682.035	0.0146580
682.113	0.0147767
682.191	0.0146313
682.269	0.0146720
682.347	0.0146700
682.425	0.0146333
682.503	0.0147066
682.581	0.0146740
682.660	0.0146642
682.738	0.0146948
682.816	0.0146181
682.894	0.0146457
682.972	0.0147179
683.050	0.0148312
683.128	0.0146241
683.206	0.0145746
683.285	0.0145869
683.363	0.0147090
683.441	0.0146199
683.519	0.0147786
683.597	0.0146349
683.675	0.0146233
683.753	0.0146378
683.831	0.0147525
683.910	0.0146366
683.988	0.0145579
684.066	0.0145366
684.144	0.0147270
684.222	0.0147766
684.300	0.0146663
684.378	0.0146826
684.456	0.0147130
684.535	0.0146975
684.613	0.0146351
684.691	0.0146531
684.769	0.0146588
684.847	0.0147021
684.925	0.0146532
685.003	0.0147112
685.081	0.0146412
685.160	0.0147067
685.238	0.0146563
685.316	0.0147257
685.394	0.0146436
685.472	0.0146878
685.550	0.0146609
685.628	0.0145490
685.706	0.0146389
685.785	0.0147174
685.863	0.0145781
685.941	0.0145855
686.019	0.0146535
686.097	0.0146065
686.175	0.0146767
686.253	0.0145767
686.331	0.0146394
686.410	0.0148035
686.488	0.0146571
686.566	0.0147293
686.644	0.0147100
686.722	0.0147201
686.800	0.0147509
686.878	0.0146819
686.956	0.0147165
687.035	0.0148226
687.113	0.0148232
687.191	0.0148066
687.269	0.0147468
687.347	0.0145998
687.425	0.0146754
687.503	0.0146023
687.581	0.0145903
687.660	0.0146960
687.738	0.0146245
687.816	0.0146644
687.894	0.0145332
687.972	0.0147175
688.050	0.0146724
688.128	0.0146719
688.206	0.0148321
688.285	0.0146292
688.363	0.0147646
688.441	0.0147237
688.519	0.0146919
688.597	0.0146861
688.675	0.0144456
688.753	0.0145668
688.831	0.0145896
688.910	0.0146907
688.988	0.0147476
689.066	0.0146156
689.144	0.0145930
689.222	0.0147083
689.300	0.0144923
689.378	0.0146918
689.456	0.0146241
689.535	0.0145609
689.613	0.0146308
689.691	0.0147027
689.769	0.0146552
689.847	0.0145775
689.925	0.0145671
690.003	0.0146349
690.081	0.0146696
690.160	0.0147865
690.238	0.0146153
690.316	0.0147446
690.394	0.0145578
690.472	0.0146375
690.550	0.0146279
690.628	0.0146144
690.706	0.0146981
690.785	0.0146298
690.863	0.0146326
690.941	0.0146027
691.019	0.0145615
691.097	0.0147026
691.175	0.0147086
691.253	0.0147166
691.331	0.0146855
691.410	0.0146394
691.488	0.0146655
691.566	0.0146168
691.644	0.0147360
691.722	0.0146099
691.800	0.0144162
691.878	0.0146584
691.956	0.0146704
692.035	0.0145833
692.113	0.0145821
692.191	0.0146529
692.269	0.0146449
692.347	0.0145528
692.425	0.0146539
692.503	0.0147214
692.581	0.0146682
692.660	0.0146622
692.738	0.0146190
692.816	0.0146791
692.894	0.0146479
692.972	0.0147442
693.050	0.0145686
693.128	0.0147347
693.206	0.0146983
693.285	0.0146375
693.363	0.0146670
693.441	0.0146790
693.519	0.0147196
693.597	0.0147369
693.675	0.0147694
693.753	0.0148339
693.831	0.0147964
693.910	0.0146121
693.988	0.0147269
694.066	0.0146655
694.144	0.0145596
694.222	0.0146927
694.300	0.0147848
694.378	0.0146295
694.456	0.0146272
694.535	0.0146295
694.613	0.0146799
694.691	0.0146232
694.769	0.0145618
694.847	0.0146044
694.925	0.0146454
695.003	0.0147485
695.081	0.0147871
695.160	0.0146590
695.238	0.0148204
695.316	0.0147601
695.394	0.0146719
695.472	0.0147536
695.550	0.0146398
695.628	0.0146700
695.706	0.0147459
695.785	0.0147196
695.863	0.0146645
695.941	0.0147031
696.019	0.0147295
696.097	0.0147477
696.175	0.0146001
696.253	0.0146442
696.331	0.0146870
696.410	0.0147159
696.488	0.0147933
696.566	0.0147308
696.644	0.0146911
696.722	0.0147215
696.800	0.0146497
696.878	0.0148405
696.956	0.0147049
697.035	0.0147227
697.113	0.0146371
697.191	0.0148262
697.269	0.0147897
697.347	0.0147037
697.425	0.0147779
697.503	0.0146474
697.581	0.0147369
697.660	0.0147600
697.738	0.0146938
697.816	0.0146924
697.894	0.0147179
697.972	0.0148737
698.050	0.0147640
698.128	0.0146831
698.206	0.0147710
698.285	0.0146951
698.363	0.0148396
698.441	0.0147051
698.519	0.0147612
698.597	0.0147588
698.675	0.0148034
698.753	0.0145580
698.831	0.0146173
698.910	0.0147046
698.988	0.0145920
699.066	0.0145863
699.144	0.0146329
699.222	0.0146616
699.300	0.0147834
699.378	0.0147195
699.456	0.0146841
699.535	0.0147752
699.613	0.0147800
699.691	0.0146185
699.769	0.0145865
699.847	0.0145628
699.925	0.0147196
700.003	0.0146748
700.081	0.0147089
700.160	0.0146339
700.238	0.0146535
700.316	0.0147058
700.394	0.0147842
700.472	0.0146732
700.550	0.0146226
700.628	0.0145924
700.706	0.0148033
700.785	0.0147440
700.863	0.0147313
700.941	0.0146413
701.019	0.0147530
701.097	0.0147932
701.175	0.0146137
701.253	0.0147381
701.331	0.0149322
701.410	0.0149174
701.488	0.0147113
701.566	0.0149050
701.644	0.0148248
701.722	0.0147831
701.800	0.0147977
701.878	0.0147720
701.956	0.0147926
702.035	0.0148312
702.113	0.0148092
702.191	0.0147094
702.269	0.0148028
702.347	0.0146875
702.425	0.0146481
702.503	0.0147239
702.581	0.0146684
702.660	0.0145110
702.738	0.0144170
702.816	0.0140997
702.894	0.0142612
702.972	0.0141227
703.050	0.0140681
703.128	0.0142379
703.206	0.0146267
703.285	0.0147414
703.363	0.0150821
703.441	0.0156606
703.519	0.0158112
703.597	0.0157269
703.675	0.0157625
703.753	0.0153329
703.831	0.0147519
703.910	0.0140785
703.988	0.0133553
704.066	0.0125211
704.144	0.0118022
704.222	0.0114755
704.300	0.0112209
704.378	0.0110779
704.456	0.0114610
704.535	0.0119379
704.613	0.0125155
704.691	0.0136216
704.769	0.0148811
704.847	0.0162324
704.925	0.0177733
705.003	0.0193195
705.081	0.0211516
705.160	0.0225475
705.238	0.0235920
705.316	0.0242297
705.394	0.0242614
705.472	0.0235509
705.550	0.0220849
705.628	0.0198480
705.706	0.0171273
705.785	0.0140410
705.863	0.0103487
705.941	0.00681816
706.019	0.00377289
706.097	0.00131744
706.175	-0.000184326
706.253	-0.000490952
706.331	0.000180130
706.410	0.00166321
706.488	0.00385429
706.566	0.00658638
706.644	0.00947617
706.722	0.0122664
706.800	0.0147044
706.878	0.0170107
706.956	0.0192051
707.035	0.0212230
707.113	0.0231988
707.191	0.0250610
707.269	0.0266913
707.347	0.0281521
707.425	0.0289847
707.503	0.0294022
707.581	0.0293490
707.660	0.0287534
707.738	0.0275069
707.816	0.0258335
707.894	0.0236001
707.972	0.0208222
708.050	0.0175168
708.128	0.0140191
708.206	0.0103742
708.285	0.00686394
708.363	0.00342026
708.441	0.000597305
708.519	-0.00151093
708.597	-0.00269768
708.675	-0.00320084
708.753	-0.00282928
708.831	-0.00180305
708.910	-0.000250397
708.988	0.00166794
709.066	0.00418518
709.144	0.00673073
709.222	0.00967575
709.300	0.0124908
709.378	0.0152981
709.456	0.0178596
709.535	0.0203281
709.613	0.0227393
709.691	0.0246401
709.769	0.0263469
709.847	0.0275874
709.925	0.0284698
710.003	0.0290959
710.081	0.0293566
710.160	0.0291978
710.238	0.0286344
710.316	0.0273033
710.394	0.0259097
710.472	0.0241133
710.550	0.0219933
710.628	0.0196122
710.706	0.0170653
710.785	0.0144329
710.863	0.0118802
710.941	0.00955544
711.019	0.00757790
711.097	0.00579117
711.175	0.00433136
711.253	0.00354874
711.331	0.00318932
711.410	0.00304352
711.488	0.00320946
711.566	0.00366257
711.644	0.00430489
711.722	0.00514061
711.800	0.00633743
711.878	0.00750832
711.956	0.00874924
712.035	0.00993248
712.113	0.0112280
712.191	0.0127164
712.269	0.0140658
712.347	0.0154718
712.425	0.0170180
712.503	0.0187401
712.581	0.0200220
712.660	0.0212568
712.738	0.0225323
712.816	0.0232750
712.894	0.0240362
712.972	0.0246572
713.050	0.0246584
713.128	0.0245552
713.206	0.0240612
713.285	0.0234398
713.363	0.0224973
713.441	0.0214575
713.519	0.0200965
713.597	0.0185346
713.675	0.0170061
713.753	0.0152483
713.831	0.0139045
713.910	0.0124683
713.988	0.0109505
714.066	0.00968475
714.144	0.00852135
714.222	0.00777336
714.300	0.00726807
714.378	0.00683273
714.456	0.00666962
714.535	0.00680611
714.613	0.00717499
714.691	0.00760345
714.769	0.00816544
714.847	0.00894089
714.925	0.00977470
715.003	0.0104251
715.081	0.0111582
715.160	0.0119745
715.238	0.0128619
715.316	0.0135303
715.394	0.0142782
715.472	0.0150431
715.550	0.0158286
715.628	0.0167386
715.706	0.0177467
715.785	0.0185987
715.863	0.0194994
715.941	0.0203907
716.019	0.0210804
716.097	0.0214197
716.175	0.0216280
716.253	0.0214576
716.331	0.0210097
716.410	0.0206345
716.488	0.0197858
716.566	0.0189027
716.644	0.0179659
716.722	0.0171729
716.800	0.0161702
716.878	0.0154609
716.956	0.0147102
717.035	0.0140363
717.113	0.0135672
717.191	0.0129682
717.269	0.0124508
717.347	0.0121534
717.425	0.0118019
717.503	0.0114200
717.581	0.0112418
717.660	0.0111601
717.738	0.0109724
717.816	0.0108657
717.894	0.0109979
717.972	0.0111068
718.050	0.0114845
718.128	0.0115815
718.206	0.0118831
718.285	0.0120495
718.363	0.0123666
718.441	0.0124995
718.519	0.0129008
718.597	0.0129485
718.675	0.0131487
718.753	0.0133026
718.831	0.0135242
718.910	0.0137404
718.988	0.0140788
719.066	0.0144530
719.144	0.0146829
719.222	0.0151907
719.300	0.0155294
719.378	0.0161219
719.456	0.0166733
719.535	0.0170359
719.613	0.0174146
719.691	0.0176555
719.769	0.0176988
719.847	0.0175217
719.925	0.0176006
720.003	0.0175801
720.081	0.0174185
720.160	0.0173133
720.238	0.0174366
720.316	0.0174621
720.394	0.0176389
720.472	0.0176902
720.550	0.0175397
720.628	0.0175072
720.706	0.0171914
720.785	0.0169372
720.863	0.0164770
720.941	0.0159636
721.019	0.0153488
721.097	0.0148066
721.175	0.0142455
721.253	0.0136303
721.331	0.0131429
721.410	0.0126633
721.488	0.0122271
721.566	0.0118877
721.644	0.0115797
721.722	0.0112267
721.800	0.0111462
721.878	0.0110503
721.956	0.0108591
722.035	0.0111248
722.113	0.0111262
722.191	0.0111697
722.269	0.0116302
722.347	0.0118481
722.425	0.0122209
722.503	0.0125623
722.581	0.0127696
722.660	0.0132265
722.738	0.0136295
722.816	0.0142495
722.894	0.0147816
722.972	0.0150643
723.050	0.0157118
723.128	0.0163419
723.206	0.0166252
723.285	0.0170139
723.363	0.0172570
723.441	0.0173894
723.519	0.0174507
723.597	0.0175324
723.675	0.0175742
723.753	0.0175261
723.831	0.0173552
723.910	0.0173546
723.988	0.0171233
724.066	0.0171233
724.144	0.0169671
724.222	0.0166696
724.300	0.0166675
724.378	0.0163821
724.456	0.0161559
724.535	0.0156924
724.613	0.0155707
724.691	0.0152962
724.769	0.0149404
724.847	0.0146659
724.925	0.0146799
725.003	0.0142892
725.081	0.0141505
725.160	0.0140924
725.238	0.0140392
725.316	0.0137305
725.394	0.0136532
725.472	0.0135870
725.550	0.0134245
725.628	0.0131134
725.706	0.0131699
725.785	0.0130516
725.863	0.0128670
725.941	0.0126763
726.019	0.0126948
726.097	0.0124449
726.175	0.0124125
726.253	0.0124095
726.331	0.0123579
726.410	0.0124714
726.488	0.0125871
726.566	0.0126934
726.644	0.0129632
726.722	0.0131163
726.800	0.0132898
726.878	0.0138172
726.956	0.0142760
727.035	0.0147131
727.113	0.0150650
727.191	0.0155522
727.269	0.0161604
727.347	0.0165377
727.425	0.0170227
727.503	0.0172389
727.581	0.0173280
727.660	0.0174049
727.738	0.0172729
727.816	0.0172520
727.894	0.0168761
727.972	0.0165614
728.050	0.0163427
728.128	0.0162592
728.206	0.0160162
728.285	0.0156610
728.363	0.0156612
728.441	0.0153970
728.519	0.0154717
728.597	0.0153362
728.675	0.0154446
728.753	0.0152668
728.831	0.0153687
728.910	0.0152020
728.988	0.0152409
729.066	0.0152190
729.144	0.0151301
729.222	0.0148900
729.300	0.0146037
729.378	0.0146603
729.456	0.0144344
729.535	0.0141246
729.613	0.0139077
729.691	0.0135483
729.769	0.0134241
729.847	0.0131278
729.925	0.0128827
730.003	0.0128168
730.081	0.0127017
730.160	0.0128656
730.238	0.0127322
730.316	0.0128874
730.394	0.0129847
730.472	0.0130251
730.550	0.0130410
730.628	0.0131615
730.706	0.0131191
730.785	0.0131412
730.863	0.0132858
730.941	0.0133913
731.019	0.0135111
731.097	0.0136208
731.175	0.0139502
731.253	0.0140996
731.331	0.0145080
731.410	0.0147218
731.488	0.0149380
731.566	0.0152965
731.644	0.0156628
731.722	0.0159060
731.800	0.0160732
731.878	0.0162099
731.956	0.0162564
732.035	0.0164261
732.113	0.0164711
732.191	0.0164803
732.269	0.0164857
732.347	0.0165443
732.425	0.0165425
732.503	0.0164855
732.581	0.0162907
732.660	0.0163627
732.738	0.0161966
732.816	0.0161446
732.894	0.0159019
732.972	0.0158543
733.050	0.0157691
733.128	0.0155949
733.206	0.0154628
733.285	0.0153326
733.363	0.0149473
733.441	0.0147594
733.519	0.0146296
733.597	0.0143221
733.675	0.0142112
733.753	0.0138128
733.831	0.0138847
733.910	0.0135804
733.988	0.0134173
734.066	0.0133295
734.144	0.0132827
734.222	0.0131729
734.300	0.0131895
734.378	0.0132899
734.456	0.0133908
734.535	0.0134158
734.613	0.0134939
734.691	0.0135591
734.769	0.0136928
734.847	0.0137513
734.925	0.0138158
735.003	0.0139490
735.081	0.0139476
735.160	0.0138736
735.238	0.0138232
735.316	0.0138498
735.394	0.0138844
735.472	0.0139082
735.550	0.0137952
735.628	0.0140500
735.706	0.0140598
735.785	0.0141994
735.863	0.0143836
735.941	0.0144776
736.019	0.0146229
736.097	0.0149689
736.175	0.0151155
736.253	0.0154524
736.331	0.0155907
736.410	0.0156812
736.488	0.0158866
736.566	0.0158626
736.644	0.0158863
736.722	0.0158138
736.800	0.0157217
736.878	0.0156209
736.956	0.0154556
737.035	0.0153629
737.113	0.0154001
737.191	0.0153563
737.269	0.0153313
737.347	0.0153332
737.425	0.0153570
737.503	0.0153261
737.581	0.0154762
737.660	0.0155243
737.738	0.0157178
737.816	0.0157552
737.894	0.0158172
737.972	0.0156642
738.050	0.0156108
738.128	0.0153011
738.206	0.0151787
738.285	0.0147703
738.363	0.0144919
738.441	0.0142001
738.519	0.0139378
738.597	0.0137522
738.675	0.0139017
738.753	0.0134438
738.831	0.0134344
738.910	0.0136094
738.988	0.0135784
739.066	0.0135365
739.144	0.0137231
739.222	0.0137247
739.300	0.0138863
739.378	0.0139394
739.456	0.0140959
739.535	0.0141418
739.613	0.0143761
739.691	0.0145555
739.769	0.0143661
739.847	0.0146146
739.925	0.0145229
740.003	0.0144904
740.081	0.0145679
740.160	0.0146612
740.238	0.0145306
740.316	0.0146172
740.394	0.0147556
740.472	0.0148149
740.550	0.0147485
740.628	0.0147839
740.706	0.0147125
740.785	0.0147675
740.863	0.0146967
740.941	0.0145855
741.019	0.0146452
741.097	0.0144707
741.175	0.0145147
741.253	0.0143003
741.331	0.0144552
741.410	0.0144373
741.488	0.0144200
741.566	0.0146230
741.644	0.0145033
741.722	0.0145608
741.800	0.0149447
741.878	0.0150076
741.956	0.0149521
742.035	0.0149903
742.113	0.0152119
742.191	0.0152900
742.269	0.0152903
742.347	0.0153735
742.425	0.0154099
742.503	0.0153746
742.581	0.0153428
742.660	0.0152225
742.738	0.0151498
742.816	0.0150102
742.894	0.0148912
742.972	0.0149862
743.050	0.0149436
743.128	0.0149142
743.206	0.0148419
743.285	0.0147301
743.363	0.0147723
743.441	0.0146136
743.519	0.0144578
743.597	0.0144546
743.675	0.0142920
743.753	0.0142811
743.831	0.0143250
743.910	0.0143387
743.988	0.0142235
744.066	0.0141603
744.144	0.0142973
744.222	0.0141551
744.300	0.0142020
744.378	0.0142326
744.456	0.0141264
744.535	0.0141370
744.613	0.0139420
744.691	0.0139140
744.769	0.0138708
744.847	0.0140170
744.925	0.0137473
745.003	0.0137749
745.081	0.0140441
745.160	0.0141396
745.238	0.0143101
745.316	0.0145415
745.394	0.0148029
745.472	0.0147801
745.550	0.0151015
745.628	0.0152309
745.706	0.0155172
745.785	0.0155130
745.863	0.0155473
745.941	0.0158318
746.019	0.0157249
746.097	0.0156476
746.175	0.0155104
746.253	0.0154784
746.331	0.0154977
746.410	0.0152390
746.488	0.0151753
746.566	0.0152314
746.644	0.0151736
746.722	0.0151201
746.800	0.0151832
746.878	0.0151591
746.956	0.0152065
747.035	0.0152332
747.113	0.0151659
747.191	0.0151920
747.269	0.0151785
747.347	0.0150573
747.425	0.0151007
747.503	0.0150077
747.581	0.0148827
747.660	0.0147518
747.738	0.0145901
747.816	0.0144675
747.894	0.0145939
747.972	0.0144459
748.050	0.0143587
748.128	0.0142679
748.206	0.0142876
748.285	0.0141466
748.363	0.0141766
748.441	0.0141994
748.519	0.0140732
748.597	0.0139874
748.675	0.0138802
748.753	0.0140321
748.831	0.0141521
748.910	0.0142987
748.988	0.0142923
749.066	0.0141842
749.144	0.0141776
749.222	0.0142770
749.300	0.0142973
749.378	0.0143346
749.456	0.0142363
749.535	0.0143238
749.613	0.0143844
749.691	0.0144175
749.769	0.0143204
749.847	0.0144569
749.925	0.0145227
750.003	0.0145029
750.081	0.0146922
750.160	0.0145403
750.238	0.0145535
750.316	0.0145026
750.394	0.0145641
750.472	0.0147404
750.550	0.0148167
750.628	0.0148605
750.706	0.0150390
750.785	0.0151929
750.863	0.0152737
750.941	0.0153761
751.019	0.0154501
751.097	0.0156171
751.175	0.0155205
751.253	0.0157053
751.331	0.0155362
751.410	0.0154758
751.488	0.0155740
751.566	0.0154369
751.644	0.0153839
751.722	0.0151883
751.800	0.0151910
751.878	0.0148089
751.956	0.0146359
752.035	0.0147081
752.113	0.0146948
752.191	0.0146761
752.269	0.0146222
752.347	0.0147086
752.425	0.0146645
752.503	0.0146992
752.581	0.0148086
752.660	0.0147588
752.738	0.0147105
752.816	0.0145832
752.894	0.0146601
752.972	0.0145696
753.050	0.0145518
753.128	0.0144717
753.206	0.0143270
753.285	0.0143147
753.363	0.0143147
753.441	0.0142093
753.519	0.0141428
753.597	0.0139837
753.675	0.0138607
753.753	0.0139603
753.831	0.0140453
753.910	0.0139176
753.988	0.0138230
754.066	0.0140742
754.144	0.0142105
754.222	0.0142638
754.300	0.0142326
754.378	0.0141695
754.456	0.0143941
754.535	0.0144373
754.613	0.0144739
754.691	0.0145963
754.769	0.0145848
754.847	0.0146785
754.925	0.0147898
755.003	0.0146387
755.081	0.0148745
755.160	0.0147510
755.238	0.0148927
755.316	0.0149597
755.394	0.0150441
755.472	0.0149923
755.550	0.0150233
755.628	0.0152369
755.706	0.0151887
755.785	0.0152410
755.863	0.0153014
755.941	0.0154018
756.019	0.0153924
756.097	0.0153676
756.175	0.0152158
756.253	0.0153920
756.331	0.0152104
756.410	0.0153323
756.488	0.0152075
756.566	0.0151111
756.644	0.0149548
756.722	0.0148489
756.800	0.0145329
756.878	0.0144852
756.956	0.0143019
757.035	0.0143865
757.113	0.0141983
757.191	0.0139150
757.269	0.0138595
757.347	0.0139372
757.425	0.0139146
757.503	0.0139942
757.581	0.0138928
757.660	0.0139359
757.738	0.0138834
757.816	0.0141414
757.894	0.0142725
757.972	0.0143571
758.050	0.0144756
758.128	0.0145046
758.206	0.0147030
758.285	0.0148545
758.363	0.0148658
758.441	0.0150944
758.519	0.0153626
758.597	0.0153256
758.675	0.0153407
758.753	0.0154722
758.831	0.0155364
758.910	0.0154980
758.988	0.0155156
759.066	0.0154292
759.144	0.0154140
759.222	0.0153542
759.300	0.0152422
759.378	0.0150061
759.456	0.0150020
759.535	0.0148907
759.613	0.0147328
759.691	0.0147882
759.769	0.0147373
759.847	0.0146442
759.925	0.0147701
760.003	0.0145570
760.081	0.0147108
760.160	0.0146202
760.238	0.0147395
760.316	0.0145541
760.394	0.0145715
760.472	0.0145594
760.550	0.0145389
760.628	0.0143899
760.706	0.0142519
760.785	0.0140488
760.863	0.0140146
760.941	0.0138390
761.019	0.0138101
761.097	0.0136833
761.175	0.0136853
761.253	0.0133609
761.331	0.0134997
761.410	0.0136079
761.488	0.0134785
761.566	0.0135287
761.644	0.0138583
761.722	0.0138985
761.800	0.0140796
761.878	0.0141725
761.956	0.0143380
762.035	0.0143614
762.113	0.0147340
762.191	0.0150495
762.269	0.0150391
762.347	0.0153940
762.425	0.0155196
762.503	0.0157705
762.581	0.0158025
762.660	0.0159373
762.738	0.0159940
762.816	0.0160915
762.894	0.0161993
762.972	0.0161532
763.050	0.0160553
763.128	0.0162163
763.206	0.0159470
763.285	0.0158266
763.363	0.0157440
763.441	0.0155851
763.519	0.0155313
763.597	0.0152914
763.675	0.0151492
763.753	0.0149625
763.831	0.0148139
763.910	0.0144882
763.988	0.0144044
764.066	0.0144039
764.144	0.0142432
764.222	0.0138956
764.300	0.0137675
764.378	0.0138004
764.456	0.0136827
764.535	0.0135407
764.613	0.0135362
764.691	0.0136296
764.769	0.0134658
764.847	0.0134845
764.925	0.0135526
765.003	0.0136626
765.081	0.0137338
765.160	0.0136499
765.238	0.0139375
765.316	0.0139805
765.394	0.0140440
765.472	0.0142473
765.550	0.0143832
765.628	0.0144762
765.706	0.0146972
765.785	0.0149373
765.863	0.0150807
765.941	0.0151466
766.019	0.0152620
766.097	0.0151564
766.175	0.0152719
766.253	0.0152814
766.331	0.0152258
766.410	0.0151409
766.488	0.0150574
766.566	0.0150808
766.644	0.0151154
766.722	0.0150193
766.800	0.0149036
766.878	0.0150128
766.956	0.0152875
767.035	0.0151109
767.113	0.0149913
767.191	0.0149595
767.269	0.0150487
767.347	0.0149860
767.425	0.0150901
767.503	0.0149216
767.581	0.0148433
767.660	0.0148933
767.738	0.0148236
767.816	0.0145860
767.894	0.0147273
767.972	0.0147492
768.050	0.0146506
768.128	0.0146212
768.206	0.0146101
768.285	0.0145374
768.363	0.0145523
768.441	0.0143854
768.519	0.0145446
768.597	0.0144393
768.675	0.0144000
768.753	0.0143989
768.831	0.0142780
768.910	0.0143576
768.988	0.0143063
769.066	0.0144019
769.144	0.0143484
769.222	0.0143376
769.300	0.0143752
769.378	0.0143275
769.456	0.0144719
769.535	0.0144916
769.613	0.0146521
769.691	0.0146655
769.769	0.0145578
769.847	0.0145830
769.925	0.0146682
770.003	0.0145291
770.081	0.0145535
770.160	0.0145684
770.238	0.0143002
770.316	0.0143852
770.394	0.0144028
770.472	0.0143417
770.550	0.0143699
770.628	0.0144901
770.706	0.0145656
770.785	0.0145724
770.863	0.0146457
770.941	0.0147356
771.019	0.0147208
771.097	0.0149432
771.175	0.0149015
771.253	0.0148591
771.331	0.0149025
771.410	0.0150291
771.488	0.0149586
771.566	0.0150245
771.644	0.0149248
771.722	0.0150092
771.800	0.0149005
771.878	0.0147815
771.956	0.0148309
772.035	0.0148481
772.113	0.0146883
772.191	0.0149503
772.269	0.0150404
772.347	0.0148750
772.425	0.0150305
772.503	0.0149773
772.581	0.0150724
772.660	0.0149886
772.738	0.0150285
772.816	0.0149200
772.894	0.0148566
772.972	0.0147778
773.050	0.0148143
773.128	0.0148067
773.206	0.0146081
773.285	0.0144579
773.363	0.0146753
773.441	0.0145682
773.519	0.0145413
773.597	0.0144356
773.675	0.0144358
773.753	0.0145106
773.831	0.0146561
773.910	0.0144604
773.988	0.0144952
774.066	0.0144998
774.144	0.0144284
774.222	0.0144218
774.300	0.0146278
774.378	0.0144598
774.456	0.0145753
774.535	0.0146403
774.613	0.0145734
774.691	0.0146503
774.769	0.0147454
774.847	0.0148074
774.925	0.0148159
775.003	0.0147935
775.081	0.0146909
775.160	0.0147878
775.238	0.0147800
775.316	0.0148919
775.394	0.0148228
775.472	0.0148386
775.550	0.0146931
775.628	0.0148232
775.706	0.0147099
775.785	0.0147663
775.863	0.0147800
775.941	0.0149001
776.019	0.0148728
776.097	0.0148074
776.175	0.0149020
776.253	0.0148439
776.331	0.0147921
776.410	0.0147826
776.488	0.0148942
776.566	0.0146754
776.644	0.0146860
776.722	0.0146601
776.800	0.0144038
776.878	0.0143732
776.956	0.0143388
777.035	0.0143723
777.113	0.0143524
777.191	0.0141365
777.269	0.0142783
777.347	0.0142180
777.425	0.0141778
777.503	0.0143420
777.581	0.0143237
777.660	0.0143661
777.738	0.0143989
777.816	0.0144095
777.894	0.0144789
777.972	0.0144858
778.050	0.0145740
778.128	0.0146710
778.206	0.0146944
778.285	0.0148207
778.363	0.0147662
778.441	0.0146680
778.519	0.0148605
778.597	0.0149710
778.675	0.0148231
778.753	0.0149571
778.831	0.0150301
778.910	0.0150502
778.988	0.0150726
779.066	0.0149767
779.144	0.0148530
779.222	0.0149685
779.300	0.0148628
779.378	0.0147931
779.456	0.0147017
779.535	0.0147216
779.613	0.0147330
779.691	0.0146521
779.769	0.0147810
779.847	0.0147599
779.925	0.0148574
780.003	0.0149628
780.081	0.0148148
780.160	0.0148199
780.238	0.0150085
780.316	0.0150044
780.394	0.0148185
780.472	0.0148766
780.550	0.0148326
780.628	0.0147346
780.706	0.0147710
780.785	0.0146902
780.863	0.0145313
780.941	0.0144048
781.019	0.0144789
781.097	0.0143984
781.175	0.0144197
781.253	0.0145169
781.331	0.0145409
781.410	0.0145533
781.488	0.0144502
781.566	0.0144299
781.644	0.0145811
781.722	0.0145117
781.800	0.0145280
781.878	0.0144735
781.956	0.0143982
782.035	0.0143111
782.113	0.0143401
782.191	0.0142930
782.269	0.0142228
782.347	0.0142839
782.425	0.0142785
782.503	0.0142477
782.581	0.0141403
782.660	0.0141058
782.738	0.0142859
782.816	0.0144973
782.894	0.0144152
782.972	0.0144974
783.050	0.0145563
783.128	0.0146307
783.206	0.0148473
783.285	0.0148921
783.363	0.0149557
783.441	0.0148768
783.519	0.0149887
783.597	0.0152672
783.675	0.0151735
783.753	0.0151936
783.831	0.0151951
783.910	0.0151764
783.988	0.0152618
784.066	0.0152347
784.144	0.0151852
784.222	0.0152009
784.300	0.0150247
784.378	0.0150343
784.456	0.0148420
784.535	0.0147807
784.613	0.0146983
784.691	0.0146498
784.769	0.0145520
784.847	0.0145662
784.925	0.0143803
785.003	0.0143391
785.081	0.0141527
785.160	0.0141941
785.238	0.0142326
785.316	0.0142400
785.394	0.0141699
785.472	0.0140795
785.550	0.0141733
785.628	0.0142238
785.706	0.0144087
785.785	0.0141872
785.863	0.0142365
785.941	0.0143148
786.019	0.0144263
786.097	0.0144205
786.175	0.0145558
786.253	0.0145802
786.331	0.0146423
786.410	0.0146786
786.488	0.0148365
786.566	0.0149538
786.644	0.0148696
786.722	0.0150720
786.800	0.0151582
786.878	0.0152900
786.956	0.0152866
787.035	0.0151619
787.113	0.0152647
787.191	0.0152793
787.269	0.0150365
787.347	0.0149577
787.425	0.0150546
787.503	0.0148624
787.581	0.0147047
787.660	0.0147694
787.738	0.0148347
787.816	0.0147937
787.894	0.0146657
787.972	0.0145581
788.050	0.0145432
788.128	0.0145264
788.206	0.0145288
788.285	0.0146232
788.363	0.0146732
788.441	0.0146115
788.519	0.0147274
788.597	0.0145727
788.675	0.0146088
788.753	0.0146034
788.831	0.0145965
788.910	0.0146411
788.988	0.0145391
789.066	0.0145446
789.144	0.0145648
789.222	0.0144595
789.300	0.0145244
789.378	0.0144577
789.456	0.0143539
789.535	0.0144048
789.613	0.0142817
789.691	0.0141495
789.769	0.0142415
789.847	0.0141216
789.925	0.0141348
790.003	0.0142197
790.081	0.0141954
790.160	0.0143629
790.238	0.0142852
790.316	0.0143022
790.394	0.0144479
790.472	0.0145453
790.550	0.0148066
790.628	0.0146341
790.706	0.0148163
790.785	0.0148974
790.863	0.0148538
790.941	0.0149915
791.019	0.0151147
791.097	0.0152090
791.175	0.0150614
791.253	0.0151958
791.331	0.0151028
791.410	0.0151138
791.488	0.0152425
791.566	0.0151250
791.644	0.0150610
791.722	0.0153952
791.800	0.0152666
791.878	0.0151952
791.956	0.0151060
792.035	0.0150986
792.113	0.0152110
792.191	0.0150912
792.269	0.0148814
792.347	0.0148505
792.425	0.0150098
792.503	0.0148565
792.581	0.0149688
792.660	0.0147864
792.738	0.0146957
792.816	0.0147960
792.894	0.0146003
792.972	0.0145280
793.050	0.0144259
793.128	0.0143784
793.206	0.0144517
793.285	0.0142178
793.363	0.0144147
793.441	0.0143255
793.519	0.0141734
793.597	0.0142419
793.675	0.0142731
793.753	0.0142651
793.831	0.0142882
793.910	0.0143353
793.988	0.0144291
794.066	0.0144328
794.144	0.0143668
794.222	0.0144883
794.300	0.0147475
794.378	0.0147667
794.456	0.0147141
794.535	0.0149614
794.613	0.0147356
794.691	0.0149585
794.769	0.0151040
794.847	0.0149344
794.925	0.0150254
795.003	0.0150107
795.081	0.0150617
795.160	0.0150538
795.238	0.0148601
795.316	0.0148915
795.394	0.0150593
795.472	0.0150414
795.550	0.0150121
795.628	0.0149969
795.706	0.0149624
795.785	0.0150629
795.863	0.0151092
795.941	0.0148796
796.019	0.0149731
796.097	0.0149285
796.175	0.0149277
796.253	0.0148459
796.331	0.0148320
796.410	0.0147915
796.488	0.0146832
796.566	0.0148021
796.644	0.0147090
796.722	0.0145027
796.800	0.0144638
796.878	0.0145775
796.956	0.0144064
797.035	0.0144401
797.113	0.0144428
797.191	0.0143169
797.269	0.0143123
797.347	0.0144308
797.425	0.0143101
797.503	0.0143639
797.581	0.0143762
797.660	0.0144927
797.738	0.0144447
797.816	0.0144308
797.894	0.0142607
797.972	0.0143439
798.050	0.0144315
798.128	0.0144703
798.206	0.0144139
798.285	0.0144350
798.363	0.0143777
798.441	0.0144095
798.519	0.0144709
798.597	0.0145118
798.675	0.0145560
798.753	0.0146169
798.831	0.0146564
798.910	0.0147428
798.988	0.0148093
799.066	0.0147519
799.144	0.0147153
799.222	0.0147332
799.300	0.0149335
799.378	0.0150771
799.456	0.0150984
799.535	0.0148236
799.613	0.0150365
799.691	0.0148380
799.769	0.0148901
799.847	0.0147992
799.925	0.0147646
800.003	0.0147118
800.081	0.0146233
800.160	0.0147254
800.238	0.0147336
800.316	0.0147688
800.394	0.0147601
800.472	0.0149522
800.550	0.0148699
800.628	0.0150010
800.706	0.0151818
800.785	0.0151737
800.863	0.0153277
800.941	0.0154234
801.019	0.0155335
801.097	0.0155042
801.175	0.0154467
801.253	0.0154863
801.331	0.0154105
801.410	0.0152163
801.488	0.0150228
801.566	0.0149985
801.644	0.0146236
801.722	0.0143021
801.800	0.0141071
801.878	0.0137541
801.956	0.0135823
802.035	0.0135155
802.113	0.0134370
802.191	0.0134264
802.269	0.0133906
802.347	0.0135107
802.425	0.0138261
802.503	0.0139139
802.581	0.0139065
802.660	0.0141386
802.738	0.0144215
802.816	0.0147363
802.894	0.0148582
802.972	0.0150302
803.050	0.0152036
803.128	0.0155090
803.206	0.0156489
803.285	0.0159644
803.363	0.0159792
803.441	0.0159949
803.519	0.0161526
803.597	0.0160505
803.675	0.0160596
803.753	0.0158954
803.831	0.0157280
803.910	0.0154447
803.988	0.0153418
804.066	0.0150829
804.144	0.0148578
804.222	0.0144025
804.300	0.0141585
804.378	0.0139457
804.456	0.0137157
804.535	0.0135414
804.613	0.0135284
804.691	0.0132525
804.769	0.0133437
804.847	0.0134134
804.925	0.0132249
805.003	0.0133897
805.081	0.0134563
805.160	0.0136542
805.238	0.0136305
805.316	0.0136297
805.394	0.0138222
805.472	0.0141036
805.550	0.0142130
805.628	0.0144714
805.706	0.0144971
805.785	0.0148809
805.863	0.0150578
805.941	0.0152796
806.019	0.0154517
806.097	0.0156630
806.175	0.0157835
806.253	0.0158173
806.331	0.0160493
806.410	0.0160328
806.488	0.0160059
806.566	0.0159738
806.644	0.0158365
806.722	0.0156808
806.800	0.0156125
806.878	0.0154054
806.956	0.0152724
807.035	0.0151233
807.113	0.0148061
807.191	0.0145483
807.269	0.0144293
807.347	0.0140691
807.425	0.0141637
807.503	0.0140540
807.581	0.0140279
807.660	0.0138548
807.738	0.0138086
807.816	0.0138100
807.894	0.0138911
807.972	0.0137981
808.050	0.0136823
808.128	0.0138863
808.206	0.0138967
808.285	0.0138366
808.363	0.0139905
808.441	0.0141368
808.519	0.0141657
808.597	0.0142573
808.675	0.0145850
808.753	0.0146310
808.831	0.0147500
808.910	0.0148650
808.988	0.0150955
809.066	0.0153448
809.144	0.0153592
809.222	0.0154674
809.300	0.0155319
809.378	0.0156577
809.456	0.0156685
809.535	0.0157200
809.613	0.0154927
809.691	0.0154234
809.769	0.0154204
809.847	0.0152566
809.925	0.0152391
810.003	0.0150857
810.081	0.0149808
810.160	0.0147849
810.238	0.0147329
810.316	0.0145455
810.394	0.0145541
810.472	0.0146301
810.550	0.0144878
810.628	0.0145083
810.706	0.0144050
810.785	0.0142892
810.863	0.0142650
810.941	0.0143517
811.019	0.0142976
811.097	0.0143904
811.175	0.0143163
811.253	0.0142101
811.331	0.0141068
811.410	0.0139848
811.488	0.0140508
811.566	0.0139918
811.644	0.0140073
811.722	0.0141472
811.800	0.0141514
811.878	0.0141592
811.956	0.0142139
812.035	0.0143071
812.113	0.0145486
812.191	0.0146374
812.269	0.0147739
812.347	0.0148019
812.425	0.0147967
812.503	0.0149354
812.581	0.0148018
812.660	0.0150042
812.738	0.0150301
812.816	0.0150907
812.894	0.0150489
812.972	0.0149944
813.050	0.0150427
813.128	0.0150002
813.206	0.0150039
813.285	0.0148051
813.363	0.0148437
813.441	0.0148775
813.519	0.0149374
813.597	0.0150605
813.675	0.0147842
813.753	0.0147945
813.831	0.0150366
813.910	0.0148247
813.988	0.0147898
814.066	0.0148012
814.144	0.0147298
814.222	0.0146958
814.300	0.0146140
814.378	0.0147729
814.456	0.0146052
814.535	0.0145242
814.613	0.0145834
814.691	0.0146156
814.769	0.0144341
814.847	0.0143188
814.925	0.0145340
815.003	0.0145231
815.081	0.0144304
815.160	0.0145520
815.238	0.0146523
815.316	0.0146503
815.394	0.0147332
815.472	0.0147774
815.550	0.0147892
815.628	0.0147737
815.706	0.0149290
815.785	0.0150898
815.863	0.0149567
815.941	0.0150916
816.019	0.0150060
816.097	0.0150944
816.175	0.0150431
816.253	0.0151753
816.331	0.0151582
816.410	0.0150432
816.488	0.0150071
816.566	0.0149786
816.644	0.0148572
816.722	0.0148598
816.800	0.0148436
816.878	0.0146556
816.956	0.0147880
817.035	0.0146265
817.113	0.0146276
817.191	0.0145269
817.269	0.0145573
817.347	0.0145066
817.425	0.0143441
817.503	0.0144048
817.581	0.0145712
817.660	0.0143948
817.738	0.0142691
817.816	0.0142175
817.894	0.0142471
817.972	0.0143497
818.050	0.0143415
818.128	0.0143182
818.206	0.0142114
818.285	0.0143340
818.363	0.0142983
818.441	0.0143361
818.519	0.0143146
818.597	0.0144543
818.675	0.0144991
818.753	0.0146127
818.831	0.0145575
818.910	0.0145750
818.988	0.0146677
819.066	0.0148190
819.144	0.0147906
819.222	0.0149051
819.300	0.0150170
819.378	0.0149338
819.456	0.0149392
819.535	0.0149386
819.613	0.0149387
819.691	0.0150444
819.769	0.0151015
819.847	0.0151891
819.925	0.0150433
820.003	0.0148456
820.081	0.0149595
820.160	0.0150499
820.238	0.0149922
820.316	0.0148617
820.394	0.0147527
820.472	0.0147298
820.550	0.0145833
820.628	0.0146968
820.706	0.0146290
820.785	0.0144700
820.863	0.0144733
820.941	0.0145612
821.019	0.0144918
821.097	0.0144495
821.175	0.0144709
821.253	0.0145328
821.331	0.0146883
821.410	0.0146176
821.488	0.0147028
821.566	0.0147926
821.644	0.0148579
821.722	0.0149541
821.800	0.0149566
821.878	0.0150365
821.956	0.0151100
822.035	0.0150348
822.113	0.0151541
822.191	0.0151761
822.269	0.0150584
822.347	0.0150503
822.425	0.0149939
822.503	0.0150914
822.581	0.0149900
822.660	0.0147131
822.738	0.0147583
822.816	0.0147433
822.894	0.0147276
822.972	0.0145894
823.050	0.0145700
823.128	0.0143893
823.206	0.0145089
823.285	0.0144922
823.363	0.0143315
823.441	0.0144137
823.519	0.0144502
823.597	0.0143378
823.675	0.0144150
823.753	0.0143334
823.831	0.0143918
823.910	0.0143785
823.988	0.0144000
824.066	0.0144085
824.144	0.0145180
824.222	0.0146842
824.300	0.0147231
824.378	0.0147617
824.456	0.0147399
824.535	0.0148979
824.613	0.0148532
824.691	0.0147086
824.769	0.0148108
824.847	0.0149753
824.925	0.0149713
825.003	0.0150460
825.081	0.0149933
825.160	0.0152109
825.238	0.0151119
825.316	0.0149944
825.394	0.0149883
825.472	0.0151032
825.550	0.0150449
825.628	0.0149525
825.706	0.0148284
825.785	0.0149389
825.863	0.0148241
825.941	0.0146776
826.019	0.0148798
826.097	0.0148130
826.175	0.0147736
826.253	0.0146436
826.331	0.0146560
826.410	0.0146302
826.488	0.0146106
826.566	0.0145718
826.644	0.0146411
826.722	0.0145855
826.800	0.0145073
826.878	0.0145922
826.956	0.0145009
827.035	0.0143633
827.113	0.0146243
827.191	0.0144508
827.269	0.0143003
827.347	0.0142751
827.425	0.0142513
827.503	0.0141994
827.581	0.0140615
827.660	0.0142466
827.738	0.0141385
827.816	0.0141206
827.894	0.0142517
827.972	0.0143044
828.050	0.0144373
828.128	0.0144103
828.206	0.0146806
828.285	0.0149728
828.363	0.0149093
828.441	0.0151374
828.519	0.0153095
828.597	0.0155590
828.675	0.0155840
828.753	0.0156995
828.831	0.0158763
828.910	0.0158401
828.988	0.0156694
829.066	0.0156989
829.144	0.0157292
829.222	0.0154064
829.300	0.0154302
829.378	0.0150801
829.456	0.0150098
829.535	0.0147421
829.613	0.0145688
829.691	0.0144000
829.769	0.0141416
829.847	0.0140013
829.925	0.0139133
830.003	0.0137722
830.081	0.0138492
830.160	0.0138081
830.238	0.0138082
830.316	0.0137899
830.394	0.0138940
830.472	0.0140587
830.550	0.0141166
830.628	0.0141442
830.706	0.0142551
830.785	0.0143678
830.863	0.0145336
830.941	0.0147253
831.019	0.0147294
831.097	0.0149160
831.175	0.0149555
831.253	0.0149021
831.331	0.0149469
831.410	0.0151073
831.488	0.0151434
831.566	0.0150948
831.644	0.0151503
831.722	0.0151610
831.800	0.0151741
831.878	0.0150011
831.956	0.0148365
832.035	0.0149438
832.113	0.0149126
832.191	0.0149345
832.269	0.0146505
832.347	0.0145780
832.425	0.0146075
832.503	0.0145959
832.581	0.0145668
832.660	0.0146482
832.738	0.0146680
832.816	0.0144646
832.894	0.0145153
832.972	0.0146416
833.050	0.0144733
833.128	0.0145872
833.206	0.0146674
833.285	0.0145937
833.363	0.0146719
833.441	0.0148133
833.519	0.0147455
833.597	0.0148481
833.675	0.0147488
833.753	0.0148566
833.831	0.0148932
833.910	0.0149184
833.988	0.0148603
834.066	0.0149023
834.144	0.0149066
834.222	0.0148499
834.300	0.0147655
834.378	0.0146930
834.456	0.0147569
834.535	0.0147597
834.613	0.0145935
834.691	0.0144726
834.769	0.0145319
834.847	0.0144302
834.925	0.0143140
835.003	0.0144351
835.081	0.0143462
835.160	0.0143422
835.238	0.0143472
835.316	0.0142719
835.394	0.0141901
835.472	0.0144061
835.550	0.0144028
835.628	0.0143224
835.706	0.0143193
835.785	0.0143414
835.863	0.0142675
835.941	0.0145737
836.019	0.0144762
836.097	0.0144556
836.175	0.0144833
836.253	0.0147363
836.331	0.0148272
836.410	0.0149039
836.488	0.0149722
836.566	0.0149957
836.644	0.0150964
836.722	0.0151337
836.800	0.0153043
836.878	0.0153030
836.956	0.0152933
837.035	0.0151782
837.113	0.0153457
837.191	0.0153671
837.269	0.0154012
837.347	0.0153802
837.425	0.0153065
837.503	0.0151015
837.581	0.0151910
837.660	0.0151749
837.738	0.0149145
837.816	0.0150533
837.894	0.0150076
837.972	0.0147095
838.050	0.0146442
838.128	0.0145311
838.206	0.0144384
838.285	0.0143701
838.363	0.0142977
838.441	0.0141852
838.519	0.0141361
838.597	0.0140189
838.675	0.0138573
838.753	0.0139014
838.831	0.0138341
838.910	0.0137624
838.988	0.0138097
839.066	0.0138432
839.144	0.0137459
839.222	0.0139846
839.300	0.0139507
839.378	0.0141306
839.456	0.0142577
839.535	0.0145114
839.613	0.0146461
839.691	0.0146213
839.769	0.0148583
839.847	0.0151201
839.925	0.0151687
840.003	0.0151926
840.081	0.0153252
840.160	0.0153961
840.238	0.0152470
840.316	0.0153823
840.394	0.0154099
840.472	0.0152396
840.550	0.0152545
840.628	0.0152777
840.706	0.0152287
840.785	0.0152420
840.863	0.0151659
840.941	0.0151215
841.019	0.0149788
841.097	0.0149365
841.175	0.0147360
841.253	0.0146809
841.331	0.0146035
841.410	0.0145071
841.488	0.0144665
841.566	0.0143121
841.644	0.0144359
841.722	0.0143960
841.800	0.0144724
841.878	0.0144128
841.956	0.0143417
842.035	0.0143903
842.113	0.0143785
842.191	0.0145481
842.269	0.0144664
842.347	0.0144061
842.425	0.0144000
842.503	0.0145966
842.581	0.0145409
842.660	0.0144785
842.738	0.0145890
842.816	0.0145265
842.894	0.0144398
842.972	0.0144764
843.050	0.0144011
843.128	0.0143381
843.206	0.0145649
843.285	0.0144833
843.363	0.0144481
843.441	0.0143838
843.519	0.0144424
843.597	0.0145982
843.675	0.0144789
843.753	0.0144604
843.831	0.0144389
843.910	0.0145531
843.988	0.0146358
844.066	0.0147858
844.144	0.0146676
844.222	0.0147054
844.300	0.0149379
844.378	0.0147955
844.456	0.0148676
844.535	0.0150480
844.613	0.0151178
844.691	0.0151229
844.769	0.0152850
844.847	0.0152924
844.925	0.0152903
845.003	0.0153006
845.081	0.0152127
845.160	0.0151541
845.238	0.0152707
845.316	0.0152791
845.394	0.0151629
845.472	0.0150251
845.550	0.0150144
845.628	0.0151175
845.706	0.0150301
845.785	0.0148686
845.863	0.0146964
845.941	0.0144532
846.019	0.0144881
846.097	0.0144904
846.175	0.0142802
846.253	0.0141910
846.331	0.0140664
846.410	0.0139014
846.488	0.0138763
846.566	0.0138194
846.644	0.0138788
846.722	0.0138096
846.800	0.0138103
846.878	0.0140112
846.956	0.0138705
847.035	0.0140580
847.113	0.0141595
847.191	0.0140224
847.269	0.0140549
847.347	0.0142715
847.425	0.0143204
847.503	0.0143965
847.581	0.0146162
847.660	0.0147150
847.738	0.0147859
847.816	0.0149532
847.894	0.0150217
847.972	0.0151355
848.050	0.0151805
848.128	0.0151501
848.206	0.0154457
848.285	0.0155262
848.363	0.0156001
848.441	0.0156017
848.519	0.0155141
848.597	0.0156236
848.675	0.0156453
848.753	0.0156133
848.831	0.0153380
848.910	0.0152212
848.988	0.0152484
849.066	0.0150066
849.144	0.0148587
849.222	0.0147627
849.300	0.0147150
849.378	0.0145801
849.456	0.0144282
849.535	0.0143097
849.613	0.0142859
849.691	0.0141786
849.769	0.0144592
849.847	0.0143217
849.925	0.0142880
850.003	0.0143005
850.081	0.0143794
850.160	0.0144169
850.238	0.0143523
850.316	0.0143318
850.394	0.0143083
850.472	0.0143955
850.550	0.0144574
850.628	0.0143217
850.706	0.0142239
850.785	0.0142628
850.863	0.0141393
850.941	0.0144100
851.019	0.0144310
851.097	0.0146093
851.175	0.0145005
851.253	0.0145875
851.331	0.0145333
851.410	0.0146371
851.488	0.0146835
851.566	0.0148883
851.644	0.0150116
851.722	0.0149478
851.800	0.0151013
851.878	0.0149718
851.956	0.0150261
852.035	0.0152869
852.113	0.0152367
852.191	0.0151787
852.269	0.0153036
852.347	0.0152563
852.425	0.0152496
852.503	0.0152247
852.581	0.0151679
852.660	0.0151138
852.738	0.0150746
852.816	0.0150560
852.894	0.0150322
852.972	0.0149991
853.050	0.0149032
853.128	0.0148313
853.206	0.0147350
853.285	0.0147024
853.363	0.0147102
853.441	0.0146240
853.519	0.0146470
853.597	0.0146877
853.675	0.0143889
853.753	0.0144663
853.831	0.0145436
853.910	0.0145885
853.988	0.0144897
854.066	0.0143145
854.144	0.0142162
854.222	0.0143614
854.300	0.0143093
854.378	0.0142608
854.456	0.0142739
854.535	0.0141602
854.613	0.0142181
854.691	0.0140578
854.769	0.0141806
854.847	0.0141200
854.925	0.0142347
855.003	0.0142333
855.081	0.0140689
855.160	0.0143124
855.238	0.0143056
855.316	0.0144597
855.394	0.0145393
855.472	0.0145663
855.550	0.0147672
855.628	0.0147289
855.706	0.0148977
855.785	0.0148940
855.863	0.0150185
855.941	0.0149390
856.019	0.0148703
856.097	0.0150269
856.175	0.0149905
856.253	0.0148234
856.331	0.0149168
856.410	0.0148746
856.488	0.0149410
856.566	0.0148622
856.644	0.0148354
856.722	0.0147090
856.800	0.0148108
856.878	0.0148138
856.956	0.0146552
857.035	0.0147692
857.113	0.0147734
857.191	0.0147283
857.269	0.0146658
857.347	0.0146459
857.425	0.0145163
857.503	0.0146094
857.581	0.0145538
857.660	0.0143702
857.738	0.0144649
857.816	0.0146203
857.894	0.0144573
857.972	0.0143702
858.050	0.0142266
858.128	0.0142616
858.206	0.0142961
858.285	0.0145129
858.363	0.0143417
858.441	0.0143375
858.519	0.0144206
858.597	0.0142699
858.675	0.0145943
858.753	0.0145108
858.831	0.0144849
858.910	0.0147255
858.988	0.0147063
859.066	0.0147472
859.144	0.0148285
859.222	0.0147849
859.300	0.0147836
859.378	0.0149203
859.456	0.0148412
859.535	0.0149927
859.613	0.0149731
859.691	0.0146952
859.769	0.0149010
859.847	0.0148866
859.925	0.0148538
860.003	0.0148642
860.081	0.0147602
860.160	0.0146832
860.238	0.0147996
860.316	0.0148127
860.394	0.0146714
860.472	0.0147937
860.550	0.0146884
860.628	0.0147588
860.706	0.0149840
860.785	0.0147926
860.863	0.0147522
860.941	0.0149154
861.019	0.0148393
861.097	0.0146877
861.175	0.0146042
861.253	0.0146151
861.331	0.0147455
861.410	0.0147311
861.488	0.0145640
861.566	0.0145671
861.644	0.0146136
861.722	0.0146307
861.800	0.0146029
861.878	0.0145582
861.956	0.0146717
862.035	0.0145506
862.113	0.0145341
862.191	0.0146296
862.269	0.0145757
862.347	0.0145932
862.425	0.0145831
862.503	0.0147334
862.581	0.0144570
862.660	0.0145920
862.738	0.0145853
862.816	0.0145930
862.894	0.0146388
862.972	0.0145284
863.050	0.0145164
863.128	0.0144510
863.206	0.0145372
863.285	0.0144477
863.363	0.0144852
863.441	0.0143716
863.519	0.0143369
863.597	0.0145182
863.675	0.0143542
863.753	0.0144174
863.831	0.0143620
863.910	0.0145638
863.988	0.0146203
864.066	0.0146265
864.144	0.0145744
864.222	0.0146147
864.300	0.0146491
864.378	0.0147879
864.456	0.0148082
864.535	0.0146864
864.613	0.0147237
864.691	0.0148655
864.769	0.0147024
864.847	0.0147430
864.925	0.0147352
865.003	0.0145559
865.081	0.0146279
865.160	0.0146279
865.238	0.0144402
865.316	0.0145290
865.394	0.0143971
865.472	0.0144880
865.550	0.0145226
865.628	0.0144246
865.706	0.0144866
865.785	0.0145195
865.863	0.0146276
865.941	0.0146970
866.019	0.0146794
866.097	0.0146696
866.175	0.0146145
866.253	0.0147482
866.331	0.0149127
866.410	0.0147735
866.488	0.0148428
866.566	0.0147848
866.644	0.0149580
866.722	0.0149547
866.800	0.0148553
866.878	0.0145734
866.956	0.0147969
867.035	0.0146460
867.113	0.0145836
867.191	0.0144342
867.269	0.0144746
867.347	0.0145129
867.425	0.0144273
867.503	0.0144052
867.581	0.0142565
867.660	0.0143060
867.738	0.0141837
867.816	0.0142181
867.894	0.0143373
867.972	0.0144048
868.050	0.0145220
868.128	0.0145863
868.206	0.0146230
868.285	0.0149051
868.363	0.0147420
868.441	0.0147523
868.519	0.0149146
868.597	0.0149443
868.675	0.0147963
868.753	0.0150484
868.831	0.0150259
868.910	0.0150364
868.988	0.0149890
869.066	0.0150540
869.144	0.0149453
869.222	0.0150937
869.300	0.0150614
869.378	0.0149890
869.456	0.0147956
869.535	0.0148800
869.613	0.0148492
869.691	0.0147439
869.769	0.0147698
869.847	0.0147289
869.925	0.0145628
870.003	0.0145216
870.081	0.0144592
870.160	0.0144499
870.238	0.0145163
870.316	0.0143175
870.394	0.0142979
870.472	0.0142867
870.550	0.0142507
870.628	0.0145072
870.706	0.0143230
870.785	0.0143858
870.863	0.0144109
870.941	0.0143916
871.019	0.0143971
871.097	0.0144722
871.175	0.0145735
871.253	0.0145872
871.331	0.0145324
871.410	0.0145606
871.488	0.0146600
871.566	0.0146426
871.644	0.0146137
871.722	0.0145446
871.800	0.0145998
871.878	0.0144870
871.956	0.0146459
872.035	0.0146484
872.113	0.0148085
872.191	0.0146308
872.269	0.0147753
872.347	0.0148206
872.425	0.0147345
872.503	0.0148184
872.581	0.0149013
872.660	0.0147753
872.738	0.0148514
872.816	0.0150448
872.894	0.0149674
872.972	0.0150324
873.050	0.0149170
873.128	0.0149770
873.206	0.0150405
873.285	0.0149979
873.363	0.0150655
873.441	0.0150674
873.519	0.0149506
873.597	0.0148507
873.675	0.0148077
873.753	0.0146580
873.831	0.0148165
873.910	0.0147720
873.988	0.0146464
874.066	0.0145410
874.144	0.0145260
874.222	0.0146748
874.300	0.0145580
874.378	0.0144786
874.456	0.0145364
874.535	0.0143040
874.613	0.0142850
874.691	0.0143370
874.769	0.0144655
874.847	0.0145425
874.925	0.0143372
875.003	0.0144952
875.081	0.0145003
875.160	0.0146036
875.238	0.0146985
875.316	0.0146609
875.394	0.0148270
875.472	0.0147858
875.550	0.0146481
875.628	0.0146638
875.706	0.0148388
875.785	0.0149483
875.863	0.0149012
875.941	0.0149374
876.019	0.0148682
876.097	0.0149754
876.175	0.0148659
876.253	0.0146993
876.331	0.0148234
876.410	0.0146877
876.488	0.0147192
876.566	0.0147258
876.644	0.0147334
876.722	0.0146547
876.800	0.0146384
876.878	0.0147419
876.956	0.0146420
877.035	0.0145487
877.113	0.0145608
877.191	0.0144645
877.269	0.0145979
877.347	0.0143658
877.425	0.0144967
877.503	0.0145312
877.581	0.0145964
877.660	0.0145510
877.738	0.0146029
877.816	0.0145248
877.894	0.0145713
877.972	0.0148450
878.050	0.0149017
878.128	0.0146916
878.206	0.0145528
878.285	0.0147320
878.363	0.0147399
878.441	0.0146176
878.519	0.0145003
878.597	0.0147234
878.675	0.0144899
878.753	0.0144872
878.831	0.0145123
878.910	0.0146305
878.988	0.0145316
879.066	0.0144069
879.144	0.0146194
879.222	0.0145502
879.300	0.0144965
879.378	0.0144968
879.456	0.0146618
879.535	0.0147387
879.613	0.0148034
879.691	0.0148327
879.769	0.0146346
879.847	0.0147448
879.925	0.0147211
880.003	0.0146984
880.081	0.0149880
880.160	0.0148450
880.238	0.0148961
880.316	0.0149095
880.394	0.0150200
880.472	0.0148244
880.550	0.0149843
880.628	0.0150333
880.706	0.0150102
880.785	0.0148472
880.863	0.0148753
880.941	0.0150992
881.019	0.0150011
881.097	0.0147675
881.175	0.0148235
881.253	0.0148787
881.331	0.0147935
881.410	0.0147685
881.488	0.0147189
881.566	0.0146922
881.644	0.0146174
881.722	0.0144798
881.800	0.0143739
881.878	0.0144314
881.956	0.0144381
882.035	0.0143476
882.113	0.0143222
882.191	0.0141861
882.269	0.0142976
882.347	0.0143932
882.425	0.0142862
882.503	0.0143559
882.581	0.0143265
882.660	0.0143536
882.738	0.0143079
882.816	0.0141953
882.894	0.0143081
882.972	0.0144867
883.050	0.0144774
883.128	0.0143829
883.206	0.0144482
883.285	0.0145529
883.363	0.0146741
883.441	0.0145879
883.519	0.0146204
883.597	0.0146709
883.675	0.0146726
883.753	0.0147582
883.831	0.0147542
883.910	0.0146665
883.988	0.0146124
884.066	0.0148182
884.144	0.0147482
884.222	0.0147090
884.300	0.0146690
884.378	0.0146291
884.456	0.0146928
884.535	0.0146746
884.613	0.0146831
884.691	0.0147773
884.769	0.0146418
884.847	0.0146658
884.925	0.0146308
885.003	0.0147122
885.081	0.0146809
885.160	0.0147617
885.238	0.0147153
885.316	0.0147214
885.394	0.0146939
885.472	0.0146461
885.550	0.0146707
885.628	0.0147231
885.706	0.0146744
885.785	0.0147108
885.863	0.0146664
885.941	0.0147105
886.019	0.0147839
886.097	0.0147897
886.175	0.0147678
886.253	0.0146173
886.331	0.0146170
886.410	0.0147351
886.488	0.0147289
886.566	0.0146803
886.644	0.0145325
886.722	0.0147078
886.800	0.0144909
886.878	0.0145005
886.956	0.0145698
887.035	0.0145097
887.113	0.0145046
887.191	0.0145780
887.269	0.0145822
887.347	0.0144441
887.425	0.0146091
887.503	0.0144080
887.581	0.0144459
887.660	0.0143633
887.738	0.0143325
887.816	0.0142931
887.894	0.0142110
887.972	0.0142522
888.050	0.0143402
888.128	0.0142989
888.206	0.0144460
888.285	0.0144504
888.363	0.0145131
888.441	0.0144839
888.519	0.0145716
888.597	0.0147630
888.675	0.0146356
888.753	0.0148345
888.831	0.0148933
888.910	0.0149251
888.988	0.0148631
889.066	0.0148455
889.144	0.0149659
889.222	0.0149858
889.300	0.0151285
889.378	0.0149249
889.456	0.0147935
889.535	0.0149332
889.613	0.0147507
889.691	0.0148018
889.769	0.0148519
889.847	0.0147758
889.925	0.0148104
890.003	0.0147347
890.081	0.0146574
890.160	0.0146202
890.238	0.0147340
890.316	0.0147325
890.394	0.0146395
890.472	0.0146841
890.550	0.0146625
890.628	0.0145757
890.706	0.0147408
890.785	0.0146985
890.863	0.0146001
890.941	0.0144987
891.019	0.0145649
891.097	0.0144439
891.175	0.0144426
891.253	0.0144363
891.331	0.0143140
891.410	0.0143607
891.488	0.0143331
891.566	0.0143565
891.644	0.0142741
891.722	0.0143877
891.800	0.0142017
891.878	0.0144423
891.956	0.0143458
892.035	0.0143205
892.113	0.0144524
892.191	0.0145404
892.269	0.0146535
892.347	0.0146215
892.425	0.0143790
892.503	0.0145920
892.581	0.0146420
892.660	0.0147002
892.738	0.0147794
892.816	0.0148089
892.894	0.0147345
892.972	0.0147993
893.050	0.0149094
893.128	0.0148884
893.206	0.0148464
893.285	0.0148228
893.363	0.0149498
893.441	0.0150064
893.519	0.0149552
893.597	0.0150679
893.675	0.0150462
893.753	0.0151151
893.831	0.0149584
893.910	0.0148557
893.988	0.0149546
894.066	0.0149879
894.144	0.0146667
894.222	0.0146124
894.300	0.0147287
894.378	0.0145663
894.456	0.0145703
894.535	0.0144898
894.613	0.0146354
894.691	0.0144061
894.769	0.0144123
894.847	0.0145556
894.925	0.0144151
895.003	0.0145277
895.081	0.0145595
895.160	0.0145967
895.238	0.0145798
895.316	0.0145935
895.394	0.0146051
895.472	0.0145213
895.550	0.0146962
895.628	0.0146329
895.706	0.0144547
895.785	0.0145910
895.863	0.0146280
895.941	0.0146014
896.019	0.0145945
896.097	0.0146970
896.175	0.0146853
896.253	0.0148334
896.331	0.0150409
896.410	0.0149946
896.488	0.0150653
896.566	0.0152557
896.644	0.0153557
896.722	0.0153773
896.800	0.0154581
896.878	0.0152637
896.956	0.0153443
897.035	0.0152586
897.113	0.0149165
897.191	0.0147552
897.269	0.0146384
897.347	0.0142992
897.425	0.0141420
897.503	0.0140679
897.581	0.0138019
897.660	0.0138450
897.738	0.0138966
897.816	0.0140224
897.894	0.0142205
897.972	0.0145889
898.050	0.0148736
898.128	0.0151781
898.206	0.0154408
898.285	0.0156880
898.363	0.0158407
898.441	0.0159180
898.519	0.0159964
898.597	0.0157973
898.675	0.0156859
898.753	0.0155174
898.831	0.0153733
898.910	0.0151877
898.988	0.0149608
899.066	0.0148450
899.144	0.0145564
899.222	0.0144070
899.300	0.0142767
899.378	0.0139384
899.456	0.0136939
899.535	0.0133957
899.613	0.0132755
899.691	0.0131118
899.769	0.0130432
899.847	0.0127473
899.925	0.0128900
900.003	0.0129167
900.081	0.0130589
900.160	0.0133958
900.238	0.0137062
900.316	0.0139706
900.394	0.0145028
900.472	0.0150146
900.550	0.0152650
900.628	0.0157107
900.706	0.0161469
900.785	0.0164495
900.863	0.0164305
900.941	0.0165544
901.019	0.0164558
901.097	0.0163336
901.175	0.0163776
901.253	0.0163285
901.331	0.0160888
901.410	0.0158809
901.488	0.0158358
901.566	0.0154548
901.644	0.0152443
901.722	0.0150317
901.800	0.0148471
901.878	0.0146381
901.956	0.0142889
902.035	0.0139896
902.113	0.0138249
902.191	0.0135930
902.269	0.0133897
902.347	0.0130941
902.425	0.0130772
902.503	0.0129383
902.581	0.0130331
902.660	0.0130260
902.738	0.0133322
902.816	0.0132732
902.894	0.0134436
902.972	0.0136373
903.050	0.0139201
903.128	0.0141187
903.206	0.0145303
903.285	0.0147813
903.363	0.0151293
903.441	0.0152212
903.519	0.0155141
903.597	0.0156652
903.675	0.0155867
903.753	0.0158903
903.831	0.0159401
903.910	0.0159131
903.988	0.0158892
904.066	0.0158987
904.144	0.0159725
904.222	0.0158384
904.300	0.0158484
904.378	0.0159434
904.456	0.0157684
904.535	0.0157919
904.613	0.0157340
904.691	0.0155731
904.769	0.0154786
904.847	0.0154153
904.925	0.0150548
905.003	0.0149171
905.081	0.0147229
905.160	0.0143995
905.238	0.0141825
905.316	0.0141454
905.394	0.0138919
905.472	0.0135354
905.550	0.0134852
905.628	0.0133496
905.706	0.0134050
905.785	0.0132808
905.863	0.0134541
905.941	0.0133821
906.019	0.0135166
906.097	0.0137072
906.175	0.0136739
906.253	0.0138709
906.331	0.0140882
906.410	0.0143851
906.488	0.0145116
906.566	0.0146527
906.644	0.0147325
906.722	0.0149025
906.800	0.0150422
906.878	0.0150568
906.956	0.0149959
907.035	0.0152620
907.113	0.0151359
907.191	0.0150883
907.269	0.0152147
907.347	0.0152927
907.425	0.0154020
907.503	0.0155180
907.581	0.0155157
907.660	0.0153220
907.738	0.0154778
907.816	0.0153583
907.894	0.0152708
907.972	0.0152776
908.050	0.0152380
908.128	0.0149869
908.206	0.0148403
908.285	0.0145441
908.363	0.0145338
908.441	0.0143866
908.519	0.0142490
908.597	0.0140459
908.675	0.0141074
908.753	0.0141872
908.831	0.0142701
908.910	0.0142226
908.988	0.0139882
909.066	0.0143088
909.144	0.0144585
909.222	0.0143372
909.300	0.0145770
909.378	0.0144201
909.456	0.0145689
909.535	0.0145017
909.613	0.0144589
909.691	0.0143930
909.769	0.0142941
909.847	0.0144306
909.925	0.0142170
910.003	0.0142524
910.081	0.0145751
910.160	0.0144431
910.238	0.0144674
910.316	0.0145715
910.394	0.0146220
910.472	0.0147330
910.550	0.0147574
910.628	0.0147916
910.706	0.0148544
910.785	0.0149405
910.863	0.0149289
910.941	0.0149896
911.019	0.0151408
911.097	0.0151492
911.175	0.0151584
911.253	0.0151862
911.331	0.0153127
911.410	0.0153674
911.488	0.0151242
911.566	0.0151170
911.644	0.0151431
911.722	0.0151521
911.800	0.0152502
911.878	0.0149633
911.956	0.0150542
912.035	0.0148057
912.113	0.0148716
912.191	0.0149480
912.269	0.0146668
912.347	0.0147522
912.425	0.0145621
912.503	0.0144827
912.581	0.0146666
912.660	0.0145287
912.738	0.0144693
912.816	0.0145560
912.894	0.0146614
912.972	0.0146698
913.050	0.0143829
913.128	0.0146182
913.206	0.0145928
913.285	0.0145242
913.363	0.0147000
913.441	0.0145565
913.519	0.0146630
913.597	0.0146557
913.675	0.0145769
913.753	0.0145091
913.831	0.0146632
913.910	0.0144840
913.988	0.0143520
914.066	0.0142981
914.144	0.0142701
914.222	0.0143397
914.300	0.0142522
914.378	0.0142027
914.456	0.0143918
914.535	0.0143521
914.613	0.0144797
914.691	0.0145064
914.769	0.0145992
914.847	0.0145790
914.925	0.0145831
915.003	0.0147368
915.081	0.0147253
915.160	0.0149627
915.238	0.0150225
915.316	0.0151591
915.394	0.0150335
915.472	0.0151650
915.550	0.0150291
915.628	0.0150819
915.706	0.0152246
915.785	0.0150679
915.863	0.0149364
915.941	0.0150401
916.019	0.0149608
916.097	0.0149089
916.175	0.0150230
916.253	0.0149451
916.331	0.0149055
916.410	0.0148129
916.488	0.0147260
916.566	0.0148753
916.644	0.0149068
916.722	0.0149352
916.800	0.0146695
916.878	0.0147845
916.956	0.0147955
917.035	0.0149382
917.113	0.0147726
917.191	0.0146876
917.269	0.0146222
917.347	0.0146121
917.425	0.0145342
917.503	0.0144382
917.581	0.0144673
917.660	0.0144328
917.738	0.0143996
917.816	0.0142248
917.894	0.0142203
917.972	0.0141095
918.050	0.0142945
918.128	0.0142351
918.206	0.0142889
918.285	0.0144253
918.363	0.0145229
918.441	0.0144561
918.519	0.0145867
918.597	0.0147245
918.675	0.0146336
918.753	0.0146913
918.831	0.0148102
918.910	0.0148268
918.988	0.0150055
919.066	0.0149725
919.144	0.0151813
919.222	0.0151582
919.300	0.0150492
919.378	0.0151156
919.456	0.0153082
919.535	0.0150715
919.613	0.0150171
919.691	0.0151628
919.769	0.0151517
919.847	0.0150465
919.925	0.0151891
920.003	0.0152583
920.081	0.0149887
920.160	0.0150598
920.238	0.0150914
920.316	0.0150754
920.394	0.0150602
920.472	0.0148312
920.550	0.0148097
920.628	0.0149019
920.706	0.0146318
920.785	0.0146354
920.863	0.0145940
920.941	0.0144711
921.019	0.0142969
921.097	0.0144313
921.175	0.0143816
921.253	0.0142439
921.331	0.0141330
921.410	0.0142301
921.488	0.0141980
921.566	0.0142215
921.644	0.0141022
921.722	0.0142222
921.800	0.0141261
921.878	0.0141808
921.956	0.0142308
922.035	0.0143815
922.113	0.0145159
922.191	0.0142926
922.269	0.0145023
922.347	0.0145413
922.425	0.0146351
922.503	0.0147420
922.581	0.0147109
922.660	0.0148196
922.738	0.0147948
922.816	0.0150683
922.894	0.0151134
922.972	0.0151505
923.050	0.0151600
923.128	0.0152794
923.206	0.0152302
923.285	0.0153125
923.363	0.0153443
923.441	0.0153530
923.519	0.0152527
923.597	0.0154046
923.675	0.0153423
923.753	0.0154952
923.831	0.0151114
923.910	0.0151846
923.988	0.0151249
924.066	0.0149847
924.144	0.0149358
924.222	0.0149149
924.300	0.0147723
924.378	0.0147065
924.456	0.0146617
924.535	0.0146554
924.613	0.0144731
924.691	0.0145716
924.769	0.0145193
924.847	0.0145553
924.925	0.0146357
925.003	0.0145793
925.081	0.0147697
925.160	0.0147765
925.238	0.0148299
925.316	0.0148317
925.394	0.0150586
925.472	0.0149898
925.550	0.0150895
925.628	0.0149112
925.706	0.0148186
925.785	0.0148220
925.863	0.0147462
925.941	0.0148589
926.019	0.0146224
926.097	0.0146497
926.175	0.0143656
926.253	0.0144717
926.331	0.0145557
926.410	0.0143852
926.488	0.0144422
926.566	0.0142574
926.644	0.0143201
926.722	0.0143981
926.800	0.0144709
926.878	0.0144407
926.956	0.0145421
927.035	0.0147554
927.113	0.0145869
927.191	0.0145570
927.269	0.0145864
927.347	0.0146158
927.425	0.0148798
927.503	0.0149075
927.581	0.0150815
927.660	0.0150096
927.738	0.0150851
927.816	0.0151286
927.894	0.0151399
927.972	0.0151065
928.050	0.0151670
928.128	0.0150034
928.206	0.0151416
928.285	0.0150446
928.363	0.0149037
928.441	0.0149058
928.519	0.0148324
928.597	0.0146439
928.675	0.0144793
928.753	0.0144350
928.831	0.0143426
928.910	0.0143373
928.988	0.0144073
929.066	0.0142500
929.144	0.0140899
929.222	0.0143306
929.300	0.0143533
929.378	0.0142180
929.456	0.0144502
929.535	0.0143159
929.613	0.0144582
929.691	0.0145205
929.769	0.0144049
929.847	0.0145014
929.925	0.0143684
930.003	0.0145438
930.081	0.0146729
930.160	0.0147960
930.238	0.0148112
930.316	0.0147359
930.394	0.0150103
930.472	0.0148441
930.550	0.0149768
930.628	0.0151937
930.706	0.0150271
930.785	0.0151340
930.863	0.0151141
930.941	0.0150868
931.019	0.0150823
931.097	0.0150926
931.175	0.0151002
931.253	0.0150950
931.331	0.0149930
931.410	0.0148607
931.488	0.0148662
931.566	0.0148902
931.644	0.0149484
931.722	0.0147967
931.800	0.0148258
931.878	0.0146621
931.956	0.0145248
932.035	0.0148059
932.113	0.0146429
932.191	0.0146241
932.269	0.0144597
932.347	0.0146098
932.425	0.0145392
932.503	0.0143951
932.581	0.0146087
932.660	0.0145375
932.738	0.0144876
932.816	0.0145750
932.894	0.0145185
932.972	0.0145039
933.050	0.0145363
933.128	0.0146162
933.206	0.0146609
933.285	0.0146277
933.363	0.0147353
933.441	0.0148887
933.519	0.0148263
933.597	0.0147796
933.675	0.0148302
933.753	0.0148512
933.831	0.0146892
933.910	0.0148251
933.988	0.0144691
934.066	0.0146241
934.144	0.0146853
934.222	0.0146735
934.300	0.0146739
934.378	0.0145353
934.456	0.0145528
934.535	0.0145441
934.613	0.0145539
934.691	0.0145137
934.769	0.0144931
934.847	0.0145438
934.925	0.0144746
935.003	0.0145174
935.081	0.0144294
935.160	0.0143398
935.238	0.0143716
935.316	0.0144398
935.394	0.0144335
935.472	0.0144338
935.550	0.0145190
935.628	0.0145570
935.706	0.0145975
935.785	0.0146777
935.863	0.0146722
935.941	0.0146052
936.019	0.0146767
936.097	0.0146822
936.175	0.0148169
936.253	0.0147474
936.331	0.0147733
936.410	0.0147085
936.488	0.0147340
936.566	0.0147443
936.644	0.0146687
936.722	0.0147486
936.800	0.0148893
936.878	0.0147674
936.956	0.0147449
937.035	0.0147690
937.113	0.0147218
937.191	0.0146793
937.269	0.0146569
937.347	0.0146217
937.425	0.0145597
937.503	0.0144494
937.581	0.0145602
937.660	0.0142899
937.738	0.0144277
937.816	0.0143572
937.894	0.0141953
937.972	0.0144923
938.050	0.0144724
938.128	0.0143951
938.206	0.0145618
938.285	0.0146208
938.363	0.0146008
938.441	0.0146317
938.519	0.0147379
938.597	0.0148242
938.675	0.0148296
938.753	0.0149924
938.831	0.0149040
938.910	0.0148583
938.988	0.0148616
939.066	0.0148151
939.144	0.0148325
939.222	0.0148247
939.300	0.0146677
939.378	0.0147696
939.456	0.0146989
939.535	0.0147353
939.613	0.0147146
939.691	0.0147007
939.769	0.0148335
939.847	0.0146786
939.925	0.0147486
940.003	0.0148370
940.081	0.0147948
940.160	0.0147972
940.238	0.0146752
940.316	0.0146696
940.394	0.0146683
940.472	0.0147012
940.550	0.0147704
940.628	0.0145125
940.706	0.0145201
940.785	0.0146003
940.863	0.0146695
940.941	0.0145202
941.019	0.0145731
941.097	0.0145107
941.175	0.0146334
941.253	0.0145206
941.331	0.0144504
941.410	0.0145837
941.488	0.0145537
941.566	0.0144123
941.644	0.0146114
941.722	0.0146682
941.800	0.0145660
941.878	0.0146642
941.956	0.0147297
942.035	0.0147361
942.113	0.0147353
942.191	0.0147412
942.269	0.0148308
942.347	0.0148997
942.425	0.0150214
942.503	0.0150303
942.581	0.0149048
942.660	0.0150740
942.738	0.0149055
942.816	0.0149632
942.894	0.0149112
942.972	0.0149304
943.050	0.0147777
943.128	0.0147613
943.206	0.0146593
943.285	0.0146773
943.363	0.0147115
943.441	0.0145123
943.519	0.0145190
943.597	0.0144976
943.675	0.0145522
943.753	0.0145318
943.831	0.0145239
943.910	0.0143860
943.988	0.0144250
944.066	0.0144014
944.144	0.0143884
944.222	0.0146236
944.300	0.0146071
944.378	0.0146133
944.456	0.0146930
944.535	0.0147289
944.613	0.0146948
944.691	0.0147093
944.769	0.0148111
944.847	0.0148723
944.925	0.0149387
945.003	0.0148826
945.081	0.0148965
945.160	0.0148586
945.238	0.0148207
945.316	0.0148109
945.394	0.0148724
945.472	0.0149282
945.550	0.0149113
945.628	0.0148776
945.706	0.0149991
945.785	0.0148637
945.863	0.0149446
945.941	0.0149073
946.019	0.0148900
946.097	0.0147790
946.175	0.0147499
946.253	0.0147874
946.331	0.0149470
946.410	0.0147832
946.488	0.0146356
946.566	0.0147224
946.644	0.0148074
946.722	0.0147560
946.800	0.0144398
946.878	0.0144431
946.956	0.0147137
947.035	0.0147361
947.113	0.0145932
947.191	0.0144467
947.269	0.0145429
947.347	0.0144535
947.425	0.0144431
947.503	0.0145506
947.581	0.0143924
947.660	0.0144161
947.738	0.0145149
947.816	0.0144597
947.894	0.0143948
947.972	0.0144624
948.050	0.0143794
948.128	0.0144279
948.206	0.0143799
948.285	0.0145213
948.363	0.0145239
948.441	0.0145419
948.519	0.0146861
948.597	0.0146011
948.675	0.0147346
948.753	0.0146568
948.831	0.0146407
948.910	0.0146229
948.988	0.0147231
949.066	0.0148009
949.144	0.0147365
949.222	0.0147041
949.300	0.0147551
949.378	0.0146783
949.456	0.0146100
949.535	0.0147224
949.613	0.0147495
949.691	0.0147844
949.769	0.0145458
949.847	0.0147146
949.925	0.0149149
950.003	0.0148357
950.081	0.0147325
950.160	0.0148175
950.238	0.0147849
950.316	0.0149261
950.394	0.0149812
950.472	0.0149391
950.550	0.0150065
950.628	0.0149902
950.706	0.0148674
950.785	0.0148360
950.863	0.0148750
950.941	0.0147733
951.019	0.0148447
951.097	0.0149053
951.175	0.0147619
951.253	0.0146825
951.331	0.0146520
951.410	0.0147507
951.488	0.0146442
951.566	0.0144191
951.644	0.0145226
951.722	0.0145637
951.800	0.0146727
951.878	0.0145345
951.956	0.0144809
952.035	0.0144915
952.113	0.0145718
952.191	0.0146183
952.269	0.0145707
952.347	0.0145090
952.425	0.0144356
952.503	0.0145248
952.581	0.0144401
952.660	0.0142713
952.738	0.0143563
952.816	0.0142431
952.894	0.0142040
952.972	0.0141615
953.050	0.0142671
953.128	0.0142476
953.206	0.0140987
953.285	0.0141510
953.363	0.0141219
953.441	0.0140835
953.519	0.0142184
953.597	0.0142162
953.675	0.0141717
953.753	0.0143754
953.831	0.0144135
953.910	0.0144754
953.988	0.0145993
954.066	0.0147535
954.144	0.0147659
954.222	0.0148911
954.300	0.0150092
954.378	0.0148660
954.456	0.0150743
954.535	0.0152521
954.613	0.0152217
954.691	0.0152229
954.769	0.0152843
954.847	0.0152831
954.925	0.0153519
955.003	0.0153812
955.081	0.0154030
955.160	0.0152934
955.238	0.0151762
955.316	0.0151081
955.394	0.0151064
955.472	0.0150060
955.550	0.0148437
955.628	0.0147278
955.706	0.0146790
955.785	0.0144797
955.863	0.0144595
955.941	0.0145410
956.019	0.0142887
956.097	0.0140627
956.175	0.0141132
956.253	0.0140834
956.331	0.0138229
956.410	0.0139194
956.488	0.0138131
956.566	0.0137781
956.644	0.0140015
956.722	0.0138373
956.800	0.0138441
956.878	0.0139327
956.956	0.0139915
957.035	0.0139857
957.113	0.0140932
957.191	0.0142651
957.269	0.0143955
957.347	0.0142829
957.425	0.0143003
957.503	0.0145760
957.581	0.0146172
957.660	0.0145798
957.738	0.0145035
957.816	0.0145716
957.894	0.0146245
957.972	0.0145369
958.050	0.0145673
958.128	0.0145460
958.206	0.0145319
958.285	0.0144621
958.363	0.0143989
958.441	0.0143648
958.519	0.0145399
958.597	0.0144389
958.675	0.0143571
958.753	0.0146094
958.831	0.0145746
958.910	0.0147376
958.988	0.0146600
959.066	0.0148590
959.144	0.0149617
959.222	0.0151081
959.300	0.0150040
959.378	0.0149818
959.456	0.0150397
959.535	0.0150329
959.613	0.0151907
959.691	0.0150681
959.769	0.0150690
959.847	0.0152031
959.925	0.0149394
960.003	0.0149510
960.081	0.0147632
960.160	0.0147115
960.238	0.0147983
960.316	0.0146374
960.394	0.0146471
960.472	0.0146400
960.550	0.0146856
960.628	0.0146549
960.706	0.0144591
960.785	0.0145610
960.863	0.0145110
960.941	0.0144626
961.019	0.0144648
961.097	0.0143777
961.175	0.0145718
961.253	0.0144263
961.331	0.0143629
961.410	0.0145151
961.488	0.0144667
961.566	0.0143289
961.644	0.0143811
961.722	0.0145015
961.800	0.0145275
961.878	0.0144810
961.956	0.0144196
962.035	0.0144279
962.113	0.0144674
962.191	0.0145948
962.269	0.0145858
962.347	0.0146510
962.425	0.0145586
962.503	0.0146088
962.581	0.0146639
962.660	0.0147798
962.738	0.0148262
962.816	0.0148341
962.894	0.0150220
962.972	0.0150182
963.050	0.0150050
963.128	0.0149828
963.206	0.0148779
963.285	0.0150105
963.363	0.0148290
963.441	0.0148578
963.519	0.0149469
963.597	0.0148614
963.675	0.0147585
963.753	0.0148808
963.831	0.0149055
963.910	0.0147865
963.988	0.0147334
964.066	0.0146897
964.144	0.0146181
964.222	0.0146077
964.300	0.0145403
964.378	0.0146188
964.456	0.0144759
964.535	0.0146670
964.613	0.0146819
964.691	0.0145668
964.769	0.0146355
964.847	0.0144649
964.925	0.0144946
965.003	0.0143472
965.081	0.0144932
965.160	0.0146457
965.238	0.0145761
965.316	0.0145908
965.394	0.0145072
965.472	0.0146354
965.550	0.0146589
965.628	0.0148064
965.706	0.0147063
965.785	0.0146143
965.863	0.0146393
965.941	0.0147460
966.019	0.0148906
966.097	0.0148035
966.175	0.0147572
966.253	0.0147343
966.331	0.0147802
966.410	0.0147430
966.488	0.0146931
966.566	0.0148274
966.644	0.0147239
966.722	0.0147307
966.800	0.0147582
966.878	0.0145162
966.956	0.0145303
967.035	0.0145313
967.113	0.0144341
967.191	0.0145920
967.269	0.0145219
967.347	0.0142992
967.425	0.0143037
967.503	0.0144207
967.581	0.0144221
967.660	0.0145267
967.738	0.0143594
967.816	0.0143849
967.894	0.0145095
967.972	0.0144788
968.050	0.0145158
968.128	0.0145731
968.206	0.0145770
968.285	0.0146507
968.363	0.0145548
968.441	0.0147381
968.519	0.0148270
968.597	0.0146349
968.675	0.0148744
968.753	0.0147386
968.831	0.0148248
968.910	0.0149227
968.988	0.0148637
969.066	0.0149156
969.144	0.0148161
969.222	0.0150916
969.300	0.0150912
969.378	0.0148421
969.456	0.0149901
969.535	0.0149243
969.613	0.0148604
969.691	0.0148831
969.769	0.0149611
969.847	0.0148084
969.925	0.0147079
970.003	0.0147069
970.081	0.0148118
970.160	0.0147490
970.238	0.0146426
970.316	0.0148090
970.394	0.0148725
970.472	0.0147195
970.550	0.0145831
970.628	0.0145914
970.706	0.0145927
970.785	0.0146268
970.863	0.0145557
970.941	0.0145559
971.019	0.0145156
971.097	0.0144691
971.175	0.0145644
971.253	0.0145977
971.331	0.0146353
971.410	0.0146587
971.488	0.0146102
971.566	0.0145364
971.644	0.0146402
971.722	0.0145841
971.800	0.0146722
971.878	0.0145807
971.956	0.0146271
972.035	0.0145016
972.113	0.0145279
972.191	0.0147274
972.269	0.0145021
972.347	0.0145497
972.425	0.0145985
972.503	0.0146655
972.581	0.0147014
972.660	0.0146422
972.738	0.0146268
972.816	0.0147092
972.894	0.0147295
972.972	0.0146120
973.050	0.0145644
973.128	0.0146098
973.206	0.0144897
973.285	0.0147147
973.363	0.0145757
973.441	0.0144317
973.519	0.0145918
973.597	0.0146813
973.675	0.0145985
973.753	0.0145622
973.831	0.0148150
973.910	0.0149116
973.988	0.0148074
974.066	0.0148653
974.144	0.0148750
974.222	0.0148798
974.300	0.0150013
974.378	0.0150001
974.456	0.0150671
974.535	0.0149615
974.613	0.0148411
974.691	0.0148701
974.769	0.0148605
974.847	0.0147531
974.925	0.0147028
975.003	0.0146185
975.081	0.0147362
975.160	0.0145670
975.238	0.0146465
975.316	0.0145423
975.394	0.0145355
975.472	0.0144946
975.550	0.0144382
975.628	0.0145038
975.706	0.0144423
975.785	0.0144004
975.863	0.0145571
975.941	0.0146106
976.019	0.0145818
976.097	0.0147068
976.175	0.0146067
976.253	0.0145731
976.331	0.0145393
976.410	0.0147942
976.488	0.0145258
976.566	0.0145888
976.644	0.0145575
976.722	0.0146711
976.800	0.0146139
976.878	0.0145329
976.956	0.0145683
977.035	0.0146213
977.113	0.0145950
977.191	0.0147428
977.269	0.0146961
977.347	0.0146983
977.425	0.0145467
977.503	0.0147021
977.581	0.0147565
977.660	0.0147881
977.738	0.0146645
977.816	0.0146725
977.894	0.0147131
977.972	0.0146981
978.050	0.0145801
978.128	0.0146141
978.206	0.0145738
978.285	0.0146784
978.363	0.0145239
978.441	0.0145503
978.519	0.0147561
978.597	0.0146456
978.675	0.0146436
978.753	0.0148515
978.831	0.0147026
978.910	0.0148357
978.988	0.0148501
979.066	0.0147766
979.144	0.0147088
979.222	0.0147577
979.300	0.0147489
979.378	0.0148416
979.456	0.0148095
979.535	0.0148339
979.613	0.0147254
979.691	0.0147857
979.769	0.0148660
979.847	0.0146011
979.925	0.0145966
