05/03/2022	20:17:16	Ver.	4.1	UNKNOWN
Optical Delay	660.003261	Delta X		0.078125	Sweeps	1	Scan Rate	0/0
Coordinates	Axis 1	NaN	Axis 2	NaN	Axis 3	NaN	Axis 4	NaN	Axis 5	NaN	Axis 6	0.000000
TX Power	0.000000	RX Power	0.000000

660.003	0.0147054
660.081	0.0146087
660.160	0.0146627
660.238	0.0146545
660.316	0.0146638
660.394	0.0146516
660.472	0.0146678
660.550	0.0146413
660.628	0.0147863
660.706	0.0146915
660.785	0.0147388
660.863	0.0147494
660.941	0.0146840
661.019	0.0146223
661.097	0.0146174
661.175	0.0146525
661.253	0.0146452
661.331	0.0145183
661.410	0.0144746
661.488	0.0148363
661.566	0.0147163
661.644	0.0146945
661.722	0.0145949
661.800	0.0146793
661.878	0.0147511
661.956	0.0146945
662.035	0.0147204
662.113	0.0147125
662.191	0.0147243
662.269	0.0147844
662.347	0.0147087
662.425	0.0147141
662.503	0.0147269
662.581	0.0146647
662.660	0.0147015
662.738	0.0148249
662.816	0.0147869
662.894	0.0147379
662.972	0.0145889
663.050	0.0146937
663.128	0.0148118
663.206	0.0148186
663.285	0.0148162
663.363	0.0148060
663.441	0.0146954
663.519	0.0147422
663.597	0.0145987
663.675	0.0147307
663.753	0.0147413
663.831	0.0148407
663.910	0.0148363
663.988	0.0146739
664.066	0.0146000
664.144	0.0147012
664.222	0.0146909
664.300	0.0147678
664.378	0.0147132
664.456	0.0147734
664.535	0.0146190
664.613	0.0145537
664.691	0.0146792
664.769	0.0145013
664.847	0.0147214
664.925	0.0147002
665.003	0.0146607
665.081	0.0147464
665.160	0.0147559
665.238	0.0146595
665.316	0.0146805
665.394	0.0146076
665.472	0.0146183
665.550	0.0145535
665.628	0.0146472
665.706	0.0146695
665.785	0.0147308
665.863	0.0148051
665.941	0.0147848
666.019	0.0147516
666.097	0.0146622
666.175	0.0146743
666.253	0.0145514
666.331	0.0146730
666.410	0.0145914
666.488	0.0146440
666.566	0.0147150
666.644	0.0146204
666.722	0.0145358
666.800	0.0145627
666.878	0.0147863
666.956	0.0147295
667.035	0.0145908
667.113	0.0146296
667.191	0.0146592
667.269	0.0147002
667.347	0.0147308
667.425	0.0145802
667.503	0.0147062
667.581	0.0147025
667.660	0.0146819
667.738	0.0146484
667.816	0.0146472
667.894	0.0146069
667.972	0.0148016
668.050	0.0147422
668.128	0.0148409
668.206	0.0146649
668.285	0.0146511
668.363	0.0147607
668.441	0.0146867
668.519	0.0146030
668.597	0.0146949
668.675	0.0146671
668.753	0.0146368
668.831	0.0147211
668.910	0.0147423
668.988	0.0146226
669.066	0.0147333
669.144	0.0146470
669.222	0.0147241
669.300	0.0147758
669.378	0.0147551
669.456	0.0147164
669.535	0.0147059
669.613	0.0146438
669.691	0.0146137
669.769	0.0146118
669.847	0.0147411
669.925	0.0147147
670.003	0.0147543
670.081	0.0147638
670.160	0.0146652
670.238	0.0147110
670.316	0.0147846
670.394	0.0147400
670.472	0.0147559
670.550	0.0147849
670.628	0.0146812
670.706	0.0145954
670.785	0.0146997
670.863	0.0146429
670.941	0.0146656
671.019	0.0147705
671.097	0.0145886
671.175	0.0145337
671.253	0.0146851
671.331	0.0147224
671.410	0.0146750
671.488	0.0147138
671.566	0.0146938
671.644	0.0145864
671.722	0.0146178
671.800	0.0146965
671.878	0.0148003
671.956	0.0148017
672.035	0.0146049
672.113	0.0146127
672.191	0.0146609
672.269	0.0146223
672.347	0.0147355
672.425	0.0148730
672.503	0.0146857
672.581	0.0147662
672.660	0.0147980
672.738	0.0147176
672.816	0.0147491
672.894	0.0146431
672.972	0.0147837
673.050	0.0147540
673.128	0.0148717
673.206	0.0147502
673.285	0.0147076
673.363	0.0146218
673.441	0.0147204
673.519	0.0147060
673.597	0.0147971
673.675	0.0147214
673.753	0.0146307
673.831	0.0146030
673.910	0.0147916
673.988	0.0146878
674.066	0.0146742
674.144	0.0147607
674.222	0.0147443
674.300	0.0146352
674.378	0.0147206
674.456	0.0146942
674.535	0.0147103
674.613	0.0146093
674.691	0.0145520
674.769	0.0145839
674.847	0.0148087
674.925	0.0146767
675.003	0.0148093
675.081	0.0148082
675.160	0.0148428
675.238	0.0147097
675.316	0.0147073
675.394	0.0148428
675.472	0.0147945
675.550	0.0146849
675.628	0.0148126
675.706	0.0145979
675.785	0.0146459
675.863	0.0147308
675.941	0.0147597
676.019	0.0146105
676.097	0.0146374
676.175	0.0147662
676.253	0.0146915
676.331	0.0147569
676.410	0.0147228
676.488	0.0147752
676.566	0.0147224
676.644	0.0147894
676.722	0.0147157
676.800	0.0145994
676.878	0.0146833
676.956	0.0146752
677.035	0.0146648
677.113	0.0146297
677.191	0.0146004
677.269	0.0148280
677.347	0.0148466
677.425	0.0146339
677.503	0.0146840
677.581	0.0147634
677.660	0.0146893
677.738	0.0147665
677.816	0.0146611
677.894	0.0146495
677.972	0.0146243
678.050	0.0146674
678.128	0.0146806
678.206	0.0146998
678.285	0.0146442
678.363	0.0146223
678.441	0.0146558
678.519	0.0147762
678.597	0.0147281
678.675	0.0146374
678.753	0.0147003
678.831	0.0147865
678.910	0.0147607
678.988	0.0147466
679.066	0.0147269
679.144	0.0147546
679.222	0.0146811
679.300	0.0146992
679.378	0.0146545
679.456	0.0147634
679.535	0.0148569
679.613	0.0147587
679.691	0.0147063
679.769	0.0146443
679.847	0.0147012
679.925	0.0147569
680.003	0.0146528
680.081	0.0146410
680.160	0.0146121
680.238	0.0144702
680.316	0.0145753
680.394	0.0146546
680.472	0.0145736
680.550	0.0146338
680.628	0.0147021
680.706	0.0147107
680.785	0.0145918
680.863	0.0144949
680.941	0.0147605
681.019	0.0147491
681.097	0.0147205
681.175	0.0146279
681.253	0.0147414
681.331	0.0147047
681.410	0.0147496
681.488	0.0146740
681.566	0.0147733
681.644	0.0147558
681.722	0.0146416
681.800	0.0147341
681.878	0.0145761
681.956	0.0146346
682.035	0.0147750
682.113	0.0146344
682.191	0.0147442
682.269	0.0147055
682.347	0.0147642
682.425	0.0146037
682.503	0.0144600
682.581	0.0146191
682.660	0.0145993
682.738	0.0147483
682.816	0.0147482
682.894	0.0148080
682.972	0.0146072
683.050	0.0146821
683.128	0.0146463
683.206	0.0147347
683.285	0.0147227
683.363	0.0147776
683.441	0.0147089
683.519	0.0145673
683.597	0.0144980
683.675	0.0147434
683.753	0.0146212
683.831	0.0147466
683.910	0.0146667
683.988	0.0146866
684.066	0.0147459
684.144	0.0147810
684.222	0.0146250
684.300	0.0146671
684.378	0.0147160
684.456	0.0145348
684.535	0.0146616
684.613	0.0147330
684.691	0.0146465
684.769	0.0146330
684.847	0.0147858
684.925	0.0148084
685.003	0.0147057
685.081	0.0146030
685.160	0.0147213
685.238	0.0147173
685.316	0.0146070
685.394	0.0147724
685.472	0.0147170
685.550	0.0144801
685.628	0.0147353
685.706	0.0147034
685.785	0.0147509
685.863	0.0146767
685.941	0.0145837
686.019	0.0146664
686.097	0.0147724
686.175	0.0146493
686.253	0.0147236
686.331	0.0147208
686.410	0.0145777
686.488	0.0146608
686.566	0.0145789
686.644	0.0146517
686.722	0.0146272
686.800	0.0148351
686.878	0.0147647
686.956	0.0145872
687.035	0.0147225
687.113	0.0148427
687.191	0.0146758
687.269	0.0147350
687.347	0.0145426
687.425	0.0147795
687.503	0.0146513
687.581	0.0146926
687.660	0.0146688
687.738	0.0148286
687.816	0.0145788
687.894	0.0147530
687.972	0.0147066
688.050	0.0148154
688.128	0.0146661
688.206	0.0146513
688.285	0.0146910
688.363	0.0147232
688.441	0.0147750
688.519	0.0148021
688.597	0.0146624
688.675	0.0146146
688.753	0.0146567
688.831	0.0148009
688.910	0.0147681
688.988	0.0145418
689.066	0.0146557
689.144	0.0145703
689.222	0.0148011
689.300	0.0147849
689.378	0.0147269
689.456	0.0146751
689.535	0.0147200
689.613	0.0148511
689.691	0.0147401
689.769	0.0147866
689.847	0.0147538
689.925	0.0147086
690.003	0.0147055
690.081	0.0147625
690.160	0.0146936
690.238	0.0146575
690.316	0.0147037
690.394	0.0147401
690.472	0.0148092
690.550	0.0147211
690.628	0.0146949
690.706	0.0147346
690.785	0.0144836
690.863	0.0146694
690.941	0.0147974
691.019	0.0148286
691.097	0.0146155
691.175	0.0147163
691.253	0.0147351
691.331	0.0146629
691.410	0.0145892
691.488	0.0146632
691.566	0.0148119
691.644	0.0146955
691.722	0.0146292
691.800	0.0145980
691.878	0.0146914
691.956	0.0145594
692.035	0.0144853
692.113	0.0146114
692.191	0.0146825
692.269	0.0146945
692.347	0.0147256
692.425	0.0145785
692.503	0.0145303
692.581	0.0146374
692.660	0.0146074
692.738	0.0146117
692.816	0.0145650
692.894	0.0146513
692.972	0.0147552
693.050	0.0146651
693.128	0.0146687
693.206	0.0146049
693.285	0.0146558
693.363	0.0145772
693.441	0.0147430
693.519	0.0147041
693.597	0.0147472
693.675	0.0146146
693.753	0.0147689
693.831	0.0146462
693.910	0.0146220
693.988	0.0145325
694.066	0.0147179
694.144	0.0146349
694.222	0.0145926
694.300	0.0146029
694.378	0.0146723
694.456	0.0146415
694.535	0.0147092
694.613	0.0146198
694.691	0.0146965
694.769	0.0147469
694.847	0.0146437
694.925	0.0144678
695.003	0.0145480
695.081	0.0147031
695.160	0.0146410
695.238	0.0146670
695.316	0.0145937
695.394	0.0145570
695.472	0.0146076
695.550	0.0146204
695.628	0.0146601
695.706	0.0144843
695.785	0.0146439
695.863	0.0146392
695.941	0.0146234
696.019	0.0144756
696.097	0.0146674
696.175	0.0146717
696.253	0.0146770
696.331	0.0146613
696.410	0.0147906
696.488	0.0147609
696.566	0.0146114
696.644	0.0147486
696.722	0.0148398
696.800	0.0145914
696.878	0.0147626
696.956	0.0147937
697.035	0.0147766
697.113	0.0147182
697.191	0.0146652
697.269	0.0146664
697.347	0.0147387
697.425	0.0146326
697.503	0.0146352
697.581	0.0145664
697.660	0.0146100
697.738	0.0145486
697.816	0.0146617
697.894	0.0147689
697.972	0.0147761
698.050	0.0147209
698.128	0.0147295
698.206	0.0147913
698.285	0.0146761
698.363	0.0146973
698.441	0.0148511
698.519	0.0146986
698.597	0.0146289
698.675	0.0147931
698.753	0.0147198
698.831	0.0147031
698.910	0.0147276
698.988	0.0147592
699.066	0.0147975
699.144	0.0146847
699.222	0.0147665
699.300	0.0148308
699.378	0.0148240
699.456	0.0147243
699.535	0.0145992
699.613	0.0147483
699.691	0.0148742
699.769	0.0145774
699.847	0.0147394
699.925	0.0147173
700.003	0.0145041
700.081	0.0143678
700.160	0.0145592
700.238	0.0146104
700.316	0.0145709
700.394	0.0145233
700.472	0.0146275
700.550	0.0148459
700.628	0.0148719
700.706	0.0148674
700.785	0.0149541
700.863	0.0150188
700.941	0.0150616
701.019	0.0149884
701.097	0.0149337
701.175	0.0148440
701.253	0.0146481
701.331	0.0144495
701.410	0.0139973
701.488	0.0138943
701.566	0.0136977
701.644	0.0136445
701.722	0.0136377
701.800	0.0135523
701.878	0.0137101
701.956	0.0138043
702.035	0.0141477
702.113	0.0145104
702.191	0.0147213
702.269	0.0152153
702.347	0.0157030
702.425	0.0161951
702.503	0.0166205
702.581	0.0171223
702.660	0.0174332
702.738	0.0177346
702.816	0.0177529
702.894	0.0177348
702.972	0.0175903
703.050	0.0170937
703.128	0.0166438
703.206	0.0159573
703.285	0.0152341
703.363	0.0140668
703.441	0.0131240
703.519	0.0119558
703.597	0.0109497
703.675	0.00996040
703.753	0.00925674
703.831	0.00875771
703.910	0.00851608
703.988	0.00869812
704.066	0.00946762
704.144	0.0104151
704.222	0.0116626
704.300	0.0128807
704.378	0.0141485
704.456	0.0152537
704.535	0.0163029
704.613	0.0170364
704.691	0.0177847
704.769	0.0183752
704.847	0.0188293
704.925	0.0193434
705.003	0.0197314
705.081	0.0201185
705.160	0.0206625
705.238	0.0208028
705.316	0.0209811
705.394	0.0210863
705.472	0.0207174
705.550	0.0201283
705.628	0.0192213
705.706	0.0184466
705.785	0.0171195
705.863	0.0158292
705.941	0.0141673
706.019	0.0127238
706.097	0.0114806
706.175	0.0101869
706.253	0.00895546
706.331	0.00799500
706.410	0.00736320
706.488	0.00660690
706.566	0.00638496
706.644	0.00653946
706.722	0.00683502
706.800	0.00740112
706.878	0.00826912
706.956	0.00894485
707.035	0.00976204
707.113	0.0107810
707.191	0.0118503
707.269	0.0128405
707.347	0.0137404
707.425	0.0148073
707.503	0.0159153
707.581	0.0168696
707.660	0.0177733
707.738	0.0187985
707.816	0.0197570
707.894	0.0207314
707.972	0.0214859
708.050	0.0221352
708.128	0.0230682
708.206	0.0237177
708.285	0.0243563
708.363	0.0244642
708.441	0.0244547
708.519	0.0242187
708.597	0.0234758
708.675	0.0225368
708.753	0.0212633
708.831	0.0196278
708.910	0.0179381
708.988	0.0162199
709.066	0.0140509
709.144	0.0121005
709.222	0.0103336
709.300	0.00850769
709.378	0.00700783
709.456	0.00561005
709.535	0.00483963
709.613	0.00424080
709.691	0.00410141
709.769	0.00415779
709.847	0.00466347
709.925	0.00542313
710.003	0.00637695
710.081	0.00741211
710.160	0.00849258
710.238	0.00967712
710.316	0.0105536
710.394	0.0114976
710.472	0.0123420
710.550	0.0132224
710.628	0.0139192
710.706	0.0143239
710.785	0.0152981
710.863	0.0159388
710.941	0.0168188
711.019	0.0178812
711.097	0.0188663
711.175	0.0199902
711.253	0.0214036
711.331	0.0225037
711.410	0.0236468
711.488	0.0242683
711.566	0.0250822
711.644	0.0251949
711.722	0.0251598
711.800	0.0247982
711.878	0.0240248
711.956	0.0229274
712.035	0.0216757
712.113	0.0201519
712.191	0.0185921
712.269	0.0170370
712.347	0.0153561
712.425	0.0138818
712.503	0.0122404
712.581	0.0110706
712.660	0.00987885
712.738	0.00898552
712.816	0.00846031
712.894	0.00800636
712.972	0.00761101
713.050	0.00768127
713.128	0.00746239
713.206	0.00765045
713.285	0.00779129
713.363	0.00816116
713.441	0.00846657
713.519	0.00885773
713.597	0.00928055
713.675	0.00970467
713.753	0.0102557
713.831	0.0106464
713.910	0.0109340
713.988	0.0114904
714.066	0.0119125
714.144	0.0122846
714.222	0.0129137
714.300	0.0135015
714.378	0.0140592
714.456	0.0149493
714.535	0.0159498
714.613	0.0169991
714.691	0.0181914
714.769	0.0194111
714.847	0.0204328
714.925	0.0214995
715.003	0.0222540
715.081	0.0226812
715.160	0.0228120
715.238	0.0224403
715.316	0.0219906
715.394	0.0211787
715.472	0.0204569
715.550	0.0195493
715.628	0.0189788
715.706	0.0183252
715.785	0.0177583
715.863	0.0172105
715.941	0.0166282
716.019	0.0162697
716.097	0.0158957
716.175	0.0151722
716.253	0.0146396
716.331	0.0138012
716.410	0.0129705
716.488	0.0123026
716.566	0.0114704
716.644	0.0105119
716.722	0.00992203
716.800	0.00947556
716.878	0.00901894
716.956	0.00858795
717.035	0.00842079
717.113	0.00848763
717.191	0.00863579
717.269	0.00892517
717.347	0.00935410
717.425	0.00986877
717.503	0.0103506
717.581	0.0107919
717.660	0.0115616
717.738	0.0121365
717.816	0.0125263
717.894	0.0133127
717.972	0.0137326
718.050	0.0140810
718.128	0.0145657
718.206	0.0150950
718.285	0.0156528
718.363	0.0161926
718.441	0.0169070
718.519	0.0174172
718.597	0.0180444
718.675	0.0188074
718.753	0.0191399
718.831	0.0195766
718.910	0.0197807
718.988	0.0198827
719.066	0.0200220
719.144	0.0198833
719.222	0.0197753
719.300	0.0196398
719.378	0.0193502
719.456	0.0188231
719.535	0.0183091
719.613	0.0177995
719.691	0.0173933
719.769	0.0168357
719.847	0.0160983
719.925	0.0157286
720.003	0.0152956
720.081	0.0145483
720.160	0.0142012
720.238	0.0137976
720.316	0.0132150
720.394	0.0126700
720.472	0.0124220
720.550	0.0118922
720.628	0.0117117
720.706	0.0115109
720.785	0.0112956
720.863	0.0112282
720.941	0.0112427
721.019	0.0112173
721.097	0.0111076
721.175	0.0109948
721.253	0.0110672
721.331	0.0110066
721.410	0.0111555
721.488	0.0112624
721.566	0.0112257
721.644	0.0114011
721.722	0.0116907
721.800	0.0120800
721.878	0.0124084
721.956	0.0128177
722.035	0.0132848
722.113	0.0137543
722.191	0.0141596
722.269	0.0146102
722.347	0.0151764
722.425	0.0155121
722.503	0.0160292
722.581	0.0164131
722.660	0.0170119
722.738	0.0174726
722.816	0.0178195
722.894	0.0182688
722.972	0.0185040
723.050	0.0186137
723.128	0.0185839
723.206	0.0184955
723.285	0.0183396
723.363	0.0182270
723.441	0.0178429
723.519	0.0175864
723.597	0.0174307
723.675	0.0170065
723.753	0.0167509
723.831	0.0166663
723.910	0.0164118
723.988	0.0162244
724.066	0.0160223
724.144	0.0156610
724.222	0.0155880
724.300	0.0153410
724.378	0.0149886
724.456	0.0147701
724.535	0.0144176
724.613	0.0142838
724.691	0.0138042
724.769	0.0136597
724.847	0.0133228
724.925	0.0130238
725.003	0.0127957
725.081	0.0123601
725.160	0.0121519
725.238	0.0121382
725.316	0.0120790
725.394	0.0120329
725.472	0.0124021
725.550	0.0121622
725.628	0.0121351
725.706	0.0122028
725.785	0.0123389
725.863	0.0122036
725.941	0.0122097
726.019	0.0121584
726.097	0.0122086
726.175	0.0121857
726.253	0.0124071
726.331	0.0125835
726.410	0.0127309
726.488	0.0130894
726.566	0.0133282
726.644	0.0135729
726.722	0.0139558
726.800	0.0142764
726.878	0.0147165
726.956	0.0152103
727.035	0.0156107
727.113	0.0163397
727.191	0.0166875
727.269	0.0171865
727.347	0.0174273
727.425	0.0177248
727.503	0.0178780
727.581	0.0182140
727.660	0.0181425
727.738	0.0181577
727.816	0.0181416
727.894	0.0179823
727.972	0.0178459
728.050	0.0176035
728.128	0.0173386
728.206	0.0170773
728.285	0.0166346
728.363	0.0163413
728.441	0.0160313
728.519	0.0158047
728.597	0.0156738
728.675	0.0153714
728.753	0.0150887
728.831	0.0150951
728.910	0.0148459
728.988	0.0149763
729.066	0.0148814
729.144	0.0147939
729.222	0.0145418
729.300	0.0143935
729.378	0.0143729
729.456	0.0140433
729.535	0.0139693
729.613	0.0137803
729.691	0.0134296
729.769	0.0131516
729.847	0.0128075
729.925	0.0126852
730.003	0.0123042
730.081	0.0121031
730.160	0.0119418
730.238	0.0115621
730.316	0.0114742
730.394	0.0114465
730.472	0.0113220
730.550	0.0114539
730.628	0.0116373
730.706	0.0116167
730.785	0.0119787
730.863	0.0124059
730.941	0.0127531
731.019	0.0129723
731.097	0.0133791
731.175	0.0138235
731.253	0.0142255
731.331	0.0146544
731.410	0.0149064
731.488	0.0152702
731.566	0.0155280
731.644	0.0159197
731.722	0.0159697
731.800	0.0162444
731.878	0.0164790
731.956	0.0167868
732.035	0.0168158
732.113	0.0169414
732.191	0.0169429
732.269	0.0168604
732.347	0.0168887
732.425	0.0170000
732.503	0.0169122
732.581	0.0167455
732.660	0.0168549
732.738	0.0167474
732.816	0.0169216
732.894	0.0169142
732.972	0.0168186
733.050	0.0168078
733.128	0.0169248
733.206	0.0167467
733.285	0.0166430
733.363	0.0165194
733.441	0.0161306
733.519	0.0158540
733.597	0.0156326
733.675	0.0154933
733.753	0.0150273
733.831	0.0147314
733.910	0.0143579
733.988	0.0139627
734.066	0.0136062
734.144	0.0134142
734.222	0.0130970
734.300	0.0129089
734.378	0.0126660
734.456	0.0126163
734.535	0.0123533
734.613	0.0123722
734.691	0.0123962
734.769	0.0123878
734.847	0.0124049
734.925	0.0124699
735.003	0.0126009
735.081	0.0124509
735.160	0.0126511
735.238	0.0127338
735.316	0.0128038
735.394	0.0128688
735.472	0.0129739
735.550	0.0130459
735.628	0.0131264
735.706	0.0133677
735.785	0.0133247
735.863	0.0134159
735.941	0.0135857
736.019	0.0137083
736.097	0.0140495
736.175	0.0140594
736.253	0.0143928
736.331	0.0147059
736.410	0.0149594
736.488	0.0152035
736.566	0.0155640
736.644	0.0157617
736.722	0.0158414
736.800	0.0160913
736.878	0.0161859
736.956	0.0163849
737.035	0.0164804
737.113	0.0167310
737.191	0.0169016
737.269	0.0168524
737.347	0.0169361
737.425	0.0170622
737.503	0.0169754
737.581	0.0170508
737.660	0.0170476
737.738	0.0168946
737.816	0.0170157
737.894	0.0169181
737.972	0.0168154
738.050	0.0166576
738.128	0.0165808
738.206	0.0163805
738.285	0.0161853
738.363	0.0160165
738.441	0.0159122
738.519	0.0155192
738.597	0.0151699
738.675	0.0151871
738.753	0.0148350
738.831	0.0144906
738.910	0.0142623
738.988	0.0139412
739.066	0.0138321
739.144	0.0135486
739.222	0.0132683
739.300	0.0131213
739.378	0.0130868
739.456	0.0128725
739.535	0.0127794
739.613	0.0127654
739.691	0.0125871
739.769	0.0126374
739.847	0.0124918
739.925	0.0124344
740.003	0.0121897
740.081	0.0120729
740.160	0.0121181
740.238	0.0120705
740.316	0.0120161
740.394	0.0120025
740.472	0.0120749
740.550	0.0122575
740.628	0.0125395
740.706	0.0126723
740.785	0.0131268
740.863	0.0133380
740.941	0.0136625
741.019	0.0141254
741.097	0.0144905
741.175	0.0147426
741.253	0.0150002
741.331	0.0152349
741.410	0.0153439
741.488	0.0156528
741.566	0.0157753
741.644	0.0159398
741.722	0.0162428
741.800	0.0163924
741.878	0.0166004
741.956	0.0168266
742.035	0.0168624
742.113	0.0172743
742.191	0.0174377
742.269	0.0173956
742.347	0.0174895
742.425	0.0174429
742.503	0.0174580
742.581	0.0174996
742.660	0.0172399
742.738	0.0172099
742.816	0.0169038
742.894	0.0166506
742.972	0.0166432
743.050	0.0163932
743.128	0.0161667
743.206	0.0160231
743.285	0.0157260
743.363	0.0155270
743.441	0.0152565
743.519	0.0149445
743.597	0.0146847
743.675	0.0144026
743.753	0.0142398
743.831	0.0138313
743.910	0.0135829
743.988	0.0133874
744.066	0.0130265
744.144	0.0128043
744.222	0.0125355
744.300	0.0125433
744.378	0.0123545
744.456	0.0124019
744.535	0.0124507
744.613	0.0122485
744.691	0.0123409
744.769	0.0123999
744.847	0.0123064
744.925	0.0124438
745.003	0.0126060
745.081	0.0129245
745.160	0.0130194
745.238	0.0130720
745.316	0.0133130
745.394	0.0135455
745.472	0.0138126
745.550	0.0139928
745.628	0.0142200
745.706	0.0143766
745.785	0.0145959
745.863	0.0147473
745.941	0.0149428
746.019	0.0150448
746.097	0.0154285
746.175	0.0155688
746.253	0.0155744
746.331	0.0157891
746.410	0.0158905
746.488	0.0160159
746.566	0.0160184
746.644	0.0161436
746.722	0.0163124
746.800	0.0163618
746.878	0.0162753
746.956	0.0162755
747.035	0.0161739
747.113	0.0158806
747.191	0.0158507
747.269	0.0157461
747.347	0.0156834
747.425	0.0156809
747.503	0.0153735
747.581	0.0152950
747.660	0.0152447
747.738	0.0152118
747.816	0.0150974
747.894	0.0150178
747.972	0.0148838
748.050	0.0147958
748.128	0.0148075
748.206	0.0145310
748.285	0.0144638
748.363	0.0144675
748.441	0.0144940
748.519	0.0143565
748.597	0.0142891
748.675	0.0141829
748.753	0.0142042
748.831	0.0141580
748.910	0.0140920
748.988	0.0140629
749.066	0.0141623
749.144	0.0140441
749.222	0.0140915
749.300	0.0142127
749.378	0.0142239
749.456	0.0142742
749.535	0.0142500
749.613	0.0144022
749.691	0.0145660
749.769	0.0146341
749.847	0.0146840
749.925	0.0148100
750.003	0.0148172
750.081	0.0147313
750.160	0.0149464
750.238	0.0151360
750.316	0.0150523
750.394	0.0150311
750.472	0.0151180
750.550	0.0148653
750.628	0.0148573
750.706	0.0147711
750.785	0.0147459
750.863	0.0146281
750.941	0.0147718
751.019	0.0146129
751.097	0.0145567
751.175	0.0144958
751.253	0.0143596
751.331	0.0144649
751.410	0.0145441
751.488	0.0143679
751.566	0.0144357
751.644	0.0143911
751.722	0.0144920
751.800	0.0143948
751.878	0.0143546
751.956	0.0144753
752.035	0.0143218
752.113	0.0141923
752.191	0.0141422
752.269	0.0140756
752.347	0.0141200
752.425	0.0140435
752.503	0.0140333
752.581	0.0140363
752.660	0.0141843
752.738	0.0142634
752.816	0.0142134
752.894	0.0141390
752.972	0.0142814
753.050	0.0144254
753.128	0.0145370
753.206	0.0144633
753.285	0.0146356
753.363	0.0147713
753.441	0.0148845
753.519	0.0151884
753.597	0.0151627
753.675	0.0154561
753.753	0.0155629
753.831	0.0159214
753.910	0.0159070
753.988	0.0159138
754.066	0.0160672
754.144	0.0161727
754.222	0.0161111
754.300	0.0160501
754.378	0.0158549
754.456	0.0158055
754.535	0.0154692
754.613	0.0153850
754.691	0.0151735
754.769	0.0150031
754.847	0.0149267
754.925	0.0146466
755.003	0.0144950
755.081	0.0144260
755.160	0.0142061
755.238	0.0142413
755.316	0.0141877
755.394	0.0142043
755.472	0.0143005
755.550	0.0143530
755.628	0.0141906
755.706	0.0142940
755.785	0.0144906
755.863	0.0144704
755.941	0.0143256
756.019	0.0144161
756.097	0.0143235
756.175	0.0144676
756.253	0.0142563
756.331	0.0141567
756.410	0.0141862
756.488	0.0141261
756.566	0.0139806
756.644	0.0140308
756.722	0.0140301
756.800	0.0139899
756.878	0.0140970
756.956	0.0141649
757.035	0.0141923
757.113	0.0143376
757.191	0.0143906
757.269	0.0144917
757.347	0.0143559
757.425	0.0146188
757.503	0.0146738
757.581	0.0149525
757.660	0.0150575
757.738	0.0149938
757.816	0.0150019
757.894	0.0150993
757.972	0.0151270
758.050	0.0151362
758.128	0.0151842
758.206	0.0152334
758.285	0.0152291
758.363	0.0154604
758.441	0.0154090
758.519	0.0153144
758.597	0.0152782
758.675	0.0153676
758.753	0.0153673
758.831	0.0153370
758.910	0.0153278
758.988	0.0152834
759.066	0.0150970
759.144	0.0151460
759.222	0.0150772
759.300	0.0149357
759.378	0.0148067
759.456	0.0146944
759.535	0.0146585
759.613	0.0144492
759.691	0.0142173
759.769	0.0140953
759.847	0.0141490
759.925	0.0139788
760.003	0.0139462
760.081	0.0138331
760.160	0.0137936
760.238	0.0138769
760.316	0.0139603
760.394	0.0138953
760.472	0.0139651
760.550	0.0140512
760.628	0.0141860
760.706	0.0141605
760.785	0.0143436
760.863	0.0142496
760.941	0.0143392
761.019	0.0145684
761.097	0.0145531
761.175	0.0145395
761.253	0.0146423
761.331	0.0148065
761.410	0.0147665
761.488	0.0148322
761.566	0.0150012
761.644	0.0149781
761.722	0.0148910
761.800	0.0149924
761.878	0.0147783
761.956	0.0148150
762.035	0.0148457
762.113	0.0148654
762.191	0.0148632
762.269	0.0147435
762.347	0.0147599
762.425	0.0149035
762.503	0.0149191
762.581	0.0148259
762.660	0.0148449
762.738	0.0149356
762.816	0.0151672
762.894	0.0150464
762.972	0.0151318
763.050	0.0152476
763.128	0.0154376
763.206	0.0155694
763.285	0.0155386
763.363	0.0155340
763.441	0.0154237
763.519	0.0156355
763.597	0.0154241
763.675	0.0153222
763.753	0.0152372
763.831	0.0152056
763.910	0.0149895
763.988	0.0149207
764.066	0.0149187
764.144	0.0147522
764.222	0.0145890
764.300	0.0144955
764.378	0.0142162
764.456	0.0144152
764.535	0.0142219
764.613	0.0141436
764.691	0.0140995
764.769	0.0140462
764.847	0.0140392
764.925	0.0139646
765.003	0.0140798
765.081	0.0138689
765.160	0.0139460
765.238	0.0140500
765.316	0.0139762
765.394	0.0138562
765.472	0.0138953
765.550	0.0139393
765.628	0.0138409
765.706	0.0141995
765.785	0.0143131
765.863	0.0141460
765.941	0.0142555
766.019	0.0144761
766.097	0.0145017
766.175	0.0145959
766.253	0.0146964
766.331	0.0148202
766.410	0.0147945
766.488	0.0150215
766.566	0.0151699
766.644	0.0149026
766.722	0.0150817
766.800	0.0151714
766.878	0.0150179
766.956	0.0149771
767.035	0.0149979
767.113	0.0150310
767.191	0.0149757
767.269	0.0150443
767.347	0.0149094
767.425	0.0149521
767.503	0.0148721
767.581	0.0148100
767.660	0.0148293
767.738	0.0147353
767.816	0.0148121
767.894	0.0147778
767.972	0.0146592
768.050	0.0146264
768.128	0.0144828
768.206	0.0143937
768.285	0.0144553
768.363	0.0143874
768.441	0.0144477
768.519	0.0142825
768.597	0.0143169
768.675	0.0143732
768.753	0.0144483
768.831	0.0144299
768.910	0.0143886
768.988	0.0143690
769.066	0.0145045
769.144	0.0144484
769.222	0.0142509
769.300	0.0145397
769.378	0.0145112
769.456	0.0146438
769.535	0.0145834
769.613	0.0146358
769.691	0.0147444
769.769	0.0148190
769.847	0.0149361
769.925	0.0150825
770.003	0.0152891
770.081	0.0151000
770.160	0.0151852
770.238	0.0153520
770.316	0.0153141
770.394	0.0153883
770.472	0.0153472
770.550	0.0153590
770.628	0.0153932
770.706	0.0153693
770.785	0.0153609
770.863	0.0154473
770.941	0.0153757
771.019	0.0154801
771.097	0.0152823
771.175	0.0152219
771.253	0.0151762
771.331	0.0150375
771.410	0.0151298
771.488	0.0152140
771.566	0.0150086
771.644	0.0148109
771.722	0.0146828
771.800	0.0147197
771.878	0.0145100
771.956	0.0144957
772.035	0.0143710
772.113	0.0141288
772.191	0.0141781
772.269	0.0139623
772.347	0.0139558
772.425	0.0138868
772.503	0.0137314
772.581	0.0136834
772.660	0.0139897
772.738	0.0137365
772.816	0.0138051
772.894	0.0138239
772.972	0.0138209
773.050	0.0138321
773.128	0.0137826
773.206	0.0139706
773.285	0.0139823
773.363	0.0140882
773.441	0.0141720
773.519	0.0143279
773.597	0.0142753
773.675	0.0144049
773.753	0.0146050
773.831	0.0146165
773.910	0.0147132
773.988	0.0148902
774.066	0.0150453
774.144	0.0151510
774.222	0.0151994
774.300	0.0152140
774.378	0.0151306
774.456	0.0152631
774.535	0.0152789
774.613	0.0151621
774.691	0.0152859
774.769	0.0153585
774.847	0.0152434
774.925	0.0150674
775.003	0.0151694
775.081	0.0150159
775.160	0.0150983
775.238	0.0150947
775.316	0.0148602
775.394	0.0151849
775.472	0.0152184
775.550	0.0150810
775.628	0.0149542
775.706	0.0149577
775.785	0.0148482
775.863	0.0148096
775.941	0.0146879
776.019	0.0147349
776.097	0.0145100
776.175	0.0144289
776.253	0.0144541
776.331	0.0143864
776.410	0.0144312
776.488	0.0143007
776.566	0.0143431
776.644	0.0143598
776.722	0.0143058
776.800	0.0142239
776.878	0.0144788
776.956	0.0143388
777.035	0.0143324
777.113	0.0144817
777.191	0.0143449
777.269	0.0144955
777.347	0.0144449
777.425	0.0145937
777.503	0.0143949
777.581	0.0144798
777.660	0.0144628
777.738	0.0145020
777.816	0.0145496
777.894	0.0146428
777.972	0.0146280
778.050	0.0147050
778.128	0.0146424
778.206	0.0147000
778.285	0.0147708
778.363	0.0147461
778.441	0.0147810
778.519	0.0148482
778.597	0.0147856
778.675	0.0148498
778.753	0.0149717
778.831	0.0150451
778.910	0.0150140
778.988	0.0150053
779.066	0.0151244
779.144	0.0151847
779.222	0.0150522
779.300	0.0151591
779.378	0.0151357
779.456	0.0150632
779.535	0.0149364
779.613	0.0148196
779.691	0.0147559
779.769	0.0145528
779.847	0.0146071
779.925	0.0144156
780.003	0.0143739
780.081	0.0141555
780.160	0.0142786
780.238	0.0142066
780.316	0.0141335
780.394	0.0141905
780.472	0.0141597
780.550	0.0141251
780.628	0.0141631
780.706	0.0142323
780.785	0.0142976
780.863	0.0142353
780.941	0.0141834
781.019	0.0143470
781.097	0.0142472
781.175	0.0142003
781.253	0.0141987
781.331	0.0143233
781.410	0.0143752
781.488	0.0145286
781.566	0.0145602
781.644	0.0144943
781.722	0.0146738
781.800	0.0148013
781.878	0.0148776
781.956	0.0151945
782.035	0.0151814
782.113	0.0151070
782.191	0.0153114
782.269	0.0153961
782.347	0.0153874
782.425	0.0154189
782.503	0.0154111
782.581	0.0152409
782.660	0.0152926
782.738	0.0153865
782.816	0.0152955
782.894	0.0154015
782.972	0.0150799
783.050	0.0151395
783.128	0.0150773
783.206	0.0149361
783.285	0.0148251
783.363	0.0148484
783.441	0.0146642
783.519	0.0147593
783.597	0.0146708
783.675	0.0146915
783.753	0.0147878
783.831	0.0146166
783.910	0.0147567
783.988	0.0146091
784.066	0.0145554
784.144	0.0144479
784.222	0.0145267
784.300	0.0145493
784.378	0.0145338
784.456	0.0146714
784.535	0.0145179
784.613	0.0144774
784.691	0.0145899
784.769	0.0144836
784.847	0.0143940
784.925	0.0143452
785.003	0.0143580
785.081	0.0142672
785.160	0.0142486
785.238	0.0141793
785.316	0.0140845
785.394	0.0141473
785.472	0.0142962
785.550	0.0141977
785.628	0.0142126
785.706	0.0142288
785.785	0.0143960
785.863	0.0143913
785.941	0.0146443
786.019	0.0147366
786.097	0.0147495
786.175	0.0147850
786.253	0.0147592
786.331	0.0149055
786.410	0.0151360
786.488	0.0149894
786.566	0.0149961
786.644	0.0150211
786.722	0.0151307
786.800	0.0151177
786.878	0.0150253
786.956	0.0151095
787.035	0.0150651
787.113	0.0149372
787.191	0.0150108
787.269	0.0150300
787.347	0.0147999
787.425	0.0149065
787.503	0.0148380
787.581	0.0147208
787.660	0.0146733
787.738	0.0147710
787.816	0.0148019
787.894	0.0148923
787.972	0.0146958
788.050	0.0145583
788.128	0.0144926
788.206	0.0144913
788.285	0.0146465
788.363	0.0145408
788.441	0.0142668
788.519	0.0145030
788.597	0.0143153
788.675	0.0144276
788.753	0.0143832
788.831	0.0142583
788.910	0.0142327
788.988	0.0143597
789.066	0.0143526
789.144	0.0141348
789.222	0.0143478
789.300	0.0144068
789.378	0.0143233
789.456	0.0142866
789.535	0.0145604
789.613	0.0146259
789.691	0.0146507
789.769	0.0147254
789.847	0.0148173
789.925	0.0148553
790.003	0.0150050
790.081	0.0149086
790.160	0.0150487
790.238	0.0149683
790.316	0.0149899
790.394	0.0150214
790.472	0.0149059
790.550	0.0148871
790.628	0.0148574
790.706	0.0150006
790.785	0.0149944
790.863	0.0148133
790.941	0.0150449
791.019	0.0150725
791.097	0.0151951
791.175	0.0150127
791.253	0.0149728
791.331	0.0150976
791.410	0.0150504
791.488	0.0150502
791.566	0.0149953
791.644	0.0149746
791.722	0.0149328
791.800	0.0148825
791.878	0.0147030
791.956	0.0146985
792.035	0.0146761
792.113	0.0147405
792.191	0.0146616
792.269	0.0146336
792.347	0.0143848
792.425	0.0143287
792.503	0.0144395
792.581	0.0143275
792.660	0.0143895
792.738	0.0144117
792.816	0.0144065
792.894	0.0143816
792.972	0.0143617
793.050	0.0143329
793.128	0.0142552
793.206	0.0143268
793.285	0.0143996
793.363	0.0145132
793.441	0.0144931
793.519	0.0143755
793.597	0.0143612
793.675	0.0144445
793.753	0.0142921
793.831	0.0146382
793.910	0.0144796
793.988	0.0144936
794.066	0.0146597
794.144	0.0146970
794.222	0.0146017
794.300	0.0145630
794.378	0.0147658
794.456	0.0149085
794.535	0.0149773
794.613	0.0149687
794.691	0.0149702
794.769	0.0149184
794.847	0.0149911
794.925	0.0151010
795.003	0.0151540
795.081	0.0152330
795.160	0.0151011
795.238	0.0150522
795.316	0.0150573
795.394	0.0150584
795.472	0.0151415
795.550	0.0149515
795.628	0.0150201
795.706	0.0148607
795.785	0.0147472
795.863	0.0147601
795.941	0.0146242
796.019	0.0146726
796.097	0.0145128
796.175	0.0146203
796.253	0.0145282
796.331	0.0144720
796.410	0.0145126
796.488	0.0143409
796.566	0.0144344
796.644	0.0144247
796.722	0.0142604
796.800	0.0143404
796.878	0.0143645
796.956	0.0142783
797.035	0.0143163
797.113	0.0141994
797.191	0.0141977
797.269	0.0142493
797.347	0.0142237
797.425	0.0143076
797.503	0.0142499
797.581	0.0142730
797.660	0.0141850
797.738	0.0144404
797.816	0.0142807
797.894	0.0146826
797.972	0.0145292
798.050	0.0146148
798.128	0.0146067
798.206	0.0147474
798.285	0.0149478
798.363	0.0149196
798.441	0.0151127
798.519	0.0152663
798.597	0.0152554
798.675	0.0152940
798.753	0.0154137
798.831	0.0151796
798.910	0.0154303
798.988	0.0153567
799.066	0.0153811
799.144	0.0152635
799.222	0.0150317
799.300	0.0149180
799.378	0.0147997
799.456	0.0147110
799.535	0.0146469
799.613	0.0146197
799.691	0.0143890
799.769	0.0143169
799.847	0.0143289
799.925	0.0143741
800.003	0.0142598
800.081	0.0144032
800.160	0.0144901
800.238	0.0144550
800.316	0.0144450
800.394	0.0146754
800.472	0.0147739
800.550	0.0148486
800.628	0.0148354
800.706	0.0147828
800.785	0.0149727
800.863	0.0148898
800.941	0.0148561
801.019	0.0149706
801.097	0.0150559
801.175	0.0150356
801.253	0.0149203
801.331	0.0150105
801.410	0.0149355
801.488	0.0149548
801.566	0.0146745
801.644	0.0146663
801.722	0.0145451
801.800	0.0144514
801.878	0.0145058
801.956	0.0143803
802.035	0.0141699
802.113	0.0141741
802.191	0.0141386
802.269	0.0142319
802.347	0.0140979
802.425	0.0140446
802.503	0.0141663
802.581	0.0142120
802.660	0.0142472
802.738	0.0143195
802.816	0.0144178
802.894	0.0145552
802.972	0.0144578
803.050	0.0146484
803.128	0.0147774
803.206	0.0148607
803.285	0.0146688
803.363	0.0149104
803.441	0.0147552
803.519	0.0149072
803.597	0.0150159
803.675	0.0150494
803.753	0.0151038
803.831	0.0151122
803.910	0.0153265
803.988	0.0152477
804.066	0.0154115
804.144	0.0155457
804.222	0.0154739
804.300	0.0156506
804.378	0.0156658
804.456	0.0154701
804.535	0.0154668
804.613	0.0155196
804.691	0.0153735
804.769	0.0151714
804.847	0.0150130
804.925	0.0147755
805.003	0.0145815
805.081	0.0142864
805.160	0.0142793
805.238	0.0140208
805.316	0.0137940
805.394	0.0136441
805.472	0.0135017
805.550	0.0134748
805.628	0.0134347
805.706	0.0134947
805.785	0.0134593
805.863	0.0134029
805.941	0.0135537
806.019	0.0136774
806.097	0.0137742
806.175	0.0138691
806.253	0.0140401
806.331	0.0140960
806.410	0.0143056
806.488	0.0143853
806.566	0.0145581
806.644	0.0147631
806.722	0.0147009
806.800	0.0148939
806.878	0.0150088
806.956	0.0151347
807.035	0.0152560
807.113	0.0153877
807.191	0.0154464
807.269	0.0156393
807.347	0.0156895
807.425	0.0157838
807.503	0.0158715
807.581	0.0158925
807.660	0.0159487
807.738	0.0160498
807.816	0.0159717
807.894	0.0158536
807.972	0.0158459
808.050	0.0157560
808.128	0.0156174
808.206	0.0154546
808.285	0.0152027
808.363	0.0150251
808.441	0.0149445
808.519	0.0147953
808.597	0.0145396
808.675	0.0144094
808.753	0.0141525
808.831	0.0139346
808.910	0.0140681
808.988	0.0139006
809.066	0.0136580
809.144	0.0136709
809.222	0.0136707
809.300	0.0135728
809.378	0.0133523
809.456	0.0133873
809.535	0.0134316
809.613	0.0133394
809.691	0.0134734
809.769	0.0135028
809.847	0.0134810
809.925	0.0135546
810.003	0.0135187
810.081	0.0135926
810.160	0.0136622
810.238	0.0139277
810.316	0.0140229
810.394	0.0141373
810.472	0.0142642
810.550	0.0145716
810.628	0.0146201
810.706	0.0148846
810.785	0.0149987
810.863	0.0152536
810.941	0.0155378
811.019	0.0157233
811.097	0.0156792
811.175	0.0158376
811.253	0.0159998
811.331	0.0161628
811.410	0.0162421
811.488	0.0162806
811.566	0.0160978
811.644	0.0161304
811.722	0.0159567
811.800	0.0161155
811.878	0.0158748
811.956	0.0158414
812.035	0.0156423
812.113	0.0154409
812.191	0.0154048
812.269	0.0151613
812.347	0.0149821
812.425	0.0147827
812.503	0.0146327
812.581	0.0146331
812.660	0.0143404
812.738	0.0142756
812.816	0.0142249
812.894	0.0142224
812.972	0.0141126
813.050	0.0138648
813.128	0.0138023
813.206	0.0140132
813.285	0.0139866
813.363	0.0138059
813.441	0.0138241
813.519	0.0138127
813.597	0.0139514
813.675	0.0138893
813.753	0.0138564
813.831	0.0140839
813.910	0.0142292
813.988	0.0141225
814.066	0.0142949
814.144	0.0142952
814.222	0.0143623
814.300	0.0143525
814.378	0.0144570
814.456	0.0144177
814.535	0.0145200
814.613	0.0146115
814.691	0.0146717
814.769	0.0146786
814.847	0.0147103
814.925	0.0146980
815.003	0.0148904
815.081	0.0149750
815.160	0.0150201
815.238	0.0148873
815.316	0.0148756
815.394	0.0150176
815.472	0.0150975
815.550	0.0149613
815.628	0.0149100
815.706	0.0150025
815.785	0.0150695
815.863	0.0150273
815.941	0.0150911
816.019	0.0150874
816.097	0.0149694
816.175	0.0150948
816.253	0.0151096
816.331	0.0150996
816.410	0.0150510
816.488	0.0149863
816.566	0.0149870
816.644	0.0150045
816.722	0.0149352
816.800	0.0149384
816.878	0.0149524
816.956	0.0149255
817.035	0.0146996
817.113	0.0146514
817.191	0.0147900
817.269	0.0146367
817.347	0.0147352
817.425	0.0146093
817.503	0.0146120
817.581	0.0146519
817.660	0.0145020
817.738	0.0143827
817.816	0.0146218
817.894	0.0144965
817.972	0.0144312
818.050	0.0145360
818.128	0.0144935
818.206	0.0143643
818.285	0.0146193
818.363	0.0147670
818.441	0.0146537
818.519	0.0145621
818.597	0.0145108
818.675	0.0146857
818.753	0.0145789
818.831	0.0145576
818.910	0.0145235
818.988	0.0146648
819.066	0.0145622
819.144	0.0145602
819.222	0.0145857
819.300	0.0146776
819.378	0.0146654
819.456	0.0147077
819.535	0.0147438
819.613	0.0148000
819.691	0.0147785
819.769	0.0147440
819.847	0.0147451
819.925	0.0146317
820.003	0.0148290
820.081	0.0148323
820.160	0.0148858
820.238	0.0147105
820.316	0.0147652
820.394	0.0148059
820.472	0.0147121
820.550	0.0147481
820.628	0.0148881
820.706	0.0147478
820.785	0.0147194
820.863	0.0146236
820.941	0.0146179
821.019	0.0146061
821.097	0.0145853
821.175	0.0145210
821.253	0.0145528
821.331	0.0144290
821.410	0.0144852
821.488	0.0144400
821.566	0.0144177
821.644	0.0146007
821.722	0.0145113
821.800	0.0145514
821.878	0.0145987
821.956	0.0145592
822.035	0.0146587
822.113	0.0146116
822.191	0.0145481
822.269	0.0147574
822.347	0.0146675
822.425	0.0147207
822.503	0.0147479
822.581	0.0147478
822.660	0.0146789
822.738	0.0147162
822.816	0.0147906
822.894	0.0150005
822.972	0.0149376
823.050	0.0149787
823.128	0.0150132
823.206	0.0149538
823.285	0.0148167
823.363	0.0148399
823.441	0.0150449
823.519	0.0150739
823.597	0.0150352
823.675	0.0151821
823.753	0.0150169
823.831	0.0150420
823.910	0.0148454
823.988	0.0148371
824.066	0.0148803
824.144	0.0146974
824.222	0.0146860
824.300	0.0145606
824.378	0.0145832
824.456	0.0145300
824.535	0.0146298
824.613	0.0145954
824.691	0.0145712
824.769	0.0146936
824.847	0.0144355
824.925	0.0145129
825.003	0.0146008
825.081	0.0144821
825.160	0.0146462
825.238	0.0145118
825.316	0.0144890
825.394	0.0145553
825.472	0.0146024
825.550	0.0146310
825.628	0.0147311
825.706	0.0146223
825.785	0.0146161
825.863	0.0146660
825.941	0.0146405
826.019	0.0146318
826.097	0.0147247
826.175	0.0146635
826.253	0.0147334
826.331	0.0148395
826.410	0.0146912
826.488	0.0147751
826.566	0.0148087
826.644	0.0148489
826.722	0.0149763
826.800	0.0150940
826.878	0.0150227
826.956	0.0152613
827.035	0.0154121
827.113	0.0153435
827.191	0.0153168
827.269	0.0153268
827.347	0.0152670
827.425	0.0153783
827.503	0.0151736
827.581	0.0151041
827.660	0.0150764
827.738	0.0149404
827.816	0.0148428
827.894	0.0147782
827.972	0.0146132
828.050	0.0143244
828.128	0.0141707
828.206	0.0141267
828.285	0.0139819
828.363	0.0139478
828.441	0.0139645
828.519	0.0137820
828.597	0.0136562
828.675	0.0138094
828.753	0.0140003
828.831	0.0138631
828.910	0.0139364
828.988	0.0139655
829.066	0.0141612
829.144	0.0142600
829.222	0.0143323
829.300	0.0143015
829.378	0.0143795
829.456	0.0146041
829.535	0.0147655
829.613	0.0149304
829.691	0.0149879
829.769	0.0151038
829.847	0.0152166
829.925	0.0152557
830.003	0.0152842
830.081	0.0153950
830.160	0.0154265
830.238	0.0155319
830.316	0.0154667
830.394	0.0154304
830.472	0.0154144
830.550	0.0153474
830.628	0.0153301
830.706	0.0152982
830.785	0.0153523
830.863	0.0153307
830.941	0.0152325
831.019	0.0152097
831.097	0.0151037
831.175	0.0147987
831.253	0.0148689
831.331	0.0147517
831.410	0.0146153
831.488	0.0145162
831.566	0.0143729
831.644	0.0139604
831.722	0.0139011
831.800	0.0141007
831.878	0.0140712
831.956	0.0138467
832.035	0.0139216
832.113	0.0138386
832.191	0.0139260
832.269	0.0141415
832.347	0.0140635
832.425	0.0142389
832.503	0.0144165
832.581	0.0143937
832.660	0.0144802
832.738	0.0145498
832.816	0.0146914
832.894	0.0146407
832.972	0.0147445
833.050	0.0146621
833.128	0.0148189
833.206	0.0149361
833.285	0.0147570
833.363	0.0148611
833.441	0.0147821
833.519	0.0149007
833.597	0.0148217
833.675	0.0147756
833.753	0.0146943
833.831	0.0148489
833.910	0.0147820
833.988	0.0149116
834.066	0.0148334
834.144	0.0149612
834.222	0.0147903
834.300	0.0147218
834.378	0.0148349
834.456	0.0147254
834.535	0.0148559
834.613	0.0147518
834.691	0.0147963
834.769	0.0145918
834.847	0.0147431
834.925	0.0147201
835.003	0.0146418
835.081	0.0145374
835.160	0.0144579
835.238	0.0146125
835.316	0.0147329
835.394	0.0147836
835.472	0.0147443
835.550	0.0147576
835.628	0.0147745
835.706	0.0147815
835.785	0.0150403
835.863	0.0151534
835.941	0.0149487
836.019	0.0150584
836.097	0.0150552
836.175	0.0151601
836.253	0.0149436
836.331	0.0148595
836.410	0.0148257
836.488	0.0147340
836.566	0.0147673
836.644	0.0147114
836.722	0.0146892
836.800	0.0146378
836.878	0.0146436
836.956	0.0144246
837.035	0.0145135
837.113	0.0143827
837.191	0.0144504
837.269	0.0145009
837.347	0.0144139
837.425	0.0143428
837.503	0.0144793
837.581	0.0145384
837.660	0.0143496
837.738	0.0144692
837.816	0.0145133
837.894	0.0145592
837.972	0.0145839
838.050	0.0146317
838.128	0.0146526
838.206	0.0147486
838.285	0.0145538
838.363	0.0147066
838.441	0.0147141
838.519	0.0146852
838.597	0.0146590
838.675	0.0147159
838.753	0.0147331
838.831	0.0147066
838.910	0.0148631
838.988	0.0146871
839.066	0.0146075
839.144	0.0146645
839.222	0.0146529
839.300	0.0145890
839.378	0.0144389
839.456	0.0145011
839.535	0.0144334
839.613	0.0145761
839.691	0.0144624
839.769	0.0145525
839.847	0.0146201
839.925	0.0143980
840.003	0.0143458
840.081	0.0147260
840.160	0.0147570
840.238	0.0145573
840.316	0.0148473
840.394	0.0147492
840.472	0.0147878
840.550	0.0148645
840.628	0.0149804
840.706	0.0149747
840.785	0.0149787
840.863	0.0149664
840.941	0.0149398
841.019	0.0149318
841.097	0.0149303
841.175	0.0149391
841.253	0.0149441
841.331	0.0146819
841.410	0.0148157
841.488	0.0148483
841.566	0.0149207
841.644	0.0147694
841.722	0.0146149
841.800	0.0146968
841.878	0.0146112
841.956	0.0145601
842.035	0.0145689
842.113	0.0144094
842.191	0.0143685
842.269	0.0143480
842.347	0.0142327
842.425	0.0143549
842.503	0.0143075
842.581	0.0142817
842.660	0.0143069
842.738	0.0143216
842.816	0.0145351
842.894	0.0145505
842.972	0.0145064
843.050	0.0146066
843.128	0.0145825
843.206	0.0146915
843.285	0.0148572
843.363	0.0149688
843.441	0.0149061
843.519	0.0149988
843.597	0.0151662
843.675	0.0151562
843.753	0.0151205
843.831	0.0151343
843.910	0.0151422
843.988	0.0152476
844.066	0.0153319
844.144	0.0152425
844.222	0.0151618
844.300	0.0152237
844.378	0.0153172
844.456	0.0151142
844.535	0.0151033
844.613	0.0150076
844.691	0.0148823
844.769	0.0148408
844.847	0.0146432
844.925	0.0145266
845.003	0.0144530
845.081	0.0143390
845.160	0.0143692
845.238	0.0143294
845.316	0.0143452
845.394	0.0142383
845.472	0.0143809
845.550	0.0144393
845.628	0.0143245
845.706	0.0144167
845.785	0.0144926
845.863	0.0144292
845.941	0.0144300
846.019	0.0144055
846.097	0.0145991
846.175	0.0144366
846.253	0.0145736
846.331	0.0145435
846.410	0.0147028
846.488	0.0145331
846.566	0.0146714
846.644	0.0147283
846.722	0.0145849
846.800	0.0145537
846.878	0.0146788
846.956	0.0147324
847.035	0.0147959
847.113	0.0145420
847.191	0.0145959
847.269	0.0147026
847.347	0.0146130
847.425	0.0146399
847.503	0.0146722
847.581	0.0147194
847.660	0.0146255
847.738	0.0145419
847.816	0.0145559
847.894	0.0146389
847.972	0.0146410
848.050	0.0145784
848.128	0.0146577
848.206	0.0145849
848.285	0.0146664
848.363	0.0146897
848.441	0.0147268
848.519	0.0148533
848.597	0.0148384
848.675	0.0148866
848.753	0.0147890
848.831	0.0147401
848.910	0.0149074
848.988	0.0149276
849.066	0.0147425
849.144	0.0147659
849.222	0.0148165
849.300	0.0148504
849.378	0.0146558
849.456	0.0147920
849.535	0.0146691
849.613	0.0147506
849.691	0.0147540
849.769	0.0149142
849.847	0.0147705
849.925	0.0148759
850.003	0.0147929
850.081	0.0149521
850.160	0.0148508
850.238	0.0147495
850.316	0.0149165
850.394	0.0148159
850.472	0.0148812
850.550	0.0147908
850.628	0.0148735
850.706	0.0149345
850.785	0.0147687
850.863	0.0149001
850.941	0.0149112
851.019	0.0149368
851.097	0.0148796
851.175	0.0147785
851.253	0.0149321
851.331	0.0148334
851.410	0.0149216
851.488	0.0146787
851.566	0.0146297
851.644	0.0145063
851.722	0.0146693
851.800	0.0146181
851.878	0.0144957
851.956	0.0143527
852.035	0.0144936
852.113	0.0143460
852.191	0.0143575
852.269	0.0143463
852.347	0.0144937
852.425	0.0144505
852.503	0.0143271
852.581	0.0142638
852.660	0.0144826
852.738	0.0144387
852.816	0.0144652
852.894	0.0144083
852.972	0.0145390
853.050	0.0144530
853.128	0.0144892
853.206	0.0144302
853.285	0.0144476
853.363	0.0145938
853.441	0.0145620
853.519	0.0144765
853.597	0.0144480
853.675	0.0144824
853.753	0.0146091
853.831	0.0144880
853.910	0.0146446
853.988	0.0146510
854.066	0.0145732
854.144	0.0146039
854.222	0.0147189
854.300	0.0147594
854.378	0.0147653
854.456	0.0148089
854.535	0.0148867
854.613	0.0148945
854.691	0.0149394
854.769	0.0149727
854.847	0.0149705
854.925	0.0149967
855.003	0.0147166
855.081	0.0149502
855.160	0.0149236
855.238	0.0148544
855.316	0.0147581
855.394	0.0148086
855.472	0.0145539
855.550	0.0148190
855.628	0.0147330
855.706	0.0145642
855.785	0.0147402
855.863	0.0146436
855.941	0.0145545
856.019	0.0147697
856.097	0.0147280
856.175	0.0145932
856.253	0.0144678
856.331	0.0145250
856.410	0.0145513
856.488	0.0146310
856.566	0.0145456
856.644	0.0146101
856.722	0.0146159
856.800	0.0144662
856.878	0.0146655
856.956	0.0145213
857.035	0.0145704
857.113	0.0144855
857.191	0.0144581
857.269	0.0144551
857.347	0.0144581
857.425	0.0145365
857.503	0.0145335
857.581	0.0145926
857.660	0.0146107
857.738	0.0145600
857.816	0.0147187
857.894	0.0146243
857.972	0.0146948
858.050	0.0147034
858.128	0.0146598
858.206	0.0146955
858.285	0.0149348
858.363	0.0149065
858.441	0.0146003
858.519	0.0145989
858.597	0.0147657
858.675	0.0148529
858.753	0.0148544
858.831	0.0148785
858.910	0.0148177
858.988	0.0146577
859.066	0.0147575
859.144	0.0148910
859.222	0.0147430
859.300	0.0148012
859.378	0.0149750
859.456	0.0148561
859.535	0.0148971
859.613	0.0149286
859.691	0.0147578
859.769	0.0148425
859.847	0.0147088
859.925	0.0147293
860.003	0.0147829
860.081	0.0146440
860.160	0.0147012
860.238	0.0147905
860.316	0.0146352
860.394	0.0147092
860.472	0.0146701
860.550	0.0147324
860.628	0.0148186
860.706	0.0146291
860.785	0.0146244
860.863	0.0147087
860.941	0.0146619
861.019	0.0145206
861.097	0.0144225
861.175	0.0144411
861.253	0.0144717
861.331	0.0144132
861.410	0.0143793
861.488	0.0142020
861.566	0.0143378
861.644	0.0143541
861.722	0.0143135
861.800	0.0143803
861.878	0.0144560
861.956	0.0144693
862.035	0.0143811
862.113	0.0145593
862.191	0.0144815
862.269	0.0145348
862.347	0.0145953
862.425	0.0147621
862.503	0.0144875
862.581	0.0146811
862.660	0.0148745
862.738	0.0147285
862.816	0.0148423
862.894	0.0148505
862.972	0.0148663
863.050	0.0148963
863.128	0.0149297
863.206	0.0148779
863.285	0.0148949
863.363	0.0149809
863.441	0.0148866
863.519	0.0150078
863.597	0.0150210
863.675	0.0150186
863.753	0.0150322
863.831	0.0149492
863.910	0.0149471
863.988	0.0149521
864.066	0.0150434
864.144	0.0148173
864.222	0.0147710
864.300	0.0148314
864.378	0.0147972
864.456	0.0147548
864.535	0.0148103
864.613	0.0147816
864.691	0.0147379
864.769	0.0145844
864.847	0.0147249
864.925	0.0147233
865.003	0.0145876
865.081	0.0144815
865.160	0.0145595
865.238	0.0145386
865.316	0.0144753
865.394	0.0144558
865.472	0.0145303
865.550	0.0144820
865.628	0.0145459
865.706	0.0144185
865.785	0.0144887
865.863	0.0144368
865.941	0.0144012
866.019	0.0144306
866.097	0.0143300
866.175	0.0145583
866.253	0.0142999
866.331	0.0146039
866.410	0.0142951
866.488	0.0144308
866.566	0.0143923
866.644	0.0144594
866.722	0.0144761
866.800	0.0145065
866.878	0.0145029
866.956	0.0144338
867.035	0.0145329
867.113	0.0146056
867.191	0.0147157
867.269	0.0148393
867.347	0.0148365
867.425	0.0148721
867.503	0.0147382
867.581	0.0147993
867.660	0.0148161
867.738	0.0151111
867.816	0.0149683
867.894	0.0149986
867.972	0.0149998
868.050	0.0149798
868.128	0.0148602
868.206	0.0147651
868.285	0.0147999
868.363	0.0149712
868.441	0.0146963
868.519	0.0145823
868.597	0.0147291
868.675	0.0146861
868.753	0.0146169
868.831	0.0145183
868.910	0.0147176
868.988	0.0147037
869.066	0.0145078
869.144	0.0145192
869.222	0.0145766
869.300	0.0146204
869.378	0.0145281
869.456	0.0144717
869.535	0.0143555
869.613	0.0147099
869.691	0.0146562
869.769	0.0144688
869.847	0.0143834
869.925	0.0144717
870.003	0.0144353
870.081	0.0145163
870.160	0.0145647
870.238	0.0144984
870.316	0.0145569
870.394	0.0146474
870.472	0.0147743
870.550	0.0149085
870.628	0.0146764
870.706	0.0149412
870.785	0.0152014
870.863	0.0150568
870.941	0.0150076
871.019	0.0150510
871.097	0.0151685
871.175	0.0150993
871.253	0.0151210
871.331	0.0150350
871.410	0.0151373
871.488	0.0151378
871.566	0.0151212
871.644	0.0150269
871.722	0.0150615
871.800	0.0149239
871.878	0.0148983
871.956	0.0148343
872.035	0.0148117
872.113	0.0149603
872.191	0.0145702
872.269	0.0146027
872.347	0.0145391
872.425	0.0143765
872.503	0.0144169
872.581	0.0143391
872.660	0.0142564
872.738	0.0143736
872.816	0.0143713
872.894	0.0141589
872.972	0.0140765
873.050	0.0143240
873.128	0.0142657
873.206	0.0143195
873.285	0.0142629
873.363	0.0143979
873.441	0.0143675
873.519	0.0144807
873.597	0.0144273
873.675	0.0145560
873.753	0.0145159
873.831	0.0144404
873.910	0.0145432
873.988	0.0145941
874.066	0.0147510
874.144	0.0145470
874.222	0.0146124
874.300	0.0146610
874.378	0.0145168
874.456	0.0146407
874.535	0.0147348
874.613	0.0144761
874.691	0.0145783
874.769	0.0144579
874.847	0.0145683
874.925	0.0146550
875.003	0.0144593
875.081	0.0147650
875.160	0.0146409
875.238	0.0145727
875.316	0.0146185
875.394	0.0147585
875.472	0.0147333
875.550	0.0149690
875.628	0.0149007
875.706	0.0148145
875.785	0.0148769
875.863	0.0148256
875.941	0.0148659
876.019	0.0151125
876.097	0.0148787
876.175	0.0149149
876.253	0.0149335
876.331	0.0148544
876.410	0.0149698
876.488	0.0149561
876.566	0.0149771
876.644	0.0148341
876.722	0.0150400
876.800	0.0148189
876.878	0.0147015
876.956	0.0147283
877.035	0.0146855
877.113	0.0146462
877.191	0.0146854
877.269	0.0147118
877.347	0.0145498
877.425	0.0147597
877.503	0.0145816
877.581	0.0145507
877.660	0.0146142
877.738	0.0145565
877.816	0.0144905
877.894	0.0144469
877.972	0.0144614
878.050	0.0144720
878.128	0.0144997
878.206	0.0145112
878.285	0.0145853
878.363	0.0144576
878.441	0.0144469
878.519	0.0146689
878.597	0.0145025
878.675	0.0144238
878.753	0.0145512
878.831	0.0146774
878.910	0.0145676
878.988	0.0145451
879.066	0.0146237
879.144	0.0146815
879.222	0.0148019
879.300	0.0146870
879.378	0.0146867
879.456	0.0147118
879.535	0.0147408
879.613	0.0148460
879.691	0.0146322
879.769	0.0148942
879.847	0.0149703
879.925	0.0147413
880.003	0.0149166
880.081	0.0148436
880.160	0.0149758
880.238	0.0149219
880.316	0.0149507
880.394	0.0149159
880.472	0.0149068
880.550	0.0149096
880.628	0.0148524
880.706	0.0148492
880.785	0.0149044
880.863	0.0148559
880.941	0.0148199
881.019	0.0149474
881.097	0.0147497
881.175	0.0145979
881.253	0.0147745
881.331	0.0147876
881.410	0.0147373
881.488	0.0146469
881.566	0.0145413
881.644	0.0147348
881.722	0.0147301
881.800	0.0146187
881.878	0.0146019
881.956	0.0145962
882.035	0.0146028
882.113	0.0144437
882.191	0.0145399
882.269	0.0145519
882.347	0.0144040
882.425	0.0144662
882.503	0.0144412
882.581	0.0144841
882.660	0.0144382
882.738	0.0143910
882.816	0.0143611
882.894	0.0145109
882.972	0.0146365
883.050	0.0144083
883.128	0.0144714
883.206	0.0147058
883.285	0.0145135
883.363	0.0145071
883.441	0.0144756
883.519	0.0144460
883.597	0.0147078
883.675	0.0147131
883.753	0.0147272
883.831	0.0146721
883.910	0.0147697
883.988	0.0147858
884.066	0.0148380
884.144	0.0148913
884.222	0.0149744
884.300	0.0149864
884.378	0.0150502
884.456	0.0151311
884.535	0.0150123
884.613	0.0150857
884.691	0.0150828
884.769	0.0148070
884.847	0.0150066
884.925	0.0150011
885.003	0.0148999
885.081	0.0148506
885.160	0.0147923
885.238	0.0147276
885.316	0.0146999
885.394	0.0145776
885.472	0.0146507
885.550	0.0146581
885.628	0.0144881
885.706	0.0144859
885.785	0.0145475
885.863	0.0145140
885.941	0.0144264
886.019	0.0143776
886.097	0.0144673
886.175	0.0145046
886.253	0.0144692
886.331	0.0144623
886.410	0.0145650
886.488	0.0145053
886.566	0.0145761
886.644	0.0145851
886.722	0.0143813
886.800	0.0146257
886.878	0.0147678
886.956	0.0145818
887.035	0.0146695
887.113	0.0146505
887.191	0.0146300
887.269	0.0146989
887.347	0.0146748
887.425	0.0147417
887.503	0.0147275
887.581	0.0149058
887.660	0.0150375
887.738	0.0148023
887.816	0.0148080
887.894	0.0148560
887.972	0.0149354
888.050	0.0148409
888.128	0.0147816
888.206	0.0148667
888.285	0.0148610
888.363	0.0148299
888.441	0.0147923
888.519	0.0148299
888.597	0.0148156
888.675	0.0148786
888.753	0.0147496
888.831	0.0146997
888.910	0.0147017
888.988	0.0146899
889.066	0.0147548
889.144	0.0147921
889.222	0.0146884
889.300	0.0147308
889.378	0.0146848
889.456	0.0147353
889.535	0.0145234
889.613	0.0145799
889.691	0.0145400
889.769	0.0144558
889.847	0.0145127
889.925	0.0144423
890.003	0.0146584
890.081	0.0144524
890.160	0.0146490
890.238	0.0144185
890.316	0.0145404
890.394	0.0145258
890.472	0.0145411
890.550	0.0144937
890.628	0.0147169
890.706	0.0146363
890.785	0.0147629
890.863	0.0146462
890.941	0.0147350
891.019	0.0147287
891.097	0.0147237
891.175	0.0146503
891.253	0.0147466
891.331	0.0148121
891.410	0.0146929
891.488	0.0147144
891.566	0.0146523
891.644	0.0148512
891.722	0.0148423
891.800	0.0148906
891.878	0.0150014
891.956	0.0149263
892.035	0.0148916
892.113	0.0148791
892.191	0.0148943
892.269	0.0148993
892.347	0.0150382
892.425	0.0150127
892.503	0.0150645
892.581	0.0149141
892.660	0.0148667
892.738	0.0148965
892.816	0.0148930
892.894	0.0149168
892.972	0.0147191
893.050	0.0146609
893.128	0.0146385
893.206	0.0146733
893.285	0.0146883
893.363	0.0146137
893.441	0.0146423
893.519	0.0146245
893.597	0.0147691
893.675	0.0146850
893.753	0.0147199
893.831	0.0148522
893.910	0.0147139
893.988	0.0146696
894.066	0.0146321
894.144	0.0147690
894.222	0.0148074
894.300	0.0146078
894.378	0.0145162
894.456	0.0148209
894.535	0.0145181
894.613	0.0145560
894.691	0.0145059
894.769	0.0144911
894.847	0.0144010
894.925	0.0144617
895.003	0.0143157
895.081	0.0145742
895.160	0.0145363
895.238	0.0144939
895.316	0.0144547
895.394	0.0145506
895.472	0.0144347
895.550	0.0146503
895.628	0.0148240
895.706	0.0148107
895.785	0.0150388
895.863	0.0150219
895.941	0.0151174
896.019	0.0151227
896.097	0.0150669
896.175	0.0152260
896.253	0.0152800
896.331	0.0151246
896.410	0.0149983
896.488	0.0148579
896.566	0.0148518
896.644	0.0149503
896.722	0.0147334
896.800	0.0147136
896.878	0.0146382
896.956	0.0145108
897.035	0.0144724
897.113	0.0145322
897.191	0.0144997
897.269	0.0145703
897.347	0.0143531
897.425	0.0142809
897.503	0.0142015
897.581	0.0141595
897.660	0.0143469
897.738	0.0141219
897.816	0.0141399
897.894	0.0143137
897.972	0.0144417
898.050	0.0145275
898.128	0.0146658
898.206	0.0148310
898.285	0.0148583
898.363	0.0150555
898.441	0.0151985
898.519	0.0152119
898.597	0.0150910
898.675	0.0152347
898.753	0.0152843
898.831	0.0153459
898.910	0.0152062
898.988	0.0152544
899.066	0.0150649
899.144	0.0149068
899.222	0.0149706
899.300	0.0147615
899.378	0.0147543
899.456	0.0147633
899.535	0.0148400
899.613	0.0146293
899.691	0.0145942
899.769	0.0146838
899.847	0.0146627
899.925	0.0145926
900.003	0.0144302
900.081	0.0143567
900.160	0.0143974
900.238	0.0142585
900.316	0.0140991
900.394	0.0142437
900.472	0.0139652
900.550	0.0140462
900.628	0.0139598
900.706	0.0138880
900.785	0.0141126
900.863	0.0139458
900.941	0.0141144
901.019	0.0143674
901.097	0.0143938
901.175	0.0146838
901.253	0.0148988
901.331	0.0151486
901.410	0.0153676
901.488	0.0155433
901.566	0.0155127
901.644	0.0155602
901.722	0.0156947
901.800	0.0156844
901.878	0.0155147
901.956	0.0154525
902.035	0.0153384
902.113	0.0151987
902.191	0.0151398
902.269	0.0150059
902.347	0.0147718
902.425	0.0147162
902.503	0.0145511
902.581	0.0145591
902.660	0.0146013
902.738	0.0145681
902.816	0.0145693
902.894	0.0147321
902.972	0.0147739
903.050	0.0148321
903.128	0.0148553
903.206	0.0147984
903.285	0.0147092
903.363	0.0147181
903.441	0.0146352
903.519	0.0145633
903.597	0.0142602
903.675	0.0141845
903.753	0.0140997
903.831	0.0140253
903.910	0.0139816
903.988	0.0138746
904.066	0.0138661
904.144	0.0139645
904.222	0.0141009
904.300	0.0142158
904.378	0.0142822
904.456	0.0144052
904.535	0.0145486
904.613	0.0147115
904.691	0.0148206
904.769	0.0148541
904.847	0.0149225
904.925	0.0150151
905.003	0.0149869
905.081	0.0150620
905.160	0.0151196
905.238	0.0150932
905.316	0.0151286
905.394	0.0151437
905.472	0.0150650
905.550	0.0151424
905.628	0.0149158
905.706	0.0150645
905.785	0.0148978
905.863	0.0148396
905.941	0.0149030
906.019	0.0149460
906.097	0.0149686
906.175	0.0149167
906.253	0.0150132
906.331	0.0150882
906.410	0.0151194
906.488	0.0151219
906.566	0.0151305
906.644	0.0152157
906.722	0.0151969
906.800	0.0151690
906.878	0.0148893
906.956	0.0148529
907.035	0.0147574
907.113	0.0145180
907.191	0.0143041
907.269	0.0142951
907.347	0.0140578
907.425	0.0138642
907.503	0.0138284
907.581	0.0139307
907.660	0.0139346
907.738	0.0138998
907.816	0.0139441
907.894	0.0141856
907.972	0.0142665
908.050	0.0143095
908.128	0.0144658
908.206	0.0146260
908.285	0.0147630
908.363	0.0148305
908.441	0.0149272
908.519	0.0149426
908.597	0.0149541
908.675	0.0150535
908.753	0.0151147
908.831	0.0152993
908.910	0.0153590
908.988	0.0152728
909.066	0.0153016
909.144	0.0153331
909.222	0.0153358
909.300	0.0152496
909.378	0.0152534
909.456	0.0150927
909.535	0.0149697
909.613	0.0147969
909.691	0.0147560
909.769	0.0148373
909.847	0.0146979
909.925	0.0145158
910.003	0.0145296
910.081	0.0145483
910.160	0.0146054
910.238	0.0145855
910.316	0.0147202
910.394	0.0147472
910.472	0.0147791
910.550	0.0147965
910.628	0.0148886
910.706	0.0150917
910.785	0.0149416
910.863	0.0149328
910.941	0.0148529
911.019	0.0149451
911.097	0.0149719
911.175	0.0147192
911.253	0.0147105
911.331	0.0146307
911.410	0.0146198
911.488	0.0146256
911.566	0.0144324
911.644	0.0145379
911.722	0.0144830
911.800	0.0144975
911.878	0.0145981
911.956	0.0146210
912.035	0.0145760
912.113	0.0146207
912.191	0.0147211
912.269	0.0145840
912.347	0.0146375
912.425	0.0145497
912.503	0.0145506
912.581	0.0144736
912.660	0.0145087
912.738	0.0146440
912.816	0.0146140
912.894	0.0146199
912.972	0.0144481
913.050	0.0145972
913.128	0.0144301
913.206	0.0144568
913.285	0.0145103
913.363	0.0144909
913.441	0.0145278
913.519	0.0145747
913.597	0.0147266
913.675	0.0145707
913.753	0.0147198
913.831	0.0147769
913.910	0.0146876
913.988	0.0149538
914.066	0.0148940
914.144	0.0149213
914.222	0.0148006
914.300	0.0149705
914.378	0.0150393
914.456	0.0150071
914.535	0.0151222
914.613	0.0152774
914.691	0.0152950
914.769	0.0153175
914.847	0.0153419
914.925	0.0152040
915.003	0.0152181
915.081	0.0151726
915.160	0.0150552
915.238	0.0149444
915.316	0.0149675
915.394	0.0149239
915.472	0.0149210
915.550	0.0148792
915.628	0.0147334
915.706	0.0147092
915.785	0.0147153
915.863	0.0147430
915.941	0.0145440
916.019	0.0145185
916.097	0.0145010
916.175	0.0145111
916.253	0.0145705
916.331	0.0144454
916.410	0.0144219
916.488	0.0145903
916.566	0.0144411
916.644	0.0146172
916.722	0.0144743
916.800	0.0145415
916.878	0.0146040
916.956	0.0147198
917.035	0.0146715
917.113	0.0148370
917.191	0.0148755
917.269	0.0146416
917.347	0.0147733
917.425	0.0146818
917.503	0.0146372
917.581	0.0145525
917.660	0.0144563
917.738	0.0145374
917.816	0.0145226
917.894	0.0144443
917.972	0.0143668
918.050	0.0143636
918.128	0.0144323
918.206	0.0145877
918.285	0.0146638
918.363	0.0144667
918.441	0.0145165
918.519	0.0146737
918.597	0.0146631
918.675	0.0145741
918.753	0.0147407
918.831	0.0147895
918.910	0.0147562
918.988	0.0147097
919.066	0.0146385
919.144	0.0149585
919.222	0.0149638
919.300	0.0150928
919.378	0.0148427
919.456	0.0150484
919.535	0.0149688
919.613	0.0148628
919.691	0.0150025
919.769	0.0149052
919.847	0.0147649
919.925	0.0148740
920.003	0.0147684
920.081	0.0148640
920.160	0.0148340
920.238	0.0148375
920.316	0.0147948
920.394	0.0148949
920.472	0.0149072
920.550	0.0148032
920.628	0.0148356
920.706	0.0148872
920.785	0.0148102
920.863	0.0148231
920.941	0.0149120
921.019	0.0147777
921.097	0.0147385
921.175	0.0146442
921.253	0.0147092
921.331	0.0145908
921.410	0.0146272
921.488	0.0145555
921.566	0.0143893
921.644	0.0143846
921.722	0.0144152
921.800	0.0144252
921.878	0.0144526
921.956	0.0144417
922.035	0.0144429
922.113	0.0144475
922.191	0.0143015
922.269	0.0145591
922.347	0.0145606
922.425	0.0144443
922.503	0.0145707
922.581	0.0145431
922.660	0.0146137
922.738	0.0146502
922.816	0.0146906
922.894	0.0146270
922.972	0.0147242
923.050	0.0148440
923.128	0.0148563
923.206	0.0148803
923.285	0.0148449
923.363	0.0148370
923.441	0.0149920
923.519	0.0148727
923.597	0.0146257
923.675	0.0148827
923.753	0.0149116
923.831	0.0148598
923.910	0.0147880
923.988	0.0148219
924.066	0.0148876
924.144	0.0147025
924.222	0.0144926
924.300	0.0146764
924.378	0.0147030
924.456	0.0145419
924.535	0.0145845
924.613	0.0145501
924.691	0.0145941
924.769	0.0145265
924.847	0.0146843
924.925	0.0145506
925.003	0.0144951
925.081	0.0146540
925.160	0.0146058
925.238	0.0147858
925.316	0.0147970
925.394	0.0147501
925.472	0.0148504
925.550	0.0148280
925.628	0.0149597
925.706	0.0148495
925.785	0.0148171
925.863	0.0149236
925.941	0.0149634
926.019	0.0148406
926.097	0.0148177
926.175	0.0147902
926.253	0.0147219
926.331	0.0147736
926.410	0.0146918
926.488	0.0146767
926.566	0.0145857
926.644	0.0146487
926.722	0.0145947
926.800	0.0145802
926.878	0.0145535
926.956	0.0143815
927.035	0.0145110
927.113	0.0144347
927.191	0.0145027
927.269	0.0145866
927.347	0.0145405
927.425	0.0144144
927.503	0.0145967
927.581	0.0145192
927.660	0.0144713
927.738	0.0146315
927.816	0.0145255
927.894	0.0144815
927.972	0.0145193
928.050	0.0146589
928.128	0.0146758
928.206	0.0148823
928.285	0.0148542
928.363	0.0148119
928.441	0.0147240
928.519	0.0148663
928.597	0.0151713
928.675	0.0151664
928.753	0.0150556
928.831	0.0152608
928.910	0.0151936
928.988	0.0152798
929.066	0.0153327
929.144	0.0153024
929.222	0.0151033
929.300	0.0151696
929.378	0.0150079
929.456	0.0149788
929.535	0.0149247
929.613	0.0148884
929.691	0.0148072
929.769	0.0147086
929.847	0.0147778
929.925	0.0146768
930.003	0.0147005
930.081	0.0145885
930.160	0.0145638
930.238	0.0146956
930.316	0.0146365
930.394	0.0146790
930.472	0.0144419
930.550	0.0145511
930.628	0.0145642
930.706	0.0144453
930.785	0.0144769
930.863	0.0143746
930.941	0.0144247
931.019	0.0143729
931.097	0.0144397
931.175	0.0142671
931.253	0.0143657
931.331	0.0144559
931.410	0.0146078
931.488	0.0146091
931.566	0.0145190
931.644	0.0147202
931.722	0.0147640
931.800	0.0146928
931.878	0.0147610
931.956	0.0148100
932.035	0.0150124
932.113	0.0148763
932.191	0.0149722
932.269	0.0149471
932.347	0.0148462
932.425	0.0147084
932.503	0.0150084
932.581	0.0150860
932.660	0.0148215
932.738	0.0148243
932.816	0.0149074
932.894	0.0148489
932.972	0.0148333
933.050	0.0147285
933.128	0.0145676
933.206	0.0145939
933.285	0.0146001
933.363	0.0146774
933.441	0.0146268
933.519	0.0145930
933.597	0.0146172
933.675	0.0147152
933.753	0.0143922
933.831	0.0144862
933.910	0.0146725
933.988	0.0146912
934.066	0.0147063
934.144	0.0147156
934.222	0.0146113
934.300	0.0146333
934.378	0.0146645
934.456	0.0148569
934.535	0.0148290
934.613	0.0147472
934.691	0.0147107
934.769	0.0148256
934.847	0.0147173
934.925	0.0147871
935.003	0.0148012
935.081	0.0147263
935.160	0.0148590
935.238	0.0147674
935.316	0.0146952
935.394	0.0147873
935.472	0.0146942
935.550	0.0146944
935.628	0.0146709
935.706	0.0147099
935.785	0.0146877
935.863	0.0146290
935.941	0.0147092
936.019	0.0147885
936.097	0.0146347
936.175	0.0147057
936.253	0.0147660
936.331	0.0145567
936.410	0.0145976
936.488	0.0147436
936.566	0.0147141
936.644	0.0147703
936.722	0.0146529
936.800	0.0146417
936.878	0.0146942
936.956	0.0146922
937.035	0.0146376
937.113	0.0146552
937.191	0.0145718
937.269	0.0146462
937.347	0.0146526
937.425	0.0146043
937.503	0.0147332
937.581	0.0147182
937.660	0.0146858
937.738	0.0147078
937.816	0.0149184
937.894	0.0148230
937.972	0.0149437
938.050	0.0148673
938.128	0.0146537
938.206	0.0146799
938.285	0.0147300
938.363	0.0148344
938.441	0.0148866
938.519	0.0145830
938.597	0.0144923
938.675	0.0146058
938.753	0.0145211
938.831	0.0144324
938.910	0.0145162
938.988	0.0145043
939.066	0.0144830
939.144	0.0143970
939.222	0.0142817
939.300	0.0142290
939.378	0.0142868
939.456	0.0143565
939.535	0.0143890
939.613	0.0144796
939.691	0.0144398
939.769	0.0143056
939.847	0.0145487
939.925	0.0145722
940.003	0.0146359
940.081	0.0146385
940.160	0.0148433
940.238	0.0149292
940.316	0.0149139
940.394	0.0149065
940.472	0.0149851
940.550	0.0150458
940.628	0.0150367
940.706	0.0151080
940.785	0.0149797
940.863	0.0150593
940.941	0.0149401
941.019	0.0150399
941.097	0.0149032
941.175	0.0149026
941.253	0.0148896
941.331	0.0148228
941.410	0.0148302
941.488	0.0149748
941.566	0.0147910
941.644	0.0148952
941.722	0.0149992
941.800	0.0148817
941.878	0.0147705
941.956	0.0149156
942.035	0.0148068
942.113	0.0146741
942.191	0.0146698
942.269	0.0146808
942.347	0.0146198
942.425	0.0147250
942.503	0.0146814
942.581	0.0145026
942.660	0.0147775
942.738	0.0148099
942.816	0.0146614
942.894	0.0146432
942.972	0.0146707
943.050	0.0146484
943.128	0.0146370
943.206	0.0146282
943.285	0.0145019
943.363	0.0145918
943.441	0.0144559
943.519	0.0143350
943.597	0.0143530
943.675	0.0143336
943.753	0.0143317
943.831	0.0143647
943.910	0.0142714
943.988	0.0142249
944.066	0.0144528
944.144	0.0145134
944.222	0.0145950
944.300	0.0145289
944.378	0.0145021
944.456	0.0146534
944.535	0.0146888
944.613	0.0147762
944.691	0.0148340
944.769	0.0147423
944.847	0.0149110
944.925	0.0150135
945.003	0.0149686
945.081	0.0149882
945.160	0.0150850
945.238	0.0149151
945.316	0.0149284
945.394	0.0151505
945.472	0.0151144
945.550	0.0149885
945.628	0.0150336
945.706	0.0150418
945.785	0.0150299
945.863	0.0150143
945.941	0.0150311
946.019	0.0149534
946.097	0.0149923
946.175	0.0148819
946.253	0.0148801
946.331	0.0148093
946.410	0.0147799
946.488	0.0148360
946.566	0.0149303
946.644	0.0147310
946.722	0.0146520
946.800	0.0147005
946.878	0.0147030
946.956	0.0146501
947.035	0.0147744
947.113	0.0146342
947.191	0.0145666
947.269	0.0145113
947.347	0.0144506
947.425	0.0146165
947.503	0.0146149
947.581	0.0144483
947.660	0.0143888
947.738	0.0143319
947.816	0.0144118
947.894	0.0143593
947.972	0.0143738
948.050	0.0144477
948.128	0.0143658
948.206	0.0144395
948.285	0.0145783
948.363	0.0145096
948.441	0.0145695
948.519	0.0144973
948.597	0.0144755
948.675	0.0144667
948.753	0.0146146
948.831	0.0145564
948.910	0.0145766
948.988	0.0145995
949.066	0.0144794
949.144	0.0144993
949.222	0.0145408
949.300	0.0146364
949.378	0.0144821
949.456	0.0145362
949.535	0.0146152
949.613	0.0146633
949.691	0.0145173
949.769	0.0146771
949.847	0.0146411
949.925	0.0146638
950.003	0.0146931
950.081	0.0148254
950.160	0.0147680
950.238	0.0148853
950.316	0.0149480
950.394	0.0149043
950.472	0.0149104
950.550	0.0148472
950.628	0.0147536
950.706	0.0148365
950.785	0.0149405
950.863	0.0148804
950.941	0.0149054
951.019	0.0148914
951.097	0.0148862
951.175	0.0147587
951.253	0.0148414
951.331	0.0148009
951.410	0.0148242
951.488	0.0146989
951.566	0.0146896
951.644	0.0146641
951.722	0.0146083
951.800	0.0146127
951.878	0.0145515
951.956	0.0144514
952.035	0.0146327
952.113	0.0146122
952.191	0.0146933
952.269	0.0145289
952.347	0.0146933
952.425	0.0147941
952.503	0.0147720
952.581	0.0149107
952.660	0.0148225
952.738	0.0149124
952.816	0.0149886
952.894	0.0150407
952.972	0.0150961
953.050	0.0152178
953.128	0.0149635
953.206	0.0150725
953.285	0.0150169
953.363	0.0150508
953.441	0.0148307
953.519	0.0147887
953.597	0.0147608
953.675	0.0145918
953.753	0.0146893
953.831	0.0144687
953.910	0.0143634
953.988	0.0142885
954.066	0.0144205
954.144	0.0144013
954.222	0.0142362
954.300	0.0141772
954.378	0.0142355
954.456	0.0142297
954.535	0.0143085
954.613	0.0142390
954.691	0.0141811
954.769	0.0141427
954.847	0.0142545
954.925	0.0143239
955.003	0.0142331
955.081	0.0142736
955.160	0.0143916
955.238	0.0142008
955.316	0.0143687
955.394	0.0143139
955.472	0.0144094
955.550	0.0144550
955.628	0.0145773
955.706	0.0145695
955.785	0.0145535
955.863	0.0145625
955.941	0.0146169
956.019	0.0145761
956.097	0.0146944
956.175	0.0147899
956.253	0.0147504
956.331	0.0148460
956.410	0.0148943
956.488	0.0149507
956.566	0.0148482
956.644	0.0149465
956.722	0.0149992
956.800	0.0149099
956.878	0.0149886
956.956	0.0149811
957.035	0.0150817
957.113	0.0149947
957.191	0.0149139
957.269	0.0150214
957.347	0.0150145
957.425	0.0149021
957.503	0.0149104
957.581	0.0148630
957.660	0.0149503
957.738	0.0148703
957.816	0.0147726
957.894	0.0148510
957.972	0.0148496
958.050	0.0148808
958.128	0.0148880
958.206	0.0148045
958.285	0.0147805
958.363	0.0149478
958.441	0.0148790
958.519	0.0147171
958.597	0.0146622
958.675	0.0148397
958.753	0.0147657
958.831	0.0146828
958.910	0.0145998
958.988	0.0145966
959.066	0.0145944
959.144	0.0144173
959.222	0.0142740
959.300	0.0143221
959.378	0.0143008
959.456	0.0142542
959.535	0.0141433
959.613	0.0143196
959.691	0.0141328
959.769	0.0141370
959.847	0.0143173
959.925	0.0142971
960.003	0.0142005
960.081	0.0142067
960.160	0.0141971
960.238	0.0143110
960.316	0.0144093
960.394	0.0143687
960.472	0.0144365
960.550	0.0145892
960.628	0.0146795
960.706	0.0148034
960.785	0.0147591
960.863	0.0148701
960.941	0.0148502
961.019	0.0149123
961.097	0.0149836
961.175	0.0150623
961.253	0.0150668
961.331	0.0151404
961.410	0.0151207
961.488	0.0152401
961.566	0.0151389
961.644	0.0151064
961.722	0.0152814
961.800	0.0150689
961.878	0.0150578
961.956	0.0150567
962.035	0.0150243
962.113	0.0150555
962.191	0.0149008
962.269	0.0149093
962.347	0.0147772
962.425	0.0149331
962.503	0.0148701
962.581	0.0148483
962.660	0.0147778
962.738	0.0147649
962.816	0.0146672
962.894	0.0145482
962.972	0.0145708
963.050	0.0146583
963.128	0.0146487
963.206	0.0145264
963.285	0.0145746
963.363	0.0145643
963.441	0.0144931
963.519	0.0145762
963.597	0.0144205
963.675	0.0145107
963.753	0.0144871
963.831	0.0144700
963.910	0.0145082
963.988	0.0144655
964.066	0.0144164
964.144	0.0144406
964.222	0.0145285
964.300	0.0145603
964.378	0.0145347
964.456	0.0145519
964.535	0.0145073
964.613	0.0145705
964.691	0.0146631
964.769	0.0145038
964.847	0.0145982
964.925	0.0144932
965.003	0.0146670
965.081	0.0145710
965.160	0.0146624
965.238	0.0146865
965.316	0.0146787
965.394	0.0147187
965.472	0.0147312
965.550	0.0146674
965.628	0.0147926
965.706	0.0146543
965.785	0.0146107
965.863	0.0146831
965.941	0.0147093
966.019	0.0147451
966.097	0.0148301
966.175	0.0147363
966.253	0.0146532
966.331	0.0147918
966.410	0.0148476
966.488	0.0148463
966.566	0.0148814
966.644	0.0150265
966.722	0.0148782
966.800	0.0148459
966.878	0.0149010
966.956	0.0149277
967.035	0.0150404
967.113	0.0150581
967.191	0.0151086
967.269	0.0150887
967.347	0.0148719
967.425	0.0149002
967.503	0.0150169
967.581	0.0147825
967.660	0.0148769
967.738	0.0147478
967.816	0.0146802
967.894	0.0146056
967.972	0.0145731
968.050	0.0145126
968.128	0.0144888
968.206	0.0144873
968.285	0.0145015
968.363	0.0145040
968.441	0.0144478
968.519	0.0144112
968.597	0.0144866
968.675	0.0145732
968.753	0.0146209
968.831	0.0145732
968.910	0.0146186
968.988	0.0146964
969.066	0.0147123
969.144	0.0146851
969.222	0.0146930
969.300	0.0147665
969.378	0.0147813
969.456	0.0147745
969.535	0.0148016
969.613	0.0147771
969.691	0.0146406
969.769	0.0145433
969.847	0.0145856
969.925	0.0145685
970.003	0.0146058
970.081	0.0144907
970.160	0.0145430
970.238	0.0144095
970.316	0.0144064
970.394	0.0145255
970.472	0.0143404
970.550	0.0142641
970.628	0.0144205
970.706	0.0143783
970.785	0.0143562
970.863	0.0144058
970.941	0.0142706
971.019	0.0143869
971.097	0.0143682
971.175	0.0144082
971.253	0.0143861
971.331	0.0146025
971.410	0.0146142
971.488	0.0147092
971.566	0.0147838
971.644	0.0148250
971.722	0.0148739
971.800	0.0150175
971.878	0.0149274
971.956	0.0149258
972.035	0.0150331
972.113	0.0151617
972.191	0.0150234
972.269	0.0149941
972.347	0.0150148
972.425	0.0150159
972.503	0.0148973
972.581	0.0148432
972.660	0.0148980
972.738	0.0147427
972.816	0.0149148
972.894	0.0148940
972.972	0.0146819
973.050	0.0146251
973.128	0.0148451
973.206	0.0148496
973.285	0.0146320
973.363	0.0148152
973.441	0.0147221
973.519	0.0145687
973.597	0.0146436
973.675	0.0146659
973.753	0.0144733
973.831	0.0145573
973.910	0.0145227
973.988	0.0144636
974.066	0.0144718
974.144	0.0144194
974.222	0.0144858
974.300	0.0144548
974.378	0.0145590
974.456	0.0145618
974.535	0.0145168
974.613	0.0144167
974.691	0.0145435
974.769	0.0146499
974.847	0.0145079
974.925	0.0146118
975.003	0.0146700
975.081	0.0146959
975.160	0.0146708
975.238	0.0147023
975.316	0.0146774
975.394	0.0147073
975.472	0.0147500
975.550	0.0146926
975.628	0.0147051
975.706	0.0148363
975.785	0.0147046
975.863	0.0145550
975.941	0.0146481
976.019	0.0147293
976.097	0.0147938
976.175	0.0146117
976.253	0.0146201
976.331	0.0146152
976.410	0.0144784
976.488	0.0144555
976.566	0.0145899
976.644	0.0146451
976.722	0.0145545
976.800	0.0144881
976.878	0.0145531
976.956	0.0147735
977.035	0.0147570
977.113	0.0146736
977.191	0.0147405
977.269	0.0148994
977.347	0.0148058
977.425	0.0150211
977.503	0.0148937
977.581	0.0148695
977.660	0.0149847
977.738	0.0150788
977.816	0.0151104
977.894	0.0150552
977.972	0.0151112
978.050	0.0150156
978.128	0.0149601
978.206	0.0150166
978.285	0.0149571
978.363	0.0148255
978.441	0.0147131
978.519	0.0147037
978.597	0.0145732
978.675	0.0145051
978.753	0.0145855
978.831	0.0146825
978.910	0.0144093
978.988	0.0144096
979.066	0.0142893
979.144	0.0142165
979.222	0.0142278
979.300	0.0142862
979.378	0.0143475
979.456	0.0143798
979.535	0.0143631
979.613	0.0143822
979.691	0.0144994
979.769	0.0144463
979.847	0.0145858
979.925	0.0145007
