05/03/2022	20:32:02	Ver.	4.1	UNKNOWN
Optical Delay	660.003261	Delta X		0.078125	Sweeps	1	Scan Rate	0/0
Coordinates	Axis 1	NaN	Axis 2	NaN	Axis 3	NaN	Axis 4	NaN	Axis 5	NaN	Axis 6	0.000000
TX Power	0.000000	RX Power	0.000000

660.003	0.0148708
660.081	0.0148193
660.160	0.0149512
660.238	0.0148392
660.316	0.0150350
660.394	0.0149290
660.472	0.0147654
660.550	0.0147626
660.628	0.0147556
660.706	0.0149587
660.785	0.0148775
660.863	0.0147665
660.941	0.0148301
661.019	0.0150381
661.097	0.0149013
661.175	0.0147836
661.253	0.0148338
661.331	0.0148621
661.410	0.0148384
661.488	0.0147659
661.566	0.0147820
661.644	0.0148997
661.722	0.0149297
661.800	0.0148836
661.878	0.0148030
661.956	0.0148791
662.035	0.0149010
662.113	0.0149649
662.191	0.0148605
662.269	0.0149957
662.347	0.0148624
662.425	0.0147929
662.503	0.0148705
662.581	0.0149174
662.660	0.0149229
662.738	0.0149509
662.816	0.0149405
662.894	0.0148724
662.972	0.0150269
663.050	0.0148545
663.128	0.0149428
663.206	0.0148251
663.285	0.0148158
663.363	0.0148049
663.441	0.0149560
663.519	0.0149573
663.597	0.0148903
663.675	0.0148722
663.753	0.0148153
663.831	0.0149009
663.910	0.0149193
663.988	0.0148991
664.066	0.0150011
664.144	0.0150183
664.222	0.0148668
664.300	0.0149181
664.378	0.0148664
664.456	0.0146787
664.535	0.0148409
664.613	0.0148608
664.691	0.0148989
664.769	0.0148161
664.847	0.0147696
664.925	0.0148103
665.003	0.0147683
665.081	0.0147701
665.160	0.0147511
665.238	0.0149262
665.316	0.0148161
665.394	0.0149307
665.472	0.0149483
665.550	0.0148418
665.628	0.0148548
665.706	0.0149115
665.785	0.0149703
665.863	0.0149270
665.941	0.0148831
666.019	0.0148394
666.097	0.0149334
666.175	0.0149273
666.253	0.0148442
666.331	0.0148531
666.410	0.0148362
666.488	0.0147803
666.566	0.0149192
666.644	0.0149969
666.722	0.0148238
666.800	0.0149306
666.878	0.0148911
666.956	0.0149519
667.035	0.0150359
667.113	0.0148730
667.191	0.0148961
667.269	0.0148189
667.347	0.0148789
667.425	0.0149675
667.503	0.0150398
667.581	0.0148740
667.660	0.0149380
667.738	0.0148573
667.816	0.0148488
667.894	0.0149208
667.972	0.0149320
668.050	0.0149397
668.128	0.0148257
668.206	0.0148307
668.285	0.0149091
668.363	0.0150709
668.441	0.0149928
668.519	0.0150328
668.597	0.0149596
668.675	0.0147851
668.753	0.0149898
668.831	0.0150515
668.910	0.0149217
668.988	0.0148141
669.066	0.0150405
669.144	0.0149742
669.222	0.0148982
669.300	0.0150564
669.378	0.0150285
669.456	0.0149464
669.535	0.0150336
669.613	0.0149788
669.691	0.0149521
669.769	0.0149866
669.847	0.0149586
669.925	0.0151044
670.003	0.0150583
670.081	0.0149367
670.160	0.0149847
670.238	0.0150020
670.316	0.0149613
670.394	0.0149531
670.472	0.0149611
670.550	0.0148884
670.628	0.0150560
670.706	0.0150318
670.785	0.0148621
670.863	0.0149797
670.941	0.0148876
671.019	0.0149132
671.097	0.0150476
671.175	0.0151869
671.253	0.0149457
671.331	0.0149126
671.410	0.0150767
671.488	0.0149109
671.566	0.0150905
671.644	0.0151743
671.722	0.0150513
671.800	0.0149563
671.878	0.0149965
671.956	0.0150248
672.035	0.0149923
672.113	0.0150134
672.191	0.0149537
672.269	0.0149640
672.347	0.0149416
672.425	0.0149892
672.503	0.0151270
672.581	0.0149728
672.660	0.0149344
672.738	0.0148428
672.816	0.0149979
672.894	0.0149431
672.972	0.0150273
673.050	0.0150586
673.128	0.0150125
673.206	0.0150596
673.285	0.0149744
673.363	0.0148748
673.441	0.0149497
673.519	0.0149359
673.597	0.0149448
673.675	0.0148827
673.753	0.0148481
673.831	0.0148527
673.910	0.0149422
673.988	0.0148467
674.066	0.0149285
674.144	0.0149197
674.222	0.0149247
674.300	0.0147325
674.378	0.0149123
674.456	0.0149523
674.535	0.0149626
674.613	0.0149200
674.691	0.0149472
674.769	0.0149815
674.847	0.0148503
674.925	0.0147169
675.003	0.0150063
675.081	0.0149222
675.160	0.0148670
675.238	0.0150000
675.316	0.0149927
675.394	0.0148096
675.472	0.0148922
675.550	0.0149593
675.628	0.0148182
675.706	0.0149317
675.785	0.0150204
675.863	0.0149445
675.941	0.0149567
676.019	0.0148615
676.097	0.0149373
676.175	0.0149435
676.253	0.0149142
676.331	0.0147878
676.410	0.0149277
676.488	0.0148628
676.566	0.0148298
676.644	0.0148844
676.722	0.0149744
676.800	0.0147590
676.878	0.0149361
676.956	0.0147488
677.035	0.0148257
677.113	0.0148130
677.191	0.0149590
677.269	0.0148617
677.347	0.0149461
677.425	0.0147995
677.503	0.0150414
677.581	0.0149876
677.660	0.0149719
677.738	0.0149561
677.816	0.0150497
677.894	0.0148521
677.972	0.0149122
678.050	0.0150039
678.128	0.0148300
678.206	0.0149546
678.285	0.0149363
678.363	0.0148183
678.441	0.0148766
678.519	0.0149958
678.597	0.0147894
678.675	0.0149091
678.753	0.0150429
678.831	0.0150117
678.910	0.0148231
678.988	0.0149076
679.066	0.0150284
679.144	0.0149327
679.222	0.0149044
679.300	0.0148499
679.378	0.0150031
679.456	0.0148105
679.535	0.0149037
679.613	0.0148563
679.691	0.0148992
679.769	0.0149753
679.847	0.0148116
679.925	0.0148831
680.003	0.0149602
680.081	0.0149581
680.160	0.0148554
680.238	0.0149107
680.316	0.0149078
680.394	0.0149296
680.472	0.0147402
680.550	0.0148687
680.628	0.0149068
680.706	0.0149004
680.785	0.0148902
680.863	0.0149673
680.941	0.0148449
681.019	0.0149586
681.097	0.0148746
681.175	0.0149076
681.253	0.0150146
681.331	0.0149981
681.410	0.0148930
681.488	0.0149708
681.566	0.0148261
681.644	0.0149117
681.722	0.0148227
681.800	0.0148187
681.878	0.0147942
681.956	0.0149824
682.035	0.0148798
682.113	0.0148367
682.191	0.0148914
682.269	0.0148631
682.347	0.0148042
682.425	0.0148969
682.503	0.0148698
682.581	0.0149091
682.660	0.0148109
682.738	0.0149453
682.816	0.0148593
682.894	0.0148272
682.972	0.0149166
683.050	0.0148578
683.128	0.0149267
683.206	0.0150375
683.285	0.0149622
683.363	0.0149327
683.441	0.0150395
683.519	0.0149711
683.597	0.0149336
683.675	0.0149638
683.753	0.0148887
683.831	0.0148334
683.910	0.0150693
683.988	0.0150230
684.066	0.0147930
684.144	0.0149482
684.222	0.0149856
684.300	0.0149084
684.378	0.0149501
684.456	0.0148698
684.535	0.0149319
684.613	0.0149466
684.691	0.0150508
684.769	0.0149522
684.847	0.0151509
684.925	0.0148724
685.003	0.0148650
685.081	0.0151073
685.160	0.0150812
685.238	0.0148691
685.316	0.0149168
685.394	0.0150479
685.472	0.0149712
685.550	0.0147559
685.628	0.0148629
685.706	0.0149794
685.785	0.0149077
685.863	0.0149509
685.941	0.0149891
686.019	0.0149789
686.097	0.0149096
686.175	0.0148969
686.253	0.0148379
686.331	0.0148649
686.410	0.0148535
686.488	0.0148368
686.566	0.0149121
686.644	0.0149340
686.722	0.0149042
686.800	0.0148087
686.878	0.0148052
686.956	0.0149220
687.035	0.0149480
687.113	0.0149313
687.191	0.0150684
687.269	0.0149697
687.347	0.0149748
687.425	0.0150269
687.503	0.0149944
687.581	0.0150214
687.660	0.0150421
687.738	0.0150043
687.816	0.0152467
687.894	0.0150915
687.972	0.0149004
688.050	0.0150088
688.128	0.0150173
688.206	0.0149498
688.285	0.0149911
688.363	0.0150139
688.441	0.0148107
688.519	0.0148133
688.597	0.0148050
688.675	0.0147976
688.753	0.0147947
688.831	0.0147616
688.910	0.0147621
688.988	0.0147491
689.066	0.0147766
689.144	0.0147453
689.222	0.0147647
689.300	0.0147134
689.378	0.0148137
689.456	0.0148795
689.535	0.0147994
689.613	0.0150472
689.691	0.0148777
689.769	0.0149826
689.847	0.0149531
689.925	0.0148795
690.003	0.0151510
690.081	0.0150579
690.160	0.0150201
690.238	0.0151513
690.316	0.0150924
690.394	0.0151926
690.472	0.0151424
690.550	0.0150854
690.628	0.0151299
690.706	0.0151601
690.785	0.0150314
690.863	0.0152398
690.941	0.0150524
691.019	0.0150440
691.097	0.0149778
691.175	0.0148602
691.253	0.0148882
691.331	0.0146585
691.410	0.0147758
691.488	0.0148006
691.566	0.0148093
691.644	0.0146577
691.722	0.0146826
691.800	0.0148327
691.878	0.0147617
691.956	0.0147252
692.035	0.0147517
692.113	0.0148561
692.191	0.0147684
692.269	0.0147471
692.347	0.0147879
692.425	0.0147688
692.503	0.0147675
692.581	0.0146555
692.660	0.0147627
692.738	0.0147169
692.816	0.0148447
692.894	0.0147545
692.972	0.0148239
693.050	0.0147306
693.128	0.0149258
693.206	0.0148158
693.285	0.0147711
693.363	0.0147901
693.441	0.0149009
693.519	0.0149323
693.597	0.0149265
693.675	0.0149474
693.753	0.0150197
693.831	0.0149812
693.910	0.0152125
693.988	0.0152346
694.066	0.0152396
694.144	0.0153164
694.222	0.0152983
694.300	0.0153589
694.378	0.0154854
694.456	0.0152780
694.535	0.0153990
694.613	0.0153849
694.691	0.0154256
694.769	0.0153166
694.847	0.0153212
694.925	0.0153115
695.003	0.0151920
695.081	0.0150478
695.160	0.0147887
695.238	0.0148077
695.316	0.0147723
695.394	0.0147572
695.472	0.0145380
695.550	0.0145176
695.628	0.0144043
695.706	0.0142432
695.785	0.0142142
695.863	0.0142686
695.941	0.0143170
696.019	0.0143461
696.097	0.0144345
696.175	0.0145198
696.253	0.0144093
696.331	0.0144927
696.410	0.0146494
696.488	0.0147377
696.566	0.0147710
696.644	0.0148956
696.722	0.0147968
696.800	0.0148943
696.878	0.0151477
696.956	0.0151048
697.035	0.0151447
697.113	0.0151034
697.191	0.0151543
697.269	0.0151076
697.347	0.0149462
697.425	0.0150003
697.503	0.0149922
697.581	0.0149408
697.660	0.0149708
697.738	0.0148306
697.816	0.0149200
697.894	0.0149839
697.972	0.0150307
698.050	0.0149406
698.128	0.0148804
698.206	0.0151022
698.285	0.0151078
698.363	0.0150060
698.441	0.0149121
698.519	0.0151021
698.597	0.0150185
698.675	0.0150950
698.753	0.0150845
698.831	0.0151260
698.910	0.0150642
698.988	0.0151660
699.066	0.0150565
699.144	0.0151184
699.222	0.0151219
699.300	0.0151598
699.378	0.0151275
699.456	0.0151624
699.535	0.0150949
699.613	0.0150881
699.691	0.0151231
699.769	0.0150391
699.847	0.0150643
699.925	0.0151041
700.003	0.0149575
700.081	0.0148101
700.160	0.0146696
700.238	0.0146911
700.316	0.0143822
700.394	0.0145194
700.472	0.0142947
700.550	0.0143510
700.628	0.0143307
700.706	0.0144524
700.785	0.0144151
700.863	0.0144469
700.941	0.0144762
701.019	0.0145807
701.097	0.0147583
701.175	0.0147427
701.253	0.0147846
701.331	0.0149454
701.410	0.0150529
701.488	0.0149335
701.566	0.0150429
701.644	0.0150797
701.722	0.0151014
701.800	0.0153503
701.878	0.0154066
701.956	0.0154401
702.035	0.0155088
702.113	0.0154674
702.191	0.0154653
702.269	0.0154960
702.347	0.0152615
702.425	0.0152089
702.503	0.0149918
702.581	0.0149017
702.660	0.0146414
702.738	0.0146059
702.816	0.0146389
702.894	0.0146730
702.972	0.0146803
703.050	0.0148082
703.128	0.0147105
703.206	0.0146773
703.285	0.0149355
703.363	0.0149403
703.441	0.0150946
703.519	0.0151508
703.597	0.0151539
703.675	0.0151971
703.753	0.0152137
703.831	0.0152879
703.910	0.0153424
703.988	0.0152350
704.066	0.0154063
704.144	0.0154494
704.222	0.0153622
704.300	0.0153774
704.378	0.0153159
704.456	0.0150555
704.535	0.0152146
704.613	0.0151788
704.691	0.0150559
704.769	0.0151076
704.847	0.0150191
704.925	0.0150806
705.003	0.0150101
705.081	0.0149037
705.160	0.0150001
705.238	0.0150294
705.316	0.0149550
705.394	0.0149873
705.472	0.0150206
705.550	0.0149053
705.628	0.0149365
705.706	0.0148067
705.785	0.0147678
705.863	0.0146272
705.941	0.0145269
706.019	0.0145515
706.097	0.0145328
706.175	0.0144141
706.253	0.0143515
706.331	0.0142197
706.410	0.0142676
706.488	0.0142144
706.566	0.0143762
706.644	0.0144534
706.722	0.0142443
706.800	0.0144140
706.878	0.0144650
706.956	0.0144624
707.035	0.0146525
707.113	0.0147520
707.191	0.0149883
707.269	0.0150029
707.347	0.0151604
707.425	0.0152060
707.503	0.0153432
707.581	0.0154696
707.660	0.0155719
707.738	0.0154206
707.816	0.0153905
707.894	0.0154382
707.972	0.0151998
708.050	0.0151040
708.128	0.0150407
708.206	0.0149773
708.285	0.0149255
708.363	0.0147092
708.441	0.0145947
708.519	0.0147073
708.597	0.0145953
708.675	0.0146325
708.753	0.0146912
708.831	0.0145775
708.910	0.0146497
708.988	0.0148476
709.066	0.0149723
709.144	0.0151389
709.222	0.0152960
709.300	0.0154041
709.378	0.0154150
709.456	0.0155471
709.535	0.0155813
709.613	0.0157286
709.691	0.0157027
709.769	0.0158498
709.847	0.0156107
709.925	0.0155615
710.003	0.0154983
710.081	0.0153286
710.160	0.0151086
710.238	0.0151289
710.316	0.0150075
710.394	0.0149280
710.472	0.0148415
710.550	0.0148266
710.628	0.0147923
710.706	0.0147424
710.785	0.0149162
710.863	0.0148576
710.941	0.0148232
711.019	0.0149419
711.097	0.0149037
711.175	0.0148367
711.253	0.0149706
711.331	0.0148583
711.410	0.0147324
711.488	0.0146407
711.566	0.0146326
711.644	0.0146291
711.722	0.0142663
711.800	0.0143286
711.878	0.0140178
711.956	0.0140830
712.035	0.0139720
712.113	0.0139779
712.191	0.0139313
712.269	0.0138945
712.347	0.0140611
712.425	0.0142623
712.503	0.0143572
712.581	0.0143341
712.660	0.0145686
712.738	0.0147748
712.816	0.0148645
712.894	0.0150196
712.972	0.0150401
713.050	0.0151494
713.128	0.0152317
713.206	0.0152612
713.285	0.0151871
713.363	0.0153747
713.441	0.0152171
713.519	0.0152370
713.597	0.0151064
713.675	0.0151796
713.753	0.0149671
713.831	0.0149320
713.910	0.0149952
713.988	0.0147835
714.066	0.0146947
714.144	0.0147906
714.222	0.0147482
714.300	0.0148477
714.378	0.0147590
714.456	0.0147976
714.535	0.0147904
714.613	0.0148930
714.691	0.0151364
714.769	0.0151653
714.847	0.0152186
714.925	0.0153509
715.003	0.0152233
715.081	0.0153439
715.160	0.0156236
715.238	0.0156387
715.316	0.0157469
715.394	0.0156836
715.472	0.0156466
715.550	0.0157175
715.628	0.0156071
715.706	0.0155378
715.785	0.0154027
715.863	0.0152174
715.941	0.0152725
716.019	0.0151411
716.097	0.0150217
716.175	0.0149063
716.253	0.0147852
716.331	0.0147607
716.410	0.0146307
716.488	0.0147100
716.566	0.0146973
716.644	0.0147835
716.722	0.0146731
716.800	0.0147161
716.878	0.0147922
716.956	0.0148878
717.035	0.0148446
717.113	0.0148911
717.191	0.0148874
717.269	0.0147458
717.347	0.0146086
717.425	0.0146566
717.503	0.0144577
717.581	0.0142204
717.660	0.0141508
717.738	0.0141487
717.816	0.0139494
717.894	0.0141048
717.972	0.0139276
718.050	0.0140201
718.128	0.0141205
718.206	0.0141509
718.285	0.0141477
718.363	0.0143517
718.441	0.0144072
718.519	0.0146008
718.597	0.0148420
718.675	0.0148683
718.753	0.0150620
718.831	0.0151319
718.910	0.0150400
718.988	0.0151147
719.066	0.0151566
719.144	0.0150926
719.222	0.0150814
719.300	0.0150486
719.378	0.0148238
719.456	0.0147653
719.535	0.0147215
719.613	0.0148351
719.691	0.0147452
719.769	0.0149062
719.847	0.0147018
719.925	0.0149002
720.003	0.0149311
720.081	0.0150301
720.160	0.0150294
720.238	0.0151665
720.316	0.0153587
720.394	0.0152785
720.472	0.0153958
720.550	0.0155899
720.628	0.0154912
720.706	0.0155127
720.785	0.0155598
720.863	0.0155858
720.941	0.0155316
721.019	0.0156076
721.097	0.0155638
721.175	0.0153931
721.253	0.0154591
721.331	0.0156113
721.410	0.0156066
721.488	0.0155956
721.566	0.0155023
721.644	0.0155265
721.722	0.0154140
721.800	0.0154942
721.878	0.0152539
721.956	0.0153351
722.035	0.0152428
722.113	0.0152827
722.191	0.0151714
722.269	0.0151977
722.347	0.0148945
722.425	0.0148451
722.503	0.0147167
722.581	0.0148074
722.660	0.0147095
722.738	0.0146358
722.816	0.0147144
722.894	0.0144829
722.972	0.0145521
723.050	0.0145853
723.128	0.0145444
723.206	0.0145576
723.285	0.0144702
723.363	0.0144891
723.441	0.0143658
723.519	0.0143234
723.597	0.0143542
723.675	0.0142032
723.753	0.0141659
723.831	0.0142777
723.910	0.0142566
723.988	0.0140735
724.066	0.0144086
724.144	0.0144882
724.222	0.0143398
724.300	0.0145556
724.378	0.0145845
724.456	0.0144761
724.535	0.0146030
724.613	0.0148134
724.691	0.0148813
724.769	0.0149657
724.847	0.0149315
724.925	0.0149815
725.003	0.0150130
725.081	0.0149458
725.160	0.0149895
725.238	0.0148869
725.316	0.0149743
725.394	0.0150011
725.472	0.0149828
725.550	0.0149754
725.628	0.0150117
725.706	0.0151172
725.785	0.0150160
725.863	0.0151604
725.941	0.0152876
726.019	0.0153888
726.097	0.0152815
726.175	0.0153957
726.253	0.0154778
726.331	0.0155718
726.410	0.0156172
726.488	0.0157949
726.566	0.0158337
726.644	0.0157910
726.722	0.0157721
726.800	0.0157651
726.878	0.0156815
726.956	0.0156981
727.035	0.0157279
727.113	0.0156421
727.191	0.0156355
727.269	0.0155997
727.347	0.0155647
727.425	0.0155206
727.503	0.0155078
727.581	0.0153542
727.660	0.0153916
727.738	0.0152439
727.816	0.0153163
727.894	0.0154042
727.972	0.0152025
728.050	0.0152757
728.128	0.0151053
728.206	0.0149553
728.285	0.0151259
728.363	0.0150742
728.441	0.0149371
728.519	0.0149484
728.597	0.0146581
728.675	0.0145630
728.753	0.0146491
728.831	0.0145029
728.910	0.0144984
728.988	0.0142099
729.066	0.0139863
729.144	0.0139605
729.222	0.0140112
729.300	0.0139346
729.378	0.0138174
729.456	0.0138232
729.535	0.0139012
729.613	0.0140889
729.691	0.0140176
729.769	0.0140996
729.847	0.0141808
729.925	0.0142389
730.003	0.0144834
730.081	0.0144571
730.160	0.0144805
730.238	0.0145159
730.316	0.0147111
730.394	0.0147173
730.472	0.0146236
730.550	0.0147022
730.628	0.0148344
730.706	0.0148074
730.785	0.0148196
730.863	0.0148409
730.941	0.0147961
731.019	0.0148827
731.097	0.0148874
731.175	0.0148209
731.253	0.0147369
731.331	0.0147850
731.410	0.0147777
731.488	0.0149303
731.566	0.0149777
731.644	0.0148846
731.722	0.0150208
731.800	0.0148928
731.878	0.0151042
731.956	0.0149944
732.035	0.0152768
732.113	0.0151672
732.191	0.0152094
732.269	0.0154887
732.347	0.0154970
732.425	0.0154929
732.503	0.0156382
732.581	0.0157460
732.660	0.0157346
732.738	0.0156849
732.816	0.0155723
732.894	0.0155565
732.972	0.0155090
733.050	0.0155984
733.128	0.0154885
733.206	0.0152775
733.285	0.0152761
733.363	0.0152218
733.441	0.0152541
733.519	0.0152789
733.597	0.0151381
733.675	0.0149661
733.753	0.0150325
733.831	0.0150438
733.910	0.0150246
733.988	0.0149316
734.066	0.0148946
734.144	0.0149747
734.222	0.0148381
734.300	0.0150117
734.378	0.0148859
734.456	0.0148099
734.535	0.0147671
734.613	0.0147117
734.691	0.0147181
734.769	0.0146008
734.847	0.0143961
734.925	0.0144080
735.003	0.0143616
735.081	0.0141674
735.160	0.0141389
735.238	0.0140499
735.316	0.0139930
735.394	0.0139647
735.472	0.0139345
735.550	0.0139922
735.628	0.0140428
735.706	0.0139857
735.785	0.0140467
735.863	0.0141577
735.941	0.0143220
736.019	0.0141902
736.097	0.0144833
736.175	0.0146058
736.253	0.0145607
736.331	0.0145957
736.410	0.0146838
736.488	0.0148349
736.566	0.0147932
736.644	0.0147791
736.722	0.0149324
736.800	0.0148510
736.878	0.0150431
736.956	0.0150401
737.035	0.0149246
737.113	0.0149864
737.191	0.0150433
737.269	0.0150862
737.347	0.0150565
737.425	0.0150225
737.503	0.0150397
737.581	0.0151405
737.660	0.0150250
737.738	0.0150267
737.816	0.0152097
737.894	0.0151847
737.972	0.0153583
738.050	0.0155723
738.128	0.0154543
738.206	0.0154568
738.285	0.0154863
738.363	0.0154940
738.441	0.0155868
738.519	0.0156071
738.597	0.0156214
738.675	0.0156651
738.753	0.0156169
738.831	0.0157167
738.910	0.0157041
738.988	0.0155651
739.066	0.0154505
739.144	0.0155249
739.222	0.0154145
739.300	0.0151527
739.378	0.0150834
739.456	0.0150111
739.535	0.0150706
739.613	0.0149277
739.691	0.0149631
739.769	0.0148550
739.847	0.0150211
739.925	0.0150526
740.003	0.0148000
740.081	0.0149911
740.160	0.0149677
740.238	0.0149438
740.316	0.0149428
740.394	0.0149479
740.472	0.0149471
740.550	0.0147957
740.628	0.0148420
740.706	0.0146940
740.785	0.0147511
740.863	0.0147135
740.941	0.0146017
741.019	0.0143608
741.097	0.0143818
741.175	0.0142785
741.253	0.0141935
741.331	0.0139326
741.410	0.0140514
741.488	0.0142044
741.566	0.0140752
741.644	0.0140272
741.722	0.0141924
741.800	0.0141443
741.878	0.0141941
741.956	0.0140423
742.035	0.0141296
742.113	0.0143353
742.191	0.0141776
742.269	0.0144563
742.347	0.0144600
742.425	0.0144080
742.503	0.0145426
742.581	0.0146857
742.660	0.0146631
742.738	0.0148041
742.816	0.0147565
742.894	0.0147968
742.972	0.0148019
743.050	0.0148736
743.128	0.0147852
743.206	0.0148933
743.285	0.0149128
743.363	0.0149001
743.441	0.0150561
743.519	0.0149384
743.597	0.0148555
743.675	0.0150036
743.753	0.0151707
743.831	0.0151435
743.910	0.0151494
743.988	0.0152483
744.066	0.0153250
744.144	0.0155037
744.222	0.0155461
744.300	0.0157003
744.378	0.0157304
744.456	0.0157481
744.535	0.0158327
744.613	0.0158615
744.691	0.0159747
744.769	0.0158662
744.847	0.0157545
744.925	0.0157063
745.003	0.0156263
745.081	0.0155301
745.160	0.0154204
745.238	0.0153204
745.316	0.0151849
745.394	0.0151857
745.472	0.0153440
745.550	0.0150100
745.628	0.0150095
745.706	0.0150563
745.785	0.0150161
745.863	0.0151064
745.941	0.0151553
746.019	0.0151678
746.097	0.0149118
746.175	0.0150738
746.253	0.0150238
746.331	0.0150014
746.410	0.0150494
746.488	0.0149487
746.566	0.0149185
746.644	0.0147771
746.722	0.0148387
746.800	0.0146313
746.878	0.0145399
746.956	0.0145426
747.035	0.0144199
747.113	0.0142484
747.191	0.0142800
747.269	0.0142744
747.347	0.0142447
747.425	0.0142361
747.503	0.0142321
747.581	0.0142055
747.660	0.0141601
747.738	0.0143074
747.816	0.0142802
747.894	0.0142872
747.972	0.0143639
748.050	0.0142751
748.128	0.0143346
748.206	0.0144418
748.285	0.0144110
748.363	0.0142852
748.441	0.0146121
748.519	0.0144225
748.597	0.0145705
748.675	0.0145688
748.753	0.0146967
748.831	0.0147559
748.910	0.0147117
748.988	0.0147929
749.066	0.0147371
749.144	0.0148895
749.222	0.0149651
749.300	0.0149541
749.378	0.0149854
749.456	0.0149149
749.535	0.0150407
749.613	0.0150549
749.691	0.0151529
749.769	0.0152289
749.847	0.0154659
749.925	0.0153698
750.003	0.0153964
750.081	0.0155392
750.160	0.0157022
750.238	0.0158443
750.316	0.0156116
750.394	0.0159479
750.472	0.0159377
750.550	0.0160181
750.628	0.0159965
750.706	0.0160134
750.785	0.0160243
750.863	0.0159155
750.941	0.0159117
751.019	0.0157534
751.097	0.0157887
751.175	0.0155933
751.253	0.0154493
751.331	0.0155263
751.410	0.0152929
751.488	0.0151807
751.566	0.0151182
751.644	0.0150493
751.722	0.0150451
751.800	0.0148100
751.878	0.0148256
751.956	0.0148662
752.035	0.0149120
752.113	0.0149740
752.191	0.0149979
752.269	0.0148904
752.347	0.0147900
752.425	0.0146464
752.503	0.0148422
752.581	0.0147031
752.660	0.0145755
752.738	0.0145410
752.816	0.0146180
752.894	0.0143204
752.972	0.0145662
753.050	0.0142407
753.128	0.0141088
753.206	0.0141559
753.285	0.0142095
753.363	0.0142175
753.441	0.0140376
753.519	0.0140711
753.597	0.0138867
753.675	0.0139057
753.753	0.0139590
753.831	0.0138734
753.910	0.0139050
753.988	0.0140599
754.066	0.0139542
754.144	0.0138586
754.222	0.0138712
754.300	0.0139763
754.378	0.0138993
754.456	0.0140321
754.535	0.0140457
754.613	0.0140657
754.691	0.0141996
754.769	0.0143208
754.847	0.0144651
754.925	0.0143983
755.003	0.0145715
755.081	0.0147002
755.160	0.0147722
755.238	0.0149143
755.316	0.0148759
755.394	0.0148888
755.472	0.0150079
755.550	0.0152814
755.628	0.0150473
755.706	0.0151214
755.785	0.0151331
755.863	0.0152900
755.941	0.0152238
756.019	0.0151766
756.097	0.0154713
756.175	0.0155647
756.253	0.0155199
756.331	0.0154762
756.410	0.0156316
756.488	0.0157099
756.566	0.0158307
756.644	0.0158251
756.722	0.0157420
756.800	0.0159320
756.878	0.0160519
756.956	0.0161565
757.035	0.0160672
757.113	0.0160000
757.191	0.0161111
757.269	0.0159499
757.347	0.0159630
757.425	0.0159461
757.503	0.0157098
757.581	0.0157744
757.660	0.0154704
757.738	0.0154399
757.816	0.0154296
757.894	0.0153652
757.972	0.0154134
758.050	0.0151767
758.128	0.0150324
758.206	0.0150392
758.285	0.0151715
758.363	0.0151276
758.441	0.0150023
758.519	0.0149888
758.597	0.0148227
758.675	0.0147610
758.753	0.0147920
758.831	0.0148163
758.910	0.0146943
758.988	0.0145452
759.066	0.0145182
759.144	0.0144453
759.222	0.0144054
759.300	0.0144056
759.378	0.0141863
759.456	0.0143328
759.535	0.0141586
759.613	0.0140862
759.691	0.0139793
759.769	0.0140231
759.847	0.0138751
759.925	0.0137342
760.003	0.0138988
760.081	0.0137878
760.160	0.0138133
760.238	0.0136240
760.316	0.0137935
760.394	0.0137234
760.472	0.0136675
760.550	0.0137192
760.628	0.0137144
760.706	0.0137921
760.785	0.0138627
760.863	0.0139145
760.941	0.0140533
761.019	0.0141536
761.097	0.0141400
761.175	0.0143105
761.253	0.0144649
761.331	0.0145059
761.410	0.0147024
761.488	0.0148956
761.566	0.0149198
761.644	0.0149870
761.722	0.0150484
761.800	0.0152466
761.878	0.0151493
761.956	0.0152700
762.035	0.0154714
762.113	0.0153069
762.191	0.0153678
762.269	0.0156689
762.347	0.0156375
762.425	0.0156886
762.503	0.0157295
762.581	0.0158099
762.660	0.0158197
762.738	0.0158624
762.816	0.0159327
762.894	0.0160294
762.972	0.0160170
763.050	0.0158787
763.128	0.0160617
763.206	0.0162125
763.285	0.0162202
763.363	0.0162785
763.441	0.0163070
763.519	0.0161490
763.597	0.0161185
763.675	0.0159419
763.753	0.0160674
763.831	0.0158894
763.910	0.0157239
763.988	0.0155976
764.066	0.0154748
764.144	0.0153671
764.222	0.0153596
764.300	0.0152241
764.378	0.0152243
764.456	0.0150507
764.535	0.0148985
764.613	0.0148025
764.691	0.0149058
764.769	0.0147124
764.847	0.0146016
764.925	0.0145562
765.003	0.0144352
765.081	0.0144828
765.160	0.0144905
765.238	0.0144895
765.316	0.0146372
765.394	0.0144498
765.472	0.0143361
765.550	0.0143423
765.628	0.0143600
765.706	0.0142924
765.785	0.0142722
765.863	0.0139281
765.941	0.0141492
766.019	0.0140498
766.097	0.0138854
766.175	0.0136936
766.253	0.0137754
766.331	0.0136089
766.410	0.0136122
766.488	0.0136670
766.566	0.0136427
766.644	0.0135965
766.722	0.0137460
766.800	0.0136816
766.878	0.0137637
766.956	0.0138819
767.035	0.0138099
767.113	0.0139323
767.191	0.0140284
767.269	0.0140749
767.347	0.0141821
767.425	0.0141879
767.503	0.0144854
767.581	0.0145983
767.660	0.0146465
767.738	0.0146856
767.816	0.0148174
767.894	0.0151126
767.972	0.0150457
768.050	0.0151033
768.128	0.0150779
768.206	0.0151296
768.285	0.0152898
768.363	0.0152466
768.441	0.0152594
768.519	0.0154884
768.597	0.0153616
768.675	0.0154607
768.753	0.0156038
768.831	0.0156704
768.910	0.0157722
768.988	0.0159872
769.066	0.0159406
769.144	0.0159562
769.222	0.0161485
769.300	0.0161931
769.378	0.0162632
769.456	0.0162529
769.535	0.0162308
769.613	0.0162773
769.691	0.0163355
769.769	0.0164279
769.847	0.0164526
769.925	0.0161411
770.003	0.0161859
770.081	0.0161943
770.160	0.0160046
770.238	0.0159219
770.316	0.0159118
770.394	0.0158781
770.472	0.0156435
770.550	0.0155869
770.628	0.0155521
770.706	0.0153419
770.785	0.0152509
770.863	0.0150961
770.941	0.0150203
771.019	0.0149357
771.097	0.0148106
771.175	0.0148336
771.253	0.0146214
771.331	0.0146398
771.410	0.0147459
771.488	0.0145282
771.566	0.0143806
771.644	0.0144180
771.722	0.0142393
771.800	0.0143333
771.878	0.0142667
771.956	0.0141353
772.035	0.0140595
772.113	0.0139939
772.191	0.0139168
772.269	0.0137810
772.347	0.0137278
772.425	0.0136228
772.503	0.0136459
772.581	0.0136790
772.660	0.0134912
772.738	0.0134998
772.816	0.0135431
772.894	0.0135120
772.972	0.0135747
773.050	0.0137249
773.128	0.0137579
773.206	0.0137855
773.285	0.0138202
773.363	0.0138497
773.441	0.0138714
773.519	0.0139417
773.597	0.0142040
773.675	0.0142319
773.753	0.0143329
773.831	0.0143562
773.910	0.0143384
773.988	0.0143701
774.066	0.0145770
774.144	0.0146494
774.222	0.0147064
774.300	0.0148118
774.378	0.0150542
774.456	0.0149712
774.535	0.0149969
774.613	0.0151512
774.691	0.0151259
774.769	0.0151649
774.847	0.0152373
774.925	0.0154088
775.003	0.0153899
775.081	0.0153948
775.160	0.0156830
775.238	0.0157581
775.316	0.0157406
775.394	0.0159173
775.472	0.0159422
775.550	0.0159949
775.628	0.0161391
775.706	0.0161606
775.785	0.0162643
775.863	0.0163236
775.941	0.0162193
776.019	0.0163418
776.097	0.0163853
776.175	0.0163978
776.253	0.0164126
776.331	0.0162716
776.410	0.0162267
776.488	0.0161044
776.566	0.0162782
776.644	0.0163230
776.722	0.0161695
776.800	0.0158718
776.878	0.0158821
776.956	0.0158216
777.035	0.0154967
777.113	0.0154063
777.191	0.0154830
777.269	0.0152193
777.347	0.0150912
777.425	0.0150697
777.503	0.0148237
777.581	0.0146062
777.660	0.0145788
777.738	0.0145960
777.816	0.0143735
777.894	0.0143966
777.972	0.0142482
778.050	0.0142488
778.128	0.0142206
778.206	0.0141763
778.285	0.0141389
778.363	0.0143404
778.441	0.0140989
778.519	0.0139944
778.597	0.0141045
778.675	0.0139554
778.753	0.0138386
778.831	0.0137682
778.910	0.0138283
778.988	0.0138026
779.066	0.0138123
779.144	0.0137457
779.222	0.0137476
779.300	0.0137397
779.378	0.0137436
779.456	0.0138657
779.535	0.0138735
779.613	0.0138717
779.691	0.0140153
779.769	0.0140395
779.847	0.0141691
779.925	0.0142596
780.003	0.0141602
780.081	0.0141346
780.160	0.0142979
780.238	0.0144967
780.316	0.0146189
780.394	0.0146004
780.472	0.0147572
780.550	0.0148074
780.628	0.0147995
780.706	0.0148341
780.785	0.0150382
780.863	0.0150652
780.941	0.0151742
781.019	0.0153325
781.097	0.0153122
781.175	0.0153598
781.253	0.0153744
781.331	0.0154160
781.410	0.0154961
781.488	0.0154649
781.566	0.0154153
781.644	0.0156116
781.722	0.0156973
781.800	0.0157570
781.878	0.0156302
781.956	0.0157426
782.035	0.0157333
782.113	0.0159467
782.191	0.0159422
782.269	0.0160808
782.347	0.0159881
782.425	0.0159344
782.503	0.0159767
782.581	0.0160464
782.660	0.0160215
782.738	0.0160608
782.816	0.0161369
782.894	0.0160840
782.972	0.0161615
783.050	0.0159000
783.128	0.0158190
783.206	0.0158297
783.285	0.0159116
783.363	0.0156937
783.441	0.0156114
783.519	0.0154041
783.597	0.0153618
783.675	0.0152811
783.753	0.0150809
783.831	0.0151197
783.910	0.0150156
783.988	0.0147444
784.066	0.0145742
784.144	0.0147182
784.222	0.0144413
784.300	0.0145292
784.378	0.0142964
784.456	0.0141127
784.535	0.0144379
784.613	0.0141383
784.691	0.0141405
784.769	0.0142426
784.847	0.0141646
784.925	0.0141048
785.003	0.0141134
785.081	0.0141601
785.160	0.0140098
785.238	0.0140681
785.316	0.0140037
785.394	0.0139842
785.472	0.0138344
785.550	0.0138773
785.628	0.0138011
785.706	0.0139016
785.785	0.0137930
785.863	0.0137894
785.941	0.0139305
786.019	0.0138374
786.097	0.0139508
786.175	0.0140644
786.253	0.0141320
786.331	0.0141283
786.410	0.0141849
786.488	0.0142195
786.566	0.0143549
786.644	0.0144405
786.722	0.0144295
786.800	0.0144402
786.878	0.0145723
786.956	0.0146536
787.035	0.0145697
787.113	0.0147401
787.191	0.0148336
787.269	0.0145784
787.347	0.0147611
787.425	0.0148380
787.503	0.0148344
787.581	0.0148504
787.660	0.0149332
787.738	0.0148793
787.816	0.0150065
787.894	0.0148666
787.972	0.0151484
788.050	0.0152003
788.128	0.0151566
788.206	0.0152644
788.285	0.0152610
788.363	0.0154489
788.441	0.0153503
788.519	0.0154971
788.597	0.0156613
788.675	0.0155521
788.753	0.0155611
788.831	0.0156577
788.910	0.0157645
788.988	0.0157495
789.066	0.0158352
789.144	0.0158426
789.222	0.0157706
789.300	0.0157473
789.378	0.0158013
789.456	0.0157867
789.535	0.0157088
789.613	0.0156804
789.691	0.0155438
789.769	0.0155900
789.847	0.0157051
789.925	0.0156424
790.003	0.0157478
790.081	0.0155087
790.160	0.0155443
790.238	0.0154002
790.316	0.0152626
790.394	0.0151846
790.472	0.0151386
790.550	0.0150275
790.628	0.0150498
790.706	0.0149029
790.785	0.0149706
790.863	0.0148134
790.941	0.0147166
791.019	0.0145939
791.097	0.0146028
791.175	0.0144826
791.253	0.0146099
791.331	0.0144090
791.410	0.0144499
791.488	0.0144137
791.566	0.0144427
791.644	0.0142796
791.722	0.0140955
791.800	0.0141670
791.878	0.0142769
791.956	0.0141933
792.035	0.0140560
792.113	0.0139801
792.191	0.0139984
792.269	0.0140620
792.347	0.0138007
792.425	0.0138436
792.503	0.0138479
792.581	0.0139365
792.660	0.0139563
792.738	0.0140157
792.816	0.0139262
792.894	0.0141481
792.972	0.0140701
793.050	0.0141910
793.128	0.0143134
793.206	0.0142966
793.285	0.0140347
793.363	0.0143456
793.441	0.0143947
793.519	0.0144585
793.597	0.0143990
793.675	0.0144611
793.753	0.0145029
793.831	0.0146626
793.910	0.0146466
793.988	0.0145414
794.066	0.0147338
794.144	0.0148510
794.222	0.0147249
794.300	0.0148726
794.378	0.0150386
794.456	0.0150667
794.535	0.0150070
794.613	0.0153233
794.691	0.0153877
794.769	0.0152814
794.847	0.0154730
794.925	0.0154150
795.003	0.0155422
795.081	0.0156511
795.160	0.0155911
795.238	0.0156186
795.316	0.0157880
795.394	0.0157684
795.472	0.0158329
795.550	0.0158540
795.628	0.0157877
795.706	0.0157732
795.785	0.0158668
795.863	0.0158120
795.941	0.0158023
796.019	0.0158590
796.097	0.0157755
796.175	0.0157893
796.253	0.0156803
796.331	0.0155064
796.410	0.0156031
796.488	0.0155014
796.566	0.0154177
796.644	0.0154436
796.722	0.0154059
796.800	0.0153754
796.878	0.0153844
796.956	0.0152098
797.035	0.0151908
797.113	0.0153249
797.191	0.0149905
797.269	0.0149432
797.347	0.0149907
797.425	0.0147810
797.503	0.0147180
797.581	0.0146831
797.660	0.0147061
797.738	0.0146517
797.816	0.0145914
797.894	0.0145816
797.972	0.0145205
798.050	0.0145325
798.128	0.0144231
798.206	0.0144010
798.285	0.0145111
798.363	0.0143869
798.441	0.0142344
798.519	0.0143345
798.597	0.0142111
798.675	0.0142004
798.753	0.0140229
798.831	0.0138844
798.910	0.0141043
798.988	0.0141427
799.066	0.0139421
799.144	0.0140948
799.222	0.0141696
799.300	0.0140401
799.378	0.0140306
799.456	0.0143273
799.535	0.0144026
799.613	0.0145448
799.691	0.0146051
799.769	0.0146181
799.847	0.0147959
799.925	0.0147411
800.003	0.0148295
800.081	0.0150567
800.160	0.0150112
800.238	0.0149464
800.316	0.0150584
800.394	0.0151374
800.472	0.0150078
800.550	0.0150454
800.628	0.0149778
800.706	0.0149424
800.785	0.0150703
800.863	0.0151341
800.941	0.0152449
801.019	0.0151510
801.097	0.0151778
801.175	0.0152953
801.253	0.0153114
801.331	0.0153286
801.410	0.0154585
801.488	0.0152611
801.566	0.0153634
801.644	0.0155153
801.722	0.0155520
801.800	0.0154995
801.878	0.0154591
801.956	0.0154361
802.035	0.0154293
802.113	0.0154762
802.191	0.0154810
802.269	0.0155302
802.347	0.0155685
802.425	0.0154327
802.503	0.0155350
802.581	0.0153806
802.660	0.0153056
802.738	0.0153214
802.816	0.0153967
802.894	0.0154419
802.972	0.0153896
803.050	0.0153654
803.128	0.0155133
803.206	0.0154281
803.285	0.0154539
803.363	0.0153941
803.441	0.0154346
803.519	0.0153532
803.597	0.0152490
803.675	0.0152735
803.753	0.0152549
803.831	0.0151521
803.910	0.0150111
803.988	0.0150916
804.066	0.0149808
804.144	0.0149078
804.222	0.0147469
804.300	0.0148069
804.378	0.0147605
804.456	0.0147921
804.535	0.0148967
804.613	0.0146003
804.691	0.0147142
804.769	0.0146629
804.847	0.0146632
804.925	0.0146283
805.003	0.0147803
805.081	0.0146753
805.160	0.0146847
805.238	0.0147333
805.316	0.0146655
805.394	0.0146231
805.472	0.0145576
805.550	0.0145425
805.628	0.0145216
805.706	0.0145051
805.785	0.0145453
805.863	0.0143520
805.941	0.0144949
806.019	0.0145317
806.097	0.0145628
806.175	0.0145776
806.253	0.0144735
806.331	0.0146638
806.410	0.0147121
806.488	0.0146915
806.566	0.0147959
806.644	0.0148021
806.722	0.0148096
806.800	0.0148811
806.878	0.0148843
806.956	0.0149037
807.035	0.0149504
807.113	0.0150347
807.191	0.0148470
807.269	0.0149132
807.347	0.0148596
807.425	0.0148416
807.503	0.0148264
807.581	0.0146746
807.660	0.0148884
807.738	0.0148373
807.816	0.0147834
807.894	0.0148164
807.972	0.0148660
808.050	0.0148114
808.128	0.0147712
808.206	0.0148158
808.285	0.0148772
808.363	0.0149821
808.441	0.0148090
808.519	0.0149081
808.597	0.0150515
808.675	0.0151167
808.753	0.0150081
808.831	0.0149490
808.910	0.0151991
808.988	0.0152003
809.066	0.0153704
809.144	0.0153685
809.222	0.0152940
809.300	0.0155349
809.378	0.0155376
809.456	0.0153644
809.535	0.0155982
809.613	0.0155065
809.691	0.0155375
809.769	0.0153854
809.847	0.0153317
809.925	0.0154534
810.003	0.0155504
810.081	0.0154000
810.160	0.0154498
810.238	0.0153635
810.316	0.0154132
810.394	0.0153767
810.472	0.0151259
810.550	0.0152813
810.628	0.0152001
810.706	0.0151143
810.785	0.0150328
810.863	0.0151253
810.941	0.0150134
811.019	0.0148954
811.097	0.0149480
811.175	0.0148312
811.253	0.0147704
811.331	0.0147725
811.410	0.0147971
811.488	0.0146703
811.566	0.0146289
811.644	0.0145611
811.722	0.0145993
811.800	0.0145720
811.878	0.0145425
811.956	0.0145108
812.035	0.0144569
812.113	0.0143334
812.191	0.0143980
812.269	0.0144463
812.347	0.0145681
812.425	0.0143650
812.503	0.0143554
812.581	0.0144359
812.660	0.0143298
812.738	0.0143071
812.816	0.0145216
812.894	0.0145156
812.972	0.0144454
813.050	0.0145029
813.128	0.0145656
813.206	0.0145130
813.285	0.0144579
813.363	0.0146712
813.441	0.0146436
813.519	0.0148103
813.597	0.0148571
813.675	0.0146180
813.753	0.0145365
813.831	0.0146296
813.910	0.0145610
813.988	0.0145859
814.066	0.0145396
814.144	0.0144621
814.222	0.0145087
814.300	0.0145025
814.378	0.0144921
814.456	0.0143938
814.535	0.0144183
814.613	0.0145676
814.691	0.0145544
814.769	0.0145298
814.847	0.0147721
814.925	0.0147858
815.003	0.0147610
815.081	0.0148823
815.160	0.0149178
815.238	0.0149955
815.316	0.0150240
815.394	0.0150903
815.472	0.0150450
815.550	0.0150555
815.628	0.0151717
815.706	0.0151861
815.785	0.0151999
815.863	0.0152224
815.941	0.0151559
816.019	0.0153607
816.097	0.0154373
816.175	0.0154168
816.253	0.0155184
816.331	0.0154948
816.410	0.0154661
816.488	0.0154214
816.566	0.0155346
816.644	0.0155646
816.722	0.0155137
816.800	0.0154623
816.878	0.0155645
816.956	0.0154239
817.035	0.0155246
817.113	0.0155947
817.191	0.0154100
817.269	0.0153017
817.347	0.0151435
817.425	0.0152258
817.503	0.0152733
817.581	0.0150077
817.660	0.0149388
817.738	0.0149168
817.816	0.0148447
817.894	0.0148122
817.972	0.0146670
818.050	0.0148591
818.128	0.0148246
818.206	0.0146657
818.285	0.0146622
818.363	0.0145779
818.441	0.0145063
818.519	0.0145806
818.597	0.0145702
818.675	0.0145844
818.753	0.0145239
818.831	0.0146845
818.910	0.0145833
818.988	0.0144857
819.066	0.0144115
819.144	0.0144623
819.222	0.0144097
819.300	0.0144674
819.378	0.0143342
819.456	0.0143332
819.535	0.0143447
819.613	0.0143835
819.691	0.0142254
819.769	0.0143771
819.847	0.0144107
819.925	0.0144864
820.003	0.0144106
820.081	0.0144993
820.160	0.0144747
820.238	0.0146108
820.316	0.0146732
820.394	0.0147603
820.472	0.0146332
820.550	0.0146904
820.628	0.0147878
820.706	0.0148031
820.785	0.0148126
820.863	0.0147323
820.941	0.0147012
821.019	0.0148145
821.097	0.0148387
821.175	0.0147867
821.253	0.0147961
821.331	0.0148985
821.410	0.0150896
821.488	0.0151621
821.566	0.0152352
821.644	0.0151941
821.722	0.0153492
821.800	0.0152605
821.878	0.0153072
821.956	0.0152962
822.035	0.0151921
822.113	0.0153928
822.191	0.0153905
822.269	0.0152106
822.347	0.0153822
822.425	0.0153680
822.503	0.0154285
822.581	0.0154769
822.660	0.0154214
822.738	0.0154037
822.816	0.0154343
822.894	0.0154484
822.972	0.0154673
823.050	0.0154835
823.128	0.0155672
823.206	0.0156318
823.285	0.0155231
823.363	0.0154359
823.441	0.0153172
823.519	0.0152673
823.597	0.0152792
823.675	0.0152483
823.753	0.0153035
823.831	0.0150774
823.910	0.0151160
823.988	0.0151431
824.066	0.0149777
824.144	0.0150195
824.222	0.0150432
824.300	0.0150977
824.378	0.0148805
824.456	0.0148066
824.535	0.0148194
824.613	0.0147391
824.691	0.0147332
824.769	0.0145438
824.847	0.0146906
824.925	0.0146396
825.003	0.0147195
825.081	0.0147201
825.160	0.0147028
825.238	0.0146722
825.316	0.0145770
825.394	0.0145736
825.472	0.0147042
825.550	0.0147237
825.628	0.0146492
825.706	0.0148295
825.785	0.0147971
825.863	0.0145961
825.941	0.0146535
826.019	0.0146661
826.097	0.0146916
826.175	0.0146352
826.253	0.0145271
826.331	0.0147237
826.410	0.0146988
826.488	0.0146776
826.566	0.0147517
826.644	0.0146451
826.722	0.0147826
826.800	0.0148711
826.878	0.0149603
826.956	0.0149445
827.035	0.0149644
827.113	0.0150396
827.191	0.0150943
827.269	0.0150846
827.347	0.0150917
827.425	0.0150673
827.503	0.0151807
827.581	0.0151946
827.660	0.0152862
827.738	0.0150477
827.816	0.0151624
827.894	0.0151972
827.972	0.0151432
828.050	0.0149879
828.128	0.0152843
828.206	0.0150681
828.285	0.0150063
828.363	0.0150620
828.441	0.0151759
828.519	0.0152404
828.597	0.0149342
828.675	0.0150830
828.753	0.0152161
828.831	0.0149398
828.910	0.0150000
828.988	0.0149861
829.066	0.0150848
829.144	0.0149256
829.222	0.0150298
829.300	0.0151342
829.378	0.0149700
829.456	0.0149487
829.535	0.0149671
829.613	0.0149950
829.691	0.0149548
829.769	0.0151900
829.847	0.0150186
829.925	0.0150864
830.003	0.0149744
830.081	0.0150936
830.160	0.0150517
830.238	0.0149850
830.316	0.0150016
830.394	0.0148341
830.472	0.0148409
830.550	0.0149791
830.628	0.0148434
830.706	0.0148251
830.785	0.0149706
830.863	0.0147825
830.941	0.0147546
831.019	0.0148412
831.097	0.0147402
831.175	0.0148504
831.253	0.0147854
831.331	0.0148200
831.410	0.0148755
831.488	0.0146865
831.566	0.0147578
831.644	0.0147979
831.722	0.0146708
831.800	0.0146690
831.878	0.0147369
831.956	0.0148187
832.035	0.0148567
832.113	0.0147010
832.191	0.0147644
832.269	0.0149051
832.347	0.0148430
832.425	0.0147909
832.503	0.0147740
832.581	0.0148353
832.660	0.0148020
832.738	0.0148861
832.816	0.0148699
832.894	0.0149119
832.972	0.0148529
833.050	0.0148238
833.128	0.0148888
833.206	0.0148318
833.285	0.0148283
833.363	0.0146732
833.441	0.0148338
833.519	0.0148722
833.597	0.0149016
833.675	0.0148480
833.753	0.0148349
833.831	0.0147644
833.910	0.0147382
833.988	0.0147219
834.066	0.0148795
834.144	0.0149347
834.222	0.0147788
834.300	0.0147402
834.378	0.0148860
834.456	0.0148094
834.535	0.0147333
834.613	0.0147919
834.691	0.0149319
834.769	0.0149760
834.847	0.0147971
834.925	0.0147689
835.003	0.0148657
835.081	0.0149651
835.160	0.0149580
835.238	0.0149767
835.316	0.0148652
835.394	0.0148690
835.472	0.0148868
835.550	0.0148011
835.628	0.0147803
835.706	0.0148724
835.785	0.0148697
835.863	0.0147583
835.941	0.0148674
836.019	0.0148869
836.097	0.0149251
836.175	0.0148598
836.253	0.0149476
836.331	0.0149161
836.410	0.0150601
836.488	0.0149499
836.566	0.0150446
836.644	0.0151170
836.722	0.0151601
836.800	0.0151505
836.878	0.0151147
836.956	0.0150871
837.035	0.0150813
837.113	0.0149987
837.191	0.0152574
837.269	0.0151914
837.347	0.0152239
837.425	0.0151205
837.503	0.0151189
837.581	0.0151890
837.660	0.0152136
837.738	0.0151336
837.816	0.0151731
837.894	0.0152703
837.972	0.0151963
838.050	0.0150116
838.128	0.0150153
838.206	0.0149404
838.285	0.0150808
838.363	0.0150311
838.441	0.0149377
838.519	0.0148055
838.597	0.0149246
838.675	0.0147046
838.753	0.0149278
838.831	0.0147797
838.910	0.0147631
838.988	0.0149695
839.066	0.0148315
839.144	0.0147823
839.222	0.0148656
839.300	0.0148288
839.378	0.0150524
839.456	0.0149261
839.535	0.0149921
839.613	0.0149062
839.691	0.0149427
839.769	0.0148658
839.847	0.0149079
839.925	0.0149103
840.003	0.0149379
840.081	0.0148564
840.160	0.0146518
840.238	0.0147271
840.316	0.0147445
840.394	0.0147931
840.472	0.0147180
840.550	0.0148280
840.628	0.0148589
840.706	0.0147673
840.785	0.0149361
840.863	0.0148492
840.941	0.0149612
841.019	0.0150668
841.097	0.0149675
841.175	0.0147824
841.253	0.0150126
841.331	0.0149432
841.410	0.0150637
841.488	0.0149365
841.566	0.0149509
841.644	0.0149668
841.722	0.0148489
841.800	0.0147897
841.878	0.0147520
841.956	0.0148344
842.035	0.0148557
842.113	0.0149864
842.191	0.0148559
842.269	0.0147624
842.347	0.0148309
842.425	0.0148887
842.503	0.0148331
842.581	0.0148212
842.660	0.0148923
842.738	0.0148135
842.816	0.0148109
842.894	0.0148689
842.972	0.0148580
843.050	0.0148815
843.128	0.0148584
843.206	0.0148141
843.285	0.0148495
843.363	0.0149398
843.441	0.0150084
843.519	0.0149283
843.597	0.0149834
843.675	0.0149733
843.753	0.0151122
843.831	0.0150853
843.910	0.0149943
843.988	0.0151006
844.066	0.0150375
844.144	0.0150832
844.222	0.0149814
844.300	0.0149220
844.378	0.0149810
844.456	0.0149046
844.535	0.0150587
844.613	0.0148013
844.691	0.0148509
844.769	0.0147571
844.847	0.0147611
844.925	0.0148164
845.003	0.0148353
845.081	0.0148230
845.160	0.0146922
845.238	0.0146387
845.316	0.0147274
845.394	0.0146863
845.472	0.0146537
845.550	0.0148272
845.628	0.0147331
845.706	0.0145935
845.785	0.0148099
845.863	0.0147066
845.941	0.0147822
846.019	0.0147218
846.097	0.0147748
846.175	0.0148133
846.253	0.0148960
846.331	0.0149091
846.410	0.0149248
846.488	0.0147962
846.566	0.0148190
846.644	0.0148101
846.722	0.0149339
846.800	0.0148790
846.878	0.0148111
846.956	0.0148377
847.035	0.0148442
847.113	0.0148096
847.191	0.0148874
847.269	0.0148206
847.347	0.0148769
847.425	0.0148595
847.503	0.0148976
847.581	0.0149347
847.660	0.0148145
847.738	0.0148309
847.816	0.0150117
847.894	0.0150153
847.972	0.0150256
848.050	0.0151192
848.128	0.0151895
848.206	0.0149963
848.285	0.0150740
848.363	0.0151269
848.441	0.0149498
848.519	0.0148528
848.597	0.0149021
848.675	0.0149944
848.753	0.0148695
848.831	0.0149803
848.910	0.0150622
848.988	0.0150818
849.066	0.0150643
849.144	0.0150368
849.222	0.0149003
849.300	0.0149355
849.378	0.0149465
849.456	0.0148785
849.535	0.0149194
849.613	0.0149784
849.691	0.0149448
849.769	0.0149203
849.847	0.0149779
849.925	0.0148029
850.003	0.0148004
850.081	0.0150311
850.160	0.0148524
850.238	0.0148389
850.316	0.0148945
850.394	0.0149570
850.472	0.0147868
850.550	0.0149387
850.628	0.0148877
850.706	0.0149237
850.785	0.0149297
850.863	0.0150386
850.941	0.0149670
851.019	0.0148407
851.097	0.0150342
851.175	0.0150598
851.253	0.0151041
851.331	0.0150837
851.410	0.0150921
851.488	0.0150348
851.566	0.0150616
851.644	0.0149168
851.722	0.0151274
851.800	0.0150938
851.878	0.0149856
851.956	0.0150378
852.035	0.0150265
852.113	0.0150002
852.191	0.0150153
852.269	0.0149716
852.347	0.0149102
852.425	0.0149129
852.503	0.0149701
852.581	0.0149691
852.660	0.0148794
852.738	0.0148783
852.816	0.0150171
852.894	0.0150339
852.972	0.0149373
853.050	0.0150975
853.128	0.0150632
853.206	0.0150452
853.285	0.0150777
853.363	0.0149926
853.441	0.0149625
853.519	0.0150583
853.597	0.0152447
853.675	0.0151268
853.753	0.0151527
853.831	0.0151178
853.910	0.0150990
853.988	0.0149918
854.066	0.0150011
854.144	0.0149611
854.222	0.0150017
854.300	0.0148766
854.378	0.0148988
854.456	0.0149619
854.535	0.0149050
854.613	0.0145728
854.691	0.0147280
854.769	0.0148921
854.847	0.0147544
854.925	0.0149171
855.003	0.0149281
855.081	0.0147048
855.160	0.0147807
855.238	0.0148105
855.316	0.0147308
855.394	0.0148500
855.472	0.0148209
855.550	0.0148020
855.628	0.0147576
855.706	0.0147250
855.785	0.0147009
855.863	0.0146902
855.941	0.0146938
856.019	0.0147766
856.097	0.0148360
856.175	0.0147211
856.253	0.0146600
856.331	0.0148340
856.410	0.0147936
856.488	0.0147420
856.566	0.0146107
856.644	0.0146926
856.722	0.0147886
856.800	0.0146623
856.878	0.0147818
856.956	0.0148270
857.035	0.0147520
857.113	0.0147377
857.191	0.0148222
857.269	0.0147890
857.347	0.0149043
857.425	0.0148915
857.503	0.0149944
857.581	0.0150368
857.660	0.0150449
857.738	0.0149960
857.816	0.0151754
857.894	0.0149881
857.972	0.0150436
858.050	0.0151251
858.128	0.0151888
858.206	0.0150708
858.285	0.0150957
858.363	0.0150604
858.441	0.0149740
858.519	0.0151045
858.597	0.0150938
858.675	0.0149550
858.753	0.0149973
858.831	0.0149207
858.910	0.0150120
858.988	0.0148273
859.066	0.0149603
859.144	0.0148545
859.222	0.0149004
859.300	0.0150051
859.378	0.0150134
859.456	0.0149358
859.535	0.0149167
859.613	0.0149877
859.691	0.0148113
859.769	0.0150703
859.847	0.0150090
859.925	0.0151199
860.003	0.0148748
860.081	0.0149740
860.160	0.0149679
860.238	0.0149876
860.316	0.0150822
860.394	0.0150422
860.472	0.0150230
860.550	0.0149638
860.628	0.0148989
860.706	0.0148270
860.785	0.0149186
860.863	0.0147437
860.941	0.0147689
861.019	0.0147808
861.097	0.0146461
861.175	0.0146989
861.253	0.0147438
861.331	0.0147551
861.410	0.0145941
861.488	0.0144175
861.566	0.0145143
861.644	0.0146037
861.722	0.0144269
861.800	0.0146160
861.878	0.0147585
861.956	0.0145829
862.035	0.0146040
862.113	0.0146040
862.191	0.0145875
862.269	0.0147023
862.347	0.0147694
862.425	0.0148668
862.503	0.0147404
862.581	0.0147035
862.660	0.0147517
862.738	0.0148727
862.816	0.0148191
862.894	0.0147136
862.972	0.0147500
863.050	0.0147224
863.128	0.0147581
863.206	0.0147658
863.285	0.0147400
863.363	0.0146835
863.441	0.0147611
863.519	0.0147009
863.597	0.0147926
863.675	0.0147543
863.753	0.0148916
863.831	0.0147747
863.910	0.0148240
863.988	0.0149014
864.066	0.0149851
864.144	0.0148744
864.222	0.0147982
864.300	0.0148643
864.378	0.0149947
864.456	0.0149071
864.535	0.0149329
864.613	0.0150658
864.691	0.0150082
864.769	0.0149677
864.847	0.0150648
864.925	0.0151515
865.003	0.0151335
865.081	0.0150858
865.160	0.0151913
865.238	0.0151215
865.316	0.0153018
865.394	0.0152097
865.472	0.0150892
865.550	0.0150626
865.628	0.0151703
865.706	0.0151192
865.785	0.0150491
865.863	0.0150872
865.941	0.0150489
866.019	0.0150271
866.097	0.0149698
866.175	0.0150267
866.253	0.0151027
866.331	0.0150421
866.410	0.0149825
866.488	0.0151229
866.566	0.0150919
866.644	0.0150925
866.722	0.0151048
866.800	0.0149798
866.878	0.0149852
866.956	0.0150967
867.035	0.0149709
867.113	0.0152055
867.191	0.0150848
867.269	0.0150101
867.347	0.0148810
867.425	0.0150284
867.503	0.0149142
867.581	0.0149220
867.660	0.0149649
867.738	0.0149364
867.816	0.0148420
867.894	0.0148729
867.972	0.0149116
868.050	0.0147752
868.128	0.0146927
868.206	0.0147980
868.285	0.0147659
868.363	0.0145930
868.441	0.0146998
868.519	0.0147469
868.597	0.0147488
868.675	0.0148283
868.753	0.0147425
868.831	0.0148978
868.910	0.0145763
868.988	0.0146819
869.066	0.0147900
869.144	0.0149108
869.222	0.0148355
869.300	0.0148231
869.378	0.0148637
869.456	0.0148523
869.535	0.0148311
869.613	0.0147549
869.691	0.0148686
869.769	0.0148194
869.847	0.0147565
869.925	0.0147335
870.003	0.0146651
870.081	0.0149026
870.160	0.0150212
870.238	0.0147147
870.316	0.0147604
870.394	0.0147643
870.472	0.0148240
870.550	0.0147531
870.628	0.0149844
870.706	0.0148647
870.785	0.0147209
870.863	0.0147453
870.941	0.0147980
871.019	0.0147987
871.097	0.0150195
871.175	0.0150460
871.253	0.0149691
871.331	0.0150868
871.410	0.0150534
871.488	0.0150758
871.566	0.0150389
871.644	0.0152236
871.722	0.0151516
871.800	0.0150622
871.878	0.0149841
871.956	0.0151511
872.035	0.0150313
872.113	0.0153173
872.191	0.0152156
872.269	0.0150832
872.347	0.0152002
872.425	0.0151283
872.503	0.0152111
872.581	0.0150555
872.660	0.0150916
872.738	0.0152557
872.816	0.0153688
872.894	0.0152586
872.972	0.0152451
873.050	0.0150288
873.128	0.0151595
873.206	0.0151434
873.285	0.0151192
873.363	0.0152225
873.441	0.0150536
873.519	0.0149978
873.597	0.0149932
873.675	0.0150392
873.753	0.0149913
873.831	0.0149606
873.910	0.0151633
873.988	0.0149572
874.066	0.0147707
874.144	0.0149522
874.222	0.0149030
874.300	0.0149335
874.378	0.0149264
874.456	0.0148727
874.535	0.0148932
874.613	0.0148665
874.691	0.0148087
874.769	0.0148506
874.847	0.0149136
874.925	0.0148514
875.003	0.0147424
875.081	0.0147843
875.160	0.0147651
875.238	0.0147343
875.316	0.0147039
875.394	0.0147787
875.472	0.0146622
875.550	0.0147217
875.628	0.0147036
875.706	0.0147104
875.785	0.0147030
875.863	0.0146444
875.941	0.0146957
876.019	0.0147659
876.097	0.0147093
876.175	0.0147895
876.253	0.0148756
876.331	0.0148109
876.410	0.0147802
876.488	0.0148949
876.566	0.0149712
876.644	0.0148367
876.722	0.0147867
876.800	0.0148043
876.878	0.0148016
876.956	0.0147523
877.035	0.0147342
877.113	0.0147729
877.191	0.0148228
877.269	0.0146985
877.347	0.0147855
877.425	0.0148030
877.503	0.0147295
877.581	0.0148229
877.660	0.0147370
877.738	0.0147722
877.816	0.0147864
877.894	0.0148567
877.972	0.0147753
878.050	0.0147273
878.128	0.0148279
878.206	0.0148844
878.285	0.0148656
878.363	0.0148579
878.441	0.0149812
878.519	0.0151028
878.597	0.0151433
878.675	0.0152231
878.753	0.0150363
878.831	0.0153007
878.910	0.0153726
878.988	0.0153643
879.066	0.0153445
879.144	0.0153564
879.222	0.0153569
879.300	0.0153244
879.378	0.0153049
879.456	0.0153980
879.535	0.0152608
879.613	0.0153881
879.691	0.0153970
879.769	0.0150452
879.847	0.0151537
879.925	0.0150753
880.003	0.0149956
880.081	0.0151670
880.160	0.0150802
880.238	0.0150800
880.316	0.0149180
880.394	0.0150425
880.472	0.0148943
880.550	0.0149654
880.628	0.0149363
880.706	0.0150034
880.785	0.0150256
880.863	0.0149129
880.941	0.0147790
881.019	0.0147423
881.097	0.0149274
881.175	0.0149157
881.253	0.0148502
881.331	0.0146790
881.410	0.0147390
881.488	0.0148346
881.566	0.0147404
881.644	0.0147211
881.722	0.0148507
881.800	0.0148288
881.878	0.0145775
881.956	0.0147495
882.035	0.0147609
882.113	0.0147643
882.191	0.0147441
882.269	0.0147190
882.347	0.0146251
882.425	0.0146320
882.503	0.0146848
882.581	0.0146459
882.660	0.0148205
882.738	0.0147904
882.816	0.0147295
882.894	0.0146988
882.972	0.0145895
883.050	0.0146978
883.128	0.0146388
883.206	0.0146666
883.285	0.0147412
883.363	0.0148479
883.441	0.0147914
883.519	0.0147596
883.597	0.0149001
883.675	0.0147393
883.753	0.0147791
883.831	0.0148610
883.910	0.0148428
883.988	0.0148296
884.066	0.0147564
884.144	0.0147092
884.222	0.0148896
884.300	0.0148177
884.378	0.0147831
884.456	0.0147766
884.535	0.0149165
884.613	0.0147780
884.691	0.0148970
884.769	0.0147433
884.847	0.0148433
884.925	0.0146161
885.003	0.0147577
885.081	0.0150214
885.160	0.0150173
885.238	0.0148848
885.316	0.0148696
885.394	0.0149347
885.472	0.0149796
885.550	0.0149926
885.628	0.0150897
885.706	0.0149898
885.785	0.0151677
885.863	0.0150247
885.941	0.0151689
886.019	0.0150530
886.097	0.0150970
886.175	0.0151275
886.253	0.0152917
886.331	0.0153255
886.410	0.0151570
886.488	0.0152351
886.566	0.0150015
886.644	0.0150143
886.722	0.0150925
886.800	0.0150160
886.878	0.0148774
886.956	0.0149124
887.035	0.0149483
887.113	0.0149159
887.191	0.0148651
887.269	0.0149670
887.347	0.0148873
887.425	0.0150337
887.503	0.0148086
887.581	0.0148820
887.660	0.0148080
887.738	0.0148228
887.816	0.0148438
887.894	0.0147939
887.972	0.0149266
888.050	0.0149029
888.128	0.0149080
888.206	0.0148308
888.285	0.0149427
888.363	0.0149401
888.441	0.0149697
888.519	0.0148520
888.597	0.0148643
888.675	0.0148788
888.753	0.0147424
888.831	0.0147729
888.910	0.0149018
888.988	0.0146759
889.066	0.0146603
889.144	0.0147064
889.222	0.0146793
889.300	0.0147469
889.378	0.0148258
889.456	0.0146580
889.535	0.0146801
889.613	0.0146716
889.691	0.0146055
889.769	0.0146024
889.847	0.0146170
889.925	0.0148141
890.003	0.0147778
890.081	0.0145896
890.160	0.0148658
890.238	0.0148645
890.316	0.0148576
890.394	0.0148530
890.472	0.0147921
890.550	0.0148238
890.628	0.0147346
890.706	0.0148129
890.785	0.0147414
890.863	0.0147893
890.941	0.0148328
891.019	0.0147176
891.097	0.0148578
891.175	0.0147944
891.253	0.0148976
891.331	0.0149196
891.410	0.0149174
891.488	0.0148287
891.566	0.0148730
891.644	0.0150020
891.722	0.0150257
891.800	0.0150748
891.878	0.0149522
891.956	0.0149333
892.035	0.0151634
892.113	0.0152628
892.191	0.0152692
892.269	0.0151672
892.347	0.0153726
892.425	0.0152837
892.503	0.0152512
892.581	0.0152032
892.660	0.0152946
892.738	0.0152119
892.816	0.0153077
892.894	0.0154031
892.972	0.0153934
893.050	0.0153788
893.128	0.0153233
893.206	0.0152354
893.285	0.0150346
893.363	0.0150968
893.441	0.0151276
893.519	0.0152121
893.597	0.0151177
893.675	0.0150434
893.753	0.0150467
893.831	0.0150289
893.910	0.0151628
893.988	0.0150282
894.066	0.0149522
894.144	0.0149731
894.222	0.0149751
894.300	0.0149148
894.378	0.0149802
894.456	0.0150190
894.535	0.0149683
894.613	0.0146600
894.691	0.0147913
894.769	0.0149908
894.847	0.0149004
894.925	0.0147414
895.003	0.0148695
895.081	0.0149223
895.160	0.0149120
895.238	0.0147491
895.316	0.0147233
895.394	0.0148096
895.472	0.0148336
895.550	0.0147832
895.628	0.0147703
895.706	0.0147803
895.785	0.0146900
895.863	0.0147893
895.941	0.0147057
896.019	0.0147176
896.097	0.0145518
896.175	0.0146420
896.253	0.0146306
896.331	0.0146002
896.410	0.0146920
896.488	0.0147041
896.566	0.0146629
896.644	0.0148132
896.722	0.0147527
896.800	0.0145912
896.878	0.0146615
896.956	0.0146362
897.035	0.0146066
897.113	0.0146402
897.191	0.0146804
897.269	0.0146935
897.347	0.0147904
897.425	0.0147694
897.503	0.0146970
897.581	0.0148103
897.660	0.0149690
897.738	0.0149641
897.816	0.0148493
897.894	0.0149738
897.972	0.0150534
898.050	0.0150681
898.128	0.0149811
898.206	0.0149133
898.285	0.0151196
898.363	0.0152181
898.441	0.0151118
898.519	0.0151646
898.597	0.0150323
898.675	0.0152633
898.753	0.0151655
898.831	0.0149350
898.910	0.0150827
898.988	0.0150677
899.066	0.0150527
899.144	0.0150201
899.222	0.0150962
899.300	0.0150650
899.378	0.0150437
899.456	0.0151321
899.535	0.0149508
899.613	0.0151669
899.691	0.0150065
899.769	0.0152657
899.847	0.0152482
899.925	0.0151921
900.003	0.0153024
900.081	0.0150839
900.160	0.0151575
900.238	0.0152128
900.316	0.0152042
900.394	0.0152097
900.472	0.0151883
900.550	0.0152510
900.628	0.0151576
900.706	0.0150536
900.785	0.0151888
900.863	0.0152281
900.941	0.0152106
901.019	0.0150113
901.097	0.0149535
901.175	0.0150203
901.253	0.0150225
901.331	0.0148389
901.410	0.0148601
901.488	0.0149449
901.566	0.0149418
901.644	0.0147681
901.722	0.0149240
901.800	0.0148164
901.878	0.0147553
901.956	0.0148298
902.035	0.0146423
902.113	0.0147716
902.191	0.0148340
902.269	0.0147646
902.347	0.0147932
902.425	0.0147909
902.503	0.0148693
902.581	0.0148232
902.660	0.0147941
902.738	0.0148141
902.816	0.0147488
902.894	0.0149519
902.972	0.0149542
903.050	0.0148476
903.128	0.0149343
903.206	0.0148230
903.285	0.0147714
903.363	0.0147334
903.441	0.0149110
903.519	0.0147537
903.597	0.0146864
903.675	0.0147961
903.753	0.0149197
903.831	0.0148363
903.910	0.0148258
903.988	0.0147305
904.066	0.0148306
904.144	0.0148098
904.222	0.0148120
904.300	0.0147955
904.378	0.0147746
904.456	0.0147086
904.535	0.0148223
904.613	0.0146189
904.691	0.0147198
904.769	0.0147081
904.847	0.0147210
904.925	0.0147920
905.003	0.0147036
905.081	0.0147073
905.160	0.0148266
905.238	0.0148375
905.316	0.0149252
905.394	0.0149586
905.472	0.0148852
905.550	0.0149014
905.628	0.0150537
905.706	0.0151554
905.785	0.0151241
905.863	0.0151945
905.941	0.0151495
906.019	0.0151607
906.097	0.0152833
906.175	0.0152313
906.253	0.0151777
906.331	0.0153259
906.410	0.0151878
906.488	0.0151703
906.566	0.0152393
906.644	0.0152746
906.722	0.0150476
906.800	0.0151053
906.878	0.0150613
906.956	0.0152463
907.035	0.0151157
907.113	0.0150128
907.191	0.0151590
907.269	0.0151321
907.347	0.0151134
907.425	0.0149141
907.503	0.0149717
907.581	0.0149204
907.660	0.0150609
907.738	0.0149253
907.816	0.0149357
907.894	0.0150367
907.972	0.0148881
908.050	0.0150166
908.128	0.0150769
908.206	0.0148686
908.285	0.0149603
908.363	0.0149243
908.441	0.0149200
908.519	0.0149632
908.597	0.0148264
908.675	0.0148097
908.753	0.0147401
908.831	0.0146265
908.910	0.0145021
908.988	0.0146575
909.066	0.0145261
909.144	0.0146217
909.222	0.0145023
909.300	0.0145589
909.378	0.0145595
909.456	0.0144855
909.535	0.0144332
909.613	0.0145872
909.691	0.0145824
909.769	0.0144241
909.847	0.0145599
909.925	0.0146145
910.003	0.0146449
910.081	0.0146504
910.160	0.0145483
910.238	0.0145309
910.316	0.0145507
910.394	0.0145293
910.472	0.0146724
910.550	0.0146855
910.628	0.0146486
910.706	0.0147975
910.785	0.0147754
910.863	0.0147545
910.941	0.0147856
911.019	0.0148370
911.097	0.0148278
911.175	0.0147503
911.253	0.0147957
911.331	0.0150375
911.410	0.0149150
911.488	0.0148536
911.566	0.0148749
911.644	0.0148964
911.722	0.0151268
911.800	0.0150100
911.878	0.0150012
911.956	0.0151888
912.035	0.0150184
912.113	0.0150198
912.191	0.0150003
912.269	0.0150719
912.347	0.0150772
912.425	0.0148597
912.503	0.0150854
912.581	0.0151250
912.660	0.0150493
912.738	0.0149818
912.816	0.0150345
912.894	0.0148830
912.972	0.0150013
913.050	0.0149300
913.128	0.0149528
913.206	0.0149571
913.285	0.0149516
913.363	0.0148928
913.441	0.0150632
913.519	0.0148539
913.597	0.0148591
913.675	0.0149826
913.753	0.0148821
913.831	0.0149310
913.910	0.0150425
913.988	0.0150479
914.066	0.0149360
914.144	0.0150766
914.222	0.0149271
914.300	0.0150606
914.378	0.0149895
914.456	0.0148573
914.535	0.0151913
914.613	0.0150597
914.691	0.0149541
914.769	0.0149034
914.847	0.0148612
914.925	0.0149394
915.003	0.0147870
915.081	0.0147053
915.160	0.0148298
915.238	0.0147330
915.316	0.0147758
915.394	0.0146943
915.472	0.0146214
915.550	0.0145961
915.628	0.0147501
915.706	0.0148118
915.785	0.0147787
915.863	0.0148160
915.941	0.0147128
916.019	0.0148766
916.097	0.0148765
916.175	0.0147410
916.253	0.0147434
916.331	0.0147785
916.410	0.0149296
916.488	0.0147944
916.566	0.0147273
916.644	0.0149922
916.722	0.0149113
916.800	0.0150237
916.878	0.0149260
916.956	0.0150329
917.035	0.0149987
917.113	0.0149628
917.191	0.0149146
917.269	0.0150305
917.347	0.0150469
917.425	0.0150441
917.503	0.0150012
917.581	0.0149677
917.660	0.0149989
917.738	0.0148468
917.816	0.0149810
917.894	0.0151337
917.972	0.0149916
918.050	0.0149706
918.128	0.0149522
918.206	0.0148451
918.285	0.0149733
918.363	0.0149742
918.441	0.0149148
918.519	0.0149016
918.597	0.0151276
918.675	0.0150036
918.753	0.0149439
918.831	0.0150182
918.910	0.0150648
918.988	0.0149933
919.066	0.0151093
919.144	0.0152716
919.222	0.0152130
919.300	0.0149632
919.378	0.0150069
919.456	0.0152755
919.535	0.0151223
919.613	0.0150420
919.691	0.0150111
919.769	0.0150517
919.847	0.0149840
919.925	0.0150562
920.003	0.0151136
920.081	0.0149052
920.160	0.0149213
920.238	0.0149862
920.316	0.0148515
920.394	0.0148230
920.472	0.0147543
920.550	0.0148602
920.628	0.0148845
920.706	0.0148955
920.785	0.0148061
920.863	0.0148103
920.941	0.0148574
921.019	0.0148406
921.097	0.0149198
921.175	0.0147882
921.253	0.0148232
921.331	0.0149300
921.410	0.0150188
921.488	0.0149934
921.566	0.0148958
921.644	0.0148471
921.722	0.0150697
921.800	0.0150056
921.878	0.0150522
921.956	0.0150721
922.035	0.0150448
922.113	0.0151199
922.191	0.0151934
922.269	0.0150409
922.347	0.0150761
922.425	0.0150002
922.503	0.0147569
922.581	0.0148918
922.660	0.0150426
922.738	0.0149350
922.816	0.0149668
922.894	0.0149467
922.972	0.0148753
923.050	0.0148770
923.128	0.0149326
923.206	0.0150785
923.285	0.0149400
923.363	0.0150421
923.441	0.0149022
923.519	0.0149250
923.597	0.0149736
923.675	0.0150017
923.753	0.0150565
923.831	0.0148725
923.910	0.0150879
923.988	0.0150862
924.066	0.0149836
924.144	0.0149109
924.222	0.0149531
924.300	0.0149799
924.378	0.0151157
924.456	0.0149538
924.535	0.0148767
924.613	0.0150165
924.691	0.0151186
924.769	0.0149621
924.847	0.0148045
924.925	0.0150012
925.003	0.0148945
925.081	0.0150086
925.160	0.0150594
925.238	0.0149915
925.316	0.0150153
925.394	0.0150569
925.472	0.0150809
925.550	0.0150809
925.628	0.0150241
925.706	0.0150847
925.785	0.0151122
925.863	0.0149812
925.941	0.0150103
926.019	0.0151314
926.097	0.0150998
926.175	0.0150480
926.253	0.0151163
926.331	0.0151325
926.410	0.0149267
926.488	0.0150165
926.566	0.0149429
926.644	0.0149815
926.722	0.0149734
926.800	0.0149886
926.878	0.0149373
926.956	0.0150055
927.035	0.0149998
927.113	0.0148793
927.191	0.0150125
927.269	0.0150027
927.347	0.0149396
927.425	0.0149810
927.503	0.0149854
927.581	0.0150152
927.660	0.0148212
927.738	0.0149583
927.816	0.0150321
927.894	0.0150368
927.972	0.0150365
928.050	0.0151060
928.128	0.0151460
928.206	0.0150649
928.285	0.0150559
928.363	0.0151031
928.441	0.0151122
928.519	0.0150848
928.597	0.0150724
928.675	0.0151779
928.753	0.0151870
928.831	0.0150191
928.910	0.0150411
928.988	0.0150257
929.066	0.0150865
929.144	0.0150561
929.222	0.0151163
929.300	0.0150290
929.378	0.0150517
929.456	0.0150431
929.535	0.0149443
929.613	0.0149594
929.691	0.0148775
929.769	0.0148785
929.847	0.0148368
929.925	0.0148854
930.003	0.0147853
930.081	0.0147926
930.160	0.0147114
930.238	0.0146400
930.316	0.0147010
930.394	0.0145958
930.472	0.0146594
930.550	0.0145045
930.628	0.0146837
930.706	0.0148000
930.785	0.0146566
930.863	0.0145996
930.941	0.0147012
931.019	0.0148184
931.097	0.0147349
931.175	0.0147251
931.253	0.0148360
931.331	0.0147923
931.410	0.0147971
931.488	0.0147575
931.566	0.0148496
931.644	0.0149855
931.722	0.0148565
931.800	0.0148741
931.878	0.0147413
931.956	0.0148338
932.035	0.0148726
932.113	0.0149467
932.191	0.0148939
932.269	0.0147598
932.347	0.0149624
932.425	0.0148353
932.503	0.0148413
932.581	0.0147636
932.660	0.0148500
932.738	0.0146600
932.816	0.0148003
932.894	0.0149030
932.972	0.0147864
933.050	0.0148457
933.128	0.0148457
933.206	0.0148695
933.285	0.0149887
933.363	0.0148811
933.441	0.0148667
933.519	0.0150626
933.597	0.0150282
933.675	0.0149580
933.753	0.0148405
933.831	0.0150153
933.910	0.0149768
933.988	0.0148856
934.066	0.0150130
934.144	0.0150229
934.222	0.0150030
934.300	0.0150678
934.378	0.0150164
934.456	0.0150406
934.535	0.0150037
934.613	0.0150253
934.691	0.0149628
934.769	0.0149181
934.847	0.0149030
934.925	0.0149023
935.003	0.0149052
935.081	0.0148297
935.160	0.0148879
935.238	0.0148138
935.316	0.0148805
935.394	0.0147788
935.472	0.0149773
935.550	0.0148939
935.628	0.0148457
935.706	0.0150613
935.785	0.0150168
935.863	0.0150980
935.941	0.0150322
936.019	0.0151043
936.097	0.0151780
936.175	0.0152933
936.253	0.0151133
936.331	0.0149948
936.410	0.0149989
936.488	0.0151138
936.566	0.0149817
936.644	0.0149031
936.722	0.0149763
936.800	0.0149351
936.878	0.0149133
936.956	0.0148064
937.035	0.0148697
937.113	0.0148325
937.191	0.0146284
937.269	0.0146958
937.347	0.0147570
937.425	0.0147381
937.503	0.0148620
937.581	0.0149675
937.660	0.0148200
937.738	0.0148238
937.816	0.0148286
937.894	0.0148248
937.972	0.0149125
938.050	0.0147871
938.128	0.0148530
938.206	0.0146368
938.285	0.0147195
938.363	0.0147405
938.441	0.0147010
938.519	0.0148085
938.597	0.0146251
938.675	0.0146791
938.753	0.0146192
938.831	0.0146340
938.910	0.0148026
938.988	0.0147242
939.066	0.0147072
939.144	0.0147092
939.222	0.0147825
939.300	0.0146624
939.378	0.0146821
939.456	0.0146984
939.535	0.0147504
939.613	0.0148317
939.691	0.0148075
939.769	0.0147941
939.847	0.0148491
939.925	0.0148259
940.003	0.0148492
940.081	0.0148476
940.160	0.0149086
940.238	0.0150005
940.316	0.0149331
940.394	0.0150092
940.472	0.0150118
940.550	0.0149640
940.628	0.0150159
940.706	0.0150343
940.785	0.0149745
940.863	0.0149204
940.941	0.0149297
941.019	0.0149550
941.097	0.0150753
941.175	0.0150006
941.253	0.0148607
941.331	0.0146822
941.410	0.0147532
941.488	0.0146848
941.566	0.0146954
941.644	0.0147861
941.722	0.0147069
941.800	0.0146738
941.878	0.0147957
941.956	0.0149442
942.035	0.0147668
942.113	0.0147241
942.191	0.0148267
942.269	0.0149078
942.347	0.0150082
942.425	0.0148869
942.503	0.0149895
942.581	0.0149805
942.660	0.0149464
942.738	0.0149759
942.816	0.0149664
942.894	0.0151376
942.972	0.0150360
943.050	0.0150306
943.128	0.0150764
943.206	0.0149841
943.285	0.0149859
943.363	0.0149454
943.441	0.0151353
943.519	0.0149854
943.597	0.0149972
943.675	0.0149635
943.753	0.0149770
943.831	0.0149653
943.910	0.0149689
943.988	0.0149867
944.066	0.0148918
944.144	0.0148542
944.222	0.0148599
944.300	0.0148740
944.378	0.0149103
944.456	0.0149757
944.535	0.0149314
944.613	0.0149390
944.691	0.0149509
944.769	0.0149062
944.847	0.0149231
944.925	0.0149585
945.003	0.0150198
945.081	0.0149161
945.160	0.0150430
945.238	0.0149481
945.316	0.0147861
945.394	0.0147948
945.472	0.0148728
945.550	0.0149802
945.628	0.0149691
945.706	0.0148437
945.785	0.0146584
945.863	0.0148200
945.941	0.0147349
946.019	0.0147604
946.097	0.0148499
946.175	0.0148351
946.253	0.0146834
946.331	0.0147265
946.410	0.0147814
946.488	0.0146911
946.566	0.0146605
946.644	0.0146702
946.722	0.0146969
946.800	0.0146252
946.878	0.0147075
946.956	0.0148386
947.035	0.0148217
947.113	0.0146870
947.191	0.0146935
947.269	0.0147771
947.347	0.0149355
947.425	0.0148336
947.503	0.0148765
947.581	0.0149667
947.660	0.0147677
947.738	0.0149953
947.816	0.0149753
947.894	0.0150051
947.972	0.0151247
948.050	0.0150775
948.128	0.0150674
948.206	0.0151224
948.285	0.0151785
948.363	0.0151851
948.441	0.0152180
948.519	0.0152188
948.597	0.0152420
948.675	0.0150378
948.753	0.0150729
948.831	0.0150155
948.910	0.0149413
948.988	0.0150842
949.066	0.0148563
949.144	0.0149180
949.222	0.0150199
949.300	0.0150685
949.378	0.0151109
949.456	0.0150632
949.535	0.0151549
949.613	0.0150743
949.691	0.0150719
949.769	0.0150097
949.847	0.0152842
949.925	0.0152092
950.003	0.0150792
950.081	0.0151205
950.160	0.0150826
950.238	0.0150135
950.316	0.0151486
950.394	0.0151801
950.472	0.0151421
950.550	0.0150208
950.628	0.0150740
950.706	0.0149800
950.785	0.0148763
950.863	0.0149054
950.941	0.0149940
951.019	0.0148472
951.097	0.0148469
951.175	0.0147436
951.253	0.0148449
951.331	0.0148005
951.410	0.0147544
951.488	0.0146656
951.566	0.0147473
951.644	0.0148129
951.722	0.0146324
951.800	0.0147610
951.878	0.0146144
951.956	0.0147241
952.035	0.0147385
952.113	0.0146168
952.191	0.0148346
952.269	0.0147504
952.347	0.0146644
952.425	0.0147892
952.503	0.0148234
952.581	0.0148258
952.660	0.0148087
952.738	0.0148415
952.816	0.0148349
952.894	0.0149252
952.972	0.0148756
953.050	0.0149177
953.128	0.0149493
953.206	0.0149569
953.285	0.0148882
953.363	0.0148508
953.441	0.0148434
953.519	0.0149227
953.597	0.0149695
953.675	0.0147675
953.753	0.0150172
953.831	0.0150095
953.910	0.0149345
953.988	0.0148701
954.066	0.0148656
954.144	0.0149129
954.222	0.0151717
954.300	0.0150788
954.378	0.0151438
954.456	0.0150737
954.535	0.0150620
954.613	0.0151817
954.691	0.0151041
954.769	0.0150686
954.847	0.0153075
954.925	0.0151381
955.003	0.0150248
955.081	0.0150891
955.160	0.0151613
955.238	0.0151451
955.316	0.0149028
955.394	0.0149753
955.472	0.0150323
955.550	0.0148369
955.628	0.0148766
955.706	0.0149319
955.785	0.0147777
955.863	0.0148013
955.941	0.0149382
956.019	0.0150032
956.097	0.0146875
956.175	0.0147393
956.253	0.0148929
956.331	0.0147993
956.410	0.0149285
956.488	0.0148056
956.566	0.0148363
956.644	0.0148939
956.722	0.0148042
956.800	0.0147021
956.878	0.0146896
956.956	0.0146585
957.035	0.0147073
957.113	0.0145905
957.191	0.0145152
957.269	0.0145998
957.347	0.0146291
957.425	0.0146814
957.503	0.0145776
957.581	0.0146121
957.660	0.0146613
957.738	0.0147075
957.816	0.0147347
957.894	0.0148273
957.972	0.0146404
958.050	0.0147099
958.128	0.0148250
958.206	0.0148225
958.285	0.0147935
958.363	0.0148862
958.441	0.0149280
958.519	0.0148125
958.597	0.0149387
958.675	0.0149857
958.753	0.0149456
958.831	0.0147987
958.910	0.0149828
958.988	0.0148927
959.066	0.0148670
959.144	0.0148859
959.222	0.0148542
959.300	0.0148042
959.378	0.0148217
959.456	0.0149322
959.535	0.0150332
959.613	0.0149090
959.691	0.0149470
959.769	0.0149459
959.847	0.0150935
959.925	0.0149564
960.003	0.0149471
960.081	0.0149406
960.160	0.0148450
960.238	0.0149048
960.316	0.0150014
960.394	0.0150153
960.472	0.0150385
960.550	0.0149459
960.628	0.0150293
960.706	0.0149589
960.785	0.0149740
960.863	0.0150629
960.941	0.0150146
961.019	0.0149938
961.097	0.0150636
961.175	0.0149506
961.253	0.0150685
961.331	0.0149429
961.410	0.0150031
961.488	0.0150509
961.566	0.0149556
961.644	0.0148373
961.722	0.0147234
961.800	0.0148866
961.878	0.0147630
961.956	0.0147752
962.035	0.0146724
962.113	0.0146362
962.191	0.0146625
962.269	0.0147241
962.347	0.0147051
962.425	0.0146105
962.503	0.0145916
962.581	0.0147227
962.660	0.0146783
962.738	0.0146012
962.816	0.0144439
962.894	0.0146088
962.972	0.0146345
963.050	0.0146031
963.128	0.0145912
963.206	0.0145528
963.285	0.0146456
963.363	0.0147541
963.441	0.0146234
963.519	0.0146162
963.597	0.0145710
963.675	0.0147529
963.753	0.0146881
963.831	0.0147417
963.910	0.0147832
963.988	0.0147347
964.066	0.0146830
964.144	0.0147795
964.222	0.0148573
964.300	0.0149899
964.378	0.0147858
964.456	0.0147681
964.535	0.0149164
964.613	0.0148984
964.691	0.0148505
964.769	0.0148432
964.847	0.0149584
964.925	0.0148640
965.003	0.0149801
965.081	0.0151779
965.160	0.0150527
965.238	0.0149764
965.316	0.0149359
965.394	0.0151088
965.472	0.0150285
965.550	0.0150552
965.628	0.0151740
965.706	0.0150803
965.785	0.0150985
965.863	0.0150217
965.941	0.0151004
966.019	0.0150190
966.097	0.0149709
966.175	0.0151013
966.253	0.0151125
966.331	0.0151729
966.410	0.0150791
966.488	0.0152091
966.566	0.0150031
966.644	0.0150510
966.722	0.0151582
966.800	0.0149700
966.878	0.0149799
966.956	0.0149730
967.035	0.0149723
967.113	0.0149517
967.191	0.0149622
967.269	0.0148961
967.347	0.0148665
967.425	0.0149194
967.503	0.0150339
967.581	0.0148629
967.660	0.0148051
967.738	0.0148460
967.816	0.0148428
967.894	0.0148666
967.972	0.0149073
968.050	0.0147579
968.128	0.0147181
968.206	0.0146244
968.285	0.0147381
968.363	0.0148370
968.441	0.0148604
968.519	0.0146744
968.597	0.0148513
968.675	0.0147811
968.753	0.0147793
968.831	0.0147610
968.910	0.0148000
968.988	0.0147875
969.066	0.0148296
969.144	0.0149151
969.222	0.0147580
969.300	0.0147652
969.378	0.0147172
969.456	0.0149525
969.535	0.0148904
969.613	0.0149110
969.691	0.0150574
969.769	0.0149475
969.847	0.0148985
969.925	0.0149670
970.003	0.0150798
970.081	0.0149145
970.160	0.0149266
970.238	0.0149783
970.316	0.0150203
970.394	0.0150919
970.472	0.0150814
970.550	0.0148995
970.628	0.0150265
970.706	0.0151582
970.785	0.0150631
970.863	0.0151286
970.941	0.0150737
971.019	0.0151698
971.097	0.0152380
971.175	0.0150689
971.253	0.0150998
971.331	0.0151199
971.410	0.0152871
971.488	0.0151790
971.566	0.0152669
971.644	0.0151185
971.722	0.0151806
971.800	0.0151867
971.878	0.0151924
971.956	0.0152432
972.035	0.0152242
972.113	0.0151547
972.191	0.0151388
972.269	0.0152132
972.347	0.0152296
972.425	0.0152589
972.503	0.0152442
972.581	0.0151668
972.660	0.0151878
972.738	0.0151055
972.816	0.0150721
972.894	0.0150982
972.972	0.0150745
973.050	0.0150300
973.128	0.0149844
973.206	0.0150996
973.285	0.0150583
973.363	0.0149070
973.441	0.0149290
973.519	0.0148612
973.597	0.0149538
973.675	0.0148727
973.753	0.0148071
973.831	0.0147772
973.910	0.0148537
973.988	0.0147053
974.066	0.0146676
974.144	0.0146638
974.222	0.0147595
974.300	0.0146847
974.378	0.0146962
974.456	0.0147285
974.535	0.0147041
974.613	0.0146345
974.691	0.0146299
974.769	0.0146068
974.847	0.0145790
974.925	0.0145486
975.003	0.0147284
975.081	0.0147280
975.160	0.0145828
975.238	0.0145598
975.316	0.0146176
975.394	0.0146152
975.472	0.0147105
975.550	0.0147002
975.628	0.0146704
975.706	0.0145516
975.785	0.0147305
975.863	0.0147315
975.941	0.0148232
976.019	0.0147260
976.097	0.0147252
976.175	0.0148110
976.253	0.0150021
976.331	0.0149991
976.410	0.0148900
976.488	0.0150348
976.566	0.0150858
976.644	0.0151676
976.722	0.0151136
976.800	0.0149645
976.878	0.0150287
976.956	0.0151546
977.035	0.0152205
977.113	0.0151553
977.191	0.0151705
977.269	0.0151012
977.347	0.0150307
977.425	0.0150375
977.503	0.0149854
977.581	0.0150179
977.660	0.0149110
977.738	0.0149429
977.816	0.0148949
977.894	0.0149153
977.972	0.0149586
978.050	0.0148394
978.128	0.0147897
978.206	0.0151127
978.285	0.0149911
978.363	0.0149459
978.441	0.0150491
978.519	0.0149207
978.597	0.0150250
978.675	0.0149360
978.753	0.0149594
978.831	0.0150410
978.910	0.0151040
978.988	0.0148050
979.066	0.0149481
979.144	0.0150764
979.222	0.0150803
979.300	0.0149378
979.378	0.0147604
979.456	0.0148917
979.535	0.0148614
979.613	0.0147562
979.691	0.0147314
979.769	0.0148579
979.847	0.0146626
979.925	0.0148260
