05/06/2022	19:19:40	Ver.	4.1	UNKNOWN
Optical Delay	600.015094	Delta X		0.078125	Sweeps	1	Scan Rate	0/0
Coordinates	Axis 1	NaN	Axis 2	NaN	Axis 3	NaN	Axis 4	NaN	Axis 5	NaN	Axis 6	0.000000
TX Power	0.000000	RX Power	0.000000

600.015	0.0147616
600.093	0.0148193
600.171	0.0147720
600.249	0.0147972
600.328	0.0146837
600.406	0.0146136
600.484	0.0147221
600.562	0.0145911
600.640	0.0146043
600.718	0.0146808
600.796	0.0145717
600.874	0.0146389
600.953	0.0146275
601.031	0.0146879
601.109	0.0147099
601.187	0.0147163
601.265	0.0146056
601.343	0.0146976
601.421	0.0145917
601.499	0.0147639
601.578	0.0145917
601.656	0.0146668
601.734	0.0147174
601.812	0.0147717
601.890	0.0147151
601.968	0.0147219
602.046	0.0145867
602.124	0.0145027
602.203	0.0147648
602.281	0.0148816
602.359	0.0146089
602.437	0.0145876
602.515	0.0147646
602.593	0.0147009
602.671	0.0146713
602.749	0.0145709
602.828	0.0145130
602.906	0.0146568
602.984	0.0146653
603.062	0.0148226
603.140	0.0146442
603.218	0.0148418
603.296	0.0147367
603.374	0.0147438
603.453	0.0148640
603.531	0.0147289
603.609	0.0147752
603.687	0.0147466
603.765	0.0146764
603.843	0.0145847
603.921	0.0148215
603.999	0.0148250
604.078	0.0147416
604.156	0.0149237
604.234	0.0147942
604.312	0.0147552
604.390	0.0147301
604.468	0.0148820
604.546	0.0147930
604.624	0.0147841
604.703	0.0148035
604.781	0.0148212
604.859	0.0146849
604.937	0.0148722
605.015	0.0148444
605.093	0.0148473
605.171	0.0147530
605.249	0.0148975
605.328	0.0147839
605.406	0.0147305
605.484	0.0148580
605.562	0.0147441
605.640	0.0148623
605.718	0.0148148
605.796	0.0148873
605.874	0.0148344
605.953	0.0148206
606.031	0.0149056
606.109	0.0148246
606.187	0.0148502
606.265	0.0147523
606.343	0.0148135
606.421	0.0148746
606.499	0.0148850
606.578	0.0147194
606.656	0.0147137
606.734	0.0146422
606.812	0.0148054
606.890	0.0147167
606.968	0.0147621
607.046	0.0149010
607.124	0.0147394
607.203	0.0147467
607.281	0.0147037
607.359	0.0147878
607.437	0.0148182
607.515	0.0148544
607.593	0.0147182
607.671	0.0148347
607.749	0.0147707
607.828	0.0150056
607.906	0.0147857
607.984	0.0147509
608.062	0.0149068
608.140	0.0148594
608.218	0.0147970
608.296	0.0148027
608.374	0.0149612
608.453	0.0148507
608.531	0.0147216
608.609	0.0148911
608.687	0.0149679
608.765	0.0147234
608.843	0.0148662
608.921	0.0147767
608.999	0.0148677
609.078	0.0148026
609.156	0.0148531
609.234	0.0149554
609.312	0.0148030
609.390	0.0148022
609.468	0.0148681
609.546	0.0149194
609.624	0.0148115
609.703	0.0147185
609.781	0.0148697
609.859	0.0147331
609.937	0.0148647
610.015	0.0148117
610.093	0.0149161
610.171	0.0148683
610.249	0.0148026
610.328	0.0147732
610.406	0.0147849
610.484	0.0147411
610.562	0.0146915
610.640	0.0146694
610.718	0.0146766
610.796	0.0146762
610.874	0.0147387
610.953	0.0148096
611.031	0.0147404
611.109	0.0147985
611.187	0.0148690
611.265	0.0146904
611.343	0.0148031
611.421	0.0146814
611.499	0.0147920
611.578	0.0148273
611.656	0.0146835
611.734	0.0146803
611.812	0.0146622
611.890	0.0147305
611.968	0.0147840
612.046	0.0148427
612.124	0.0145160
612.203	0.0147292
612.281	0.0147196
612.359	0.0147367
612.437	0.0147233
612.515	0.0147794
612.593	0.0147498
612.671	0.0147749
612.749	0.0146648
612.828	0.0145815
612.906	0.0147626
612.984	0.0148254
613.062	0.0147181
613.140	0.0146479
613.218	0.0148757
613.296	0.0147241
613.374	0.0148735
613.453	0.0147530
613.531	0.0146841
613.609	0.0147691
613.687	0.0146721
613.765	0.0147054
613.843	0.0146795
613.921	0.0147731
613.999	0.0147150
614.078	0.0149095
614.156	0.0147691
614.234	0.0146330
614.312	0.0147211
614.390	0.0146822
614.468	0.0147708
614.546	0.0146703
614.624	0.0147648
614.703	0.0147013
614.781	0.0146835
614.859	0.0147397
614.937	0.0147279
615.015	0.0147769
615.093	0.0147305
615.171	0.0147161
615.249	0.0146937
615.328	0.0148466
615.406	0.0145852
615.484	0.0146057
615.562	0.0146629
615.640	0.0147427
615.718	0.0147606
615.796	0.0147849
615.874	0.0147325
615.953	0.0147789
616.031	0.0148592
616.109	0.0147442
616.187	0.0148920
616.265	0.0149638
616.343	0.0147020
616.421	0.0148540
616.499	0.0148721
616.578	0.0147522
616.656	0.0147427
616.734	0.0149499
616.812	0.0148003
616.890	0.0148594
616.968	0.0147754
617.046	0.0147186
617.124	0.0146192
617.203	0.0146356
617.281	0.0147742
617.359	0.0148985
617.437	0.0147858
617.515	0.0148615
617.593	0.0147728
617.671	0.0148344
617.749	0.0149039
617.828	0.0146809
617.906	0.0148862
617.984	0.0147523
618.062	0.0148731
618.140	0.0148868
618.218	0.0147527
618.296	0.0147354
618.374	0.0145952
618.453	0.0148466
618.531	0.0148100
618.609	0.0146771
618.687	0.0147686
618.765	0.0148867
618.843	0.0148326
618.921	0.0147799
618.999	0.0148699
619.078	0.0148017
619.156	0.0146748
619.234	0.0147929
619.312	0.0148150
619.390	0.0149242
619.468	0.0146338
619.546	0.0145897
619.624	0.0147630
619.703	0.0147443
619.781	0.0148249
619.859	0.0148511
619.937	0.0149426
620.015	0.0147170
620.093	0.0148314
620.171	0.0147627
620.249	0.0147856
620.328	0.0147382
620.406	0.0149452
620.484	0.0148819
620.562	0.0147902
620.640	0.0147203
620.718	0.0147895
620.796	0.0148626
620.874	0.0147215
620.953	0.0146419
621.031	0.0147314
621.109	0.0148141
621.187	0.0148239
621.265	0.0146566
621.343	0.0146851
621.421	0.0147230
621.499	0.0146389
621.578	0.0146875
621.656	0.0148621
621.734	0.0147052
621.812	0.0148209
621.890	0.0148739
621.968	0.0147090
622.046	0.0148394
622.124	0.0147853
622.203	0.0149425
622.281	0.0148083
622.359	0.0148266
622.437	0.0148151
622.515	0.0149423
622.593	0.0148682
622.671	0.0149925
622.749	0.0148060
622.828	0.0148075
622.906	0.0147828
622.984	0.0148414
623.062	0.0147768
623.140	0.0147104
623.218	0.0147553
623.296	0.0147369
623.374	0.0147607
623.453	0.0147829
623.531	0.0145541
623.609	0.0147129
623.687	0.0147460
623.765	0.0146832
623.843	0.0147218
623.921	0.0147334
623.999	0.0148154
624.078	0.0148792
624.156	0.0150132
624.234	0.0147952
624.312	0.0148610
624.390	0.0148333
624.468	0.0148547
624.546	0.0148833
624.624	0.0147657
624.703	0.0148066
624.781	0.0149643
624.859	0.0147479
624.937	0.0147546
625.015	0.0149202
625.093	0.0147963
625.171	0.0149049
625.249	0.0148497
625.328	0.0148539
625.406	0.0148833
625.484	0.0148775
625.562	0.0149575
625.640	0.0149189
625.718	0.0148660
625.796	0.0149378
625.874	0.0147305
625.953	0.0147162
626.031	0.0148515
626.109	0.0148548
626.187	0.0148917
626.265	0.0149406
626.343	0.0148392
626.421	0.0148640
626.499	0.0148245
626.578	0.0147498
626.656	0.0146903
626.734	0.0147973
626.812	0.0149363
626.890	0.0148409
626.968	0.0147729
627.046	0.0146647
627.124	0.0147523
627.203	0.0148339
627.281	0.0147513
627.359	0.0147387
627.437	0.0146469
627.515	0.0147188
627.593	0.0147137
627.671	0.0147136
627.749	0.0146636
627.828	0.0147377
627.906	0.0148674
627.984	0.0148837
628.062	0.0146577
628.140	0.0148175
628.218	0.0147198
628.296	0.0147552
628.374	0.0147472
628.453	0.0148421
628.531	0.0146685
628.609	0.0147449
628.687	0.0148526
628.765	0.0145929
628.843	0.0147090
628.921	0.0147649
628.999	0.0147726
629.078	0.0146999
629.156	0.0147066
629.234	0.0148744
629.312	0.0145789
629.390	0.0148367
629.468	0.0149163
629.546	0.0148956
629.624	0.0148599
629.703	0.0147945
629.781	0.0148065
629.859	0.0147544
629.937	0.0150333
630.015	0.0147861
630.093	0.0146481
630.171	0.0148109
630.249	0.0146925
630.328	0.0146455
630.406	0.0146338
630.484	0.0148013
630.562	0.0147885
630.640	0.0147510
630.718	0.0147402
630.796	0.0147743
630.874	0.0148495
630.953	0.0147779
631.031	0.0147894
631.109	0.0147602
631.187	0.0148223
631.265	0.0147559
631.343	0.0146979
631.421	0.0148322
631.499	0.0147569
631.578	0.0149258
631.656	0.0148108
631.734	0.0148071
631.812	0.0147800
631.890	0.0147236
631.968	0.0148540
632.046	0.0148679
632.124	0.0149163
632.203	0.0148103
632.281	0.0148141
632.359	0.0148976
632.437	0.0149918
632.515	0.0148359
632.593	0.0148799
632.671	0.0149045
632.749	0.0149908
632.828	0.0149348
632.906	0.0148141
632.984	0.0147632
633.062	0.0148363
633.140	0.0149562
633.218	0.0147490
633.296	0.0146256
633.374	0.0147923
633.453	0.0147292
633.531	0.0146935
633.609	0.0146954
633.687	0.0147334
633.765	0.0146088
633.843	0.0146314
633.921	0.0147219
633.999	0.0148438
634.078	0.0146915
634.156	0.0145086
634.234	0.0145107
634.312	0.0146014
634.390	0.0145141
634.468	0.0146129
634.546	0.0146192
634.624	0.0146580
634.703	0.0146297
634.781	0.0146440
634.859	0.0147247
634.937	0.0148221
635.015	0.0148920
635.093	0.0149173
635.171	0.0148763
635.249	0.0148780
635.328	0.0151089
635.406	0.0150252
635.484	0.0150041
635.562	0.0150424
635.640	0.0150362
635.718	0.0149310
635.796	0.0149490
635.874	0.0149227
635.953	0.0148927
636.031	0.0149317
636.109	0.0150324
636.187	0.0148622
636.265	0.0148664
636.343	0.0147674
636.421	0.0148533
636.499	0.0146877
636.578	0.0147110
636.656	0.0145963
636.734	0.0145867
636.812	0.0145429
636.890	0.0144582
636.968	0.0145720
637.046	0.0146229
637.124	0.0144087
637.203	0.0144875
637.281	0.0145902
637.359	0.0146011
637.437	0.0145418
637.515	0.0145546
637.593	0.0146252
637.671	0.0146053
637.749	0.0147013
637.828	0.0147182
637.906	0.0147655
637.984	0.0148244
638.062	0.0147372
638.140	0.0149038
638.218	0.0148792
638.296	0.0149538
638.374	0.0150504
638.453	0.0150312
638.531	0.0151157
638.609	0.0151929
638.687	0.0150376
638.765	0.0150953
638.843	0.0152238
638.921	0.0151633
638.999	0.0151525
639.078	0.0151675
639.156	0.0151532
639.234	0.0151770
639.312	0.0149924
639.390	0.0149785
639.468	0.0150198
639.546	0.0148907
639.624	0.0148296
639.703	0.0146944
639.781	0.0145883
639.859	0.0146674
639.937	0.0146202
640.015	0.0144507
640.093	0.0145388
640.171	0.0143314
640.249	0.0144064
640.328	0.0143977
640.406	0.0144218
640.484	0.0142897
640.562	0.0143811
640.640	0.0142699
640.718	0.0142633
640.796	0.0143969
640.874	0.0143700
640.953	0.0145071
641.031	0.0146111
641.109	0.0145741
641.187	0.0147250
641.265	0.0147971
641.343	0.0148289
641.421	0.0148121
641.499	0.0149714
641.578	0.0151543
641.656	0.0152436
641.734	0.0152242
641.812	0.0152350
641.890	0.0153374
641.968	0.0153397
642.046	0.0152273
642.124	0.0152204
642.203	0.0152985
642.281	0.0153822
642.359	0.0152875
642.437	0.0152244
642.515	0.0152322
642.593	0.0152367
642.671	0.0151126
642.749	0.0151290
642.828	0.0149782
642.906	0.0149517
642.984	0.0148463
643.062	0.0148009
643.140	0.0146954
643.218	0.0147095
643.296	0.0143948
643.374	0.0145110
643.453	0.0145262
643.531	0.0145026
643.609	0.0144008
643.687	0.0142123
643.765	0.0142604
643.843	0.0143100
643.921	0.0142426
643.999	0.0141367
644.078	0.0140935
644.156	0.0141647
644.234	0.0140856
644.312	0.0141008
644.390	0.0142467
644.468	0.0142130
644.546	0.0142209
644.624	0.0143009
644.703	0.0143670
644.781	0.0145311
644.859	0.0145816
644.937	0.0146461
645.015	0.0147323
645.093	0.0149511
645.171	0.0151216
645.249	0.0152232
645.328	0.0152353
645.406	0.0151289
645.484	0.0154702
645.562	0.0156691
645.640	0.0155967
645.718	0.0156179
645.796	0.0156298
645.874	0.0155812
645.953	0.0156000
646.031	0.0155950
646.109	0.0154677
646.187	0.0154554
646.265	0.0153993
646.343	0.0151595
646.421	0.0153491
646.499	0.0152132
646.578	0.0151777
646.656	0.0151833
646.734	0.0149872
646.812	0.0150339
646.890	0.0148903
646.968	0.0147208
647.046	0.0146771
647.124	0.0146110
647.203	0.0143096
647.281	0.0145195
647.359	0.0141748
647.437	0.0141929
647.515	0.0140662
647.593	0.0142306
647.671	0.0141039
647.749	0.0139332
647.828	0.0137651
647.906	0.0138246
647.984	0.0139138
648.062	0.0140204
648.140	0.0140150
648.218	0.0140230
648.296	0.0140599
648.374	0.0142651
648.453	0.0144817
648.531	0.0144296
648.609	0.0146296
648.687	0.0146572
648.765	0.0148140
648.843	0.0149236
648.921	0.0149728
648.999	0.0151735
649.078	0.0151449
649.156	0.0153820
649.234	0.0154626
649.312	0.0154926
649.390	0.0154684
649.468	0.0155703
649.546	0.0156693
649.624	0.0156116
649.703	0.0155033
649.781	0.0155830
649.859	0.0155493
649.937	0.0154868
650.015	0.0155002
650.093	0.0155345
650.171	0.0153760
650.249	0.0152717
650.328	0.0151292
650.406	0.0150838
650.484	0.0149365
650.562	0.0148174
650.640	0.0148267
650.718	0.0147665
650.796	0.0146478
650.874	0.0143783
650.953	0.0144202
651.031	0.0140733
651.109	0.0140642
651.187	0.0141326
651.265	0.0139648
651.343	0.0139722
651.421	0.0140158
651.499	0.0138323
651.578	0.0137961
651.656	0.0137915
651.734	0.0139236
651.812	0.0140945
651.890	0.0139543
651.968	0.0140542
652.046	0.0142701
652.124	0.0142967
652.203	0.0143568
652.281	0.0144131
652.359	0.0145493
652.437	0.0147336
652.515	0.0147330
652.593	0.0149677
652.671	0.0149467
652.749	0.0149948
652.828	0.0153195
652.906	0.0151469
652.984	0.0151427
653.062	0.0152178
653.140	0.0152254
653.218	0.0152056
653.296	0.0150673
653.374	0.0153320
653.453	0.0153781
653.531	0.0152699
653.609	0.0151212
653.687	0.0150546
653.765	0.0152230
653.843	0.0151200
653.921	0.0150051
653.999	0.0148588
654.078	0.0148154
654.156	0.0149501
654.234	0.0146723
654.312	0.0148260
654.390	0.0147743
654.468	0.0145930
654.546	0.0145912
654.624	0.0146582
654.703	0.0146627
654.781	0.0145198
654.859	0.0145565
654.937	0.0144778
655.015	0.0145520
655.093	0.0145813
655.171	0.0145891
655.249	0.0146381
655.328	0.0147294
655.406	0.0146463
655.484	0.0147585
655.562	0.0147893
655.640	0.0147120
655.718	0.0147778
655.796	0.0147777
655.874	0.0148928
655.953	0.0148962
656.031	0.0148175
656.109	0.0147856
656.187	0.0148896
656.265	0.0148796
656.343	0.0149277
656.421	0.0148592
656.499	0.0147326
656.578	0.0147774
656.656	0.0146545
656.734	0.0147404
656.812	0.0145222
656.890	0.0145991
656.968	0.0145619
657.046	0.0145889
657.124	0.0144112
657.203	0.0144246
657.281	0.0144796
657.359	0.0145311
657.437	0.0144637
657.515	0.0146204
657.593	0.0145802
657.671	0.0146784
657.749	0.0145826
657.828	0.0148190
657.906	0.0147404
657.984	0.0148633
658.062	0.0147846
658.140	0.0149732
658.218	0.0148823
658.296	0.0150137
658.374	0.0149944
658.453	0.0149081
658.531	0.0148997
658.609	0.0150977
658.687	0.0149713
658.765	0.0150940
658.843	0.0150815
658.921	0.0150057
658.999	0.0150143
659.078	0.0149738
659.156	0.0149741
659.234	0.0151044
659.312	0.0150682
659.390	0.0150312
659.468	0.0149740
659.546	0.0150534
659.624	0.0150418
659.703	0.0149838
659.781	0.0149160
659.859	0.0148652
659.937	0.0148064
660.015	0.0149080
660.093	0.0146719
660.171	0.0147442
660.249	0.0147081
660.328	0.0145036
660.406	0.0144486
660.484	0.0144520
660.562	0.0144485
660.640	0.0143191
660.718	0.0144372
660.796	0.0143760
660.874	0.0143126
660.953	0.0143259
661.031	0.0143368
661.109	0.0143555
661.187	0.0142720
661.265	0.0142748
661.343	0.0145053
661.421	0.0145437
661.499	0.0145219
661.578	0.0147581
661.656	0.0145964
661.734	0.0146837
661.812	0.0147590
661.890	0.0147240
661.968	0.0147139
662.046	0.0148209
662.124	0.0148757
662.203	0.0150379
662.281	0.0148190
662.359	0.0149435
662.437	0.0151281
662.515	0.0150747
662.593	0.0150504
662.671	0.0151305
662.749	0.0151006
662.828	0.0152051
662.906	0.0151740
662.984	0.0151788
663.062	0.0151816
663.140	0.0149819
663.218	0.0152529
663.296	0.0151696
663.374	0.0151428
663.453	0.0151368
663.531	0.0150167
663.609	0.0150553
663.687	0.0151273
663.765	0.0150678
663.843	0.0150377
663.921	0.0149261
663.999	0.0148477
664.078	0.0149337
664.156	0.0147636
664.234	0.0147682
664.312	0.0146431
664.390	0.0146310
664.468	0.0147012
664.546	0.0145810
664.624	0.0144094
664.703	0.0144535
664.781	0.0144908
664.859	0.0145284
664.937	0.0145335
665.015	0.0144692
665.093	0.0146072
665.171	0.0145811
665.249	0.0145815
665.328	0.0146677
665.406	0.0147292
665.484	0.0146874
665.562	0.0145683
665.640	0.0146776
665.718	0.0147282
665.796	0.0146330
665.874	0.0146384
665.953	0.0146665
666.031	0.0145183
666.109	0.0147065
666.187	0.0148367
666.265	0.0147448
666.343	0.0146987
666.421	0.0146933
666.499	0.0147089
666.578	0.0146260
666.656	0.0147450
666.734	0.0148563
666.812	0.0148949
666.890	0.0149409
666.968	0.0148856
667.046	0.0150088
667.124	0.0148727
667.203	0.0148188
667.281	0.0149326
667.359	0.0149360
667.437	0.0148692
667.515	0.0149552
667.593	0.0148895
667.671	0.0149386
667.749	0.0149644
667.828	0.0148125
667.906	0.0149799
667.984	0.0150729
668.062	0.0149503
668.140	0.0149581
668.218	0.0148290
668.296	0.0147745
668.374	0.0149065
668.453	0.0149020
668.531	0.0148257
668.609	0.0148243
668.687	0.0148509
668.765	0.0148744
668.843	0.0149535
668.921	0.0147853
668.999	0.0150076
669.078	0.0148291
669.156	0.0148853
669.234	0.0148650
669.312	0.0148180
669.390	0.0148686
669.468	0.0148507
669.546	0.0148966
669.624	0.0148026
669.703	0.0146656
669.781	0.0146553
669.859	0.0146365
669.937	0.0145731
670.015	0.0143791
670.093	0.0145300
670.171	0.0145465
670.249	0.0146187
670.328	0.0143362
670.406	0.0143597
670.484	0.0145010
670.562	0.0145620
670.640	0.0144730
670.718	0.0145624
670.796	0.0145728
670.874	0.0145800
670.953	0.0145061
671.031	0.0146503
671.109	0.0146133
671.187	0.0146645
671.265	0.0147352
671.343	0.0148650
671.421	0.0147459
671.499	0.0148370
671.578	0.0149979
671.656	0.0150517
671.734	0.0150401
671.812	0.0148944
671.890	0.0150246
671.968	0.0151008
672.046	0.0150391
672.124	0.0150240
672.203	0.0147525
672.281	0.0148109
672.359	0.0148281
672.437	0.0147410
672.515	0.0148256
672.593	0.0149741
672.671	0.0147902
672.749	0.0146851
672.828	0.0148180
672.906	0.0147275
672.984	0.0146246
673.062	0.0147392
673.140	0.0147415
673.218	0.0147887
673.296	0.0146553
673.374	0.0147031
673.453	0.0146880
673.531	0.0146537
673.609	0.0146463
673.687	0.0146980
673.765	0.0147984
673.843	0.0147774
673.921	0.0147977
673.999	0.0147006
674.078	0.0146650
674.156	0.0146491
674.234	0.0149108
674.312	0.0147590
674.390	0.0147536
674.468	0.0147440
674.546	0.0147590
674.624	0.0148138
674.703	0.0145969
674.781	0.0146505
674.859	0.0147399
674.937	0.0145621
675.015	0.0146062
675.093	0.0146153
675.171	0.0147030
675.249	0.0146504
675.328	0.0145413
675.406	0.0146475
675.484	0.0147745
675.562	0.0146893
675.640	0.0148055
675.718	0.0146509
675.796	0.0148135
675.874	0.0148742
675.953	0.0148914
676.031	0.0149149
676.109	0.0148234
676.187	0.0148522
676.265	0.0147813
676.343	0.0147755
676.421	0.0147575
676.499	0.0146644
676.578	0.0147223
676.656	0.0147470
676.734	0.0147913
676.812	0.0148556
676.890	0.0147615
676.968	0.0147575
677.046	0.0148660
677.124	0.0147141
677.203	0.0148224
677.281	0.0149229
677.359	0.0148568
677.437	0.0148689
677.515	0.0148549
677.593	0.0147410
677.671	0.0148142
677.749	0.0147871
677.828	0.0148071
677.906	0.0148087
677.984	0.0147518
678.062	0.0148436
678.140	0.0147533
678.218	0.0146547
678.296	0.0146072
678.374	0.0147231
678.453	0.0146607
678.531	0.0146465
678.609	0.0147232
678.687	0.0146451
678.765	0.0146408
678.843	0.0146874
678.921	0.0146355
678.999	0.0146740
679.078	0.0148112
679.156	0.0148125
679.234	0.0148918
679.312	0.0149126
679.390	0.0149387
679.468	0.0146931
679.546	0.0149510
679.624	0.0149486
679.703	0.0149950
679.781	0.0150147
679.859	0.0149747
679.937	0.0149223
680.015	0.0148677
680.093	0.0147599
680.171	0.0147739
680.249	0.0147903
680.328	0.0146968
680.406	0.0149002
680.484	0.0149737
680.562	0.0147710
680.640	0.0149134
680.718	0.0150172
680.796	0.0149594
680.874	0.0149683
680.953	0.0150246
681.031	0.0149813
681.109	0.0149918
681.187	0.0150890
681.265	0.0150575
681.343	0.0149950
681.421	0.0149345
681.499	0.0149463
681.578	0.0149152
681.656	0.0147527
681.734	0.0148389
681.812	0.0148746
681.890	0.0146526
681.968	0.0146637
682.046	0.0147195
682.124	0.0147983
682.203	0.0147531
682.281	0.0146529
682.359	0.0147054
682.437	0.0147829
682.515	0.0148148
682.593	0.0149646
682.671	0.0148338
682.749	0.0148670
682.828	0.0149278
682.906	0.0149481
682.984	0.0148402
683.062	0.0149988
683.140	0.0149380
683.218	0.0148754
683.296	0.0149135
683.374	0.0148724
683.453	0.0147857
683.531	0.0148371
683.609	0.0148997
683.687	0.0146635
683.765	0.0147656
683.843	0.0148218
683.921	0.0146693
683.999	0.0147074
684.078	0.0146899
684.156	0.0148360
684.234	0.0149587
684.312	0.0147422
684.390	0.0148787
684.468	0.0148618
684.546	0.0148371
684.624	0.0149553
684.703	0.0149490
684.781	0.0148986
684.859	0.0149172
684.937	0.0148908
685.015	0.0147735
685.093	0.0146746
685.171	0.0146985
685.249	0.0146307
685.328	0.0148615
685.406	0.0148077
685.484	0.0147549
685.562	0.0147968
685.640	0.0147038
685.718	0.0146128
685.796	0.0147611
685.874	0.0148151
685.953	0.0146535
686.031	0.0147214
686.109	0.0148622
686.187	0.0147907
686.265	0.0149201
686.343	0.0147371
686.421	0.0148988
686.499	0.0147189
686.578	0.0147308
686.656	0.0148867
686.734	0.0147293
686.812	0.0148353
686.890	0.0148415
686.968	0.0146741
687.046	0.0148557
687.124	0.0147059
687.203	0.0146546
687.281	0.0148297
687.359	0.0148351
687.437	0.0148267
687.515	0.0148999
687.593	0.0149708
687.671	0.0149053
687.749	0.0149940
687.828	0.0150220
687.906	0.0150400
687.984	0.0150301
688.062	0.0149902
688.140	0.0151462
688.218	0.0150801
688.296	0.0150818
688.374	0.0150352
688.453	0.0149655
688.531	0.0149714
688.609	0.0147458
688.687	0.0149338
688.765	0.0149393
688.843	0.0145157
688.921	0.0146684
688.999	0.0148258
689.078	0.0145738
689.156	0.0143051
689.234	0.0144661
689.312	0.0144159
689.390	0.0145640
689.468	0.0143596
689.546	0.0144444
689.624	0.0144292
689.703	0.0144330
689.781	0.0144685
689.859	0.0146505
689.937	0.0146053
690.015	0.0146967
690.093	0.0146955
690.171	0.0147165
690.249	0.0148869
690.328	0.0147333
690.406	0.0148900
690.484	0.0149501
690.562	0.0150179
690.640	0.0150169
690.718	0.0151819
690.796	0.0150510
690.874	0.0151971
690.953	0.0151400
691.031	0.0151551
691.109	0.0152480
691.187	0.0152512
691.265	0.0153042
691.343	0.0151087
691.421	0.0152579
691.499	0.0151081
691.578	0.0151224
691.656	0.0148956
691.734	0.0149739
691.812	0.0149088
691.890	0.0149784
691.968	0.0147103
692.046	0.0146642
692.124	0.0146132
692.203	0.0146187
692.281	0.0145518
692.359	0.0144904
692.437	0.0143770
692.515	0.0142422
692.593	0.0143485
692.671	0.0141776
692.749	0.0143839
692.828	0.0144151
692.906	0.0144858
692.984	0.0145316
693.062	0.0146490
693.140	0.0145498
693.218	0.0146158
693.296	0.0147899
693.374	0.0148183
693.453	0.0147468
693.531	0.0147162
693.609	0.0147797
693.687	0.0148701
693.765	0.0148107
693.843	0.0148322
693.921	0.0148670
693.999	0.0148763
694.078	0.0148708
694.156	0.0148389
694.234	0.0149178
694.312	0.0147478
694.390	0.0150056
694.468	0.0149579
694.546	0.0148856
694.624	0.0148677
694.703	0.0147714
694.781	0.0148606
694.859	0.0149390
694.937	0.0148463
695.015	0.0148382
695.093	0.0149061
695.171	0.0149133
695.249	0.0148592
695.328	0.0147996
695.406	0.0148461
695.484	0.0148455
695.562	0.0148042
695.640	0.0147293
695.718	0.0147806
695.796	0.0148637
695.874	0.0147141
695.953	0.0148519
696.031	0.0147403
696.109	0.0146056
696.187	0.0146242
696.265	0.0146561
696.343	0.0145881
696.421	0.0146964
696.499	0.0145038
696.578	0.0145891
696.656	0.0146594
696.734	0.0146204
696.812	0.0147301
696.890	0.0148235
696.968	0.0148218
697.046	0.0148288
697.124	0.0148400
697.203	0.0150082
697.281	0.0148857
697.359	0.0148734
697.437	0.0149104
697.515	0.0149049
697.593	0.0149297
697.671	0.0148875
697.749	0.0149121
697.828	0.0147653
697.906	0.0146148
697.984	0.0147247
698.062	0.0147297
698.140	0.0146996
698.218	0.0148317
698.296	0.0148563
698.374	0.0147898
698.453	0.0147741
698.531	0.0149365
698.609	0.0149867
698.687	0.0149939
698.765	0.0148823
698.843	0.0150076
698.921	0.0150576
698.999	0.0149898
699.078	0.0149944
699.156	0.0149184
699.234	0.0150137
699.312	0.0149386
699.390	0.0148422
699.468	0.0149129
699.546	0.0147842
699.624	0.0148083
699.703	0.0149239
699.781	0.0148574
699.859	0.0146931
699.937	0.0145997
700.015	0.0146961
700.093	0.0146976
700.171	0.0145722
700.249	0.0146159
700.328	0.0147661
700.406	0.0147332
700.484	0.0144996
700.562	0.0146406
700.640	0.0146235
700.718	0.0146466
700.796	0.0146713
700.874	0.0147246
700.953	0.0148641
701.031	0.0148116
701.109	0.0146262
701.187	0.0147979
701.265	0.0148048
701.343	0.0148837
701.421	0.0149749
701.499	0.0149347
701.578	0.0148341
701.656	0.0149718
701.734	0.0149853
701.812	0.0150681
701.890	0.0150659
701.968	0.0149163
702.046	0.0149734
702.124	0.0149904
702.203	0.0150107
702.281	0.0150323
702.359	0.0150249
702.437	0.0148225
702.515	0.0148956
702.593	0.0147587
702.671	0.0149093
702.749	0.0147736
702.828	0.0147907
702.906	0.0147464
702.984	0.0147202
703.062	0.0146787
703.140	0.0146407
703.218	0.0145573
703.296	0.0144554
703.374	0.0145562
703.453	0.0145877
703.531	0.0146765
703.609	0.0145477
703.687	0.0145545
703.765	0.0147163
703.843	0.0147472
703.921	0.0147159
703.999	0.0146727
704.078	0.0146621
704.156	0.0147133
704.234	0.0147526
704.312	0.0148013
704.390	0.0147235
704.468	0.0148330
704.546	0.0148479
704.624	0.0148800
704.703	0.0149309
704.781	0.0149694
704.859	0.0149481
704.937	0.0149087
705.015	0.0149183
705.093	0.0148655
705.171	0.0148381
705.249	0.0149651
705.328	0.0149553
705.406	0.0148784
705.484	0.0148372
705.562	0.0149761
705.640	0.0148212
705.718	0.0148762
705.796	0.0149309
705.874	0.0149683
705.953	0.0150497
706.031	0.0149403
706.109	0.0148096
706.187	0.0148606
706.265	0.0148959
706.343	0.0148175
706.421	0.0146346
706.499	0.0144973
706.578	0.0147098
706.656	0.0146708
706.734	0.0146082
706.812	0.0145296
706.890	0.0145936
706.968	0.0147704
707.046	0.0146754
707.124	0.0145921
707.203	0.0147199
707.281	0.0146678
707.359	0.0148496
707.437	0.0148421
707.515	0.0149303
707.593	0.0148958
707.671	0.0148442
707.749	0.0148363
707.828	0.0148103
707.906	0.0147984
707.984	0.0148188
708.062	0.0148169
708.140	0.0148132
708.218	0.0148273
708.296	0.0147388
708.374	0.0146468
708.453	0.0147649
708.531	0.0147627
708.609	0.0149046
708.687	0.0146403
708.765	0.0147359
708.843	0.0147453
708.921	0.0147923
708.999	0.0148077
709.078	0.0148517
709.156	0.0149564
709.234	0.0148463
709.312	0.0147865
709.390	0.0149064
709.468	0.0148505
709.546	0.0148822
709.624	0.0148836
709.703	0.0148547
709.781	0.0148942
709.859	0.0148038
709.937	0.0149216
710.015	0.0147108
710.093	0.0146931
710.171	0.0146609
710.249	0.0146539
710.328	0.0145739
710.406	0.0144681
710.484	0.0145995
710.562	0.0145734
710.640	0.0145222
710.718	0.0146992
710.796	0.0145657
710.874	0.0145575
710.953	0.0146797
711.031	0.0146533
711.109	0.0147498
711.187	0.0147825
711.265	0.0148759
711.343	0.0147812
711.421	0.0147453
711.499	0.0146555
711.578	0.0147288
711.656	0.0148199
711.734	0.0147450
711.812	0.0146632
711.890	0.0146146
711.968	0.0148386
712.046	0.0147254
712.124	0.0147855
712.203	0.0148680
712.281	0.0148322
712.359	0.0148606
712.437	0.0147609
712.515	0.0150007
712.593	0.0150827
712.671	0.0150510
712.749	0.0149140
712.828	0.0150262
712.906	0.0151514
712.984	0.0149861
713.062	0.0149737
713.140	0.0150953
713.218	0.0150325
713.296	0.0149622
713.374	0.0148735
713.453	0.0148897
713.531	0.0147218
713.609	0.0146700
713.687	0.0146939
713.765	0.0146134
713.843	0.0145509
713.921	0.0145939
713.999	0.0145566
714.078	0.0144959
714.156	0.0144813
714.234	0.0145019
714.312	0.0145242
714.390	0.0145387
714.468	0.0144875
714.546	0.0145461
714.624	0.0146957
714.703	0.0146296
714.781	0.0147702
714.859	0.0147623
714.937	0.0148420
715.015	0.0148059
715.093	0.0147163
715.171	0.0146740
715.249	0.0148571
715.328	0.0149504
715.406	0.0149074
715.484	0.0148350
715.562	0.0148544
715.640	0.0149178
715.718	0.0149636
715.796	0.0148466
715.874	0.0148889
715.953	0.0150660
716.031	0.0149212
716.109	0.0150450
716.187	0.0150078
716.265	0.0150636
716.343	0.0150754
716.421	0.0150174
716.499	0.0150059
716.578	0.0151429
716.656	0.0150042
716.734	0.0149072
716.812	0.0149114
716.890	0.0148589
716.968	0.0147279
717.046	0.0147673
717.124	0.0145561
717.203	0.0146383
717.281	0.0146519
717.359	0.0146500
717.437	0.0145724
717.515	0.0145045
717.593	0.0145679
717.671	0.0146490
717.749	0.0145629
717.828	0.0146241
717.906	0.0146185
717.984	0.0146730
718.062	0.0145699
718.140	0.0147897
718.218	0.0147218
718.296	0.0147956
718.374	0.0147922
718.453	0.0147671
718.531	0.0148211
718.609	0.0147928
718.687	0.0148858
718.765	0.0149216
718.843	0.0148244
718.921	0.0148648
718.999	0.0148362
719.078	0.0148491
719.156	0.0148032
719.234	0.0147853
719.312	0.0146612
719.390	0.0147286
719.468	0.0148916
719.546	0.0148770
719.624	0.0147922
719.703	0.0148687
719.781	0.0147470
719.859	0.0148077
719.937	0.0149326
720.015	0.0147884
720.093	0.0148925
720.171	0.0148192
720.249	0.0149478
720.328	0.0148427
720.406	0.0147260
720.484	0.0148591
720.562	0.0147607
720.640	0.0147083
720.718	0.0147360
720.796	0.0147054
720.874	0.0148237
720.953	0.0147781
721.031	0.0148389
721.109	0.0147852
721.187	0.0147255
721.265	0.0147602
721.343	0.0147742
721.421	0.0148247
721.499	0.0147154
721.578	0.0148494
721.656	0.0148940
721.734	0.0147954
721.812	0.0147996
721.890	0.0147550
721.968	0.0148177
722.046	0.0147489
722.124	0.0148183
722.203	0.0147887
722.281	0.0148211
722.359	0.0147671
722.437	0.0147019
722.515	0.0147426
722.593	0.0148633
722.671	0.0147452
722.749	0.0148801
722.828	0.0147417
722.906	0.0148123
722.984	0.0147778
723.062	0.0148497
723.140	0.0148411
723.218	0.0148900
723.296	0.0147572
723.374	0.0148814
723.453	0.0148756
723.531	0.0149394
723.609	0.0147583
723.687	0.0148354
723.765	0.0149027
723.843	0.0147715
723.921	0.0149165
723.999	0.0148581
724.078	0.0147369
724.156	0.0146975
724.234	0.0148525
724.312	0.0147911
724.390	0.0146944
724.468	0.0148259
724.546	0.0147140
724.624	0.0149551
724.703	0.0148847
724.781	0.0148411
724.859	0.0148859
724.937	0.0148358
725.015	0.0147619
725.093	0.0148862
725.171	0.0149267
725.249	0.0148638
725.328	0.0147010
725.406	0.0146988
725.484	0.0147707
725.562	0.0148466
725.640	0.0147821
725.718	0.0147970
725.796	0.0146887
725.874	0.0145178
725.953	0.0147188
726.031	0.0147103
726.109	0.0148248
726.187	0.0147346
726.265	0.0147198
726.343	0.0146107
726.421	0.0146799
726.499	0.0147889
726.578	0.0147401
726.656	0.0148168
726.734	0.0147321
726.812	0.0148380
726.890	0.0148605
726.968	0.0148260
727.046	0.0147657
727.124	0.0148111
727.203	0.0148843
727.281	0.0147628
727.359	0.0149365
727.437	0.0148479
727.515	0.0147754
727.593	0.0147089
727.671	0.0148718
727.749	0.0148100
727.828	0.0148127
727.906	0.0147779
727.984	0.0146901
728.062	0.0146108
728.140	0.0147233
728.218	0.0146329
728.296	0.0147992
728.374	0.0147536
728.453	0.0147247
728.531	0.0146478
728.609	0.0145657
728.687	0.0145256
728.765	0.0146873
728.843	0.0148000
728.921	0.0148080
728.999	0.0147036
729.078	0.0145966
729.156	0.0145111
729.234	0.0146597
729.312	0.0146789
729.390	0.0145431
729.468	0.0145618
729.546	0.0145342
729.624	0.0145444
729.703	0.0145352
729.781	0.0145299
729.859	0.0146358
729.937	0.0146866
730.015	0.0146344
730.093	0.0147443
730.171	0.0147928
730.249	0.0148289
730.328	0.0147507
730.406	0.0148563
730.484	0.0149315
730.562	0.0149135
730.640	0.0146188
730.718	0.0147851
730.796	0.0148026
730.874	0.0148476
730.953	0.0146689
731.031	0.0148071
731.109	0.0146622
731.187	0.0146812
731.265	0.0146968
731.343	0.0145973
731.421	0.0144795
731.499	0.0144995
731.578	0.0146894
731.656	0.0146738
731.734	0.0146134
731.812	0.0146873
731.890	0.0147253
731.968	0.0148009
732.046	0.0147179
732.124	0.0146471
732.203	0.0148400
732.281	0.0148368
732.359	0.0148428
732.437	0.0148453
732.515	0.0148264
732.593	0.0148434
732.671	0.0148253
732.749	0.0147795
732.828	0.0147440
732.906	0.0147310
732.984	0.0147020
733.062	0.0146220
733.140	0.0146093
733.218	0.0146143
733.296	0.0146895
733.374	0.0146214
733.453	0.0145127
733.531	0.0145855
733.609	0.0148051
733.687	0.0148862
733.765	0.0147065
733.843	0.0147461
733.921	0.0147086
733.999	0.0148602
734.078	0.0147488
734.156	0.0148385
734.234	0.0147822
734.312	0.0146992
734.390	0.0148341
734.468	0.0148845
734.546	0.0147441
734.624	0.0147028
734.703	0.0147780
734.781	0.0147015
734.859	0.0147659
734.937	0.0146817
735.015	0.0146519
735.093	0.0147707
735.171	0.0146995
735.249	0.0148345
735.328	0.0146954
735.406	0.0147809
735.484	0.0147243
735.562	0.0147829
735.640	0.0146837
735.718	0.0148946
735.796	0.0147903
735.874	0.0147855
735.953	0.0148385
736.031	0.0147562
736.109	0.0149205
736.187	0.0147221
736.265	0.0148361
736.343	0.0146227
736.421	0.0147944
736.499	0.0146947
736.578	0.0146143
736.656	0.0147253
736.734	0.0146091
736.812	0.0146502
736.890	0.0146800
736.968	0.0145564
737.046	0.0145794
737.124	0.0146334
737.203	0.0146290
737.281	0.0146052
737.359	0.0146900
737.437	0.0147687
737.515	0.0147802
737.593	0.0147355
737.671	0.0147016
737.749	0.0148256
737.828	0.0148807
737.906	0.0148959
737.984	0.0148162
738.062	0.0147952
738.140	0.0149657
738.218	0.0148808
738.296	0.0147439
738.374	0.0147446
738.453	0.0148471
738.531	0.0146259
738.609	0.0146120
738.687	0.0146873
738.765	0.0148564
738.843	0.0148046
738.921	0.0148703
738.999	0.0147305
739.078	0.0147588
739.156	0.0149498
739.234	0.0149195
739.312	0.0148649
739.390	0.0148386
739.468	0.0148624
739.546	0.0148785
739.624	0.0148487
739.703	0.0147398
739.781	0.0149083
739.859	0.0149232
739.937	0.0147720
740.015	0.0147632
740.093	0.0148677
740.171	0.0147658
740.249	0.0148688
740.328	0.0146452
740.406	0.0146577
740.484	0.0147212
740.562	0.0147099
740.640	0.0146866
740.718	0.0146604
740.796	0.0147605
740.874	0.0148104
740.953	0.0147761
741.031	0.0147012
741.109	0.0147960
741.187	0.0149146
741.265	0.0148020
741.343	0.0148776
741.421	0.0148712
741.499	0.0148081
741.578	0.0147794
741.656	0.0147672
741.734	0.0146384
741.812	0.0148962
741.890	0.0148135
741.968	0.0149583
742.046	0.0147446
742.124	0.0147675
742.203	0.0147441
742.281	0.0147935
742.359	0.0148541
742.437	0.0147992
742.515	0.0149529
742.593	0.0150049
742.671	0.0149512
742.749	0.0149468
742.828	0.0147767
742.906	0.0148930
742.984	0.0148930
743.062	0.0148803
743.140	0.0147498
743.218	0.0148594
743.296	0.0148054
743.374	0.0149367
743.453	0.0148552
743.531	0.0147566
743.609	0.0146609
743.687	0.0148241
743.765	0.0148474
743.843	0.0148586
743.921	0.0146458
743.999	0.0147066
744.078	0.0146195
744.156	0.0148438
744.234	0.0145976
744.312	0.0146871
744.390	0.0148249
744.468	0.0147485
744.546	0.0147320
744.624	0.0146657
744.703	0.0146868
744.781	0.0147624
744.859	0.0148003
744.937	0.0147588
745.015	0.0147485
745.093	0.0147340
745.171	0.0148613
745.249	0.0146622
745.328	0.0147549
745.406	0.0147433
745.484	0.0147586
745.562	0.0147757
745.640	0.0147314
745.718	0.0149005
745.796	0.0148556
745.874	0.0147542
745.953	0.0149241
746.031	0.0148650
746.109	0.0148798
746.187	0.0149100
746.265	0.0149639
746.343	0.0149088
746.421	0.0149512
746.499	0.0148487
746.578	0.0150079
746.656	0.0147954
746.734	0.0148512
746.812	0.0148251
746.890	0.0148650
746.968	0.0147179
747.046	0.0148630
747.124	0.0147945
747.203	0.0147032
747.281	0.0148353
747.359	0.0146627
747.437	0.0147955
747.515	0.0147840
747.593	0.0146726
747.671	0.0148875
747.749	0.0148526
747.828	0.0146491
747.906	0.0147129
747.984	0.0146605
748.062	0.0147824
748.140	0.0148897
748.218	0.0148185
748.296	0.0146900
748.374	0.0148103
748.453	0.0148026
748.531	0.0148316
748.609	0.0146485
748.687	0.0147698
748.765	0.0149715
748.843	0.0147630
748.921	0.0147277
748.999	0.0148237
749.078	0.0149271
749.156	0.0147141
749.234	0.0149080
749.312	0.0147749
749.390	0.0147313
749.468	0.0147090
749.546	0.0148765
749.624	0.0147858
749.703	0.0148082
749.781	0.0148257
749.859	0.0150108
749.937	0.0148241
750.015	0.0148424
750.093	0.0148776
750.171	0.0146653
750.249	0.0146894
750.328	0.0147411
750.406	0.0147989
750.484	0.0146409
750.562	0.0146870
750.640	0.0147953
750.718	0.0145932
750.796	0.0146825
750.874	0.0147923
750.953	0.0147105
751.031	0.0145609
751.109	0.0146530
751.187	0.0146925
751.265	0.0146424
751.343	0.0146613
751.421	0.0146659
751.499	0.0146885
751.578	0.0146581
751.656	0.0147865
751.734	0.0146366
751.812	0.0146293
751.890	0.0147218
751.968	0.0146880
752.046	0.0147185
752.124	0.0145692
752.203	0.0148126
752.281	0.0146957
752.359	0.0147423
752.437	0.0147123
752.515	0.0146201
752.593	0.0146856
752.671	0.0147710
752.749	0.0146672
752.828	0.0148379
752.906	0.0147085
752.984	0.0146352
753.062	0.0147707
753.140	0.0147874
753.218	0.0147051
753.296	0.0147066
753.374	0.0146813
753.453	0.0146654
753.531	0.0148560
753.609	0.0147033
753.687	0.0146631
753.765	0.0147187
753.843	0.0145963
753.921	0.0146986
753.999	0.0148022
754.078	0.0147228
754.156	0.0147002
754.234	0.0147449
754.312	0.0147108
754.390	0.0146186
754.468	0.0147094
754.546	0.0149894
754.624	0.0147268
754.703	0.0146581
754.781	0.0147464
754.859	0.0146512
754.937	0.0146903
755.015	0.0147808
755.093	0.0147276
755.171	0.0146856
755.249	0.0147325
755.328	0.0146868
755.406	0.0148143
755.484	0.0148033
755.562	0.0149148
755.640	0.0149427
755.718	0.0147588
755.796	0.0147804
755.874	0.0148145
755.953	0.0147387
756.031	0.0147859
756.109	0.0148012
756.187	0.0148928
756.265	0.0147878
756.343	0.0147487
756.421	0.0149090
756.499	0.0148300
756.578	0.0147060
756.656	0.0147135
756.734	0.0146548
756.812	0.0147256
756.890	0.0148631
756.968	0.0147509
757.046	0.0147105
757.124	0.0147893
757.203	0.0147271
757.281	0.0147359
757.359	0.0146402
757.437	0.0146217
757.515	0.0147227
757.593	0.0146989
757.671	0.0147512
757.749	0.0147674
757.828	0.0147925
757.906	0.0146156
757.984	0.0147719
758.062	0.0146114
758.140	0.0146277
758.218	0.0147108
758.296	0.0147063
758.374	0.0147816
758.453	0.0148444
758.531	0.0147524
758.609	0.0147067
758.687	0.0148183
758.765	0.0148875
758.843	0.0147892
758.921	0.0148405
758.999	0.0149065
759.078	0.0148400
759.156	0.0148746
759.234	0.0147867
759.312	0.0148912
759.390	0.0148718
759.468	0.0148159
759.546	0.0148109
759.624	0.0149369
759.703	0.0149116
759.781	0.0148698
759.859	0.0148249
759.937	0.0148190
760.015	0.0149388
760.093	0.0149804
760.171	0.0149323
760.249	0.0150282
760.328	0.0150292
760.406	0.0149358
760.484	0.0150126
760.562	0.0149786
760.640	0.0148196
760.718	0.0148438
760.796	0.0149211
760.874	0.0147802
760.953	0.0147299
761.031	0.0148077
761.109	0.0147742
761.187	0.0147784
761.265	0.0147186
761.343	0.0146745
761.421	0.0146811
761.499	0.0146655
761.578	0.0146986
761.656	0.0147828
761.734	0.0147625
761.812	0.0147783
761.890	0.0148841
761.968	0.0146751
762.046	0.0147152
762.124	0.0146719
762.203	0.0147393
762.281	0.0147413
762.359	0.0148458
762.437	0.0149191
762.515	0.0147366
762.593	0.0148009
762.671	0.0147784
762.749	0.0148691
762.828	0.0147527
762.906	0.0148206
762.984	0.0148198
763.062	0.0149730
763.140	0.0148586
763.218	0.0150514
763.296	0.0149780
763.374	0.0149531
763.453	0.0148847
763.531	0.0148402
763.609	0.0150396
763.687	0.0149308
763.765	0.0150006
763.843	0.0150425
763.921	0.0149123
763.999	0.0150945
764.078	0.0151077
764.156	0.0150355
764.234	0.0150909
764.312	0.0150024
764.390	0.0149313
764.468	0.0148595
764.546	0.0148869
764.624	0.0149423
764.703	0.0148882
764.781	0.0150030
764.859	0.0148315
764.937	0.0147849
765.015	0.0147760
765.093	0.0148085
765.171	0.0148389
765.249	0.0148041
765.328	0.0146796
765.406	0.0147507
765.484	0.0149253
765.562	0.0148479
765.640	0.0148677
765.718	0.0148116
765.796	0.0147751
765.874	0.0148113
765.953	0.0147688
766.031	0.0147903
766.109	0.0148859
766.187	0.0147780
766.265	0.0148517
766.343	0.0147894
766.421	0.0148814
766.499	0.0148906
766.578	0.0148401
766.656	0.0148686
766.734	0.0149818
766.812	0.0148681
766.890	0.0148985
766.968	0.0149634
767.046	0.0149466
767.124	0.0149033
767.203	0.0148911
767.281	0.0150591
767.359	0.0148851
767.437	0.0149079
767.515	0.0149187
767.593	0.0148615
767.671	0.0147842
767.749	0.0147803
767.828	0.0148156
767.906	0.0148115
767.984	0.0146946
768.062	0.0147433
768.140	0.0146550
768.218	0.0147109
768.296	0.0146523
768.374	0.0145414
768.453	0.0145718
768.531	0.0146484
768.609	0.0146476
768.687	0.0145365
768.765	0.0147430
768.843	0.0147157
768.921	0.0147212
768.999	0.0148048
769.078	0.0146726
769.156	0.0147703
769.234	0.0148146
769.312	0.0148380
769.390	0.0148560
769.468	0.0148827
769.546	0.0150049
769.624	0.0149561
769.703	0.0148462
769.781	0.0148701
769.859	0.0148753
769.937	0.0148248
770.015	0.0147977
770.093	0.0148914
770.171	0.0148348
770.249	0.0146815
770.328	0.0147090
770.406	0.0147024
770.484	0.0148351
770.562	0.0148156
770.640	0.0147491
770.718	0.0147417
770.796	0.0147761
770.874	0.0147195
770.953	0.0148325
771.031	0.0149243
771.109	0.0146634
771.187	0.0147255
771.265	0.0147845
771.343	0.0147576
771.421	0.0147800
771.499	0.0147196
771.578	0.0146710
771.656	0.0146555
771.734	0.0147249
771.812	0.0147298
771.890	0.0146768
771.968	0.0148615
772.046	0.0146900
772.124	0.0148074
772.203	0.0147498
772.281	0.0147955
772.359	0.0147908
772.437	0.0147446
772.515	0.0147581
772.593	0.0147784
772.671	0.0149783
772.749	0.0146785
772.828	0.0148705
772.906	0.0147387
772.984	0.0147443
773.062	0.0148038
773.140	0.0148559
773.218	0.0146526
773.296	0.0147900
773.374	0.0146012
773.453	0.0146808
773.531	0.0148231
773.609	0.0147002
773.687	0.0147340
773.765	0.0147967
773.843	0.0146803
773.921	0.0145895
773.999	0.0147790
774.078	0.0147183
774.156	0.0147829
774.234	0.0149837
774.312	0.0149649
774.390	0.0148196
774.468	0.0148002
774.546	0.0150030
774.624	0.0148565
774.703	0.0149017
774.781	0.0148792
774.859	0.0149497
774.937	0.0148347
775.015	0.0148129
775.093	0.0148387
775.171	0.0146819
775.249	0.0147872
775.328	0.0146412
775.406	0.0145529
775.484	0.0146364
775.562	0.0146915
775.640	0.0146235
775.718	0.0147369
775.796	0.0146866
775.874	0.0145174
775.953	0.0146539
776.031	0.0146630
776.109	0.0148154
776.187	0.0149002
776.265	0.0147767
776.343	0.0147493
776.421	0.0149043
776.499	0.0148267
776.578	0.0149034
776.656	0.0148511
776.734	0.0149347
776.812	0.0148341
776.890	0.0148203
776.968	0.0150110
777.046	0.0148592
777.124	0.0150011
777.203	0.0148209
777.281	0.0148634
777.359	0.0150530
777.437	0.0149637
777.515	0.0148618
777.593	0.0149100
777.671	0.0148398
777.749	0.0147649
777.828	0.0147449
777.906	0.0147581
777.984	0.0146971
778.062	0.0146753
778.140	0.0148361
778.218	0.0147815
778.296	0.0145951
778.374	0.0146937
778.453	0.0148219
778.531	0.0146451
778.609	0.0146191
778.687	0.0146449
778.765	0.0147214
778.843	0.0146285
778.921	0.0146577
778.999	0.0146148
779.078	0.0146774
779.156	0.0148323
779.234	0.0148876
779.312	0.0147140
779.390	0.0147649
779.468	0.0148685
779.546	0.0147026
779.624	0.0147463
779.703	0.0148131
779.781	0.0148811
779.859	0.0147815
779.937	0.0146394
780.015	0.0147519
780.093	0.0147740
780.171	0.0148460
780.249	0.0148526
780.328	0.0148734
780.406	0.0148278
780.484	0.0148419
780.562	0.0147361
780.640	0.0148402
780.718	0.0148597
780.796	0.0147781
780.874	0.0147759
780.953	0.0147836
781.031	0.0148362
781.109	0.0148339
781.187	0.0148695
781.265	0.0148455
781.343	0.0147662
781.421	0.0148457
781.499	0.0147830
781.578	0.0147037
781.656	0.0148340
781.734	0.0148943
781.812	0.0149148
781.890	0.0147616
781.968	0.0148515
782.046	0.0147513
782.124	0.0147839
782.203	0.0149323
782.281	0.0147856
782.359	0.0149487
782.437	0.0148091
782.515	0.0147829
782.593	0.0148965
782.671	0.0148675
782.749	0.0149058
782.828	0.0149702
782.906	0.0149658
782.984	0.0149734
783.062	0.0148120
783.140	0.0148644
783.218	0.0147607
783.296	0.0146629
783.374	0.0148619
783.453	0.0147233
783.531	0.0146931
783.609	0.0147898
783.687	0.0148405
783.765	0.0147887
783.843	0.0148629
783.921	0.0147768
783.999	0.0147745
784.078	0.0146981
784.156	0.0147607
784.234	0.0149261
784.312	0.0148178
784.390	0.0148868
784.468	0.0150453
784.546	0.0149521
784.624	0.0150002
784.703	0.0147852
784.781	0.0150311
784.859	0.0151112
784.937	0.0148650
785.015	0.0149883
785.093	0.0150072
785.171	0.0149419
785.249	0.0148427
785.328	0.0149197
785.406	0.0148557
785.484	0.0149072
785.562	0.0148703
785.640	0.0147698
785.718	0.0146440
785.796	0.0146016
785.874	0.0146687
785.953	0.0146311
786.031	0.0144768
786.109	0.0146159
786.187	0.0147129
786.265	0.0145642
786.343	0.0147760
786.421	0.0147421
786.499	0.0147015
786.578	0.0146745
786.656	0.0147380
786.734	0.0147191
786.812	0.0147440
786.890	0.0147559
786.968	0.0148967
787.046	0.0148930
787.124	0.0148949
787.203	0.0150335
787.281	0.0149300
787.359	0.0148499
787.437	0.0149561
787.515	0.0148941
787.593	0.0150308
787.671	0.0149574
787.749	0.0148631
787.828	0.0147838
787.906	0.0148666
787.984	0.0147901
788.062	0.0147423
788.140	0.0148145
788.218	0.0146921
788.296	0.0146701
788.374	0.0147626
788.453	0.0148445
788.531	0.0148315
788.609	0.0147382
788.687	0.0147516
788.765	0.0148112
788.843	0.0146164
788.921	0.0146973
788.999	0.0145437
789.078	0.0147417
789.156	0.0148038
789.234	0.0147333
789.312	0.0147595
789.390	0.0146899
789.468	0.0149493
789.546	0.0149193
789.624	0.0145585
789.703	0.0147530
789.781	0.0147981
789.859	0.0147970
789.937	0.0148969
790.015	0.0147568
790.093	0.0147315
790.171	0.0146938
790.249	0.0146897
790.328	0.0148930
790.406	0.0146760
790.484	0.0146816
790.562	0.0147126
790.640	0.0146144
790.718	0.0145981
790.796	0.0146661
790.874	0.0145926
790.953	0.0147109
791.031	0.0146721
791.109	0.0147372
791.187	0.0146744
791.265	0.0146050
791.343	0.0146307
791.421	0.0146169
791.499	0.0145480
791.578	0.0147802
791.656	0.0146967
791.734	0.0147675
791.812	0.0148306
791.890	0.0149987
791.968	0.0148482
792.046	0.0148639
792.124	0.0149398
792.203	0.0149052
792.281	0.0148746
792.359	0.0147816
792.437	0.0148967
792.515	0.0148729
792.593	0.0149374
792.671	0.0148116
792.749	0.0146549
792.828	0.0146646
792.906	0.0148497
792.984	0.0148032
793.062	0.0148511
793.140	0.0149149
793.218	0.0147350
793.296	0.0146617
793.374	0.0147654
793.453	0.0148427
793.531	0.0147512
793.609	0.0146804
793.687	0.0147340
793.765	0.0147088
793.843	0.0147175
793.921	0.0149352
793.999	0.0147311
794.078	0.0148480
794.156	0.0146236
794.234	0.0147646
794.312	0.0148732
794.390	0.0147736
794.468	0.0147546
794.546	0.0148756
794.624	0.0150177
794.703	0.0147949
794.781	0.0148203
794.859	0.0149492
794.937	0.0149670
795.015	0.0148576
795.093	0.0148563
795.171	0.0150491
795.249	0.0150694
795.328	0.0147439
795.406	0.0148147
795.484	0.0149633
795.562	0.0148065
795.640	0.0147124
795.718	0.0149062
795.796	0.0149046
795.874	0.0147842
795.953	0.0148904
796.031	0.0148449
796.109	0.0145908
796.187	0.0147128
796.265	0.0147865
796.343	0.0148312
796.421	0.0149148
796.499	0.0148254
796.578	0.0147491
796.656	0.0148026
796.734	0.0147983
796.812	0.0147331
796.890	0.0147876
796.968	0.0148834
797.046	0.0149391
797.124	0.0148392
797.203	0.0149232
797.281	0.0147724
797.359	0.0149204
797.437	0.0150536
797.515	0.0148917
797.593	0.0148985
797.671	0.0149231
797.749	0.0148946
797.828	0.0149463
797.906	0.0150040
797.984	0.0150143
798.062	0.0148465
798.140	0.0147996
798.218	0.0149076
798.296	0.0148666
798.374	0.0148526
798.453	0.0149944
798.531	0.0149928
798.609	0.0148301
798.687	0.0148082
798.765	0.0148064
798.843	0.0148454
798.921	0.0149563
798.999	0.0150090
799.078	0.0148651
799.156	0.0148324
799.234	0.0148582
799.312	0.0150161
799.390	0.0149753
799.468	0.0148859
799.546	0.0149476
799.624	0.0148641
799.703	0.0149016
799.781	0.0148163
799.859	0.0149490
799.937	0.0146793
800.015	0.0149210
800.093	0.0147655
800.171	0.0148280
800.249	0.0149259
800.328	0.0147800
800.406	0.0148427
800.484	0.0148090
800.562	0.0147712
800.640	0.0148457
800.718	0.0147674
800.796	0.0147585
800.874	0.0147295
800.953	0.0147480
801.031	0.0147791
801.109	0.0147433
801.187	0.0147102
801.265	0.0148190
801.343	0.0147902
801.421	0.0148166
801.499	0.0146837
801.578	0.0150043
801.656	0.0148765
801.734	0.0146817
801.812	0.0148141
801.890	0.0149303
801.968	0.0148793
802.046	0.0147877
802.124	0.0149477
802.203	0.0149399
802.281	0.0147553
802.359	0.0147533
802.437	0.0147636
802.515	0.0147414
802.593	0.0145753
802.671	0.0146715
802.749	0.0147463
802.828	0.0147980
802.906	0.0147273
802.984	0.0146692
803.062	0.0145748
803.140	0.0146376
803.218	0.0146537
803.296	0.0147854
803.374	0.0146570
803.453	0.0146472
803.531	0.0146080
803.609	0.0145840
803.687	0.0147457
803.765	0.0148103
803.843	0.0146835
803.921	0.0147639
803.999	0.0148120
804.078	0.0147509
804.156	0.0147081
804.234	0.0147471
804.312	0.0147855
804.390	0.0148510
804.468	0.0149106
804.546	0.0149361
804.624	0.0148833
804.703	0.0148100
804.781	0.0148773
804.859	0.0148232
804.937	0.0148351
805.015	0.0148552
805.093	0.0147474
805.171	0.0148196
805.249	0.0149294
805.328	0.0148572
805.406	0.0146098
805.484	0.0148382
805.562	0.0148711
805.640	0.0148016
805.718	0.0147305
805.796	0.0148930
805.874	0.0147469
805.953	0.0147800
806.031	0.0148932
806.109	0.0149419
806.187	0.0147764
806.265	0.0148638
806.343	0.0148335
806.421	0.0147585
806.499	0.0147725
806.578	0.0146726
806.656	0.0147326
806.734	0.0147617
806.812	0.0148444
806.890	0.0148194
806.968	0.0147455
807.046	0.0147987
807.124	0.0148314
807.203	0.0147120
807.281	0.0146783
807.359	0.0146798
807.437	0.0147166
807.515	0.0148048
807.593	0.0148753
807.671	0.0146770
807.749	0.0147346
807.828	0.0146910
807.906	0.0148075
807.984	0.0147432
808.062	0.0149776
808.140	0.0148366
808.218	0.0148064
808.296	0.0147961
808.374	0.0147379
808.453	0.0148533
808.531	0.0148062
808.609	0.0148027
808.687	0.0147243
808.765	0.0147835
808.843	0.0147697
808.921	0.0148099
808.999	0.0148672
809.078	0.0147176
809.156	0.0147987
809.234	0.0147504
809.312	0.0147345
809.390	0.0148586
809.468	0.0148279
809.546	0.0147602
809.624	0.0148845
809.703	0.0147213
809.781	0.0146774
809.859	0.0147673
809.937	0.0147292
810.015	0.0147233
810.093	0.0146787
810.171	0.0146542
810.249	0.0147746
810.328	0.0146745
810.406	0.0148305
810.484	0.0147598
810.562	0.0147144
810.640	0.0147791
810.718	0.0147991
810.796	0.0147108
810.874	0.0146383
810.953	0.0146096
811.031	0.0146892
811.109	0.0146004
811.187	0.0146587
811.265	0.0145594
811.343	0.0146191
811.421	0.0146376
811.499	0.0146723
811.578	0.0146867
811.656	0.0146302
811.734	0.0147393
811.812	0.0146748
811.890	0.0146522
811.968	0.0146486
812.046	0.0147005
812.124	0.0147295
812.203	0.0148324
812.281	0.0148006
812.359	0.0148392
812.437	0.0147496
812.515	0.0147250
812.593	0.0148601
812.671	0.0148112
812.749	0.0149143
812.828	0.0148753
812.906	0.0147838
812.984	0.0147136
813.062	0.0147458
813.140	0.0147002
813.218	0.0148553
813.296	0.0148046
813.374	0.0148151
813.453	0.0146784
813.531	0.0148289
813.609	0.0147950
813.687	0.0147218
813.765	0.0147559
813.843	0.0147278
813.921	0.0147813
813.999	0.0149158
814.078	0.0147761
814.156	0.0146440
814.234	0.0148701
814.312	0.0148207
814.390	0.0147369
814.468	0.0147313
814.546	0.0147369
814.624	0.0147095
814.703	0.0147301
814.781	0.0147606
814.859	0.0146357
814.937	0.0148252
815.015	0.0147675
815.093	0.0144619
815.171	0.0145621
815.249	0.0146878
815.328	0.0147316
815.406	0.0145795
815.484	0.0147325
815.562	0.0146212
815.640	0.0146933
815.718	0.0147206
815.796	0.0147753
815.874	0.0147630
815.953	0.0147302
816.031	0.0147805
816.109	0.0148145
816.187	0.0147685
816.265	0.0148717
816.343	0.0147874
816.421	0.0148144
816.499	0.0148220
816.578	0.0147473
816.656	0.0148219
816.734	0.0149126
816.812	0.0149823
816.890	0.0149071
816.968	0.0148101
817.046	0.0148222
817.124	0.0150150
817.203	0.0149419
817.281	0.0148100
817.359	0.0148859
817.437	0.0148161
817.515	0.0148700
817.593	0.0148825
817.671	0.0148171
817.749	0.0147408
817.828	0.0148424
817.906	0.0148289
817.984	0.0146371
818.062	0.0148095
818.140	0.0148360
818.218	0.0147229
818.296	0.0146682
818.374	0.0148784
818.453	0.0149867
818.531	0.0147514
818.609	0.0149149
818.687	0.0148669
818.765	0.0147846
818.843	0.0147507
818.921	0.0148308
818.999	0.0148122
819.078	0.0147747
819.156	0.0147981
819.234	0.0149181
819.312	0.0148360
819.390	0.0147002
819.468	0.0147674
819.546	0.0147433
819.624	0.0147193
819.703	0.0146414
819.781	0.0148361
819.859	0.0147183
819.937	0.0147314
820.015	0.0146421
820.093	0.0146464
820.171	0.0148016
820.249	0.0146479
820.328	0.0147609
820.406	0.0148310
820.484	0.0147547
820.562	0.0148871
820.640	0.0149279
820.718	0.0147779
820.796	0.0148455
820.874	0.0148808
820.953	0.0149275
821.031	0.0148972
821.109	0.0148572
821.187	0.0150708
821.265	0.0148530
821.343	0.0147587
821.421	0.0149319
821.499	0.0149773
821.578	0.0149744
821.656	0.0149380
821.734	0.0149413
821.812	0.0147878
821.890	0.0147868
821.968	0.0149575
822.046	0.0149067
822.124	0.0148954
822.203	0.0147598
822.281	0.0149284
822.359	0.0149034
822.437	0.0147426
822.515	0.0148884
822.593	0.0147503
822.671	0.0147657
822.749	0.0147660
822.828	0.0147961
822.906	0.0149391
822.984	0.0147670
823.062	0.0147402
823.140	0.0146948
823.218	0.0146609
823.296	0.0146932
823.374	0.0147359
823.453	0.0146694
823.531	0.0146943
823.609	0.0147583
823.687	0.0147447
823.765	0.0148406
823.843	0.0148119
823.921	0.0148502
823.999	0.0148250
824.078	0.0148904
824.156	0.0148849
824.234	0.0150124
824.312	0.0147210
824.390	0.0148304
824.468	0.0147902
824.546	0.0149782
824.624	0.0148716
824.703	0.0147524
824.781	0.0148935
824.859	0.0147369
824.937	0.0147520
825.015	0.0147201
825.093	0.0147234
825.171	0.0147307
825.249	0.0147529
825.328	0.0148441
825.406	0.0146185
825.484	0.0145503
825.562	0.0146379
825.640	0.0146332
825.718	0.0146883
825.796	0.0146687
825.874	0.0146964
825.953	0.0146093
826.031	0.0146800
826.109	0.0147619
826.187	0.0147225
826.265	0.0146937
826.343	0.0147987
826.421	0.0148654
826.499	0.0148273
826.578	0.0149506
826.656	0.0147665
826.734	0.0148650
826.812	0.0148675
826.890	0.0149979
826.968	0.0148126
827.046	0.0147688
827.124	0.0149333
827.203	0.0148740
827.281	0.0148169
827.359	0.0148116
827.437	0.0145714
827.515	0.0146034
827.593	0.0147301
827.671	0.0147446
827.749	0.0145464
827.828	0.0145338
827.906	0.0145379
827.984	0.0147098
828.062	0.0146943
828.140	0.0146702
828.218	0.0146891
828.296	0.0146928
828.374	0.0147503
828.453	0.0146980
828.531	0.0147638
828.609	0.0147652
828.687	0.0148946
828.765	0.0148943
828.843	0.0148943
828.921	0.0148476
828.999	0.0148900
829.078	0.0147986
829.156	0.0149229
829.234	0.0149080
829.312	0.0147056
829.390	0.0148488
829.468	0.0147767
829.546	0.0147407
829.624	0.0147664
829.703	0.0147294
829.781	0.0146828
829.859	0.0147946
829.937	0.0146178
830.015	0.0146567
830.093	0.0146416
830.171	0.0145171
830.249	0.0144735
830.328	0.0145309
830.406	0.0146136
830.484	0.0145419
830.562	0.0146827
830.640	0.0144611
830.718	0.0144295
830.796	0.0145801
830.874	0.0145576
830.953	0.0145825
831.031	0.0145439
831.109	0.0145088
831.187	0.0146265
831.265	0.0145958
831.343	0.0146655
831.421	0.0147026
831.499	0.0145507
831.578	0.0146349
831.656	0.0147144
831.734	0.0146298
831.812	0.0146576
831.890	0.0147059
831.968	0.0146088
832.046	0.0147330
832.124	0.0146648
832.203	0.0147619
832.281	0.0145825
832.359	0.0147041
832.437	0.0146548
832.515	0.0147553
832.593	0.0147681
832.671	0.0145002
832.749	0.0146611
832.828	0.0145486
832.906	0.0147136
832.984	0.0147557
833.062	0.0148412
833.140	0.0147389
833.218	0.0148194
833.296	0.0147832
833.374	0.0148363
833.453	0.0147786
833.531	0.0147539
833.609	0.0147710
833.687	0.0148006
833.765	0.0148766
833.843	0.0147643
833.921	0.0147648
833.999	0.0148681
834.078	0.0147281
834.156	0.0148446
834.234	0.0148067
834.312	0.0148937
834.390	0.0146993
834.468	0.0146868
834.546	0.0150055
834.624	0.0147781
834.703	0.0147321
834.781	0.0147350
834.859	0.0147153
834.937	0.0147740
835.015	0.0147124
835.093	0.0145674
835.171	0.0146297
835.249	0.0146854
835.328	0.0147780
835.406	0.0147055
835.484	0.0147852
835.562	0.0146475
835.640	0.0147476
835.718	0.0146029
835.796	0.0147897
835.874	0.0148401
835.953	0.0148309
836.031	0.0148013
836.109	0.0147546
836.187	0.0146835
836.265	0.0150039
836.343	0.0148759
836.421	0.0147586
836.499	0.0148778
836.578	0.0148887
836.656	0.0148399
836.734	0.0147901
836.812	0.0149645
836.890	0.0151537
836.968	0.0147476
837.046	0.0149191
837.124	0.0150086
837.203	0.0149158
837.281	0.0149412
837.359	0.0147856
837.437	0.0148481
837.515	0.0148629
837.593	0.0146904
837.671	0.0146610
837.749	0.0147636
837.828	0.0147262
837.906	0.0145657
837.984	0.0146722
838.062	0.0146497
838.140	0.0146534
838.218	0.0147127
838.296	0.0146291
838.374	0.0146089
838.453	0.0146574
838.531	0.0146215
838.609	0.0146431
838.687	0.0147424
838.765	0.0146729
838.843	0.0146317
838.921	0.0146965
838.999	0.0147348
839.078	0.0146839
839.156	0.0147546
839.234	0.0148149
839.312	0.0148003
839.390	0.0147759
839.468	0.0146816
839.546	0.0149265
839.624	0.0147678
839.703	0.0149231
839.781	0.0148199
839.859	0.0146579
839.937	0.0148608
840.015	0.0148391
840.093	0.0149817
840.171	0.0147620
840.249	0.0146833
840.328	0.0147384
840.406	0.0148798
840.484	0.0147845
840.562	0.0148247
840.640	0.0148434
840.718	0.0148107
840.796	0.0147174
840.874	0.0148059
840.953	0.0147135
841.031	0.0148743
841.109	0.0149516
841.187	0.0148205
841.265	0.0148199
841.343	0.0147964
841.421	0.0147716
841.499	0.0147572
841.578	0.0149059
841.656	0.0148129
841.734	0.0147400
841.812	0.0147997
841.890	0.0147920
841.968	0.0147568
842.046	0.0149725
842.124	0.0148219
842.203	0.0147937
842.281	0.0147208
842.359	0.0147372
842.437	0.0147731
842.515	0.0147365
842.593	0.0147472
842.671	0.0147453
842.749	0.0147233
842.828	0.0147545
842.906	0.0148141
842.984	0.0148074
843.062	0.0147395
843.140	0.0146069
843.218	0.0149122
843.296	0.0147323
843.374	0.0147308
843.453	0.0147680
843.531	0.0148454
843.609	0.0148687
843.687	0.0148378
843.765	0.0148339
843.843	0.0147958
843.921	0.0148470
843.999	0.0148413
844.078	0.0148785
844.156	0.0148750
844.234	0.0147434
844.312	0.0148114
844.390	0.0146883
844.468	0.0147800
844.546	0.0147034
844.624	0.0148472
844.703	0.0146739
844.781	0.0146255
844.859	0.0146469
844.937	0.0147009
845.015	0.0145879
845.093	0.0145664
845.171	0.0144646
845.249	0.0145270
845.328	0.0145989
845.406	0.0145999
845.484	0.0146342
845.562	0.0145567
845.640	0.0146609
845.718	0.0146695
845.796	0.0145183
845.874	0.0146689
845.953	0.0146964
846.031	0.0147456
846.109	0.0147656
846.187	0.0146925
846.265	0.0148555
846.343	0.0148059
846.421	0.0146893
846.499	0.0148834
846.578	0.0148458
846.656	0.0147698
846.734	0.0148468
846.812	0.0147856
846.890	0.0148225
846.968	0.0147858
847.046	0.0147665
847.124	0.0148280
847.203	0.0148334
847.281	0.0147615
847.359	0.0147971
847.437	0.0148615
847.515	0.0148506
847.593	0.0148904
847.671	0.0147717
847.749	0.0147969
847.828	0.0146998
847.906	0.0147791
847.984	0.0148396
848.062	0.0147532
848.140	0.0147124
848.218	0.0146755
848.296	0.0147057
848.374	0.0147839
848.453	0.0146806
848.531	0.0146095
848.609	0.0145969
848.687	0.0146198
848.765	0.0148244
848.843	0.0147388
848.921	0.0146049
848.999	0.0146149
849.078	0.0146877
849.156	0.0146821
849.234	0.0146582
849.312	0.0147847
849.390	0.0147813
849.468	0.0146844
849.546	0.0147057
849.624	0.0147986
849.703	0.0148483
849.781	0.0148228
849.859	0.0147298
849.937	0.0147259
850.015	0.0147211
850.093	0.0146800
850.171	0.0147404
850.249	0.0147672
850.328	0.0147293
850.406	0.0147595
850.484	0.0148096
850.562	0.0147198
850.640	0.0146564
850.718	0.0147504
850.796	0.0147510
850.874	0.0148295
850.953	0.0149397
851.031	0.0148296
851.109	0.0146577
851.187	0.0148309
851.265	0.0148482
851.343	0.0148660
851.421	0.0147783
851.499	0.0148483
851.578	0.0148096
851.656	0.0146978
851.734	0.0147850
851.812	0.0147864
851.890	0.0147836
851.968	0.0147287
852.046	0.0146188
852.124	0.0147220
852.203	0.0146893
852.281	0.0146126
852.359	0.0145207
852.437	0.0145953
852.515	0.0146725
852.593	0.0145931
852.671	0.0145632
852.749	0.0145524
852.828	0.0146703
852.906	0.0145855
852.984	0.0144492
853.062	0.0144910
853.140	0.0146879
853.218	0.0146511
853.296	0.0146510
853.374	0.0148139
853.453	0.0146392
853.531	0.0146409
853.609	0.0146406
853.687	0.0147668
853.765	0.0146095
853.843	0.0146745
853.921	0.0146786
853.999	0.0147578
854.078	0.0147504
854.156	0.0147702
854.234	0.0147935
854.312	0.0148668
854.390	0.0149216
854.468	0.0148999
854.546	0.0147841
854.624	0.0148061
854.703	0.0148000
854.781	0.0147916
854.859	0.0149454
854.937	0.0148212
855.015	0.0148586
855.093	0.0147514
855.171	0.0147701
855.249	0.0148532
855.328	0.0148412
855.406	0.0148026
855.484	0.0148714
855.562	0.0147997
855.640	0.0147776
855.718	0.0147291
855.796	0.0148161
855.874	0.0147896
855.953	0.0146546
856.031	0.0147171
856.109	0.0147650
856.187	0.0148416
856.265	0.0147880
856.343	0.0148353
856.421	0.0148378
856.499	0.0147777
856.578	0.0147823
856.656	0.0148639
856.734	0.0147780
856.812	0.0148596
856.890	0.0148418
856.968	0.0148917
857.046	0.0148486
857.124	0.0147673
857.203	0.0148678
857.281	0.0147718
857.359	0.0147139
857.437	0.0147830
857.515	0.0147846
857.593	0.0148135
857.671	0.0148920
857.749	0.0148756
857.828	0.0149028
857.906	0.0148364
857.984	0.0148999
858.062	0.0149064
858.140	0.0149063
858.218	0.0150504
858.296	0.0149870
858.374	0.0148901
858.453	0.0148979
858.531	0.0149552
858.609	0.0149679
858.687	0.0149069
858.765	0.0149062
858.843	0.0150196
858.921	0.0148975
858.999	0.0149270
859.078	0.0149164
859.156	0.0148398
859.234	0.0148306
859.312	0.0148347
859.390	0.0148213
859.468	0.0147772
859.546	0.0148643
859.624	0.0148042
859.703	0.0148321
859.781	0.0148378
859.859	0.0148548
859.937	0.0148055
860.015	0.0148848
860.093	0.0148232
860.171	0.0148565
860.249	0.0147914
860.328	0.0148108
860.406	0.0146709
860.484	0.0147962
860.562	0.0148711
860.640	0.0147170
860.718	0.0146393
860.796	0.0147279
860.874	0.0146644
860.953	0.0148439
861.031	0.0148183
861.109	0.0149127
861.187	0.0146761
861.265	0.0146432
861.343	0.0147502
861.421	0.0148489
861.499	0.0149509
861.578	0.0148576
861.656	0.0147013
861.734	0.0148309
861.812	0.0149198
861.890	0.0148324
861.968	0.0149422
862.046	0.0149866
862.124	0.0149420
862.203	0.0149333
862.281	0.0147613
862.359	0.0148225
862.437	0.0148943
862.515	0.0148221
862.593	0.0148825
862.671	0.0148496
862.749	0.0149406
862.828	0.0148835
862.906	0.0148802
862.984	0.0147861
863.062	0.0147109
863.140	0.0147705
863.218	0.0146918
863.296	0.0146643
863.374	0.0147701
863.453	0.0146588
863.531	0.0146732
863.609	0.0147267
863.687	0.0146368
863.765	0.0145786
863.843	0.0147247
863.921	0.0146180
863.999	0.0146248
864.078	0.0146877
864.156	0.0146658
864.234	0.0146472
864.312	0.0146709
864.390	0.0145586
864.468	0.0146497
864.546	0.0145646
864.624	0.0147060
864.703	0.0148432
864.781	0.0147729
864.859	0.0148952
864.937	0.0147048
865.015	0.0148042
865.093	0.0148479
865.171	0.0147646
865.249	0.0146812
865.328	0.0146849
865.406	0.0148109
865.484	0.0147901
865.562	0.0148486
865.640	0.0147196
865.718	0.0146297
865.796	0.0148311
865.874	0.0149522
865.953	0.0147682
866.031	0.0146888
866.109	0.0147872
866.187	0.0148632
866.265	0.0148060
866.343	0.0148214
866.421	0.0149025
866.499	0.0148325
866.578	0.0146597
866.656	0.0146786
866.734	0.0148000
866.812	0.0148283
866.890	0.0147886
866.968	0.0147191
867.046	0.0147800
867.124	0.0148365
867.203	0.0146844
867.281	0.0148575
867.359	0.0149420
867.437	0.0148248
867.515	0.0147738
867.593	0.0148941
867.671	0.0148357
867.749	0.0149049
867.828	0.0148582
867.906	0.0148405
867.984	0.0148897
868.062	0.0148052
868.140	0.0147388
868.218	0.0148029
868.296	0.0148683
868.374	0.0148392
868.453	0.0150523
868.531	0.0149603
868.609	0.0149228
868.687	0.0148488
868.765	0.0149188
868.843	0.0148868
868.921	0.0148209
868.999	0.0148308
869.078	0.0147783
869.156	0.0147433
869.234	0.0147707
869.312	0.0148311
869.390	0.0147889
869.468	0.0149104
869.546	0.0148888
869.624	0.0147865
869.703	0.0147466
869.781	0.0145690
869.859	0.0147555
869.937	0.0146633
870.015	0.0146902
870.093	0.0148034
870.171	0.0145950
870.249	0.0146725
870.328	0.0147118
870.406	0.0146963
870.484	0.0148184
870.562	0.0148096
870.640	0.0145700
870.718	0.0144839
870.796	0.0147053
870.874	0.0148764
870.953	0.0148117
871.031	0.0147430
871.109	0.0146186
871.187	0.0148096
871.265	0.0146220
871.343	0.0147714
871.421	0.0148185
871.499	0.0148567
871.578	0.0147883
871.656	0.0147173
871.734	0.0147545
871.812	0.0149003
871.890	0.0148614
871.968	0.0149151
872.046	0.0148064
872.124	0.0147186
872.203	0.0147702
872.281	0.0147115
872.359	0.0148213
872.437	0.0146825
872.515	0.0148795
872.593	0.0146568
872.671	0.0147001
872.749	0.0147849
872.828	0.0147946
872.906	0.0148106
872.984	0.0146890
873.062	0.0147259
873.140	0.0148710
873.218	0.0147558
873.296	0.0147619
873.374	0.0147498
873.453	0.0147473
873.531	0.0146745
873.609	0.0148022
873.687	0.0147674
873.765	0.0147424
873.843	0.0147247
873.921	0.0147319
873.999	0.0147807
874.078	0.0148126
874.156	0.0148018
874.234	0.0148192
874.312	0.0148559
874.390	0.0149282
874.468	0.0148456
874.546	0.0149129
874.624	0.0148559
874.703	0.0148695
874.781	0.0148524
874.859	0.0148248
874.937	0.0148533
875.015	0.0147382
875.093	0.0149356
875.171	0.0148498
875.249	0.0147448
875.328	0.0147566
875.406	0.0148020
875.484	0.0147979
875.562	0.0148161
875.640	0.0147659
875.718	0.0148003
875.796	0.0147743
875.874	0.0148947
875.953	0.0148180
876.031	0.0147171
876.109	0.0147208
876.187	0.0146167
876.265	0.0147031
876.343	0.0148211
876.421	0.0147597
876.499	0.0148313
876.578	0.0147113
876.656	0.0147495
876.734	0.0147177
876.812	0.0147464
876.890	0.0146384
876.968	0.0146916
877.046	0.0148498
877.124	0.0148360
877.203	0.0146973
877.281	0.0147710
877.359	0.0147955
877.437	0.0148414
877.515	0.0149085
877.593	0.0149489
877.671	0.0148878
877.749	0.0147602
877.828	0.0148164
877.906	0.0148569
877.984	0.0148063
878.062	0.0148609
878.140	0.0148521
878.218	0.0148222
878.296	0.0147601
878.374	0.0148082
878.453	0.0148307
878.531	0.0148846
878.609	0.0148768
878.687	0.0148896
878.765	0.0149617
878.843	0.0148961
878.921	0.0146738
878.999	0.0146924
879.078	0.0148708
879.156	0.0148328
879.234	0.0148586
879.312	0.0148171
879.390	0.0148811
879.468	0.0148504
879.546	0.0149321
879.624	0.0149162
879.703	0.0148239
879.781	0.0148984
879.859	0.0148847
879.937	0.0147253
880.015	0.0148584
880.093	0.0149226
880.171	0.0148868
880.249	0.0148678
880.328	0.0147691
880.406	0.0148830
880.484	0.0148553
880.562	0.0148575
880.640	0.0148714
880.718	0.0147838
880.796	0.0148178
880.874	0.0149149
880.953	0.0147368
881.031	0.0148190
881.109	0.0149607
881.187	0.0148607
881.265	0.0147306
881.343	0.0146817
881.421	0.0147097
881.499	0.0147375
881.578	0.0147230
881.656	0.0148217
881.734	0.0148050
881.812	0.0149526
881.890	0.0148428
881.968	0.0148310
882.046	0.0147343
882.124	0.0148887
882.203	0.0147768
882.281	0.0149861
882.359	0.0148931
882.437	0.0149873
882.515	0.0148741
882.593	0.0147002
882.671	0.0149068
882.749	0.0149625
882.828	0.0148003
882.906	0.0147758
882.984	0.0149601
883.062	0.0148378
883.140	0.0148370
883.218	0.0147961
883.296	0.0147482
883.374	0.0147254
883.453	0.0148539
883.531	0.0149525
883.609	0.0148182
883.687	0.0148061
883.765	0.0147772
883.843	0.0149301
883.921	0.0147678
883.999	0.0147182
884.078	0.0147234
884.156	0.0148301
884.234	0.0146432
884.312	0.0148483
884.390	0.0148013
884.468	0.0148086
884.546	0.0148220
884.624	0.0148934
884.703	0.0146921
884.781	0.0146551
884.859	0.0148466
884.937	0.0148949
885.015	0.0148816
885.093	0.0147915
885.171	0.0147101
885.249	0.0147231
885.328	0.0146516
885.406	0.0146878
885.484	0.0147269
885.562	0.0147894
885.640	0.0146789
885.718	0.0148129
885.796	0.0147744
885.874	0.0147340
885.953	0.0148646
886.031	0.0146848
886.109	0.0145586
886.187	0.0148096
886.265	0.0148937
886.343	0.0148038
886.421	0.0146838
886.499	0.0145757
886.578	0.0147727
886.656	0.0147176
886.734	0.0148587
886.812	0.0147478
886.890	0.0146148
886.968	0.0148930
887.046	0.0146941
887.124	0.0147722
887.203	0.0148297
887.281	0.0149384
887.359	0.0148293
887.437	0.0148625
887.515	0.0148709
887.593	0.0148267
887.671	0.0147371
887.749	0.0148115
887.828	0.0148999
887.906	0.0148305
887.984	0.0146844
888.062	0.0148536
888.140	0.0148206
888.218	0.0148988
888.296	0.0148252
888.374	0.0148446
888.453	0.0147091
888.531	0.0147144
888.609	0.0148572
888.687	0.0149005
888.765	0.0148460
888.843	0.0146761
888.921	0.0147230
888.999	0.0150231
889.078	0.0147437
889.156	0.0147697
889.234	0.0147440
889.312	0.0148257
889.390	0.0147493
889.468	0.0147874
889.546	0.0146944
889.624	0.0148170
889.703	0.0147472
889.781	0.0147639
889.859	0.0148279
889.937	0.0148615
890.015	0.0147684
890.093	0.0148009
890.171	0.0148146
890.249	0.0147994
890.328	0.0147610
890.406	0.0148161
890.484	0.0147934
890.562	0.0148794
890.640	0.0147359
890.718	0.0145940
890.796	0.0146375
890.874	0.0147707
890.953	0.0146199
891.031	0.0146002
891.109	0.0148539
891.187	0.0147497
891.265	0.0146188
891.343	0.0147975
891.421	0.0146222
891.499	0.0146234
891.578	0.0147210
891.656	0.0146461
891.734	0.0146974
891.812	0.0146447
891.890	0.0146507
891.968	0.0147418
892.046	0.0148982
892.124	0.0148181
892.203	0.0147965
892.281	0.0148588
892.359	0.0147768
892.437	0.0148335
892.515	0.0147926
892.593	0.0148616
892.671	0.0148600
892.749	0.0148198
892.828	0.0148441
892.906	0.0148183
892.984	0.0149294
893.062	0.0148845
893.140	0.0149345
893.218	0.0149301
893.296	0.0148483
893.374	0.0149462
893.453	0.0148480
893.531	0.0148240
893.609	0.0148308
893.687	0.0148904
893.765	0.0148078
893.843	0.0148937
893.921	0.0148961
893.999	0.0148207
894.078	0.0148542
894.156	0.0148007
894.234	0.0148123
894.312	0.0148592
894.390	0.0148744
894.468	0.0148620
894.546	0.0147998
894.624	0.0147974
894.703	0.0149000
894.781	0.0147569
894.859	0.0148972
894.937	0.0148419
895.015	0.0148898
895.093	0.0149339
895.171	0.0147972
895.249	0.0147638
895.328	0.0148167
895.406	0.0147593
895.484	0.0148576
895.562	0.0148734
895.640	0.0148073
895.718	0.0148209
895.796	0.0147298
895.874	0.0150022
895.953	0.0148103
896.031	0.0148808
896.109	0.0150438
896.187	0.0149532
896.265	0.0148409
896.343	0.0148930
896.421	0.0148818
896.499	0.0149433
896.578	0.0149757
896.656	0.0148334
896.734	0.0149361
896.812	0.0148034
896.890	0.0148187
896.968	0.0148979
897.046	0.0149117
897.124	0.0149674
897.203	0.0150000
897.281	0.0149242
897.359	0.0149087
897.437	0.0150114
897.515	0.0149387
897.593	0.0148171
897.671	0.0147517
897.749	0.0147686
897.828	0.0148543
897.906	0.0149713
897.984	0.0148569
898.062	0.0147607
898.140	0.0147885
898.218	0.0148282
898.296	0.0149104
898.374	0.0148345
898.453	0.0148792
898.531	0.0148544
898.609	0.0149694
898.687	0.0148753
898.765	0.0148045
898.843	0.0149454
898.921	0.0148619
898.999	0.0149793
899.078	0.0148482
899.156	0.0148755
899.234	0.0149079
899.312	0.0149062
899.390	0.0148364
899.468	0.0150585
899.546	0.0150259
899.624	0.0149733
899.703	0.0149107
899.781	0.0149439
899.859	0.0149193
899.937	0.0147723
900.015	0.0148652
900.093	0.0148825
900.171	0.0149057
900.249	0.0148740
900.328	0.0148404
900.406	0.0148088
900.484	0.0148560
900.562	0.0147380
900.640	0.0148016
900.718	0.0148548
900.796	0.0148116
900.874	0.0146938
900.953	0.0147612
901.031	0.0146777
901.109	0.0146854
901.187	0.0147316
901.265	0.0148013
901.343	0.0146804
901.421	0.0147444
901.499	0.0147322
901.578	0.0146602
901.656	0.0147426
901.734	0.0145977
901.812	0.0146212
901.890	0.0147858
901.968	0.0148029
902.046	0.0146157
902.124	0.0145650
902.203	0.0146516
902.281	0.0147027
902.359	0.0146344
902.437	0.0147182
902.515	0.0146861
902.593	0.0146828
902.671	0.0146716
902.749	0.0148113
902.828	0.0147625
902.906	0.0145736
902.984	0.0147200
903.062	0.0147318
903.140	0.0147798
903.218	0.0148139
903.296	0.0148143
903.374	0.0148755
903.453	0.0149129
903.531	0.0147540
903.609	0.0147955
903.687	0.0148107
903.765	0.0147485
903.843	0.0148414
903.921	0.0147086
903.999	0.0148027
904.078	0.0147400
904.156	0.0147620
904.234	0.0147588
904.312	0.0145891
904.390	0.0147173
904.468	0.0146941
904.546	0.0148045
904.624	0.0146859
904.703	0.0146841
904.781	0.0147605
904.859	0.0146703
904.937	0.0146425
905.015	0.0146600
905.093	0.0146099
905.171	0.0146848
905.249	0.0146331
905.328	0.0148843
905.406	0.0147928
905.484	0.0146344
905.562	0.0146058
905.640	0.0146241
905.718	0.0145808
905.796	0.0147375
905.874	0.0147272
905.953	0.0147801
906.031	0.0146505
906.109	0.0145646
906.187	0.0146590
906.265	0.0146175
906.343	0.0147107
906.421	0.0149240
906.499	0.0146482
906.578	0.0146651
906.656	0.0147778
906.734	0.0147337
906.812	0.0147058
906.890	0.0148090
906.968	0.0147652
907.046	0.0147666
907.124	0.0148719
907.203	0.0148154
907.281	0.0146851
907.359	0.0146583
907.437	0.0148014
907.515	0.0147557
907.593	0.0149081
907.671	0.0147080
907.749	0.0147223
907.828	0.0148436
907.906	0.0147578
907.984	0.0147820
908.062	0.0148287
908.140	0.0147815
908.218	0.0147186
908.296	0.0146978
908.374	0.0147624
908.453	0.0147598
908.531	0.0148124
908.609	0.0148351
908.687	0.0147662
908.765	0.0146938
908.843	0.0145942
908.921	0.0148208
908.999	0.0146794
909.078	0.0147565
909.156	0.0147507
909.234	0.0147313
909.312	0.0148961
909.390	0.0148016
909.468	0.0147250
909.546	0.0146843
909.624	0.0148666
909.703	0.0148668
909.781	0.0148098
909.859	0.0148623
909.937	0.0147961
910.015	0.0147903
910.093	0.0147205
910.171	0.0149171
910.249	0.0148064
910.328	0.0148023
910.406	0.0147459
910.484	0.0148206
910.562	0.0149691
910.640	0.0148226
910.718	0.0148605
910.796	0.0149442
910.874	0.0148987
910.953	0.0149774
911.031	0.0148821
911.109	0.0148154
911.187	0.0148699
911.265	0.0148439
911.343	0.0148518
911.421	0.0148461
911.499	0.0147644
911.578	0.0147775
911.656	0.0147583
911.734	0.0148520
911.812	0.0147552
911.890	0.0146068
911.968	0.0147929
912.046	0.0147824
912.124	0.0146938
912.203	0.0148079
912.281	0.0147300
912.359	0.0147313
912.437	0.0146838
912.515	0.0147081
912.593	0.0148132
912.671	0.0147033
912.749	0.0147211
912.828	0.0147609
912.906	0.0147614
912.984	0.0147500
913.062	0.0147693
913.140	0.0147309
913.218	0.0148436
913.296	0.0149365
913.374	0.0149102
913.453	0.0146822
913.531	0.0148013
913.609	0.0147916
913.687	0.0148622
913.765	0.0148367
913.843	0.0149368
913.921	0.0148175
913.999	0.0148524
914.078	0.0149393
914.156	0.0148702
914.234	0.0147852
914.312	0.0147465
914.390	0.0146982
914.468	0.0148089
914.546	0.0147185
914.624	0.0148790
914.703	0.0148199
914.781	0.0146940
914.859	0.0148006
914.937	0.0147753
915.015	0.0148394
915.093	0.0148567
915.171	0.0148354
915.249	0.0148423
915.328	0.0147520
915.406	0.0147652
915.484	0.0147729
915.562	0.0148126
915.640	0.0148564
915.718	0.0148201
915.796	0.0149451
915.874	0.0148909
915.953	0.0148772
916.031	0.0148042
916.109	0.0149526
916.187	0.0148715
916.265	0.0147739
916.343	0.0146972
916.421	0.0148616
916.499	0.0148034
916.578	0.0149562
916.656	0.0148310
916.734	0.0147956
916.812	0.0148724
916.890	0.0147017
916.968	0.0147907
917.046	0.0148743
917.124	0.0148874
917.203	0.0148538
917.281	0.0148000
917.359	0.0148042
917.437	0.0148453
917.515	0.0147890
917.593	0.0149027
917.671	0.0147807
917.749	0.0148424
917.828	0.0149445
917.906	0.0149073
917.984	0.0148872
918.062	0.0147040
918.140	0.0147767
918.218	0.0149018
918.296	0.0149165
918.374	0.0146294
918.453	0.0148061
918.531	0.0149269
918.609	0.0149748
918.687	0.0150121
918.765	0.0149197
918.843	0.0148717
918.921	0.0149288
918.999	0.0148327
919.078	0.0148409
919.156	0.0148331
919.234	0.0149013
919.312	0.0148525
919.390	0.0147689
919.468	0.0148912
919.546	0.0148033
919.624	0.0148186
919.703	0.0148573
919.781	0.0147815
919.859	0.0148576
919.937	0.0148722
