05/06/2022	18:43:18	Ver.	4.1	UNKNOWN
Optical Delay	600.015094	Delta X		0.078125	Sweeps	1	Scan Rate	0/0
Coordinates	Axis 1	NaN	Axis 2	NaN	Axis 3	NaN	Axis 4	NaN	Axis 5	NaN	Axis 6	0.000000
TX Power	0.000000	RX Power	0.000000

600.015	0.0127461
600.093	0.0127430
600.171	0.0128174
600.249	0.0127303
600.328	0.0127563
600.406	0.0127563
600.484	0.0126195
600.562	0.0127991
600.640	0.0128040
600.718	0.0127217
600.796	0.0128786
600.874	0.0128708
600.953	0.0127509
601.031	0.0127311
601.109	0.0126563
601.187	0.0126702
601.265	0.0128548
601.343	0.0127493
601.421	0.0128597
601.499	0.0128160
601.578	0.0127949
601.656	0.0126543
601.734	0.0127575
601.812	0.0127052
601.890	0.0128499
601.968	0.0127645
602.046	0.0128229
602.124	0.0127998
602.203	0.0128225
602.281	0.0128426
602.359	0.0127877
602.437	0.0127905
602.515	0.0127396
602.593	0.0126288
602.671	0.0127415
602.749	0.0127224
602.828	0.0128671
602.906	0.0126783
602.984	0.0127620
603.062	0.0127361
603.140	0.0128043
603.218	0.0126820
603.296	0.0127191
603.374	0.0127175
603.453	0.0127061
603.531	0.0126849
603.609	0.0127567
603.687	0.0127286
603.765	0.0126936
603.843	0.0128709
603.921	0.0127428
603.999	0.0126788
604.078	0.0127219
604.156	0.0128336
604.234	0.0127335
604.312	0.0128123
604.390	0.0127122
604.468	0.0128664
604.546	0.0128310
604.624	0.0127297
604.703	0.0127559
604.781	0.0127307
604.859	0.0126928
604.937	0.0127318
605.015	0.0128700
605.093	0.0126871
605.171	0.0126958
605.249	0.0127121
605.328	0.0127682
605.406	0.0126555
605.484	0.0125967
605.562	0.0128464
605.640	0.0126892
605.718	0.0127428
605.796	0.0127170
605.874	0.0127880
605.953	0.0128251
606.031	0.0127680
606.109	0.0128674
606.187	0.0128729
606.265	0.0128365
606.343	0.0127341
606.421	0.0126221
606.499	0.0127271
606.578	0.0128087
606.656	0.0127048
606.734	0.0127455
606.812	0.0127325
606.890	0.0128168
606.968	0.0127840
607.046	0.0127872
607.124	0.0127142
607.203	0.0128176
607.281	0.0127323
607.359	0.0127390
607.437	0.0127218
607.515	0.0126866
607.593	0.0127340
607.671	0.0127267
607.749	0.0128043
607.828	0.0127694
607.906	0.0128460
607.984	0.0127435
608.062	0.0128317
608.140	0.0127232
608.218	0.0126780
608.296	0.0128719
608.374	0.0127493
608.453	0.0128088
608.531	0.0126720
608.609	0.0126058
608.687	0.0128026
608.765	0.0128429
608.843	0.0126466
608.921	0.0127446
608.999	0.0127644
609.078	0.0126722
609.156	0.0128381
609.234	0.0127343
609.312	0.0126897
609.390	0.0127361
609.468	0.0128533
609.546	0.0126883
609.624	0.0127631
609.703	0.0127518
609.781	0.0128497
609.859	0.0126868
609.937	0.0126730
610.015	0.0126212
610.093	0.0127683
610.171	0.0127231
610.249	0.0126716
610.328	0.0126657
610.406	0.0127766
610.484	0.0127194
610.562	0.0126532
610.640	0.0126891
610.718	0.0126563
610.796	0.0127108
610.874	0.0127361
610.953	0.0128647
611.031	0.0127213
611.109	0.0126752
611.187	0.0127512
611.265	0.0128421
611.343	0.0128331
611.421	0.0127190
611.499	0.0128499
611.578	0.0128368
611.656	0.0127497
611.734	0.0127930
611.812	0.0128638
611.890	0.0127917
611.968	0.0128101
612.046	0.0126936
612.124	0.0128291
612.203	0.0127869
612.281	0.0127532
612.359	0.0126699
612.437	0.0125936
612.515	0.0127361
612.593	0.0128185
612.671	0.0128226
612.749	0.0127721
612.828	0.0127070
612.906	0.0128058
612.984	0.0127273
613.062	0.0127917
613.140	0.0128364
613.218	0.0127435
613.296	0.0127548
613.374	0.0127486
613.453	0.0127244
613.531	0.0128543
613.609	0.0127992
613.687	0.0128413
613.765	0.0127457
613.843	0.0127239
613.921	0.0127297
613.999	0.0126837
614.078	0.0128623
614.156	0.0127053
614.234	0.0128159
614.312	0.0126231
614.390	0.0127936
614.468	0.0126939
614.546	0.0127882
614.624	0.0127358
614.703	0.0127734
614.781	0.0128521
614.859	0.0127409
614.937	0.0128042
615.015	0.0128664
615.093	0.0127975
615.171	0.0128329
615.249	0.0127729
615.328	0.0128377
615.406	0.0128718
615.484	0.0127942
615.562	0.0127879
615.640	0.0127483
615.718	0.0128792
615.796	0.0127052
615.874	0.0126218
615.953	0.0127682
616.031	0.0127585
616.109	0.0128419
616.187	0.0128172
616.265	0.0128297
616.343	0.0126701
616.421	0.0126553
616.499	0.0128563
616.578	0.0128419
616.656	0.0126616
616.734	0.0126063
616.812	0.0127682
616.890	0.0126835
616.968	0.0127511
617.046	0.0128011
617.124	0.0127961
617.203	0.0128629
617.281	0.0127956
617.359	0.0126797
617.437	0.0128683
617.515	0.0127309
617.593	0.0128417
617.671	0.0126501
617.749	0.0127554
617.828	0.0128533
617.906	0.0127036
617.984	0.0127329
618.062	0.0127199
618.140	0.0127981
618.218	0.0127998
618.296	0.0127351
618.374	0.0127557
618.453	0.0127036
618.531	0.0126299
618.609	0.0127425
618.687	0.0127898
618.765	0.0128508
618.843	0.0127737
618.921	0.0127476
618.999	0.0129934
619.078	0.0128380
619.156	0.0127957
619.234	0.0127290
619.312	0.0128343
619.390	0.0127113
619.468	0.0127757
619.546	0.0128334
619.624	0.0126811
619.703	0.0126786
619.781	0.0129061
619.859	0.0128400
619.937	0.0127744
620.015	0.0128163
620.093	0.0128635
620.171	0.0127845
620.249	0.0127242
620.328	0.0128188
620.406	0.0128147
620.484	0.0127309
620.562	0.0127954
620.640	0.0127614
620.718	0.0128256
620.796	0.0128990
620.874	0.0128113
620.953	0.0127475
621.031	0.0128191
621.109	0.0126332
621.187	0.0127609
621.265	0.0127403
621.343	0.0127601
621.421	0.0128471
621.499	0.0127567
621.578	0.0127896
621.656	0.0126819
621.734	0.0127072
621.812	0.0127811
621.890	0.0128303
621.968	0.0128036
622.046	0.0127936
622.124	0.0128187
622.203	0.0128275
622.281	0.0126530
622.359	0.0126947
622.437	0.0127556
622.515	0.0127913
622.593	0.0128026
622.671	0.0128384
622.749	0.0127888
622.828	0.0128101
622.906	0.0126884
622.984	0.0126840
623.062	0.0127038
623.140	0.0127023
623.218	0.0126810
623.296	0.0128229
623.374	0.0127345
623.453	0.0127948
623.531	0.0128017
623.609	0.0127917
623.687	0.0127299
623.765	0.0126746
623.843	0.0128003
623.921	0.0126264
623.999	0.0126882
624.078	0.0126703
624.156	0.0127113
624.234	0.0128220
624.312	0.0126171
624.390	0.0126934
624.468	0.0127387
624.546	0.0127142
624.624	0.0127280
624.703	0.0127023
624.781	0.0127545
624.859	0.0128221
624.937	0.0127871
625.015	0.0127728
625.093	0.0127055
625.171	0.0128443
625.249	0.0128136
625.328	0.0127433
625.406	0.0126417
625.484	0.0128732
625.562	0.0127176
625.640	0.0127468
625.718	0.0128433
625.796	0.0128642
625.874	0.0127158
625.953	0.0126601
626.031	0.0127676
626.109	0.0128882
626.187	0.0128574
626.265	0.0128727
626.343	0.0126327
626.421	0.0127910
626.499	0.0128968
626.578	0.0128341
626.656	0.0128819
626.734	0.0128824
626.812	0.0128176
626.890	0.0127505
626.968	0.0126870
627.046	0.0126412
627.124	0.0127810
627.203	0.0127414
627.281	0.0127438
627.359	0.0127827
627.437	0.0128336
627.515	0.0126937
627.593	0.0126329
627.671	0.0128561
627.749	0.0126915
627.828	0.0127477
627.906	0.0128317
627.984	0.0125961
628.062	0.0127732
628.140	0.0128596
628.218	0.0127753
628.296	0.0127071
628.374	0.0128954
628.453	0.0128306
628.531	0.0126351
628.609	0.0126171
628.687	0.0129040
628.765	0.0127406
628.843	0.0126807
628.921	0.0128389
628.999	0.0128229
629.078	0.0126327
629.156	0.0127611
629.234	0.0128883
629.312	0.0128133
629.390	0.0127562
629.468	0.0127470
629.546	0.0127664
629.624	0.0127477
629.703	0.0127722
629.781	0.0127791
629.859	0.0126804
629.937	0.0127471
630.015	0.0128087
630.093	0.0127717
630.171	0.0127801
630.249	0.0127485
630.328	0.0127459
630.406	0.0128083
630.484	0.0128346
630.562	0.0128411
630.640	0.0127203
630.718	0.0127977
630.796	0.0127954
630.874	0.0128291
630.953	0.0127168
631.031	0.0127432
631.109	0.0126834
631.187	0.0126344
631.265	0.0128141
631.343	0.0126141
631.421	0.0126672
631.499	0.0128661
631.578	0.0127576
631.656	0.0126756
631.734	0.0127409
631.812	0.0128323
631.890	0.0128996
631.968	0.0126895
632.046	0.0126862
632.124	0.0126873
632.203	0.0126468
632.281	0.0128651
632.359	0.0128606
632.437	0.0127158
632.515	0.0128023
632.593	0.0127134
632.671	0.0128677
632.749	0.0127626
632.828	0.0127158
632.906	0.0128084
632.984	0.0126740
633.062	0.0127629
633.140	0.0127168
633.218	0.0127287
633.296	0.0126885
633.374	0.0126822
633.453	0.0127895
633.531	0.0127031
633.609	0.0127023
633.687	0.0127364
633.765	0.0126506
633.843	0.0127534
633.921	0.0127868
633.999	0.0127685
634.078	0.0127635
634.156	0.0127091
634.234	0.0128260
634.312	0.0127605
634.390	0.0126019
634.468	0.0127399
634.546	0.0127390
634.624	0.0128010
634.703	0.0126748
634.781	0.0126613
634.859	0.0128644
634.937	0.0128301
635.015	0.0126325
635.093	0.0127415
635.171	0.0128171
635.249	0.0128241
635.328	0.0128108
635.406	0.0128182
635.484	0.0128921
635.562	0.0127883
635.640	0.0126411
635.718	0.0127025
635.796	0.0128434
635.874	0.0128414
635.953	0.0127114
636.031	0.0128332
636.109	0.0127215
636.187	0.0126948
636.265	0.0127192
636.343	0.0129283
636.421	0.0128374
636.499	0.0127101
636.578	0.0128568
636.656	0.0127540
636.734	0.0126891
636.812	0.0127872
636.890	0.0128400
636.968	0.0127852
637.046	0.0127179
637.124	0.0128252
637.203	0.0127998
637.281	0.0126662
637.359	0.0127349
637.437	0.0126168
637.515	0.0127899
637.593	0.0127274
637.671	0.0127044
637.749	0.0128420
637.828	0.0127673
637.906	0.0127653
637.984	0.0127332
638.062	0.0126720
638.140	0.0127772
638.218	0.0127675
638.296	0.0126865
638.374	0.0127748
638.453	0.0128207
638.531	0.0126637
638.609	0.0127554
638.687	0.0127951
638.765	0.0126567
638.843	0.0127219
638.921	0.0126920
638.999	0.0128311
639.078	0.0126466
639.156	0.0127044
639.234	0.0126632
639.312	0.0127168
639.390	0.0126870
639.468	0.0128285
639.546	0.0127747
639.624	0.0127706
639.703	0.0128928
639.781	0.0127295
639.859	0.0127586
639.937	0.0127078
640.015	0.0126627
640.093	0.0127118
640.171	0.0127312
640.249	0.0126457
640.328	0.0125327
640.406	0.0127529
640.484	0.0126940
640.562	0.0126054
640.640	0.0127042
640.718	0.0127444
640.796	0.0128876
640.874	0.0128311
640.953	0.0127309
641.031	0.0127741
641.109	0.0127405
641.187	0.0127020
641.265	0.0127589
641.343	0.0128078
641.421	0.0127153
641.499	0.0127260
641.578	0.0127348
641.656	0.0128226
641.734	0.0127299
641.812	0.0127725
641.890	0.0127195
641.968	0.0127962
642.046	0.0125462
642.124	0.0127612
642.203	0.0127119
642.281	0.0127519
642.359	0.0126884
642.437	0.0127541
642.515	0.0127561
642.593	0.0127229
642.671	0.0127155
642.749	0.0128391
642.828	0.0127116
642.906	0.0126479
642.984	0.0127718
643.062	0.0127387
643.140	0.0127963
643.218	0.0127622
643.296	0.0127268
643.374	0.0128298
643.453	0.0127425
643.531	0.0128304
643.609	0.0127776
643.687	0.0128068
643.765	0.0128056
643.843	0.0128378
643.921	0.0126936
643.999	0.0125851
644.078	0.0127197
644.156	0.0128532
644.234	0.0127540
644.312	0.0127124
644.390	0.0126891
644.468	0.0127249
644.546	0.0127347
644.624	0.0127871
644.703	0.0128175
644.781	0.0127268
644.859	0.0126089
644.937	0.0126783
645.015	0.0128088
645.093	0.0126147
645.171	0.0126195
645.249	0.0128761
645.328	0.0129429
645.406	0.0127515
645.484	0.0127910
645.562	0.0125903
645.640	0.0125919
645.718	0.0128036
645.796	0.0128395
645.874	0.0127164
645.953	0.0127144
646.031	0.0126878
646.109	0.0126360
646.187	0.0128016
646.265	0.0127258
646.343	0.0127542
646.421	0.0127492
646.499	0.0128358
646.578	0.0127195
646.656	0.0127638
646.734	0.0128891
646.812	0.0127312
646.890	0.0127463
646.968	0.0127218
647.046	0.0127232
647.124	0.0127967
647.203	0.0126894
647.281	0.0127879
647.359	0.0127161
647.437	0.0126870
647.515	0.0128063
647.593	0.0127309
647.671	0.0127904
647.749	0.0127533
647.828	0.0127728
647.906	0.0128236
647.984	0.0126694
648.062	0.0127937
648.140	0.0127365
648.218	0.0127596
648.296	0.0126709
648.374	0.0127670
648.453	0.0128833
648.531	0.0127707
648.609	0.0128516
648.687	0.0127434
648.765	0.0126222
648.843	0.0126980
648.921	0.0127985
648.999	0.0127361
649.078	0.0127971
649.156	0.0128703
649.234	0.0126610
649.312	0.0129358
649.390	0.0127755
649.468	0.0127963
649.546	0.0128136
649.624	0.0127782
649.703	0.0128754
649.781	0.0128087
649.859	0.0128000
649.937	0.0126740
650.015	0.0126502
650.093	0.0128042
650.171	0.0127171
650.249	0.0127888
650.328	0.0128627
650.406	0.0127145
650.484	0.0128410
650.562	0.0127563
650.640	0.0127221
650.718	0.0126804
650.796	0.0127570
650.874	0.0127954
650.953	0.0127881
651.031	0.0127887
651.109	0.0127346
651.187	0.0126785
651.265	0.0127156
651.343	0.0127432
651.421	0.0127473
651.499	0.0126210
651.578	0.0127464
651.656	0.0128349
651.734	0.0128454
651.812	0.0128680
651.890	0.0126409
651.968	0.0127654
652.046	0.0128771
652.124	0.0128273
652.203	0.0127767
652.281	0.0126689
652.359	0.0128840
652.437	0.0127290
652.515	0.0128091
652.593	0.0128113
652.671	0.0128435
652.749	0.0128252
652.828	0.0126346
652.906	0.0126556
652.984	0.0128388
653.062	0.0127389
653.140	0.0126608
653.218	0.0126674
653.296	0.0127683
653.374	0.0127688
653.453	0.0127269
653.531	0.0127518
653.609	0.0127593
653.687	0.0128433
653.765	0.0127724
653.843	0.0127333
653.921	0.0127750
653.999	0.0127757
654.078	0.0129013
654.156	0.0127477
654.234	0.0128092
654.312	0.0126805
654.390	0.0126020
654.468	0.0126855
654.546	0.0126830
654.624	0.0127361
654.703	0.0126418
654.781	0.0127993
654.859	0.0128690
654.937	0.0128426
655.015	0.0126848
655.093	0.0127013
655.171	0.0128135
655.249	0.0129025
655.328	0.0127318
655.406	0.0127763
655.484	0.0126499
655.562	0.0126895
655.640	0.0127840
655.718	0.0127142
655.796	0.0125597
655.874	0.0127985
655.953	0.0128799
656.031	0.0126519
656.109	0.0128366
656.187	0.0128228
656.265	0.0127187
656.343	0.0127182
656.421	0.0127279
656.499	0.0128061
656.578	0.0127339
656.656	0.0126524
656.734	0.0126250
656.812	0.0127342
656.890	0.0126673
656.968	0.0127321
657.046	0.0128074
657.124	0.0127132
657.203	0.0127023
657.281	0.0127641
657.359	0.0127430
657.437	0.0127677
657.515	0.0128065
657.593	0.0128059
657.671	0.0127400
657.749	0.0127862
657.828	0.0127012
657.906	0.0127567
657.984	0.0127539
658.062	0.0128318
658.140	0.0127723
658.218	0.0127515
658.296	0.0128146
658.374	0.0127189
658.453	0.0127953
658.531	0.0126459
658.609	0.0125793
658.687	0.0125671
658.765	0.0127433
658.843	0.0128107
658.921	0.0126643
658.999	0.0128249
659.078	0.0126370
659.156	0.0127328
659.234	0.0127173
659.312	0.0128443
659.390	0.0127338
659.468	0.0127118
659.546	0.0127113
659.624	0.0128182
659.703	0.0126682
659.781	0.0125428
659.859	0.0126221
659.937	0.0129061
660.015	0.0128319
660.093	0.0126214
660.171	0.0126524
660.249	0.0128078
660.328	0.0128744
660.406	0.0126721
660.484	0.0127541
660.562	0.0127463
660.640	0.0128305
660.718	0.0127563
660.796	0.0128055
660.874	0.0126365
660.953	0.0128073
661.031	0.0127381
661.109	0.0127055
661.187	0.0127369
661.265	0.0127468
661.343	0.0126849
661.421	0.0127516
661.499	0.0126128
661.578	0.0129034
661.656	0.0128329
661.734	0.0127242
661.812	0.0128343
661.890	0.0126567
661.968	0.0127642
662.046	0.0128192
662.124	0.0127196
662.203	0.0127171
662.281	0.0127825
662.359	0.0127223
662.437	0.0127377
662.515	0.0128378
662.593	0.0127113
662.671	0.0125806
662.749	0.0127582
662.828	0.0127863
662.906	0.0127011
662.984	0.0126962
663.062	0.0128601
663.140	0.0128251
663.218	0.0127540
663.296	0.0126374
663.374	0.0127551
663.453	0.0127962
663.531	0.0128104
663.609	0.0128249
663.687	0.0127979
663.765	0.0127811
663.843	0.0127856
663.921	0.0126558
663.999	0.0126963
664.078	0.0126952
664.156	0.0127529
664.234	0.0127412
664.312	0.0127581
664.390	0.0127692
664.468	0.0127076
664.546	0.0127716
664.624	0.0127906
664.703	0.0128791
664.781	0.0126893
664.859	0.0126829
664.937	0.0128211
665.015	0.0128268
665.093	0.0127031
665.171	0.0127106
665.249	0.0127649
665.328	0.0128471
665.406	0.0128119
665.484	0.0127905
665.562	0.0126646
665.640	0.0125994
665.718	0.0127338
665.796	0.0126030
665.874	0.0127374
665.953	0.0126115
666.031	0.0126683
666.109	0.0126657
666.187	0.0126600
666.265	0.0126585
666.343	0.0128496
666.421	0.0128033
666.499	0.0126665
666.578	0.0126929
666.656	0.0126376
666.734	0.0127366
666.812	0.0125991
666.890	0.0126745
666.968	0.0126495
667.046	0.0127441
667.124	0.0127065
667.203	0.0127452
667.281	0.0126715
667.359	0.0126846
667.437	0.0127041
667.515	0.0127376
667.593	0.0127621
667.671	0.0127584
667.749	0.0126141
667.828	0.0127912
667.906	0.0128021
667.984	0.0127038
668.062	0.0128629
668.140	0.0126806
668.218	0.0127284
668.296	0.0128018
668.374	0.0127444
668.453	0.0127636
668.531	0.0127275
668.609	0.0127372
668.687	0.0127712
668.765	0.0127877
668.843	0.0127509
668.921	0.0126987
668.999	0.0126834
669.078	0.0127496
669.156	0.0128397
669.234	0.0127815
669.312	0.0127832
669.390	0.0128185
669.468	0.0127442
669.546	0.0127258
669.624	0.0127169
669.703	0.0127650
669.781	0.0128249
669.859	0.0127602
669.937	0.0128116
670.015	0.0127344
670.093	0.0128372
670.171	0.0127280
670.249	0.0126921
670.328	0.0127591
670.406	0.0127814
670.484	0.0128905
670.562	0.0128806
670.640	0.0127216
670.718	0.0127667
670.796	0.0128642
670.874	0.0128208
670.953	0.0127574
671.031	0.0128506
671.109	0.0128955
671.187	0.0129084
671.265	0.0128415
671.343	0.0127797
671.421	0.0127533
671.499	0.0128390
671.578	0.0128883
671.656	0.0129925
671.734	0.0125675
671.812	0.0128275
671.890	0.0129379
671.968	0.0128622
672.046	0.0127934
672.124	0.0129804
672.203	0.0128508
672.281	0.0128628
672.359	0.0128918
672.437	0.0127642
672.515	0.0128637
672.593	0.0129042
672.671	0.0128062
672.749	0.0128042
672.828	0.0128376
672.906	0.0127580
672.984	0.0128087
673.062	0.0128529
673.140	0.0128830
673.218	0.0128568
673.296	0.0127605
673.374	0.0127847
673.453	0.0128648
673.531	0.0128612
673.609	0.0127517
673.687	0.0127652
673.765	0.0129228
673.843	0.0128461
673.921	0.0127695
673.999	0.0128439
674.078	0.0128803
674.156	0.0127471
674.234	0.0129444
674.312	0.0128866
674.390	0.0128848
674.468	0.0128588
674.546	0.0128136
674.624	0.0127805
674.703	0.0129122
674.781	0.0128526
674.859	0.0126587
674.937	0.0129025
675.015	0.0128910
675.093	0.0127465
675.171	0.0128442
675.249	0.0128910
675.328	0.0127433
675.406	0.0129319
675.484	0.0128265
675.562	0.0127901
675.640	0.0127804
675.718	0.0127506
675.796	0.0128708
675.874	0.0128682
675.953	0.0127688
676.031	0.0128487
676.109	0.0128518
676.187	0.0129250
676.265	0.0128513
676.343	0.0128155
676.421	0.0128494
676.499	0.0126927
676.578	0.0128323
676.656	0.0128599
676.734	0.0128356
676.812	0.0128558
676.890	0.0126720
676.968	0.0126766
677.046	0.0127541
677.124	0.0128067
677.203	0.0129305
677.281	0.0128824
677.359	0.0127943
677.437	0.0127916
677.515	0.0127736
677.593	0.0126859
677.671	0.0127392
677.749	0.0127201
677.828	0.0128118
677.906	0.0125854
677.984	0.0127700
678.062	0.0127314
678.140	0.0128269
678.218	0.0126480
678.296	0.0126703
678.374	0.0127798
678.453	0.0126528
678.531	0.0126942
678.609	0.0125792
678.687	0.0126205
678.765	0.0127962
678.843	0.0127361
678.921	0.0126663
678.999	0.0127610
679.078	0.0128380
679.156	0.0127702
679.234	0.0127138
679.312	0.0126525
679.390	0.0125880
679.468	0.0126698
679.546	0.0126845
679.624	0.0126480
679.703	0.0127438
679.781	0.0127789
679.859	0.0127103
679.937	0.0127052
680.015	0.0127870
680.093	0.0126747
680.171	0.0126816
680.249	0.0127319
680.328	0.0127709
680.406	0.0127805
680.484	0.0127100
680.562	0.0126895
680.640	0.0127940
680.718	0.0126838
680.796	0.0127316
680.874	0.0127171
680.953	0.0127519
681.031	0.0126644
681.109	0.0126096
681.187	0.0127151
681.265	0.0126960
681.343	0.0126665
681.421	0.0126794
681.499	0.0125976
681.578	0.0127159
681.656	0.0126244
681.734	0.0127371
681.812	0.0127229
681.890	0.0127058
681.968	0.0127857
682.046	0.0126624
682.124	0.0126051
682.203	0.0126870
682.281	0.0128199
682.359	0.0127780
682.437	0.0126270
682.515	0.0127505
682.593	0.0125752
682.671	0.0126018
682.749	0.0126347
682.828	0.0127567
682.906	0.0127365
682.984	0.0127929
683.062	0.0127099
683.140	0.0127502
683.218	0.0128004
683.296	0.0127444
683.374	0.0127173
683.453	0.0127050
683.531	0.0128101
683.609	0.0126867
683.687	0.0126411
683.765	0.0127578
683.843	0.0126942
683.921	0.0126383
683.999	0.0126733
684.078	0.0127470
684.156	0.0126149
684.234	0.0128002
684.312	0.0127081
684.390	0.0126862
684.468	0.0128487
684.546	0.0127419
684.624	0.0126628
684.703	0.0127637
684.781	0.0129173
684.859	0.0129158
684.937	0.0130485
685.015	0.0128858
685.093	0.0128386
685.171	0.0128033
685.249	0.0128384
685.328	0.0126182
685.406	0.0124960
685.484	0.0122346
685.562	0.0123260
685.640	0.0121230
685.718	0.0120570
685.796	0.0119021
685.874	0.0120174
685.953	0.0119847
686.031	0.0123235
686.109	0.0125492
686.187	0.0125565
686.265	0.0129561
686.343	0.0134989
686.421	0.0136874
686.499	0.0139122
686.578	0.0140829
686.656	0.0140681
686.734	0.0141115
686.812	0.0139017
686.890	0.0137301
686.968	0.0134872
687.046	0.0132922
687.124	0.0127935
687.203	0.0122869
687.281	0.0119411
687.359	0.0115929
687.437	0.0111998
687.515	0.0110713
687.593	0.0110034
687.671	0.0110086
687.749	0.0109513
687.828	0.0112331
687.906	0.0115330
687.984	0.0118350
688.062	0.0121741
688.140	0.0127524
688.218	0.0132496
688.296	0.0135725
688.374	0.0141119
688.453	0.0145648
688.531	0.0148512
688.609	0.0147583
688.687	0.0149693
688.765	0.0149646
688.843	0.0148748
688.921	0.0146133
688.999	0.0142270
689.078	0.0138433
689.156	0.0134138
689.234	0.0130450
689.312	0.0126701
689.390	0.0123859
689.468	0.0120028
689.546	0.0116330
689.624	0.0114800
689.703	0.0112096
689.781	0.0112409
689.859	0.0108967
689.937	0.0109122
690.015	0.0109702
690.093	0.0108195
690.171	0.0112281
690.249	0.0111741
690.328	0.0113806
690.406	0.0117937
690.484	0.0120641
690.562	0.0123006
690.640	0.0126734
690.718	0.0130524
690.796	0.0134536
690.874	0.0137479
690.953	0.0139720
691.031	0.0143169
691.109	0.0144415
691.187	0.0146281
691.265	0.0145337
691.343	0.0145483
691.421	0.0142931
691.499	0.0141225
691.578	0.0139684
691.656	0.0136471
691.734	0.0132340
691.812	0.0129297
691.890	0.0127963
691.968	0.0121019
692.046	0.0119047
692.124	0.0117722
692.203	0.0116290
692.281	0.0113922
692.359	0.0112767
692.437	0.0113256
692.515	0.0113418
692.593	0.0114945
692.671	0.0115608
692.749	0.0117911
692.828	0.0120467
692.906	0.0122164
692.984	0.0125243
693.062	0.0126981
693.140	0.0130589
693.218	0.0133202
693.296	0.0134346
693.374	0.0138030
693.453	0.0139311
693.531	0.0139587
693.609	0.0141428
693.687	0.0140364
693.765	0.0139155
693.843	0.0137498
693.921	0.0137161
693.999	0.0134753
694.078	0.0132065
694.156	0.0131014
694.234	0.0126955
694.312	0.0125234
694.390	0.0122083
694.468	0.0121142
694.546	0.0118992
694.624	0.0121018
694.703	0.0119515
694.781	0.0120404
694.859	0.0120837
694.937	0.0121917
695.015	0.0123439
695.093	0.0123862
695.171	0.0125777
695.249	0.0128820
695.328	0.0130309
695.406	0.0130088
695.484	0.0130072
695.562	0.0130257
695.640	0.0129751
695.718	0.0130778
695.796	0.0129728
695.874	0.0130073
695.953	0.0130357
696.031	0.0127675
696.109	0.0125488
696.187	0.0128119
696.265	0.0128191
696.343	0.0126480
696.421	0.0127750
696.499	0.0126708
696.578	0.0127152
696.656	0.0128838
696.734	0.0127222
696.812	0.0127655
696.890	0.0128248
696.968	0.0128223
697.046	0.0127684
697.124	0.0128268
697.203	0.0127251
697.281	0.0127459
697.359	0.0129089
697.437	0.0127869
697.515	0.0127855
697.593	0.0126918
697.671	0.0126640
697.749	0.0126616
697.828	0.0125354
697.906	0.0123747
697.984	0.0124315
698.062	0.0125047
698.140	0.0123293
698.218	0.0123328
698.296	0.0125852
698.374	0.0125932
698.453	0.0128125
698.531	0.0127705
698.609	0.0128689
698.687	0.0131691
698.765	0.0133559
698.843	0.0133177
698.921	0.0134697
698.999	0.0136080
699.078	0.0136533
699.156	0.0135190
699.234	0.0133675
699.312	0.0131843
699.390	0.0131306
699.468	0.0130434
699.546	0.0128600
699.624	0.0126224
699.703	0.0125749
699.781	0.0123607
699.859	0.0121578
699.937	0.0119070
700.015	0.0118668
700.093	0.0117780
700.171	0.0119102
700.249	0.0119170
700.328	0.0119138
700.406	0.0120186
700.484	0.0121367
700.562	0.0123479
700.640	0.0124748
700.718	0.0128001
700.796	0.0130261
700.874	0.0131354
700.953	0.0132472
701.031	0.0135277
701.109	0.0137733
701.187	0.0139145
701.265	0.0140128
701.343	0.0141064
701.421	0.0140431
701.499	0.0140923
701.578	0.0140285
701.656	0.0138378
701.734	0.0134496
701.812	0.0134222
701.890	0.0133205
701.968	0.0129644
702.046	0.0126440
702.124	0.0123828
702.203	0.0122171
702.281	0.0118729
702.359	0.0117466
702.437	0.0116102
702.515	0.0115343
702.593	0.0115667
702.671	0.0116512
702.749	0.0116005
702.828	0.0117166
702.906	0.0120120
702.984	0.0120061
703.062	0.0123027
703.140	0.0125502
703.218	0.0127906
703.296	0.0129942
703.374	0.0131023
703.453	0.0135425
703.531	0.0136961
703.609	0.0138353
703.687	0.0138055
703.765	0.0139629
703.843	0.0138324
703.921	0.0139771
703.999	0.0139969
704.078	0.0137336
704.156	0.0135626
704.234	0.0132489
704.312	0.0131088
704.390	0.0128631
704.468	0.0127063
704.546	0.0124695
704.624	0.0121997
704.703	0.0120972
704.781	0.0120351
704.859	0.0117596
704.937	0.0117496
705.015	0.0117274
705.093	0.0120538
705.171	0.0119583
705.249	0.0121732
705.328	0.0124612
705.406	0.0126610
705.484	0.0129749
705.562	0.0130715
705.640	0.0131863
705.718	0.0134698
705.796	0.0135529
705.874	0.0136223
705.953	0.0138519
706.031	0.0136700
706.109	0.0138204
706.187	0.0135813
706.265	0.0132508
706.343	0.0132933
706.421	0.0132374
706.499	0.0128524
706.578	0.0127258
706.656	0.0125617
706.734	0.0124660
706.812	0.0122268
706.890	0.0120992
706.968	0.0121416
707.046	0.0121870
707.124	0.0121237
707.203	0.0121506
707.281	0.0121716
707.359	0.0124321
707.437	0.0123045
707.515	0.0123345
707.593	0.0125759
707.671	0.0125809
707.749	0.0125811
707.828	0.0127324
707.906	0.0128877
707.984	0.0127787
708.062	0.0127909
708.140	0.0128463
708.218	0.0128008
708.296	0.0128559
708.374	0.0126512
708.453	0.0126828
708.531	0.0123547
708.609	0.0123914
708.687	0.0123898
708.765	0.0121804
708.843	0.0121109
708.921	0.0122546
708.999	0.0123247
709.078	0.0123749
709.156	0.0124072
709.234	0.0124045
709.312	0.0125500
709.390	0.0127348
709.468	0.0128149
709.546	0.0129025
709.624	0.0129804
709.703	0.0131137
709.781	0.0132386
709.859	0.0132016
709.937	0.0133125
710.015	0.0134136
710.093	0.0132713
710.171	0.0133459
710.249	0.0133654
710.328	0.0134386
710.406	0.0134115
710.484	0.0131834
710.562	0.0132697
710.640	0.0131456
710.718	0.0130281
710.796	0.0129953
710.874	0.0129197
710.953	0.0127843
711.031	0.0127032
711.109	0.0126967
711.187	0.0127357
711.265	0.0125561
711.343	0.0126272
711.421	0.0125503
711.499	0.0125658
711.578	0.0124072
711.656	0.0124856
711.734	0.0125130
711.812	0.0124074
711.890	0.0125452
711.968	0.0124860
712.046	0.0124361
712.124	0.0124332
712.203	0.0126764
712.281	0.0125284
712.359	0.0125169
712.437	0.0125385
712.515	0.0127683
712.593	0.0128657
712.671	0.0127811
712.749	0.0128130
712.828	0.0127854
712.906	0.0128297
712.984	0.0127847
713.062	0.0128449
713.140	0.0127562
713.218	0.0126982
713.296	0.0126887
713.374	0.0124952
713.453	0.0125639
713.531	0.0125430
713.609	0.0125447
713.687	0.0124567
713.765	0.0125710
713.843	0.0125344
713.921	0.0124409
713.999	0.0126609
714.078	0.0128046
714.156	0.0128529
714.234	0.0128098
714.312	0.0129092
714.390	0.0131620
714.468	0.0131139
714.546	0.0130487
714.624	0.0131895
714.703	0.0130972
714.781	0.0130321
714.859	0.0131302
714.937	0.0132178
715.015	0.0130024
715.093	0.0129501
715.171	0.0130091
715.249	0.0131085
715.328	0.0128628
715.406	0.0127409
715.484	0.0127355
715.562	0.0128291
715.640	0.0127571
715.718	0.0126318
715.796	0.0127330
715.874	0.0127253
715.953	0.0127367
716.031	0.0126833
716.109	0.0125948
716.187	0.0126618
716.265	0.0127634
716.343	0.0128582
716.421	0.0128270
716.499	0.0127653
716.578	0.0127534
716.656	0.0129368
716.734	0.0128591
716.812	0.0126491
716.890	0.0128254
716.968	0.0128084
717.046	0.0126936
717.124	0.0126816
717.203	0.0128538
717.281	0.0127232
717.359	0.0125938
717.437	0.0127670
717.515	0.0128510
717.593	0.0127386
717.671	0.0126491
717.749	0.0127005
717.828	0.0126887
717.906	0.0125307
717.984	0.0124720
718.062	0.0124924
718.140	0.0123775
718.218	0.0126579
718.296	0.0126565
718.374	0.0124641
718.453	0.0124809
718.531	0.0125471
718.609	0.0124884
718.687	0.0124801
718.765	0.0127000
718.843	0.0125378
718.921	0.0126311
718.999	0.0127408
719.078	0.0126989
719.156	0.0127014
719.234	0.0127922
719.312	0.0127665
719.390	0.0128690
719.468	0.0129429
719.546	0.0128485
719.624	0.0129424
719.703	0.0129179
719.781	0.0128986
719.859	0.0128568
719.937	0.0129773
720.015	0.0129553
720.093	0.0129341
720.171	0.0129124
720.249	0.0129714
720.328	0.0128653
720.406	0.0128284
720.484	0.0129443
720.562	0.0128961
720.640	0.0129195
720.718	0.0128151
720.796	0.0129071
720.874	0.0127304
720.953	0.0127417
721.031	0.0128856
721.109	0.0128855
721.187	0.0127235
721.265	0.0127455
721.343	0.0129089
721.421	0.0128013
721.499	0.0129498
721.578	0.0128871
721.656	0.0128840
721.734	0.0127045
721.812	0.0127046
721.890	0.0127303
721.968	0.0127278
722.046	0.0127677
722.124	0.0128053
722.203	0.0126432
722.281	0.0125633
722.359	0.0124297
722.437	0.0124863
722.515	0.0124498
722.593	0.0125249
722.671	0.0126546
722.749	0.0125734
722.828	0.0124258
722.906	0.0124191
722.984	0.0125104
723.062	0.0125826
723.140	0.0125978
723.218	0.0127087
723.296	0.0127105
723.374	0.0126067
723.453	0.0126805
723.531	0.0128238
723.609	0.0128709
723.687	0.0129612
723.765	0.0130357
723.843	0.0130005
723.921	0.0131400
723.999	0.0130303
724.078	0.0130550
724.156	0.0130002
724.234	0.0131166
724.312	0.0129557
724.390	0.0127970
724.468	0.0127512
724.546	0.0126688
724.624	0.0128123
724.703	0.0126282
724.781	0.0126726
724.859	0.0125994
724.937	0.0126108
725.015	0.0126116
725.093	0.0126499
725.171	0.0125764
725.249	0.0128145
725.328	0.0126356
725.406	0.0126305
725.484	0.0128672
725.562	0.0127205
725.640	0.0125960
725.718	0.0129362
725.796	0.0130396
725.874	0.0130682
725.953	0.0129051
726.031	0.0127649
726.109	0.0129526
726.187	0.0131927
726.265	0.0131209
726.343	0.0130939
726.421	0.0131099
726.499	0.0130587
726.578	0.0129000
726.656	0.0129039
726.734	0.0129269
726.812	0.0128754
726.890	0.0126580
726.968	0.0127429
727.046	0.0126327
727.124	0.0126787
727.203	0.0125506
727.281	0.0125150
727.359	0.0124609
727.437	0.0123838
727.515	0.0123672
727.593	0.0124538
727.671	0.0125338
727.749	0.0126144
727.828	0.0127927
727.906	0.0126669
727.984	0.0128761
728.062	0.0128278
728.140	0.0128018
728.218	0.0128850
728.296	0.0129321
728.374	0.0129618
728.453	0.0130138
728.531	0.0130876
728.609	0.0130940
728.687	0.0130499
728.765	0.0128474
728.843	0.0128305
728.921	0.0127122
728.999	0.0129240
729.078	0.0128544
729.156	0.0127274
729.234	0.0126949
729.312	0.0126460
729.390	0.0125992
729.468	0.0127238
729.546	0.0126733
729.624	0.0125283
729.703	0.0126724
729.781	0.0126606
729.859	0.0126337
729.937	0.0126055
730.015	0.0126582
730.093	0.0128204
730.171	0.0126443
730.249	0.0127758
730.328	0.0127802
730.406	0.0127721
730.484	0.0126762
730.562	0.0127663
730.640	0.0128560
730.718	0.0128413
730.796	0.0127834
730.874	0.0128759
730.953	0.0128558
731.031	0.0127055
731.109	0.0127824
731.187	0.0128623
731.265	0.0128185
731.343	0.0128691
731.421	0.0129356
731.499	0.0127635
731.578	0.0129762
731.656	0.0129458
731.734	0.0127906
731.812	0.0128757
731.890	0.0128814
731.968	0.0126705
732.046	0.0128788
732.124	0.0128434
732.203	0.0127438
732.281	0.0125513
732.359	0.0126521
732.437	0.0127615
732.515	0.0128323
732.593	0.0126168
732.671	0.0126488
732.749	0.0127531
732.828	0.0126998
732.906	0.0127682
732.984	0.0127499
733.062	0.0127829
733.140	0.0127183
733.218	0.0127573
733.296	0.0127795
733.374	0.0126192
733.453	0.0127119
733.531	0.0127670
733.609	0.0128490
733.687	0.0126901
733.765	0.0127785
733.843	0.0126031
733.921	0.0126917
733.999	0.0127366
734.078	0.0127470
734.156	0.0126060
734.234	0.0127388
734.312	0.0127938
734.390	0.0127091
734.468	0.0125340
734.546	0.0127341
734.624	0.0126742
734.703	0.0126770
734.781	0.0127646
734.859	0.0128279
734.937	0.0127740
735.015	0.0127426
735.093	0.0128130
735.171	0.0126905
735.249	0.0128497
735.328	0.0128262
735.406	0.0128806
735.484	0.0129089
735.562	0.0128371
735.640	0.0130366
735.718	0.0129453
735.796	0.0127046
735.874	0.0127391
735.953	0.0128228
736.031	0.0128022
736.109	0.0126948
736.187	0.0128640
736.265	0.0127374
736.343	0.0127119
736.421	0.0127111
736.499	0.0127611
736.578	0.0128118
736.656	0.0126936
736.734	0.0127492
736.812	0.0126950
736.890	0.0128592
736.968	0.0126921
737.046	0.0128029
737.124	0.0128640
737.203	0.0128620
737.281	0.0128261
737.359	0.0128860
737.437	0.0128262
737.515	0.0129655
737.593	0.0128022
737.671	0.0127516
737.749	0.0127071
737.828	0.0127184
737.906	0.0125920
737.984	0.0125343
738.062	0.0127463
738.140	0.0127007
738.218	0.0126469
738.296	0.0125199
738.374	0.0125993
738.453	0.0127023
738.531	0.0126980
738.609	0.0126531
738.687	0.0126502
738.765	0.0127702
738.843	0.0128599
738.921	0.0129380
738.999	0.0128898
739.078	0.0129910
739.156	0.0130727
739.234	0.0130524
739.312	0.0129815
739.390	0.0130909
739.468	0.0131044
739.546	0.0130473
739.624	0.0129714
739.703	0.0128310
739.781	0.0129185
739.859	0.0128749
739.937	0.0127718
740.015	0.0126753
740.093	0.0125790
740.171	0.0124366
740.249	0.0124961
740.328	0.0124625
740.406	0.0123856
740.484	0.0125516
740.562	0.0123332
740.640	0.0124502
740.718	0.0125289
740.796	0.0125423
740.874	0.0127013
740.953	0.0127632
741.031	0.0126051
741.109	0.0127915
741.187	0.0129185
741.265	0.0128574
741.343	0.0127843
741.421	0.0130199
741.499	0.0131139
741.578	0.0129658
741.656	0.0131094
741.734	0.0129255
741.812	0.0130617
741.890	0.0129642
741.968	0.0130006
742.046	0.0130042
742.124	0.0128521
742.203	0.0127954
742.281	0.0128546
742.359	0.0127494
742.437	0.0126244
742.515	0.0126675
742.593	0.0127467
742.671	0.0128066
742.749	0.0128065
742.828	0.0126653
742.906	0.0126918
742.984	0.0127306
743.062	0.0127965
743.140	0.0128962
743.218	0.0127554
743.296	0.0126061
743.374	0.0129430
743.453	0.0128067
743.531	0.0128544
743.609	0.0128737
743.687	0.0127795
743.765	0.0128298
743.843	0.0127391
743.921	0.0127897
743.999	0.0127407
744.078	0.0128014
744.156	0.0127755
744.234	0.0124853
744.312	0.0126552
744.390	0.0125649
744.468	0.0126521
744.546	0.0125918
744.624	0.0125851
744.703	0.0126465
744.781	0.0126212
744.859	0.0126208
744.937	0.0126662
745.015	0.0125182
745.093	0.0127483
745.171	0.0127014
745.249	0.0127159
745.328	0.0127634
745.406	0.0128521
745.484	0.0129018
745.562	0.0128625
745.640	0.0128773
745.718	0.0127413
745.796	0.0127377
745.874	0.0127244
745.953	0.0126456
746.031	0.0126191
746.109	0.0127781
746.187	0.0127736
746.265	0.0127383
746.343	0.0127219
746.421	0.0127724
746.499	0.0129334
746.578	0.0128061
746.656	0.0129395
746.734	0.0129708
746.812	0.0128876
746.890	0.0130089
746.968	0.0130119
747.046	0.0130738
747.124	0.0129383
747.203	0.0128754
747.281	0.0130228
747.359	0.0129288
747.437	0.0129011
747.515	0.0127436
747.593	0.0127138
747.671	0.0127769
747.749	0.0127464
747.828	0.0126582
747.906	0.0126829
747.984	0.0125887
748.062	0.0125589
748.140	0.0126043
748.218	0.0125225
748.296	0.0124500
748.374	0.0125298
748.453	0.0125313
748.531	0.0126209
748.609	0.0126669
748.687	0.0126439
748.765	0.0126774
748.843	0.0127849
748.921	0.0128192
748.999	0.0127110
749.078	0.0127534
749.156	0.0127830
749.234	0.0127436
749.312	0.0128242
749.390	0.0128804
749.468	0.0129531
749.546	0.0128390
749.624	0.0130437
749.703	0.0128477
749.781	0.0128573
749.859	0.0128046
749.937	0.0128706
750.015	0.0127969
750.093	0.0128922
750.171	0.0127940
750.249	0.0127100
750.328	0.0128168
750.406	0.0128008
750.484	0.0125599
750.562	0.0126884
750.640	0.0127647
750.718	0.0127354
750.796	0.0125047
750.874	0.0128688
750.953	0.0128108
751.031	0.0125959
751.109	0.0128701
751.187	0.0127148
751.265	0.0128101
751.343	0.0129016
751.421	0.0128413
751.499	0.0128382
751.578	0.0130015
751.656	0.0128606
751.734	0.0128481
751.812	0.0127754
751.890	0.0129520
751.968	0.0127596
752.046	0.0126707
752.124	0.0127643
752.203	0.0127036
752.281	0.0125355
752.359	0.0126675
752.437	0.0125523
752.515	0.0124731
752.593	0.0124361
752.671	0.0125102
752.749	0.0124179
752.828	0.0125339
752.906	0.0124980
752.984	0.0126234
753.062	0.0126713
753.140	0.0126154
753.218	0.0126125
753.296	0.0126215
753.374	0.0126626
753.453	0.0127041
753.531	0.0127551
753.609	0.0128565
753.687	0.0128829
753.765	0.0129186
753.843	0.0129038
753.921	0.0127793
753.999	0.0128583
754.078	0.0129369
754.156	0.0129259
754.234	0.0128298
754.312	0.0129050
754.390	0.0127327
754.468	0.0129060
754.546	0.0127531
754.624	0.0128213
754.703	0.0128317
754.781	0.0129222
754.859	0.0126234
754.937	0.0128653
755.015	0.0127740
755.093	0.0127355
755.171	0.0127731
755.249	0.0127877
755.328	0.0128741
755.406	0.0128075
755.484	0.0127278
755.562	0.0127279
755.640	0.0127537
755.718	0.0127736
755.796	0.0127415
755.874	0.0126878
755.953	0.0125771
756.031	0.0128190
756.109	0.0128679
756.187	0.0126696
756.265	0.0128404
756.343	0.0127732
756.421	0.0128139
756.499	0.0127710
756.578	0.0128525
756.656	0.0129290
756.734	0.0127764
756.812	0.0128261
756.890	0.0129868
756.968	0.0128082
757.046	0.0127448
757.124	0.0127122
757.203	0.0128955
757.281	0.0127003
757.359	0.0128410
757.437	0.0126098
757.515	0.0125478
757.593	0.0126144
757.671	0.0127328
757.749	0.0126934
757.828	0.0126740
757.906	0.0127500
757.984	0.0127325
758.062	0.0126510
758.140	0.0126517
758.218	0.0127541
758.296	0.0128114
758.374	0.0127635
758.453	0.0127676
758.531	0.0127357
758.609	0.0128368
758.687	0.0128865
758.765	0.0129717
758.843	0.0128722
758.921	0.0130190
758.999	0.0130264
759.078	0.0131499
759.156	0.0130293
759.234	0.0128634
759.312	0.0129964
759.390	0.0131110
759.468	0.0129229
759.546	0.0130619
759.624	0.0128706
759.703	0.0129139
759.781	0.0130093
759.859	0.0127791
759.937	0.0127225
760.015	0.0127464
760.093	0.0127264
760.171	0.0126554
760.249	0.0126591
760.328	0.0126385
760.406	0.0127324
760.484	0.0127054
760.562	0.0126588
760.640	0.0126768
760.718	0.0127896
760.796	0.0126920
760.874	0.0126776
760.953	0.0127950
761.031	0.0127879
761.109	0.0127679
761.187	0.0129095
761.265	0.0128143
761.343	0.0130842
761.421	0.0129910
761.499	0.0128470
761.578	0.0129417
761.656	0.0128564
761.734	0.0128833
761.812	0.0130025
761.890	0.0128058
761.968	0.0129136
762.046	0.0130084
762.124	0.0125809
762.203	0.0127813
762.281	0.0126438
762.359	0.0127207
762.437	0.0127010
762.515	0.0127464
762.593	0.0126186
762.671	0.0127087
762.749	0.0125142
762.828	0.0127065
762.906	0.0127463
762.984	0.0127843
763.062	0.0127563
763.140	0.0127634
763.218	0.0128468
763.296	0.0127251
763.374	0.0126954
763.453	0.0128130
763.531	0.0127864
763.609	0.0127018
763.687	0.0127223
763.765	0.0128384
763.843	0.0126963
763.921	0.0126568
763.999	0.0126807
764.078	0.0127702
764.156	0.0127292
764.234	0.0126736
764.312	0.0127859
764.390	0.0127631
764.468	0.0126738
764.546	0.0128915
764.624	0.0128896
764.703	0.0128092
764.781	0.0128580
764.859	0.0129044
764.937	0.0128992
765.015	0.0127446
765.093	0.0128627
765.171	0.0128253
765.249	0.0128541
765.328	0.0128426
765.406	0.0127914
765.484	0.0127306
765.562	0.0126582
765.640	0.0127479
765.718	0.0126952
765.796	0.0127727
765.874	0.0126454
765.953	0.0127148
766.031	0.0125978
766.109	0.0127115
766.187	0.0128635
766.265	0.0128027
766.343	0.0127098
766.421	0.0128484
766.499	0.0128558
766.578	0.0129005
766.656	0.0127367
766.734	0.0126767
766.812	0.0128597
766.890	0.0127209
766.968	0.0127050
767.046	0.0128213
767.124	0.0127435
767.203	0.0127055
767.281	0.0127111
767.359	0.0127187
767.437	0.0127899
767.515	0.0126688
767.593	0.0126271
767.671	0.0127696
767.749	0.0126748
767.828	0.0125385
767.906	0.0128780
767.984	0.0128405
768.062	0.0128306
768.140	0.0127685
768.218	0.0128703
768.296	0.0128758
768.374	0.0128217
768.453	0.0128345
768.531	0.0129004
768.609	0.0128564
768.687	0.0128416
768.765	0.0127592
768.843	0.0126963
768.921	0.0128732
768.999	0.0129163
769.078	0.0126116
769.156	0.0128407
769.234	0.0127769
769.312	0.0127341
769.390	0.0128377
769.468	0.0127328
769.546	0.0128181
769.624	0.0127945
769.703	0.0127848
769.781	0.0127224
769.859	0.0127118
769.937	0.0126738
770.015	0.0128193
770.093	0.0126565
770.171	0.0127328
770.249	0.0127813
770.328	0.0128097
770.406	0.0128481
770.484	0.0128066
770.562	0.0127841
770.640	0.0126768
770.718	0.0128600
770.796	0.0126796
770.874	0.0126902
770.953	0.0127694
771.031	0.0125948
771.109	0.0127058
771.187	0.0128342
771.265	0.0129119
771.343	0.0128374
771.421	0.0128088
771.499	0.0128887
771.578	0.0128985
771.656	0.0128057
771.734	0.0128083
771.812	0.0129749
771.890	0.0127898
771.968	0.0128989
772.046	0.0127969
772.124	0.0128605
772.203	0.0129750
772.281	0.0129343
772.359	0.0129006
772.437	0.0128181
772.515	0.0127723
772.593	0.0129163
772.671	0.0128957
772.749	0.0129253
772.828	0.0127647
772.906	0.0126608
772.984	0.0126332
773.062	0.0127958
773.140	0.0127974
773.218	0.0126730
773.296	0.0126677
773.374	0.0126421
773.453	0.0129243
773.531	0.0129188
773.609	0.0127565
773.687	0.0127045
773.765	0.0127110
773.843	0.0127352
773.921	0.0127859
773.999	0.0128661
774.078	0.0127770
774.156	0.0127511
774.234	0.0128325
774.312	0.0127193
774.390	0.0126764
774.468	0.0126005
774.546	0.0127245
774.624	0.0127102
774.703	0.0128040
774.781	0.0128565
774.859	0.0127695
774.937	0.0128258
775.015	0.0127180
775.093	0.0126782
775.171	0.0127991
775.249	0.0127946
775.328	0.0126384
775.406	0.0127490
775.484	0.0127835
775.562	0.0127568
775.640	0.0128181
775.718	0.0126012
775.796	0.0127554
775.874	0.0127110
775.953	0.0126104
776.031	0.0127177
776.109	0.0129121
776.187	0.0126128
776.265	0.0127489
776.343	0.0128081
776.421	0.0126642
776.499	0.0126890
776.578	0.0127721
776.656	0.0128138
776.734	0.0128980
776.812	0.0128297
776.890	0.0127688
776.968	0.0127857
777.046	0.0127718
777.124	0.0129243
777.203	0.0127665
777.281	0.0128760
777.359	0.0126635
777.437	0.0127275
777.515	0.0127965
777.593	0.0127981
777.671	0.0128178
777.749	0.0128360
777.828	0.0129945
777.906	0.0128899
777.984	0.0128561
778.062	0.0129714
778.140	0.0129738
778.218	0.0130463
778.296	0.0128749
778.374	0.0127900
778.453	0.0129050
778.531	0.0128734
778.609	0.0127216
778.687	0.0127119
778.765	0.0127362
778.843	0.0128023
778.921	0.0127050
778.999	0.0126379
779.078	0.0125996
779.156	0.0127040
779.234	0.0126244
779.312	0.0127789
779.390	0.0126749
779.468	0.0125436
779.546	0.0127037
779.624	0.0128913
779.703	0.0127979
779.781	0.0127142
779.859	0.0128452
779.937	0.0129430
780.015	0.0127942
780.093	0.0126519
780.171	0.0126356
780.249	0.0127468
780.328	0.0127797
780.406	0.0128319
780.484	0.0127691
780.562	0.0128362
780.640	0.0126948
780.718	0.0128511
780.796	0.0127954
780.874	0.0128191
780.953	0.0129029
781.031	0.0126548
781.109	0.0128486
781.187	0.0127527
781.265	0.0126409
781.343	0.0127820
781.421	0.0126828
781.499	0.0126918
781.578	0.0126700
781.656	0.0126564
781.734	0.0127219
781.812	0.0127390
781.890	0.0126374
781.968	0.0127394
782.046	0.0126765
782.124	0.0126138
782.203	0.0126443
782.281	0.0126933
782.359	0.0127288
782.437	0.0126838
782.515	0.0127570
782.593	0.0126733
782.671	0.0127222
782.749	0.0127847
782.828	0.0126923
782.906	0.0127309
782.984	0.0128578
783.062	0.0128382
783.140	0.0127422
783.218	0.0127290
783.296	0.0127841
783.374	0.0127052
783.453	0.0127672
783.531	0.0127160
783.609	0.0128199
783.687	0.0126019
783.765	0.0127506
783.843	0.0126409
783.921	0.0125900
783.999	0.0126411
784.078	0.0125786
784.156	0.0124794
784.234	0.0126302
784.312	0.0125386
784.390	0.0125131
784.468	0.0126150
784.546	0.0126080
784.624	0.0126694
784.703	0.0126236
784.781	0.0127274
784.859	0.0127291
784.937	0.0127095
785.015	0.0128552
785.093	0.0129828
785.171	0.0128745
785.249	0.0129155
785.328	0.0129467
785.406	0.0129803
785.484	0.0128616
785.562	0.0128162
785.640	0.0128476
785.718	0.0128977
785.796	0.0127518
785.874	0.0127548
785.953	0.0128456
786.031	0.0128189
786.109	0.0126859
786.187	0.0125856
786.265	0.0124569
786.343	0.0125629
786.421	0.0123644
786.499	0.0124879
786.578	0.0124628
786.656	0.0125397
786.734	0.0125224
786.812	0.0125446
786.890	0.0125459
786.968	0.0125964
787.046	0.0125749
787.124	0.0127375
787.203	0.0129241
787.281	0.0128452
787.359	0.0128291
787.437	0.0129776
787.515	0.0130611
787.593	0.0131361
787.671	0.0129572
787.749	0.0128725
787.828	0.0129752
787.906	0.0128655
787.984	0.0131436
788.062	0.0130206
788.140	0.0128628
788.218	0.0127148
788.296	0.0126984
788.374	0.0126404
788.453	0.0126067
788.531	0.0126412
788.609	0.0125988
788.687	0.0125478
788.765	0.0125223
788.843	0.0124531
788.921	0.0123891
788.999	0.0125741
789.078	0.0125494
789.156	0.0124234
789.234	0.0123969
789.312	0.0126427
789.390	0.0125977
789.468	0.0127113
789.546	0.0126769
789.624	0.0126554
789.703	0.0129858
789.781	0.0127150
789.859	0.0129343
789.937	0.0129907
790.015	0.0129279
790.093	0.0130386
790.171	0.0129612
790.249	0.0129398
790.328	0.0130371
790.406	0.0130564
790.484	0.0129855
790.562	0.0130457
790.640	0.0129191
790.718	0.0130096
790.796	0.0128314
790.874	0.0128254
790.953	0.0127909
791.031	0.0128270
791.109	0.0126501
791.187	0.0126282
791.265	0.0125861
791.343	0.0124691
791.421	0.0126396
791.499	0.0123904
791.578	0.0125871
791.656	0.0125383
791.734	0.0126470
791.812	0.0125041
791.890	0.0125262
791.968	0.0125874
792.046	0.0127390
792.124	0.0126682
792.203	0.0127663
792.281	0.0127930
792.359	0.0127330
792.437	0.0128503
792.515	0.0127390
792.593	0.0128648
792.671	0.0129616
792.749	0.0127692
792.828	0.0130173
792.906	0.0128796
792.984	0.0128278
793.062	0.0129836
793.140	0.0127346
793.218	0.0127579
793.296	0.0128146
793.374	0.0127805
793.453	0.0128040
793.531	0.0126951
793.609	0.0127523
793.687	0.0126959
793.765	0.0126512
793.843	0.0125246
793.921	0.0125663
793.999	0.0125124
794.078	0.0125356
794.156	0.0124976
794.234	0.0126965
794.312	0.0125083
794.390	0.0125605
794.468	0.0124091
794.546	0.0125443
794.624	0.0125966
794.703	0.0124292
794.781	0.0125944
794.859	0.0126173
794.937	0.0125763
795.015	0.0125970
795.093	0.0127989
795.171	0.0127598
795.249	0.0126636
795.328	0.0127562
795.406	0.0128963
795.484	0.0129324
795.562	0.0129380
795.640	0.0128664
795.718	0.0128339
795.796	0.0128840
795.874	0.0128801
795.953	0.0128008
796.031	0.0127799
796.109	0.0129311
796.187	0.0129333
796.265	0.0127944
796.343	0.0126239
796.421	0.0127489
796.499	0.0128905
796.578	0.0126511
796.656	0.0126593
796.734	0.0125104
796.812	0.0125900
796.890	0.0126236
796.968	0.0126433
797.046	0.0127959
797.124	0.0127184
797.203	0.0127588
797.281	0.0127151
797.359	0.0127540
797.437	0.0128806
797.515	0.0128049
797.593	0.0129247
797.671	0.0130398
797.749	0.0130058
797.828	0.0130053
797.906	0.0128833
797.984	0.0130472
798.062	0.0130912
798.140	0.0129922
798.218	0.0128157
798.296	0.0130312
798.374	0.0130946
798.453	0.0128978
798.531	0.0128510
798.609	0.0127409
798.687	0.0127828
798.765	0.0128131
798.843	0.0129234
798.921	0.0126591
798.999	0.0128541
799.078	0.0127473
799.156	0.0127071
799.234	0.0126788
799.312	0.0127553
799.390	0.0127910
799.468	0.0125214
799.546	0.0126611
799.624	0.0128580
799.703	0.0128131
799.781	0.0127030
799.859	0.0128079
799.937	0.0127306
800.015	0.0128338
800.093	0.0128817
800.171	0.0127992
800.249	0.0126768
800.328	0.0127696
800.406	0.0128988
800.484	0.0127444
800.562	0.0126881
800.640	0.0126649
800.718	0.0126431
800.796	0.0127100
800.874	0.0127624
800.953	0.0126446
801.031	0.0126438
801.109	0.0126653
801.187	0.0126229
801.265	0.0125912
801.343	0.0126111
801.421	0.0125558
801.499	0.0127018
801.578	0.0126826
801.656	0.0126939
801.734	0.0126081
801.812	0.0125557
801.890	0.0126691
801.968	0.0126530
802.046	0.0126871
802.124	0.0126817
802.203	0.0126636
802.281	0.0127462
802.359	0.0128252
802.437	0.0127547
802.515	0.0127029
802.593	0.0129364
802.671	0.0127926
802.749	0.0128266
802.828	0.0127532
802.906	0.0127867
802.984	0.0127597
803.062	0.0129204
803.140	0.0127859
803.218	0.0129099
803.296	0.0126963
803.374	0.0127905
803.453	0.0126843
803.531	0.0125856
803.609	0.0127599
803.687	0.0127857
803.765	0.0127133
803.843	0.0126980
803.921	0.0128216
803.999	0.0128333
804.078	0.0126862
804.156	0.0126620
804.234	0.0127937
804.312	0.0125983
804.390	0.0126566
804.468	0.0127689
804.546	0.0127280
804.624	0.0127734
804.703	0.0127679
804.781	0.0127384
804.859	0.0127290
804.937	0.0128698
805.015	0.0127798
805.093	0.0126969
805.171	0.0129252
805.249	0.0130268
805.328	0.0129187
805.406	0.0128171
805.484	0.0127381
805.562	0.0129210
805.640	0.0128751
805.718	0.0129015
805.796	0.0127843
805.874	0.0128384
805.953	0.0126984
806.031	0.0127101
806.109	0.0127229
806.187	0.0129082
806.265	0.0128014
806.343	0.0128396
806.421	0.0127368
806.499	0.0127322
806.578	0.0128008
806.656	0.0126685
806.734	0.0126703
806.812	0.0125878
806.890	0.0127464
806.968	0.0127872
807.046	0.0127314
807.124	0.0127409
807.203	0.0129607
807.281	0.0129443
807.359	0.0128703
807.437	0.0128976
807.515	0.0129556
807.593	0.0127687
807.671	0.0127275
807.749	0.0127844
807.828	0.0128829
807.906	0.0128989
807.984	0.0127003
808.062	0.0126920
808.140	0.0126781
808.218	0.0127746
808.296	0.0127245
808.374	0.0126659
808.453	0.0127325
808.531	0.0126440
808.609	0.0126425
808.687	0.0127596
808.765	0.0126595
808.843	0.0126616
808.921	0.0126594
808.999	0.0127551
809.078	0.0126732
809.156	0.0127972
809.234	0.0128698
809.312	0.0126686
809.390	0.0127735
809.468	0.0127773
809.546	0.0126777
809.624	0.0127782
809.703	0.0127942
809.781	0.0128004
809.859	0.0127325
809.937	0.0126149
810.015	0.0127119
810.093	0.0126875
810.171	0.0125571
810.249	0.0126212
810.328	0.0126781
810.406	0.0126768
810.484	0.0125719
810.562	0.0126281
810.640	0.0126945
810.718	0.0125810
810.796	0.0126745
810.874	0.0128006
810.953	0.0127407
811.031	0.0127488
811.109	0.0127704
811.187	0.0126337
811.265	0.0127500
811.343	0.0127805
811.421	0.0126627
811.499	0.0126452
811.578	0.0127023
811.656	0.0127953
811.734	0.0126843
811.812	0.0126181
811.890	0.0126345
811.968	0.0125563
812.046	0.0126510
812.124	0.0126205
812.203	0.0126876
812.281	0.0125993
812.359	0.0126679
812.437	0.0125992
812.515	0.0127601
812.593	0.0126996
812.671	0.0127882
812.749	0.0126483
812.828	0.0126157
812.906	0.0127734
812.984	0.0128890
813.062	0.0128267
813.140	0.0128806
813.218	0.0130014
813.296	0.0129505
813.374	0.0128789
813.453	0.0129758
813.531	0.0128242
813.609	0.0128392
813.687	0.0129832
813.765	0.0128920
813.843	0.0128008
813.921	0.0126937
813.999	0.0128252
814.078	0.0128053
814.156	0.0128676
814.234	0.0127538
814.312	0.0127142
814.390	0.0127651
814.468	0.0128352
814.546	0.0127233
814.624	0.0126448
814.703	0.0127436
814.781	0.0127193
814.859	0.0127261
814.937	0.0127572
815.015	0.0128097
815.093	0.0126157
815.171	0.0126180
815.249	0.0128179
815.328	0.0128226
815.406	0.0129114
815.484	0.0127876
815.562	0.0127769
815.640	0.0127836
815.718	0.0128876
815.796	0.0127838
815.874	0.0127908
815.953	0.0126627
816.031	0.0128079
816.109	0.0127552
816.187	0.0127528
816.265	0.0128968
816.343	0.0128016
816.421	0.0128133
816.499	0.0129317
816.578	0.0126689
816.656	0.0127598
816.734	0.0127985
816.812	0.0126935
816.890	0.0126836
816.968	0.0126334
817.046	0.0127669
817.124	0.0126736
817.203	0.0127866
817.281	0.0126118
817.359	0.0126437
817.437	0.0127755
817.515	0.0126333
817.593	0.0126304
817.671	0.0127177
817.749	0.0128972
817.828	0.0127679
817.906	0.0127852
817.984	0.0127881
818.062	0.0129622
818.140	0.0128857
818.218	0.0128271
818.296	0.0128733
818.374	0.0129601
818.453	0.0129490
818.531	0.0129903
818.609	0.0129517
818.687	0.0128723
818.765	0.0130106
818.843	0.0128606
818.921	0.0128273
818.999	0.0127660
819.078	0.0127718
819.156	0.0126569
819.234	0.0126420
819.312	0.0126278
819.390	0.0125848
819.468	0.0124587
819.546	0.0127393
819.624	0.0126321
819.703	0.0126275
819.781	0.0126241
819.859	0.0126537
819.937	0.0125862
820.015	0.0125815
820.093	0.0127280
820.171	0.0129657
820.249	0.0128910
820.328	0.0129452
820.406	0.0128471
820.484	0.0129044
820.562	0.0126324
820.640	0.0128574
820.718	0.0128831
820.796	0.0128402
820.874	0.0127537
820.953	0.0128417
821.031	0.0129307
821.109	0.0128657
821.187	0.0127385
821.265	0.0125800
821.343	0.0125117
821.421	0.0126094
821.499	0.0128629
821.578	0.0126852
821.656	0.0126913
821.734	0.0127716
821.812	0.0128316
821.890	0.0127453
821.968	0.0127298
822.046	0.0127401
822.124	0.0127982
822.203	0.0127663
822.281	0.0127518
822.359	0.0128529
822.437	0.0128217
822.515	0.0128232
822.593	0.0128528
822.671	0.0128585
822.749	0.0127730
822.828	0.0126944
822.906	0.0126981
822.984	0.0126937
823.062	0.0126534
823.140	0.0127348
823.218	0.0128316
823.296	0.0126691
823.374	0.0127229
823.453	0.0125595
823.531	0.0126571
823.609	0.0126060
823.687	0.0126153
823.765	0.0126098
823.843	0.0126347
823.921	0.0127711
823.999	0.0125944
824.078	0.0127069
824.156	0.0126928
824.234	0.0127249
824.312	0.0126829
824.390	0.0126632
824.468	0.0128356
824.546	0.0126752
824.624	0.0126060
824.703	0.0127021
824.781	0.0127003
824.859	0.0127525
824.937	0.0126761
825.015	0.0127984
825.093	0.0126458
825.171	0.0127277
825.249	0.0127050
825.328	0.0126189
825.406	0.0126482
825.484	0.0126502
825.562	0.0126775
825.640	0.0127376
825.718	0.0125518
825.796	0.0127438
825.874	0.0125986
825.953	0.0125591
826.031	0.0126894
826.109	0.0126328
826.187	0.0127257
826.265	0.0127998
826.343	0.0127596
826.421	0.0128461
826.499	0.0127144
826.578	0.0129400
826.656	0.0126320
826.734	0.0126623
826.812	0.0128378
826.890	0.0128405
826.968	0.0127027
827.046	0.0126598
827.124	0.0127536
827.203	0.0127507
827.281	0.0127298
827.359	0.0128405
827.437	0.0128455
827.515	0.0128201
827.593	0.0127632
827.671	0.0128587
827.749	0.0127773
827.828	0.0128642
827.906	0.0128278
827.984	0.0128505
828.062	0.0128321
828.140	0.0128510
828.218	0.0128822
828.296	0.0128807
828.374	0.0129457
828.453	0.0128165
828.531	0.0128008
828.609	0.0130636
828.687	0.0127974
828.765	0.0128294
828.843	0.0129076
828.921	0.0130106
828.999	0.0129728
829.078	0.0128186
829.156	0.0128655
829.234	0.0128370
829.312	0.0128244
829.390	0.0128604
829.468	0.0129324
829.546	0.0127247
829.624	0.0127637
829.703	0.0128323
829.781	0.0129076
829.859	0.0127012
829.937	0.0127532
830.015	0.0127539
830.093	0.0126440
830.171	0.0127129
830.249	0.0127825
830.328	0.0128001
830.406	0.0127702
830.484	0.0128252
830.562	0.0129269
830.640	0.0128554
830.718	0.0128708
830.796	0.0126947
830.874	0.0127374
830.953	0.0127492
831.031	0.0129179
831.109	0.0129079
831.187	0.0128210
831.265	0.0127795
831.343	0.0127583
831.421	0.0127926
831.499	0.0127431
831.578	0.0127740
831.656	0.0129891
831.734	0.0127089
831.812	0.0127426
831.890	0.0126649
831.968	0.0127403
832.046	0.0127306
832.124	0.0126588
832.203	0.0127978
832.281	0.0126987
832.359	0.0127479
832.437	0.0126804
832.515	0.0127278
832.593	0.0126883
832.671	0.0127339
832.749	0.0127995
832.828	0.0127095
832.906	0.0127730
832.984	0.0126929
833.062	0.0127873
833.140	0.0128085
833.218	0.0128146
833.296	0.0128351
833.374	0.0126336
833.453	0.0129305
833.531	0.0128190
833.609	0.0127141
833.687	0.0126442
833.765	0.0127751
833.843	0.0127689
833.921	0.0128310
833.999	0.0128535
834.078	0.0127672
834.156	0.0126895
834.234	0.0128601
834.312	0.0128651
834.390	0.0127862
834.468	0.0128633
834.546	0.0128070
834.624	0.0128399
834.703	0.0128105
834.781	0.0127789
834.859	0.0128057
834.937	0.0128118
835.015	0.0128180
835.093	0.0127811
835.171	0.0127444
835.249	0.0128510
835.328	0.0128621
835.406	0.0128436
835.484	0.0127424
835.562	0.0128078
835.640	0.0127754
835.718	0.0127430
835.796	0.0127751
835.874	0.0129253
835.953	0.0128371
836.031	0.0126973
836.109	0.0127507
836.187	0.0128596
836.265	0.0128514
836.343	0.0129398
836.421	0.0128861
836.499	0.0128397
836.578	0.0127823
836.656	0.0129255
836.734	0.0128886
836.812	0.0128548
836.890	0.0129772
836.968	0.0129397
837.046	0.0129401
837.124	0.0128983
837.203	0.0129383
837.281	0.0129688
837.359	0.0128985
837.437	0.0129853
837.515	0.0128391
837.593	0.0129627
837.671	0.0130108
837.749	0.0128839
837.828	0.0127940
837.906	0.0128563
837.984	0.0128671
838.062	0.0129662
838.140	0.0127608
838.218	0.0126874
838.296	0.0128389
838.374	0.0127735
838.453	0.0127220
838.531	0.0127711
838.609	0.0128781
838.687	0.0127975
838.765	0.0128108
838.843	0.0128237
838.921	0.0129144
838.999	0.0129449
839.078	0.0130360
839.156	0.0129131
839.234	0.0129259
839.312	0.0130550
839.390	0.0131032
839.468	0.0129831
839.546	0.0128229
839.624	0.0128277
839.703	0.0128767
839.781	0.0129469
839.859	0.0128712
839.937	0.0128458
840.015	0.0128213
840.093	0.0129922
840.171	0.0129315
840.249	0.0128185
840.328	0.0127885
840.406	0.0127872
840.484	0.0126728
840.562	0.0128116
840.640	0.0127355
840.718	0.0128120
840.796	0.0128340
840.874	0.0127460
840.953	0.0127376
841.031	0.0126763
841.109	0.0130680
841.187	0.0127944
841.265	0.0128294
841.343	0.0128784
841.421	0.0128683
841.499	0.0128710
841.578	0.0129786
841.656	0.0128828
841.734	0.0128517
841.812	0.0127728
841.890	0.0127905
841.968	0.0128406
842.046	0.0127831
842.124	0.0127094
842.203	0.0127458
842.281	0.0127401
842.359	0.0127199
842.437	0.0127333
842.515	0.0127815
842.593	0.0128013
842.671	0.0127972
842.749	0.0126023
842.828	0.0126229
842.906	0.0126871
842.984	0.0126834
843.062	0.0126778
843.140	0.0126936
843.218	0.0127312
843.296	0.0128032
843.374	0.0128628
843.453	0.0129005
843.531	0.0128362
843.609	0.0128293
843.687	0.0128328
843.765	0.0127526
843.843	0.0128332
843.921	0.0128017
843.999	0.0130196
844.078	0.0127831
844.156	0.0127878
844.234	0.0128578
844.312	0.0128545
844.390	0.0128844
844.468	0.0128015
844.546	0.0127795
844.624	0.0127892
844.703	0.0127930
844.781	0.0126396
844.859	0.0126786
844.937	0.0126953
845.015	0.0125710
845.093	0.0126902
845.171	0.0127677
845.249	0.0125226
845.328	0.0126615
845.406	0.0126321
845.484	0.0126167
845.562	0.0125729
845.640	0.0125977
845.718	0.0127168
845.796	0.0127962
845.874	0.0126188
845.953	0.0127395
846.031	0.0128018
846.109	0.0126706
846.187	0.0129004
846.265	0.0127801
846.343	0.0128514
846.421	0.0128762
846.499	0.0128636
846.578	0.0128101
846.656	0.0127779
846.734	0.0128564
846.812	0.0127949
846.890	0.0128191
846.968	0.0129818
847.046	0.0128984
847.124	0.0128732
847.203	0.0128268
847.281	0.0126983
847.359	0.0127644
847.437	0.0127412
847.515	0.0128947
847.593	0.0128753
847.671	0.0129128
847.749	0.0128078
847.828	0.0129350
847.906	0.0128528
847.984	0.0129465
848.062	0.0128229
848.140	0.0129264
848.218	0.0128194
848.296	0.0129533
848.374	0.0130932
848.453	0.0128644
848.531	0.0128874
848.609	0.0129102
848.687	0.0130326
848.765	0.0128024
848.843	0.0128000
848.921	0.0128889
848.999	0.0128619
849.078	0.0129010
849.156	0.0128434
849.234	0.0129370
849.312	0.0128795
849.390	0.0128055
849.468	0.0127509
849.546	0.0128628
849.624	0.0127441
849.703	0.0128300
849.781	0.0129234
849.859	0.0129231
849.937	0.0127771
850.015	0.0126377
850.093	0.0129243
850.171	0.0129764
850.249	0.0128010
850.328	0.0128579
850.406	0.0128220
850.484	0.0127356
850.562	0.0128546
850.640	0.0129191
850.718	0.0128986
850.796	0.0128310
850.874	0.0127385
850.953	0.0128881
851.031	0.0128354
851.109	0.0126594
851.187	0.0129077
851.265	0.0128310
851.343	0.0127893
851.421	0.0127986
851.499	0.0128511
851.578	0.0128288
851.656	0.0129297
851.734	0.0127193
851.812	0.0129066
851.890	0.0128973
851.968	0.0128706
852.046	0.0129610
852.124	0.0130345
852.203	0.0128975
852.281	0.0130911
852.359	0.0129832
852.437	0.0128424
852.515	0.0128629
852.593	0.0128889
852.671	0.0129150
852.749	0.0128072
852.828	0.0129086
852.906	0.0128390
852.984	0.0127528
853.062	0.0129096
853.140	0.0127640
853.218	0.0127500
853.296	0.0128578
853.374	0.0127618
853.453	0.0128284
853.531	0.0127971
853.609	0.0128330
853.687	0.0128347
853.765	0.0126573
853.843	0.0127348
853.921	0.0127703
853.999	0.0127297
854.078	0.0127148
854.156	0.0127770
854.234	0.0128136
854.312	0.0127193
854.390	0.0128656
854.468	0.0127259
854.546	0.0127636
854.624	0.0128815
854.703	0.0128957
854.781	0.0128844
854.859	0.0127637
854.937	0.0127885
855.015	0.0128397
855.093	0.0127676
855.171	0.0125831
855.249	0.0126942
855.328	0.0126723
855.406	0.0125622
855.484	0.0126385
855.562	0.0126270
855.640	0.0126050
855.718	0.0125935
855.796	0.0125992
855.874	0.0126555
855.953	0.0127455
856.031	0.0127755
856.109	0.0127486
856.187	0.0127361
856.265	0.0127151
856.343	0.0127248
856.421	0.0127142
856.499	0.0127577
856.578	0.0127878
856.656	0.0127225
856.734	0.0128337
856.812	0.0127283
856.890	0.0127541
856.968	0.0128141
857.046	0.0127506
857.124	0.0127623
857.203	0.0127544
857.281	0.0127854
857.359	0.0127295
857.437	0.0127616
857.515	0.0128712
857.593	0.0128627
857.671	0.0127964
857.749	0.0127966
857.828	0.0128191
857.906	0.0128487
857.984	0.0127571
858.062	0.0129483
858.140	0.0128563
858.218	0.0126388
858.296	0.0128278
858.374	0.0128389
858.453	0.0126996
858.531	0.0128535
858.609	0.0129683
858.687	0.0128701
858.765	0.0127807
858.843	0.0126640
858.921	0.0127726
858.999	0.0127887
859.078	0.0126817
859.156	0.0127349
859.234	0.0127914
859.312	0.0129297
859.390	0.0127266
859.468	0.0127573
859.546	0.0128445
859.624	0.0128802
859.703	0.0127295
859.781	0.0128116
859.859	0.0128798
859.937	0.0127216
860.015	0.0126412
860.093	0.0126755
860.171	0.0128434
860.249	0.0127099
860.328	0.0127631
860.406	0.0128912
860.484	0.0126841
860.562	0.0125667
860.640	0.0126630
860.718	0.0125842
860.796	0.0128143
860.874	0.0127368
860.953	0.0126648
861.031	0.0127062
861.109	0.0126472
861.187	0.0127261
861.265	0.0127554
861.343	0.0127305
861.421	0.0127509
861.499	0.0127621
861.578	0.0127534
861.656	0.0127824
861.734	0.0127940
861.812	0.0129317
861.890	0.0128955
861.968	0.0128918
862.046	0.0128902
862.124	0.0128618
862.203	0.0128451
862.281	0.0129340
862.359	0.0130177
862.437	0.0129546
862.515	0.0129034
862.593	0.0127941
862.671	0.0128797
862.749	0.0127869
862.828	0.0128847
862.906	0.0128085
862.984	0.0127188
863.062	0.0124999
863.140	0.0125561
863.218	0.0127158
863.296	0.0126284
863.374	0.0127669
863.453	0.0126737
863.531	0.0126797
863.609	0.0127432
863.687	0.0126838
863.765	0.0126820
863.843	0.0127087
863.921	0.0128306
863.999	0.0127342
864.078	0.0128011
864.156	0.0128619
864.234	0.0127742
864.312	0.0128208
864.390	0.0128368
864.468	0.0129258
864.546	0.0128113
864.624	0.0128693
864.703	0.0129240
864.781	0.0128729
864.859	0.0129107
864.937	0.0127727
865.015	0.0127665
865.093	0.0126813
865.171	0.0126836
865.249	0.0127003
865.328	0.0127041
865.406	0.0127178
865.484	0.0126449
865.562	0.0126206
865.640	0.0124488
865.718	0.0126032
865.796	0.0127813
865.874	0.0126318
865.953	0.0126951
866.031	0.0127601
866.109	0.0126563
866.187	0.0127118
866.265	0.0128240
866.343	0.0127488
866.421	0.0127646
866.499	0.0127268
866.578	0.0129238
866.656	0.0129038
866.734	0.0128760
866.812	0.0128275
866.890	0.0127886
866.968	0.0127698
867.046	0.0129389
867.124	0.0129090
867.203	0.0128687
867.281	0.0130159
867.359	0.0128769
867.437	0.0127946
867.515	0.0128001
867.593	0.0128436
867.671	0.0127714
867.749	0.0127451
867.828	0.0127422
867.906	0.0127861
867.984	0.0126786
868.062	0.0127431
868.140	0.0127426
868.218	0.0126574
868.296	0.0127440
868.374	0.0127940
868.453	0.0128662
868.531	0.0126975
868.609	0.0127656
868.687	0.0128607
868.765	0.0128298
868.843	0.0128557
868.921	0.0127434
868.999	0.0128869
869.078	0.0127152
869.156	0.0129233
869.234	0.0128639
869.312	0.0127734
869.390	0.0127918
869.468	0.0127660
869.546	0.0128612
869.624	0.0128449
869.703	0.0127668
869.781	0.0129255
869.859	0.0127419
869.937	0.0128988
870.015	0.0129196
870.093	0.0127254
870.171	0.0127166
870.249	0.0128741
870.328	0.0126745
870.406	0.0128120
870.484	0.0130352
870.562	0.0127757
870.640	0.0128484
870.718	0.0127114
870.796	0.0128772
870.874	0.0127161
870.953	0.0128735
871.031	0.0127981
871.109	0.0127849
871.187	0.0126554
871.265	0.0127350
871.343	0.0127258
871.421	0.0127914
871.499	0.0126159
871.578	0.0127234
871.656	0.0126917
871.734	0.0126698
871.812	0.0127911
871.890	0.0127725
871.968	0.0126090
872.046	0.0128002
872.124	0.0127777
872.203	0.0128288
872.281	0.0128892
872.359	0.0128780
872.437	0.0128153
872.515	0.0127467
872.593	0.0127874
872.671	0.0128542
872.749	0.0129318
872.828	0.0128806
872.906	0.0127212
872.984	0.0128010
873.062	0.0129117
873.140	0.0127716
873.218	0.0128440
873.296	0.0127009
873.374	0.0128388
873.453	0.0126505
873.531	0.0126660
873.609	0.0126229
873.687	0.0128072
873.765	0.0126690
873.843	0.0128496
873.921	0.0127298
873.999	0.0126433
874.078	0.0127848
874.156	0.0127816
874.234	0.0126561
874.312	0.0126516
874.390	0.0128924
874.468	0.0127880
874.546	0.0127106
874.624	0.0127882
874.703	0.0127113
874.781	0.0127857
874.859	0.0128003
874.937	0.0126993
875.015	0.0126478
875.093	0.0128159
875.171	0.0127636
875.249	0.0128556
875.328	0.0128013
875.406	0.0128352
875.484	0.0126597
875.562	0.0126618
875.640	0.0126843
875.718	0.0126451
875.796	0.0125489
875.874	0.0127760
875.953	0.0127184
876.031	0.0127710
876.109	0.0126992
876.187	0.0126555
876.265	0.0127013
876.343	0.0127354
876.421	0.0126669
876.499	0.0127767
876.578	0.0126714
876.656	0.0126641
876.734	0.0127958
876.812	0.0127544
876.890	0.0127128
876.968	0.0127139
877.046	0.0127190
877.124	0.0127654
877.203	0.0125302
877.281	0.0125342
877.359	0.0127141
877.437	0.0127675
877.515	0.0126625
877.593	0.0125743
877.671	0.0127351
877.749	0.0127456
877.828	0.0127040
877.906	0.0126522
877.984	0.0126669
878.062	0.0127895
878.140	0.0127087
878.218	0.0127119
878.296	0.0128178
878.374	0.0128958
878.453	0.0126872
878.531	0.0126589
878.609	0.0129056
878.687	0.0126121
878.765	0.0126402
878.843	0.0127277
878.921	0.0125611
878.999	0.0124355
879.078	0.0124861
879.156	0.0123999
879.234	0.0124865
879.312	0.0124334
879.390	0.0125468
879.468	0.0127308
879.546	0.0125241
879.624	0.0127547
879.703	0.0126836
879.781	0.0128385
879.859	0.0130088
879.937	0.0130189
880.015	0.0130869
880.093	0.0130727
880.171	0.0129606
880.249	0.0129379
880.328	0.0129777
880.406	0.0129269
880.484	0.0128217
880.562	0.0128845
880.640	0.0126203
880.718	0.0125678
880.796	0.0125484
880.874	0.0125350
880.953	0.0124319
881.031	0.0124570
881.109	0.0125085
881.187	0.0124270
881.265	0.0123320
881.343	0.0125009
881.421	0.0127127
881.499	0.0127560
881.578	0.0126070
881.656	0.0128194
881.734	0.0127259
881.812	0.0129639
881.890	0.0128828
881.968	0.0127631
882.046	0.0128148
882.124	0.0128127
882.203	0.0129881
882.281	0.0129116
882.359	0.0129207
882.437	0.0129293
882.515	0.0129831
882.593	0.0128729
882.671	0.0130369
882.749	0.0130100
882.828	0.0129242
882.906	0.0128614
882.984	0.0129621
883.062	0.0127583
883.140	0.0127991
883.218	0.0127264
883.296	0.0127068
883.374	0.0128072
883.453	0.0127431
883.531	0.0127267
883.609	0.0126469
883.687	0.0124683
883.765	0.0126293
883.843	0.0125624
883.921	0.0124982
883.999	0.0124274
884.078	0.0125825
884.156	0.0127040
884.234	0.0128662
884.312	0.0126900
884.390	0.0125883
884.468	0.0127908
884.546	0.0128771
884.624	0.0128159
884.703	0.0128246
884.781	0.0128552
884.859	0.0128755
884.937	0.0128785
885.015	0.0128699
885.093	0.0128613
885.171	0.0130183
885.249	0.0129169
885.328	0.0128869
885.406	0.0130116
885.484	0.0128503
885.562	0.0126473
885.640	0.0126317
885.718	0.0127369
885.796	0.0128074
885.874	0.0127831
885.953	0.0125552
886.031	0.0124866
886.109	0.0125054
886.187	0.0123781
886.265	0.0125139
886.343	0.0126858
886.421	0.0126247
886.499	0.0126223
886.578	0.0126221
886.656	0.0128458
886.734	0.0127956
886.812	0.0126785
886.890	0.0127299
886.968	0.0129423
887.046	0.0128897
887.124	0.0128919
887.203	0.0127518
887.281	0.0128774
887.359	0.0129428
887.437	0.0127992
887.515	0.0127503
887.593	0.0127605
887.671	0.0127424
887.749	0.0127613
887.828	0.0126937
887.906	0.0125743
887.984	0.0128072
888.062	0.0128050
888.140	0.0126727
888.218	0.0126154
888.296	0.0126655
888.374	0.0126885
888.453	0.0126817
888.531	0.0126801
888.609	0.0126882
888.687	0.0125924
888.765	0.0126730
888.843	0.0126469
888.921	0.0126987
888.999	0.0127168
889.078	0.0127319
889.156	0.0125489
889.234	0.0127531
889.312	0.0127127
889.390	0.0128152
889.468	0.0127551
889.546	0.0127513
889.624	0.0127667
889.703	0.0127792
889.781	0.0127901
889.859	0.0127338
889.937	0.0126895
890.015	0.0125889
890.093	0.0126814
890.171	0.0126485
890.249	0.0125750
890.328	0.0126956
890.406	0.0125706
890.484	0.0125431
890.562	0.0127254
890.640	0.0126417
890.718	0.0127114
890.796	0.0126789
890.874	0.0126431
890.953	0.0127094
891.031	0.0127606
891.109	0.0127041
891.187	0.0126772
891.265	0.0128586
891.343	0.0126919
891.421	0.0126447
891.499	0.0128069
891.578	0.0128402
891.656	0.0127676
891.734	0.0127787
891.812	0.0129200
891.890	0.0129401
891.968	0.0128663
892.046	0.0128851
892.124	0.0128368
892.203	0.0128281
892.281	0.0127421
892.359	0.0126826
892.437	0.0128343
892.515	0.0128055
892.593	0.0127357
892.671	0.0127957
892.749	0.0128057
892.828	0.0128723
892.906	0.0128239
892.984	0.0127142
893.062	0.0129129
893.140	0.0128276
893.218	0.0127114
893.296	0.0127827
893.374	0.0128493
893.453	0.0126656
893.531	0.0128473
893.609	0.0127568
893.687	0.0128876
893.765	0.0127635
893.843	0.0127461
893.921	0.0127199
893.999	0.0127106
894.078	0.0127790
894.156	0.0127172
894.234	0.0127751
894.312	0.0128030
894.390	0.0127694
894.468	0.0126101
894.546	0.0126445
894.624	0.0126621
894.703	0.0127447
894.781	0.0127187
894.859	0.0126366
894.937	0.0128065
895.015	0.0128223
895.093	0.0127565
895.171	0.0128272
895.249	0.0128873
895.328	0.0128072
895.406	0.0128230
895.484	0.0127678
895.562	0.0127593
895.640	0.0129134
895.718	0.0127026
895.796	0.0126926
895.874	0.0127045
895.953	0.0126256
896.031	0.0126450
896.109	0.0126152
896.187	0.0123611
896.265	0.0125439
896.343	0.0124147
896.421	0.0123721
896.499	0.0125307
896.578	0.0125240
896.656	0.0125923
896.734	0.0126320
896.812	0.0124985
896.890	0.0126892
896.968	0.0127436
897.046	0.0127712
897.124	0.0127888
897.203	0.0129797
897.281	0.0129450
897.359	0.0128114
897.437	0.0129755
897.515	0.0130621
897.593	0.0130032
897.671	0.0130036
897.749	0.0128265
897.828	0.0128214
897.906	0.0129857
897.984	0.0128461
898.062	0.0126843
898.140	0.0126672
898.218	0.0125995
898.296	0.0126111
898.374	0.0125295
898.453	0.0125353
898.531	0.0126772
898.609	0.0125965
898.687	0.0124927
898.765	0.0127233
898.843	0.0127157
898.921	0.0127090
898.999	0.0126611
899.078	0.0127205
899.156	0.0127449
899.234	0.0127696
899.312	0.0128121
899.390	0.0128726
899.468	0.0127924
899.546	0.0127895
899.624	0.0126909
899.703	0.0128686
899.781	0.0128896
899.859	0.0128129
899.937	0.0128202
900.015	0.0128181
900.093	0.0128977
900.171	0.0127702
900.249	0.0127707
900.328	0.0128240
900.406	0.0128579
900.484	0.0127295
900.562	0.0128960
900.640	0.0128490
900.718	0.0127805
900.796	0.0128422
900.874	0.0127560
900.953	0.0128826
901.031	0.0130330
901.109	0.0128305
901.187	0.0127818
901.265	0.0128838
901.343	0.0129297
901.421	0.0128934
901.499	0.0127940
901.578	0.0127986
901.656	0.0127699
901.734	0.0128361
901.812	0.0129862
901.890	0.0127596
901.968	0.0127622
902.046	0.0127228
902.124	0.0127654
902.203	0.0127828
902.281	0.0126859
902.359	0.0127170
902.437	0.0127269
902.515	0.0125871
902.593	0.0127007
902.671	0.0126823
902.749	0.0126783
902.828	0.0126091
902.906	0.0125768
902.984	0.0126776
903.062	0.0126584
903.140	0.0127210
903.218	0.0127951
903.296	0.0128590
903.374	0.0128329
903.453	0.0128411
903.531	0.0128561
903.609	0.0129005
903.687	0.0129018
903.765	0.0129347
903.843	0.0127895
903.921	0.0130026
903.999	0.0128880
904.078	0.0128661
904.156	0.0127493
904.234	0.0127627
904.312	0.0128574
904.390	0.0126681
904.468	0.0126646
904.546	0.0125581
904.624	0.0125777
904.703	0.0126252
904.781	0.0126320
904.859	0.0124676
904.937	0.0126771
905.015	0.0126138
905.093	0.0126804
905.171	0.0127788
905.249	0.0126192
905.328	0.0125918
905.406	0.0126588
905.484	0.0126675
905.562	0.0126812
905.640	0.0126563
905.718	0.0127706
905.796	0.0128905
905.874	0.0128014
905.953	0.0128912
906.031	0.0128690
906.109	0.0127912
906.187	0.0128894
906.265	0.0128747
906.343	0.0128278
906.421	0.0128133
906.499	0.0126653
906.578	0.0128413
906.656	0.0128581
906.734	0.0127152
906.812	0.0126548
906.890	0.0127337
906.968	0.0127136
907.046	0.0126232
907.124	0.0125952
907.203	0.0127526
907.281	0.0127299
907.359	0.0126237
907.437	0.0127869
907.515	0.0126955
907.593	0.0126748
907.671	0.0126955
907.749	0.0127830
907.828	0.0126643
907.906	0.0126607
907.984	0.0127269
908.062	0.0127440
908.140	0.0127405
908.218	0.0127513
908.296	0.0126965
908.374	0.0128294
908.453	0.0127359
908.531	0.0127186
908.609	0.0128429
908.687	0.0126741
908.765	0.0125743
908.843	0.0127582
908.921	0.0126649
908.999	0.0127741
909.078	0.0126842
909.156	0.0128358
909.234	0.0127898
909.312	0.0126891
909.390	0.0126923
909.468	0.0127709
909.546	0.0125902
909.624	0.0126315
909.703	0.0125477
909.781	0.0125919
909.859	0.0124785
909.937	0.0125362
910.015	0.0125666
910.093	0.0125727
910.171	0.0125661
910.249	0.0126403
910.328	0.0126229
910.406	0.0126689
910.484	0.0126460
910.562	0.0125554
910.640	0.0126745
910.718	0.0126743
910.796	0.0128723
910.874	0.0127612
910.953	0.0126208
911.031	0.0127938
911.109	0.0127427
911.187	0.0129076
911.265	0.0128588
911.343	0.0128522
911.421	0.0128413
911.499	0.0127082
911.578	0.0129200
911.656	0.0128072
911.734	0.0128712
911.812	0.0127560
911.890	0.0128174
911.968	0.0128576
912.046	0.0128332
912.124	0.0128627
912.203	0.0127283
912.281	0.0126904
912.359	0.0127637
912.437	0.0127571
912.515	0.0128626
912.593	0.0127328
912.671	0.0126781
912.749	0.0125807
912.828	0.0126231
912.906	0.0126862
912.984	0.0127146
913.062	0.0127348
913.140	0.0127264
913.218	0.0126838
913.296	0.0128510
913.374	0.0127629
913.453	0.0126529
913.531	0.0127198
913.609	0.0128178
913.687	0.0126919
913.765	0.0128632
913.843	0.0128595
913.921	0.0129812
913.999	0.0128252
914.078	0.0129026
914.156	0.0128484
914.234	0.0127480
914.312	0.0129453
914.390	0.0127990
914.468	0.0127969
914.546	0.0127934
914.624	0.0128226
914.703	0.0126641
914.781	0.0127139
914.859	0.0126690
914.937	0.0126823
915.015	0.0126154
915.093	0.0127325
915.171	0.0127393
915.249	0.0125254
915.328	0.0125682
915.406	0.0126327
915.484	0.0127898
915.562	0.0127420
915.640	0.0126976
915.718	0.0126980
915.796	0.0127280
915.874	0.0126479
915.953	0.0127843
916.031	0.0128692
916.109	0.0129295
916.187	0.0129282
916.265	0.0127583
916.343	0.0128654
916.421	0.0130414
916.499	0.0128963
916.578	0.0128969
916.656	0.0128002
916.734	0.0127924
916.812	0.0128172
916.890	0.0128184
916.968	0.0128247
917.046	0.0127966
917.124	0.0127067
917.203	0.0129385
917.281	0.0127969
917.359	0.0128455
917.437	0.0128465
917.515	0.0127306
917.593	0.0128577
917.671	0.0128661
917.749	0.0128432
917.828	0.0127470
917.906	0.0129611
917.984	0.0128397
918.062	0.0128143
918.140	0.0129700
918.218	0.0128560
918.296	0.0128835
918.374	0.0129987
918.453	0.0128806
918.531	0.0127745
918.609	0.0129423
918.687	0.0129617
918.765	0.0128817
918.843	0.0128265
918.921	0.0128728
918.999	0.0129470
919.078	0.0127891
919.156	0.0127028
919.234	0.0129539
919.312	0.0128625
919.390	0.0128094
919.468	0.0128685
919.546	0.0128284
919.624	0.0127351
919.703	0.0128049
919.781	0.0129612
919.859	0.0128253
919.937	0.0126736
