05/06/2022	18:44:48	Ver.	4.1	UNKNOWN
Optical Delay	600.015094	Delta X		0.078125	Sweeps	1	Scan Rate	0/0
Coordinates	Axis 1	NaN	Axis 2	NaN	Axis 3	NaN	Axis 4	NaN	Axis 5	NaN	Axis 6	0.000000
TX Power	0.000000	RX Power	0.000000

600.015	0.0128014
600.093	0.0128264
600.171	0.0128709
600.249	0.0128198
600.328	0.0127785
600.406	0.0127641
600.484	0.0127956
600.562	0.0127248
600.640	0.0128058
600.718	0.0128281
600.796	0.0127911
600.874	0.0128185
600.953	0.0126769
601.031	0.0127866
601.109	0.0128897
601.187	0.0128821
601.265	0.0126633
601.343	0.0126945
601.421	0.0127522
601.499	0.0128048
601.578	0.0129271
601.656	0.0127804
601.734	0.0128623
601.812	0.0128001
601.890	0.0128002
601.968	0.0128451
602.046	0.0128755
602.124	0.0127744
602.203	0.0128284
602.281	0.0128395
602.359	0.0127797
602.437	0.0127110
602.515	0.0127630
602.593	0.0128933
602.671	0.0127588
602.749	0.0127792
602.828	0.0129260
602.906	0.0127999
602.984	0.0128399
603.062	0.0127251
603.140	0.0127454
603.218	0.0128407
603.296	0.0128183
603.374	0.0128253
603.453	0.0128936
603.531	0.0128104
603.609	0.0128020
603.687	0.0129240
603.765	0.0126492
603.843	0.0127138
603.921	0.0127968
603.999	0.0127538
604.078	0.0127737
604.156	0.0128181
604.234	0.0128828
604.312	0.0127508
604.390	0.0128873
604.468	0.0128096
604.546	0.0126919
604.624	0.0127821
604.703	0.0128201
604.781	0.0127802
604.859	0.0128133
604.937	0.0129341
605.015	0.0127731
605.093	0.0127554
605.171	0.0129217
605.249	0.0128307
605.328	0.0126357
605.406	0.0126959
605.484	0.0129248
605.562	0.0126357
605.640	0.0127081
605.718	0.0129214
605.796	0.0127012
605.874	0.0127275
605.953	0.0126398
606.031	0.0128311
606.109	0.0129517
606.187	0.0126964
606.265	0.0128371
606.343	0.0127315
606.421	0.0127650
606.499	0.0128392
606.578	0.0127910
606.656	0.0128059
606.734	0.0127818
606.812	0.0127854
606.890	0.0127072
606.968	0.0128052
607.046	0.0128077
607.124	0.0127737
607.203	0.0127055
607.281	0.0126908
607.359	0.0127532
607.437	0.0128217
607.515	0.0127572
607.593	0.0128355
607.671	0.0127814
607.749	0.0127071
607.828	0.0127368
607.906	0.0127607
607.984	0.0127383
608.062	0.0126940
608.140	0.0128517
608.218	0.0128925
608.296	0.0127406
608.374	0.0127030
608.453	0.0127205
608.531	0.0127449
608.609	0.0128632
608.687	0.0128281
608.765	0.0127395
608.843	0.0130450
608.921	0.0127630
608.999	0.0127344
609.078	0.0128587
609.156	0.0128252
609.234	0.0128565
609.312	0.0127789
609.390	0.0125899
609.468	0.0127016
609.546	0.0127795
609.624	0.0129283
609.703	0.0127465
609.781	0.0128099
609.859	0.0127131
609.937	0.0128008
610.015	0.0128484
610.093	0.0127612
610.171	0.0128022
610.249	0.0126656
610.328	0.0128110
610.406	0.0128807
610.484	0.0128085
610.562	0.0129247
610.640	0.0127758
610.718	0.0127811
610.796	0.0127987
610.874	0.0127583
610.953	0.0126985
611.031	0.0126867
611.109	0.0128204
611.187	0.0128542
611.265	0.0127788
611.343	0.0126762
611.421	0.0127625
611.499	0.0127138
611.578	0.0127863
611.656	0.0127910
611.734	0.0127850
611.812	0.0126879
611.890	0.0127071
611.968	0.0127583
612.046	0.0127692
612.124	0.0127588
612.203	0.0127823
612.281	0.0128298
612.359	0.0127832
612.437	0.0128047
612.515	0.0129015
612.593	0.0128045
612.671	0.0127219
612.749	0.0127882
612.828	0.0128867
612.906	0.0129031
612.984	0.0126688
613.062	0.0127709
613.140	0.0128135
613.218	0.0127326
613.296	0.0127161
613.374	0.0127612
613.453	0.0128303
613.531	0.0127212
613.609	0.0127502
613.687	0.0128775
613.765	0.0128097
613.843	0.0128168
613.921	0.0127747
613.999	0.0127995
614.078	0.0126414
614.156	0.0128819
614.234	0.0128665
614.312	0.0127072
614.390	0.0126247
614.468	0.0127911
614.546	0.0129182
614.624	0.0127661
614.703	0.0127010
614.781	0.0127937
614.859	0.0127824
614.937	0.0126905
615.015	0.0127367
615.093	0.0127609
615.171	0.0129319
615.249	0.0127142
615.328	0.0128203
615.406	0.0127811
615.484	0.0127864
615.562	0.0128766
615.640	0.0127760
615.718	0.0128407
615.796	0.0128276
615.874	0.0128485
615.953	0.0128844
616.031	0.0127710
616.109	0.0129482
616.187	0.0128566
616.265	0.0127729
616.343	0.0128319
616.421	0.0128677
616.499	0.0128494
616.578	0.0128747
616.656	0.0125728
616.734	0.0127705
616.812	0.0129384
616.890	0.0128547
616.968	0.0126872
617.046	0.0127869
617.124	0.0129079
617.203	0.0128046
617.281	0.0127113
617.359	0.0127901
617.437	0.0128144
617.515	0.0128401
617.593	0.0127869
617.671	0.0128029
617.749	0.0128008
617.828	0.0128311
617.906	0.0128057
617.984	0.0128474
618.062	0.0127778
618.140	0.0127511
618.218	0.0127850
618.296	0.0128807
618.374	0.0128570
618.453	0.0128121
618.531	0.0128127
618.609	0.0126952
618.687	0.0127946
618.765	0.0128916
618.843	0.0127447
618.921	0.0126756
618.999	0.0127317
619.078	0.0128602
619.156	0.0127121
619.234	0.0127649
619.312	0.0128937
619.390	0.0128192
619.468	0.0128343
619.546	0.0126049
619.624	0.0128230
619.703	0.0128550
619.781	0.0126970
619.859	0.0128648
619.937	0.0128942
620.015	0.0127550
620.093	0.0128069
620.171	0.0128437
620.249	0.0126466
620.328	0.0128570
620.406	0.0127620
620.484	0.0127293
620.562	0.0127349
620.640	0.0128298
620.718	0.0127929
620.796	0.0128799
620.874	0.0128313
620.953	0.0128760
621.031	0.0128088
621.109	0.0127200
621.187	0.0128729
621.265	0.0127616
621.343	0.0127742
621.421	0.0127815
621.499	0.0128938
621.578	0.0127724
621.656	0.0127152
621.734	0.0126968
621.812	0.0127317
621.890	0.0127152
621.968	0.0128237
622.046	0.0126624
622.124	0.0128281
622.203	0.0127015
622.281	0.0127290
622.359	0.0127641
622.437	0.0128223
622.515	0.0127885
622.593	0.0128312
622.671	0.0128416
622.749	0.0127737
622.828	0.0128708
622.906	0.0127632
622.984	0.0127885
623.062	0.0127963
623.140	0.0127740
623.218	0.0128153
623.296	0.0127700
623.374	0.0128566
623.453	0.0127231
623.531	0.0127548
623.609	0.0128686
623.687	0.0127754
623.765	0.0126950
623.843	0.0127869
623.921	0.0128315
623.999	0.0127286
624.078	0.0127995
624.156	0.0128109
624.234	0.0127238
624.312	0.0127403
624.390	0.0127021
624.468	0.0127399
624.546	0.0127795
624.624	0.0128249
624.703	0.0127611
624.781	0.0128072
624.859	0.0128030
624.937	0.0128168
625.015	0.0128107
625.093	0.0128753
625.171	0.0128479
625.249	0.0126989
625.328	0.0127335
625.406	0.0128336
625.484	0.0127944
625.562	0.0126524
625.640	0.0128418
625.718	0.0127998
625.796	0.0129489
625.874	0.0129282
625.953	0.0126419
626.031	0.0128188
626.109	0.0128991
626.187	0.0128474
626.265	0.0129243
626.343	0.0127914
626.421	0.0128735
626.499	0.0129002
626.578	0.0128928
626.656	0.0128915
626.734	0.0128165
626.812	0.0127166
626.890	0.0126814
626.968	0.0127306
627.046	0.0127161
627.124	0.0127496
627.203	0.0127976
627.281	0.0127951
627.359	0.0127625
627.437	0.0129125
627.515	0.0128223
627.593	0.0127880
627.671	0.0126689
627.749	0.0127942
627.828	0.0128397
627.906	0.0128699
627.984	0.0129070
628.062	0.0128008
628.140	0.0127964
628.218	0.0128645
628.296	0.0127483
628.374	0.0128384
628.453	0.0129990
628.531	0.0128905
628.609	0.0128831
628.687	0.0128035
628.765	0.0128295
628.843	0.0128510
628.921	0.0128056
628.999	0.0128159
629.078	0.0129389
629.156	0.0128496
629.234	0.0129302
629.312	0.0128394
629.390	0.0128865
629.468	0.0128127
629.546	0.0128898
629.624	0.0128994
629.703	0.0127232
629.781	0.0128396
629.859	0.0128041
629.937	0.0127863
630.015	0.0128133
630.093	0.0128818
630.171	0.0127631
630.249	0.0126569
630.328	0.0127300
630.406	0.0129696
630.484	0.0128355
630.562	0.0127198
630.640	0.0128025
630.718	0.0128558
630.796	0.0128307
630.874	0.0129922
630.953	0.0128412
631.031	0.0126653
631.109	0.0126901
631.187	0.0128618
631.265	0.0127786
631.343	0.0128526
631.421	0.0127141
631.499	0.0128162
631.578	0.0128069
631.656	0.0127793
631.734	0.0128285
631.812	0.0128713
631.890	0.0128136
631.968	0.0127926
632.046	0.0128470
632.124	0.0127721
632.203	0.0127211
632.281	0.0128763
632.359	0.0126977
632.437	0.0128001
632.515	0.0127630
632.593	0.0128553
632.671	0.0128343
632.749	0.0128532
632.828	0.0128007
632.906	0.0127587
632.984	0.0128365
633.062	0.0127895
633.140	0.0127970
633.218	0.0127121
633.296	0.0128036
633.374	0.0126955
633.453	0.0129226
633.531	0.0128017
633.609	0.0128422
633.687	0.0128224
633.765	0.0127956
633.843	0.0128112
633.921	0.0126923
633.999	0.0128221
634.078	0.0127583
634.156	0.0127498
634.234	0.0128043
634.312	0.0127204
634.390	0.0127898
634.468	0.0128052
634.546	0.0129048
634.624	0.0127589
634.703	0.0126794
634.781	0.0128572
634.859	0.0127322
634.937	0.0128202
635.015	0.0127112
635.093	0.0127772
635.171	0.0128338
635.249	0.0126410
635.328	0.0127462
635.406	0.0127229
635.484	0.0126790
635.562	0.0128439
635.640	0.0126945
635.718	0.0127983
635.796	0.0126449
635.874	0.0128225
635.953	0.0128703
636.031	0.0127527
636.109	0.0128043
636.187	0.0128036
636.265	0.0127697
636.343	0.0128834
636.421	0.0127512
636.499	0.0127058
636.578	0.0129020
636.656	0.0129037
636.734	0.0126833
636.812	0.0126949
636.890	0.0127908
636.968	0.0127215
637.046	0.0128579
637.124	0.0127807
637.203	0.0126550
637.281	0.0128252
637.359	0.0127299
637.437	0.0128486
637.515	0.0127959
637.593	0.0129223
637.671	0.0127359
637.749	0.0127478
637.828	0.0128035
637.906	0.0128492
637.984	0.0128839
638.062	0.0129532
638.140	0.0127406
638.218	0.0127718
638.296	0.0126543
638.374	0.0127752
638.453	0.0128770
638.531	0.0127621
638.609	0.0127077
638.687	0.0127536
638.765	0.0128157
638.843	0.0128981
638.921	0.0127577
638.999	0.0127209
639.078	0.0127245
639.156	0.0126533
639.234	0.0127750
639.312	0.0129670
639.390	0.0128764
639.468	0.0126221
639.546	0.0127737
639.624	0.0129206
639.703	0.0128539
639.781	0.0129609
639.859	0.0128601
639.937	0.0126193
640.015	0.0128587
640.093	0.0127129
640.171	0.0127097
640.249	0.0128181
640.328	0.0128283
640.406	0.0127653
640.484	0.0128502
640.562	0.0128018
640.640	0.0128391
640.718	0.0127927
640.796	0.0127382
640.874	0.0127916
640.953	0.0128014
641.031	0.0128917
641.109	0.0128026
641.187	0.0126848
641.265	0.0127509
641.343	0.0127110
641.421	0.0127969
641.499	0.0127377
641.578	0.0127661
641.656	0.0127936
641.734	0.0129176
641.812	0.0127254
641.890	0.0127837
641.968	0.0127164
642.046	0.0128355
642.124	0.0127324
642.203	0.0128698
642.281	0.0128712
642.359	0.0128496
642.437	0.0127381
642.515	0.0126913
642.593	0.0129311
642.671	0.0126492
642.749	0.0127689
642.828	0.0127612
642.906	0.0127184
642.984	0.0128484
643.062	0.0127953
643.140	0.0128210
643.218	0.0128030
643.296	0.0127715
643.374	0.0128822
643.453	0.0127758
643.531	0.0127457
643.609	0.0128778
643.687	0.0127970
643.765	0.0127271
643.843	0.0127499
643.921	0.0127415
643.999	0.0126730
644.078	0.0129736
644.156	0.0128001
644.234	0.0128721
644.312	0.0126355
644.390	0.0127334
644.468	0.0128171
644.546	0.0127863
644.624	0.0127808
644.703	0.0127173
644.781	0.0127325
644.859	0.0128709
644.937	0.0129324
645.015	0.0128750
645.093	0.0126669
645.171	0.0128580
645.249	0.0128711
645.328	0.0128453
645.406	0.0128340
645.484	0.0127605
645.562	0.0128536
645.640	0.0129420
645.718	0.0129118
645.796	0.0127560
645.874	0.0127912
645.953	0.0127630
646.031	0.0127363
646.109	0.0127931
646.187	0.0127802
646.265	0.0127879
646.343	0.0128795
646.421	0.0127207
646.499	0.0127208
646.578	0.0128219
646.656	0.0127851
646.734	0.0127637
646.812	0.0128465
646.890	0.0127905
646.968	0.0127791
647.046	0.0127789
647.124	0.0127409
647.203	0.0127399
647.281	0.0126274
647.359	0.0127365
647.437	0.0128268
647.515	0.0127417
647.593	0.0127553
647.671	0.0127780
647.749	0.0127556
647.828	0.0128629
647.906	0.0128210
647.984	0.0129197
648.062	0.0127975
648.140	0.0127962
648.218	0.0128427
648.296	0.0128046
648.374	0.0128751
648.453	0.0127489
648.531	0.0128358
648.609	0.0127823
648.687	0.0128178
648.765	0.0127390
648.843	0.0128611
648.921	0.0127242
648.999	0.0126420
649.078	0.0127652
649.156	0.0129146
649.234	0.0128160
649.312	0.0126734
649.390	0.0128138
649.468	0.0128230
649.546	0.0127928
649.624	0.0125578
649.703	0.0128354
649.781	0.0127540
649.859	0.0127010
649.937	0.0128561
650.015	0.0127880
650.093	0.0127570
650.171	0.0128334
650.249	0.0128558
650.328	0.0127682
650.406	0.0127451
650.484	0.0128014
650.562	0.0126210
650.640	0.0127219
650.718	0.0128456
650.796	0.0127583
650.874	0.0127669
650.953	0.0128209
651.031	0.0126899
651.109	0.0127101
651.187	0.0128481
651.265	0.0128893
651.343	0.0127657
651.421	0.0127858
651.499	0.0127024
651.578	0.0127367
651.656	0.0127232
651.734	0.0127415
651.812	0.0128192
651.890	0.0128480
651.968	0.0127890
652.046	0.0127011
652.124	0.0127702
652.203	0.0127582
652.281	0.0127370
652.359	0.0127293
652.437	0.0128199
652.515	0.0127845
652.593	0.0129015
652.671	0.0126706
652.749	0.0126984
652.828	0.0128160
652.906	0.0126803
652.984	0.0127402
653.062	0.0128505
653.140	0.0126319
653.218	0.0127640
653.296	0.0129025
653.374	0.0126303
653.453	0.0127798
653.531	0.0127129
653.609	0.0127331
653.687	0.0128335
653.765	0.0127171
653.843	0.0127039
653.921	0.0128929
653.999	0.0129083
654.078	0.0126801
654.156	0.0126912
654.234	0.0127050
654.312	0.0127927
654.390	0.0128369
654.468	0.0128410
654.546	0.0127009
654.624	0.0127760
654.703	0.0129400
654.781	0.0126601
654.859	0.0127135
654.937	0.0128210
655.015	0.0127383
655.093	0.0128062
655.171	0.0127737
655.249	0.0128364
655.328	0.0128331
655.406	0.0128692
655.484	0.0127319
655.562	0.0126414
655.640	0.0127267
655.718	0.0128331
655.796	0.0128365
655.874	0.0128997
655.953	0.0128523
656.031	0.0127647
656.109	0.0128855
656.187	0.0127386
656.265	0.0129754
656.343	0.0128154
656.421	0.0126305
656.499	0.0128202
656.578	0.0128999
656.656	0.0128059
656.734	0.0127794
656.812	0.0128545
656.890	0.0127948
656.968	0.0128825
657.046	0.0127683
657.124	0.0127821
657.203	0.0129002
657.281	0.0127807
657.359	0.0126603
657.437	0.0128455
657.515	0.0128356
657.593	0.0128819
657.671	0.0127893
657.749	0.0128013
657.828	0.0127831
657.906	0.0127656
657.984	0.0128689
658.062	0.0127461
658.140	0.0127662
658.218	0.0127908
658.296	0.0128195
658.374	0.0128293
658.453	0.0127441
658.531	0.0128510
658.609	0.0127972
658.687	0.0127608
658.765	0.0127332
658.843	0.0127315
658.921	0.0129447
658.999	0.0128075
659.078	0.0128365
659.156	0.0128929
659.234	0.0127650
659.312	0.0127980
659.390	0.0127666
659.468	0.0128153
659.546	0.0127293
659.624	0.0127980
659.703	0.0128050
659.781	0.0128512
659.859	0.0129134
659.937	0.0125650
660.015	0.0127405
660.093	0.0128474
660.171	0.0127134
660.249	0.0128002
660.328	0.0127859
660.406	0.0128124
660.484	0.0129609
660.562	0.0128152
660.640	0.0126311
660.718	0.0127827
660.796	0.0128758
660.874	0.0128532
660.953	0.0128562
661.031	0.0128348
661.109	0.0128584
661.187	0.0128707
661.265	0.0129035
661.343	0.0127121
661.421	0.0129128
661.499	0.0129417
661.578	0.0128059
661.656	0.0128704
661.734	0.0127254
661.812	0.0128278
661.890	0.0128490
661.968	0.0128888
662.046	0.0128129
662.124	0.0128804
662.203	0.0128870
662.281	0.0128031
662.359	0.0128127
662.437	0.0127348
662.515	0.0128004
662.593	0.0129430
662.671	0.0127987
662.749	0.0128346
662.828	0.0127621
662.906	0.0128235
662.984	0.0129028
663.062	0.0127319
663.140	0.0128669
663.218	0.0128385
663.296	0.0126144
663.374	0.0128119
663.453	0.0127209
663.531	0.0127978
663.609	0.0129121
663.687	0.0128531
663.765	0.0128375
663.843	0.0127405
663.921	0.0128323
663.999	0.0128992
664.078	0.0127840
664.156	0.0128773
664.234	0.0128287
664.312	0.0127783
664.390	0.0129247
664.468	0.0127171
664.546	0.0126969
664.624	0.0127560
664.703	0.0128063
664.781	0.0127535
664.859	0.0126860
664.937	0.0128371
665.015	0.0129670
665.093	0.0128961
665.171	0.0128620
665.249	0.0128615
665.328	0.0128136
665.406	0.0128754
665.484	0.0128381
665.562	0.0128165
665.640	0.0127040
665.718	0.0127335
665.796	0.0128616
665.874	0.0127122
665.953	0.0127949
666.031	0.0127322
666.109	0.0129104
666.187	0.0128915
666.265	0.0129147
666.343	0.0128677
666.421	0.0126138
666.499	0.0127663
666.578	0.0127464
666.656	0.0127140
666.734	0.0128113
666.812	0.0128403
666.890	0.0127018
666.968	0.0127541
667.046	0.0128609
667.124	0.0126811
667.203	0.0129578
667.281	0.0126723
667.359	0.0127235
667.437	0.0126187
667.515	0.0128146
667.593	0.0127975
667.671	0.0127746
667.749	0.0127452
667.828	0.0128041
667.906	0.0128145
667.984	0.0126649
668.062	0.0128120
668.140	0.0129433
668.218	0.0129894
668.296	0.0127681
668.374	0.0128322
668.453	0.0128826
668.531	0.0127624
668.609	0.0129539
668.687	0.0129214
668.765	0.0127367
668.843	0.0128913
668.921	0.0129053
668.999	0.0128206
669.078	0.0129031
669.156	0.0129002
669.234	0.0128564
669.312	0.0126485
669.390	0.0129024
669.468	0.0129292
669.546	0.0127670
669.624	0.0128287
669.703	0.0128993
669.781	0.0128629
669.859	0.0128753
669.937	0.0127486
670.015	0.0127766
670.093	0.0128985
670.171	0.0129646
670.249	0.0129160
670.328	0.0128869
670.406	0.0128941
670.484	0.0128227
670.562	0.0127271
670.640	0.0128262
670.718	0.0128231
670.796	0.0129383
670.874	0.0128442
670.953	0.0129116
671.031	0.0127475
671.109	0.0127473
671.187	0.0128816
671.265	0.0128326
671.343	0.0127917
671.421	0.0129124
671.499	0.0128449
671.578	0.0127738
671.656	0.0127583
671.734	0.0129996
671.812	0.0128758
671.890	0.0128118
671.968	0.0129497
672.046	0.0129175
672.124	0.0127931
672.203	0.0129369
672.281	0.0128804
672.359	0.0129338
672.437	0.0128658
672.515	0.0129165
672.593	0.0129295
672.671	0.0128375
672.749	0.0126811
672.828	0.0128075
672.906	0.0129627
672.984	0.0128883
673.062	0.0128054
673.140	0.0128974
673.218	0.0128316
673.296	0.0128353
673.374	0.0129589
673.453	0.0128319
673.531	0.0127000
673.609	0.0128891
673.687	0.0128407
673.765	0.0127366
673.843	0.0127908
673.921	0.0128296
673.999	0.0128992
674.078	0.0128115
674.156	0.0127588
674.234	0.0128922
674.312	0.0128828
674.390	0.0126426
674.468	0.0128155
674.546	0.0127370
674.624	0.0128298
674.703	0.0128011
674.781	0.0129453
674.859	0.0129527
674.937	0.0126931
675.015	0.0127852
675.093	0.0128211
675.171	0.0127345
675.249	0.0127183
675.328	0.0128149
675.406	0.0128465
675.484	0.0126263
675.562	0.0127780
675.640	0.0129100
675.718	0.0127280
675.796	0.0128893
675.874	0.0127493
675.953	0.0128463
676.031	0.0126886
676.109	0.0128790
676.187	0.0127443
676.265	0.0128414
676.343	0.0128899
676.421	0.0127612
676.499	0.0128318
676.578	0.0127728
676.656	0.0127726
676.734	0.0129228
676.812	0.0128128
676.890	0.0128798
676.968	0.0126082
677.046	0.0127876
677.124	0.0127111
677.203	0.0126542
677.281	0.0128191
677.359	0.0127242
677.437	0.0128715
677.515	0.0128233
677.593	0.0127825
677.671	0.0127134
677.749	0.0126862
677.828	0.0128489
677.906	0.0129269
677.984	0.0127921
678.062	0.0127921
678.140	0.0127865
678.218	0.0128063
678.296	0.0128435
678.374	0.0129100
678.453	0.0127690
678.531	0.0128471
678.609	0.0129033
678.687	0.0128189
678.765	0.0128442
678.843	0.0127391
678.921	0.0128392
678.999	0.0127205
679.078	0.0127672
679.156	0.0127739
679.234	0.0127139
679.312	0.0128259
679.390	0.0128673
679.468	0.0128303
679.546	0.0127068
679.624	0.0128383
679.703	0.0127588
679.781	0.0127339
679.859	0.0128394
679.937	0.0126955
680.015	0.0127951
680.093	0.0127489
680.171	0.0126825
680.249	0.0128146
680.328	0.0128621
680.406	0.0128117
680.484	0.0127553
680.562	0.0127603
680.640	0.0128638
680.718	0.0128602
680.796	0.0128302
680.874	0.0127859
680.953	0.0127908
681.031	0.0128384
681.109	0.0128570
681.187	0.0128297
681.265	0.0129401
681.343	0.0127030
681.421	0.0128362
681.499	0.0126891
681.578	0.0127300
681.656	0.0127341
681.734	0.0126590
681.812	0.0126870
681.890	0.0127251
681.968	0.0127862
682.046	0.0127148
682.124	0.0126994
682.203	0.0127931
682.281	0.0127525
682.359	0.0129087
682.437	0.0127308
682.515	0.0127950
682.593	0.0128852
682.671	0.0129685
682.749	0.0128338
682.828	0.0129583
682.906	0.0128237
682.984	0.0127493
683.062	0.0128699
683.140	0.0127647
683.218	0.0127596
683.296	0.0126865
683.374	0.0125784
683.453	0.0125551
683.531	0.0125381
683.609	0.0124711
683.687	0.0123553
683.765	0.0124559
683.843	0.0124220
683.921	0.0125021
683.999	0.0127237
684.078	0.0125121
684.156	0.0126720
684.234	0.0128716
684.312	0.0129775
684.390	0.0131528
684.468	0.0133132
684.546	0.0134429
684.624	0.0136289
684.703	0.0136044
684.781	0.0136419
684.859	0.0136523
684.937	0.0134664
685.015	0.0133591
685.093	0.0132652
685.171	0.0131242
685.249	0.0126483
685.328	0.0124874
685.406	0.0123594
685.484	0.0121564
685.562	0.0119324
685.640	0.0116084
685.718	0.0115447
685.796	0.0115196
685.874	0.0115343
685.953	0.0116445
686.031	0.0115833
686.109	0.0118257
686.187	0.0118745
686.265	0.0122083
686.343	0.0124963
686.421	0.0127927
686.499	0.0129057
686.578	0.0134053
686.656	0.0138132
686.734	0.0141727
686.812	0.0143481
686.890	0.0145634
686.968	0.0147254
687.046	0.0148766
687.124	0.0150371
687.203	0.0149373
687.281	0.0148919
687.359	0.0146011
687.437	0.0143215
687.515	0.0138721
687.593	0.0133973
687.671	0.0130141
687.749	0.0124706
687.828	0.0120963
687.906	0.0116101
687.984	0.0111974
688.062	0.0109751
688.140	0.0107049
688.218	0.0104967
688.296	0.0104152
688.374	0.0105251
688.453	0.0103490
688.531	0.0103529
688.609	0.0105737
688.687	0.0107615
688.765	0.0110743
688.843	0.0114563
688.921	0.0116759
688.999	0.0122737
689.078	0.0126881
689.156	0.0131953
689.234	0.0137835
689.312	0.0143526
689.390	0.0149642
689.468	0.0153613
689.546	0.0157217
689.624	0.0160538
689.703	0.0162456
689.781	0.0161604
689.859	0.0162006
689.937	0.0160793
690.015	0.0156056
690.093	0.0152448
690.171	0.0147027
690.249	0.0139661
690.328	0.0132250
690.406	0.0125307
690.484	0.0117402
690.562	0.0112183
690.640	0.0108229
690.718	0.0103110
690.796	0.00991028
690.874	0.00979095
690.953	0.00976494
691.031	0.00976532
691.109	0.00971863
691.187	0.0100125
691.265	0.0103436
691.343	0.0104434
691.421	0.0106777
691.499	0.0112102
691.578	0.0114721
691.656	0.0118668
691.734	0.0121534
691.812	0.0125667
691.890	0.0130164
691.968	0.0134914
692.046	0.0138958
692.124	0.0143433
692.203	0.0147038
692.281	0.0152989
692.359	0.0155853
692.437	0.0160381
692.515	0.0163760
692.593	0.0162740
692.671	0.0163749
692.749	0.0162289
692.828	0.0161623
692.906	0.0158118
692.984	0.0152999
693.062	0.0146902
693.140	0.0142041
693.218	0.0133730
693.296	0.0127448
693.374	0.0120024
693.453	0.0115071
693.531	0.0109893
693.609	0.0102692
693.687	0.00979645
693.765	0.00940605
693.843	0.00918282
693.921	0.00926712
693.999	0.00909348
694.078	0.00944283
694.156	0.00948067
694.234	0.00989349
694.312	0.0102341
694.390	0.0106675
694.468	0.0111901
694.546	0.0117760
694.624	0.0125403
694.703	0.0132159
694.781	0.0139008
694.859	0.0146565
694.937	0.0152221
695.015	0.0158012
695.093	0.0161370
695.171	0.0165225
695.249	0.0166511
695.328	0.0169202
695.406	0.0167467
695.484	0.0163409
695.562	0.0157877
695.640	0.0152188
695.718	0.0145460
695.796	0.0137701
695.874	0.0130559
695.953	0.0120912
696.031	0.0113459
696.109	0.0108246
696.187	0.0103117
696.265	0.00989830
696.343	0.00953178
696.421	0.00946304
696.499	0.00971626
696.578	0.00963165
696.656	0.00986069
696.734	0.0101259
696.812	0.0105639
696.890	0.0111008
696.968	0.0116682
697.046	0.0120135
697.124	0.0124142
697.203	0.0129745
697.281	0.0135239
697.359	0.0139476
697.437	0.0143626
697.515	0.0146912
697.593	0.0150003
697.671	0.0150412
697.749	0.0151975
697.828	0.0153828
697.906	0.0153897
697.984	0.0149985
698.062	0.0148171
698.140	0.0148063
698.218	0.0142153
698.296	0.0140021
698.374	0.0136123
698.453	0.0132047
698.531	0.0127321
698.609	0.0124380
698.687	0.0119055
698.765	0.0115820
698.843	0.0113864
698.921	0.0112543
698.999	0.0112494
699.078	0.0110696
699.156	0.0111409
699.234	0.0114016
699.312	0.0114069
699.390	0.0116950
699.468	0.0117862
699.546	0.0118994
699.624	0.0121018
699.703	0.0122753
699.781	0.0124273
699.859	0.0125942
699.937	0.0127674
700.015	0.0128214
700.093	0.0129961
700.171	0.0133589
700.249	0.0135575
700.328	0.0136855
700.406	0.0138072
700.484	0.0140658
700.562	0.0140806
700.640	0.0142178
700.718	0.0142220
700.796	0.0143325
700.874	0.0141026
700.953	0.0141051
701.031	0.0139207
701.109	0.0136637
701.187	0.0133804
701.265	0.0130151
701.343	0.0126505
701.421	0.0125364
701.499	0.0122946
701.578	0.0121249
701.656	0.0118703
701.734	0.0116529
701.812	0.0116109
701.890	0.0116061
701.968	0.0115732
702.046	0.0116993
702.124	0.0117338
702.203	0.0118322
702.281	0.0120939
702.359	0.0121861
702.437	0.0123598
702.515	0.0125227
702.593	0.0126096
702.671	0.0127337
702.749	0.0128111
702.828	0.0131605
702.906	0.0131223
702.984	0.0132670
703.062	0.0133366
703.140	0.0134251
703.218	0.0135169
703.296	0.0135516
703.374	0.0135870
703.453	0.0134077
703.531	0.0136006
703.609	0.0135774
703.687	0.0135658
703.765	0.0135853
703.843	0.0135123
703.921	0.0131913
703.999	0.0131609
704.078	0.0129785
704.156	0.0129311
704.234	0.0126900
704.312	0.0126974
704.390	0.0125570
704.468	0.0123786
704.546	0.0123215
704.624	0.0122266
704.703	0.0123064
704.781	0.0123062
704.859	0.0123321
704.937	0.0124529
705.015	0.0124581
705.093	0.0125504
705.171	0.0125373
705.249	0.0126380
705.328	0.0126567
705.406	0.0127178
705.484	0.0127681
705.562	0.0127280
705.640	0.0127660
705.718	0.0126306
705.796	0.0128842
705.874	0.0128634
705.953	0.0127938
706.031	0.0128047
706.109	0.0127246
706.187	0.0125756
706.265	0.0126312
706.343	0.0125836
706.421	0.0123356
706.499	0.0123747
706.578	0.0123333
706.656	0.0122731
706.734	0.0123333
706.812	0.0123984
706.890	0.0125513
706.968	0.0124233
707.046	0.0126195
707.124	0.0124541
707.203	0.0127038
707.281	0.0127710
707.359	0.0125745
707.437	0.0127734
707.515	0.0127833
707.593	0.0129192
707.671	0.0129763
707.749	0.0130402
707.828	0.0129997
707.906	0.0130750
707.984	0.0132491
708.062	0.0131635
708.140	0.0130828
708.218	0.0131065
708.296	0.0129936
708.374	0.0129723
708.453	0.0128876
708.531	0.0128815
708.609	0.0128691
708.687	0.0128245
708.765	0.0128517
708.843	0.0127842
708.921	0.0126894
708.999	0.0127514
709.078	0.0126719
709.156	0.0127168
709.234	0.0127571
709.312	0.0126283
709.390	0.0126331
709.468	0.0126491
709.546	0.0125771
709.624	0.0127882
709.703	0.0125509
709.781	0.0127595
709.859	0.0125874
709.937	0.0125243
710.015	0.0125842
710.093	0.0124461
710.171	0.0125282
710.249	0.0124569
710.328	0.0125695
710.406	0.0125657
710.484	0.0125504
710.562	0.0124476
710.640	0.0123801
710.718	0.0125101
710.796	0.0125902
710.874	0.0124769
710.953	0.0124187
711.031	0.0124625
711.109	0.0125906
711.187	0.0126501
711.265	0.0126223
711.343	0.0126243
711.421	0.0127299
711.499	0.0125957
711.578	0.0127820
711.656	0.0129039
711.734	0.0128450
711.812	0.0128886
711.890	0.0130575
711.968	0.0131055
712.046	0.0131602
712.124	0.0131001
712.203	0.0131014
712.281	0.0131285
712.359	0.0130732
712.437	0.0130555
712.515	0.0130132
712.593	0.0129662
712.671	0.0129865
712.749	0.0130693
712.828	0.0129174
712.906	0.0128726
712.984	0.0128654
713.062	0.0128939
713.140	0.0128812
713.218	0.0126848
713.296	0.0126840
713.374	0.0127714
713.453	0.0127209
713.531	0.0127360
713.609	0.0128915
713.687	0.0126845
713.765	0.0126833
713.843	0.0128895
713.921	0.0129458
713.999	0.0128630
714.078	0.0130229
714.156	0.0130106
714.234	0.0130020
714.312	0.0130497
714.390	0.0131894
714.468	0.0131310
714.546	0.0129114
714.624	0.0130456
714.703	0.0128021
714.781	0.0128782
714.859	0.0129002
714.937	0.0128659
715.015	0.0127077
715.093	0.0126022
715.171	0.0126794
715.249	0.0124855
715.328	0.0126105
715.406	0.0127740
715.484	0.0126249
715.562	0.0125527
715.640	0.0126882
715.718	0.0125494
715.796	0.0125388
715.874	0.0126202
715.953	0.0126325
716.031	0.0126671
716.109	0.0125663
716.187	0.0125502
716.265	0.0126029
716.343	0.0125774
716.421	0.0125420
716.499	0.0126789
716.578	0.0127444
716.656	0.0126127
716.734	0.0125956
716.812	0.0126875
716.890	0.0126836
716.968	0.0127762
717.046	0.0127337
717.124	0.0128291
717.203	0.0129134
717.281	0.0130798
717.359	0.0129768
717.437	0.0129115
717.515	0.0129513
717.593	0.0129728
717.671	0.0130371
717.749	0.0130584
717.828	0.0129440
717.906	0.0130118
717.984	0.0130302
718.062	0.0128963
718.140	0.0129770
718.218	0.0129631
718.296	0.0131325
718.374	0.0131455
718.453	0.0131205
718.531	0.0129298
718.609	0.0130063
718.687	0.0129199
718.765	0.0130065
718.843	0.0129797
718.921	0.0129572
718.999	0.0128706
719.078	0.0129361
719.156	0.0128403
719.234	0.0128457
719.312	0.0128841
719.390	0.0129781
719.468	0.0127626
719.546	0.0128374
719.624	0.0129498
719.703	0.0128004
719.781	0.0129060
719.859	0.0127933
719.937	0.0128043
720.015	0.0128006
720.093	0.0129509
720.171	0.0129356
720.249	0.0127471
720.328	0.0127832
720.406	0.0129140
720.484	0.0127724
720.562	0.0127375
720.640	0.0126963
720.718	0.0127895
720.796	0.0126768
720.874	0.0127445
720.953	0.0126718
721.031	0.0124203
721.109	0.0125367
721.187	0.0126375
721.265	0.0126684
721.343	0.0126038
721.421	0.0127440
721.499	0.0126669
721.578	0.0124697
721.656	0.0125888
721.734	0.0126381
721.812	0.0126109
721.890	0.0124827
721.968	0.0127225
722.046	0.0128018
722.124	0.0128401
722.203	0.0128546
722.281	0.0128582
722.359	0.0128926
722.437	0.0129607
722.515	0.0131313
722.593	0.0130883
722.671	0.0130444
722.749	0.0130639
722.828	0.0131995
722.906	0.0132925
722.984	0.0132257
723.062	0.0130608
723.140	0.0131905
723.218	0.0130136
723.296	0.0128386
723.374	0.0128703
723.453	0.0128058
723.531	0.0127645
723.609	0.0126711
723.687	0.0128463
723.765	0.0126881
723.843	0.0125411
723.921	0.0125661
723.999	0.0126324
724.078	0.0125976
724.156	0.0127303
724.234	0.0129342
724.312	0.0126859
724.390	0.0127406
724.468	0.0129334
724.546	0.0129224
724.624	0.0129456
724.703	0.0131400
724.781	0.0130360
724.859	0.0129533
724.937	0.0131634
725.015	0.0129533
725.093	0.0131751
725.171	0.0130719
725.249	0.0130200
725.328	0.0130238
725.406	0.0130174
725.484	0.0130255
725.562	0.0128224
725.640	0.0127599
725.718	0.0129890
725.796	0.0127921
725.874	0.0127687
725.953	0.0126413
726.031	0.0126849
726.109	0.0126914
726.187	0.0126927
726.265	0.0125829
726.343	0.0126781
726.421	0.0128008
726.499	0.0127151
726.578	0.0126721
726.656	0.0127442
726.734	0.0127766
726.812	0.0127982
726.890	0.0128449
726.968	0.0129681
727.046	0.0128863
727.124	0.0129317
727.203	0.0128860
727.281	0.0128469
727.359	0.0128931
727.437	0.0129439
727.515	0.0128988
727.593	0.0128227
727.671	0.0128735
727.749	0.0128907
727.828	0.0128688
727.906	0.0128052
727.984	0.0129011
728.062	0.0129716
728.140	0.0128538
728.218	0.0128258
728.296	0.0129067
728.374	0.0127195
728.453	0.0128606
728.531	0.0127290
728.609	0.0128242
728.687	0.0127602
728.765	0.0127302
728.843	0.0127640
728.921	0.0127062
728.999	0.0126676
729.078	0.0126571
729.156	0.0125102
729.234	0.0126982
729.312	0.0125252
729.390	0.0126747
729.468	0.0127187
729.546	0.0128078
729.624	0.0128169
729.703	0.0127544
729.781	0.0129258
729.859	0.0129949
729.937	0.0129694
730.015	0.0130299
730.093	0.0131258
730.171	0.0132783
730.249	0.0132871
730.328	0.0132217
730.406	0.0132161
730.484	0.0133210
730.562	0.0131811
730.640	0.0131506
730.718	0.0131104
730.796	0.0130264
730.874	0.0128230
730.953	0.0127460
731.031	0.0127425
731.109	0.0126411
731.187	0.0124772
731.265	0.0124980
731.343	0.0126250
731.421	0.0124170
731.499	0.0124864
731.578	0.0124397
731.656	0.0124179
731.734	0.0124009
731.812	0.0124309
731.890	0.0123974
731.968	0.0126518
732.046	0.0124783
732.124	0.0126479
732.203	0.0127415
732.281	0.0127553
732.359	0.0128397
732.437	0.0128633
732.515	0.0130074
732.593	0.0128595
732.671	0.0128465
732.749	0.0129699
732.828	0.0128567
732.906	0.0128429
732.984	0.0129619
733.062	0.0128403
733.140	0.0129248
733.218	0.0128834
733.296	0.0128331
733.374	0.0128016
733.453	0.0128661
733.531	0.0129382
733.609	0.0127764
733.687	0.0127232
733.765	0.0126534
733.843	0.0126732
733.921	0.0127650
733.999	0.0129330
734.078	0.0127962
734.156	0.0126726
734.234	0.0127814
734.312	0.0128847
734.390	0.0128685
734.468	0.0127940
734.546	0.0128085
734.624	0.0128043
734.703	0.0127730
734.781	0.0127855
734.859	0.0127644
734.937	0.0126479
735.015	0.0129221
735.093	0.0128436
735.171	0.0127729
735.249	0.0127023
735.328	0.0130356
735.406	0.0130199
735.484	0.0128519
735.562	0.0129562
735.640	0.0130105
735.718	0.0130321
735.796	0.0130156
735.874	0.0130807
735.953	0.0129814
736.031	0.0129098
736.109	0.0128645
736.187	0.0129226
736.265	0.0129238
736.343	0.0127567
736.421	0.0126754
736.499	0.0125957
736.578	0.0127135
736.656	0.0126853
736.734	0.0124980
736.812	0.0125713
736.890	0.0126535
736.968	0.0126225
737.046	0.0125714
737.124	0.0123969
737.203	0.0125665
737.281	0.0125715
737.359	0.0128270
737.437	0.0126297
737.515	0.0128780
737.593	0.0127885
737.671	0.0130119
737.749	0.0129710
737.828	0.0129433
737.906	0.0129985
737.984	0.0129822
738.062	0.0129565
738.140	0.0129996
738.218	0.0130486
738.296	0.0130148
738.374	0.0129945
738.453	0.0130396
738.531	0.0130122
738.609	0.0128999
738.687	0.0128645
738.765	0.0127137
738.843	0.0127456
738.921	0.0126829
738.999	0.0124546
739.078	0.0126593
739.156	0.0124572
739.234	0.0125500
739.312	0.0126550
739.390	0.0124854
739.468	0.0124168
739.546	0.0126051
739.624	0.0126427
739.703	0.0125517
739.781	0.0126645
739.859	0.0126419
739.937	0.0129483
740.015	0.0126900
740.093	0.0128127
740.171	0.0130353
740.249	0.0130037
740.328	0.0129237
740.406	0.0130977
740.484	0.0132374
740.562	0.0133273
740.640	0.0131796
740.718	0.0131790
740.796	0.0130961
740.874	0.0131342
740.953	0.0131546
741.031	0.0130895
741.109	0.0130516
741.187	0.0129372
741.265	0.0129251
741.343	0.0128737
741.421	0.0128022
741.499	0.0127135
741.578	0.0126965
741.656	0.0127155
741.734	0.0127273
741.812	0.0126286
741.890	0.0126506
741.968	0.0125151
742.046	0.0127373
742.124	0.0127286
742.203	0.0125365
742.281	0.0126584
742.359	0.0128114
742.437	0.0128219
742.515	0.0129018
742.593	0.0128062
742.671	0.0128648
742.749	0.0129751
742.828	0.0128056
742.906	0.0128907
742.984	0.0128757
743.062	0.0127623
743.140	0.0129230
743.218	0.0129719
743.296	0.0128001
743.374	0.0128886
743.453	0.0128968
743.531	0.0127269
743.609	0.0127123
743.687	0.0128228
743.765	0.0128484
743.843	0.0125871
743.921	0.0126767
743.999	0.0126437
744.078	0.0126460
744.156	0.0125655
744.234	0.0126923
744.312	0.0126223
744.390	0.0124978
744.468	0.0125511
744.546	0.0126472
744.624	0.0126357
744.703	0.0127039
744.781	0.0126759
744.859	0.0127177
744.937	0.0127693
745.015	0.0128635
745.093	0.0128991
745.171	0.0129549
745.249	0.0129521
745.328	0.0131169
745.406	0.0130507
745.484	0.0130344
745.562	0.0129552
745.640	0.0129194
745.718	0.0131242
745.796	0.0129917
745.874	0.0130003
745.953	0.0130166
746.031	0.0129382
746.109	0.0129018
746.187	0.0128513
746.265	0.0128479
746.343	0.0126032
746.421	0.0127744
746.499	0.0127757
746.578	0.0126523
746.656	0.0125138
746.734	0.0125506
746.812	0.0125925
746.890	0.0125967
746.968	0.0125592
747.046	0.0125343
747.124	0.0124816
747.203	0.0125717
747.281	0.0127203
747.359	0.0127502
747.437	0.0127380
747.515	0.0129157
747.593	0.0129102
747.671	0.0129195
747.749	0.0129457
747.828	0.0131470
747.906	0.0132452
747.984	0.0132869
748.062	0.0132106
748.140	0.0131261
748.218	0.0128429
748.296	0.0131702
748.374	0.0131811
748.453	0.0130323
748.531	0.0130515
748.609	0.0129499
748.687	0.0128561
748.765	0.0128313
748.843	0.0126160
748.921	0.0127247
748.999	0.0125587
749.078	0.0125305
749.156	0.0123994
749.234	0.0125018
749.312	0.0125294
749.390	0.0124783
749.468	0.0125684
749.546	0.0125482
749.624	0.0126358
749.703	0.0125779
749.781	0.0125111
749.859	0.0127218
749.937	0.0129347
750.015	0.0128471
750.093	0.0128634
750.171	0.0130077
750.249	0.0130872
750.328	0.0129724
750.406	0.0129652
750.484	0.0129375
750.562	0.0130661
750.640	0.0131940
750.718	0.0130983
750.796	0.0130177
750.874	0.0130164
750.953	0.0130155
751.031	0.0128983
751.109	0.0128361
751.187	0.0127370
751.265	0.0127776
751.343	0.0125642
751.421	0.0125514
751.499	0.0125191
751.578	0.0126344
751.656	0.0125488
751.734	0.0124928
751.812	0.0125864
751.890	0.0124945
751.968	0.0127441
752.046	0.0125533
752.124	0.0126673
752.203	0.0126965
752.281	0.0128301
752.359	0.0130095
752.437	0.0130779
752.515	0.0130549
752.593	0.0130810
752.671	0.0131745
752.749	0.0132475
752.828	0.0133628
752.906	0.0133809
752.984	0.0132337
753.062	0.0134838
753.140	0.0135475
753.218	0.0134260
753.296	0.0133403
753.374	0.0132378
753.453	0.0130954
753.531	0.0130204
753.609	0.0128992
753.687	0.0127065
753.765	0.0127762
753.843	0.0126893
753.921	0.0125921
753.999	0.0125592
754.078	0.0125082
754.156	0.0124255
754.234	0.0123534
754.312	0.0124230
754.390	0.0124546
754.468	0.0124625
754.546	0.0126150
754.624	0.0126308
754.703	0.0126122
754.781	0.0126800
754.859	0.0126263
754.937	0.0128493
755.015	0.0128732
755.093	0.0128355
755.171	0.0129211
755.249	0.0130872
755.328	0.0130936
755.406	0.0131322
755.484	0.0131316
755.562	0.0130535
755.640	0.0132245
755.718	0.0131757
755.796	0.0130680
755.874	0.0131903
755.953	0.0131433
756.031	0.0129517
756.109	0.0130372
756.187	0.0130662
756.265	0.0130775
756.343	0.0129704
756.421	0.0127939
756.499	0.0127628
756.578	0.0127692
756.656	0.0127655
756.734	0.0128040
756.812	0.0127823
756.890	0.0125866
756.968	0.0125572
757.046	0.0127360
757.124	0.0128584
757.203	0.0126656
757.281	0.0126454
757.359	0.0127522
757.437	0.0127445
757.515	0.0128690
757.593	0.0128819
757.671	0.0128410
757.749	0.0129907
757.828	0.0130056
757.906	0.0129737
757.984	0.0129027
758.062	0.0130680
758.140	0.0132309
758.218	0.0131049
758.296	0.0129412
758.374	0.0129867
758.453	0.0128587
758.531	0.0128899
758.609	0.0130128
758.687	0.0128876
758.765	0.0127296
758.843	0.0127766
758.921	0.0126097
758.999	0.0126389
759.078	0.0125357
759.156	0.0126120
759.234	0.0125379
759.312	0.0124472
759.390	0.0125008
759.468	0.0125516
759.546	0.0125742
759.624	0.0125303
759.703	0.0125029
759.781	0.0126814
759.859	0.0127906
759.937	0.0127776
760.015	0.0128062
760.093	0.0127757
760.171	0.0128223
760.249	0.0129733
760.328	0.0128943
760.406	0.0128820
760.484	0.0127753
760.562	0.0129501
760.640	0.0130846
760.718	0.0129339
760.796	0.0130333
760.874	0.0128637
760.953	0.0130011
761.031	0.0129602
761.109	0.0129618
761.187	0.0128680
761.265	0.0128596
761.343	0.0128233
761.421	0.0126077
761.499	0.0127072
761.578	0.0126843
761.656	0.0127200
761.734	0.0126573
761.812	0.0126769
761.890	0.0124655
761.968	0.0125845
762.046	0.0125162
762.124	0.0125551
762.203	0.0126686
762.281	0.0127627
762.359	0.0126816
762.437	0.0126534
762.515	0.0127743
762.593	0.0127139
762.671	0.0126770
762.749	0.0128387
762.828	0.0128210
762.906	0.0128301
762.984	0.0128111
763.062	0.0128412
763.140	0.0130581
763.218	0.0131769
763.296	0.0130244
763.374	0.0130183
763.453	0.0131100
763.531	0.0129338
763.609	0.0128585
763.687	0.0129171
763.765	0.0129108
763.843	0.0128947
763.921	0.0127487
763.999	0.0126978
764.078	0.0126900
764.156	0.0126978
764.234	0.0127197
764.312	0.0126972
764.390	0.0127887
764.468	0.0128719
764.546	0.0128016
764.624	0.0128774
764.703	0.0127899
764.781	0.0128310
764.859	0.0129356
764.937	0.0128654
765.015	0.0129294
765.093	0.0129366
765.171	0.0127828
765.249	0.0128606
765.328	0.0128476
765.406	0.0129362
765.484	0.0128336
765.562	0.0127975
765.640	0.0128724
765.718	0.0127035
765.796	0.0127427
765.874	0.0127454
765.953	0.0128784
766.031	0.0128599
766.109	0.0129620
766.187	0.0129557
766.265	0.0129333
766.343	0.0130893
766.421	0.0130625
766.499	0.0130616
766.578	0.0129449
766.656	0.0129030
766.734	0.0127634
766.812	0.0128316
766.890	0.0129120
766.968	0.0127720
767.046	0.0127264
767.124	0.0127906
767.203	0.0127457
767.281	0.0127847
767.359	0.0127132
767.437	0.0126199
767.515	0.0126213
767.593	0.0127796
767.671	0.0128178
767.749	0.0127567
767.828	0.0127023
767.906	0.0128104
767.984	0.0129008
768.062	0.0128688
768.140	0.0127329
768.218	0.0127321
768.296	0.0126971
768.374	0.0128329
768.453	0.0127449
768.531	0.0127344
768.609	0.0126762
768.687	0.0126324
768.765	0.0128658
768.843	0.0127056
768.921	0.0129310
768.999	0.0129076
769.078	0.0129372
769.156	0.0129537
769.234	0.0130032
769.312	0.0130194
769.390	0.0131105
769.468	0.0130615
769.546	0.0131591
769.624	0.0131327
769.703	0.0129012
769.781	0.0128806
769.859	0.0128004
769.937	0.0126788
770.015	0.0126189
770.093	0.0126392
770.171	0.0126472
770.249	0.0126627
770.328	0.0126298
770.406	0.0126472
770.484	0.0125932
770.562	0.0127754
770.640	0.0127892
770.718	0.0127432
770.796	0.0126145
770.874	0.0127763
770.953	0.0127814
771.031	0.0128510
771.109	0.0126605
771.187	0.0128039
771.265	0.0125961
771.343	0.0125911
771.421	0.0126054
771.499	0.0124993
771.578	0.0126945
771.656	0.0128206
771.734	0.0127276
771.812	0.0128849
771.890	0.0129255
771.968	0.0129412
772.046	0.0131385
772.124	0.0129423
772.203	0.0131127
772.281	0.0131664
772.359	0.0130667
772.437	0.0129569
772.515	0.0128324
772.593	0.0129731
772.671	0.0128826
772.749	0.0127126
772.828	0.0126895
772.906	0.0127422
772.984	0.0127660
773.062	0.0127324
773.140	0.0128194
773.218	0.0128064
773.296	0.0126722
773.374	0.0130408
773.453	0.0128998
773.531	0.0129516
773.609	0.0128401
773.687	0.0128326
773.765	0.0127811
773.843	0.0127940
773.921	0.0127712
773.999	0.0128220
774.078	0.0126315
774.156	0.0126540
774.234	0.0127483
774.312	0.0126685
774.390	0.0127576
774.468	0.0127686
774.546	0.0128246
774.624	0.0129503
774.703	0.0129150
774.781	0.0130074
774.859	0.0132013
774.937	0.0130005
775.015	0.0129743
775.093	0.0130794
775.171	0.0131117
775.249	0.0129474
775.328	0.0128706
775.406	0.0129552
775.484	0.0128928
775.562	0.0128128
775.640	0.0126900
775.718	0.0126917
775.796	0.0128297
775.874	0.0127935
775.953	0.0127745
776.031	0.0127792
776.109	0.0129190
776.187	0.0127924
776.265	0.0129713
776.343	0.0128708
776.421	0.0128284
776.499	0.0129601
776.578	0.0128925
776.656	0.0128652
776.734	0.0128075
776.812	0.0129503
776.890	0.0127842
776.968	0.0127773
777.046	0.0128551
777.124	0.0128391
777.203	0.0128238
777.281	0.0128514
777.359	0.0127546
777.437	0.0129097
777.515	0.0128034
777.593	0.0128304
777.671	0.0128236
777.749	0.0128368
777.828	0.0128670
777.906	0.0127945
777.984	0.0128775
778.062	0.0128171
778.140	0.0129092
778.218	0.0127586
778.296	0.0127666
778.374	0.0127339
778.453	0.0127782
778.531	0.0126847
778.609	0.0128228
778.687	0.0128468
778.765	0.0128365
778.843	0.0128767
778.921	0.0129057
778.999	0.0129061
779.078	0.0128879
779.156	0.0127393
779.234	0.0129869
779.312	0.0127486
779.390	0.0125994
779.468	0.0127818
779.546	0.0126969
779.624	0.0127582
779.703	0.0127271
779.781	0.0126674
779.859	0.0125511
779.937	0.0125963
780.015	0.0126965
780.093	0.0127974
780.171	0.0127439
780.249	0.0127182
780.328	0.0127589
780.406	0.0128488
780.484	0.0129128
780.562	0.0128016
780.640	0.0129419
780.718	0.0127865
780.796	0.0128190
780.874	0.0128413
780.953	0.0130127
781.031	0.0129114
781.109	0.0128304
781.187	0.0128054
781.265	0.0129450
781.343	0.0128067
781.421	0.0127959
781.499	0.0129241
781.578	0.0129002
781.656	0.0127518
781.734	0.0126523
781.812	0.0127389
781.890	0.0127161
781.968	0.0125671
782.046	0.0126186
782.124	0.0127353
782.203	0.0127065
782.281	0.0127101
782.359	0.0125948
782.437	0.0125759
782.515	0.0123717
782.593	0.0126496
782.671	0.0125589
782.749	0.0124895
782.828	0.0126501
782.906	0.0125978
782.984	0.0125761
783.062	0.0126554
783.140	0.0127904
783.218	0.0128068
783.296	0.0128538
783.374	0.0129451
783.453	0.0129994
783.531	0.0130431
783.609	0.0132887
783.687	0.0131624
783.765	0.0131035
783.843	0.0131096
783.921	0.0132133
783.999	0.0131694
784.078	0.0129240
784.156	0.0130370
784.234	0.0129596
784.312	0.0129988
784.390	0.0129162
784.468	0.0126592
784.546	0.0126960
784.624	0.0126224
784.703	0.0127056
784.781	0.0125261
784.859	0.0124049
784.937	0.0124943
785.015	0.0126713
785.093	0.0124783
785.171	0.0123662
785.249	0.0124609
785.328	0.0126468
785.406	0.0125229
785.484	0.0125487
785.562	0.0126520
785.640	0.0127336
785.718	0.0128355
785.796	0.0127746
785.874	0.0128381
785.953	0.0127968
786.031	0.0130872
786.109	0.0131205
786.187	0.0129991
786.265	0.0131228
786.343	0.0131512
786.421	0.0131474
786.499	0.0132303
786.578	0.0130807
786.656	0.0131443
786.734	0.0130950
786.812	0.0131093
786.890	0.0130288
786.968	0.0130598
787.046	0.0129668
787.124	0.0128496
787.203	0.0127206
787.281	0.0127027
787.359	0.0126653
787.437	0.0126646
787.515	0.0125983
787.593	0.0125048
787.671	0.0124936
787.749	0.0124773
787.828	0.0124192
787.906	0.0123056
787.984	0.0124017
788.062	0.0125433
788.140	0.0125232
788.218	0.0126920
788.296	0.0126119
788.374	0.0127580
788.453	0.0128268
788.531	0.0129213
788.609	0.0127570
788.687	0.0129448
788.765	0.0130776
788.843	0.0131570
788.921	0.0131240
788.999	0.0133508
789.078	0.0132295
789.156	0.0132138
789.234	0.0132322
789.312	0.0132297
789.390	0.0132077
789.468	0.0130867
789.546	0.0129259
789.624	0.0131473
789.703	0.0129136
789.781	0.0127757
789.859	0.0127145
789.937	0.0127602
790.015	0.0125164
790.093	0.0124448
790.171	0.0123018
790.249	0.0123335
790.328	0.0123656
790.406	0.0121635
790.484	0.0122422
790.562	0.0122785
790.640	0.0123172
790.718	0.0121526
790.796	0.0122526
790.874	0.0123713
790.953	0.0124986
791.031	0.0125995
791.109	0.0127190
791.187	0.0128233
791.265	0.0128300
791.343	0.0130330
791.421	0.0132465
791.499	0.0132346
791.578	0.0132816
791.656	0.0134590
791.734	0.0135183
791.812	0.0133226
791.890	0.0134145
791.968	0.0133129
792.046	0.0133184
792.124	0.0132570
792.203	0.0130212
792.281	0.0130264
792.359	0.0130447
792.437	0.0128954
792.515	0.0129202
792.593	0.0126519
792.671	0.0125281
792.749	0.0125390
792.828	0.0125169
792.906	0.0125262
792.984	0.0124436
793.062	0.0121227
793.140	0.0123228
793.218	0.0123938
793.296	0.0123810
793.374	0.0124739
793.453	0.0125194
793.531	0.0126143
793.609	0.0125395
793.687	0.0127121
793.765	0.0128355
793.843	0.0128886
793.921	0.0129878
793.999	0.0130615
794.078	0.0133002
794.156	0.0130901
794.234	0.0131336
794.312	0.0131600
794.390	0.0130550
794.468	0.0131660
794.546	0.0130476
794.624	0.0130255
794.703	0.0132703
794.781	0.0130615
794.859	0.0129968
794.937	0.0130195
795.015	0.0128705
795.093	0.0127570
795.171	0.0128101
795.249	0.0128053
795.328	0.0127184
795.406	0.0126530
795.484	0.0126151
795.562	0.0128194
795.640	0.0126049
795.718	0.0126845
795.796	0.0125593
795.874	0.0126021
795.953	0.0125993
796.031	0.0124737
796.109	0.0125806
796.187	0.0125546
796.265	0.0126318
796.343	0.0127692
796.421	0.0128101
796.499	0.0128928
796.578	0.0128368
796.656	0.0129749
796.734	0.0130347
796.812	0.0129510
796.890	0.0130789
796.968	0.0131292
797.046	0.0131042
797.124	0.0130097
797.203	0.0131448
797.281	0.0131135
797.359	0.0130605
797.437	0.0131188
797.515	0.0130732
797.593	0.0130704
797.671	0.0129625
797.749	0.0128450
797.828	0.0128493
797.906	0.0129861
797.984	0.0127919
798.062	0.0128403
798.140	0.0127007
798.218	0.0126336
798.296	0.0125288
798.374	0.0126893
798.453	0.0127094
798.531	0.0124388
798.609	0.0124382
798.687	0.0125051
798.765	0.0125980
798.843	0.0125600
798.921	0.0126184
798.999	0.0126864
799.078	0.0126528
799.156	0.0128426
799.234	0.0127782
799.312	0.0128004
799.390	0.0128648
799.468	0.0128827
799.546	0.0130373
799.624	0.0128201
799.703	0.0128695
799.781	0.0129989
799.859	0.0128468
799.937	0.0128668
800.015	0.0127087
800.093	0.0126800
800.171	0.0126688
800.249	0.0127518
800.328	0.0127607
800.406	0.0127026
800.484	0.0127444
800.562	0.0125784
800.640	0.0126073
800.718	0.0126009
800.796	0.0124915
800.874	0.0126235
800.953	0.0125342
801.031	0.0128539
801.109	0.0127658
801.187	0.0127441
801.265	0.0128151
801.343	0.0129285
801.421	0.0128345
801.499	0.0129278
801.578	0.0129045
801.656	0.0129544
801.734	0.0128149
801.812	0.0129147
801.890	0.0128875
801.968	0.0130031
802.046	0.0128730
802.124	0.0127633
802.203	0.0130022
802.281	0.0129817
802.359	0.0128290
802.437	0.0127592
802.515	0.0127702
802.593	0.0126391
802.671	0.0127233
802.749	0.0126344
802.828	0.0125789
802.906	0.0125985
802.984	0.0125760
803.062	0.0125650
803.140	0.0126450
803.218	0.0124850
803.296	0.0125784
803.374	0.0126180
803.453	0.0126735
803.531	0.0127524
803.609	0.0127507
803.687	0.0127342
803.765	0.0128729
803.843	0.0128419
803.921	0.0128761
803.999	0.0129718
804.078	0.0129877
804.156	0.0129716
804.234	0.0129492
804.312	0.0128909
804.390	0.0129585
804.468	0.0129879
804.546	0.0128687
804.624	0.0130715
804.703	0.0128873
804.781	0.0128237
804.859	0.0129589
804.937	0.0128962
805.015	0.0130307
805.093	0.0128753
805.171	0.0127659
805.249	0.0128172
805.328	0.0128238
805.406	0.0127649
805.484	0.0127988
805.562	0.0126984
805.640	0.0127602
805.718	0.0127519
805.796	0.0128038
805.874	0.0127328
805.953	0.0127152
806.031	0.0125754
806.109	0.0128117
806.187	0.0127829
806.265	0.0127750
806.343	0.0127652
806.421	0.0128448
806.499	0.0127843
806.578	0.0128373
806.656	0.0127191
806.734	0.0126894
806.812	0.0128305
806.890	0.0128718
806.968	0.0130518
807.046	0.0129547
807.124	0.0129255
807.203	0.0128410
807.281	0.0127872
807.359	0.0129433
807.437	0.0130439
807.515	0.0129306
807.593	0.0129668
807.671	0.0130077
807.749	0.0129233
807.828	0.0129207
807.906	0.0127303
807.984	0.0129373
808.062	0.0127296
808.140	0.0127094
808.218	0.0127802
808.296	0.0128026
808.374	0.0127428
808.453	0.0127340
808.531	0.0127959
808.609	0.0127432
808.687	0.0126324
808.765	0.0125391
808.843	0.0127478
808.921	0.0126506
808.999	0.0126717
809.078	0.0127245
809.156	0.0127757
809.234	0.0127402
809.312	0.0128623
809.390	0.0127547
809.468	0.0127522
809.546	0.0128392
809.624	0.0127841
809.703	0.0128227
809.781	0.0127722
809.859	0.0127570
809.937	0.0128070
810.015	0.0127930
810.093	0.0128000
810.171	0.0128606
810.249	0.0128535
810.328	0.0129439
810.406	0.0128528
810.484	0.0128423
810.562	0.0128960
810.640	0.0130267
810.718	0.0127374
810.796	0.0126138
810.874	0.0128717
810.953	0.0128225
811.031	0.0127831
811.109	0.0128891
811.187	0.0127219
811.265	0.0127777
811.343	0.0127964
811.421	0.0127938
811.499	0.0128194
811.578	0.0127480
811.656	0.0127726
811.734	0.0128894
811.812	0.0128777
811.890	0.0129151
811.968	0.0129303
812.046	0.0128538
812.124	0.0129918
812.203	0.0128429
812.281	0.0129912
812.359	0.0129276
812.437	0.0128258
812.515	0.0130074
812.593	0.0130054
812.671	0.0129233
812.749	0.0130395
812.828	0.0129390
812.906	0.0130012
812.984	0.0129288
813.062	0.0129379
813.140	0.0127385
813.218	0.0128058
813.296	0.0128663
813.374	0.0128999
813.453	0.0127902
813.531	0.0128238
813.609	0.0126920
813.687	0.0126463
813.765	0.0128519
813.843	0.0128130
813.921	0.0129355
813.999	0.0127697
814.078	0.0128628
814.156	0.0127534
814.234	0.0128041
814.312	0.0129324
814.390	0.0130238
814.468	0.0128769
814.546	0.0128180
814.624	0.0130334
814.703	0.0129971
814.781	0.0128677
814.859	0.0129080
814.937	0.0128840
815.015	0.0129380
815.093	0.0128895
815.171	0.0130056
815.249	0.0131308
815.328	0.0130447
815.406	0.0128086
815.484	0.0129436
815.562	0.0130168
815.640	0.0129314
815.718	0.0128520
815.796	0.0127922
815.874	0.0127877
815.953	0.0128558
816.031	0.0129005
816.109	0.0128903
816.187	0.0127595
816.265	0.0129082
816.343	0.0129194
816.421	0.0128964
816.499	0.0129736
816.578	0.0130002
816.656	0.0128630
816.734	0.0129110
816.812	0.0127899
816.890	0.0129813
816.968	0.0130136
817.046	0.0129242
817.124	0.0128616
817.203	0.0128278
817.281	0.0129483
817.359	0.0128543
817.437	0.0126521
817.515	0.0128474
817.593	0.0128611
817.671	0.0128136
817.749	0.0126765
817.828	0.0126784
817.906	0.0126054
817.984	0.0128780
818.062	0.0127134
818.140	0.0127338
818.218	0.0127586
818.296	0.0127164
818.374	0.0127253
818.453	0.0127403
818.531	0.0128087
818.609	0.0128139
818.687	0.0127589
818.765	0.0128378
818.843	0.0128867
818.921	0.0128062
818.999	0.0130254
819.078	0.0127170
819.156	0.0128954
819.234	0.0128358
819.312	0.0128709
819.390	0.0130007
819.468	0.0130081
819.546	0.0129839
819.624	0.0129284
819.703	0.0128250
819.781	0.0128120
819.859	0.0128764
819.937	0.0127985
820.015	0.0128628
820.093	0.0127631
820.171	0.0127553
820.249	0.0127317
820.328	0.0126900
820.406	0.0127946
820.484	0.0127898
820.562	0.0129028
820.640	0.0128103
820.718	0.0126534
820.796	0.0126133
820.874	0.0126960
820.953	0.0127596
821.031	0.0126290
821.109	0.0128439
821.187	0.0127613
821.265	0.0128672
821.343	0.0128884
821.421	0.0127967
821.499	0.0127736
821.578	0.0128635
821.656	0.0128956
821.734	0.0130347
821.812	0.0130391
821.890	0.0129937
821.968	0.0130153
822.046	0.0130565
822.124	0.0130226
822.203	0.0129762
822.281	0.0128890
822.359	0.0129906
822.437	0.0129755
822.515	0.0127585
822.593	0.0128941
822.671	0.0128829
822.749	0.0129227
822.828	0.0127457
822.906	0.0127975
822.984	0.0128661
823.062	0.0128863
823.140	0.0128469
823.218	0.0127383
823.296	0.0128734
823.374	0.0127945
823.453	0.0127995
823.531	0.0128862
823.609	0.0127677
823.687	0.0127736
823.765	0.0127676
823.843	0.0128977
823.921	0.0128690
823.999	0.0128657
824.078	0.0127637
824.156	0.0128581
824.234	0.0129392
824.312	0.0128496
824.390	0.0128926
824.468	0.0128505
824.546	0.0129025
824.624	0.0129076
824.703	0.0128432
824.781	0.0129829
824.859	0.0129231
824.937	0.0128238
825.015	0.0128864
825.093	0.0128214
825.171	0.0128419
825.249	0.0128255
825.328	0.0127924
825.406	0.0128654
825.484	0.0128328
825.562	0.0128309
825.640	0.0129298
825.718	0.0128769
825.796	0.0129002
825.874	0.0128365
825.953	0.0126945
826.031	0.0128702
826.109	0.0128786
826.187	0.0129922
826.265	0.0128712
826.343	0.0128612
826.421	0.0128823
826.499	0.0128307
826.578	0.0127834
826.656	0.0128591
826.734	0.0129620
826.812	0.0130270
826.890	0.0128755
826.968	0.0129387
827.046	0.0128992
827.124	0.0128733
827.203	0.0128422
827.281	0.0129385
827.359	0.0130162
827.437	0.0129809
827.515	0.0129062
827.593	0.0129972
827.671	0.0128912
827.749	0.0128412
827.828	0.0130260
827.906	0.0129307
827.984	0.0128137
828.062	0.0129455
828.140	0.0128854
828.218	0.0128948
828.296	0.0129841
828.374	0.0127953
828.453	0.0128126
828.531	0.0127093
828.609	0.0128939
828.687	0.0128761
828.765	0.0129127
828.843	0.0127169
828.921	0.0127643
828.999	0.0127763
829.078	0.0127644
829.156	0.0126273
829.234	0.0126865
829.312	0.0128257
829.390	0.0128127
829.468	0.0129256
829.546	0.0127303
829.624	0.0127912
829.703	0.0128260
829.781	0.0129744
829.859	0.0129031
829.937	0.0128004
830.015	0.0128802
830.093	0.0128563
830.171	0.0129404
830.249	0.0128988
830.328	0.0127584
830.406	0.0128483
830.484	0.0128057
830.562	0.0128811
830.640	0.0130003
830.718	0.0128980
830.796	0.0129597
830.874	0.0129002
830.953	0.0129781
831.031	0.0128333
831.109	0.0128921
831.187	0.0127994
831.265	0.0129905
831.343	0.0127029
831.421	0.0128167
831.499	0.0129323
831.578	0.0129667
831.656	0.0129527
831.734	0.0128229
831.812	0.0127827
831.890	0.0127531
831.968	0.0128563
832.046	0.0127811
832.124	0.0127855
832.203	0.0128149
832.281	0.0129990
832.359	0.0128059
832.437	0.0126756
832.515	0.0128175
832.593	0.0128500
832.671	0.0128742
832.749	0.0127745
832.828	0.0128529
832.906	0.0129735
832.984	0.0128445
833.062	0.0128102
833.140	0.0128419
833.218	0.0129907
833.296	0.0128893
833.374	0.0127727
833.453	0.0128200
833.531	0.0130499
833.609	0.0129906
833.687	0.0128651
833.765	0.0128841
833.843	0.0128152
833.921	0.0129516
833.999	0.0127678
834.078	0.0128738
834.156	0.0127860
834.234	0.0127741
834.312	0.0127763
834.390	0.0128099
834.468	0.0128909
834.546	0.0127773
834.624	0.0129036
834.703	0.0128782
834.781	0.0128545
834.859	0.0130521
834.937	0.0129592
835.015	0.0129391
835.093	0.0131203
835.171	0.0130492
835.249	0.0130024
835.328	0.0128393
835.406	0.0129209
835.484	0.0129310
835.562	0.0130068
835.640	0.0130946
835.718	0.0128371
835.796	0.0128193
835.874	0.0128870
835.953	0.0129205
836.031	0.0128925
836.109	0.0129398
836.187	0.0128817
836.265	0.0128150
836.343	0.0129218
836.421	0.0128442
836.499	0.0127608
836.578	0.0127631
836.656	0.0127991
836.734	0.0128651
836.812	0.0128506
836.890	0.0127637
836.968	0.0129016
837.046	0.0128336
837.124	0.0128687
837.203	0.0129055
837.281	0.0127910
837.359	0.0131170
837.437	0.0130785
837.515	0.0129055
837.593	0.0131379
837.671	0.0129564
837.749	0.0129869
837.828	0.0129041
837.906	0.0129372
837.984	0.0129874
838.062	0.0128319
838.140	0.0128501
838.218	0.0129492
838.296	0.0129720
838.374	0.0128524
838.453	0.0126643
838.531	0.0128059
838.609	0.0128597
838.687	0.0128377
838.765	0.0127463
838.843	0.0127991
838.921	0.0127361
838.999	0.0127575
839.078	0.0127596
839.156	0.0128845
839.234	0.0126890
839.312	0.0124335
839.390	0.0127080
839.468	0.0127186
839.546	0.0128297
839.624	0.0127995
839.703	0.0127533
839.781	0.0127132
839.859	0.0127836
839.937	0.0128270
840.015	0.0128703
840.093	0.0129890
840.171	0.0129713
840.249	0.0128866
840.328	0.0130180
840.406	0.0130972
840.484	0.0130966
840.562	0.0129816
840.640	0.0128986
840.718	0.0130143
840.796	0.0129529
840.874	0.0128989
840.953	0.0127740
841.031	0.0127673
841.109	0.0127425
841.187	0.0128259
841.265	0.0127855
841.343	0.0126643
841.421	0.0128339
841.499	0.0125997
841.578	0.0127184
841.656	0.0127058
841.734	0.0125979
841.812	0.0126530
841.890	0.0125227
841.968	0.0127940
842.046	0.0128552
842.124	0.0126986
842.203	0.0128662
842.281	0.0129114
842.359	0.0129023
842.437	0.0129046
842.515	0.0129694
842.593	0.0130612
842.671	0.0131871
842.749	0.0131592
842.828	0.0130604
842.906	0.0128580
842.984	0.0130975
843.062	0.0129565
843.140	0.0130166
843.218	0.0129842
843.296	0.0129614
843.374	0.0128329
843.453	0.0128816
843.531	0.0128304
843.609	0.0129172
843.687	0.0127801
843.765	0.0127943
843.843	0.0126900
843.921	0.0124772
843.999	0.0126830
844.078	0.0126745
844.156	0.0127586
844.234	0.0127263
844.312	0.0127374
844.390	0.0127592
844.468	0.0126342
844.546	0.0127099
844.624	0.0126767
844.703	0.0128617
844.781	0.0127518
844.859	0.0128458
844.937	0.0129581
845.015	0.0129148
845.093	0.0128817
845.171	0.0129096
845.249	0.0130553
845.328	0.0129765
845.406	0.0129330
845.484	0.0129726
845.562	0.0130831
845.640	0.0131277
845.718	0.0130356
845.796	0.0129448
845.874	0.0131133
845.953	0.0129652
846.031	0.0128275
846.109	0.0130254
846.187	0.0128555
846.265	0.0129040
846.343	0.0129700
846.421	0.0128616
846.499	0.0126751
846.578	0.0128474
846.656	0.0128905
846.734	0.0127782
846.812	0.0126933
846.890	0.0127740
846.968	0.0129033
847.046	0.0129134
847.124	0.0128241
847.203	0.0129531
847.281	0.0128434
847.359	0.0128601
847.437	0.0128777
847.515	0.0129016
847.593	0.0129798
847.671	0.0128820
847.749	0.0129944
847.828	0.0128281
847.906	0.0130116
847.984	0.0129905
848.062	0.0130088
848.140	0.0130100
848.218	0.0130630
848.296	0.0130154
848.374	0.0129512
848.453	0.0131941
848.531	0.0131069
848.609	0.0129449
848.687	0.0131189
848.765	0.0130889
848.843	0.0131366
848.921	0.0130684
848.999	0.0129149
849.078	0.0130130
849.156	0.0129181
849.234	0.0127267
849.312	0.0128669
849.390	0.0126932
849.468	0.0128345
849.546	0.0128493
849.624	0.0127774
849.703	0.0126445
849.781	0.0127549
849.859	0.0127833
849.937	0.0127359
850.015	0.0126773
850.093	0.0125766
850.171	0.0126028
850.249	0.0126298
850.328	0.0127251
850.406	0.0126907
850.484	0.0127764
850.562	0.0128625
850.640	0.0128721
850.718	0.0127673
850.796	0.0127958
850.874	0.0129745
850.953	0.0130523
851.031	0.0129730
851.109	0.0129888
851.187	0.0129466
851.265	0.0127938
851.343	0.0129009
851.421	0.0130476
851.499	0.0129735
851.578	0.0128767
851.656	0.0129178
851.734	0.0128536
851.812	0.0128771
851.890	0.0127698
851.968	0.0126824
852.046	0.0127978
852.124	0.0127393
852.203	0.0127409
852.281	0.0127563
852.359	0.0127225
852.437	0.0127143
852.515	0.0128216
852.593	0.0127863
852.671	0.0127435
852.749	0.0128358
852.828	0.0128721
852.906	0.0127066
852.984	0.0128651
853.062	0.0128838
853.140	0.0129294
853.218	0.0129362
853.296	0.0128880
853.374	0.0129093
853.453	0.0130215
853.531	0.0130392
853.609	0.0129296
853.687	0.0129581
853.765	0.0128550
853.843	0.0129071
853.921	0.0129230
853.999	0.0128630
854.078	0.0127872
854.156	0.0126957
854.234	0.0129457
854.312	0.0127791
854.390	0.0127617
854.468	0.0128019
854.546	0.0127193
854.624	0.0126655
854.703	0.0125715
854.781	0.0128202
854.859	0.0126986
854.937	0.0127619
855.015	0.0127534
855.093	0.0128127
855.171	0.0127667
855.249	0.0127154
855.328	0.0128269
855.406	0.0128551
855.484	0.0128709
855.562	0.0128980
855.640	0.0129175
855.718	0.0128717
855.796	0.0130419
855.874	0.0129310
855.953	0.0128914
856.031	0.0130501
856.109	0.0129015
856.187	0.0130843
856.265	0.0130000
856.343	0.0127848
856.421	0.0129152
856.499	0.0128944
856.578	0.0127848
856.656	0.0128400
856.734	0.0128601
856.812	0.0128905
856.890	0.0128142
856.968	0.0128905
857.046	0.0127811
857.124	0.0127697
857.203	0.0127397
857.281	0.0127414
857.359	0.0128329
857.437	0.0127922
857.515	0.0127261
857.593	0.0129189
857.671	0.0127544
857.749	0.0129505
857.828	0.0128902
857.906	0.0128330
857.984	0.0128381
858.062	0.0129877
858.140	0.0130235
858.218	0.0128779
858.296	0.0129696
858.374	0.0129611
858.453	0.0129886
858.531	0.0129603
858.609	0.0130295
858.687	0.0129772
858.765	0.0130161
858.843	0.0129336
858.921	0.0128919
858.999	0.0128829
859.078	0.0128890
859.156	0.0129056
859.234	0.0127071
859.312	0.0127713
859.390	0.0128219
859.468	0.0127916
859.546	0.0126290
859.624	0.0125986
859.703	0.0124981
859.781	0.0126221
859.859	0.0127253
859.937	0.0127113
860.015	0.0125886
860.093	0.0126493
860.171	0.0126426
860.249	0.0126575
860.328	0.0127471
860.406	0.0128824
860.484	0.0127463
860.562	0.0127349
860.640	0.0129527
860.718	0.0128922
860.796	0.0129382
860.874	0.0131299
860.953	0.0129471
861.031	0.0129285
861.109	0.0128944
861.187	0.0131472
861.265	0.0129001
861.343	0.0127987
861.421	0.0128135
861.499	0.0127811
861.578	0.0126078
861.656	0.0127963
861.734	0.0125825
861.812	0.0128010
861.890	0.0127151
861.968	0.0125677
862.046	0.0125595
862.124	0.0124963
862.203	0.0125682
862.281	0.0125802
862.359	0.0125392
862.437	0.0126422
862.515	0.0127027
862.593	0.0126791
862.671	0.0126335
862.749	0.0126414
862.828	0.0127290
862.906	0.0126976
862.984	0.0127552
863.062	0.0129140
863.140	0.0129500
863.218	0.0128071
863.296	0.0129028
863.374	0.0128133
863.453	0.0129588
863.531	0.0130585
863.609	0.0130704
863.687	0.0130926
863.765	0.0129448
863.843	0.0128443
863.921	0.0127754
863.999	0.0129138
864.078	0.0127525
864.156	0.0129353
864.234	0.0128693
864.312	0.0128085
864.390	0.0128209
864.468	0.0127331
864.546	0.0126555
864.624	0.0126070
864.703	0.0126271
864.781	0.0126482
864.859	0.0126527
864.937	0.0126680
865.015	0.0126173
865.093	0.0125802
865.171	0.0126385
865.249	0.0127136
865.328	0.0128822
865.406	0.0127787
865.484	0.0126017
865.562	0.0127876
865.640	0.0128027
865.718	0.0128352
865.796	0.0129288
865.874	0.0129452
865.953	0.0128667
866.031	0.0129692
866.109	0.0129723
866.187	0.0128757
866.265	0.0127947
866.343	0.0128423
866.421	0.0129093
866.499	0.0131040
866.578	0.0129105
866.656	0.0130015
866.734	0.0127641
866.812	0.0126288
866.890	0.0127599
866.968	0.0127821
867.046	0.0128357
867.124	0.0127337
867.203	0.0126234
867.281	0.0127013
867.359	0.0128354
867.437	0.0127396
867.515	0.0127956
867.593	0.0128010
867.671	0.0127125
867.749	0.0128287
867.828	0.0127683
867.906	0.0127273
867.984	0.0129296
868.062	0.0129257
868.140	0.0128765
868.218	0.0128033
868.296	0.0128588
868.374	0.0128530
868.453	0.0129574
868.531	0.0129155
868.609	0.0127576
868.687	0.0127287
868.765	0.0130469
868.843	0.0129729
868.921	0.0128497
868.999	0.0128986
869.078	0.0129018
869.156	0.0130634
869.234	0.0128403
869.312	0.0129314
869.390	0.0129551
869.468	0.0127682
869.546	0.0128534
869.624	0.0126804
869.703	0.0125925
869.781	0.0128124
869.859	0.0127288
869.937	0.0128291
870.015	0.0126719
870.093	0.0126942
870.171	0.0127535
870.249	0.0128049
870.328	0.0127550
870.406	0.0127817
870.484	0.0126730
870.562	0.0128333
870.640	0.0126294
870.718	0.0128831
870.796	0.0127886
870.874	0.0128026
870.953	0.0127593
871.031	0.0128832
871.109	0.0128510
871.187	0.0127972
871.265	0.0128681
871.343	0.0127740
871.421	0.0127834
871.499	0.0127582
871.578	0.0128363
871.656	0.0127814
871.734	0.0127773
871.812	0.0128681
871.890	0.0127570
871.968	0.0127280
872.046	0.0126870
872.124	0.0127679
872.203	0.0128725
872.281	0.0127594
872.359	0.0127259
872.437	0.0127125
872.515	0.0127277
872.593	0.0126723
872.671	0.0127354
872.749	0.0126308
872.828	0.0127013
872.906	0.0127376
872.984	0.0126775
873.062	0.0128491
873.140	0.0129974
873.218	0.0128619
873.296	0.0127985
873.374	0.0129244
873.453	0.0127842
873.531	0.0127264
873.609	0.0129382
873.687	0.0129794
873.765	0.0128690
873.843	0.0127954
873.921	0.0128196
873.999	0.0128223
874.078	0.0127544
874.156	0.0127658
874.234	0.0127593
874.312	0.0127360
874.390	0.0127283
874.468	0.0127084
874.546	0.0128050
874.624	0.0126588
874.703	0.0128175
874.781	0.0126687
874.859	0.0125728
874.937	0.0128281
875.015	0.0127466
875.093	0.0127779
875.171	0.0126487
875.249	0.0127177
875.328	0.0128157
875.406	0.0126540
875.484	0.0127396
875.562	0.0128931
875.640	0.0129279
875.718	0.0128763
875.796	0.0129337
875.874	0.0128583
875.953	0.0130174
876.031	0.0129238
876.109	0.0128503
876.187	0.0129643
876.265	0.0127982
876.343	0.0130217
876.421	0.0127848
876.499	0.0129470
876.578	0.0127266
876.656	0.0128635
876.734	0.0126699
876.812	0.0126579
876.890	0.0127528
876.968	0.0127182
877.046	0.0127261
877.124	0.0125616
877.203	0.0125290
877.281	0.0126046
877.359	0.0126296
877.437	0.0126304
877.515	0.0126482
877.593	0.0126266
877.671	0.0126025
877.749	0.0128114
877.828	0.0126741
877.906	0.0127654
877.984	0.0128496
878.062	0.0129280
878.140	0.0127833
878.218	0.0128570
878.296	0.0129565
878.374	0.0130168
878.453	0.0130302
878.531	0.0130695
878.609	0.0129726
878.687	0.0129647
878.765	0.0131434
878.843	0.0130403
878.921	0.0129404
878.999	0.0129364
879.078	0.0127686
879.156	0.0128091
879.234	0.0127692
879.312	0.0126580
879.390	0.0125905
879.468	0.0125303
879.546	0.0126188
879.624	0.0124426
879.703	0.0125039
879.781	0.0125255
879.859	0.0124940
879.937	0.0125507
880.015	0.0126233
880.093	0.0125068
880.171	0.0126942
880.249	0.0127596
880.328	0.0127088
880.406	0.0127603
880.484	0.0130032
880.562	0.0129926
880.640	0.0128947
880.718	0.0129339
880.796	0.0129626
880.874	0.0131535
880.953	0.0132428
881.031	0.0131961
881.109	0.0128843
881.187	0.0132331
881.265	0.0131625
881.343	0.0131572
881.421	0.0130515
881.499	0.0128466
881.578	0.0129280
881.656	0.0128609
881.734	0.0128129
881.812	0.0126897
881.890	0.0126132
881.968	0.0126427
882.046	0.0123791
882.124	0.0124054
882.203	0.0124042
882.281	0.0122909
882.359	0.0122894
882.437	0.0123669
882.515	0.0123681
882.593	0.0124790
882.671	0.0126514
882.749	0.0126472
882.828	0.0127424
882.906	0.0127252
882.984	0.0128042
883.062	0.0128588
883.140	0.0128788
883.218	0.0130080
883.296	0.0130357
883.374	0.0130517
883.453	0.0129900
883.531	0.0129324
883.609	0.0128187
883.687	0.0130950
883.765	0.0129872
883.843	0.0129823
883.921	0.0129854
883.999	0.0129414
884.078	0.0130319
884.156	0.0129465
884.234	0.0128936
884.312	0.0130629
884.390	0.0128658
884.468	0.0127942
884.546	0.0126789
884.624	0.0125378
884.703	0.0123807
884.781	0.0124489
884.859	0.0125496
884.937	0.0123566
885.015	0.0124145
885.093	0.0122881
885.171	0.0122942
885.249	0.0124075
885.328	0.0123611
885.406	0.0125035
885.484	0.0124683
885.562	0.0125729
885.640	0.0126285
885.718	0.0127277
885.796	0.0127596
885.874	0.0128259
885.953	0.0129731
886.031	0.0129377
886.109	0.0129411
886.187	0.0130418
886.265	0.0132001
886.343	0.0132796
886.421	0.0132177
886.499	0.0131250
886.578	0.0132139
886.656	0.0130434
886.734	0.0132031
886.812	0.0131781
886.890	0.0130929
886.968	0.0130402
887.046	0.0128329
887.124	0.0128708
887.203	0.0129144
887.281	0.0127393
887.359	0.0126091
887.437	0.0125533
887.515	0.0124532
887.593	0.0124421
887.671	0.0124203
887.749	0.0124563
887.828	0.0124099
887.906	0.0124538
887.984	0.0124545
888.062	0.0124816
888.140	0.0125804
888.218	0.0127146
888.296	0.0128064
888.374	0.0128712
888.453	0.0128327
888.531	0.0128624
888.609	0.0131094
888.687	0.0131516
888.765	0.0131567
888.843	0.0131660
888.921	0.0130206
888.999	0.0130001
889.078	0.0131274
889.156	0.0131181
889.234	0.0129471
889.312	0.0130517
889.390	0.0130450
889.468	0.0129916
889.546	0.0128888
889.624	0.0128015
889.703	0.0128608
889.781	0.0128421
889.859	0.0127854
889.937	0.0127427
890.015	0.0125941
890.093	0.0126220
890.171	0.0126891
890.249	0.0125592
890.328	0.0125374
890.406	0.0126559
890.484	0.0125835
890.562	0.0125792
890.640	0.0127196
890.718	0.0127662
890.796	0.0127398
890.874	0.0127682
890.953	0.0128214
891.031	0.0126584
891.109	0.0128268
891.187	0.0130063
891.265	0.0128683
891.343	0.0129928
891.421	0.0129012
891.499	0.0129600
891.578	0.0129647
891.656	0.0129144
891.734	0.0129545
891.812	0.0128429
891.890	0.0129095
891.968	0.0127823
892.046	0.0127987
892.124	0.0130418
892.203	0.0128399
892.281	0.0129242
892.359	0.0128262
892.437	0.0127647
892.515	0.0128413
892.593	0.0129688
892.671	0.0127525
892.749	0.0128061
892.828	0.0127437
892.906	0.0127459
892.984	0.0127012
893.062	0.0128011
893.140	0.0126243
893.218	0.0126886
893.296	0.0126329
893.374	0.0127988
893.453	0.0127058
893.531	0.0126743
893.609	0.0127758
893.687	0.0128851
893.765	0.0126713
893.843	0.0126975
893.921	0.0127197
893.999	0.0128464
894.078	0.0128485
894.156	0.0126891
894.234	0.0127448
894.312	0.0128160
894.390	0.0129017
894.468	0.0127853
894.546	0.0128400
894.624	0.0129038
894.703	0.0129935
894.781	0.0130310
894.859	0.0127664
894.937	0.0129114
895.015	0.0129399
895.093	0.0129491
895.171	0.0127962
895.249	0.0128103
895.328	0.0128958
895.406	0.0127818
895.484	0.0127357
895.562	0.0127029
895.640	0.0126884
895.718	0.0127958
895.796	0.0128089
895.874	0.0128352
895.953	0.0126571
896.031	0.0126609
896.109	0.0126830
896.187	0.0128937
896.265	0.0127548
896.343	0.0127558
896.421	0.0129254
896.499	0.0129581
896.578	0.0130186
896.656	0.0129435
896.734	0.0129501
896.812	0.0128917
896.890	0.0129034
896.968	0.0128201
897.046	0.0128947
897.124	0.0127971
897.203	0.0130060
897.281	0.0128653
897.359	0.0126963
897.437	0.0128168
897.515	0.0128427
897.593	0.0127467
897.671	0.0128992
897.749	0.0127235
897.828	0.0127071
897.906	0.0127204
897.984	0.0126595
898.062	0.0126649
898.140	0.0128281
898.218	0.0128053
898.296	0.0128014
898.374	0.0127983
898.453	0.0129009
898.531	0.0128004
898.609	0.0129117
898.687	0.0130740
898.765	0.0129952
898.843	0.0129745
898.921	0.0129169
898.999	0.0128854
899.078	0.0129667
899.156	0.0129993
899.234	0.0130820
899.312	0.0129182
899.390	0.0130315
899.468	0.0131653
899.546	0.0129266
899.624	0.0128996
899.703	0.0129098
899.781	0.0127418
899.859	0.0128825
899.937	0.0129719
900.015	0.0129678
900.093	0.0128082
900.171	0.0128351
900.249	0.0127541
900.328	0.0127016
900.406	0.0127419
900.484	0.0127077
900.562	0.0126796
900.640	0.0127170
900.718	0.0125994
900.796	0.0126148
900.874	0.0126287
900.953	0.0126807
901.031	0.0126363
901.109	0.0127927
901.187	0.0126656
901.265	0.0127085
901.343	0.0128166
901.421	0.0127452
901.499	0.0128220
901.578	0.0128973
901.656	0.0129991
901.734	0.0129278
901.812	0.0129762
901.890	0.0129799
901.968	0.0130508
902.046	0.0130523
902.124	0.0130005
902.203	0.0129553
902.281	0.0130438
902.359	0.0129603
902.437	0.0130522
902.515	0.0131211
902.593	0.0129791
902.671	0.0128663
902.749	0.0131130
902.828	0.0129118
902.906	0.0128178
902.984	0.0129880
903.062	0.0129635
903.140	0.0129510
903.218	0.0128356
903.296	0.0128340
903.374	0.0127734
903.453	0.0128573
903.531	0.0127285
903.609	0.0127061
903.687	0.0128017
903.765	0.0127111
903.843	0.0126774
903.921	0.0126963
903.999	0.0126961
904.078	0.0126682
904.156	0.0128474
904.234	0.0129327
904.312	0.0128144
904.390	0.0127441
904.468	0.0127854
904.546	0.0126886
904.624	0.0129749
904.703	0.0128799
904.781	0.0128558
904.859	0.0128761
904.937	0.0128992
905.015	0.0131039
905.093	0.0130382
905.171	0.0128857
905.249	0.0130068
905.328	0.0129790
905.406	0.0129876
905.484	0.0129553
905.562	0.0128564
905.640	0.0129129
905.718	0.0129510
905.796	0.0129922
905.874	0.0129200
905.953	0.0128892
906.031	0.0130262
906.109	0.0129041
906.187	0.0128671
906.265	0.0127951
906.343	0.0128671
906.421	0.0130035
906.499	0.0128348
906.578	0.0129102
906.656	0.0127895
906.734	0.0128212
906.812	0.0127387
906.890	0.0127174
906.968	0.0128520
907.046	0.0126850
907.124	0.0126369
907.203	0.0128148
907.281	0.0128249
907.359	0.0128526
907.437	0.0126720
907.515	0.0127453
907.593	0.0128408
907.671	0.0128812
907.749	0.0130328
907.828	0.0128265
907.906	0.0129928
907.984	0.0129427
908.062	0.0127879
908.140	0.0127396
908.218	0.0128799
908.296	0.0128428
908.374	0.0129206
908.453	0.0128839
908.531	0.0128602
908.609	0.0128276
908.687	0.0127698
908.765	0.0129156
908.843	0.0128836
908.921	0.0129033
908.999	0.0128963
909.078	0.0128352
909.156	0.0128465
909.234	0.0129781
909.312	0.0128659
909.390	0.0129823
909.468	0.0130740
909.546	0.0129011
909.624	0.0126694
909.703	0.0129410
909.781	0.0128917
909.859	0.0128644
909.937	0.0127770
910.015	0.0129350
910.093	0.0128543
910.171	0.0128252
910.249	0.0128485
910.328	0.0129094
910.406	0.0129346
910.484	0.0129515
910.562	0.0127244
910.640	0.0126586
910.718	0.0127971
910.796	0.0127316
910.874	0.0127572
910.953	0.0128284
911.031	0.0128046
911.109	0.0128271
911.187	0.0127116
911.265	0.0126720
911.343	0.0128092
911.421	0.0127550
911.499	0.0127621
911.578	0.0128336
911.656	0.0128201
911.734	0.0127523
911.812	0.0128121
911.890	0.0127566
911.968	0.0127693
912.046	0.0127940
912.124	0.0128676
912.203	0.0128007
912.281	0.0128235
912.359	0.0128372
912.437	0.0128127
912.515	0.0129147
912.593	0.0129879
912.671	0.0128809
912.749	0.0128619
912.828	0.0126808
912.906	0.0127069
912.984	0.0126702
913.062	0.0128516
913.140	0.0128145
913.218	0.0128403
913.296	0.0128338
913.374	0.0127626
913.453	0.0128472
913.531	0.0128178
913.609	0.0127200
913.687	0.0127772
913.765	0.0126447
913.843	0.0127461
913.921	0.0127975
913.999	0.0126378
914.078	0.0126355
914.156	0.0126586
914.234	0.0127693
914.312	0.0126522
914.390	0.0127257
914.468	0.0126538
914.546	0.0127385
914.624	0.0127663
914.703	0.0127734
914.781	0.0127318
914.859	0.0127094
914.937	0.0127557
915.015	0.0128584
915.093	0.0127020
915.171	0.0128460
915.249	0.0127742
915.328	0.0127371
915.406	0.0129121
915.484	0.0126998
915.562	0.0127000
915.640	0.0127532
915.718	0.0128431
915.796	0.0128922
915.874	0.0129972
915.953	0.0129453
916.031	0.0128460
916.109	0.0128853
916.187	0.0128477
916.265	0.0128860
916.343	0.0129156
916.421	0.0126939
916.499	0.0127835
916.578	0.0128694
916.656	0.0129292
916.734	0.0129630
916.812	0.0129741
916.890	0.0129181
916.968	0.0129009
917.046	0.0127934
917.124	0.0129116
917.203	0.0128667
917.281	0.0128886
917.359	0.0129278
917.437	0.0129813
917.515	0.0129842
917.593	0.0128268
917.671	0.0128386
917.749	0.0130287
917.828	0.0128251
917.906	0.0129234
917.984	0.0130253
918.062	0.0129127
918.140	0.0128568
918.218	0.0130145
918.296	0.0129747
918.374	0.0129598
918.453	0.0130424
918.531	0.0127725
918.609	0.0129704
918.687	0.0129411
918.765	0.0129472
918.843	0.0128817
918.921	0.0127059
918.999	0.0129263
919.078	0.0128893
919.156	0.0127937
919.234	0.0129146
919.312	0.0128617
919.390	0.0130485
919.468	0.0127786
919.546	0.0128255
919.624	0.0128415
919.703	0.0129171
919.781	0.0129285
919.859	0.0128073
919.937	0.0128986
