05/06/2022	18:56:24	Ver.	4.1	UNKNOWN
Optical Delay	600.015094	Delta X		0.078125	Sweeps	1	Scan Rate	0/0
Coordinates	Axis 1	NaN	Axis 2	NaN	Axis 3	NaN	Axis 4	NaN	Axis 5	NaN	Axis 6	0.000000
TX Power	0.000000	RX Power	0.000000

600.015	0.0149010
600.093	0.0148879
600.171	0.0149039
600.249	0.0149036
600.328	0.0148740
600.406	0.0148634
600.484	0.0148962
600.562	0.0148511
600.640	0.0148990
600.718	0.0149342
600.796	0.0150854
600.874	0.0148644
600.953	0.0149104
601.031	0.0148119
601.109	0.0148795
601.187	0.0149097
601.265	0.0148515
601.343	0.0148411
601.421	0.0147874
601.499	0.0148394
601.578	0.0149514
601.656	0.0147287
601.734	0.0149126
601.812	0.0149512
601.890	0.0150199
601.968	0.0148380
602.046	0.0148001
602.124	0.0148407
602.203	0.0148938
602.281	0.0149113
602.359	0.0148106
602.437	0.0148726
602.515	0.0148475
602.593	0.0149606
602.671	0.0149068
602.749	0.0148068
602.828	0.0148727
602.906	0.0150020
602.984	0.0148964
603.062	0.0149314
603.140	0.0149349
603.218	0.0148381
603.296	0.0148885
603.374	0.0148782
603.453	0.0149328
603.531	0.0149261
603.609	0.0147494
603.687	0.0149464
603.765	0.0147006
603.843	0.0148256
603.921	0.0148589
603.999	0.0149088
604.078	0.0150911
604.156	0.0148368
604.234	0.0149175
604.312	0.0148399
604.390	0.0148991
604.468	0.0148905
604.546	0.0148980
604.624	0.0148839
604.703	0.0147729
604.781	0.0148948
604.859	0.0149056
604.937	0.0149445
605.015	0.0148294
605.093	0.0148534
605.171	0.0147776
605.249	0.0150036
605.328	0.0149915
605.406	0.0147650
605.484	0.0148701
605.562	0.0149811
605.640	0.0149583
605.718	0.0149091
605.796	0.0148523
605.874	0.0147670
605.953	0.0149537
606.031	0.0150233
606.109	0.0148346
606.187	0.0149207
606.265	0.0147636
606.343	0.0148123
606.421	0.0149825
606.499	0.0149158
606.578	0.0148780
606.656	0.0149461
606.734	0.0149144
606.812	0.0148176
606.890	0.0148726
606.968	0.0148888
607.046	0.0148521
607.124	0.0148764
607.203	0.0149657
607.281	0.0149873
607.359	0.0148958
607.437	0.0148477
607.515	0.0149282
607.593	0.0148630
607.671	0.0147961
607.749	0.0148791
607.828	0.0147587
607.906	0.0149017
607.984	0.0148975
608.062	0.0148324
608.140	0.0148993
608.218	0.0147911
608.296	0.0148829
608.374	0.0148689
608.453	0.0147726
608.531	0.0148063
608.609	0.0147884
608.687	0.0148025
608.765	0.0147568
608.843	0.0149478
608.921	0.0148909
608.999	0.0148950
609.078	0.0148196
609.156	0.0148901
609.234	0.0149429
609.312	0.0148540
609.390	0.0149470
609.468	0.0147297
609.546	0.0149004
609.624	0.0149337
609.703	0.0148632
609.781	0.0149578
609.859	0.0149069
609.937	0.0148267
610.015	0.0149776
610.093	0.0148279
610.171	0.0148409
610.249	0.0149371
610.328	0.0149194
610.406	0.0148584
610.484	0.0148407
610.562	0.0148915
610.640	0.0147750
610.718	0.0148988
610.796	0.0148557
610.874	0.0149671
610.953	0.0149849
611.031	0.0149446
611.109	0.0149207
611.187	0.0148621
611.265	0.0150230
611.343	0.0149171
611.421	0.0149544
611.499	0.0148433
611.578	0.0149842
611.656	0.0147997
611.734	0.0150697
611.812	0.0148064
611.890	0.0150037
611.968	0.0150983
612.046	0.0147826
612.124	0.0148555
612.203	0.0150804
612.281	0.0149546
612.359	0.0147916
612.437	0.0148683
612.515	0.0147704
612.593	0.0149379
612.671	0.0149613
612.749	0.0149186
612.828	0.0149693
612.906	0.0149467
612.984	0.0149041
613.062	0.0148370
613.140	0.0147701
613.218	0.0148503
613.296	0.0148676
613.374	0.0149912
613.453	0.0149665
613.531	0.0148634
613.609	0.0146966
613.687	0.0149025
613.765	0.0148696
613.843	0.0148934
613.921	0.0149455
613.999	0.0147154
614.078	0.0148828
614.156	0.0149236
614.234	0.0147807
614.312	0.0147659
614.390	0.0147633
614.468	0.0149301
614.546	0.0149704
614.624	0.0147801
614.703	0.0147307
614.781	0.0148756
614.859	0.0151444
614.937	0.0148792
615.015	0.0147610
615.093	0.0148479
615.171	0.0148265
615.249	0.0149124
615.328	0.0148737
615.406	0.0147876
615.484	0.0147305
615.562	0.0148773
615.640	0.0148968
615.718	0.0149117
615.796	0.0148726
615.874	0.0147138
615.953	0.0149357
616.031	0.0148000
616.109	0.0148685
616.187	0.0147900
616.265	0.0147643
616.343	0.0148400
616.421	0.0149096
616.499	0.0149620
616.578	0.0147463
616.656	0.0147778
616.734	0.0148936
616.812	0.0148953
616.890	0.0146996
616.968	0.0147446
617.046	0.0148598
617.124	0.0149189
617.203	0.0147290
617.281	0.0147807
617.359	0.0148849
617.437	0.0149336
617.515	0.0148670
617.593	0.0147128
617.671	0.0148966
617.749	0.0148077
617.828	0.0148778
617.906	0.0148530
617.984	0.0149895
618.062	0.0149139
618.140	0.0148324
618.218	0.0148527
618.296	0.0147450
618.374	0.0148037
618.453	0.0148322
618.531	0.0148299
618.609	0.0148015
618.687	0.0147712
618.765	0.0147847
618.843	0.0149414
618.921	0.0149877
618.999	0.0148650
619.078	0.0147723
619.156	0.0148768
619.234	0.0147240
619.312	0.0148743
619.390	0.0148120
619.468	0.0147360
619.546	0.0149062
619.624	0.0149066
619.703	0.0149006
619.781	0.0148414
619.859	0.0147952
619.937	0.0148711
620.015	0.0148843
620.093	0.0148139
620.171	0.0149538
620.249	0.0148122
620.328	0.0147879
620.406	0.0149354
620.484	0.0148308
620.562	0.0148603
620.640	0.0147234
620.718	0.0147127
620.796	0.0148589
620.874	0.0147602
620.953	0.0147538
621.031	0.0148595
621.109	0.0147800
621.187	0.0147230
621.265	0.0148095
621.343	0.0147960
621.421	0.0148397
621.499	0.0148209
621.578	0.0149293
621.656	0.0148960
621.734	0.0148747
621.812	0.0148736
621.890	0.0147263
621.968	0.0148080
622.046	0.0148261
622.124	0.0147965
622.203	0.0147232
622.281	0.0148684
622.359	0.0149196
622.437	0.0147577
622.515	0.0147890
622.593	0.0147189
622.671	0.0148470
622.749	0.0148875
622.828	0.0148315
622.906	0.0148466
622.984	0.0147321
623.062	0.0148831
623.140	0.0149337
623.218	0.0148772
623.296	0.0147949
623.374	0.0148013
623.453	0.0148260
623.531	0.0148598
623.609	0.0149479
623.687	0.0148647
623.765	0.0148672
623.843	0.0150109
623.921	0.0149229
623.999	0.0147505
624.078	0.0148238
624.156	0.0147710
624.234	0.0147913
624.312	0.0149496
624.390	0.0149370
624.468	0.0147933
624.546	0.0147997
624.624	0.0149457
624.703	0.0149006
624.781	0.0150300
624.859	0.0147442
624.937	0.0148734
625.015	0.0149563
625.093	0.0148168
625.171	0.0150124
625.249	0.0148513
625.328	0.0148460
625.406	0.0150294
625.484	0.0149004
625.562	0.0148768
625.640	0.0149757
625.718	0.0147701
625.796	0.0148713
625.874	0.0148773
625.953	0.0147921
626.031	0.0149148
626.109	0.0148080
626.187	0.0149065
626.265	0.0149236
626.343	0.0148253
626.421	0.0149814
626.499	0.0150182
626.578	0.0148301
626.656	0.0149407
626.734	0.0149974
626.812	0.0147918
626.890	0.0148507
626.968	0.0150426
627.046	0.0149483
627.124	0.0148343
627.203	0.0148862
627.281	0.0149597
627.359	0.0148977
627.437	0.0148705
627.515	0.0149713
627.593	0.0149111
627.671	0.0148598
627.749	0.0148938
627.828	0.0148876
627.906	0.0150202
627.984	0.0149382
628.062	0.0148283
628.140	0.0148638
628.218	0.0149392
628.296	0.0148901
628.374	0.0148167
628.453	0.0148824
628.531	0.0149318
628.609	0.0148756
628.687	0.0149226
628.765	0.0148893
628.843	0.0149960
628.921	0.0149578
628.999	0.0148637
629.078	0.0149905
629.156	0.0149386
629.234	0.0148319
629.312	0.0149409
629.390	0.0150430
629.468	0.0148662
629.546	0.0150305
629.624	0.0150026
629.703	0.0148605
629.781	0.0148283
629.859	0.0150025
629.937	0.0149689
630.015	0.0149346
630.093	0.0149975
630.171	0.0149456
630.249	0.0147462
630.328	0.0148168
630.406	0.0148905
630.484	0.0149728
630.562	0.0148064
630.640	0.0148411
630.718	0.0149092
630.796	0.0148976
630.874	0.0149611
630.953	0.0148126
631.031	0.0149084
631.109	0.0149495
631.187	0.0149294
631.265	0.0149261
631.343	0.0148298
631.421	0.0148161
631.499	0.0147960
631.578	0.0148850
631.656	0.0149347
631.734	0.0147863
631.812	0.0149704
631.890	0.0149478
631.968	0.0148253
632.046	0.0148279
632.124	0.0148638
632.203	0.0148349
632.281	0.0149778
632.359	0.0150670
632.437	0.0147931
632.515	0.0147971
632.593	0.0148631
632.671	0.0148967
632.749	0.0148780
632.828	0.0148425
632.906	0.0149657
632.984	0.0147840
633.062	0.0148450
633.140	0.0148681
633.218	0.0148567
633.296	0.0148707
633.374	0.0148059
633.453	0.0148074
633.531	0.0148709
633.609	0.0148733
633.687	0.0148233
633.765	0.0148190
633.843	0.0147643
633.921	0.0148588
633.999	0.0148081
634.078	0.0148562
634.156	0.0149108
634.234	0.0148770
634.312	0.0148336
634.390	0.0148709
634.468	0.0148453
634.546	0.0148219
634.624	0.0149205
634.703	0.0147965
634.781	0.0148269
634.859	0.0149255
634.937	0.0147059
635.015	0.0146690
635.093	0.0147408
635.171	0.0149831
635.249	0.0148923
635.328	0.0147041
635.406	0.0148145
635.484	0.0147542
635.562	0.0148350
635.640	0.0149731
635.718	0.0148476
635.796	0.0148794
635.874	0.0149621
635.953	0.0149277
636.031	0.0148389
636.109	0.0148725
636.187	0.0148843
636.265	0.0149822
636.343	0.0149155
636.421	0.0149324
636.499	0.0148701
636.578	0.0148831
636.656	0.0148371
636.734	0.0148110
636.812	0.0149574
636.890	0.0148681
636.968	0.0148415
637.046	0.0147627
637.124	0.0149030
637.203	0.0148066
637.281	0.0148151
637.359	0.0148757
637.437	0.0149178
637.515	0.0148763
637.593	0.0148527
637.671	0.0148809
637.749	0.0148438
637.828	0.0150081
637.906	0.0149477
637.984	0.0149245
638.062	0.0149047
638.140	0.0147309
638.218	0.0148837
638.296	0.0149550
638.374	0.0149029
638.453	0.0148085
638.531	0.0148359
638.609	0.0148667
638.687	0.0150755
638.765	0.0149135
638.843	0.0148946
638.921	0.0150253
638.999	0.0150201
639.078	0.0149422
639.156	0.0147741
639.234	0.0148877
639.312	0.0149187
639.390	0.0147853
639.468	0.0148703
639.546	0.0149960
639.624	0.0148932
639.703	0.0148861
639.781	0.0147479
639.859	0.0149823
639.937	0.0150140
640.015	0.0149048
640.093	0.0148072
640.171	0.0149628
640.249	0.0149654
640.328	0.0149107
640.406	0.0149601
640.484	0.0149639
640.562	0.0148160
640.640	0.0149680
640.718	0.0150047
640.796	0.0149661
640.874	0.0149326
640.953	0.0149540
641.031	0.0150160
641.109	0.0147850
641.187	0.0149330
641.265	0.0148958
641.343	0.0147487
641.421	0.0148826
641.499	0.0149054
641.578	0.0149863
641.656	0.0149130
641.734	0.0148775
641.812	0.0149228
641.890	0.0148460
641.968	0.0148107
642.046	0.0148955
642.124	0.0149240
642.203	0.0149259
642.281	0.0148544
642.359	0.0149488
642.437	0.0149446
642.515	0.0148059
642.593	0.0148909
642.671	0.0148730
642.749	0.0148325
642.828	0.0147435
642.906	0.0146278
642.984	0.0149670
643.062	0.0149756
643.140	0.0148937
643.218	0.0147157
643.296	0.0148192
643.374	0.0149397
643.453	0.0148367
643.531	0.0149299
643.609	0.0148920
643.687	0.0148547
643.765	0.0149337
643.843	0.0149389
643.921	0.0148612
643.999	0.0147845
644.078	0.0148093
644.156	0.0149228
644.234	0.0148216
644.312	0.0147051
644.390	0.0147639
644.468	0.0148768
644.546	0.0149971
644.624	0.0148483
644.703	0.0147731
644.781	0.0149395
644.859	0.0148675
644.937	0.0148601
645.015	0.0149238
645.093	0.0149781
645.171	0.0148310
645.249	0.0148549
645.328	0.0149312
645.406	0.0148866
645.484	0.0148956
645.562	0.0149281
645.640	0.0148788
645.718	0.0148383
645.796	0.0148680
645.874	0.0149613
645.953	0.0149342
646.031	0.0148270
646.109	0.0148431
646.187	0.0149245
646.265	0.0148457
646.343	0.0148565
646.421	0.0148328
646.499	0.0149113
646.578	0.0148439
646.656	0.0149807
646.734	0.0150273
646.812	0.0148155
646.890	0.0148180
646.968	0.0149698
647.046	0.0149281
647.124	0.0148701
647.203	0.0149318
647.281	0.0146821
647.359	0.0148125
647.437	0.0149744
647.515	0.0148029
647.593	0.0148507
647.671	0.0148507
647.749	0.0148644
647.828	0.0149038
647.906	0.0149727
647.984	0.0149870
648.062	0.0149069
648.140	0.0149500
648.218	0.0149986
648.296	0.0149446
648.374	0.0149046
648.453	0.0148062
648.531	0.0148399
648.609	0.0149436
648.687	0.0147903
648.765	0.0147002
648.843	0.0148383
648.921	0.0147517
648.999	0.0148262
649.078	0.0147833
649.156	0.0147817
649.234	0.0148214
649.312	0.0149271
649.390	0.0150384
649.468	0.0149882
649.546	0.0149289
649.624	0.0151035
649.703	0.0151861
649.781	0.0150215
649.859	0.0149979
649.937	0.0151487
650.015	0.0149500
650.093	0.0148800
650.171	0.0148788
650.249	0.0148038
650.328	0.0148564
650.406	0.0146854
650.484	0.0147639
650.562	0.0147816
650.640	0.0148080
650.718	0.0147141
650.796	0.0146574
650.874	0.0148273
650.953	0.0147755
651.031	0.0148901
651.109	0.0150826
651.187	0.0147636
651.265	0.0149215
651.343	0.0150555
651.421	0.0150218
651.499	0.0149889
651.578	0.0149597
651.656	0.0148117
651.734	0.0150227
651.812	0.0148551
651.890	0.0147755
651.968	0.0148379
652.046	0.0148443
652.124	0.0149058
652.203	0.0149170
652.281	0.0147678
652.359	0.0146770
652.437	0.0147747
652.515	0.0147225
652.593	0.0146101
652.671	0.0148510
652.749	0.0147544
652.828	0.0148253
652.906	0.0148525
652.984	0.0147552
653.062	0.0149120
653.140	0.0147626
653.218	0.0148009
653.296	0.0148870
653.374	0.0149640
653.453	0.0148937
653.531	0.0147034
653.609	0.0149261
653.687	0.0148292
653.765	0.0148495
653.843	0.0149716
653.921	0.0148452
653.999	0.0149223
654.078	0.0149496
654.156	0.0147641
654.234	0.0148126
654.312	0.0148795
654.390	0.0148064
654.468	0.0147701
654.546	0.0146987
654.624	0.0147672
654.703	0.0147965
654.781	0.0146591
654.859	0.0147908
654.937	0.0148115
655.015	0.0148116
655.093	0.0147642
655.171	0.0148074
655.249	0.0147298
655.328	0.0147909
655.406	0.0148551
655.484	0.0148376
655.562	0.0148344
655.640	0.0148312
655.718	0.0148196
655.796	0.0149284
655.874	0.0149138
655.953	0.0147188
656.031	0.0149363
656.109	0.0148608
656.187	0.0149240
656.265	0.0149704
656.343	0.0147823
656.421	0.0147080
656.499	0.0146836
656.578	0.0146592
656.656	0.0148037
656.734	0.0146113
656.812	0.0147816
656.890	0.0148572
656.968	0.0148881
657.046	0.0148087
657.124	0.0146613
657.203	0.0148000
657.281	0.0147269
657.359	0.0147855
657.437	0.0149133
657.515	0.0147920
657.593	0.0150521
657.671	0.0149374
657.749	0.0150051
657.828	0.0148828
657.906	0.0149609
657.984	0.0149736
658.062	0.0148666
658.140	0.0148501
658.218	0.0148906
658.296	0.0147710
658.374	0.0147655
658.453	0.0148038
658.531	0.0148260
658.609	0.0147787
658.687	0.0147591
658.765	0.0147765
658.843	0.0148560
658.921	0.0148586
658.999	0.0148535
659.078	0.0148498
659.156	0.0149089
659.234	0.0149108
659.312	0.0149219
659.390	0.0148299
659.468	0.0149756
659.546	0.0148807
659.624	0.0149166
659.703	0.0149558
659.781	0.0151572
659.859	0.0148158
659.937	0.0148672
660.015	0.0149483
660.093	0.0149094
660.171	0.0149791
660.249	0.0149052
660.328	0.0148575
660.406	0.0150519
660.484	0.0150147
660.562	0.0149790
660.640	0.0149270
660.718	0.0149161
660.796	0.0150175
660.874	0.0149543
660.953	0.0148554
661.031	0.0147990
661.109	0.0148042
661.187	0.0147402
661.265	0.0147504
661.343	0.0147472
661.421	0.0146587
661.499	0.0149379
661.578	0.0149429
661.656	0.0149142
661.734	0.0148902
661.812	0.0148106
661.890	0.0149406
661.968	0.0149012
662.046	0.0149554
662.124	0.0150301
662.203	0.0150147
662.281	0.0149374
662.359	0.0150040
662.437	0.0150385
662.515	0.0149743
662.593	0.0148019
662.671	0.0149609
662.749	0.0149308
662.828	0.0148328
662.906	0.0148386
662.984	0.0148926
663.062	0.0149591
663.140	0.0148901
663.218	0.0148828
663.296	0.0149377
663.374	0.0148949
663.453	0.0149281
663.531	0.0149100
663.609	0.0147860
663.687	0.0147865
663.765	0.0148541
663.843	0.0147608
663.921	0.0149023
663.999	0.0148638
664.078	0.0147632
664.156	0.0149186
664.234	0.0148857
664.312	0.0148755
664.390	0.0150568
664.468	0.0150080
664.546	0.0148771
664.624	0.0148801
664.703	0.0148750
664.781	0.0149219
664.859	0.0149107
664.937	0.0148091
665.015	0.0148842
665.093	0.0148051
665.171	0.0148225
665.249	0.0148997
665.328	0.0147692
665.406	0.0148640
665.484	0.0149952
665.562	0.0148891
665.640	0.0148840
665.718	0.0150484
665.796	0.0148853
665.874	0.0149660
665.953	0.0149050
666.031	0.0149229
666.109	0.0149482
666.187	0.0147690
666.265	0.0147829
666.343	0.0146161
666.421	0.0146996
666.499	0.0146399
666.578	0.0146856
666.656	0.0147366
666.734	0.0147325
666.812	0.0147575
666.890	0.0147492
666.968	0.0148092
667.046	0.0149016
667.124	0.0148972
667.203	0.0149506
667.281	0.0148143
667.359	0.0149326
667.437	0.0150162
667.515	0.0148841
667.593	0.0149001
667.671	0.0149318
667.749	0.0148505
667.828	0.0148679
667.906	0.0148657
667.984	0.0148148
668.062	0.0148270
668.140	0.0149625
668.218	0.0149800
668.296	0.0147926
668.374	0.0149655
668.453	0.0147863
668.531	0.0148720
668.609	0.0149136
668.687	0.0149248
668.765	0.0149744
668.843	0.0149458
668.921	0.0147717
668.999	0.0150001
669.078	0.0149744
669.156	0.0147733
669.234	0.0147854
669.312	0.0148678
669.390	0.0145113
669.468	0.0146220
669.546	0.0147002
669.624	0.0148103
669.703	0.0147472
669.781	0.0149919
669.859	0.0148262
669.937	0.0149207
670.015	0.0150108
670.093	0.0149586
670.171	0.0148572
670.249	0.0149603
670.328	0.0150346
670.406	0.0150148
670.484	0.0149690
670.562	0.0149280
670.640	0.0150008
670.718	0.0150112
670.796	0.0149562
670.874	0.0147302
670.953	0.0148239
671.031	0.0145821
671.109	0.0147662
671.187	0.0147477
671.265	0.0147227
671.343	0.0146320
671.421	0.0145303
671.499	0.0145920
671.578	0.0146255
671.656	0.0146444
671.734	0.0147255
671.812	0.0145533
671.890	0.0146842
671.968	0.0146590
672.046	0.0147301
672.124	0.0147717
672.203	0.0147901
672.281	0.0149095
672.359	0.0148485
672.437	0.0149095
672.515	0.0149449
672.593	0.0151049
672.671	0.0152495
672.749	0.0151466
672.828	0.0152176
672.906	0.0152729
672.984	0.0152416
673.062	0.0149916
673.140	0.0151884
673.218	0.0150542
673.296	0.0151176
673.374	0.0148366
673.453	0.0149131
673.531	0.0148213
673.609	0.0147710
673.687	0.0147636
673.765	0.0148323
673.843	0.0147049
673.921	0.0147128
673.999	0.0146064
674.078	0.0148813
674.156	0.0150168
674.234	0.0149968
674.312	0.0149789
674.390	0.0150131
674.468	0.0151305
674.546	0.0150404
674.624	0.0151407
674.703	0.0151110
674.781	0.0151651
674.859	0.0150248
674.937	0.0149234
675.015	0.0146906
675.093	0.0147610
675.171	0.0145968
675.249	0.0145886
675.328	0.0146288
675.406	0.0146206
675.484	0.0146202
675.562	0.0146598
675.640	0.0146718
675.718	0.0147341
675.796	0.0147321
675.874	0.0148928
675.953	0.0149797
676.031	0.0147945
676.109	0.0148454
676.187	0.0147195
676.265	0.0145470
676.343	0.0145986
676.421	0.0146212
676.499	0.0145287
676.578	0.0144584
676.656	0.0144614
676.734	0.0144814
676.812	0.0146478
676.890	0.0146511
676.968	0.0149112
677.046	0.0149038
677.124	0.0149166
677.203	0.0151154
677.281	0.0153410
677.359	0.0150977
677.437	0.0152454
677.515	0.0151426
677.593	0.0150976
677.671	0.0153342
677.749	0.0151369
677.828	0.0149184
677.906	0.0149022
677.984	0.0148398
678.062	0.0150943
678.140	0.0150038
678.218	0.0150349
678.296	0.0152780
678.374	0.0152161
678.453	0.0151855
678.531	0.0154705
678.609	0.0153831
678.687	0.0153368
678.765	0.0153263
678.843	0.0152335
678.921	0.0151221
678.999	0.0146972
679.078	0.0146906
679.156	0.0146646
679.234	0.0144238
679.312	0.0143333
679.390	0.0143092
679.468	0.0142046
679.546	0.0141999
679.624	0.0142200
679.703	0.0143376
679.781	0.0142271
679.859	0.0144650
679.937	0.0145918
680.015	0.0147375
680.093	0.0147124
680.171	0.0149104
680.249	0.0149105
680.328	0.0149613
680.406	0.0148205
680.484	0.0149944
680.562	0.0149199
680.640	0.0149112
680.718	0.0147593
680.796	0.0148086
680.874	0.0147012
680.953	0.0148696
681.031	0.0146423
681.109	0.0148348
681.187	0.0148280
681.265	0.0150043
681.343	0.0150502
681.421	0.0151449
681.499	0.0150921
681.578	0.0150189
681.656	0.0151083
681.734	0.0151366
681.812	0.0149379
681.890	0.0149082
681.968	0.0148336
682.046	0.0147750
682.124	0.0145689
682.203	0.0145200
682.281	0.0145655
682.359	0.0145548
682.437	0.0145679
682.515	0.0146493
682.593	0.0144872
682.671	0.0145863
682.749	0.0148028
682.828	0.0148751
682.906	0.0150181
682.984	0.0150919
683.062	0.0151890
683.140	0.0152626
683.218	0.0152345
683.296	0.0152964
683.374	0.0152296
683.453	0.0151787
683.531	0.0150301
683.609	0.0150010
683.687	0.0150244
683.765	0.0149529
683.843	0.0150033
683.921	0.0149471
683.999	0.0150686
684.078	0.0149382
684.156	0.0148906
684.234	0.0148147
684.312	0.0149182
684.390	0.0147820
684.468	0.0147883
684.546	0.0148467
684.624	0.0148272
684.703	0.0148441
684.781	0.0147021
684.859	0.0146815
684.937	0.0147701
685.015	0.0146857
685.093	0.0146595
685.171	0.0145914
685.249	0.0145871
685.328	0.0145192
685.406	0.0145760
685.484	0.0146570
685.562	0.0146971
685.640	0.0146525
685.718	0.0146321
685.796	0.0146198
685.874	0.0146046
685.953	0.0149097
686.031	0.0147983
686.109	0.0148352
686.187	0.0149688
686.265	0.0150400
686.343	0.0150584
686.421	0.0150521
686.499	0.0149902
686.578	0.0150369
686.656	0.0149213
686.734	0.0148595
686.812	0.0149107
686.890	0.0150991
686.968	0.0148867
687.046	0.0147683
687.124	0.0148808
687.203	0.0147151
687.281	0.0146358
687.359	0.0147823
687.437	0.0147519
687.515	0.0148185
687.593	0.0150051
687.671	0.0148633
687.749	0.0150058
687.828	0.0151414
687.906	0.0150480
687.984	0.0152311
688.062	0.0150800
688.140	0.0149965
688.218	0.0150814
688.296	0.0149596
688.374	0.0149045
688.453	0.0149432
688.531	0.0148942
688.609	0.0149173
688.687	0.0151295
688.765	0.0149009
688.843	0.0149510
688.921	0.0149466
688.999	0.0150542
689.078	0.0150301
689.156	0.0151989
689.234	0.0152231
689.312	0.0151716
689.390	0.0149989
689.468	0.0149319
689.546	0.0148559
689.624	0.0146683
689.703	0.0145901
689.781	0.0145854
689.859	0.0147047
689.937	0.0148444
690.015	0.0148234
690.093	0.0148222
690.171	0.0147668
690.249	0.0150555
690.328	0.0149078
690.406	0.0149234
690.484	0.0149020
690.562	0.0149966
690.640	0.0150845
690.718	0.0149665
690.796	0.0149541
690.874	0.0149333
690.953	0.0148640
691.031	0.0147512
691.109	0.0147343
691.187	0.0147904
691.265	0.0147334
691.343	0.0146459
691.421	0.0146690
691.499	0.0146340
691.578	0.0146408
691.656	0.0146977
691.734	0.0146861
691.812	0.0147357
691.890	0.0148608
691.968	0.0148459
692.046	0.0149136
692.124	0.0149473
692.203	0.0149903
692.281	0.0150683
692.359	0.0148442
692.437	0.0147522
692.515	0.0147893
692.593	0.0147527
692.671	0.0145821
692.749	0.0147147
692.828	0.0146016
692.906	0.0145597
692.984	0.0146484
693.062	0.0147820
693.140	0.0147058
693.218	0.0146944
693.296	0.0148352
693.374	0.0147898
693.453	0.0147379
693.531	0.0147566
693.609	0.0148550
693.687	0.0148223
693.765	0.0149178
693.843	0.0149054
693.921	0.0149837
693.999	0.0148543
694.078	0.0148597
694.156	0.0150240
694.234	0.0150332
694.312	0.0151906
694.390	0.0150565
694.468	0.0152020
694.546	0.0150921
694.624	0.0153006
694.703	0.0152014
694.781	0.0151451
694.859	0.0150361
694.937	0.0149446
695.015	0.0150967
695.093	0.0150425
695.171	0.0149223
695.249	0.0149010
695.328	0.0149035
695.406	0.0149709
695.484	0.0148589
695.562	0.0148859
695.640	0.0147955
695.718	0.0149760
695.796	0.0148389
695.874	0.0148405
695.953	0.0148389
696.031	0.0149216
696.109	0.0147635
696.187	0.0148192
696.265	0.0147276
696.343	0.0148561
696.421	0.0149197
696.499	0.0148166
696.578	0.0146036
696.656	0.0146823
696.734	0.0147033
696.812	0.0147743
696.890	0.0146724
696.968	0.0147678
697.046	0.0146290
697.124	0.0146317
697.203	0.0145149
697.281	0.0144427
697.359	0.0146276
697.437	0.0144590
697.515	0.0143976
697.593	0.0144495
697.671	0.0144100
697.749	0.0144418
697.828	0.0146427
697.906	0.0147904
697.984	0.0146851
698.062	0.0148183
698.140	0.0147588
698.218	0.0149877
698.296	0.0150226
698.374	0.0150298
698.453	0.0151987
698.531	0.0152390
698.609	0.0152517
698.687	0.0151762
698.765	0.0151913
698.843	0.0153178
698.921	0.0150551
698.999	0.0151150
699.078	0.0150809
699.156	0.0149557
699.234	0.0149702
699.312	0.0149926
699.390	0.0150580
699.468	0.0149163
699.546	0.0149894
699.624	0.0149371
699.703	0.0149355
699.781	0.0149832
699.859	0.0149905
699.937	0.0150972
700.015	0.0150155
700.093	0.0149290
700.171	0.0152110
700.249	0.0150880
700.328	0.0149371
700.406	0.0149657
700.484	0.0147756
700.562	0.0149732
700.640	0.0150895
700.718	0.0149982
700.796	0.0148753
700.874	0.0149060
700.953	0.0150037
701.031	0.0149700
701.109	0.0151694
701.187	0.0151123
701.265	0.0150304
701.343	0.0150592
701.421	0.0150756
701.499	0.0150066
701.578	0.0151257
701.656	0.0150852
701.734	0.0149185
701.812	0.0149188
701.890	0.0148765
701.968	0.0147768
702.046	0.0148888
702.124	0.0147757
702.203	0.0147243
702.281	0.0146924
702.359	0.0144476
702.437	0.0145529
702.515	0.0146389
702.593	0.0145542
702.671	0.0145317
702.749	0.0145019
702.828	0.0145977
702.906	0.0144693
702.984	0.0144662
703.062	0.0145054
703.140	0.0145020
703.218	0.0144601
703.296	0.0145522
703.374	0.0145490
703.453	0.0146800
703.531	0.0147449
703.609	0.0149003
703.687	0.0150562
703.765	0.0150856
703.843	0.0150566
703.921	0.0151469
703.999	0.0151492
704.078	0.0151796
704.156	0.0152083
704.234	0.0150042
704.312	0.0150886
704.390	0.0151431
704.468	0.0151254
704.546	0.0150836
704.624	0.0150454
704.703	0.0150519
704.781	0.0150217
704.859	0.0149770
704.937	0.0149420
705.015	0.0149190
705.093	0.0148791
705.171	0.0148134
705.249	0.0147781
705.328	0.0147573
705.406	0.0147993
705.484	0.0147837
705.562	0.0148209
705.640	0.0146307
705.718	0.0149690
705.796	0.0150506
705.874	0.0149796
705.953	0.0151151
706.031	0.0151540
706.109	0.0151624
706.187	0.0151888
706.265	0.0152760
706.343	0.0152120
706.421	0.0152904
706.499	0.0152583
706.578	0.0150303
706.656	0.0151007
706.734	0.0150304
706.812	0.0150801
706.890	0.0150529
706.968	0.0150412
707.046	0.0151320
707.124	0.0150114
707.203	0.0149590
707.281	0.0149596
707.359	0.0148830
707.437	0.0148454
707.515	0.0147652
707.593	0.0147552
707.671	0.0147044
707.749	0.0145526
707.828	0.0145023
707.906	0.0145540
707.984	0.0144807
708.062	0.0144487
708.140	0.0144318
708.218	0.0144044
708.296	0.0145227
708.374	0.0145243
708.453	0.0145766
708.531	0.0146219
708.609	0.0145931
708.687	0.0146057
708.765	0.0147308
708.843	0.0148323
708.921	0.0146661
708.999	0.0148112
709.078	0.0149252
709.156	0.0148158
709.234	0.0148563
709.312	0.0148080
709.390	0.0148252
709.468	0.0149593
709.546	0.0149755
709.624	0.0149714
709.703	0.0148096
709.781	0.0149339
709.859	0.0149745
709.937	0.0149660
710.015	0.0149237
710.093	0.0148672
710.171	0.0149910
710.249	0.0147694
710.328	0.0148779
710.406	0.0147613
710.484	0.0147339
710.562	0.0147426
710.640	0.0149269
710.718	0.0147049
710.796	0.0148170
710.874	0.0149994
710.953	0.0148144
711.031	0.0149150
711.109	0.0149435
711.187	0.0149686
711.265	0.0151039
711.343	0.0151007
711.421	0.0151537
711.499	0.0151508
711.578	0.0151577
711.656	0.0153193
711.734	0.0153488
711.812	0.0152186
711.890	0.0153288
711.968	0.0152150
712.046	0.0152412
712.124	0.0152628
712.203	0.0153084
712.281	0.0153612
712.359	0.0153339
712.437	0.0151548
712.515	0.0152338
712.593	0.0151673
712.671	0.0151434
712.749	0.0150758
712.828	0.0150640
712.906	0.0148914
712.984	0.0150097
713.062	0.0149390
713.140	0.0148943
713.218	0.0148363
713.296	0.0149586
713.374	0.0147433
713.453	0.0146912
713.531	0.0146128
713.609	0.0146329
713.687	0.0146884
713.765	0.0146089
713.843	0.0145402
713.921	0.0146494
713.999	0.0145316
714.078	0.0145050
714.156	0.0146218
714.234	0.0146358
714.312	0.0146205
714.390	0.0146283
714.468	0.0145425
714.546	0.0147374
714.624	0.0146519
714.703	0.0145557
714.781	0.0147429
714.859	0.0147438
714.937	0.0144886
715.015	0.0146199
715.093	0.0145729
715.171	0.0145060
715.249	0.0145832
715.328	0.0146608
715.406	0.0146323
715.484	0.0147054
715.562	0.0147794
715.640	0.0147969
715.718	0.0147415
715.796	0.0148299
715.874	0.0147969
715.953	0.0149586
716.031	0.0150207
716.109	0.0148745
716.187	0.0151460
716.265	0.0150939
716.343	0.0151379
716.421	0.0151189
716.499	0.0152418
716.578	0.0151989
716.656	0.0152728
716.734	0.0151903
716.812	0.0152837
716.890	0.0152542
716.968	0.0152521
717.046	0.0152575
717.124	0.0152210
717.203	0.0150695
717.281	0.0151151
717.359	0.0151235
717.437	0.0152004
717.515	0.0149923
717.593	0.0149934
717.671	0.0150188
717.749	0.0149600
717.828	0.0150601
717.906	0.0148423
717.984	0.0148401
718.062	0.0149483
718.140	0.0148369
718.218	0.0150303
718.296	0.0149528
718.374	0.0148643
718.453	0.0147224
718.531	0.0149030
718.609	0.0149592
718.687	0.0149052
718.765	0.0149297
718.843	0.0148824
718.921	0.0148855
718.999	0.0147865
719.078	0.0149511
719.156	0.0148871
719.234	0.0146578
719.312	0.0146436
719.390	0.0145565
719.468	0.0145101
719.546	0.0144789
719.624	0.0144720
719.703	0.0146288
719.781	0.0145689
719.859	0.0144734
719.937	0.0142983
720.015	0.0145128
720.093	0.0144836
720.171	0.0145158
720.249	0.0146068
720.328	0.0145325
720.406	0.0146601
720.484	0.0146207
720.562	0.0146201
720.640	0.0146391
720.718	0.0146188
720.796	0.0147917
720.874	0.0148341
720.953	0.0147762
721.031	0.0147623
721.109	0.0148634
721.187	0.0148295
721.265	0.0149187
721.343	0.0149867
721.421	0.0148808
721.499	0.0149818
721.578	0.0150952
721.656	0.0150860
721.734	0.0150865
721.812	0.0149162
721.890	0.0150318
721.968	0.0152519
722.046	0.0150840
722.124	0.0150765
722.203	0.0150794
722.281	0.0151428
722.359	0.0151692
722.437	0.0151806
722.515	0.0151488
722.593	0.0151058
722.671	0.0151591
722.749	0.0150688
722.828	0.0150900
722.906	0.0151463
722.984	0.0152255
723.062	0.0152258
723.140	0.0151293
723.218	0.0151369
723.296	0.0151594
723.374	0.0150623
723.453	0.0152628
723.531	0.0151423
723.609	0.0150496
723.687	0.0150683
723.765	0.0150181
723.843	0.0151187
723.921	0.0150199
723.999	0.0149219
724.078	0.0150879
724.156	0.0149648
724.234	0.0150065
724.312	0.0148929
724.390	0.0150528
724.468	0.0149410
724.546	0.0149646
724.624	0.0150185
724.703	0.0148965
724.781	0.0150127
724.859	0.0149421
724.937	0.0148168
725.015	0.0149453
725.093	0.0147818
725.171	0.0148291
725.249	0.0147758
725.328	0.0146700
725.406	0.0146781
725.484	0.0146084
725.562	0.0146244
725.640	0.0145809
725.718	0.0146997
725.796	0.0146531
725.874	0.0144907
725.953	0.0145897
726.031	0.0145888
726.109	0.0147029
726.187	0.0146107
726.265	0.0146249
726.343	0.0146279
726.421	0.0146318
726.499	0.0146587
726.578	0.0147005
726.656	0.0148899
726.734	0.0148669
726.812	0.0149017
726.890	0.0149808
726.968	0.0149389
727.046	0.0148253
727.124	0.0149326
727.203	0.0149664
727.281	0.0149001
727.359	0.0149577
727.437	0.0151241
727.515	0.0150202
727.593	0.0151292
727.671	0.0151453
727.749	0.0151385
727.828	0.0151223
727.906	0.0152197
727.984	0.0150475
728.062	0.0150651
728.140	0.0151618
728.218	0.0149972
728.296	0.0149658
728.374	0.0151220
728.453	0.0150446
728.531	0.0149963
728.609	0.0149255
728.687	0.0149039
728.765	0.0148622
728.843	0.0149187
728.921	0.0149353
728.999	0.0149642
729.078	0.0148867
729.156	0.0148809
729.234	0.0148653
729.312	0.0148809
729.390	0.0149354
729.468	0.0149395
729.546	0.0149801
729.624	0.0148630
729.703	0.0148729
729.781	0.0149249
729.859	0.0149838
729.937	0.0150367
730.015	0.0149176
730.093	0.0151311
730.171	0.0150528
730.249	0.0150098
730.328	0.0149434
730.406	0.0149622
730.484	0.0150048
730.562	0.0148759
730.640	0.0149683
730.718	0.0148263
730.796	0.0148595
730.874	0.0147900
730.953	0.0147514
731.031	0.0147480
731.109	0.0147620
731.187	0.0145731
731.265	0.0147912
731.343	0.0145778
731.421	0.0145534
731.499	0.0146365
731.578	0.0145603
731.656	0.0144553
731.734	0.0145198
731.812	0.0146930
731.890	0.0147412
731.968	0.0145817
732.046	0.0146543
732.124	0.0146557
732.203	0.0147141
732.281	0.0146417
732.359	0.0148016
732.437	0.0149178
732.515	0.0148010
732.593	0.0149024
732.671	0.0149883
732.749	0.0149847
732.828	0.0150066
732.906	0.0150069
732.984	0.0149758
733.062	0.0149303
733.140	0.0150120
733.218	0.0150526
733.296	0.0150739
733.374	0.0149912
733.453	0.0151071
733.531	0.0150594
733.609	0.0149647
733.687	0.0149456
733.765	0.0149695
733.843	0.0149986
733.921	0.0149854
733.999	0.0148325
734.078	0.0150505
734.156	0.0150698
734.234	0.0149165
734.312	0.0148558
734.390	0.0149744
734.468	0.0148672
734.546	0.0149783
734.624	0.0149132
734.703	0.0149500
734.781	0.0149399
734.859	0.0150482
734.937	0.0149084
735.015	0.0150276
735.093	0.0149339
735.171	0.0148214
735.249	0.0150294
735.328	0.0150695
735.406	0.0149064
735.484	0.0149689
735.562	0.0149304
735.640	0.0149216
735.718	0.0149747
735.796	0.0149837
735.874	0.0151360
735.953	0.0150474
736.031	0.0149855
736.109	0.0149201
736.187	0.0149200
736.265	0.0147729
736.343	0.0148930
736.421	0.0148359
736.499	0.0149090
736.578	0.0147543
736.656	0.0146009
736.734	0.0147144
736.812	0.0147906
736.890	0.0148791
736.968	0.0147163
737.046	0.0146323
737.124	0.0146468
737.203	0.0148507
737.281	0.0146526
737.359	0.0147385
737.437	0.0146434
737.515	0.0146326
737.593	0.0147891
737.671	0.0145037
737.749	0.0146286
737.828	0.0146864
737.906	0.0145915
737.984	0.0147032
738.062	0.0148725
738.140	0.0148962
738.218	0.0146338
738.296	0.0148712
738.374	0.0150467
738.453	0.0148372
738.531	0.0148520
738.609	0.0149536
738.687	0.0150154
738.765	0.0149747
738.843	0.0150375
738.921	0.0150760
738.999	0.0149837
739.078	0.0150479
739.156	0.0150762
739.234	0.0151308
739.312	0.0150302
739.390	0.0149004
739.468	0.0149020
739.546	0.0150396
739.624	0.0150407
739.703	0.0149302
739.781	0.0150121
739.859	0.0149339
739.937	0.0146619
740.015	0.0147830
740.093	0.0148160
740.171	0.0147517
740.249	0.0147828
740.328	0.0148154
740.406	0.0149038
740.484	0.0147968
740.562	0.0147433
740.640	0.0148830
740.718	0.0149886
740.796	0.0148660
740.874	0.0149863
740.953	0.0149699
741.031	0.0149964
741.109	0.0149552
741.187	0.0148994
741.265	0.0149758
741.343	0.0149484
741.421	0.0150655
741.499	0.0149713
741.578	0.0149634
741.656	0.0149732
741.734	0.0150345
741.812	0.0150287
741.890	0.0149720
741.968	0.0149411
742.046	0.0149428
742.124	0.0148560
742.203	0.0148904
742.281	0.0148962
742.359	0.0149027
742.437	0.0148347
742.515	0.0147231
742.593	0.0148664
742.671	0.0146630
742.749	0.0147001
742.828	0.0148024
742.906	0.0148071
742.984	0.0147307
743.062	0.0146999
743.140	0.0147491
743.218	0.0146427
743.296	0.0147832
743.374	0.0146818
743.453	0.0146662
743.531	0.0147245
743.609	0.0147575
743.687	0.0146906
743.765	0.0146918
743.843	0.0147926
743.921	0.0148265
743.999	0.0148228
744.078	0.0149836
744.156	0.0150286
744.234	0.0148429
744.312	0.0149054
744.390	0.0149989
744.468	0.0151034
744.546	0.0150745
744.624	0.0149702
744.703	0.0150288
744.781	0.0151617
744.859	0.0151896
744.937	0.0150954
745.015	0.0151198
745.093	0.0149276
745.171	0.0149241
745.249	0.0150029
745.328	0.0149352
745.406	0.0148926
745.484	0.0150298
745.562	0.0149565
745.640	0.0149409
745.718	0.0149387
745.796	0.0147520
745.874	0.0148724
745.953	0.0147243
746.031	0.0148349
746.109	0.0149169
746.187	0.0148072
746.265	0.0147432
746.343	0.0147091
746.421	0.0148129
746.499	0.0147365
746.578	0.0148306
746.656	0.0149223
746.734	0.0148869
746.812	0.0149705
746.890	0.0148695
746.968	0.0148468
747.046	0.0149353
747.124	0.0148753
747.203	0.0148768
747.281	0.0150485
747.359	0.0151006
747.437	0.0149475
747.515	0.0149236
747.593	0.0150844
747.671	0.0151412
747.749	0.0150442
747.828	0.0150530
747.906	0.0149487
747.984	0.0149129
748.062	0.0148435
748.140	0.0147702
748.218	0.0148260
748.296	0.0147066
748.374	0.0146647
748.453	0.0148290
748.531	0.0148435
748.609	0.0146900
748.687	0.0147531
748.765	0.0147858
748.843	0.0148334
748.921	0.0146078
748.999	0.0146024
749.078	0.0147602
749.156	0.0148234
749.234	0.0146147
749.312	0.0147868
749.390	0.0147033
749.468	0.0147728
749.546	0.0148196
749.624	0.0148234
749.703	0.0148795
749.781	0.0148761
749.859	0.0148663
749.937	0.0149267
750.015	0.0148740
750.093	0.0149992
750.171	0.0149175
750.249	0.0148895
750.328	0.0148594
750.406	0.0150341
750.484	0.0146969
750.562	0.0149615
750.640	0.0149763
750.718	0.0149100
750.796	0.0149104
750.874	0.0149510
750.953	0.0149865
751.031	0.0149200
751.109	0.0148511
751.187	0.0148849
751.265	0.0147906
751.343	0.0148264
751.421	0.0149139
751.499	0.0149002
751.578	0.0148421
751.656	0.0148631
751.734	0.0148132
751.812	0.0147720
751.890	0.0148552
751.968	0.0149072
752.046	0.0150312
752.124	0.0150105
752.203	0.0149165
752.281	0.0148387
752.359	0.0149194
752.437	0.0147635
752.515	0.0149554
752.593	0.0149024
752.671	0.0147965
752.749	0.0147408
752.828	0.0147332
752.906	0.0149661
752.984	0.0149152
753.062	0.0149064
753.140	0.0150252
753.218	0.0149445
753.296	0.0149820
753.374	0.0149570
753.453	0.0149947
753.531	0.0148964
753.609	0.0148357
753.687	0.0149433
753.765	0.0148383
753.843	0.0148207
753.921	0.0147936
753.999	0.0147953
754.078	0.0148866
754.156	0.0148450
754.234	0.0147944
754.312	0.0149715
754.390	0.0147491
754.468	0.0148744
754.546	0.0149384
754.624	0.0147824
754.703	0.0148016
754.781	0.0147865
754.859	0.0147046
754.937	0.0147159
755.015	0.0146764
755.093	0.0145838
755.171	0.0147029
755.249	0.0146392
755.328	0.0147083
755.406	0.0147755
755.484	0.0146283
755.562	0.0147970
755.640	0.0149077
755.718	0.0149637
755.796	0.0147939
755.874	0.0148415
755.953	0.0150000
756.031	0.0149960
756.109	0.0149635
756.187	0.0148723
756.265	0.0148790
756.343	0.0149437
756.421	0.0148492
756.499	0.0149878
756.578	0.0148477
756.656	0.0148728
756.734	0.0147964
756.812	0.0148330
756.890	0.0148568
756.968	0.0148537
757.046	0.0148815
757.124	0.0148798
757.203	0.0150929
757.281	0.0150098
757.359	0.0148696
757.437	0.0149345
757.515	0.0149587
757.593	0.0149528
757.671	0.0148993
757.749	0.0149530
757.828	0.0149797
757.906	0.0149033
757.984	0.0147912
758.062	0.0148567
758.140	0.0148931
758.218	0.0148882
758.296	0.0147116
758.374	0.0148508
758.453	0.0148402
758.531	0.0147650
758.609	0.0148752
758.687	0.0148067
758.765	0.0148491
758.843	0.0148071
758.921	0.0147596
758.999	0.0148414
759.078	0.0147401
759.156	0.0146841
759.234	0.0147073
759.312	0.0147440
759.390	0.0146841
759.468	0.0147367
759.546	0.0148016
759.624	0.0149728
759.703	0.0148493
759.781	0.0148478
759.859	0.0148017
759.937	0.0148856
760.015	0.0148612
760.093	0.0148742
760.171	0.0148183
760.249	0.0149062
760.328	0.0148949
760.406	0.0148019
760.484	0.0149198
760.562	0.0147788
760.640	0.0148885
760.718	0.0149178
760.796	0.0149068
760.874	0.0148525
760.953	0.0148278
761.031	0.0149325
761.109	0.0148512
761.187	0.0148724
761.265	0.0148394
761.343	0.0148497
761.421	0.0148103
761.499	0.0147650
761.578	0.0148328
761.656	0.0147713
761.734	0.0146678
761.812	0.0147607
761.890	0.0149439
761.968	0.0149251
762.046	0.0148515
762.124	0.0148991
762.203	0.0149059
762.281	0.0149504
762.359	0.0149698
762.437	0.0149998
762.515	0.0150205
762.593	0.0150569
762.671	0.0150263
762.749	0.0148738
762.828	0.0149889
762.906	0.0149611
762.984	0.0147987
763.062	0.0147807
763.140	0.0148582
763.218	0.0148234
763.296	0.0148683
763.374	0.0147730
763.453	0.0148338
763.531	0.0148717
763.609	0.0148063
763.687	0.0148199
763.765	0.0147875
763.843	0.0148099
763.921	0.0147514
763.999	0.0147156
764.078	0.0147408
764.156	0.0148531
764.234	0.0147723
764.312	0.0148076
764.390	0.0147936
764.468	0.0147238
764.546	0.0148241
764.624	0.0147795
764.703	0.0147211
764.781	0.0149693
764.859	0.0147739
764.937	0.0148650
765.015	0.0149024
765.093	0.0148020
765.171	0.0148483
765.249	0.0148937
765.328	0.0148786
765.406	0.0150290
765.484	0.0148721
765.562	0.0149994
765.640	0.0149384
765.718	0.0149964
765.796	0.0150470
765.874	0.0150394
765.953	0.0150356
766.031	0.0148793
766.109	0.0148562
766.187	0.0149345
766.265	0.0147686
766.343	0.0147945
766.421	0.0149235
766.499	0.0149459
766.578	0.0149400
766.656	0.0146789
766.734	0.0147888
766.812	0.0146854
766.890	0.0148587
766.968	0.0148012
767.046	0.0147947
767.124	0.0148646
767.203	0.0148463
767.281	0.0149266
767.359	0.0147500
767.437	0.0149175
767.515	0.0147984
767.593	0.0149131
767.671	0.0149831
767.749	0.0148936
767.828	0.0148195
767.906	0.0149072
767.984	0.0149518
768.062	0.0149377
768.140	0.0149134
768.218	0.0149432
768.296	0.0148307
768.374	0.0149953
768.453	0.0148920
768.531	0.0148638
768.609	0.0149287
768.687	0.0149724
768.765	0.0148952
768.843	0.0149544
768.921	0.0149068
768.999	0.0147976
769.078	0.0147779
769.156	0.0149678
769.234	0.0148597
769.312	0.0148614
769.390	0.0148731
769.468	0.0149066
769.546	0.0147338
769.624	0.0147765
769.703	0.0148717
769.781	0.0148633
769.859	0.0146840
769.937	0.0148302
770.015	0.0149893
770.093	0.0148927
770.171	0.0148378
770.249	0.0148507
770.328	0.0149579
770.406	0.0150102
770.484	0.0148743
770.562	0.0149778
770.640	0.0148651
770.718	0.0149348
770.796	0.0149047
770.874	0.0148798
770.953	0.0149192
771.031	0.0148561
771.109	0.0148476
771.187	0.0149326
771.265	0.0148441
771.343	0.0148051
771.421	0.0149004
771.499	0.0147764
771.578	0.0147659
771.656	0.0147538
771.734	0.0148588
771.812	0.0148162
771.890	0.0148599
771.968	0.0149396
772.046	0.0149905
772.124	0.0148601
772.203	0.0149786
772.281	0.0148167
772.359	0.0148799
772.437	0.0150094
772.515	0.0148506
772.593	0.0148602
772.671	0.0148499
772.749	0.0150105
772.828	0.0148804
772.906	0.0146895
772.984	0.0147753
773.062	0.0149060
773.140	0.0148048
773.218	0.0149944
773.296	0.0148646
773.374	0.0149308
773.453	0.0148893
773.531	0.0149630
773.609	0.0148731
773.687	0.0149117
773.765	0.0148176
773.843	0.0148698
773.921	0.0148440
773.999	0.0149009
774.078	0.0147649
774.156	0.0147392
774.234	0.0149074
774.312	0.0148109
774.390	0.0147625
774.468	0.0147521
774.546	0.0148332
774.624	0.0150472
774.703	0.0147438
774.781	0.0149110
774.859	0.0149852
774.937	0.0148754
775.015	0.0149330
775.093	0.0149477
775.171	0.0148987
775.249	0.0148423
775.328	0.0148260
775.406	0.0147752
775.484	0.0149060
775.562	0.0148684
775.640	0.0148228
775.718	0.0148669
775.796	0.0147542
775.874	0.0148685
775.953	0.0147330
776.031	0.0147845
776.109	0.0147669
776.187	0.0148340
776.265	0.0146967
776.343	0.0147765
776.421	0.0148903
776.499	0.0147699
776.578	0.0148679
776.656	0.0148369
776.734	0.0148067
776.812	0.0148148
776.890	0.0147354
776.968	0.0146732
777.046	0.0148322
777.124	0.0147628
777.203	0.0147616
777.281	0.0147617
777.359	0.0148382
777.437	0.0147800
777.515	0.0147525
777.593	0.0149721
777.671	0.0148568
777.749	0.0148772
777.828	0.0150058
777.906	0.0149764
777.984	0.0148129
778.062	0.0149561
778.140	0.0149187
778.218	0.0147720
778.296	0.0150320
778.374	0.0149891
778.453	0.0148448
778.531	0.0147687
778.609	0.0148727
778.687	0.0146910
778.765	0.0146848
778.843	0.0147300
778.921	0.0148600
778.999	0.0147467
779.078	0.0147359
779.156	0.0146560
779.234	0.0147823
779.312	0.0147993
779.390	0.0147252
779.468	0.0146847
779.546	0.0147620
779.624	0.0146056
779.703	0.0146196
779.781	0.0147341
779.859	0.0148633
779.937	0.0148056
780.015	0.0147543
780.093	0.0147494
780.171	0.0148138
780.249	0.0150263
780.328	0.0149577
780.406	0.0148868
780.484	0.0150557
780.562	0.0148824
780.640	0.0150030
780.718	0.0149371
780.796	0.0147604
780.874	0.0149583
780.953	0.0149522
781.031	0.0148534
781.109	0.0149832
781.187	0.0148832
781.265	0.0148103
781.343	0.0148853
781.421	0.0149538
781.499	0.0148912
781.578	0.0148231
781.656	0.0147578
781.734	0.0148067
781.812	0.0149430
781.890	0.0147644
781.968	0.0147239
782.046	0.0147485
782.124	0.0147301
782.203	0.0147305
782.281	0.0147854
782.359	0.0146973
782.437	0.0148594
782.515	0.0148550
782.593	0.0147849
782.671	0.0147749
782.749	0.0147719
782.828	0.0148869
782.906	0.0148776
782.984	0.0148911
783.062	0.0148116
783.140	0.0149215
783.218	0.0149892
783.296	0.0148418
783.374	0.0149218
783.453	0.0148484
783.531	0.0148528
783.609	0.0149178
783.687	0.0148437
783.765	0.0147324
783.843	0.0148477
783.921	0.0148005
783.999	0.0149301
784.078	0.0149772
784.156	0.0149313
784.234	0.0147598
784.312	0.0148238
784.390	0.0148312
784.468	0.0148880
784.546	0.0148084
784.624	0.0148982
784.703	0.0147186
784.781	0.0149239
784.859	0.0148273
784.937	0.0148454
785.015	0.0148560
785.093	0.0148880
785.171	0.0150357
785.249	0.0148784
785.328	0.0149391
785.406	0.0149052
785.484	0.0149808
785.562	0.0149811
785.640	0.0150390
785.718	0.0148802
785.796	0.0148589
785.874	0.0148896
785.953	0.0148823
786.031	0.0149513
786.109	0.0147190
786.187	0.0148748
786.265	0.0150104
786.343	0.0149400
786.421	0.0149231
786.499	0.0148684
786.578	0.0148484
786.656	0.0148485
786.734	0.0147685
786.812	0.0148215
786.890	0.0147570
786.968	0.0146976
787.046	0.0147607
787.124	0.0148566
787.203	0.0148750
787.281	0.0147765
787.359	0.0149477
787.437	0.0149355
787.515	0.0147942
787.593	0.0148398
787.671	0.0149216
787.749	0.0149283
787.828	0.0148563
787.906	0.0149324
787.984	0.0149052
788.062	0.0150150
788.140	0.0149701
788.218	0.0148072
788.296	0.0149683
788.374	0.0148656
788.453	0.0148559
788.531	0.0148980
788.609	0.0148918
788.687	0.0148602
788.765	0.0148354
788.843	0.0149016
788.921	0.0147051
788.999	0.0148084
789.078	0.0148447
789.156	0.0146890
789.234	0.0148360
789.312	0.0147990
789.390	0.0148602
789.468	0.0148753
789.546	0.0148911
789.624	0.0146912
789.703	0.0147920
789.781	0.0149123
789.859	0.0148479
789.937	0.0149484
790.015	0.0148846
790.093	0.0148853
790.171	0.0149825
790.249	0.0149616
790.328	0.0149973
790.406	0.0149046
790.484	0.0150461
790.562	0.0148744
790.640	0.0149094
790.718	0.0148479
790.796	0.0149272
790.874	0.0148763
790.953	0.0150333
791.031	0.0149373
791.109	0.0149442
791.187	0.0149128
791.265	0.0148811
791.343	0.0148706
791.421	0.0148691
791.499	0.0148705
791.578	0.0148183
791.656	0.0146812
791.734	0.0147250
791.812	0.0147070
791.890	0.0148385
791.968	0.0147876
792.046	0.0147298
792.124	0.0147146
792.203	0.0147993
792.281	0.0149559
792.359	0.0149074
792.437	0.0147716
792.515	0.0147749
792.593	0.0148833
792.671	0.0150030
792.749	0.0150620
792.828	0.0148969
792.906	0.0149374
792.984	0.0149606
793.062	0.0149561
793.140	0.0150252
793.218	0.0148651
793.296	0.0149487
793.374	0.0149597
793.453	0.0147916
793.531	0.0149696
793.609	0.0149328
793.687	0.0148708
793.765	0.0148392
793.843	0.0149017
793.921	0.0147498
793.999	0.0148907
794.078	0.0148401
794.156	0.0148143
794.234	0.0148633
794.312	0.0148804
794.390	0.0149015
794.468	0.0149989
794.546	0.0148264
794.624	0.0149228
794.703	0.0148536
794.781	0.0147923
794.859	0.0149221
794.937	0.0149085
795.015	0.0149105
795.093	0.0148322
795.171	0.0149574
795.249	0.0150820
795.328	0.0148997
795.406	0.0149465
795.484	0.0150706
795.562	0.0151208
795.640	0.0150336
795.718	0.0148602
795.796	0.0149025
795.874	0.0148866
795.953	0.0148325
796.031	0.0149984
796.109	0.0150154
796.187	0.0149242
796.265	0.0149348
796.343	0.0149470
796.421	0.0148450
796.499	0.0149873
796.578	0.0148582
796.656	0.0148101
796.734	0.0147670
796.812	0.0147917
796.890	0.0149283
796.968	0.0148223
797.046	0.0148547
797.124	0.0148097
797.203	0.0148804
797.281	0.0147290
797.359	0.0149084
797.437	0.0150082
797.515	0.0148970
797.593	0.0148930
797.671	0.0148962
797.749	0.0148605
797.828	0.0150871
797.906	0.0149805
797.984	0.0150356
798.062	0.0151138
798.140	0.0149696
798.218	0.0149467
798.296	0.0149712
798.374	0.0147830
798.453	0.0148909
798.531	0.0149066
798.609	0.0148129
798.687	0.0148849
798.765	0.0148959
798.843	0.0147784
798.921	0.0147919
798.999	0.0147135
799.078	0.0147598
799.156	0.0147720
799.234	0.0146819
799.312	0.0148072
799.390	0.0147002
799.468	0.0147719
799.546	0.0148094
799.624	0.0148621
799.703	0.0147780
799.781	0.0146964
799.859	0.0147979
799.937	0.0148497
800.015	0.0149276
800.093	0.0147878
800.171	0.0149584
800.249	0.0150541
800.328	0.0148759
800.406	0.0149071
800.484	0.0151166
800.562	0.0148801
800.640	0.0149013
800.718	0.0149169
800.796	0.0150285
800.874	0.0149712
800.953	0.0150402
801.031	0.0149220
801.109	0.0149400
801.187	0.0149191
801.265	0.0149122
801.343	0.0150281
801.421	0.0150064
801.499	0.0148971
801.578	0.0149112
801.656	0.0149704
801.734	0.0148238
801.812	0.0147525
801.890	0.0148058
801.968	0.0148801
802.046	0.0147363
802.124	0.0147649
802.203	0.0147486
802.281	0.0147820
802.359	0.0148154
802.437	0.0149403
802.515	0.0147002
802.593	0.0148896
802.671	0.0147385
802.749	0.0148253
802.828	0.0150082
802.906	0.0150362
802.984	0.0150999
803.062	0.0149675
803.140	0.0149430
803.218	0.0150661
803.296	0.0151317
803.374	0.0150746
803.453	0.0151192
803.531	0.0150612
803.609	0.0149552
803.687	0.0150317
803.765	0.0150336
803.843	0.0149518
803.921	0.0149302
803.999	0.0148868
804.078	0.0147910
804.156	0.0149326
804.234	0.0148545
804.312	0.0148537
804.390	0.0148183
804.468	0.0149893
804.546	0.0146836
804.624	0.0147343
804.703	0.0148850
804.781	0.0146899
804.859	0.0148636
804.937	0.0148003
805.015	0.0149065
805.093	0.0149793
805.171	0.0147618
805.249	0.0148734
805.328	0.0149641
805.406	0.0148152
805.484	0.0149415
805.562	0.0148225
805.640	0.0148772
805.718	0.0149705
805.796	0.0148877
805.874	0.0148849
805.953	0.0149202
806.031	0.0150140
806.109	0.0150397
806.187	0.0148761
806.265	0.0147667
806.343	0.0147800
806.421	0.0148356
806.499	0.0149596
806.578	0.0147658
806.656	0.0148531
806.734	0.0148340
806.812	0.0148112
806.890	0.0148656
806.968	0.0149172
807.046	0.0150556
807.124	0.0148129
807.203	0.0147014
807.281	0.0147556
807.359	0.0148552
807.437	0.0148476
807.515	0.0147050
807.593	0.0148150
807.671	0.0149922
807.749	0.0149048
807.828	0.0147742
807.906	0.0149323
807.984	0.0149636
808.062	0.0149915
808.140	0.0150293
808.218	0.0150575
808.296	0.0150397
808.374	0.0150561
808.453	0.0150744
808.531	0.0149732
808.609	0.0149950
808.687	0.0149766
808.765	0.0149265
808.843	0.0148710
808.921	0.0149419
808.999	0.0148809
809.078	0.0148586
809.156	0.0148753
809.234	0.0148193
809.312	0.0148536
809.390	0.0147634
809.468	0.0149235
809.546	0.0148906
809.624	0.0147418
809.703	0.0147842
809.781	0.0147849
809.859	0.0147557
809.937	0.0148473
810.015	0.0148093
810.093	0.0148360
810.171	0.0149668
810.249	0.0148325
810.328	0.0148351
810.406	0.0148412
810.484	0.0148181
810.562	0.0150191
810.640	0.0150553
810.718	0.0149337
810.796	0.0148726
810.874	0.0148424
810.953	0.0148829
811.031	0.0149841
811.109	0.0148328
811.187	0.0148319
811.265	0.0148550
811.343	0.0148780
811.421	0.0148351
811.499	0.0148680
811.578	0.0148700
811.656	0.0148093
811.734	0.0148782
811.812	0.0148193
811.890	0.0147641
811.968	0.0147493
812.046	0.0148157
812.124	0.0148059
812.203	0.0146067
812.281	0.0148305
812.359	0.0148599
812.437	0.0148231
812.515	0.0148307
812.593	0.0148484
812.671	0.0148389
812.749	0.0149776
812.828	0.0150507
812.906	0.0149191
812.984	0.0149953
813.062	0.0150026
813.140	0.0151347
813.218	0.0151147
813.296	0.0149163
813.374	0.0148693
813.453	0.0150751
813.531	0.0150459
813.609	0.0150912
813.687	0.0150268
813.765	0.0148604
813.843	0.0148897
813.921	0.0148486
813.999	0.0149116
814.078	0.0147010
814.156	0.0148561
814.234	0.0148653
814.312	0.0146330
814.390	0.0147126
814.468	0.0148026
814.546	0.0147834
814.624	0.0147428
814.703	0.0146941
814.781	0.0147031
814.859	0.0147308
814.937	0.0148222
815.015	0.0147413
815.093	0.0147749
815.171	0.0147058
815.249	0.0148798
815.328	0.0148573
815.406	0.0150391
815.484	0.0149658
815.562	0.0149744
815.640	0.0147769
815.718	0.0148755
815.796	0.0149191
815.874	0.0150159
815.953	0.0149303
816.031	0.0148560
816.109	0.0149350
816.187	0.0149296
816.265	0.0148572
816.343	0.0147218
816.421	0.0147929
816.499	0.0148961
816.578	0.0147247
816.656	0.0148367
816.734	0.0147939
816.812	0.0148194
816.890	0.0149200
816.968	0.0149004
817.046	0.0148030
817.124	0.0148012
817.203	0.0148176
817.281	0.0149344
817.359	0.0148822
817.437	0.0148963
817.515	0.0148646
817.593	0.0149030
817.671	0.0148294
817.749	0.0148655
817.828	0.0149691
817.906	0.0149364
817.984	0.0149989
818.062	0.0149173
818.140	0.0148495
818.218	0.0149683
818.296	0.0149265
818.374	0.0150478
818.453	0.0149074
818.531	0.0149280
818.609	0.0149840
818.687	0.0148999
818.765	0.0148171
818.843	0.0149238
818.921	0.0148436
818.999	0.0149447
819.078	0.0147648
819.156	0.0148018
819.234	0.0149160
819.312	0.0148986
819.390	0.0149477
819.468	0.0147440
819.546	0.0149010
819.624	0.0147894
819.703	0.0148947
819.781	0.0149006
819.859	0.0150163
819.937	0.0150455
820.015	0.0149445
820.093	0.0149126
820.171	0.0149625
820.249	0.0151328
820.328	0.0150256
820.406	0.0149168
820.484	0.0150048
820.562	0.0148411
820.640	0.0149457
820.718	0.0149516
820.796	0.0150820
820.874	0.0149367
820.953	0.0150138
821.031	0.0149773
821.109	0.0148113
821.187	0.0149273
821.265	0.0149065
821.343	0.0148031
821.421	0.0149510
821.499	0.0148484
821.578	0.0149228
821.656	0.0148398
821.734	0.0148452
821.812	0.0147707
821.890	0.0147047
821.968	0.0149369
822.046	0.0149718
822.124	0.0149187
822.203	0.0149114
822.281	0.0148406
822.359	0.0148678
822.437	0.0147505
822.515	0.0148948
822.593	0.0147942
822.671	0.0148777
822.749	0.0147672
822.828	0.0149187
822.906	0.0148637
822.984	0.0147317
823.062	0.0148264
823.140	0.0149165
823.218	0.0149609
823.296	0.0149065
823.374	0.0147832
823.453	0.0148829
823.531	0.0149062
823.609	0.0149739
823.687	0.0149219
823.765	0.0149621
823.843	0.0148713
823.921	0.0148350
823.999	0.0149461
824.078	0.0148521
824.156	0.0149921
824.234	0.0148769
824.312	0.0147874
824.390	0.0149425
824.468	0.0147283
824.546	0.0149349
824.624	0.0148981
824.703	0.0148954
824.781	0.0147824
824.859	0.0149429
824.937	0.0148497
825.015	0.0149341
825.093	0.0149157
825.171	0.0148953
825.249	0.0149454
825.328	0.0149879
825.406	0.0149577
825.484	0.0150597
825.562	0.0148712
825.640	0.0149331
825.718	0.0149136
825.796	0.0150324
825.874	0.0149258
825.953	0.0148169
826.031	0.0149078
826.109	0.0147888
826.187	0.0148325
826.265	0.0149222
826.343	0.0147544
826.421	0.0147478
826.499	0.0149474
826.578	0.0148940
826.656	0.0148171
826.734	0.0148129
826.812	0.0147486
826.890	0.0147320
826.968	0.0146792
827.046	0.0148861
827.124	0.0147257
827.203	0.0146185
827.281	0.0147000
827.359	0.0148216
827.437	0.0146805
827.515	0.0147900
827.593	0.0147426
827.671	0.0148270
827.749	0.0149291
827.828	0.0148356
827.906	0.0147523
827.984	0.0148087
828.062	0.0149500
828.140	0.0148685
828.218	0.0148610
828.296	0.0148548
828.374	0.0149168
828.453	0.0149087
828.531	0.0148788
828.609	0.0149932
828.687	0.0149139
828.765	0.0149580
828.843	0.0147093
828.921	0.0148969
828.999	0.0147099
829.078	0.0148927
829.156	0.0148975
829.234	0.0148952
829.312	0.0149051
829.390	0.0148873
829.468	0.0148453
829.546	0.0149545
829.624	0.0148837
829.703	0.0149058
829.781	0.0149358
829.859	0.0148116
829.937	0.0150134
830.015	0.0150432
830.093	0.0147198
830.171	0.0149421
830.249	0.0148746
830.328	0.0148158
830.406	0.0148601
830.484	0.0150784
830.562	0.0150738
830.640	0.0149724
830.718	0.0149495
830.796	0.0148547
830.874	0.0149966
830.953	0.0149658
831.031	0.0149670
831.109	0.0149796
831.187	0.0151574
831.265	0.0149946
831.343	0.0149209
831.421	0.0148785
831.499	0.0150089
831.578	0.0149763
831.656	0.0147329
831.734	0.0148701
831.812	0.0148953
831.890	0.0149461
831.968	0.0148392
832.046	0.0148484
832.124	0.0147843
832.203	0.0148606
832.281	0.0147211
832.359	0.0148815
832.437	0.0148795
832.515	0.0148039
832.593	0.0147127
832.671	0.0148474
832.749	0.0147346
832.828	0.0147735
832.906	0.0147861
832.984	0.0149107
833.062	0.0147556
833.140	0.0147526
833.218	0.0148386
833.296	0.0149763
833.374	0.0148453
833.453	0.0147754
833.531	0.0148437
833.609	0.0149435
833.687	0.0147309
833.765	0.0148225
833.843	0.0148949
833.921	0.0149649
833.999	0.0149683
834.078	0.0147687
834.156	0.0147181
834.234	0.0146951
834.312	0.0147910
834.390	0.0148136
834.468	0.0150127
834.546	0.0147855
834.624	0.0147148
834.703	0.0147663
834.781	0.0148351
834.859	0.0147484
834.937	0.0147688
835.015	0.0148376
835.093	0.0148798
835.171	0.0148548
835.249	0.0149082
835.328	0.0149886
835.406	0.0148701
835.484	0.0149298
835.562	0.0150188
835.640	0.0149494
835.718	0.0149249
835.796	0.0149677
835.874	0.0151128
835.953	0.0149493
836.031	0.0149407
836.109	0.0149176
836.187	0.0149579
836.265	0.0149627
836.343	0.0149928
836.421	0.0148693
836.499	0.0148615
836.578	0.0150272
836.656	0.0149927
836.734	0.0148603
836.812	0.0148557
836.890	0.0148071
836.968	0.0149270
837.046	0.0146393
837.124	0.0148151
837.203	0.0147318
837.281	0.0147539
837.359	0.0147740
837.437	0.0145557
837.515	0.0148299
837.593	0.0147526
837.671	0.0147856
837.749	0.0148129
837.828	0.0148306
837.906	0.0147486
837.984	0.0147998
838.062	0.0147930
838.140	0.0149324
838.218	0.0148897
838.296	0.0148251
838.374	0.0149244
838.453	0.0148354
838.531	0.0148344
838.609	0.0148525
838.687	0.0148434
838.765	0.0149426
838.843	0.0147083
838.921	0.0148326
838.999	0.0147515
839.078	0.0148413
839.156	0.0148749
839.234	0.0147892
839.312	0.0147758
839.390	0.0149000
839.468	0.0149489
839.546	0.0148563
839.624	0.0148865
839.703	0.0148441
839.781	0.0149550
839.859	0.0148401
839.937	0.0150464
840.015	0.0149869
840.093	0.0149112
840.171	0.0151221
840.249	0.0148861
840.328	0.0149461
840.406	0.0149734
840.484	0.0149850
840.562	0.0149701
840.640	0.0149078
840.718	0.0149734
840.796	0.0149696
840.874	0.0150165
840.953	0.0149235
841.031	0.0148775
841.109	0.0148763
841.187	0.0148965
841.265	0.0149341
841.343	0.0149884
841.421	0.0148906
841.499	0.0148087
841.578	0.0148786
841.656	0.0148755
841.734	0.0148511
841.812	0.0148713
841.890	0.0148609
841.968	0.0148177
842.046	0.0149763
842.124	0.0147752
842.203	0.0147720
842.281	0.0147943
842.359	0.0149284
842.437	0.0147641
842.515	0.0148366
842.593	0.0148193
842.671	0.0148683
842.749	0.0149233
842.828	0.0147736
842.906	0.0148227
842.984	0.0149332
843.062	0.0149077
843.140	0.0148087
843.218	0.0149908
843.296	0.0150105
843.374	0.0149271
843.453	0.0148950
843.531	0.0149022
843.609	0.0150141
843.687	0.0150201
843.765	0.0150278
843.843	0.0149043
843.921	0.0148296
843.999	0.0148035
844.078	0.0149739
844.156	0.0148721
844.234	0.0149042
844.312	0.0148904
844.390	0.0150271
844.468	0.0146346
844.546	0.0149989
844.624	0.0148289
844.703	0.0149045
844.781	0.0149239
844.859	0.0149957
844.937	0.0150066
845.015	0.0150553
845.093	0.0148689
845.171	0.0148555
845.249	0.0148429
845.328	0.0149451
845.406	0.0149737
845.484	0.0149939
845.562	0.0148275
845.640	0.0147491
845.718	0.0148193
845.796	0.0150455
845.874	0.0150097
845.953	0.0148306
846.031	0.0148924
846.109	0.0149455
846.187	0.0148827
846.265	0.0150143
846.343	0.0149128
846.421	0.0150018
846.499	0.0149298
846.578	0.0148254
846.656	0.0149039
846.734	0.0148705
846.812	0.0148032
846.890	0.0148077
846.968	0.0147246
847.046	0.0148713
847.124	0.0148448
847.203	0.0146941
847.281	0.0148518
847.359	0.0147846
847.437	0.0147987
847.515	0.0149078
847.593	0.0149213
847.671	0.0148158
847.749	0.0147843
847.828	0.0148223
847.906	0.0148588
847.984	0.0149525
848.062	0.0148248
848.140	0.0148359
848.218	0.0147912
848.296	0.0148613
848.374	0.0148637
848.453	0.0147959
848.531	0.0149480
848.609	0.0148823
848.687	0.0149216
848.765	0.0147911
848.843	0.0149675
848.921	0.0148780
848.999	0.0148205
849.078	0.0148720
849.156	0.0149821
849.234	0.0148755
849.312	0.0147241
849.390	0.0148083
849.468	0.0148623
849.546	0.0149565
849.624	0.0148821
849.703	0.0149461
849.781	0.0149201
849.859	0.0149243
849.937	0.0149261
850.015	0.0149898
850.093	0.0148911
850.171	0.0147202
850.249	0.0148077
850.328	0.0147681
850.406	0.0148447
850.484	0.0148981
850.562	0.0148298
850.640	0.0149068
850.718	0.0147634
850.796	0.0148505
850.874	0.0148260
850.953	0.0149245
851.031	0.0148229
851.109	0.0149110
851.187	0.0149362
851.265	0.0148935
851.343	0.0148335
851.421	0.0147762
851.499	0.0148254
851.578	0.0148296
851.656	0.0148007
851.734	0.0148376
851.812	0.0149509
851.890	0.0148275
851.968	0.0148190
852.046	0.0147758
852.124	0.0147188
852.203	0.0150307
852.281	0.0148980
852.359	0.0148195
852.437	0.0147301
852.515	0.0148378
852.593	0.0149744
852.671	0.0147499
852.749	0.0147597
852.828	0.0148729
852.906	0.0148914
852.984	0.0146958
853.062	0.0148322
853.140	0.0147609
853.218	0.0148312
853.296	0.0148995
853.374	0.0147615
853.453	0.0148887
853.531	0.0148899
853.609	0.0148767
853.687	0.0149424
853.765	0.0148555
853.843	0.0149342
853.921	0.0150021
853.999	0.0148077
854.078	0.0150137
854.156	0.0149702
854.234	0.0149030
854.312	0.0150470
854.390	0.0148959
854.468	0.0148890
854.546	0.0149194
854.624	0.0149349
854.703	0.0149881
854.781	0.0148505
854.859	0.0148145
854.937	0.0148751
855.015	0.0148116
855.093	0.0147899
855.171	0.0149379
855.249	0.0148994
855.328	0.0148197
855.406	0.0148672
855.484	0.0147934
855.562	0.0147798
855.640	0.0149498
855.718	0.0149239
855.796	0.0149460
855.874	0.0147525
855.953	0.0149644
856.031	0.0148486
856.109	0.0148750
856.187	0.0149700
856.265	0.0149526
856.343	0.0150116
856.421	0.0148824
856.499	0.0147903
856.578	0.0149104
856.656	0.0148748
856.734	0.0148161
856.812	0.0148698
856.890	0.0148158
856.968	0.0146799
857.046	0.0148017
857.124	0.0148383
857.203	0.0148075
857.281	0.0148073
857.359	0.0149832
857.437	0.0148106
857.515	0.0148235
857.593	0.0148811
857.671	0.0147580
857.749	0.0146870
857.828	0.0148060
857.906	0.0148532
857.984	0.0148149
858.062	0.0147127
858.140	0.0147919
858.218	0.0147256
858.296	0.0148918
858.374	0.0148047
858.453	0.0148078
858.531	0.0148514
858.609	0.0149841
858.687	0.0149552
858.765	0.0148240
858.843	0.0149014
858.921	0.0148987
858.999	0.0148985
859.078	0.0149077
859.156	0.0148494
859.234	0.0150269
859.312	0.0148034
859.390	0.0149226
859.468	0.0149893
859.546	0.0149414
859.624	0.0148056
859.703	0.0146964
859.781	0.0147158
859.859	0.0147607
859.937	0.0149506
860.015	0.0148602
860.093	0.0147895
860.171	0.0148412
860.249	0.0148788
860.328	0.0148466
860.406	0.0149281
860.484	0.0149623
860.562	0.0150928
860.640	0.0147446
860.718	0.0148232
860.796	0.0150257
860.874	0.0148402
860.953	0.0147588
861.031	0.0147269
861.109	0.0148360
861.187	0.0148059
861.265	0.0149161
861.343	0.0149494
861.421	0.0148902
861.499	0.0149014
861.578	0.0147266
861.656	0.0149123
861.734	0.0149087
861.812	0.0148032
861.890	0.0147964
861.968	0.0148385
862.046	0.0148065
862.124	0.0147517
862.203	0.0148934
862.281	0.0148600
862.359	0.0148775
862.437	0.0148037
862.515	0.0149533
862.593	0.0149850
862.671	0.0148474
862.749	0.0147044
862.828	0.0149217
862.906	0.0148674
862.984	0.0147672
863.062	0.0147253
863.140	0.0147591
863.218	0.0148212
863.296	0.0148741
863.374	0.0148788
863.453	0.0149139
863.531	0.0148029
863.609	0.0148310
863.687	0.0149173
863.765	0.0148418
863.843	0.0148421
863.921	0.0149234
863.999	0.0149748
864.078	0.0149280
864.156	0.0148630
864.234	0.0149289
864.312	0.0149189
864.390	0.0148816
864.468	0.0149264
864.546	0.0149910
864.624	0.0149409
864.703	0.0148759
864.781	0.0150513
864.859	0.0149001
864.937	0.0148862
865.015	0.0149676
865.093	0.0148141
865.171	0.0148872
865.249	0.0147931
865.328	0.0148931
865.406	0.0148908
865.484	0.0149515
865.562	0.0147778
865.640	0.0148801
865.718	0.0148048
865.796	0.0148420
865.874	0.0150684
865.953	0.0149670
866.031	0.0147492
866.109	0.0149419
866.187	0.0150433
866.265	0.0150294
866.343	0.0149156
866.421	0.0148847
866.499	0.0149775
866.578	0.0149146
866.656	0.0150705
866.734	0.0149237
866.812	0.0150375
866.890	0.0149622
866.968	0.0149352
867.046	0.0148685
867.124	0.0147822
867.203	0.0148683
867.281	0.0149717
867.359	0.0149180
867.437	0.0148812
867.515	0.0149687
867.593	0.0148904
867.671	0.0149187
867.749	0.0148260
867.828	0.0148410
867.906	0.0148506
867.984	0.0149079
868.062	0.0147398
868.140	0.0147782
868.218	0.0147141
868.296	0.0148837
868.374	0.0148486
868.453	0.0147791
868.531	0.0148532
868.609	0.0149273
868.687	0.0149401
868.765	0.0148595
868.843	0.0148151
868.921	0.0149615
868.999	0.0150434
869.078	0.0151978
869.156	0.0151618
869.234	0.0150155
869.312	0.0149183
869.390	0.0149372
869.468	0.0148547
869.546	0.0149800
869.624	0.0147923
869.703	0.0148462
869.781	0.0147250
869.859	0.0148877
869.937	0.0148842
870.015	0.0148097
870.093	0.0148489
870.171	0.0149358
870.249	0.0149372
870.328	0.0148409
870.406	0.0148409
870.484	0.0149341
870.562	0.0149606
870.640	0.0148685
870.718	0.0149762
870.796	0.0148277
870.874	0.0147641
870.953	0.0149406
871.031	0.0148679
871.109	0.0148415
871.187	0.0148345
871.265	0.0148368
871.343	0.0147453
871.421	0.0148730
871.499	0.0148489
871.578	0.0149986
871.656	0.0149265
871.734	0.0148555
871.812	0.0149136
871.890	0.0149426
871.968	0.0148071
872.046	0.0147192
872.124	0.0148594
872.203	0.0147131
872.281	0.0147971
872.359	0.0147180
872.437	0.0147556
872.515	0.0148548
872.593	0.0148047
872.671	0.0147312
872.749	0.0148203
872.828	0.0147168
872.906	0.0147465
872.984	0.0148557
873.062	0.0148394
873.140	0.0148375
873.218	0.0149067
873.296	0.0149290
873.374	0.0147370
873.453	0.0148595
873.531	0.0149339
873.609	0.0149256
873.687	0.0148920
873.765	0.0147757
873.843	0.0149090
873.921	0.0149533
873.999	0.0148502
874.078	0.0149648
874.156	0.0148405
874.234	0.0148899
874.312	0.0148241
874.390	0.0149084
874.468	0.0148656
874.546	0.0147807
874.624	0.0148623
874.703	0.0149403
874.781	0.0147795
874.859	0.0148911
874.937	0.0148905
875.015	0.0148380
875.093	0.0147681
875.171	0.0147510
875.249	0.0148022
875.328	0.0146921
875.406	0.0148367
875.484	0.0148434
875.562	0.0147353
875.640	0.0147381
875.718	0.0148154
875.796	0.0148550
875.874	0.0149100
875.953	0.0148599
876.031	0.0147365
876.109	0.0148201
876.187	0.0149558
876.265	0.0149532
876.343	0.0147729
876.421	0.0148438
876.499	0.0147777
876.578	0.0147812
876.656	0.0149763
876.734	0.0149471
876.812	0.0147631
876.890	0.0147096
876.968	0.0149261
877.046	0.0148385
877.124	0.0148999
877.203	0.0148861
877.281	0.0149172
877.359	0.0147719
877.437	0.0147509
877.515	0.0148392
877.593	0.0148604
877.671	0.0148234
877.749	0.0148067
877.828	0.0149480
877.906	0.0149480
877.984	0.0148551
878.062	0.0148223
878.140	0.0148886
878.218	0.0148829
878.296	0.0148676
878.374	0.0148144
878.453	0.0147792
878.531	0.0147260
878.609	0.0148655
878.687	0.0147910
878.765	0.0148673
878.843	0.0149300
878.921	0.0148204
878.999	0.0149390
879.078	0.0149537
879.156	0.0148465
879.234	0.0149775
879.312	0.0149166
879.390	0.0150895
879.468	0.0149796
879.546	0.0150823
879.624	0.0149635
879.703	0.0149862
879.781	0.0149424
879.859	0.0150359
879.937	0.0150040
880.015	0.0149658
880.093	0.0148670
880.171	0.0148266
880.249	0.0149190
880.328	0.0149847
880.406	0.0150181
880.484	0.0149229
880.562	0.0149657
880.640	0.0148856
880.718	0.0149476
880.796	0.0149407
880.874	0.0149319
880.953	0.0149757
881.031	0.0150274
881.109	0.0149845
881.187	0.0150642
881.265	0.0149730
881.343	0.0150092
881.421	0.0149982
881.499	0.0149419
881.578	0.0149858
881.656	0.0149992
881.734	0.0148339
881.812	0.0148833
881.890	0.0150112
881.968	0.0150008
882.046	0.0151046
882.124	0.0149845
882.203	0.0148500
882.281	0.0149520
882.359	0.0149968
882.437	0.0150584
882.515	0.0150500
882.593	0.0149599
882.671	0.0148575
882.749	0.0149035
882.828	0.0150330
882.906	0.0150484
882.984	0.0148566
883.062	0.0149545
883.140	0.0149649
883.218	0.0149239
883.296	0.0149493
883.374	0.0149864
883.453	0.0148813
883.531	0.0147750
883.609	0.0149612
883.687	0.0148640
883.765	0.0149654
883.843	0.0149088
883.921	0.0148625
883.999	0.0148666
884.078	0.0150475
884.156	0.0148946
884.234	0.0149659
884.312	0.0148335
884.390	0.0149579
884.468	0.0149258
884.546	0.0149854
884.624	0.0149073
884.703	0.0149890
884.781	0.0148689
884.859	0.0148673
884.937	0.0147952
885.015	0.0147903
885.093	0.0148538
885.171	0.0148736
885.249	0.0148890
885.328	0.0150174
885.406	0.0149177
885.484	0.0147750
885.562	0.0149002
885.640	0.0147917
885.718	0.0148638
885.796	0.0149727
885.874	0.0149915
885.953	0.0149905
886.031	0.0150613
886.109	0.0148877
886.187	0.0148777
886.265	0.0147505
886.343	0.0147257
886.421	0.0149217
886.499	0.0147390
886.578	0.0149594
886.656	0.0149659
886.734	0.0149456
886.812	0.0148023
886.890	0.0148415
886.968	0.0147646
887.046	0.0149041
887.124	0.0148365
887.203	0.0149273
887.281	0.0150442
887.359	0.0148772
887.437	0.0150404
887.515	0.0149203
887.593	0.0148862
887.671	0.0148119
887.749	0.0147861
887.828	0.0148301
887.906	0.0149979
887.984	0.0148363
888.062	0.0148874
888.140	0.0148489
888.218	0.0147952
888.296	0.0147952
888.374	0.0148759
888.453	0.0150407
888.531	0.0148206
888.609	0.0147330
888.687	0.0148570
888.765	0.0147352
888.843	0.0148412
888.921	0.0149010
888.999	0.0148363
889.078	0.0150172
889.156	0.0148875
889.234	0.0147765
889.312	0.0147628
889.390	0.0148997
889.468	0.0149723
889.546	0.0149270
889.624	0.0149512
889.703	0.0149036
889.781	0.0148380
889.859	0.0148208
889.937	0.0149306
890.015	0.0150453
890.093	0.0148663
890.171	0.0150120
890.249	0.0148868
890.328	0.0150405
890.406	0.0149119
890.484	0.0149017
890.562	0.0150452
890.640	0.0148872
890.718	0.0148381
890.796	0.0149367
890.874	0.0149386
890.953	0.0149400
891.031	0.0150150
891.109	0.0148862
891.187	0.0149279
891.265	0.0149309
891.343	0.0147245
891.421	0.0149471
891.499	0.0149852
891.578	0.0148425
891.656	0.0148833
891.734	0.0150066
891.812	0.0149766
891.890	0.0148455
891.968	0.0149094
892.046	0.0148682
892.124	0.0148247
892.203	0.0148536
892.281	0.0148741
892.359	0.0147844
892.437	0.0148001
892.515	0.0147549
892.593	0.0148090
892.671	0.0149577
892.749	0.0149496
892.828	0.0147576
892.906	0.0148869
892.984	0.0148751
893.062	0.0147385
893.140	0.0147212
893.218	0.0148682
893.296	0.0146947
893.374	0.0148116
893.453	0.0147760
893.531	0.0148536
893.609	0.0148019
893.687	0.0148544
893.765	0.0148571
893.843	0.0148829
893.921	0.0148809
893.999	0.0150063
894.078	0.0149146
894.156	0.0149644
894.234	0.0150808
894.312	0.0150867
894.390	0.0149929
894.468	0.0149667
894.546	0.0150104
894.624	0.0150163
894.703	0.0148497
894.781	0.0147371
894.859	0.0149068
894.937	0.0147643
895.015	0.0147963
895.093	0.0148972
895.171	0.0149487
895.249	0.0148695
895.328	0.0148454
895.406	0.0149159
895.484	0.0147977
895.562	0.0148312
895.640	0.0147663
895.718	0.0147958
895.796	0.0148891
895.874	0.0148410
895.953	0.0148927
896.031	0.0148219
896.109	0.0149040
896.187	0.0149725
896.265	0.0149500
896.343	0.0149043
896.421	0.0149442
896.499	0.0147334
896.578	0.0148357
896.656	0.0148354
896.734	0.0147627
896.812	0.0148315
896.890	0.0148245
896.968	0.0149193
897.046	0.0148990
897.124	0.0146763
897.203	0.0147362
897.281	0.0148357
897.359	0.0148677
897.437	0.0148077
897.515	0.0147881
897.593	0.0147591
897.671	0.0147968
897.749	0.0147723
897.828	0.0148448
897.906	0.0149253
897.984	0.0147716
898.062	0.0149382
898.140	0.0148836
898.218	0.0146196
898.296	0.0147392
898.374	0.0149688
898.453	0.0148306
898.531	0.0147931
898.609	0.0147861
898.687	0.0148060
898.765	0.0148820
898.843	0.0149876
898.921	0.0147981
898.999	0.0148490
899.078	0.0149541
899.156	0.0148694
899.234	0.0150381
899.312	0.0149323
899.390	0.0150397
899.468	0.0150020
899.546	0.0149929
899.624	0.0149223
899.703	0.0149367
899.781	0.0149633
899.859	0.0149713
899.937	0.0150726
900.015	0.0150078
900.093	0.0150273
900.171	0.0149277
900.249	0.0149572
900.328	0.0149880
900.406	0.0148511
900.484	0.0147898
900.562	0.0148133
900.640	0.0148710
900.718	0.0148084
900.796	0.0147790
900.874	0.0147357
900.953	0.0147182
901.031	0.0148149
901.109	0.0148410
901.187	0.0146865
901.265	0.0147868
901.343	0.0149711
901.421	0.0147742
901.499	0.0146436
901.578	0.0149020
901.656	0.0148453
901.734	0.0147306
901.812	0.0148354
901.890	0.0148876
901.968	0.0148042
902.046	0.0149756
902.124	0.0148571
902.203	0.0149577
902.281	0.0148838
902.359	0.0149744
902.437	0.0149200
902.515	0.0148381
902.593	0.0148726
902.671	0.0148709
902.749	0.0148686
902.828	0.0148595
902.906	0.0149893
902.984	0.0147794
903.062	0.0147430
903.140	0.0148203
903.218	0.0148492
903.296	0.0149242
903.374	0.0147631
903.453	0.0148861
903.531	0.0148898
903.609	0.0148060
903.687	0.0147234
903.765	0.0148687
903.843	0.0148737
903.921	0.0148039
903.999	0.0150172
904.078	0.0149200
904.156	0.0149087
904.234	0.0149947
904.312	0.0149079
904.390	0.0148616
904.468	0.0149635
904.546	0.0149785
904.624	0.0148271
904.703	0.0148941
904.781	0.0149158
904.859	0.0148009
904.937	0.0148804
905.015	0.0148961
905.093	0.0148753
905.171	0.0148166
905.249	0.0148310
905.328	0.0149961
905.406	0.0150063
905.484	0.0149232
905.562	0.0146709
905.640	0.0147355
905.718	0.0148375
905.796	0.0148415
905.874	0.0148741
905.953	0.0148114
906.031	0.0147005
906.109	0.0147425
906.187	0.0147648
906.265	0.0146523
906.343	0.0146445
906.421	0.0148710
906.499	0.0148244
906.578	0.0148291
906.656	0.0147591
906.734	0.0146746
906.812	0.0148112
906.890	0.0147286
906.968	0.0148339
907.046	0.0148937
907.124	0.0151018
907.203	0.0148684
907.281	0.0148717
907.359	0.0150459
907.437	0.0149121
907.515	0.0149695
907.593	0.0150793
907.671	0.0149335
907.749	0.0149656
907.828	0.0149441
907.906	0.0149756
907.984	0.0149685
908.062	0.0150755
908.140	0.0148521
908.218	0.0151057
908.296	0.0149474
908.374	0.0149373
908.453	0.0148362
908.531	0.0147417
908.609	0.0149268
908.687	0.0148523
908.765	0.0148499
908.843	0.0148920
908.921	0.0150103
908.999	0.0148689
909.078	0.0148339
909.156	0.0149370
909.234	0.0147959
909.312	0.0148238
909.390	0.0148856
909.468	0.0149241
909.546	0.0148876
909.624	0.0147881
909.703	0.0148865
909.781	0.0149025
909.859	0.0149580
909.937	0.0149673
910.015	0.0150569
910.093	0.0149754
910.171	0.0149783
910.249	0.0149095
910.328	0.0149694
910.406	0.0148703
910.484	0.0149253
910.562	0.0149355
910.640	0.0150114
910.718	0.0149666
910.796	0.0149107
910.874	0.0148576
910.953	0.0148256
911.031	0.0148556
911.109	0.0148581
911.187	0.0148184
911.265	0.0148612
911.343	0.0148846
911.421	0.0148179
911.499	0.0148710
911.578	0.0148028
911.656	0.0148078
911.734	0.0149231
911.812	0.0148557
911.890	0.0147656
911.968	0.0148442
912.046	0.0148003
912.124	0.0148914
912.203	0.0149571
912.281	0.0149196
912.359	0.0148454
912.437	0.0148203
912.515	0.0149761
912.593	0.0150127
912.671	0.0149374
912.749	0.0148449
912.828	0.0149300
912.906	0.0149069
912.984	0.0147154
913.062	0.0148907
913.140	0.0148689
913.218	0.0147965
913.296	0.0149421
913.374	0.0149814
913.453	0.0148609
913.531	0.0149731
913.609	0.0148643
913.687	0.0150245
913.765	0.0148030
913.843	0.0150208
913.921	0.0150603
913.999	0.0147637
914.078	0.0148595
914.156	0.0148315
914.234	0.0148864
914.312	0.0149776
914.390	0.0148927
914.468	0.0149499
914.546	0.0148109
914.624	0.0148453
914.703	0.0148577
914.781	0.0148478
914.859	0.0146914
914.937	0.0148576
915.015	0.0148229
915.093	0.0148386
915.171	0.0146977
915.249	0.0147450
915.328	0.0148737
915.406	0.0148326
915.484	0.0148228
915.562	0.0149232
915.640	0.0147485
915.718	0.0146791
915.796	0.0147477
915.874	0.0146386
915.953	0.0147486
916.031	0.0148043
916.109	0.0147126
916.187	0.0147433
916.265	0.0146201
916.343	0.0146123
916.421	0.0149095
916.499	0.0147822
916.578	0.0147366
916.656	0.0147784
916.734	0.0148103
916.812	0.0147638
916.890	0.0147636
916.968	0.0148618
917.046	0.0148488
917.124	0.0148043
917.203	0.0147883
917.281	0.0147992
917.359	0.0148209
917.437	0.0147476
917.515	0.0148558
917.593	0.0148203
917.671	0.0148036
917.749	0.0148864
917.828	0.0148133
917.906	0.0148942
917.984	0.0148118
918.062	0.0146830
918.140	0.0148547
918.218	0.0148789
918.296	0.0146740
918.374	0.0147349
918.453	0.0148438
918.531	0.0146919
918.609	0.0148281
918.687	0.0147411
918.765	0.0148353
918.843	0.0148020
918.921	0.0149383
918.999	0.0147948
919.078	0.0148116
919.156	0.0148013
919.234	0.0148148
919.312	0.0148780
919.390	0.0147705
919.468	0.0147855
919.546	0.0148646
919.624	0.0148937
919.703	0.0148076
919.781	0.0147552
919.859	0.0148468
919.937	0.0148886
