05/06/2022	19:09:15	Ver.	4.1	UNKNOWN
Optical Delay	600.015094	Delta X		0.078125	Sweeps	1	Scan Rate	0/0
Coordinates	Axis 1	NaN	Axis 2	NaN	Axis 3	NaN	Axis 4	NaN	Axis 5	NaN	Axis 6	0.000000
TX Power	0.000000	RX Power	0.000000

600.015	0.0142389
600.093	0.0142664
600.171	0.0142645
600.249	0.0141648
600.328	0.0142728
600.406	0.0142844
600.484	0.0143216
600.562	0.0141695
600.640	0.0141939
600.718	0.0141631
600.796	0.0141908
600.874	0.0142177
600.953	0.0142226
601.031	0.0142215
601.109	0.0142527
601.187	0.0141423
601.265	0.0140633
601.343	0.0140688
601.421	0.0141842
601.499	0.0141077
601.578	0.0142387
601.656	0.0141055
601.734	0.0141447
601.812	0.0142491
601.890	0.0143215
601.968	0.0142092
602.046	0.0140985
602.124	0.0141893
602.203	0.0141322
602.281	0.0142271
602.359	0.0142690
602.437	0.0141737
602.515	0.0142592
602.593	0.0142134
602.671	0.0142116
602.749	0.0141949
602.828	0.0140633
602.906	0.0141325
602.984	0.0142975
603.062	0.0141831
603.140	0.0140479
603.218	0.0140679
603.296	0.0142456
603.374	0.0142733
603.453	0.0142503
603.531	0.0142551
603.609	0.0142123
603.687	0.0141740
603.765	0.0141395
603.843	0.0142046
603.921	0.0140903
603.999	0.0142009
604.078	0.0141810
604.156	0.0141011
604.234	0.0140643
604.312	0.0140957
604.390	0.0143158
604.468	0.0142990
604.546	0.0141457
604.624	0.0140854
604.703	0.0140731
604.781	0.0141955
604.859	0.0139117
604.937	0.0142619
605.015	0.0142123
605.093	0.0142718
605.171	0.0142687
605.249	0.0141002
605.328	0.0141838
605.406	0.0141326
605.484	0.0141361
605.562	0.0141472
605.640	0.0141537
605.718	0.0141878
605.796	0.0143085
605.874	0.0143129
605.953	0.0141348
606.031	0.0142080
606.109	0.0141190
606.187	0.0141261
606.265	0.0140498
606.343	0.0141412
606.421	0.0142113
606.499	0.0141866
606.578	0.0141969
606.656	0.0142343
606.734	0.0141026
606.812	0.0142104
606.890	0.0141548
606.968	0.0141303
607.046	0.0142259
607.124	0.0141870
607.203	0.0141474
607.281	0.0142365
607.359	0.0142434
607.437	0.0142644
607.515	0.0142932
607.593	0.0141680
607.671	0.0140760
607.749	0.0140341
607.828	0.0141869
607.906	0.0141324
607.984	0.0141181
608.062	0.0142546
608.140	0.0142356
608.218	0.0141953
608.296	0.0140742
608.374	0.0141847
608.453	0.0141306
608.531	0.0141714
608.609	0.0141103
608.687	0.0142896
608.765	0.0140758
608.843	0.0140758
608.921	0.0142612
608.999	0.0142923
609.078	0.0141005
609.156	0.0141538
609.234	0.0142624
609.312	0.0143346
609.390	0.0141383
609.468	0.0142326
609.546	0.0142393
609.624	0.0141199
609.703	0.0142831
609.781	0.0142133
609.859	0.0142992
609.937	0.0141019
610.015	0.0140251
610.093	0.0141869
610.171	0.0143077
610.249	0.0142204
610.328	0.0141719
610.406	0.0142102
610.484	0.0143867
610.562	0.0141830
610.640	0.0141599
610.718	0.0142847
610.796	0.0142924
610.874	0.0142073
610.953	0.0142561
611.031	0.0142238
611.109	0.0141905
611.187	0.0142912
611.265	0.0142150
611.343	0.0141569
611.421	0.0141743
611.499	0.0143407
611.578	0.0142457
611.656	0.0142483
611.734	0.0140951
611.812	0.0140503
611.890	0.0141821
611.968	0.0142610
612.046	0.0141666
612.124	0.0141912
612.203	0.0142682
612.281	0.0141882
612.359	0.0142744
612.437	0.0143132
612.515	0.0142188
612.593	0.0141390
612.671	0.0141396
612.749	0.0143534
612.828	0.0141541
612.906	0.0140439
612.984	0.0141347
613.062	0.0141818
613.140	0.0141704
613.218	0.0140488
613.296	0.0141363
613.374	0.0141760
613.453	0.0141508
613.531	0.0142660
613.609	0.0141055
613.687	0.0139952
613.765	0.0141167
613.843	0.0141899
613.921	0.0142786
613.999	0.0142815
614.078	0.0142002
614.156	0.0141416
614.234	0.0141088
614.312	0.0141970
614.390	0.0140758
614.468	0.0143105
614.546	0.0141984
614.624	0.0143238
614.703	0.0143232
614.781	0.0143162
614.859	0.0141862
614.937	0.0142205
615.015	0.0141496
615.093	0.0144407
615.171	0.0142110
615.249	0.0142704
615.328	0.0142065
615.406	0.0143340
615.484	0.0142516
615.562	0.0142443
615.640	0.0142245
615.718	0.0139907
615.796	0.0141833
615.874	0.0142748
615.953	0.0142494
616.031	0.0141770
616.109	0.0139925
616.187	0.0141082
616.265	0.0142058
616.343	0.0142485
616.421	0.0141927
616.499	0.0142088
616.578	0.0140496
616.656	0.0141746
616.734	0.0142705
616.812	0.0143483
616.890	0.0142792
616.968	0.0143100
617.046	0.0141422
617.124	0.0142352
617.203	0.0143729
617.281	0.0142071
617.359	0.0143701
617.437	0.0141912
617.515	0.0142683
617.593	0.0141764
617.671	0.0142237
617.749	0.0141639
617.828	0.0142019
617.906	0.0142480
617.984	0.0142173
618.062	0.0142791
618.140	0.0142843
618.218	0.0142528
618.296	0.0143082
618.374	0.0142978
618.453	0.0143391
618.531	0.0143233
618.609	0.0143637
618.687	0.0141930
618.765	0.0142359
618.843	0.0142593
618.921	0.0143472
618.999	0.0142942
619.078	0.0143451
619.156	0.0141679
619.234	0.0141759
619.312	0.0142755
619.390	0.0142358
619.468	0.0143024
619.546	0.0142347
619.624	0.0142332
619.703	0.0141634
619.781	0.0142834
619.859	0.0141584
619.937	0.0142596
620.015	0.0141577
620.093	0.0140919
620.171	0.0141558
620.249	0.0141954
620.328	0.0142628
620.406	0.0141202
620.484	0.0143240
620.562	0.0143484
620.640	0.0141654
620.718	0.0140269
620.796	0.0139875
620.874	0.0141335
620.953	0.0142612
621.031	0.0142369
621.109	0.0141739
621.187	0.0141116
621.265	0.0141799
621.343	0.0139658
621.421	0.0142703
621.499	0.0141832
621.578	0.0141359
621.656	0.0142203
621.734	0.0141761
621.812	0.0140930
621.890	0.0141947
621.968	0.0141272
622.046	0.0142393
622.124	0.0142555
622.203	0.0143916
622.281	0.0142720
622.359	0.0142372
622.437	0.0139383
622.515	0.0142487
622.593	0.0142473
622.671	0.0141344
622.749	0.0141187
622.828	0.0141471
622.906	0.0140626
622.984	0.0140361
623.062	0.0142439
623.140	0.0142493
623.218	0.0142012
623.296	0.0142248
623.374	0.0141354
623.453	0.0140554
623.531	0.0140870
623.609	0.0140899
623.687	0.0140984
623.765	0.0141409
623.843	0.0141299
623.921	0.0140968
623.999	0.0142334
624.078	0.0141807
624.156	0.0141345
624.234	0.0141458
624.312	0.0140841
624.390	0.0142426
624.468	0.0140142
624.546	0.0140867
624.624	0.0141879
624.703	0.0141759
624.781	0.0141881
624.859	0.0141821
624.937	0.0140421
625.015	0.0140968
625.093	0.0141453
625.171	0.0140807
625.249	0.0141432
625.328	0.0141402
625.406	0.0141374
625.484	0.0141312
625.562	0.0141449
625.640	0.0142155
625.718	0.0140195
625.796	0.0141210
625.874	0.0141099
625.953	0.0142807
626.031	0.0141239
626.109	0.0140474
626.187	0.0142592
626.265	0.0141913
626.343	0.0142224
626.421	0.0141919
626.499	0.0142223
626.578	0.0142582
626.656	0.0142852
626.734	0.0142197
626.812	0.0141601
626.890	0.0142003
626.968	0.0142064
627.046	0.0142030
627.124	0.0141871
627.203	0.0141515
627.281	0.0141454
627.359	0.0141187
627.437	0.0140144
627.515	0.0141244
627.593	0.0141229
627.671	0.0141862
627.749	0.0141261
627.828	0.0141409
627.906	0.0141130
627.984	0.0142043
628.062	0.0141640
628.140	0.0142248
628.218	0.0140276
628.296	0.0141996
628.374	0.0141467
628.453	0.0140874
628.531	0.0142146
628.609	0.0142668
628.687	0.0142617
628.765	0.0142770
628.843	0.0141947
628.921	0.0141276
628.999	0.0141592
629.078	0.0141830
629.156	0.0141215
629.234	0.0141592
629.312	0.0142790
629.390	0.0141668
629.468	0.0141694
629.546	0.0142619
629.624	0.0141461
629.703	0.0142023
629.781	0.0142805
629.859	0.0140955
629.937	0.0141048
630.015	0.0142120
630.093	0.0141785
630.171	0.0141180
630.249	0.0141080
630.328	0.0142006
630.406	0.0142761
630.484	0.0142246
630.562	0.0142678
630.640	0.0141879
630.718	0.0141808
630.796	0.0141835
630.874	0.0142223
630.953	0.0142843
631.031	0.0142416
631.109	0.0142384
631.187	0.0141962
631.265	0.0141559
631.343	0.0139657
631.421	0.0143287
631.499	0.0141972
631.578	0.0140047
631.656	0.0141353
631.734	0.0141207
631.812	0.0142097
631.890	0.0141373
631.968	0.0141235
632.046	0.0142569
632.124	0.0142030
632.203	0.0141692
632.281	0.0141898
632.359	0.0142408
632.437	0.0142467
632.515	0.0142828
632.593	0.0143100
632.671	0.0142634
632.749	0.0143027
632.828	0.0142310
632.906	0.0142680
632.984	0.0143318
633.062	0.0143615
633.140	0.0143731
633.218	0.0142445
633.296	0.0143362
633.374	0.0144302
633.453	0.0142862
633.531	0.0142766
633.609	0.0143153
633.687	0.0143992
633.765	0.0144813
633.843	0.0142604
633.921	0.0143172
633.999	0.0142620
634.078	0.0143085
634.156	0.0142556
634.234	0.0143766
634.312	0.0141844
634.390	0.0141608
634.468	0.0141596
634.546	0.0141578
634.624	0.0141995
634.703	0.0141853
634.781	0.0141327
634.859	0.0142863
634.937	0.0143732
635.015	0.0142758
635.093	0.0141716
635.171	0.0141838
635.249	0.0141877
635.328	0.0141465
635.406	0.0140891
635.484	0.0142543
635.562	0.0141890
635.640	0.0142246
635.718	0.0143029
635.796	0.0141004
635.874	0.0140611
635.953	0.0141953
636.031	0.0141622
636.109	0.0140965
636.187	0.0141583
636.265	0.0142560
636.343	0.0143039
636.421	0.0142587
636.499	0.0143275
636.578	0.0141836
636.656	0.0142278
636.734	0.0142532
636.812	0.0142803
636.890	0.0142822
636.968	0.0142086
637.046	0.0143126
637.124	0.0142504
637.203	0.0141322
637.281	0.0143422
637.359	0.0142132
637.437	0.0141010
637.515	0.0142416
637.593	0.0142035
637.671	0.0142461
637.749	0.0142413
637.828	0.0141093
637.906	0.0141365
637.984	0.0142396
638.062	0.0142178
638.140	0.0140527
638.218	0.0140994
638.296	0.0142185
638.374	0.0140562
638.453	0.0142316
638.531	0.0142009
638.609	0.0142648
638.687	0.0142062
638.765	0.0142876
638.843	0.0143102
638.921	0.0144190
638.999	0.0142310
639.078	0.0142295
639.156	0.0144006
639.234	0.0143353
639.312	0.0142788
639.390	0.0142166
639.468	0.0143099
639.546	0.0143134
639.624	0.0143579
639.703	0.0142207
639.781	0.0141782
639.859	0.0142148
639.937	0.0143118
640.015	0.0141901
640.093	0.0140951
640.171	0.0142249
640.249	0.0141211
640.328	0.0143056
640.406	0.0141474
640.484	0.0141103
640.562	0.0142761
640.640	0.0143589
640.718	0.0141596
640.796	0.0142229
640.874	0.0143621
640.953	0.0143435
641.031	0.0143151
641.109	0.0141579
641.187	0.0142425
641.265	0.0142066
641.343	0.0142104
641.421	0.0141341
641.499	0.0140163
641.578	0.0140038
641.656	0.0139884
641.734	0.0140553
641.812	0.0141005
641.890	0.0139662
641.968	0.0140693
642.046	0.0142091
642.124	0.0141385
642.203	0.0139651
642.281	0.0140411
642.359	0.0140659
642.437	0.0141850
642.515	0.0140782
642.593	0.0142198
642.671	0.0141181
642.749	0.0141604
642.828	0.0140288
642.906	0.0140536
642.984	0.0140491
643.062	0.0142706
643.140	0.0142534
643.218	0.0142276
643.296	0.0141530
643.374	0.0141667
643.453	0.0141495
643.531	0.0141118
643.609	0.0141239
643.687	0.0142883
643.765	0.0143201
643.843	0.0140837
643.921	0.0143085
643.999	0.0141512
644.078	0.0141684
644.156	0.0140336
644.234	0.0141389
644.312	0.0140665
644.390	0.0140495
644.468	0.0141624
644.546	0.0141303
644.624	0.0140225
644.703	0.0140166
644.781	0.0140604
644.859	0.0142455
644.937	0.0142284
645.015	0.0141376
645.093	0.0142400
645.171	0.0141699
645.249	0.0142673
645.328	0.0143654
645.406	0.0144042
645.484	0.0142641
645.562	0.0143053
645.640	0.0143645
645.718	0.0143379
645.796	0.0143752
645.874	0.0144881
645.953	0.0144881
646.031	0.0143230
646.109	0.0143952
646.187	0.0144810
646.265	0.0142776
646.343	0.0141723
646.421	0.0141904
646.499	0.0141319
646.578	0.0141376
646.656	0.0142139
646.734	0.0142226
646.812	0.0140813
646.890	0.0141387
646.968	0.0139518
647.046	0.0141644
647.124	0.0140447
647.203	0.0142335
647.281	0.0141739
647.359	0.0139855
647.437	0.0141311
647.515	0.0142748
647.593	0.0143208
647.671	0.0143346
647.749	0.0143348
647.828	0.0143420
647.906	0.0142911
647.984	0.0142653
648.062	0.0144379
648.140	0.0144003
648.218	0.0143463
648.296	0.0144763
648.374	0.0144577
648.453	0.0146472
648.531	0.0145053
648.609	0.0144582
648.687	0.0144632
648.765	0.0144066
648.843	0.0143560
648.921	0.0143279
648.999	0.0143353
649.078	0.0143130
649.156	0.0143111
649.234	0.0143065
649.312	0.0143097
649.390	0.0141474
649.468	0.0141804
649.546	0.0142257
649.624	0.0140286
649.703	0.0141368
649.781	0.0142654
649.859	0.0139906
649.937	0.0140587
650.015	0.0140769
650.093	0.0141773
650.171	0.0141733
650.249	0.0141171
650.328	0.0143718
650.406	0.0142888
650.484	0.0143261
650.562	0.0142437
650.640	0.0143137
650.718	0.0144394
650.796	0.0144791
650.874	0.0146869
650.953	0.0146661
651.031	0.0147411
651.109	0.0146514
651.187	0.0146314
651.265	0.0145905
651.343	0.0146185
651.421	0.0146720
651.499	0.0146906
651.578	0.0144934
651.656	0.0145229
651.734	0.0145761
651.812	0.0145065
651.890	0.0143636
651.968	0.0144148
652.046	0.0141791
652.124	0.0142863
652.203	0.0143518
652.281	0.0140802
652.359	0.0140892
652.437	0.0142216
652.515	0.0140901
652.593	0.0139835
652.671	0.0139693
652.749	0.0139623
652.828	0.0141270
652.906	0.0140685
652.984	0.0139423
653.062	0.0141185
653.140	0.0140292
653.218	0.0140567
653.296	0.0141172
653.374	0.0141756
653.453	0.0142046
653.531	0.0142829
653.609	0.0142920
653.687	0.0142933
653.765	0.0143794
653.843	0.0144135
653.921	0.0143974
653.999	0.0145268
654.078	0.0146049
654.156	0.0145467
654.234	0.0145563
654.312	0.0146326
654.390	0.0145972
654.468	0.0145150
654.546	0.0145868
654.624	0.0145181
654.703	0.0144199
654.781	0.0143687
654.859	0.0142342
654.937	0.0143550
655.015	0.0140948
655.093	0.0139816
655.171	0.0139169
655.249	0.0139455
655.328	0.0138736
655.406	0.0138000
655.484	0.0138345
655.562	0.0137659
655.640	0.0137476
655.718	0.0137924
655.796	0.0138373
655.874	0.0139909
655.953	0.0139201
656.031	0.0141171
656.109	0.0143014
656.187	0.0143072
656.265	0.0143595
656.343	0.0145486
656.421	0.0146598
656.499	0.0145313
656.578	0.0144672
656.656	0.0144679
656.734	0.0145333
656.812	0.0143130
656.890	0.0144244
656.968	0.0142292
657.046	0.0142364
657.124	0.0141981
657.203	0.0140969
657.281	0.0138580
657.359	0.0139117
657.437	0.0139317
657.515	0.0137801
657.593	0.0137969
657.671	0.0138918
657.749	0.0136486
657.828	0.0136393
657.906	0.0136475
657.984	0.0138160
658.062	0.0139967
658.140	0.0138586
658.218	0.0140305
658.296	0.0140907
658.374	0.0142776
658.453	0.0143711
658.531	0.0145345
658.609	0.0145493
658.687	0.0145727
658.765	0.0144560
658.843	0.0146609
658.921	0.0146680
658.999	0.0146510
659.078	0.0146078
659.156	0.0146091
659.234	0.0146289
659.312	0.0144994
659.390	0.0146006
659.468	0.0145478
659.546	0.0144119
659.624	0.0143697
659.703	0.0141975
659.781	0.0142182
659.859	0.0142614
659.937	0.0142276
660.015	0.0141953
660.093	0.0140607
660.171	0.0140622
660.249	0.0139379
660.328	0.0141316
660.406	0.0141233
660.484	0.0140923
660.562	0.0140913
660.640	0.0141722
660.718	0.0142139
660.796	0.0141389
660.874	0.0142973
660.953	0.0141944
661.031	0.0141926
661.109	0.0142453
661.187	0.0144073
661.265	0.0142547
661.343	0.0141583
661.421	0.0143069
661.499	0.0143267
661.578	0.0142929
661.656	0.0142667
661.734	0.0141312
661.812	0.0141051
661.890	0.0140971
661.968	0.0140533
662.046	0.0140991
662.124	0.0140308
662.203	0.0139482
662.281	0.0139830
662.359	0.0139087
662.437	0.0139733
662.515	0.0140318
662.593	0.0139645
662.671	0.0139368
662.749	0.0142597
662.828	0.0142188
662.906	0.0142432
662.984	0.0143800
663.062	0.0143960
663.140	0.0144589
663.218	0.0144416
663.296	0.0145715
663.374	0.0145967
663.453	0.0144671
663.531	0.0144298
663.609	0.0143861
663.687	0.0143333
663.765	0.0143647
663.843	0.0143037
663.921	0.0142524
663.999	0.0142254
664.078	0.0142288
664.156	0.0141685
664.234	0.0140619
664.312	0.0141695
664.390	0.0141669
664.468	0.0140933
664.546	0.0141438
664.624	0.0140780
664.703	0.0141854
664.781	0.0142055
664.859	0.0141315
664.937	0.0142002
665.015	0.0140939
665.093	0.0142773
665.171	0.0141080
665.249	0.0142120
665.328	0.0140514
665.406	0.0139172
665.484	0.0140225
665.562	0.0139253
665.640	0.0138674
665.718	0.0138432
665.796	0.0138927
665.874	0.0138831
665.953	0.0138882
666.031	0.0139153
666.109	0.0139088
666.187	0.0138863
666.265	0.0140367
666.343	0.0141693
666.421	0.0142706
666.499	0.0143120
666.578	0.0144131
666.656	0.0144350
666.734	0.0146095
666.812	0.0145937
666.890	0.0146323
666.968	0.0145187
667.046	0.0145044
667.124	0.0145614
667.203	0.0146466
667.281	0.0145303
667.359	0.0145325
667.437	0.0143585
667.515	0.0143640
667.593	0.0144286
667.671	0.0145590
667.749	0.0144660
667.828	0.0142540
667.906	0.0141763
667.984	0.0141423
668.062	0.0139394
668.140	0.0141322
668.218	0.0140124
668.296	0.0140218
668.374	0.0139241
668.453	0.0139758
668.531	0.0142390
668.609	0.0140374
668.687	0.0141422
668.765	0.0140876
668.843	0.0141712
668.921	0.0143079
668.999	0.0142277
669.078	0.0142820
669.156	0.0141702
669.234	0.0142856
669.312	0.0144981
669.390	0.0144563
669.468	0.0145538
669.546	0.0146243
669.624	0.0144846
669.703	0.0147649
669.781	0.0146159
669.859	0.0145960
669.937	0.0145805
670.015	0.0143916
670.093	0.0144786
670.171	0.0145101
670.249	0.0143040
670.328	0.0141554
670.406	0.0142199
670.484	0.0139945
670.562	0.0138708
670.640	0.0138413
670.718	0.0139423
670.796	0.0136622
670.874	0.0138285
670.953	0.0138732
671.031	0.0139008
671.109	0.0139478
671.187	0.0139644
671.265	0.0141750
671.343	0.0143021
671.421	0.0143414
671.499	0.0145411
671.578	0.0146143
671.656	0.0146938
671.734	0.0149053
671.812	0.0148417
671.890	0.0150169
671.968	0.0149702
672.046	0.0150104
672.124	0.0149744
672.203	0.0148273
672.281	0.0147981
672.359	0.0146597
672.437	0.0145655
672.515	0.0143457
672.593	0.0142673
672.671	0.0140598
672.749	0.0139336
672.828	0.0137305
672.906	0.0136930
672.984	0.0135249
673.062	0.0134250
673.140	0.0133875
673.218	0.0133091
673.296	0.0134843
673.374	0.0135954
673.453	0.0134692
673.531	0.0136761
673.609	0.0136913
673.687	0.0137664
673.765	0.0139730
673.843	0.0140543
673.921	0.0142249
673.999	0.0142583
674.078	0.0142670
674.156	0.0144907
674.234	0.0144292
674.312	0.0145855
674.390	0.0146214
674.468	0.0144382
674.546	0.0146301
674.624	0.0145511
674.703	0.0144546
674.781	0.0143839
674.859	0.0142731
674.937	0.0141432
675.015	0.0142090
675.093	0.0142780
675.171	0.0142956
675.249	0.0141806
675.328	0.0139665
675.406	0.0142080
675.484	0.0142069
675.562	0.0142207
675.640	0.0142135
675.718	0.0141711
675.796	0.0142344
675.874	0.0142582
675.953	0.0142130
676.031	0.0142487
676.109	0.0142154
676.187	0.0142706
676.265	0.0143613
676.343	0.0144080
676.421	0.0143570
676.499	0.0142924
676.578	0.0144932
676.656	0.0143408
676.734	0.0143653
676.812	0.0142255
676.890	0.0143483
676.968	0.0143657
677.046	0.0143404
677.124	0.0142474
677.203	0.0143261
677.281	0.0141280
677.359	0.0141312
677.437	0.0139463
677.515	0.0139820
677.593	0.0138741
677.671	0.0139301
677.749	0.0139463
677.828	0.0138173
677.906	0.0138837
677.984	0.0139120
678.062	0.0140707
678.140	0.0139031
678.218	0.0139832
678.296	0.0140702
678.374	0.0140825
678.453	0.0142065
678.531	0.0142793
678.609	0.0141919
678.687	0.0142941
678.765	0.0143137
678.843	0.0142854
678.921	0.0143602
678.999	0.0142681
679.078	0.0140808
679.156	0.0141504
679.234	0.0141946
679.312	0.0141428
679.390	0.0140855
679.468	0.0140314
679.546	0.0141184
679.624	0.0141364
679.703	0.0141801
679.781	0.0142179
679.859	0.0142005
679.937	0.0143179
680.015	0.0144272
680.093	0.0143887
680.171	0.0144099
680.249	0.0146722
680.328	0.0145861
680.406	0.0146036
680.484	0.0146149
680.562	0.0145337
680.640	0.0144592
680.718	0.0145753
680.796	0.0144317
680.874	0.0143913
680.953	0.0143001
681.031	0.0141786
681.109	0.0140789
681.187	0.0141773
681.265	0.0141995
681.343	0.0140301
681.421	0.0138566
681.499	0.0139767
681.578	0.0140292
681.656	0.0139249
681.734	0.0141808
681.812	0.0139905
681.890	0.0140333
681.968	0.0142425
682.046	0.0142651
682.124	0.0143866
682.203	0.0143826
682.281	0.0144608
682.359	0.0145612
682.437	0.0145525
682.515	0.0144003
682.593	0.0144834
682.671	0.0145914
682.749	0.0144508
682.828	0.0143340
682.906	0.0142960
682.984	0.0141994
683.062	0.0143246
683.140	0.0141812
683.218	0.0141967
683.296	0.0142254
683.374	0.0141779
683.453	0.0141470
683.531	0.0140614
683.609	0.0141358
683.687	0.0141524
683.765	0.0141110
683.843	0.0141560
683.921	0.0139703
683.999	0.0141290
684.078	0.0142947
684.156	0.0142542
684.234	0.0141531
684.312	0.0142519
684.390	0.0141915
684.468	0.0143055
684.546	0.0143353
684.624	0.0143710
684.703	0.0143945
684.781	0.0143201
684.859	0.0143959
684.937	0.0145345
685.015	0.0143875
685.093	0.0142648
685.171	0.0143135
685.249	0.0144034
685.328	0.0143854
685.406	0.0143092
685.484	0.0142870
685.562	0.0142162
685.640	0.0141476
685.718	0.0140046
685.796	0.0140800
685.874	0.0139984
685.953	0.0139986
686.031	0.0137979
686.109	0.0139195
686.187	0.0138679
686.265	0.0139822
686.343	0.0139028
686.421	0.0138158
686.499	0.0139875
686.578	0.0141293
686.656	0.0141044
686.734	0.0142256
686.812	0.0142058
686.890	0.0142516
686.968	0.0142822
687.046	0.0144984
687.124	0.0143855
687.203	0.0144341
687.281	0.0144153
687.359	0.0144569
687.437	0.0146055
687.515	0.0145127
687.593	0.0143457
687.671	0.0143494
687.749	0.0143154
687.828	0.0142387
687.906	0.0142657
687.984	0.0143052
688.062	0.0141600
688.140	0.0141720
688.218	0.0141453
688.296	0.0142397
688.374	0.0142788
688.453	0.0143517
688.531	0.0142077
688.609	0.0142403
688.687	0.0144743
688.765	0.0144289
688.843	0.0143795
688.921	0.0142619
688.999	0.0141647
689.078	0.0143290
689.156	0.0144432
689.234	0.0143235
689.312	0.0142019
689.390	0.0142110
689.468	0.0141531
689.546	0.0139428
689.624	0.0141258
689.703	0.0141405
689.781	0.0141298
689.859	0.0140565
689.937	0.0140715
690.015	0.0141234
690.093	0.0140966
690.171	0.0141516
690.249	0.0141057
690.328	0.0142537
690.406	0.0143151
690.484	0.0142403
690.562	0.0142816
690.640	0.0142835
690.718	0.0143758
690.796	0.0144922
690.874	0.0143678
690.953	0.0143349
691.031	0.0143929
691.109	0.0144024
691.187	0.0144182
691.265	0.0143530
691.343	0.0141795
691.421	0.0142467
691.499	0.0141475
691.578	0.0141155
691.656	0.0140636
691.734	0.0140898
691.812	0.0138954
691.890	0.0140756
691.968	0.0141247
692.046	0.0140472
692.124	0.0140480
692.203	0.0140352
692.281	0.0142088
692.359	0.0141186
692.437	0.0141336
692.515	0.0142185
692.593	0.0141423
692.671	0.0143785
692.749	0.0143636
692.828	0.0142357
692.906	0.0143362
692.984	0.0144382
693.062	0.0143990
693.140	0.0145016
693.218	0.0143472
693.296	0.0143661
693.374	0.0145905
693.453	0.0146006
693.531	0.0143008
693.609	0.0143038
693.687	0.0142629
693.765	0.0141878
693.843	0.0143282
693.921	0.0141611
693.999	0.0140979
694.078	0.0141909
694.156	0.0139976
694.234	0.0139246
694.312	0.0139587
694.390	0.0138201
694.468	0.0138926
694.546	0.0137643
694.624	0.0138202
694.703	0.0139365
694.781	0.0139437
694.859	0.0139046
694.937	0.0140150
695.015	0.0140247
695.093	0.0140170
695.171	0.0140952
695.249	0.0143243
695.328	0.0144220
695.406	0.0144833
695.484	0.0144331
695.562	0.0144062
695.640	0.0145914
695.718	0.0145725
695.796	0.0145905
695.874	0.0142878
695.953	0.0144238
696.031	0.0143655
696.109	0.0143510
696.187	0.0144083
696.265	0.0142062
696.343	0.0141009
696.421	0.0140571
696.499	0.0140306
696.578	0.0139610
696.656	0.0140268
696.734	0.0140369
696.812	0.0139568
696.890	0.0139827
696.968	0.0140115
697.046	0.0140456
697.124	0.0140376
697.203	0.0141183
697.281	0.0142299
697.359	0.0142228
697.437	0.0141506
697.515	0.0141991
697.593	0.0144919
697.671	0.0144595
697.749	0.0143356
697.828	0.0144022
697.906	0.0144489
697.984	0.0142973
698.062	0.0141711
698.140	0.0142090
698.218	0.0142141
698.296	0.0140955
698.374	0.0141515
698.453	0.0141996
698.531	0.0141685
698.609	0.0142125
698.687	0.0140437
698.765	0.0142565
698.843	0.0141541
698.921	0.0142908
698.999	0.0142555
699.078	0.0141711
699.156	0.0141571
699.234	0.0142669
699.312	0.0139959
699.390	0.0140359
699.468	0.0140418
699.546	0.0139050
699.624	0.0139735
699.703	0.0139353
699.781	0.0139432
699.859	0.0138702
699.937	0.0142319
700.015	0.0141753
700.093	0.0140299
700.171	0.0140670
700.249	0.0140908
700.328	0.0139635
700.406	0.0141425
700.484	0.0141071
700.562	0.0140648
700.640	0.0142314
700.718	0.0142851
700.796	0.0143023
700.874	0.0143459
700.953	0.0143916
701.031	0.0144981
701.109	0.0144807
701.187	0.0142825
701.265	0.0143745
701.343	0.0142670
701.421	0.0144326
701.499	0.0143911
701.578	0.0143865
701.656	0.0142982
701.734	0.0142951
701.812	0.0142665
701.890	0.0141269
701.968	0.0141078
702.046	0.0141035
702.124	0.0141922
702.203	0.0140896
702.281	0.0142093
702.359	0.0140434
702.437	0.0140074
702.515	0.0140310
702.593	0.0142313
702.671	0.0141206
702.749	0.0140934
702.828	0.0141585
702.906	0.0141744
702.984	0.0142563
703.062	0.0141833
703.140	0.0142656
703.218	0.0142191
703.296	0.0141110
703.374	0.0141515
703.453	0.0142725
703.531	0.0142216
703.609	0.0143148
703.687	0.0141992
703.765	0.0142556
703.843	0.0143956
703.921	0.0143963
703.999	0.0144993
704.078	0.0144432
704.156	0.0143625
704.234	0.0145378
704.312	0.0142764
704.390	0.0143935
704.468	0.0142422
704.546	0.0142438
704.624	0.0142754
704.703	0.0141473
704.781	0.0139516
704.859	0.0139240
704.937	0.0138654
705.015	0.0138624
705.093	0.0138260
705.171	0.0137939
705.249	0.0138528
705.328	0.0137868
705.406	0.0139268
705.484	0.0139190
705.562	0.0140228
705.640	0.0140585
705.718	0.0139990
705.796	0.0141889
705.874	0.0143017
705.953	0.0144745
706.031	0.0144884
706.109	0.0145104
706.187	0.0145936
706.265	0.0146509
706.343	0.0145883
706.421	0.0144939
706.499	0.0145166
706.578	0.0145346
706.656	0.0144510
706.734	0.0145293
706.812	0.0142534
706.890	0.0141953
706.968	0.0142514
707.046	0.0141142
707.124	0.0140285
707.203	0.0141052
707.281	0.0140495
707.359	0.0140963
707.437	0.0140176
707.515	0.0140417
707.593	0.0140427
707.671	0.0142540
707.749	0.0142446
707.828	0.0142661
707.906	0.0142431
707.984	0.0142901
708.062	0.0143232
708.140	0.0142875
708.218	0.0143611
708.296	0.0143612
708.374	0.0143893
708.453	0.0145014
708.531	0.0144416
708.609	0.0144742
708.687	0.0142248
708.765	0.0143449
708.843	0.0143561
708.921	0.0142787
708.999	0.0142153
709.078	0.0142220
709.156	0.0142477
709.234	0.0141381
709.312	0.0141094
709.390	0.0140128
709.468	0.0140479
709.546	0.0140260
709.624	0.0139680
709.703	0.0141168
709.781	0.0143365
709.859	0.0142027
709.937	0.0141003
710.015	0.0141570
710.093	0.0142812
710.171	0.0142231
710.249	0.0143430
710.328	0.0141784
710.406	0.0141018
710.484	0.0142249
710.562	0.0140260
710.640	0.0139816
710.718	0.0140454
710.796	0.0141605
710.874	0.0141244
710.953	0.0140288
711.031	0.0141074
711.109	0.0142332
711.187	0.0143323
711.265	0.0144414
711.343	0.0145264
711.421	0.0147034
711.499	0.0145442
711.578	0.0145971
711.656	0.0146098
711.734	0.0147571
711.812	0.0146255
711.890	0.0144868
711.968	0.0144643
712.046	0.0144828
712.124	0.0144189
712.203	0.0144440
712.281	0.0143642
712.359	0.0143426
712.437	0.0144727
712.515	0.0142064
712.593	0.0141703
712.671	0.0141100
712.749	0.0142136
712.828	0.0139326
712.906	0.0140420
712.984	0.0140629
713.062	0.0141124
713.140	0.0141118
713.218	0.0141026
713.296	0.0141671
713.374	0.0142681
713.453	0.0144196
713.531	0.0145428
713.609	0.0145177
713.687	0.0145074
713.765	0.0145363
713.843	0.0143542
713.921	0.0146303
713.999	0.0145161
714.078	0.0146188
714.156	0.0145341
714.234	0.0143316
714.312	0.0143409
714.390	0.0144144
714.468	0.0142721
714.546	0.0141347
714.624	0.0141848
714.703	0.0140156
714.781	0.0139258
714.859	0.0139858
714.937	0.0139261
715.015	0.0139111
715.093	0.0139219
715.171	0.0140118
715.249	0.0138362
715.328	0.0139485
715.406	0.0139493
715.484	0.0140720
715.562	0.0140757
715.640	0.0142038
715.718	0.0140600
715.796	0.0141754
715.874	0.0142210
715.953	0.0143913
716.031	0.0143745
716.109	0.0143530
716.187	0.0144884
716.265	0.0146400
716.343	0.0144261
716.421	0.0142616
716.499	0.0145080
716.578	0.0142535
716.656	0.0143273
716.734	0.0143610
716.812	0.0142271
716.890	0.0141886
716.968	0.0142075
717.046	0.0140234
717.124	0.0140060
717.203	0.0139285
717.281	0.0139324
717.359	0.0138445
717.437	0.0140642
717.515	0.0140202
717.593	0.0139976
717.671	0.0139082
717.749	0.0139692
717.828	0.0141050
717.906	0.0139500
717.984	0.0139436
718.062	0.0140178
718.140	0.0143137
718.218	0.0142414
718.296	0.0142158
718.374	0.0141857
718.453	0.0142637
718.531	0.0143618
718.609	0.0143559
718.687	0.0143066
718.765	0.0143223
718.843	0.0143513
718.921	0.0141645
718.999	0.0142463
719.078	0.0142158
719.156	0.0142036
719.234	0.0144174
719.312	0.0140687
719.390	0.0141278
719.468	0.0141437
719.546	0.0139434
719.624	0.0140936
719.703	0.0139091
719.781	0.0138403
719.859	0.0138754
719.937	0.0139648
720.015	0.0138539
720.093	0.0138835
720.171	0.0139057
720.249	0.0140435
720.328	0.0139471
720.406	0.0139080
720.484	0.0138181
720.562	0.0139170
720.640	0.0139459
720.718	0.0138649
720.796	0.0140703
720.874	0.0140434
720.953	0.0141143
721.031	0.0141566
721.109	0.0141490
721.187	0.0143102
721.265	0.0142911
721.343	0.0143269
721.421	0.0143372
721.499	0.0144341
721.578	0.0142373
721.656	0.0142839
721.734	0.0143377
721.812	0.0142496
721.890	0.0141932
721.968	0.0143736
722.046	0.0142218
722.124	0.0142179
722.203	0.0143705
722.281	0.0141094
722.359	0.0141224
722.437	0.0141811
722.515	0.0141206
722.593	0.0140872
722.671	0.0140550
722.749	0.0141534
722.828	0.0141151
722.906	0.0140784
722.984	0.0141568
723.062	0.0141318
723.140	0.0141747
723.218	0.0141959
723.296	0.0141493
723.374	0.0142617
723.453	0.0141682
723.531	0.0143835
723.609	0.0143208
723.687	0.0143031
723.765	0.0144174
723.843	0.0144359
723.921	0.0145335
723.999	0.0143758
724.078	0.0144673
724.156	0.0144171
724.234	0.0142828
724.312	0.0144248
724.390	0.0142804
724.468	0.0142780
724.546	0.0142970
724.624	0.0141311
724.703	0.0141285
724.781	0.0141281
724.859	0.0141177
724.937	0.0141148
725.015	0.0140441
725.093	0.0139803
725.171	0.0141024
725.249	0.0139700
725.328	0.0139358
725.406	0.0140538
725.484	0.0140218
725.562	0.0140562
725.640	0.0140599
725.718	0.0140504
725.796	0.0140523
725.874	0.0140617
725.953	0.0142001
726.031	0.0143528
726.109	0.0142452
726.187	0.0141222
726.265	0.0141720
726.343	0.0143240
726.421	0.0145039
726.499	0.0143222
726.578	0.0141563
726.656	0.0142706
726.734	0.0143060
726.812	0.0143014
726.890	0.0142521
726.968	0.0141229
727.046	0.0141744
727.124	0.0142074
727.203	0.0142669
727.281	0.0141753
727.359	0.0141154
727.437	0.0141591
727.515	0.0142487
727.593	0.0142142
727.671	0.0141063
727.749	0.0139657
727.828	0.0140608
727.906	0.0142263
727.984	0.0141277
728.062	0.0143027
728.140	0.0142751
728.218	0.0141795
728.296	0.0141352
728.374	0.0142625
728.453	0.0143379
728.531	0.0141668
728.609	0.0142331
728.687	0.0143754
728.765	0.0142537
728.843	0.0142575
728.921	0.0144829
728.999	0.0144341
729.078	0.0143630
729.156	0.0144271
729.234	0.0143443
729.312	0.0143794
729.390	0.0142056
729.468	0.0141869
729.546	0.0141944
729.624	0.0144482
729.703	0.0144113
729.781	0.0142583
729.859	0.0144006
729.937	0.0142473
730.015	0.0142763
730.093	0.0142817
730.171	0.0142426
730.249	0.0141794
730.328	0.0142817
730.406	0.0140577
730.484	0.0141669
730.562	0.0141702
730.640	0.0141488
730.718	0.0140344
730.796	0.0143278
730.874	0.0141450
730.953	0.0143142
731.031	0.0141689
731.109	0.0143266
731.187	0.0142386
731.265	0.0144000
731.343	0.0143581
731.421	0.0142311
731.499	0.0143967
731.578	0.0144418
731.656	0.0144736
731.734	0.0144089
731.812	0.0143459
731.890	0.0143661
731.968	0.0144473
732.046	0.0142933
732.124	0.0143349
732.203	0.0143456
732.281	0.0143583
732.359	0.0141972
732.437	0.0142442
732.515	0.0142997
732.593	0.0140566
732.671	0.0142371
732.749	0.0142374
732.828	0.0141760
732.906	0.0141248
732.984	0.0142603
733.062	0.0140957
733.140	0.0142547
733.218	0.0142106
733.296	0.0141355
733.374	0.0139838
733.453	0.0141538
733.531	0.0142912
733.609	0.0143380
733.687	0.0143314
733.765	0.0143076
733.843	0.0143673
733.921	0.0143069
733.999	0.0142657
734.078	0.0144477
734.156	0.0145310
734.234	0.0144185
734.312	0.0144148
734.390	0.0143693
734.468	0.0144879
734.546	0.0143664
734.624	0.0144267
734.703	0.0144080
734.781	0.0144027
734.859	0.0142913
734.937	0.0142905
735.015	0.0143790
735.093	0.0142883
735.171	0.0141553
735.249	0.0143179
735.328	0.0142880
735.406	0.0141605
735.484	0.0142048
735.562	0.0141582
735.640	0.0143339
735.718	0.0141418
735.796	0.0139984
735.874	0.0142685
735.953	0.0142094
736.031	0.0142030
736.109	0.0140761
736.187	0.0142290
736.265	0.0140919
736.343	0.0141847
736.421	0.0143179
736.499	0.0141763
736.578	0.0142692
736.656	0.0142706
736.734	0.0143479
736.812	0.0143787
736.890	0.0144404
736.968	0.0143027
737.046	0.0144352
737.124	0.0143604
737.203	0.0142523
737.281	0.0143222
737.359	0.0143739
737.437	0.0142833
737.515	0.0142437
737.593	0.0143970
737.671	0.0142738
737.749	0.0141271
737.828	0.0140994
737.906	0.0141965
737.984	0.0141540
738.062	0.0141407
738.140	0.0140213
738.218	0.0139481
738.296	0.0141510
738.374	0.0140246
738.453	0.0141119
738.531	0.0142227
738.609	0.0142522
738.687	0.0141541
738.765	0.0142268
738.843	0.0142918
738.921	0.0142745
738.999	0.0143127
739.078	0.0143147
739.156	0.0143124
739.234	0.0142593
739.312	0.0142430
739.390	0.0144106
739.468	0.0142867
739.546	0.0142986
739.624	0.0143340
739.703	0.0143594
739.781	0.0142514
739.859	0.0140704
739.937	0.0142113
740.015	0.0142548
740.093	0.0141191
740.171	0.0141593
740.249	0.0141614
740.328	0.0141334
740.406	0.0141751
740.484	0.0141029
740.562	0.0140991
740.640	0.0141975
740.718	0.0140760
740.796	0.0142130
740.874	0.0142451
740.953	0.0141179
741.031	0.0141401
741.109	0.0140988
741.187	0.0141255
741.265	0.0142437
741.343	0.0141257
741.421	0.0142734
741.499	0.0141194
741.578	0.0140505
741.656	0.0141693
741.734	0.0141815
741.812	0.0140855
741.890	0.0142300
741.968	0.0142052
742.046	0.0141998
742.124	0.0140944
742.203	0.0140267
742.281	0.0140592
742.359	0.0140650
742.437	0.0138113
742.515	0.0139962
742.593	0.0140062
742.671	0.0138573
742.749	0.0139841
742.828	0.0139770
742.906	0.0140755
742.984	0.0140224
743.062	0.0138626
743.140	0.0140085
743.218	0.0140211
743.296	0.0140098
743.374	0.0140366
743.453	0.0141158
743.531	0.0141232
743.609	0.0142014
743.687	0.0141851
743.765	0.0141580
743.843	0.0140214
743.921	0.0141321
743.999	0.0143748
744.078	0.0142710
744.156	0.0143105
744.234	0.0141666
744.312	0.0141892
744.390	0.0142111
744.468	0.0142399
744.546	0.0143075
744.624	0.0141440
744.703	0.0141280
744.781	0.0141583
744.859	0.0142783
744.937	0.0142770
745.015	0.0141820
745.093	0.0140875
745.171	0.0141994
745.249	0.0142389
745.328	0.0141774
745.406	0.0143047
745.484	0.0141973
745.562	0.0141705
745.640	0.0141232
745.718	0.0141958
745.796	0.0142555
745.874	0.0141041
745.953	0.0141385
746.031	0.0141225
746.109	0.0141943
746.187	0.0141637
746.265	0.0143187
746.343	0.0142274
746.421	0.0141576
746.499	0.0141851
746.578	0.0141956
746.656	0.0141740
746.734	0.0143307
746.812	0.0141510
746.890	0.0141804
746.968	0.0142477
747.046	0.0142670
747.124	0.0142804
747.203	0.0142154
747.281	0.0141269
747.359	0.0142239
747.437	0.0141918
747.515	0.0139996
747.593	0.0141334
747.671	0.0142048
747.749	0.0140677
747.828	0.0141183
747.906	0.0141795
747.984	0.0143195
748.062	0.0143049
748.140	0.0141850
748.218	0.0142397
748.296	0.0141571
748.374	0.0141915
748.453	0.0142490
748.531	0.0142538
748.609	0.0141523
748.687	0.0142787
748.765	0.0144241
748.843	0.0143293
748.921	0.0142659
748.999	0.0142115
749.078	0.0141596
749.156	0.0141585
749.234	0.0142902
749.312	0.0142623
749.390	0.0144642
749.468	0.0143040
749.546	0.0143466
749.624	0.0142540
749.703	0.0142295
749.781	0.0142329
749.859	0.0144016
749.937	0.0142663
750.015	0.0142706
750.093	0.0143880
750.171	0.0142670
750.249	0.0142143
750.328	0.0142119
750.406	0.0140732
750.484	0.0142586
750.562	0.0141339
750.640	0.0143163
750.718	0.0141782
750.796	0.0141984
750.874	0.0142329
750.953	0.0141818
751.031	0.0140252
751.109	0.0140804
751.187	0.0141968
751.265	0.0142389
751.343	0.0141966
751.421	0.0142541
751.499	0.0143048
751.578	0.0142989
751.656	0.0143636
751.734	0.0141798
751.812	0.0142002
751.890	0.0142863
751.968	0.0142279
752.046	0.0142972
752.124	0.0141910
752.203	0.0143044
752.281	0.0143559
752.359	0.0143182
752.437	0.0142769
752.515	0.0141505
752.593	0.0141275
752.671	0.0141261
752.749	0.0141851
752.828	0.0142996
752.906	0.0142556
752.984	0.0140479
753.062	0.0141979
753.140	0.0141116
753.218	0.0140543
753.296	0.0140481
753.374	0.0140463
753.453	0.0141673
753.531	0.0140824
753.609	0.0141850
753.687	0.0141737
753.765	0.0141791
753.843	0.0143933
753.921	0.0141787
753.999	0.0142212
754.078	0.0142390
754.156	0.0143652
754.234	0.0143004
754.312	0.0144537
754.390	0.0142657
754.468	0.0142497
754.546	0.0142848
754.624	0.0142341
754.703	0.0143763
754.781	0.0142052
754.859	0.0141860
754.937	0.0142042
755.015	0.0142027
755.093	0.0142946
755.171	0.0142168
755.249	0.0141479
755.328	0.0140980
755.406	0.0142948
755.484	0.0140523
755.562	0.0141237
755.640	0.0140536
755.718	0.0142172
755.796	0.0142175
755.874	0.0141681
755.953	0.0141761
756.031	0.0142857
756.109	0.0142760
756.187	0.0142669
756.265	0.0143940
756.343	0.0144760
756.421	0.0144225
756.499	0.0142160
756.578	0.0142879
756.656	0.0143369
756.734	0.0143348
756.812	0.0142996
756.890	0.0143600
756.968	0.0142574
757.046	0.0142503
757.124	0.0143550
757.203	0.0142399
757.281	0.0143205
757.359	0.0142799
757.437	0.0141151
757.515	0.0141594
757.593	0.0141947
757.671	0.0142554
757.749	0.0142264
757.828	0.0140919
757.906	0.0143041
757.984	0.0142981
758.062	0.0141610
758.140	0.0143630
758.218	0.0143945
758.296	0.0143692
758.374	0.0143472
758.453	0.0142549
758.531	0.0143044
758.609	0.0145206
758.687	0.0143693
758.765	0.0142207
758.843	0.0143918
758.921	0.0141800
758.999	0.0142323
759.078	0.0141827
759.156	0.0140691
759.234	0.0140078
759.312	0.0141463
759.390	0.0142738
759.468	0.0142789
759.546	0.0141944
759.624	0.0142247
759.703	0.0141016
759.781	0.0140458
759.859	0.0140645
759.937	0.0140731
760.015	0.0141773
760.093	0.0142376
760.171	0.0142798
760.249	0.0142584
760.328	0.0140939
760.406	0.0143252
760.484	0.0143439
760.562	0.0143437
760.640	0.0143587
760.718	0.0143412
760.796	0.0143468
760.874	0.0143331
760.953	0.0141642
761.031	0.0141802
761.109	0.0143463
761.187	0.0143300
761.265	0.0142081
761.343	0.0141998
761.421	0.0141286
761.499	0.0142531
761.578	0.0141393
761.656	0.0141092
761.734	0.0141653
761.812	0.0140475
761.890	0.0141698
761.968	0.0141697
762.046	0.0140652
762.124	0.0142194
762.203	0.0141986
762.281	0.0140839
762.359	0.0140360
762.437	0.0141000
762.515	0.0141778
762.593	0.0140428
762.671	0.0141306
762.749	0.0141273
762.828	0.0140700
762.906	0.0141884
762.984	0.0141825
763.062	0.0141372
763.140	0.0141879
763.218	0.0142543
763.296	0.0141702
763.374	0.0140102
763.453	0.0140012
763.531	0.0140070
763.609	0.0142412
763.687	0.0139934
763.765	0.0139095
763.843	0.0140588
763.921	0.0142263
763.999	0.0140897
764.078	0.0141228
764.156	0.0140659
764.234	0.0142455
764.312	0.0142971
764.390	0.0141541
764.468	0.0142845
764.546	0.0142727
764.624	0.0142021
764.703	0.0141611
764.781	0.0142254
764.859	0.0142070
764.937	0.0141853
765.015	0.0142141
765.093	0.0143267
765.171	0.0141612
765.249	0.0140661
765.328	0.0140729
765.406	0.0140735
765.484	0.0141318
765.562	0.0140259
765.640	0.0139671
765.718	0.0140467
765.796	0.0140677
765.874	0.0139794
765.953	0.0138599
766.031	0.0139979
766.109	0.0141135
766.187	0.0139803
766.265	0.0140355
766.343	0.0139384
766.421	0.0139621
766.499	0.0139876
766.578	0.0140694
766.656	0.0139723
766.734	0.0139217
766.812	0.0138858
766.890	0.0139707
766.968	0.0140912
767.046	0.0140253
767.124	0.0141523
767.203	0.0142294
767.281	0.0139803
767.359	0.0140822
767.437	0.0141346
767.515	0.0141077
767.593	0.0141066
767.671	0.0140633
767.749	0.0141180
767.828	0.0141315
767.906	0.0141730
767.984	0.0140725
768.062	0.0140452
768.140	0.0139872
768.218	0.0140662
768.296	0.0139355
768.374	0.0141260
768.453	0.0140062
768.531	0.0139288
768.609	0.0140211
768.687	0.0141640
768.765	0.0141881
768.843	0.0140788
768.921	0.0141210
768.999	0.0141750
769.078	0.0141407
769.156	0.0142516
769.234	0.0140601
769.312	0.0141493
769.390	0.0142099
769.468	0.0140966
769.546	0.0141277
769.624	0.0141605
769.703	0.0141711
769.781	0.0140145
769.859	0.0141901
769.937	0.0140305
770.015	0.0139774
770.093	0.0140279
770.171	0.0139984
770.249	0.0140424
770.328	0.0140546
770.406	0.0140425
770.484	0.0140576
770.562	0.0139527
770.640	0.0141524
770.718	0.0140807
770.796	0.0141456
770.874	0.0143669
770.953	0.0143098
771.031	0.0142748
771.109	0.0142862
771.187	0.0142407
771.265	0.0142559
771.343	0.0143139
771.421	0.0143452
771.499	0.0144527
771.578	0.0144025
771.656	0.0142859
771.734	0.0142838
771.812	0.0143062
771.890	0.0144779
771.968	0.0144267
772.046	0.0142334
772.124	0.0140606
772.203	0.0142622
772.281	0.0142188
772.359	0.0140880
772.437	0.0141953
772.515	0.0141182
772.593	0.0142355
772.671	0.0140508
772.749	0.0141116
772.828	0.0141794
772.906	0.0141588
772.984	0.0140958
773.062	0.0142725
773.140	0.0142683
773.218	0.0141557
773.296	0.0141576
773.374	0.0141814
773.453	0.0142654
773.531	0.0142677
773.609	0.0143604
773.687	0.0142513
773.765	0.0141940
773.843	0.0142843
773.921	0.0142559
773.999	0.0144434
774.078	0.0141359
774.156	0.0141958
774.234	0.0142637
774.312	0.0141610
774.390	0.0141232
774.468	0.0143153
774.546	0.0143014
774.624	0.0141977
774.703	0.0143011
774.781	0.0142408
774.859	0.0141778
774.937	0.0142426
775.015	0.0143381
775.093	0.0142979
775.171	0.0143336
775.249	0.0143217
775.328	0.0143472
775.406	0.0143385
775.484	0.0142498
775.562	0.0143153
775.640	0.0145502
775.718	0.0142636
775.796	0.0144789
775.874	0.0142743
775.953	0.0143378
776.031	0.0141836
776.109	0.0141846
776.187	0.0141943
776.265	0.0141353
776.343	0.0141307
776.421	0.0140228
776.499	0.0139153
776.578	0.0139743
776.656	0.0140051
776.734	0.0141516
776.812	0.0140157
776.890	0.0140824
776.968	0.0141595
777.046	0.0142594
777.124	0.0142090
777.203	0.0142608
777.281	0.0142921
777.359	0.0143095
777.437	0.0143560
777.515	0.0143298
777.593	0.0143273
777.671	0.0143424
777.749	0.0143101
777.828	0.0143054
777.906	0.0142249
777.984	0.0143182
778.062	0.0143921
778.140	0.0142486
778.218	0.0142837
778.296	0.0142210
778.374	0.0142808
778.453	0.0142244
778.531	0.0141093
778.609	0.0140022
778.687	0.0140635
778.765	0.0141998
778.843	0.0142544
778.921	0.0143465
778.999	0.0141730
779.078	0.0142583
779.156	0.0143114
779.234	0.0144804
779.312	0.0142273
779.390	0.0143571
779.468	0.0145597
779.546	0.0144687
779.624	0.0145182
779.703	0.0145150
779.781	0.0144132
779.859	0.0143771
779.937	0.0145289
780.015	0.0145103
780.093	0.0145417
780.171	0.0144756
780.249	0.0143622
780.328	0.0143555
780.406	0.0143494
780.484	0.0144375
780.562	0.0142742
780.640	0.0142152
780.718	0.0142573
780.796	0.0141016
780.874	0.0142671
780.953	0.0142757
781.031	0.0141943
781.109	0.0142825
781.187	0.0141089
781.265	0.0141523
781.343	0.0142223
781.421	0.0143211
781.499	0.0143084
781.578	0.0142673
781.656	0.0142308
781.734	0.0143484
781.812	0.0143960
781.890	0.0143709
781.968	0.0142389
782.046	0.0142608
782.124	0.0143764
782.203	0.0143819
782.281	0.0143158
782.359	0.0141480
782.437	0.0141792
782.515	0.0142867
782.593	0.0142491
782.671	0.0141446
782.749	0.0142715
782.828	0.0141753
782.906	0.0141710
782.984	0.0143024
783.062	0.0142918
783.140	0.0140763
783.218	0.0141131
783.296	0.0141996
783.374	0.0142016
783.453	0.0141686
783.531	0.0140855
783.609	0.0141278
783.687	0.0142441
783.765	0.0143031
783.843	0.0141361
783.921	0.0140714
783.999	0.0141776
784.078	0.0141106
784.156	0.0141217
784.234	0.0141325
784.312	0.0141818
784.390	0.0141395
784.468	0.0140923
784.546	0.0140818
784.624	0.0140870
784.703	0.0140898
784.781	0.0140207
784.859	0.0140585
784.937	0.0140054
785.015	0.0140910
785.093	0.0140802
785.171	0.0141543
785.249	0.0141493
785.328	0.0140117
785.406	0.0140211
785.484	0.0138796
785.562	0.0141720
785.640	0.0140781
785.718	0.0141476
785.796	0.0140344
785.874	0.0141734
785.953	0.0141280
786.031	0.0141060
786.109	0.0142371
786.187	0.0142480
786.265	0.0141644
786.343	0.0141300
786.421	0.0141334
786.499	0.0141109
786.578	0.0140987
786.656	0.0140166
786.734	0.0139983
786.812	0.0140777
786.890	0.0141140
786.968	0.0138392
787.046	0.0139367
787.124	0.0140361
787.203	0.0141006
787.281	0.0140668
787.359	0.0139780
787.437	0.0139752
787.515	0.0140126
787.593	0.0140766
787.671	0.0140600
787.749	0.0141177
787.828	0.0142460
787.906	0.0140835
787.984	0.0141337
788.062	0.0143269
788.140	0.0143290
788.218	0.0142368
788.296	0.0140970
788.374	0.0142117
788.453	0.0141954
788.531	0.0142223
788.609	0.0142872
788.687	0.0142406
788.765	0.0141576
788.843	0.0141433
788.921	0.0141071
788.999	0.0141221
789.078	0.0140572
789.156	0.0140215
789.234	0.0140902
789.312	0.0141628
789.390	0.0140144
789.468	0.0140701
789.546	0.0140555
789.624	0.0140636
789.703	0.0141674
789.781	0.0141604
789.859	0.0141109
789.937	0.0140604
790.015	0.0141428
790.093	0.0142337
790.171	0.0140503
790.249	0.0140292
790.328	0.0140981
790.406	0.0140348
790.484	0.0141393
790.562	0.0141235
790.640	0.0142032
790.718	0.0141542
790.796	0.0140878
790.874	0.0140996
790.953	0.0141090
791.031	0.0141013
791.109	0.0140775
791.187	0.0140785
791.265	0.0142137
791.343	0.0141660
791.421	0.0140217
791.499	0.0140672
791.578	0.0140730
791.656	0.0141155
791.734	0.0140895
791.812	0.0140266
791.890	0.0139912
791.968	0.0140062
792.046	0.0140109
792.124	0.0141115
792.203	0.0140051
792.281	0.0141124
792.359	0.0141709
792.437	0.0141248
792.515	0.0140197
792.593	0.0141269
792.671	0.0142197
792.749	0.0141525
792.828	0.0141536
792.906	0.0140938
792.984	0.0141173
793.062	0.0140473
793.140	0.0142582
793.218	0.0144070
793.296	0.0143041
793.374	0.0142832
793.453	0.0142407
793.531	0.0142219
793.609	0.0142076
793.687	0.0143777
793.765	0.0142124
793.843	0.0142824
793.921	0.0142662
793.999	0.0142638
794.078	0.0141872
794.156	0.0141245
794.234	0.0141974
794.312	0.0141139
794.390	0.0140984
794.468	0.0142959
794.546	0.0142494
794.624	0.0141359
794.703	0.0143397
794.781	0.0143197
794.859	0.0143033
794.937	0.0143086
795.015	0.0143414
795.093	0.0143395
795.171	0.0142840
795.249	0.0143300
795.328	0.0143217
795.406	0.0143925
795.484	0.0143450
795.562	0.0143690
795.640	0.0142541
795.718	0.0142572
795.796	0.0142942
795.874	0.0142657
795.953	0.0140907
796.031	0.0142261
796.109	0.0141059
796.187	0.0140763
796.265	0.0141457
796.343	0.0140574
796.421	0.0140889
796.499	0.0141817
796.578	0.0140511
796.656	0.0140576
796.734	0.0140580
796.812	0.0140858
796.890	0.0142294
796.968	0.0140958
797.046	0.0141000
797.124	0.0142130
797.203	0.0141395
797.281	0.0140379
797.359	0.0140520
797.437	0.0141559
797.515	0.0142739
797.593	0.0142218
797.671	0.0140736
797.749	0.0141650
797.828	0.0142326
797.906	0.0142474
797.984	0.0140760
798.062	0.0141602
798.140	0.0144124
798.218	0.0143624
798.296	0.0143631
798.374	0.0142709
798.453	0.0143939
798.531	0.0142822
798.609	0.0143201
798.687	0.0141908
798.765	0.0142241
798.843	0.0142789
798.921	0.0145215
798.999	0.0142276
799.078	0.0142210
799.156	0.0143503
799.234	0.0143166
799.312	0.0142580
799.390	0.0143210
799.468	0.0141487
799.546	0.0141917
799.624	0.0142331
799.703	0.0140879
799.781	0.0141424
799.859	0.0140497
799.937	0.0141283
800.015	0.0143198
800.093	0.0142297
800.171	0.0141212
800.249	0.0141267
800.328	0.0143136
800.406	0.0141782
800.484	0.0142867
800.562	0.0143071
800.640	0.0142940
800.718	0.0143448
800.796	0.0142443
800.874	0.0143011
800.953	0.0143777
801.031	0.0142730
801.109	0.0141512
801.187	0.0143358
801.265	0.0143245
801.343	0.0142058
801.421	0.0143508
801.499	0.0142661
801.578	0.0143324
801.656	0.0143395
801.734	0.0142662
801.812	0.0142445
801.890	0.0140828
801.968	0.0143032
802.046	0.0142101
802.124	0.0141924
802.203	0.0144408
802.281	0.0143002
802.359	0.0142111
802.437	0.0142051
802.515	0.0143387
802.593	0.0143772
802.671	0.0143259
802.749	0.0141850
802.828	0.0141758
802.906	0.0143755
802.984	0.0143216
803.062	0.0143378
803.140	0.0142833
803.218	0.0141834
803.296	0.0143696
803.374	0.0142847
803.453	0.0142400
803.531	0.0142379
803.609	0.0141520
803.687	0.0142372
803.765	0.0144009
803.843	0.0143054
803.921	0.0142683
803.999	0.0142624
804.078	0.0142811
804.156	0.0144177
804.234	0.0143479
804.312	0.0142896
804.390	0.0142757
804.468	0.0143835
804.546	0.0143940
804.624	0.0141754
804.703	0.0142271
804.781	0.0141770
804.859	0.0142173
804.937	0.0142072
805.015	0.0142347
805.093	0.0142709
805.171	0.0143301
805.249	0.0141856
805.328	0.0143676
805.406	0.0142978
805.484	0.0143454
805.562	0.0143324
805.640	0.0143525
805.718	0.0145663
805.796	0.0144272
805.874	0.0142879
805.953	0.0142689
806.031	0.0144055
806.109	0.0143954
806.187	0.0144401
806.265	0.0144244
806.343	0.0143284
806.421	0.0141933
806.499	0.0142963
806.578	0.0142893
806.656	0.0143485
806.734	0.0142798
806.812	0.0142449
806.890	0.0142196
806.968	0.0143826
807.046	0.0143367
807.124	0.0142673
807.203	0.0142376
807.281	0.0142950
807.359	0.0141199
807.437	0.0141975
807.515	0.0142685
807.593	0.0142516
807.671	0.0141145
807.749	0.0143541
807.828	0.0143421
807.906	0.0145082
807.984	0.0144744
808.062	0.0143535
808.140	0.0143119
808.218	0.0143697
808.296	0.0144197
808.374	0.0144704
808.453	0.0145116
808.531	0.0144943
808.609	0.0144104
808.687	0.0144048
808.765	0.0144571
808.843	0.0144351
808.921	0.0146465
808.999	0.0143648
809.078	0.0143577
809.156	0.0143801
809.234	0.0141879
809.312	0.0142461
809.390	0.0142330
809.468	0.0142918
809.546	0.0143546
809.624	0.0142934
809.703	0.0143277
809.781	0.0143034
809.859	0.0141716
809.937	0.0140699
810.015	0.0141168
810.093	0.0141428
810.171	0.0142867
810.249	0.0141533
810.328	0.0143133
810.406	0.0142462
810.484	0.0141592
810.562	0.0141466
810.640	0.0142725
810.718	0.0142649
810.796	0.0141623
810.874	0.0141466
810.953	0.0141152
811.031	0.0142580
811.109	0.0141196
811.187	0.0142905
811.265	0.0142397
811.343	0.0141363
811.421	0.0141508
811.499	0.0142571
811.578	0.0141795
811.656	0.0141040
811.734	0.0141467
811.812	0.0141459
811.890	0.0141415
811.968	0.0140836
812.046	0.0142494
812.124	0.0141766
812.203	0.0141106
812.281	0.0141914
812.359	0.0140608
812.437	0.0142297
812.515	0.0142487
812.593	0.0141877
812.671	0.0141151
812.749	0.0143546
812.828	0.0143710
812.906	0.0143266
812.984	0.0142442
813.062	0.0143720
813.140	0.0142371
813.218	0.0144018
813.296	0.0143634
813.374	0.0142685
813.453	0.0142548
813.531	0.0142936
813.609	0.0141030
813.687	0.0140978
813.765	0.0141089
813.843	0.0142221
813.921	0.0141129
813.999	0.0141283
814.078	0.0141795
814.156	0.0141610
814.234	0.0142129
814.312	0.0141846
814.390	0.0141467
814.468	0.0142353
814.546	0.0141950
814.624	0.0141734
814.703	0.0140356
814.781	0.0141920
814.859	0.0141718
814.937	0.0142937
815.015	0.0142072
815.093	0.0141209
815.171	0.0140251
815.249	0.0139571
815.328	0.0140517
815.406	0.0140284
815.484	0.0140327
815.562	0.0142433
815.640	0.0140547
815.718	0.0139952
815.796	0.0140422
815.874	0.0141234
815.953	0.0141454
816.031	0.0142513
816.109	0.0143537
816.187	0.0142961
816.265	0.0141609
816.343	0.0142921
816.421	0.0143031
816.499	0.0143192
816.578	0.0143478
816.656	0.0144150
816.734	0.0142322
816.812	0.0142468
816.890	0.0142977
816.968	0.0142278
817.046	0.0142226
817.124	0.0140987
817.203	0.0142614
817.281	0.0142368
817.359	0.0142284
817.437	0.0140276
817.515	0.0141262
817.593	0.0141058
817.671	0.0141998
817.749	0.0141497
817.828	0.0140965
817.906	0.0141068
817.984	0.0141833
818.062	0.0141703
818.140	0.0140751
818.218	0.0141106
818.296	0.0141674
818.374	0.0141395
818.453	0.0141170
818.531	0.0141763
818.609	0.0140749
818.687	0.0141687
818.765	0.0142426
818.843	0.0140236
818.921	0.0140035
818.999	0.0140586
819.078	0.0141627
819.156	0.0140839
819.234	0.0140376
819.312	0.0140625
819.390	0.0141203
819.468	0.0141486
819.546	0.0140234
819.624	0.0140618
819.703	0.0140424
819.781	0.0140079
819.859	0.0140771
819.937	0.0141695
820.015	0.0141397
820.093	0.0140401
820.171	0.0141017
820.249	0.0139098
820.328	0.0140803
820.406	0.0140133
820.484	0.0140714
820.562	0.0139977
820.640	0.0139878
820.718	0.0141998
820.796	0.0141413
820.874	0.0142004
820.953	0.0141171
821.031	0.0142985
821.109	0.0142162
821.187	0.0139431
821.265	0.0139844
821.343	0.0141914
821.421	0.0141844
821.499	0.0141937
821.578	0.0141582
821.656	0.0140668
821.734	0.0141534
821.812	0.0141637
821.890	0.0139693
821.968	0.0141393
822.046	0.0141328
822.124	0.0141235
822.203	0.0140157
822.281	0.0140662
822.359	0.0140836
822.437	0.0141781
822.515	0.0140608
822.593	0.0139907
822.671	0.0141013
822.749	0.0140890
822.828	0.0140182
822.906	0.0142690
822.984	0.0142590
823.062	0.0143226
823.140	0.0142548
823.218	0.0142686
823.296	0.0141497
823.374	0.0141904
823.453	0.0143217
823.531	0.0141248
823.609	0.0143444
823.687	0.0143120
823.765	0.0143203
823.843	0.0143085
823.921	0.0142579
823.999	0.0143536
824.078	0.0142551
824.156	0.0142896
824.234	0.0142299
824.312	0.0143420
824.390	0.0143021
824.468	0.0141921
824.546	0.0142044
824.624	0.0140561
824.703	0.0141035
824.781	0.0143219
824.859	0.0141663
824.937	0.0140848
825.015	0.0142419
825.093	0.0141567
825.171	0.0142026
825.249	0.0141695
825.328	0.0142774
825.406	0.0142616
825.484	0.0142688
825.562	0.0141989
825.640	0.0143444
825.718	0.0142822
825.796	0.0142408
825.874	0.0141784
825.953	0.0143996
826.031	0.0141732
826.109	0.0143143
826.187	0.0144026
826.265	0.0142052
826.343	0.0142686
826.421	0.0143448
826.499	0.0142684
826.578	0.0142325
826.656	0.0143182
826.734	0.0143288
826.812	0.0144135
826.890	0.0143281
826.968	0.0145116
827.046	0.0144350
827.124	0.0143601
827.203	0.0142329
827.281	0.0143409
827.359	0.0143907
827.437	0.0143559
827.515	0.0142076
827.593	0.0141997
827.671	0.0141881
827.749	0.0142698
827.828	0.0141740
827.906	0.0140799
827.984	0.0141323
828.062	0.0141670
828.140	0.0141890
828.218	0.0142896
828.296	0.0142197
828.374	0.0141765
828.453	0.0142269
828.531	0.0142663
828.609	0.0141264
828.687	0.0142973
828.765	0.0142479
828.843	0.0143461
828.921	0.0143947
828.999	0.0144414
829.078	0.0144098
829.156	0.0143558
829.234	0.0143949
829.312	0.0143844
829.390	0.0144529
829.468	0.0143232
829.546	0.0144031
829.624	0.0143647
829.703	0.0143045
829.781	0.0142888
829.859	0.0145254
829.937	0.0144291
830.015	0.0143970
830.093	0.0144496
830.171	0.0144074
830.249	0.0143468
830.328	0.0143161
830.406	0.0143615
830.484	0.0143806
830.562	0.0142867
830.640	0.0143603
830.718	0.0144684
830.796	0.0142521
830.874	0.0143044
830.953	0.0144695
831.031	0.0142287
831.109	0.0144117
831.187	0.0142781
831.265	0.0140973
831.343	0.0143112
831.421	0.0144425
831.499	0.0143485
831.578	0.0144010
831.656	0.0144149
831.734	0.0143433
831.812	0.0142119
831.890	0.0143186
831.968	0.0142445
832.046	0.0143624
832.124	0.0144083
832.203	0.0143861
832.281	0.0143015
832.359	0.0143114
832.437	0.0142636
832.515	0.0142401
832.593	0.0143661
832.671	0.0143181
832.749	0.0143555
832.828	0.0143407
832.906	0.0142227
832.984	0.0141940
833.062	0.0141227
833.140	0.0142089
833.218	0.0142360
833.296	0.0142599
833.374	0.0143357
833.453	0.0141730
833.531	0.0142532
833.609	0.0142427
833.687	0.0143265
833.765	0.0144592
833.843	0.0143197
833.921	0.0145222
833.999	0.0143603
834.078	0.0143721
834.156	0.0143839
834.234	0.0142432
834.312	0.0142976
834.390	0.0143227
834.468	0.0142661
834.546	0.0142896
834.624	0.0143850
834.703	0.0143416
834.781	0.0141905
834.859	0.0142843
834.937	0.0141646
835.015	0.0142964
835.093	0.0142051
835.171	0.0142934
835.249	0.0141807
835.328	0.0141654
835.406	0.0142019
835.484	0.0142512
835.562	0.0141900
835.640	0.0141936
835.718	0.0141977
835.796	0.0142824
835.874	0.0142060
835.953	0.0141879
836.031	0.0140688
836.109	0.0142108
836.187	0.0143125
836.265	0.0142261
836.343	0.0142369
836.421	0.0141663
836.499	0.0143574
836.578	0.0142589
836.656	0.0141679
836.734	0.0141393
836.812	0.0143723
836.890	0.0144701
836.968	0.0142840
837.046	0.0142556
837.124	0.0143684
837.203	0.0142522
837.281	0.0145550
837.359	0.0144041
837.437	0.0143098
837.515	0.0143951
837.593	0.0144983
837.671	0.0143332
837.749	0.0143386
837.828	0.0143483
837.906	0.0142106
837.984	0.0141827
838.062	0.0142281
838.140	0.0141076
838.218	0.0142223
838.296	0.0142709
838.374	0.0141763
838.453	0.0142017
838.531	0.0141323
838.609	0.0142606
838.687	0.0142426
838.765	0.0142387
838.843	0.0142350
838.921	0.0141537
838.999	0.0141477
839.078	0.0142585
839.156	0.0144320
839.234	0.0142926
839.312	0.0142280
839.390	0.0143217
839.468	0.0143715
839.546	0.0143939
839.624	0.0143443
839.703	0.0144091
839.781	0.0143652
839.859	0.0144228
839.937	0.0142152
840.015	0.0142706
840.093	0.0142152
840.171	0.0142165
840.249	0.0141721
840.328	0.0141814
840.406	0.0141570
840.484	0.0143427
840.562	0.0142083
840.640	0.0141042
840.718	0.0141809
840.796	0.0141160
840.874	0.0142374
840.953	0.0142256
841.031	0.0141331
841.109	0.0142140
841.187	0.0142645
841.265	0.0142735
841.343	0.0140556
841.421	0.0142971
841.499	0.0142439
841.578	0.0140531
841.656	0.0142498
841.734	0.0142052
841.812	0.0142461
841.890	0.0141600
841.968	0.0143060
842.046	0.0141473
842.124	0.0142722
842.203	0.0142204
842.281	0.0143021
842.359	0.0141787
842.437	0.0141624
842.515	0.0141523
842.593	0.0140254
842.671	0.0142202
842.749	0.0141549
842.828	0.0141074
842.906	0.0141464
842.984	0.0139938
843.062	0.0140424
843.140	0.0139639
843.218	0.0141396
843.296	0.0141078
843.374	0.0140077
843.453	0.0140495
843.531	0.0141248
843.609	0.0139610
843.687	0.0140788
843.765	0.0140759
843.843	0.0141548
843.921	0.0141211
843.999	0.0139913
844.078	0.0141243
844.156	0.0140686
844.234	0.0141733
844.312	0.0141502
844.390	0.0141131
844.468	0.0141807
844.546	0.0141328
844.624	0.0141714
844.703	0.0141114
844.781	0.0140740
844.859	0.0142381
844.937	0.0141135
845.015	0.0141283
845.093	0.0139941
845.171	0.0141136
845.249	0.0139223
845.328	0.0140279
845.406	0.0141458
845.484	0.0139916
845.562	0.0139714
845.640	0.0141569
845.718	0.0140101
845.796	0.0139720
845.874	0.0139300
845.953	0.0139135
846.031	0.0140765
846.109	0.0138862
846.187	0.0139059
846.265	0.0140018
846.343	0.0140443
846.421	0.0141050
846.499	0.0139693
846.578	0.0139635
846.656	0.0140523
846.734	0.0141214
846.812	0.0139478
846.890	0.0141223
846.968	0.0142324
847.046	0.0141038
847.124	0.0142242
847.203	0.0140657
847.281	0.0140794
847.359	0.0142641
847.437	0.0143184
847.515	0.0141068
847.593	0.0142456
847.671	0.0143199
847.749	0.0141846
847.828	0.0142171
847.906	0.0142351
847.984	0.0141805
848.062	0.0142092
848.140	0.0142841
848.218	0.0140977
848.296	0.0140865
848.374	0.0140866
848.453	0.0141441
848.531	0.0140795
848.609	0.0138967
848.687	0.0140858
848.765	0.0140655
848.843	0.0139818
848.921	0.0140051
848.999	0.0139903
849.078	0.0139114
849.156	0.0140002
849.234	0.0140174
849.312	0.0142231
849.390	0.0140672
849.468	0.0140779
849.546	0.0141160
849.624	0.0142341
849.703	0.0143643
849.781	0.0142695
849.859	0.0141646
849.937	0.0142827
850.015	0.0142915
850.093	0.0141849
850.171	0.0141640
850.249	0.0142375
850.328	0.0142315
850.406	0.0142686
850.484	0.0142525
850.562	0.0143139
850.640	0.0144772
850.718	0.0142480
850.796	0.0142043
850.874	0.0141325
850.953	0.0141811
851.031	0.0140611
851.109	0.0141616
851.187	0.0142107
851.265	0.0141235
851.343	0.0142083
851.421	0.0141460
851.499	0.0142097
851.578	0.0141281
851.656	0.0142204
851.734	0.0141803
851.812	0.0141235
851.890	0.0142438
851.968	0.0142776
852.046	0.0141404
852.124	0.0142565
852.203	0.0142885
852.281	0.0141026
852.359	0.0143115
852.437	0.0141504
852.515	0.0141674
852.593	0.0142268
852.671	0.0142704
852.749	0.0143588
852.828	0.0142690
852.906	0.0142309
852.984	0.0141862
853.062	0.0142469
853.140	0.0143530
853.218	0.0143104
853.296	0.0143843
853.374	0.0143494
853.453	0.0141845
853.531	0.0142303
853.609	0.0142573
853.687	0.0144370
853.765	0.0143875
853.843	0.0142200
853.921	0.0143392
853.999	0.0142082
854.078	0.0143080
854.156	0.0143212
854.234	0.0143024
854.312	0.0143223
854.390	0.0141640
854.468	0.0143252
854.546	0.0143471
854.624	0.0142918
854.703	0.0141120
854.781	0.0142292
854.859	0.0142610
854.937	0.0143410
855.015	0.0143763
855.093	0.0143658
855.171	0.0143161
855.249	0.0143404
855.328	0.0143945
855.406	0.0144073
855.484	0.0142800
855.562	0.0144697
855.640	0.0144247
855.718	0.0144064
855.796	0.0143968
855.874	0.0143495
855.953	0.0143932
856.031	0.0145008
856.109	0.0144262
856.187	0.0143817
856.265	0.0144308
856.343	0.0144630
856.421	0.0142638
856.499	0.0143513
856.578	0.0142892
856.656	0.0143724
856.734	0.0143555
856.812	0.0143457
856.890	0.0143094
856.968	0.0143697
857.046	0.0143102
857.124	0.0142930
857.203	0.0142466
857.281	0.0142760
857.359	0.0143263
857.437	0.0144468
857.515	0.0143636
857.593	0.0142504
857.671	0.0143693
857.749	0.0142913
857.828	0.0143114
857.906	0.0143552
857.984	0.0143084
858.062	0.0143224
858.140	0.0144159
858.218	0.0144165
858.296	0.0144516
858.374	0.0143209
858.453	0.0143886
858.531	0.0143240
858.609	0.0143569
858.687	0.0144482
858.765	0.0144233
858.843	0.0142118
858.921	0.0142321
858.999	0.0142448
859.078	0.0142789
859.156	0.0142539
859.234	0.0143488
859.312	0.0142766
859.390	0.0141879
859.468	0.0141853
859.546	0.0143803
859.624	0.0143031
859.703	0.0142662
859.781	0.0142067
859.859	0.0142176
859.937	0.0143865
860.015	0.0143296
860.093	0.0144302
860.171	0.0142477
860.249	0.0143146
860.328	0.0143027
860.406	0.0142852
860.484	0.0142614
860.562	0.0141930
860.640	0.0144344
860.718	0.0143919
860.796	0.0142204
860.874	0.0142423
860.953	0.0143961
861.031	0.0142074
861.109	0.0142379
861.187	0.0142716
861.265	0.0142326
861.343	0.0142575
861.421	0.0141691
861.499	0.0142458
861.578	0.0143110
861.656	0.0142169
861.734	0.0141673
861.812	0.0141203
861.890	0.0143506
861.968	0.0142203
862.046	0.0141457
862.124	0.0141620
862.203	0.0140842
862.281	0.0141462
862.359	0.0140781
862.437	0.0141985
862.515	0.0140573
862.593	0.0140837
862.671	0.0143202
862.749	0.0141051
862.828	0.0141545
862.906	0.0143268
862.984	0.0141402
863.062	0.0142123
863.140	0.0142568
863.218	0.0141862
863.296	0.0142321
863.374	0.0143253
863.453	0.0142554
863.531	0.0141876
863.609	0.0143499
863.687	0.0142162
863.765	0.0142828
863.843	0.0142808
863.921	0.0143260
863.999	0.0142030
864.078	0.0141331
864.156	0.0141290
864.234	0.0140952
864.312	0.0140332
864.390	0.0142355
864.468	0.0141198
864.546	0.0140387
864.624	0.0140704
864.703	0.0141203
864.781	0.0140820
864.859	0.0141064
864.937	0.0141203
865.015	0.0140756
865.093	0.0142012
865.171	0.0141694
865.249	0.0142568
865.328	0.0140085
865.406	0.0140917
865.484	0.0142735
865.562	0.0140938
865.640	0.0142643
865.718	0.0142303
865.796	0.0142420
865.874	0.0142007
865.953	0.0141833
866.031	0.0140614
866.109	0.0141602
866.187	0.0141673
866.265	0.0142836
866.343	0.0142641
866.421	0.0141289
866.499	0.0140608
866.578	0.0140920
866.656	0.0140755
866.734	0.0141455
866.812	0.0139975
866.890	0.0140855
866.968	0.0140598
867.046	0.0140380
867.124	0.0141734
867.203	0.0140900
867.281	0.0140411
867.359	0.0142426
867.437	0.0142203
867.515	0.0142017
867.593	0.0141203
867.671	0.0142033
867.749	0.0141901
867.828	0.0143123
867.906	0.0142021
867.984	0.0141865
868.062	0.0142304
868.140	0.0142374
868.218	0.0142191
868.296	0.0142342
868.374	0.0142928
868.453	0.0140874
868.531	0.0142086
868.609	0.0140730
868.687	0.0140827
868.765	0.0141438
868.843	0.0140468
868.921	0.0140616
868.999	0.0139496
869.078	0.0139839
869.156	0.0140682
869.234	0.0140737
869.312	0.0138260
869.390	0.0138977
869.468	0.0139913
869.546	0.0139808
869.624	0.0140247
869.703	0.0139422
869.781	0.0139986
869.859	0.0139212
869.937	0.0140659
870.015	0.0140083
870.093	0.0139884
870.171	0.0142136
870.249	0.0142612
870.328	0.0140202
870.406	0.0140894
870.484	0.0141273
870.562	0.0141945
870.640	0.0141606
870.718	0.0141624
870.796	0.0140466
870.874	0.0139732
870.953	0.0140478
871.031	0.0140716
871.109	0.0141076
871.187	0.0141924
871.265	0.0141848
871.343	0.0142413
871.421	0.0141272
871.499	0.0141579
871.578	0.0141594
871.656	0.0141826
871.734	0.0141413
871.812	0.0142876
871.890	0.0141791
871.968	0.0142111
872.046	0.0142222
872.124	0.0141920
872.203	0.0141000
872.281	0.0141193
872.359	0.0142978
872.437	0.0142896
872.515	0.0142729
872.593	0.0140718
872.671	0.0142240
872.749	0.0141596
872.828	0.0141178
872.906	0.0141695
872.984	0.0140597
873.062	0.0141711
873.140	0.0142090
873.218	0.0141646
873.296	0.0143671
873.374	0.0142981
873.453	0.0142503
873.531	0.0141023
873.609	0.0141518
873.687	0.0143283
873.765	0.0142632
873.843	0.0142241
873.921	0.0141196
873.999	0.0142191
874.078	0.0142896
874.156	0.0143276
874.234	0.0143857
874.312	0.0142711
874.390	0.0142694
874.468	0.0142602
874.546	0.0141946
874.624	0.0142622
874.703	0.0142043
874.781	0.0140924
874.859	0.0141071
874.937	0.0140328
875.015	0.0141744
875.093	0.0142934
875.171	0.0142191
875.249	0.0141052
875.328	0.0140654
875.406	0.0140909
875.484	0.0140895
875.562	0.0141402
875.640	0.0141839
875.718	0.0141466
875.796	0.0141763
875.874	0.0142793
875.953	0.0143163
876.031	0.0141026
876.109	0.0142670
876.187	0.0142644
876.265	0.0142339
876.343	0.0142409
876.421	0.0141109
876.499	0.0143150
876.578	0.0144062
876.656	0.0141713
876.734	0.0141600
876.812	0.0142737
876.890	0.0142697
876.968	0.0143749
877.046	0.0141859
877.124	0.0140184
877.203	0.0141356
877.281	0.0142829
877.359	0.0142392
877.437	0.0142505
877.515	0.0141775
877.593	0.0141655
877.671	0.0140987
877.749	0.0141099
877.828	0.0140993
877.906	0.0141551
877.984	0.0141689
878.062	0.0142823
878.140	0.0142605
878.218	0.0143040
878.296	0.0142918
878.374	0.0143668
878.453	0.0143587
878.531	0.0144121
878.609	0.0143157
878.687	0.0142195
878.765	0.0143907
878.843	0.0144947
878.921	0.0143660
878.999	0.0142683
879.078	0.0144106
879.156	0.0143256
879.234	0.0143751
879.312	0.0143491
879.390	0.0143953
879.468	0.0143628
879.546	0.0141761
879.624	0.0142644
879.703	0.0142120
879.781	0.0142142
879.859	0.0141830
879.937	0.0140267
880.015	0.0141572
880.093	0.0141005
880.171	0.0140923
880.249	0.0140694
880.328	0.0140931
880.406	0.0141100
880.484	0.0142058
880.562	0.0141383
880.640	0.0141021
880.718	0.0140462
880.796	0.0141271
880.874	0.0141089
880.953	0.0140622
881.031	0.0142239
881.109	0.0142406
881.187	0.0141153
881.265	0.0141598
881.343	0.0141547
881.421	0.0142274
881.499	0.0143692
881.578	0.0143705
881.656	0.0142320
881.734	0.0141840
881.812	0.0141201
881.890	0.0141918
881.968	0.0141862
882.046	0.0142753
882.124	0.0141748
882.203	0.0142506
882.281	0.0141100
882.359	0.0143431
882.437	0.0142460
882.515	0.0141655
882.593	0.0143819
882.671	0.0141129
882.749	0.0142550
882.828	0.0142114
882.906	0.0143041
882.984	0.0140518
883.062	0.0141924
883.140	0.0141885
883.218	0.0143736
883.296	0.0142404
883.374	0.0142175
883.453	0.0142599
883.531	0.0142039
883.609	0.0141720
883.687	0.0143075
883.765	0.0142052
883.843	0.0142058
883.921	0.0142521
883.999	0.0142241
884.078	0.0141640
884.156	0.0141907
884.234	0.0142746
884.312	0.0142235
884.390	0.0142976
884.468	0.0141926
884.546	0.0142981
884.624	0.0142779
884.703	0.0142709
884.781	0.0142676
884.859	0.0142421
884.937	0.0143215
885.015	0.0144409
885.093	0.0143427
885.171	0.0143520
885.249	0.0141575
885.328	0.0141672
885.406	0.0142019
885.484	0.0141947
885.562	0.0143817
885.640	0.0142096
885.718	0.0140749
885.796	0.0142269
885.874	0.0141915
885.953	0.0141866
886.031	0.0141736
886.109	0.0140416
886.187	0.0141861
886.265	0.0142627
886.343	0.0141502
886.421	0.0141255
886.499	0.0142654
886.578	0.0142213
886.656	0.0141276
886.734	0.0142358
886.812	0.0142396
886.890	0.0142390
886.968	0.0142265
887.046	0.0141576
887.124	0.0142383
887.203	0.0143186
887.281	0.0142258
887.359	0.0143604
887.437	0.0141548
887.515	0.0141782
887.593	0.0141616
887.671	0.0141216
887.749	0.0142015
887.828	0.0142136
887.906	0.0140936
887.984	0.0139877
888.062	0.0140994
888.140	0.0141633
888.218	0.0139639
888.296	0.0141794
888.374	0.0141394
888.453	0.0141284
888.531	0.0142065
888.609	0.0141508
888.687	0.0141695
888.765	0.0142160
888.843	0.0141308
888.921	0.0141510
888.999	0.0142723
889.078	0.0140504
889.156	0.0142016
889.234	0.0141063
889.312	0.0142580
889.390	0.0141189
889.468	0.0140560
889.546	0.0142090
889.624	0.0142049
889.703	0.0141209
889.781	0.0140595
889.859	0.0142038
889.937	0.0142222
890.015	0.0142613
890.093	0.0141898
890.171	0.0142395
890.249	0.0142634
890.328	0.0143843
890.406	0.0142250
890.484	0.0142635
890.562	0.0142878
890.640	0.0143443
890.718	0.0143028
890.796	0.0142223
890.874	0.0142870
890.953	0.0142313
891.031	0.0143138
891.109	0.0141901
891.187	0.0142293
891.265	0.0142190
891.343	0.0142177
891.421	0.0142324
891.499	0.0142595
891.578	0.0141843
891.656	0.0141953
891.734	0.0143951
891.812	0.0142422
891.890	0.0142016
891.968	0.0142151
892.046	0.0143299
892.124	0.0142783
892.203	0.0142148
892.281	0.0142453
892.359	0.0142391
892.437	0.0142420
892.515	0.0142328
892.593	0.0142870
892.671	0.0142368
892.749	0.0143736
892.828	0.0142563
892.906	0.0142497
892.984	0.0142790
893.062	0.0141330
893.140	0.0141849
893.218	0.0141846
893.296	0.0142429
893.374	0.0142204
893.453	0.0142381
893.531	0.0141171
893.609	0.0143567
893.687	0.0141641
893.765	0.0141882
893.843	0.0142256
893.921	0.0143120
893.999	0.0142492
894.078	0.0142459
894.156	0.0143088
894.234	0.0142287
894.312	0.0142083
894.390	0.0142844
894.468	0.0143790
894.546	0.0144267
894.624	0.0143671
894.703	0.0144601
894.781	0.0143877
894.859	0.0142942
894.937	0.0144042
895.015	0.0143005
895.093	0.0142573
895.171	0.0144232
895.249	0.0143119
895.328	0.0142973
895.406	0.0142974
895.484	0.0143006
895.562	0.0143447
895.640	0.0143148
895.718	0.0142545
895.796	0.0142379
895.874	0.0143761
895.953	0.0141928
896.031	0.0143491
896.109	0.0142797
896.187	0.0141574
896.265	0.0143036
896.343	0.0141606
896.421	0.0141570
896.499	0.0142504
896.578	0.0140904
896.656	0.0142584
896.734	0.0140969
896.812	0.0142124
896.890	0.0142081
896.968	0.0143095
897.046	0.0141650
897.124	0.0143324
897.203	0.0143159
897.281	0.0143832
897.359	0.0142769
897.437	0.0140471
897.515	0.0142211
897.593	0.0142473
897.671	0.0144414
897.749	0.0142683
897.828	0.0142676
897.906	0.0142354
897.984	0.0143124
898.062	0.0144109
898.140	0.0142730
898.218	0.0142707
898.296	0.0142642
898.374	0.0142403
898.453	0.0142551
898.531	0.0143330
898.609	0.0142622
898.687	0.0142962
898.765	0.0141994
898.843	0.0142788
898.921	0.0142099
898.999	0.0142225
899.078	0.0141488
899.156	0.0141823
899.234	0.0142661
899.312	0.0141616
899.390	0.0143307
899.468	0.0142737
899.546	0.0142865
899.624	0.0141597
899.703	0.0142271
899.781	0.0143309
899.859	0.0141889
899.937	0.0141727
900.015	0.0142567
900.093	0.0142802
900.171	0.0143277
900.249	0.0143023
900.328	0.0142545
900.406	0.0143121
900.484	0.0142601
900.562	0.0143468
900.640	0.0144671
900.718	0.0145607
900.796	0.0142067
900.874	0.0141269
900.953	0.0143121
901.031	0.0143262
901.109	0.0142572
901.187	0.0143489
901.265	0.0143874
901.343	0.0141775
901.421	0.0141841
901.499	0.0142258
901.578	0.0142905
901.656	0.0142948
901.734	0.0143224
901.812	0.0143457
901.890	0.0143903
901.968	0.0142798
902.046	0.0143095
902.124	0.0142950
902.203	0.0141633
902.281	0.0143388
902.359	0.0144399
902.437	0.0142609
902.515	0.0141623
902.593	0.0143030
902.671	0.0143727
902.749	0.0143329
902.828	0.0143783
902.906	0.0144058
902.984	0.0143498
903.062	0.0142785
903.140	0.0143185
903.218	0.0143137
903.296	0.0143150
903.374	0.0143702
903.453	0.0142613
903.531	0.0141507
903.609	0.0142597
903.687	0.0142551
903.765	0.0142704
903.843	0.0141479
903.921	0.0142031
903.999	0.0141696
904.078	0.0140348
904.156	0.0140060
904.234	0.0141135
904.312	0.0142092
904.390	0.0140873
904.468	0.0141064
904.546	0.0140524
904.624	0.0141982
904.703	0.0142432
904.781	0.0140930
904.859	0.0141510
904.937	0.0140563
905.015	0.0142900
905.093	0.0141850
905.171	0.0142618
905.249	0.0142897
905.328	0.0142288
905.406	0.0143175
905.484	0.0141763
905.562	0.0142123
905.640	0.0141454
905.718	0.0142450
905.796	0.0143105
905.874	0.0141319
905.953	0.0142294
906.031	0.0143026
906.109	0.0142629
906.187	0.0141305
906.265	0.0142021
906.343	0.0141821
906.421	0.0141580
906.499	0.0141164
906.578	0.0140595
906.656	0.0140855
906.734	0.0142271
906.812	0.0141041
906.890	0.0141926
906.968	0.0141309
907.046	0.0140750
907.124	0.0141460
907.203	0.0140868
907.281	0.0142808
907.359	0.0140952
907.437	0.0143249
907.515	0.0143662
907.593	0.0141441
907.671	0.0142861
907.749	0.0143037
907.828	0.0142223
907.906	0.0142001
907.984	0.0142079
908.062	0.0142719
908.140	0.0140733
908.218	0.0140652
908.296	0.0142307
908.374	0.0142925
908.453	0.0141863
908.531	0.0142418
908.609	0.0142074
908.687	0.0142123
908.765	0.0143823
908.843	0.0143686
908.921	0.0143400
908.999	0.0143284
909.078	0.0142831
909.156	0.0143175
909.234	0.0143045
909.312	0.0143977
909.390	0.0143983
909.468	0.0142881
909.546	0.0143276
909.624	0.0143758
909.703	0.0144229
909.781	0.0144718
909.859	0.0143292
909.937	0.0142030
910.015	0.0142524
910.093	0.0143759
910.171	0.0142868
910.249	0.0143284
910.328	0.0145276
910.406	0.0142504
910.484	0.0143501
910.562	0.0143243
910.640	0.0143225
910.718	0.0143272
910.796	0.0144241
910.874	0.0143733
910.953	0.0143448
911.031	0.0145179
911.109	0.0143777
911.187	0.0143606
911.265	0.0143301
911.343	0.0142929
911.421	0.0143285
911.499	0.0143166
911.578	0.0142903
911.656	0.0143292
911.734	0.0144278
911.812	0.0143237
911.890	0.0143630
911.968	0.0143986
912.046	0.0142548
912.124	0.0143426
912.203	0.0142691
912.281	0.0143536
912.359	0.0142338
912.437	0.0144189
912.515	0.0142578
912.593	0.0144406
912.671	0.0142970
912.749	0.0142421
912.828	0.0144035
912.906	0.0144115
912.984	0.0143385
913.062	0.0144310
913.140	0.0145074
913.218	0.0142828
913.296	0.0143024
913.374	0.0144484
913.453	0.0143560
913.531	0.0143606
913.609	0.0142136
913.687	0.0143029
913.765	0.0143467
913.843	0.0142061
913.921	0.0142651
913.999	0.0143415
914.078	0.0141691
914.156	0.0141896
914.234	0.0141027
914.312	0.0141342
914.390	0.0142271
914.468	0.0141586
914.546	0.0139985
914.624	0.0141101
914.703	0.0141261
914.781	0.0142412
914.859	0.0140505
914.937	0.0141177
915.015	0.0142105
915.093	0.0141092
915.171	0.0140783
915.249	0.0141897
915.328	0.0141443
915.406	0.0142480
915.484	0.0141405
915.562	0.0140933
915.640	0.0143259
915.718	0.0142348
915.796	0.0141615
915.874	0.0142327
915.953	0.0141850
916.031	0.0141859
916.109	0.0141518
916.187	0.0142968
916.265	0.0143408
916.343	0.0142580
916.421	0.0143758
916.499	0.0141885
916.578	0.0141856
916.656	0.0141357
916.734	0.0141721
916.812	0.0143005
916.890	0.0142651
916.968	0.0142391
917.046	0.0141290
917.124	0.0143812
917.203	0.0143322
917.281	0.0142176
917.359	0.0141842
917.437	0.0143166
917.515	0.0142367
917.593	0.0144828
917.671	0.0144138
917.749	0.0142857
917.828	0.0142924
917.906	0.0143178
917.984	0.0144309
918.062	0.0142219
918.140	0.0143088
918.218	0.0144202
918.296	0.0143281
918.374	0.0142727
918.453	0.0143408
918.531	0.0143961
918.609	0.0143374
918.687	0.0143630
918.765	0.0143743
918.843	0.0143551
918.921	0.0142356
918.999	0.0143311
919.078	0.0144203
919.156	0.0143715
919.234	0.0143929
919.312	0.0141624
919.390	0.0142240
919.468	0.0141951
919.546	0.0143208
919.624	0.0143826
919.703	0.0143433
919.781	0.0141169
919.859	0.0142842
919.937	0.0143018
