05/08/2022	19:49:50	Ver.	4.1	UNKNOWN
Optical Delay	649.989667	Delta X		0.078125	Sweeps	1	Scan Rate	0/0
Coordinates	Axis 1	NaN	Axis 2	NaN	Axis 3	NaN	Axis 4	NaN	Axis 5	NaN	Axis 6	0.000000
TX Power	0.000000	RX Power	0.000000

649.990	0.0127236
650.068	0.0127917
650.146	0.0125972
650.224	0.0127566
650.302	0.0127261
650.380	0.0126118
650.458	0.0126650
650.537	0.0127488
650.615	0.0127334
650.693	0.0125801
650.771	0.0127292
650.849	0.0128352
650.927	0.0127305
651.005	0.0127284
651.083	0.0127435
651.162	0.0126212
651.240	0.0128252
651.318	0.0127522
651.396	0.0125704
651.474	0.0126157
651.552	0.0127352
651.630	0.0125636
651.708	0.0126353
651.787	0.0127562
651.865	0.0127348
651.943	0.0127648
652.021	0.0126839
652.099	0.0125721
652.177	0.0126762
652.255	0.0127317
652.333	0.0125668
652.412	0.0127422
652.490	0.0127760
652.568	0.0127056
652.646	0.0125478
652.724	0.0128440
652.802	0.0127719
652.880	0.0127016
652.958	0.0126347
653.037	0.0126517
653.115	0.0126797
653.193	0.0126327
653.271	0.0126647
653.349	0.0127316
653.427	0.0125993
653.505	0.0126539
653.583	0.0127400
653.662	0.0126723
653.740	0.0126389
653.818	0.0128030
653.896	0.0127408
653.974	0.0127186
654.052	0.0127605
654.130	0.0128516
654.208	0.0128330
654.287	0.0126260
654.365	0.0127440
654.443	0.0127946
654.521	0.0126791
654.599	0.0127466
654.677	0.0126577
654.755	0.0127319
654.833	0.0126587
654.912	0.0126516
654.990	0.0125402
655.068	0.0128073
655.146	0.0126642
655.224	0.0126772
655.302	0.0127287
655.380	0.0125634
655.458	0.0126758
655.537	0.0128356
655.615	0.0128622
655.693	0.0127552
655.771	0.0126731
655.849	0.0125922
655.927	0.0127112
656.005	0.0126818
656.083	0.0127672
656.162	0.0126282
656.240	0.0127873
656.318	0.0127702
656.396	0.0126984
656.474	0.0127116
656.552	0.0128615
656.630	0.0125696
656.708	0.0126444
656.787	0.0127959
656.865	0.0126924
656.943	0.0127309
657.021	0.0126791
657.099	0.0127852
657.177	0.0126952
657.255	0.0127555
657.333	0.0127738
657.412	0.0127769
657.490	0.0127039
657.568	0.0127312
657.646	0.0127232
657.724	0.0125917
657.802	0.0127541
657.880	0.0128390
657.958	0.0126938
658.037	0.0128610
658.115	0.0128259
658.193	0.0127224
658.271	0.0126258
658.349	0.0126398
658.427	0.0127914
658.505	0.0127077
658.583	0.0126830
658.662	0.0126813
658.740	0.0127446
658.818	0.0127492
658.896	0.0126823
658.974	0.0128432
659.052	0.0129137
659.130	0.0127173
659.208	0.0127347
659.287	0.0128259
659.365	0.0126794
659.443	0.0128274
659.521	0.0127795
659.599	0.0128139
659.677	0.0127573
659.755	0.0127412
659.833	0.0128199
659.912	0.0126480
659.990	0.0128002
660.068	0.0128348
660.146	0.0127827
660.224	0.0127448
660.302	0.0126587
660.380	0.0127382
660.458	0.0128017
660.537	0.0127251
660.615	0.0127909
660.693	0.0128127
660.771	0.0127911
660.849	0.0126551
660.927	0.0127087
661.005	0.0127950
661.083	0.0128596
661.162	0.0127659
661.240	0.0127718
661.318	0.0127334
661.396	0.0127604
661.474	0.0128652
661.552	0.0128607
661.630	0.0126797
661.708	0.0127869
661.787	0.0127026
661.865	0.0128275
661.943	0.0127629
662.021	0.0127399
662.099	0.0128118
662.177	0.0127496
662.255	0.0127758
662.333	0.0128590
662.412	0.0126197
662.490	0.0127906
662.568	0.0126064
662.646	0.0127301
662.724	0.0126408
662.802	0.0127371
662.880	0.0128705
662.958	0.0128004
663.037	0.0127269
663.115	0.0127776
663.193	0.0128652
663.271	0.0126914
663.349	0.0127860
663.427	0.0127078
663.505	0.0126313
663.583	0.0127711
663.662	0.0126537
663.740	0.0126151
663.818	0.0126777
663.896	0.0127225
663.974	0.0125505
664.052	0.0126722
664.130	0.0127691
664.208	0.0127232
664.287	0.0127504
664.365	0.0125896
664.443	0.0127374
664.521	0.0126588
664.599	0.0126881
664.677	0.0126773
664.755	0.0126691
664.833	0.0126147
664.912	0.0128849
664.990	0.0127805
665.068	0.0126909
665.146	0.0126073
665.224	0.0126687
665.302	0.0126959
665.380	0.0125366
665.458	0.0126704
665.537	0.0128127
665.615	0.0126105
665.693	0.0126333
665.771	0.0127252
665.849	0.0126832
665.927	0.0127949
666.005	0.0127943
666.083	0.0128334
666.162	0.0128179
666.240	0.0128693
666.318	0.0128551
666.396	0.0127916
666.474	0.0129517
666.552	0.0128815
666.630	0.0126830
666.708	0.0125272
666.787	0.0125758
666.865	0.0125169
666.943	0.0123189
667.021	0.0123707
667.099	0.0123936
667.177	0.0123691
667.255	0.0125083
667.333	0.0126312
667.412	0.0127578
667.490	0.0129610
667.568	0.0131267
667.646	0.0131157
667.724	0.0131335
667.802	0.0132805
667.880	0.0130856
667.958	0.0131784
668.037	0.0130182
668.115	0.0128912
668.193	0.0128362
668.271	0.0128018
668.349	0.0125872
668.427	0.0125705
668.505	0.0124715
668.583	0.0124766
668.662	0.0122684
668.740	0.0121740
668.818	0.0122192
668.896	0.0121841
668.974	0.0122504
669.052	0.0121436
669.130	0.0121922
669.208	0.0123057
669.287	0.0126109
669.365	0.0127396
669.443	0.0129577
669.521	0.0131435
669.599	0.0131461
669.677	0.0131310
669.755	0.0130953
669.833	0.0130600
669.912	0.0129981
669.990	0.0128359
670.068	0.0126840
670.146	0.0127788
670.224	0.0127238
670.302	0.0128664
670.380	0.0128864
670.458	0.0130238
670.537	0.0131216
670.615	0.0132613
670.693	0.0133233
670.771	0.0131971
670.849	0.0132162
670.927	0.0131435
671.005	0.0129565
671.083	0.0128485
671.162	0.0126962
671.240	0.0124926
671.318	0.0123071
671.396	0.0123618
671.474	0.0121147
671.552	0.0118320
671.630	0.0120686
671.708	0.0121278
671.787	0.0121880
671.865	0.0122173
671.943	0.0123465
672.021	0.0124400
672.099	0.0123630
672.177	0.0124495
672.255	0.0124252
672.333	0.0123610
672.412	0.0123695
672.490	0.0123361
672.568	0.0122031
672.646	0.0123087
672.724	0.0125191
672.802	0.0127453
672.880	0.0129681
672.958	0.0131178
673.037	0.0134306
673.115	0.0137635
673.193	0.0139756
673.271	0.0141489
673.349	0.0143678
673.427	0.0144614
673.505	0.0143929
673.583	0.0140100
673.662	0.0139886
673.740	0.0135683
673.818	0.0132130
673.896	0.0129681
673.974	0.0126515
674.052	0.0123462
674.130	0.0120887
674.208	0.0119403
674.287	0.0120657
674.365	0.0120863
674.443	0.0122507
674.521	0.0121240
674.599	0.0121452
674.677	0.0120526
674.755	0.0119444
674.833	0.0118188
674.912	0.0117205
674.990	0.0114850
675.068	0.0111372
675.146	0.0109077
675.224	0.0110434
675.302	0.0108234
675.380	0.0107738
675.458	0.0110251
675.537	0.0111669
675.615	0.0114113
675.693	0.0117707
675.771	0.0121471
675.849	0.0126028
675.927	0.0128921
676.005	0.0133576
676.083	0.0137413
676.162	0.0141138
676.240	0.0145390
676.318	0.0149509
676.396	0.0151326
676.474	0.0153188
676.552	0.0155811
676.630	0.0157767
676.708	0.0157680
676.787	0.0156467
676.865	0.0155077
676.943	0.0153998
677.021	0.0148907
677.099	0.0146535
677.177	0.0142957
677.255	0.0137379
677.333	0.0132518
677.412	0.0128318
677.490	0.0124921
677.568	0.0119926
677.646	0.0117185
677.724	0.0116077
677.802	0.0113769
677.880	0.0111982
677.958	0.0112466
678.037	0.0110631
678.115	0.0105984
678.193	0.0105108
678.271	0.0104110
678.349	0.0100469
678.427	0.00957542
678.505	0.00956192
678.583	0.00929764
678.662	0.00898621
678.740	0.00908730
678.818	0.00913795
678.896	0.00928322
678.974	0.00955536
679.052	0.0101231
679.130	0.0107213
679.208	0.0112129
679.287	0.0120209
679.365	0.0129514
679.443	0.0136811
679.521	0.0142596
679.599	0.0150146
679.677	0.0155980
679.755	0.0159513
679.833	0.0161512
679.912	0.0162672
679.990	0.0164400
680.068	0.0167805
680.146	0.0168800
680.224	0.0169427
680.302	0.0172733
680.380	0.0174761
680.458	0.0176489
680.537	0.0178143
680.615	0.0179123
680.693	0.0176167
680.771	0.0174628
680.849	0.0168883
680.927	0.0161892
681.005	0.0152762
681.083	0.0142688
681.162	0.0128949
681.240	0.0114437
681.318	0.0100452
681.396	0.00846466
681.474	0.00730156
681.552	0.00627052
681.630	0.00554108
681.708	0.00511292
681.787	0.00489944
681.865	0.00523796
681.943	0.00553772
682.021	0.00614052
682.099	0.00678734
682.177	0.00763062
682.255	0.00830551
682.333	0.00905235
682.412	0.00969917
682.490	0.0102777
682.568	0.0109620
682.646	0.0118359
682.724	0.0126074
682.802	0.0132381
682.880	0.0140421
682.958	0.0149012
683.037	0.0155677
683.115	0.0164119
683.193	0.0170209
683.271	0.0176287
683.349	0.0180679
683.427	0.0183522
683.505	0.0183579
683.583	0.0182392
683.662	0.0179175
683.740	0.0176638
683.818	0.0168476
683.896	0.0162669
683.974	0.0155548
684.052	0.0149803
684.130	0.0143353
684.208	0.0137895
684.287	0.0132798
684.365	0.0128996
684.443	0.0127293
684.521	0.0128629
684.599	0.0127928
684.677	0.0125253
684.755	0.0125938
684.833	0.0127110
684.912	0.0127685
684.990	0.0126511
685.068	0.0125114
685.146	0.0125577
685.224	0.0123002
685.302	0.0119705
685.380	0.0120321
685.458	0.0116958
685.537	0.0113902
685.615	0.0113256
685.693	0.0110495
685.771	0.0107504
685.849	0.0106248
685.927	0.0103886
686.005	0.0100723
686.083	0.00979034
686.162	0.00964241
686.240	0.00956665
686.318	0.00934761
686.396	0.00943336
686.474	0.00965080
686.552	0.00960114
686.630	0.00981987
686.708	0.0101000
686.787	0.0105840
686.865	0.0110583
686.943	0.0114320
687.021	0.0120448
687.099	0.0125394
687.177	0.0130602
687.255	0.0135683
687.333	0.0141570
687.412	0.0145928
687.490	0.0149689
687.568	0.0151049
687.646	0.0154533
687.724	0.0156387
687.802	0.0156721
687.880	0.0156358
687.958	0.0156570
688.037	0.0156375
688.115	0.0156894
688.193	0.0155048
688.271	0.0153270
688.349	0.0152386
688.427	0.0150410
688.505	0.0147617
688.583	0.0144114
688.662	0.0141471
688.740	0.0138904
688.818	0.0136236
688.896	0.0133051
688.974	0.0130247
689.052	0.0127450
689.130	0.0125507
689.208	0.0123138
689.287	0.0121019
689.365	0.0120038
689.443	0.0119817
689.521	0.0119377
689.599	0.0120026
689.677	0.0123292
689.755	0.0124957
689.833	0.0126989
689.912	0.0127895
689.990	0.0130514
690.068	0.0129076
690.146	0.0128325
690.224	0.0127721
690.302	0.0127521
690.380	0.0123643
690.458	0.0121490
690.537	0.0119308
690.615	0.0117139
690.693	0.0115464
690.771	0.0111275
690.849	0.0108483
690.927	0.0107495
691.005	0.0104793
691.083	0.0101710
691.162	0.00985809
691.240	0.00967392
691.318	0.00962547
691.396	0.00950966
691.474	0.00947617
691.552	0.00960449
691.630	0.00966362
691.708	0.00987633
691.787	0.0102353
691.865	0.0105893
691.943	0.0110966
692.021	0.0116091
692.099	0.0123376
692.177	0.0129996
692.255	0.0138181
692.333	0.0145070
692.412	0.0149786
692.490	0.0154391
692.568	0.0157464
692.646	0.0159978
692.724	0.0160003
692.802	0.0159726
692.880	0.0156706
692.958	0.0153614
693.037	0.0150918
693.115	0.0147787
693.193	0.0146475
693.271	0.0145502
693.349	0.0145023
693.427	0.0146806
693.505	0.0146987
693.583	0.0149741
693.662	0.0152425
693.740	0.0153077
693.818	0.0153100
693.896	0.0152094
693.974	0.0149049
694.052	0.0145631
694.130	0.0142255
694.208	0.0136880
694.287	0.0131654
694.365	0.0126844
694.443	0.0122939
694.521	0.0119270
694.599	0.0115903
694.677	0.0114545
694.755	0.0111636
694.833	0.0108580
694.912	0.0107877
694.990	0.0109253
695.068	0.0107162
695.146	0.0106897
695.224	0.0107381
695.302	0.0106326
695.380	0.0107925
695.458	0.0108992
695.537	0.0106304
695.615	0.0109648
695.693	0.0111985
695.771	0.0114496
695.849	0.0116277
695.927	0.0118033
696.005	0.0120894
696.083	0.0122073
696.162	0.0122686
696.240	0.0119974
696.318	0.0117178
696.396	0.0113602
696.474	0.0109660
696.552	0.0102996
696.630	0.00981567
696.708	0.00942703
696.787	0.00903748
696.865	0.00876839
696.943	0.00898041
697.021	0.00929031
697.099	0.00986771
697.177	0.0102803
697.255	0.0112475
697.333	0.0120913
697.412	0.0129253
697.490	0.0139808
697.568	0.0145430
697.646	0.0153574
697.724	0.0162385
697.802	0.0169293
697.880	0.0174650
697.958	0.0177910
698.037	0.0180633
698.115	0.0182609
698.193	0.0182221
698.271	0.0181497
698.349	0.0178735
698.427	0.0177028
698.505	0.0176242
698.583	0.0170430
698.662	0.0166637
698.740	0.0163728
698.818	0.0159388
698.896	0.0154432
698.974	0.0147920
699.052	0.0142642
699.130	0.0137402
699.208	0.0131563
699.287	0.0127148
699.365	0.0121886
699.443	0.0114108
699.521	0.0109898
699.599	0.0104637
699.677	0.00983673
699.755	0.00939949
699.833	0.00895592
699.912	0.00865471
699.990	0.00798256
700.068	0.00769485
700.146	0.00753922
700.224	0.00738350
700.302	0.00730804
700.380	0.00735466
700.458	0.00772293
700.537	0.00823524
700.615	0.00890205
700.693	0.00950386
700.771	0.0103778
700.849	0.0112490
700.927	0.0121176
701.005	0.0129530
701.083	0.0137418
701.162	0.0144633
701.240	0.0150455
701.318	0.0154213
701.396	0.0157411
701.474	0.0156650
701.552	0.0159202
701.630	0.0157927
701.708	0.0154814
701.787	0.0150430
701.865	0.0144469
701.943	0.0137810
702.021	0.0132832
702.099	0.0127298
702.177	0.0120570
702.255	0.0114507
702.333	0.0109913
702.412	0.0109355
702.490	0.0106599
702.568	0.0107957
702.646	0.0109771
702.724	0.0109827
702.802	0.0114098
702.880	0.0118820
702.958	0.0121531
703.037	0.0126012
703.115	0.0131412
703.193	0.0135828
703.271	0.0141677
703.349	0.0146365
703.427	0.0150817
703.505	0.0154078
703.583	0.0157094
703.662	0.0159812
703.740	0.0160178
703.818	0.0160189
703.896	0.0159072
703.974	0.0155812
704.052	0.0152883
704.130	0.0149043
704.208	0.0145579
704.287	0.0141343
704.365	0.0137888
704.443	0.0134019
704.521	0.0131859
704.599	0.0129014
704.677	0.0127200
704.755	0.0127449
704.833	0.0126280
704.912	0.0124154
704.990	0.0126356
705.068	0.0124966
705.146	0.0121886
705.224	0.0119691
705.302	0.0117519
705.380	0.0115670
705.458	0.0112851
705.537	0.0106670
705.615	0.0102464
705.693	0.0102183
705.771	0.00967728
705.849	0.00956047
705.927	0.00957016
706.005	0.00948990
706.083	0.00980438
706.162	0.0101575
706.240	0.0102527
706.318	0.0106731
706.396	0.0112618
706.474	0.0117301
706.552	0.0124584
706.630	0.0128185
706.708	0.0131691
706.787	0.0138233
706.865	0.0142054
706.943	0.0145448
707.021	0.0147775
707.099	0.0148219
707.177	0.0148958
707.255	0.0147359
707.333	0.0144529
707.412	0.0139671
707.490	0.0135556
707.568	0.0130922
707.646	0.0124306
707.724	0.0120068
707.802	0.0113081
707.880	0.0107997
707.958	0.0105394
708.037	0.0101764
708.115	0.00989029
708.193	0.0100156
708.271	0.0102619
708.349	0.0104954
708.427	0.0107641
708.505	0.0112811
708.583	0.0119360
708.662	0.0126067
708.740	0.0130273
708.818	0.0135170
708.896	0.0140414
708.974	0.0146032
709.052	0.0148442
709.130	0.0153406
709.208	0.0156001
709.287	0.0158968
709.365	0.0162134
709.443	0.0165269
709.521	0.0166638
709.599	0.0166018
709.677	0.0165801
709.755	0.0167479
709.833	0.0165858
709.912	0.0162581
709.990	0.0160171
710.068	0.0158123
710.146	0.0152549
710.224	0.0149295
710.302	0.0143613
710.380	0.0138605
710.458	0.0133849
710.537	0.0128433
710.615	0.0124158
710.693	0.0118369
710.771	0.0112666
710.849	0.0109843
710.927	0.0103233
711.005	0.00970337
711.083	0.00940002
711.162	0.00896584
711.240	0.00847534
711.318	0.00830383
711.396	0.00818039
711.474	0.00817970
711.552	0.00831528
711.630	0.00874115
711.708	0.00907646
711.787	0.00952133
711.865	0.0101633
711.943	0.0106776
712.021	0.0110610
712.099	0.0118652
712.177	0.0125110
712.255	0.0130127
712.333	0.0133540
712.412	0.0136362
712.490	0.0139525
712.568	0.0140517
712.646	0.0142725
712.724	0.0140059
712.802	0.0138966
712.880	0.0138015
712.958	0.0135258
713.037	0.0132581
713.115	0.0130985
713.193	0.0125653
713.271	0.0125072
713.349	0.0123169
713.427	0.0122146
713.505	0.0121095
713.583	0.0120214
713.662	0.0120794
713.740	0.0121427
713.818	0.0119346
713.896	0.0123188
713.974	0.0125674
714.052	0.0126363
714.130	0.0129797
714.208	0.0132256
714.287	0.0136668
714.365	0.0139941
714.443	0.0143202
714.521	0.0146390
714.599	0.0150249
714.677	0.0152782
714.755	0.0152654
714.833	0.0155518
714.912	0.0154140
714.990	0.0151492
715.068	0.0150706
715.146	0.0148494
715.224	0.0145580
715.302	0.0143829
715.380	0.0142028
715.458	0.0140397
715.537	0.0138033
715.615	0.0136977
715.693	0.0136263
715.771	0.0133296
715.849	0.0133964
715.927	0.0132471
716.005	0.0132928
716.083	0.0131819
716.162	0.0131185
716.240	0.0129450
716.318	0.0125579
716.396	0.0122675
716.474	0.0118659
716.552	0.0113375
716.630	0.0111274
716.708	0.0106844
716.787	0.0104725
716.865	0.0101589
716.943	0.0100581
717.021	0.00994881
717.099	0.0100214
717.177	0.00989235
717.255	0.0102192
717.333	0.0106079
717.412	0.0108865
717.490	0.0111288
717.568	0.0113313
717.646	0.0115991
717.724	0.0119679
717.802	0.0121586
717.880	0.0125046
717.958	0.0126334
718.037	0.0128874
718.115	0.0129710
718.193	0.0128820
718.271	0.0127748
718.349	0.0126696
718.427	0.0125229
718.505	0.0124297
718.583	0.0121622
718.662	0.0118224
718.740	0.0115684
718.818	0.0114124
718.896	0.0113697
718.974	0.0112228
719.052	0.0113903
719.130	0.0114840
719.208	0.0118196
719.287	0.0120782
719.365	0.0124164
719.443	0.0129758
719.521	0.0134692
719.599	0.0137622
719.677	0.0140771
719.755	0.0144867
719.833	0.0148961
719.912	0.0151067
719.990	0.0152456
720.068	0.0154647
720.146	0.0154774
720.224	0.0154152
720.302	0.0155685
720.380	0.0153623
720.458	0.0152971
720.537	0.0153465
720.615	0.0149914
720.693	0.0149738
720.771	0.0146828
720.849	0.0144305
720.927	0.0141764
721.005	0.0139423
721.083	0.0137953
721.162	0.0136034
721.240	0.0132566
721.318	0.0128245
721.396	0.0126369
721.474	0.0124931
721.552	0.0121545
721.630	0.0120339
721.708	0.0120126
721.787	0.0117462
721.865	0.0117660
721.943	0.0115947
722.021	0.0115924
722.099	0.0112651
722.177	0.0111964
722.255	0.0111841
722.333	0.0111487
722.412	0.0112116
722.490	0.0109839
722.568	0.0110146
722.646	0.0112000
722.724	0.0112135
722.802	0.0113493
722.880	0.0113528
722.958	0.0114852
723.037	0.0118416
723.115	0.0121973
723.193	0.0124046
723.271	0.0126059
723.349	0.0126512
723.427	0.0126609
723.505	0.0128784
723.583	0.0126308
723.662	0.0124485
723.740	0.0123495
723.818	0.0119404
723.896	0.0116603
723.974	0.0113688
724.052	0.0111101
724.130	0.0110202
724.208	0.0107927
724.287	0.0107560
724.365	0.0106912
724.443	0.0105903
724.521	0.0107644
724.599	0.0110518
724.677	0.0114173
724.755	0.0116671
724.833	0.0121812
724.912	0.0124076
724.990	0.0130031
725.068	0.0135789
725.146	0.0138758
725.224	0.0143559
725.302	0.0145934
725.380	0.0151263
725.458	0.0154642
725.537	0.0157110
725.615	0.0158230
725.693	0.0158600
725.771	0.0158228
725.849	0.0157880
725.927	0.0156095
726.005	0.0154475
726.083	0.0153015
726.162	0.0148554
726.240	0.0145746
726.318	0.0143124
726.396	0.0140857
726.474	0.0137306
726.552	0.0134062
726.630	0.0131433
726.708	0.0130860
726.787	0.0128082
726.865	0.0124543
726.943	0.0123567
727.021	0.0121600
727.099	0.0119515
727.177	0.0118766
727.255	0.0114265
727.333	0.0112635
727.412	0.0111081
727.490	0.0109249
727.568	0.0108097
727.646	0.0108494
727.724	0.0108737
727.802	0.0109308
727.880	0.0109441
727.958	0.0111301
728.037	0.0113828
728.115	0.0116109
728.193	0.0117467
728.271	0.0119437
728.349	0.0121888
728.427	0.0125286
728.505	0.0127137
728.583	0.0128419
728.662	0.0129952
728.740	0.0131134
728.818	0.0133575
728.896	0.0131329
728.974	0.0131190
729.052	0.0131399
729.130	0.0129514
729.208	0.0130296
729.287	0.0129016
729.365	0.0127079
729.443	0.0124622
729.521	0.0123254
729.599	0.0123184
729.677	0.0120201
729.755	0.0119305
729.833	0.0118346
729.912	0.0118726
729.990	0.0118270
730.068	0.0118348
730.146	0.0118270
730.224	0.0118545
730.302	0.0119064
730.380	0.0121047
730.458	0.0123053
730.537	0.0123225
730.615	0.0124974
730.693	0.0125249
730.771	0.0127003
730.849	0.0128360
730.927	0.0130650
731.005	0.0132272
731.083	0.0133484
731.162	0.0133740
731.240	0.0134883
731.318	0.0137139
731.396	0.0136787
731.474	0.0136926
731.552	0.0139044
731.630	0.0138302
731.708	0.0139033
731.787	0.0138969
731.865	0.0137846
731.943	0.0137802
732.021	0.0137314
732.099	0.0136160
732.177	0.0135056
732.255	0.0133794
732.333	0.0134247
732.412	0.0133075
732.490	0.0132671
732.568	0.0131120
732.646	0.0132623
732.724	0.0132353
732.802	0.0132527
732.880	0.0131521
732.958	0.0132462
733.037	0.0132040
733.115	0.0131017
733.193	0.0131153
733.271	0.0130273
733.349	0.0127634
733.427	0.0126640
733.505	0.0125847
733.583	0.0124525
733.662	0.0126268
733.740	0.0122682
733.818	0.0122469
733.896	0.0121605
733.974	0.0121587
734.052	0.0120885
734.130	0.0121441
734.208	0.0121181
734.287	0.0121073
734.365	0.0119064
734.443	0.0119361
734.521	0.0117877
734.599	0.0118036
734.677	0.0119672
734.755	0.0118848
734.833	0.0117390
734.912	0.0117940
734.990	0.0120678
735.068	0.0120692
735.146	0.0121521
735.224	0.0122358
735.302	0.0123846
735.380	0.0124618
735.458	0.0125911
735.537	0.0126132
735.615	0.0126574
735.693	0.0127431
735.771	0.0128477
735.849	0.0127325
735.927	0.0126317
736.005	0.0126793
736.083	0.0126261
736.162	0.0126747
736.240	0.0125616
736.318	0.0126067
736.396	0.0126751
736.474	0.0127116
736.552	0.0126466
736.630	0.0127207
736.708	0.0130002
736.787	0.0129805
736.865	0.0130559
736.943	0.0129670
737.021	0.0132466
737.099	0.0133119
737.177	0.0132188
737.255	0.0131405
737.333	0.0132034
737.412	0.0131750
737.490	0.0131932
737.568	0.0132105
737.646	0.0132584
737.724	0.0132754
737.802	0.0132626
737.880	0.0133902
737.958	0.0133530
738.037	0.0133143
738.115	0.0132568
738.193	0.0132306
738.271	0.0132716
738.349	0.0131506
738.427	0.0132411
738.505	0.0130162
738.583	0.0131188
738.662	0.0131289
738.740	0.0130643
738.818	0.0128966
738.896	0.0128308
738.974	0.0127779
739.052	0.0127798
739.130	0.0126679
739.208	0.0126348
739.287	0.0126942
739.365	0.0129076
739.443	0.0127679
739.521	0.0126961
739.599	0.0126379
739.677	0.0126446
739.755	0.0126655
739.833	0.0124671
739.912	0.0123367
739.990	0.0124191
740.068	0.0124693
740.146	0.0122792
740.224	0.0121880
740.302	0.0120577
740.380	0.0119854
740.458	0.0119109
740.537	0.0118621
740.615	0.0118896
740.693	0.0119381
740.771	0.0119260
740.849	0.0120172
740.927	0.0120687
741.005	0.0122620
741.083	0.0121696
741.162	0.0123741
741.240	0.0124487
741.318	0.0126208
741.396	0.0128323
741.474	0.0130598
741.552	0.0129469
741.630	0.0130675
741.708	0.0129169
741.787	0.0130465
741.865	0.0129921
741.943	0.0131078
742.021	0.0130688
742.099	0.0131004
742.177	0.0131316
742.255	0.0129709
742.333	0.0131393
742.412	0.0131586
742.490	0.0131505
742.568	0.0130335
742.646	0.0131133
742.724	0.0129626
742.802	0.0129227
742.880	0.0128787
742.958	0.0127382
743.037	0.0126096
743.115	0.0125745
743.193	0.0124075
743.271	0.0124141
743.349	0.0124471
743.427	0.0124634
743.505	0.0124027
743.583	0.0123770
743.662	0.0122939
743.740	0.0125864
743.818	0.0125928
743.896	0.0128253
743.974	0.0126698
744.052	0.0126727
744.130	0.0127267
744.208	0.0127359
744.287	0.0128291
744.365	0.0127544
744.443	0.0126877
744.521	0.0126665
744.599	0.0127406
744.677	0.0125555
744.755	0.0126134
744.833	0.0126650
744.912	0.0127782
744.990	0.0128988
745.068	0.0128619
745.146	0.0129020
745.224	0.0130473
745.302	0.0131371
745.380	0.0132679
745.458	0.0133838
745.537	0.0134110
745.615	0.0133834
745.693	0.0133241
745.771	0.0132835
745.849	0.0133649
745.927	0.0131703
746.005	0.0130293
746.083	0.0130132
746.162	0.0127597
746.240	0.0126531
746.318	0.0123251
746.396	0.0124355
746.474	0.0121500
746.552	0.0123166
746.630	0.0122604
746.708	0.0119911
746.787	0.0122438
746.865	0.0120703
746.943	0.0121639
747.021	0.0122665
747.099	0.0122202
747.177	0.0120683
747.255	0.0119987
747.333	0.0120907
747.412	0.0121400
747.490	0.0122012
747.568	0.0120901
747.646	0.0122276
747.724	0.0121747
747.802	0.0123785
747.880	0.0122948
747.958	0.0122056
748.037	0.0123450
748.115	0.0124615
748.193	0.0125072
748.271	0.0126073
748.349	0.0125899
748.427	0.0127573
748.505	0.0128693
748.583	0.0128403
748.662	0.0130795
748.740	0.0131606
748.818	0.0131639
748.896	0.0132164
748.974	0.0131894
749.052	0.0130929
749.130	0.0132914
749.208	0.0132827
749.287	0.0132520
749.365	0.0130701
749.443	0.0131318
749.521	0.0130074
749.599	0.0130012
749.677	0.0129166
749.755	0.0128900
749.833	0.0130499
749.912	0.0129978
749.990	0.0128612
750.068	0.0128381
750.146	0.0128304
750.224	0.0127040
750.302	0.0128088
750.380	0.0128657
750.458	0.0127641
750.537	0.0126640
750.615	0.0127240
750.693	0.0127710
750.771	0.0125605
750.849	0.0127739
750.927	0.0125273
751.005	0.0124497
751.083	0.0125583
751.162	0.0126730
751.240	0.0125591
751.318	0.0124860
751.396	0.0125359
751.474	0.0125364
751.552	0.0125200
751.630	0.0125005
751.708	0.0127504
751.787	0.0125650
751.865	0.0125713
751.943	0.0125453
752.021	0.0125497
752.099	0.0125741
752.177	0.0127117
752.255	0.0126620
752.333	0.0126779
752.412	0.0126794
752.490	0.0128343
752.568	0.0128885
752.646	0.0128046
752.724	0.0128091
752.802	0.0128029
752.880	0.0128701
752.958	0.0128274
753.037	0.0128181
753.115	0.0129201
753.193	0.0127613
753.271	0.0127507
753.349	0.0128899
753.427	0.0127132
753.505	0.0127460
753.583	0.0127249
753.662	0.0125990
753.740	0.0128964
753.818	0.0127408
753.896	0.0127011
753.974	0.0128324
754.052	0.0127211
754.130	0.0126057
754.208	0.0127248
754.287	0.0126943
754.365	0.0126331
754.443	0.0127048
754.521	0.0126762
754.599	0.0129124
754.677	0.0127063
754.755	0.0128399
754.833	0.0129379
754.912	0.0129055
754.990	0.0130382
755.068	0.0127608
755.146	0.0126772
755.224	0.0127535
755.302	0.0128487
755.380	0.0128036
755.458	0.0127863
755.537	0.0125803
755.615	0.0127152
755.693	0.0128161
755.771	0.0128122
755.849	0.0129342
755.927	0.0129716
756.005	0.0130134
756.083	0.0129749
756.162	0.0128532
756.240	0.0129302
756.318	0.0130892
756.396	0.0129499
756.474	0.0129889
756.552	0.0130013
756.630	0.0129838
756.708	0.0129163
756.787	0.0128399
756.865	0.0128770
756.943	0.0128732
757.021	0.0126770
757.099	0.0127098
757.177	0.0127750
757.255	0.0125875
757.333	0.0126041
757.412	0.0125899
757.490	0.0126477
757.568	0.0124776
757.646	0.0124379
757.724	0.0127085
757.802	0.0127547
757.880	0.0125565
757.958	0.0127251
758.037	0.0126670
758.115	0.0126659
758.193	0.0127177
758.271	0.0126237
758.349	0.0127412
758.427	0.0126614
758.505	0.0128144
758.583	0.0127220
758.662	0.0126900
758.740	0.0126192
758.818	0.0126730
758.896	0.0124767
758.974	0.0126133
759.052	0.0124880
759.130	0.0125501
759.208	0.0124371
759.287	0.0123959
759.365	0.0124786
759.443	0.0125479
759.521	0.0124167
759.599	0.0126575
759.677	0.0125826
759.755	0.0126901
759.833	0.0127324
759.912	0.0126528
759.990	0.0128053
760.068	0.0127694
760.146	0.0125693
760.224	0.0127059
760.302	0.0127572
760.380	0.0126350
760.458	0.0126902
760.537	0.0125951
760.615	0.0124757
760.693	0.0126281
760.771	0.0125208
760.849	0.0126505
760.927	0.0126344
761.005	0.0126753
761.083	0.0125589
761.162	0.0125674
761.240	0.0127374
761.318	0.0129725
761.396	0.0129995
761.474	0.0132642
761.552	0.0131579
761.630	0.0130356
761.708	0.0132413
761.787	0.0131711
761.865	0.0131754
761.943	0.0133312
762.021	0.0132948
762.099	0.0132351
762.177	0.0131658
762.255	0.0132280
762.333	0.0132570
762.412	0.0132255
762.490	0.0131883
762.568	0.0129630
762.646	0.0130138
762.724	0.0130038
762.802	0.0130627
762.880	0.0129043
762.958	0.0127764
763.037	0.0127016
763.115	0.0125471
763.193	0.0125483
763.271	0.0125073
763.349	0.0124996
763.427	0.0123721
763.505	0.0122213
763.583	0.0121187
763.662	0.0121705
763.740	0.0122646
763.818	0.0121429
763.896	0.0119548
763.974	0.0120800
764.052	0.0121421
764.130	0.0120654
764.208	0.0121243
764.287	0.0122145
764.365	0.0123344
764.443	0.0120710
764.521	0.0122335
764.599	0.0123303
764.677	0.0124776
764.755	0.0124812
764.833	0.0126057
764.912	0.0126452
764.990	0.0127777
765.068	0.0128378
765.146	0.0128585
765.224	0.0131255
765.302	0.0129803
765.380	0.0130717
765.458	0.0133096
765.537	0.0131956
765.615	0.0131572
765.693	0.0131966
765.771	0.0132484
765.849	0.0132592
765.927	0.0133669
766.005	0.0132280
766.083	0.0131231
766.162	0.0131270
766.240	0.0130876
766.318	0.0129843
766.396	0.0130097
766.474	0.0128868
766.552	0.0128758
766.630	0.0128092
766.708	0.0128723
766.787	0.0127312
766.865	0.0127727
766.943	0.0127952
767.021	0.0125806
767.099	0.0126637
767.177	0.0125517
767.255	0.0126240
767.333	0.0125112
767.412	0.0126013
767.490	0.0123660
767.568	0.0124847
767.646	0.0124164
767.724	0.0124228
767.802	0.0122089
767.880	0.0124429
767.958	0.0123785
768.037	0.0124171
768.115	0.0124098
768.193	0.0125630
768.271	0.0127940
768.349	0.0126962
768.427	0.0126681
768.505	0.0127895
768.583	0.0129127
768.662	0.0130106
768.740	0.0131125
768.818	0.0130449
768.896	0.0131336
768.974	0.0130389
769.052	0.0130219
769.130	0.0131076
769.208	0.0130348
769.287	0.0129728
769.365	0.0129052
769.443	0.0129990
769.521	0.0127576
769.599	0.0128011
769.677	0.0127863
769.755	0.0126208
769.833	0.0124715
769.912	0.0125329
769.990	0.0125817
770.068	0.0126730
770.146	0.0126254
770.224	0.0126930
770.302	0.0125694
770.380	0.0126521
770.458	0.0125570
770.537	0.0126621
770.615	0.0126247
770.693	0.0126559
770.771	0.0128266
770.849	0.0125999
770.927	0.0126241
771.005	0.0123779
771.083	0.0124755
771.162	0.0124576
771.240	0.0124676
771.318	0.0124605
771.396	0.0123845
771.474	0.0124187
771.552	0.0123048
771.630	0.0124780
771.708	0.0123814
771.787	0.0123771
771.865	0.0123892
771.943	0.0123928
772.021	0.0124209
772.099	0.0123923
772.177	0.0124746
772.255	0.0124458
772.333	0.0125370
772.412	0.0125791
772.490	0.0126498
772.568	0.0128146
772.646	0.0128857
772.724	0.0128596
772.802	0.0128663
772.880	0.0129624
772.958	0.0130376
773.037	0.0129831
773.115	0.0132644
773.193	0.0133733
773.271	0.0132906
773.349	0.0132787
773.427	0.0133946
773.505	0.0133396
773.583	0.0134554
773.662	0.0134541
773.740	0.0133547
773.818	0.0131655
773.896	0.0131603
773.974	0.0131353
774.052	0.0131171
774.130	0.0130865
774.208	0.0130862
774.287	0.0129168
774.365	0.0128111
774.443	0.0127489
774.521	0.0125922
774.599	0.0125544
774.677	0.0126233
774.755	0.0123824
774.833	0.0122452
774.912	0.0122395
774.990	0.0122878
775.068	0.0121246
775.146	0.0121515
775.224	0.0120671
775.302	0.0120668
775.380	0.0120934
775.458	0.0122260
775.537	0.0122082
775.615	0.0121464
775.693	0.0123553
775.771	0.0123288
775.849	0.0125077
775.927	0.0125797
776.005	0.0127795
776.083	0.0127055
776.162	0.0128281
776.240	0.0128812
776.318	0.0129837
776.396	0.0130191
776.474	0.0131529
776.552	0.0131843
776.630	0.0132560
776.708	0.0131759
776.787	0.0131861
776.865	0.0135125
776.943	0.0135109
777.021	0.0133080
777.099	0.0134366
777.177	0.0133249
777.255	0.0132183
777.333	0.0132066
777.412	0.0131384
777.490	0.0129674
777.568	0.0127847
777.646	0.0127802
777.724	0.0127264
777.802	0.0125461
777.880	0.0124104
777.958	0.0122829
778.037	0.0121441
778.115	0.0121328
778.193	0.0120385
778.271	0.0121325
778.349	0.0119673
778.427	0.0119818
778.505	0.0119821
778.583	0.0119917
778.662	0.0121085
778.740	0.0120638
778.818	0.0120927
778.896	0.0121116
778.974	0.0119419
779.052	0.0120797
779.130	0.0121500
779.208	0.0122542
779.287	0.0123360
779.365	0.0123691
779.443	0.0126012
779.521	0.0126364
779.599	0.0128484
779.677	0.0128452
779.755	0.0130083
779.833	0.0130931
779.912	0.0131604
779.990	0.0132500
780.068	0.0131979
780.146	0.0133115
780.224	0.0134040
780.302	0.0134127
780.380	0.0133850
780.458	0.0133907
780.537	0.0135593
780.615	0.0133311
780.693	0.0134016
780.771	0.0133482
780.849	0.0132449
780.927	0.0132603
781.005	0.0131982
781.083	0.0131602
781.162	0.0130801
781.240	0.0130778
781.318	0.0130266
781.396	0.0129425
781.474	0.0129259
781.552	0.0129566
781.630	0.0129673
781.708	0.0128974
781.787	0.0128115
781.865	0.0127625
781.943	0.0126974
782.021	0.0127960
782.099	0.0127140
782.177	0.0126517
782.255	0.0125845
782.333	0.0124429
782.412	0.0123355
782.490	0.0124925
782.568	0.0123309
782.646	0.0123250
782.724	0.0123695
782.802	0.0122714
782.880	0.0123972
782.958	0.0123964
783.037	0.0124659
783.115	0.0123883
783.193	0.0124434
783.271	0.0123614
783.349	0.0124574
783.427	0.0125337
783.505	0.0124837
783.583	0.0124819
783.662	0.0124541
783.740	0.0124610
783.818	0.0124689
783.896	0.0124178
783.974	0.0124582
784.052	0.0125170
784.130	0.0124374
784.208	0.0124897
784.287	0.0125568
784.365	0.0126372
784.443	0.0127702
784.521	0.0126626
784.599	0.0128364
784.677	0.0129583
784.755	0.0129398
784.833	0.0129318
784.912	0.0131441
784.990	0.0131759
785.068	0.0131713
785.146	0.0130968
785.224	0.0131181
785.302	0.0131075
785.380	0.0132199
785.458	0.0131032
785.537	0.0130674
785.615	0.0130894
785.693	0.0129930
785.771	0.0128309
785.849	0.0129137
785.927	0.0128687
786.005	0.0128924
786.083	0.0128277
786.162	0.0129307
786.240	0.0128516
786.318	0.0127332
786.396	0.0128342
786.474	0.0128926
786.552	0.0126775
786.630	0.0129140
786.708	0.0127517
786.787	0.0126456
786.865	0.0126736
786.943	0.0126566
787.021	0.0126463
787.099	0.0126714
787.177	0.0125007
787.255	0.0124657
787.333	0.0124444
787.412	0.0124537
787.490	0.0125079
787.568	0.0124262
787.646	0.0123383
787.724	0.0123978
787.802	0.0125779
787.880	0.0126573
787.958	0.0125082
788.037	0.0126973
788.115	0.0127221
788.193	0.0127628
788.271	0.0127506
788.349	0.0125455
788.427	0.0127351
788.505	0.0126814
788.583	0.0128639
788.662	0.0128098
788.740	0.0127193
788.818	0.0125934
788.896	0.0127004
788.974	0.0128000
789.052	0.0126810
789.130	0.0126840
789.208	0.0126685
789.287	0.0126561
789.365	0.0127515
789.443	0.0127475
789.521	0.0126326
789.599	0.0126185
789.677	0.0127383
789.755	0.0126918
789.833	0.0127619
789.912	0.0127541
789.990	0.0128298
790.068	0.0128612
790.146	0.0128256
790.224	0.0128564
790.302	0.0128496
790.380	0.0128969
790.458	0.0129193
790.537	0.0127435
790.615	0.0128627
790.693	0.0127364
790.771	0.0127600
790.849	0.0128320
790.927	0.0128579
791.005	0.0126785
791.083	0.0125893
791.162	0.0127282
791.240	0.0126143
791.318	0.0126446
791.396	0.0126762
791.474	0.0125745
791.552	0.0126852
791.630	0.0127127
791.708	0.0127180
791.787	0.0125817
791.865	0.0126041
791.943	0.0125010
792.021	0.0127250
792.099	0.0126499
792.177	0.0126197
792.255	0.0126673
792.333	0.0125662
792.412	0.0124902
792.490	0.0126435
792.568	0.0124970
792.646	0.0124727
792.724	0.0124505
792.802	0.0125131
792.880	0.0123611
792.958	0.0124699
793.037	0.0124663
793.115	0.0124609
793.193	0.0125742
793.271	0.0126033
793.349	0.0124563
793.427	0.0126296
793.505	0.0125877
793.583	0.0125655
793.662	0.0128149
793.740	0.0127676
793.818	0.0127605
793.896	0.0129298
793.974	0.0128024
794.052	0.0128648
794.130	0.0129425
794.208	0.0128851
794.287	0.0128024
794.365	0.0127308
794.443	0.0128174
794.521	0.0129754
794.599	0.0130290
794.677	0.0130468
794.755	0.0130953
794.833	0.0130762
794.912	0.0130617
794.990	0.0132712
795.068	0.0132372
795.146	0.0131180
795.224	0.0132478
795.302	0.0131335
795.380	0.0131374
795.458	0.0130113
795.537	0.0130650
795.615	0.0129349
795.693	0.0129830
795.771	0.0128930
795.849	0.0126839
795.927	0.0127156
796.005	0.0125484
796.083	0.0124556
796.162	0.0123402
796.240	0.0123233
796.318	0.0122726
796.396	0.0121849
796.474	0.0120952
796.552	0.0120660
796.630	0.0120509
796.708	0.0119823
796.787	0.0120105
796.865	0.0121089
796.943	0.0123277
797.021	0.0121386
797.099	0.0121222
797.177	0.0122139
797.255	0.0123450
797.333	0.0122791
797.412	0.0123560
797.490	0.0125366
797.568	0.0126495
797.646	0.0125935
797.724	0.0127753
797.802	0.0127405
797.880	0.0127648
797.958	0.0127576
798.037	0.0128723
798.115	0.0128600
798.193	0.0128531
798.271	0.0128336
798.349	0.0127377
798.427	0.0127312
798.505	0.0129446
798.583	0.0128844
798.662	0.0128558
798.740	0.0128027
798.818	0.0127337
798.896	0.0127537
798.974	0.0127537
799.052	0.0126064
799.130	0.0127428
799.208	0.0126191
799.287	0.0125313
799.365	0.0125620
799.443	0.0124114
799.521	0.0123266
799.599	0.0123433
799.677	0.0123539
799.755	0.0123345
799.833	0.0123534
799.912	0.0123792
799.990	0.0124751
800.068	0.0124469
800.146	0.0124318
800.224	0.0125327
800.302	0.0125208
800.380	0.0125084
800.458	0.0125606
800.537	0.0125336
800.615	0.0126860
800.693	0.0127252
800.771	0.0127809
800.849	0.0127874
800.927	0.0130225
801.005	0.0130132
801.083	0.0129843
801.162	0.0130767
801.240	0.0128474
801.318	0.0129380
801.396	0.0128912
801.474	0.0129909
801.552	0.0130533
801.630	0.0129974
801.708	0.0128799
801.787	0.0128709
801.865	0.0127875
801.943	0.0127922
802.021	0.0128030
802.099	0.0127814
802.177	0.0126633
802.255	0.0127087
802.333	0.0127221
802.412	0.0125669
802.490	0.0125900
802.568	0.0126961
802.646	0.0127107
802.724	0.0125553
802.802	0.0127690
802.880	0.0128157
802.958	0.0126828
803.037	0.0127232
803.115	0.0129023
803.193	0.0127931
803.271	0.0129370
803.349	0.0128466
803.427	0.0129211
803.505	0.0129541
803.583	0.0130500
803.662	0.0127811
803.740	0.0128941
803.818	0.0127930
803.896	0.0129080
803.974	0.0127444
804.052	0.0126958
804.130	0.0126476
804.208	0.0125739
804.287	0.0126342
804.365	0.0124999
804.443	0.0123326
804.521	0.0124912
804.599	0.0124285
804.677	0.0122222
804.755	0.0123002
804.833	0.0123747
804.912	0.0124257
804.990	0.0121948
805.068	0.0123438
805.146	0.0124629
805.224	0.0123464
805.302	0.0124679
805.380	0.0126453
805.458	0.0126865
805.537	0.0127608
805.615	0.0129130
805.693	0.0129266
805.771	0.0129990
805.849	0.0130399
805.927	0.0131099
806.005	0.0132101
806.083	0.0134167
806.162	0.0134064
806.240	0.0133658
806.318	0.0134381
806.396	0.0134417
806.474	0.0133484
806.552	0.0134507
806.630	0.0133709
806.708	0.0132932
806.787	0.0132192
806.865	0.0132980
806.943	0.0131470
807.021	0.0131088
807.099	0.0130497
807.177	0.0130155
807.255	0.0128749
807.333	0.0129355
807.412	0.0128453
807.490	0.0127560
807.568	0.0127407
807.646	0.0127235
807.724	0.0126479
807.802	0.0125362
807.880	0.0124729
807.958	0.0125298
808.037	0.0124064
808.115	0.0124813
808.193	0.0123869
808.271	0.0122899
808.349	0.0123673
808.427	0.0123734
808.505	0.0122152
808.583	0.0123005
808.662	0.0121627
808.740	0.0122178
808.818	0.0121603
808.896	0.0122570
808.974	0.0123148
809.052	0.0122937
809.130	0.0123009
809.208	0.0123392
809.287	0.0123076
809.365	0.0123526
809.443	0.0124091
809.521	0.0125449
809.599	0.0124667
809.677	0.0125060
809.755	0.0123717
809.833	0.0126154
809.912	0.0125571
809.990	0.0126250
810.068	0.0125988
810.146	0.0127119
810.224	0.0126637
810.302	0.0126858
810.380	0.0127206
810.458	0.0128095
810.537	0.0127674
810.615	0.0126558
810.693	0.0128443
810.771	0.0127969
810.849	0.0126690
810.927	0.0128874
811.005	0.0127206
811.083	0.0128044
811.162	0.0128453
811.240	0.0127739
811.318	0.0128276
811.396	0.0128481
811.474	0.0128111
811.552	0.0128371
811.630	0.0128006
811.708	0.0127613
811.787	0.0129793
811.865	0.0128558
811.943	0.0128609
812.021	0.0129188
812.099	0.0128152
812.177	0.0128246
812.255	0.0128270
812.333	0.0127571
812.412	0.0127186
812.490	0.0126888
812.568	0.0127835
812.646	0.0126543
812.724	0.0126322
812.802	0.0124774
812.880	0.0125793
812.958	0.0123982
813.037	0.0125523
813.115	0.0124182
813.193	0.0123952
813.271	0.0124438
813.349	0.0123791
813.427	0.0123440
813.505	0.0122896
813.583	0.0123725
813.662	0.0124551
813.740	0.0124274
813.818	0.0126073
813.896	0.0125502
813.974	0.0125147
814.052	0.0125081
814.130	0.0126401
814.208	0.0126624
814.287	0.0127000
814.365	0.0126128
814.443	0.0125938
814.521	0.0125813
814.599	0.0125657
814.677	0.0126123
814.755	0.0125742
814.833	0.0125164
814.912	0.0125360
814.990	0.0124637
815.068	0.0123544
815.146	0.0124520
815.224	0.0124255
815.302	0.0124566
815.380	0.0122887
815.458	0.0122810
815.537	0.0123528
815.615	0.0125156
815.693	0.0124340
815.771	0.0124555
815.849	0.0125198
815.927	0.0125132
816.005	0.0126250
816.083	0.0126833
816.162	0.0127185
816.240	0.0126235
816.318	0.0127252
816.396	0.0128333
816.474	0.0129803
816.552	0.0128722
816.630	0.0129353
816.708	0.0131637
816.787	0.0133030
816.865	0.0131738
816.943	0.0131738
817.021	0.0131684
817.099	0.0131674
817.177	0.0132137
817.255	0.0133675
817.333	0.0130201
817.412	0.0131333
817.490	0.0129936
817.568	0.0128825
817.646	0.0128168
817.724	0.0128724
817.802	0.0128924
817.880	0.0128336
817.958	0.0127625
818.037	0.0125778
818.115	0.0124346
818.193	0.0124162
818.271	0.0125141
818.349	0.0124139
818.427	0.0123273
818.505	0.0122789
818.583	0.0125294
818.662	0.0123085
818.740	0.0123876
818.818	0.0124735
818.896	0.0124191
818.974	0.0123288
819.052	0.0123383
819.130	0.0124100
819.208	0.0124265
819.287	0.0123945
819.365	0.0123637
819.443	0.0123503
819.521	0.0124322
819.599	0.0123495
819.677	0.0124376
819.755	0.0126276
819.833	0.0125272
819.912	0.0125150
819.990	0.0125623
820.068	0.0125050
820.146	0.0124752
820.224	0.0125412
820.302	0.0126559
820.380	0.0124409
820.458	0.0125465
820.537	0.0125566
820.615	0.0125828
820.693	0.0125436
820.771	0.0125807
820.849	0.0126296
820.927	0.0126781
821.005	0.0128262
821.083	0.0126975
821.162	0.0126978
821.240	0.0126965
821.318	0.0127156
821.396	0.0126171
821.474	0.0126624
821.552	0.0128156
821.630	0.0128734
821.708	0.0128202
821.787	0.0127962
821.865	0.0126986
821.943	0.0129334
822.021	0.0128571
822.099	0.0127924
822.177	0.0128583
822.255	0.0128227
822.333	0.0129383
822.412	0.0128368
822.490	0.0128547
822.568	0.0128718
822.646	0.0129196
822.724	0.0128927
822.802	0.0129239
822.880	0.0128643
822.958	0.0129679
823.037	0.0128139
823.115	0.0126807
823.193	0.0130466
823.271	0.0128715
823.349	0.0126660
823.427	0.0128953
823.505	0.0126149
823.583	0.0126291
823.662	0.0125642
823.740	0.0126014
823.818	0.0126739
823.896	0.0127859
823.974	0.0126501
824.052	0.0126045
824.130	0.0126079
824.208	0.0126521
824.287	0.0125736
824.365	0.0125234
824.443	0.0126662
824.521	0.0125529
824.599	0.0124271
824.677	0.0125697
824.755	0.0125441
824.833	0.0124034
824.912	0.0125697
824.990	0.0125119
825.068	0.0124667
825.146	0.0124480
825.224	0.0126077
825.302	0.0125948
825.380	0.0124969
825.458	0.0124840
825.537	0.0126472
825.615	0.0127650
825.693	0.0126923
825.771	0.0126303
825.849	0.0127043
825.927	0.0128020
826.005	0.0126931
826.083	0.0127228
826.162	0.0126690
826.240	0.0127397
826.318	0.0127196
826.396	0.0126305
826.474	0.0126792
826.552	0.0126579
826.630	0.0124292
826.708	0.0126384
826.787	0.0126868
826.865	0.0125309
826.943	0.0125658
827.021	0.0125893
827.099	0.0125794
827.177	0.0126163
827.255	0.0124529
827.333	0.0126815
827.412	0.0127789
827.490	0.0128282
827.568	0.0127786
827.646	0.0127914
827.724	0.0128676
827.802	0.0128241
827.880	0.0128409
827.958	0.0129094
828.037	0.0129929
828.115	0.0129549
828.193	0.0129420
828.271	0.0129655
828.349	0.0130819
828.427	0.0130261
828.505	0.0130013
828.583	0.0130738
828.662	0.0131430
828.740	0.0130220
828.818	0.0131561
828.896	0.0129942
828.974	0.0130220
829.052	0.0129931
829.130	0.0129207
829.208	0.0127704
829.287	0.0129107
829.365	0.0130199
829.443	0.0130391
829.521	0.0128809
829.599	0.0129346
829.677	0.0128591
829.755	0.0128475
829.833	0.0127612
829.912	0.0126974
829.990	0.0128088
830.068	0.0127796
830.146	0.0126717
830.224	0.0127274
830.302	0.0125825
830.380	0.0126141
830.458	0.0125645
830.537	0.0127773
830.615	0.0125896
830.693	0.0125798
830.771	0.0124517
830.849	0.0125827
830.927	0.0125887
831.005	0.0125042
831.083	0.0125414
831.162	0.0125059
831.240	0.0124951
831.318	0.0126279
831.396	0.0126176
831.474	0.0127516
831.552	0.0127348
831.630	0.0126699
831.708	0.0127097
831.787	0.0128796
831.865	0.0126936
831.943	0.0127608
832.021	0.0126536
832.099	0.0126737
832.177	0.0125612
832.255	0.0125918
832.333	0.0124922
832.412	0.0125724
832.490	0.0124754
832.568	0.0125048
832.646	0.0125168
832.724	0.0124068
832.802	0.0123802
832.880	0.0124117
832.958	0.0123691
833.037	0.0124422
833.115	0.0122611
833.193	0.0126006
833.271	0.0124389
833.349	0.0124536
833.427	0.0127205
833.505	0.0125204
833.583	0.0124982
833.662	0.0125141
833.740	0.0126357
833.818	0.0126175
833.896	0.0125619
833.974	0.0128030
834.052	0.0126966
834.130	0.0127662
834.208	0.0127150
834.287	0.0129062
834.365	0.0129503
834.443	0.0129262
834.521	0.0128849
834.599	0.0128194
834.677	0.0129240
834.755	0.0130665
834.833	0.0129837
834.912	0.0128944
834.990	0.0128859
835.068	0.0129195
835.146	0.0129142
835.224	0.0129327
835.302	0.0129927
835.380	0.0128509
835.458	0.0130045
835.537	0.0129969
835.615	0.0128945
835.693	0.0129118
835.771	0.0128040
835.849	0.0128620
835.927	0.0129756
836.005	0.0129701
836.083	0.0127257
836.162	0.0128605
836.240	0.0128094
836.318	0.0127795
836.396	0.0127360
836.474	0.0127033
836.552	0.0125966
836.630	0.0127403
836.708	0.0126486
836.787	0.0127973
836.865	0.0126202
836.943	0.0125449
837.021	0.0124313
837.099	0.0123712
837.177	0.0125761
837.255	0.0126190
837.333	0.0125632
837.412	0.0125401
837.490	0.0125957
837.568	0.0126048
837.646	0.0125636
837.724	0.0125240
837.802	0.0126709
837.880	0.0126924
837.958	0.0125272
838.037	0.0125026
838.115	0.0126138
838.193	0.0126008
838.271	0.0125423
838.349	0.0124919
838.427	0.0125793
838.505	0.0125520
838.583	0.0126292
838.662	0.0125675
838.740	0.0126327
838.818	0.0127174
838.896	0.0127491
838.974	0.0127208
839.052	0.0126302
839.130	0.0126411
839.208	0.0127361
839.287	0.0126074
839.365	0.0126005
839.443	0.0125202
839.521	0.0125176
839.599	0.0125625
839.677	0.0127487
839.755	0.0126685
839.833	0.0126176
839.912	0.0126646
839.990	0.0127682
840.068	0.0126943
840.146	0.0128252
840.224	0.0128069
840.302	0.0127933
840.380	0.0129112
840.458	0.0129313
840.537	0.0127842
840.615	0.0129485
840.693	0.0128965
840.771	0.0129794
840.849	0.0128906
840.927	0.0130064
841.005	0.0129977
841.083	0.0128968
841.162	0.0130680
841.240	0.0128502
841.318	0.0128266
841.396	0.0128029
841.474	0.0127350
841.552	0.0128315
841.630	0.0127718
841.708	0.0128800
841.787	0.0127175
841.865	0.0127710
841.943	0.0127738
842.021	0.0126759
842.099	0.0127921
842.177	0.0125890
842.255	0.0126536
842.333	0.0127603
842.412	0.0126753
842.490	0.0126670
842.568	0.0127689
842.646	0.0126701
842.724	0.0127163
842.802	0.0127371
842.880	0.0127446
842.958	0.0128468
843.037	0.0126619
843.115	0.0128558
843.193	0.0128600
843.271	0.0126114
843.349	0.0126360
843.427	0.0125706
843.505	0.0126554
843.583	0.0124692
843.662	0.0125662
843.740	0.0124644
843.818	0.0124651
843.896	0.0127084
843.974	0.0125555
844.052	0.0124659
844.130	0.0124226
844.208	0.0124434
844.287	0.0124876
844.365	0.0124715
844.443	0.0125517
844.521	0.0125967
844.599	0.0126144
844.677	0.0125800
844.755	0.0125455
844.833	0.0126904
844.912	0.0128289
844.990	0.0126676
845.068	0.0126456
845.146	0.0127431
845.224	0.0127556
845.302	0.0127129
845.380	0.0126307
845.458	0.0126387
845.537	0.0126028
845.615	0.0127552
845.693	0.0128580
845.771	0.0128054
845.849	0.0128132
845.927	0.0128872
846.005	0.0128259
846.083	0.0128441
846.162	0.0128287
846.240	0.0128120
846.318	0.0127901
846.396	0.0127894
846.474	0.0129590
846.552	0.0128297
846.630	0.0128625
846.708	0.0127414
846.787	0.0126453
846.865	0.0126093
846.943	0.0128168
847.021	0.0129119
847.099	0.0128870
847.177	0.0128192
847.255	0.0129028
847.333	0.0128125
847.412	0.0128172
847.490	0.0127946
847.568	0.0128804
847.646	0.0128198
847.724	0.0128853
847.802	0.0128728
847.880	0.0128722
847.958	0.0128072
848.037	0.0128743
848.115	0.0128675
848.193	0.0127709
848.271	0.0127850
848.349	0.0128110
848.427	0.0127583
848.505	0.0126635
848.583	0.0126955
848.662	0.0125209
848.740	0.0125451
848.818	0.0125655
848.896	0.0125532
848.974	0.0123823
849.052	0.0125130
849.130	0.0125043
849.208	0.0125755
849.287	0.0123783
849.365	0.0125121
849.443	0.0124017
849.521	0.0124439
849.599	0.0123917
849.677	0.0125508
849.755	0.0124325
849.833	0.0124331
849.912	0.0124556
849.990	0.0124750
850.068	0.0124882
850.146	0.0126408
850.224	0.0127544
850.302	0.0126707
850.380	0.0125417
850.458	0.0127703
850.537	0.0127941
850.615	0.0128448
850.693	0.0128324
850.771	0.0127831
850.849	0.0129219
850.927	0.0129357
851.005	0.0128223
851.083	0.0128568
851.162	0.0128226
851.240	0.0127433
851.318	0.0129360
851.396	0.0127347
851.474	0.0127472
851.552	0.0127747
851.630	0.0128232
851.708	0.0128474
851.787	0.0126939
851.865	0.0127603
851.943	0.0127724
852.021	0.0126659
852.099	0.0127315
852.177	0.0127618
852.255	0.0128725
852.333	0.0128183
852.412	0.0127116
852.490	0.0125822
852.568	0.0128054
852.646	0.0127570
852.724	0.0127948
852.802	0.0128416
852.880	0.0126725
852.958	0.0127240
853.037	0.0129214
853.115	0.0129491
853.193	0.0131124
853.271	0.0128865
853.349	0.0128416
853.427	0.0128811
853.505	0.0127327
853.583	0.0127711
853.662	0.0129467
853.740	0.0127614
853.818	0.0126283
853.896	0.0125782
853.974	0.0125777
854.052	0.0125582
854.130	0.0124786
854.208	0.0124530
854.287	0.0125413
854.365	0.0124713
854.443	0.0123323
854.521	0.0124424
854.599	0.0125039
854.677	0.0124908
854.755	0.0123829
854.833	0.0125787
854.912	0.0124374
854.990	0.0124280
855.068	0.0125747
855.146	0.0126311
855.224	0.0126218
855.302	0.0126765
855.380	0.0126510
855.458	0.0127274
855.537	0.0127123
855.615	0.0127901
855.693	0.0128365
855.771	0.0127202
855.849	0.0127908
855.927	0.0127873
856.005	0.0129546
856.083	0.0129420
856.162	0.0127575
856.240	0.0126869
856.318	0.0128386
856.396	0.0127592
856.474	0.0127615
856.552	0.0126786
856.630	0.0127213
856.708	0.0127598
856.787	0.0128337
856.865	0.0126905
856.943	0.0126704
857.021	0.0126069
857.099	0.0126984
857.177	0.0126403
857.255	0.0126409
857.333	0.0127457
857.412	0.0127113
857.490	0.0126954
857.568	0.0126215
857.646	0.0127208
857.724	0.0127007
857.802	0.0126956
857.880	0.0126259
857.958	0.0126369
858.037	0.0126754
858.115	0.0128789
858.193	0.0126806
858.271	0.0128250
858.349	0.0127852
858.427	0.0127980
858.505	0.0128220
858.583	0.0128307
858.662	0.0129192
858.740	0.0128854
858.818	0.0129005
858.896	0.0129447
858.974	0.0129958
859.052	0.0128476
859.130	0.0130647
859.208	0.0128453
859.287	0.0129137
859.365	0.0129276
859.443	0.0129769
859.521	0.0128505
859.599	0.0127171
859.677	0.0126820
859.755	0.0127583
859.833	0.0127078
859.912	0.0127280
859.990	0.0126968
860.068	0.0126050
860.146	0.0126925
860.224	0.0126526
860.302	0.0125822
860.380	0.0124674
860.458	0.0126333
860.537	0.0125845
860.615	0.0126398
860.693	0.0125523
860.771	0.0125468
860.849	0.0125484
860.927	0.0127383
861.005	0.0126979
861.083	0.0127039
861.162	0.0125834
861.240	0.0125514
861.318	0.0127244
861.396	0.0126690
861.474	0.0126984
861.552	0.0126733
861.630	0.0126685
861.708	0.0126926
861.787	0.0126109
861.865	0.0127170
861.943	0.0126668
862.021	0.0126732
862.099	0.0126236
862.177	0.0126697
862.255	0.0125845
862.333	0.0126481
862.412	0.0128078
862.490	0.0128521
862.568	0.0128439
862.646	0.0127736
862.724	0.0128439
862.802	0.0129272
862.880	0.0127486
862.958	0.0128218
863.037	0.0127316
863.115	0.0127837
863.193	0.0126490
863.271	0.0126988
863.349	0.0127786
863.427	0.0127237
863.505	0.0126866
863.583	0.0126796
863.662	0.0127966
863.740	0.0128973
863.818	0.0128005
863.896	0.0129092
863.974	0.0129443
864.052	0.0129582
864.130	0.0128717
864.208	0.0128062
864.287	0.0128654
864.365	0.0129036
864.443	0.0129066
864.521	0.0127388
864.599	0.0128221
864.677	0.0128998
864.755	0.0127676
864.833	0.0127600
864.912	0.0127831
864.990	0.0126720
865.068	0.0127596
865.146	0.0127560
865.224	0.0128040
865.302	0.0127990
865.380	0.0126417
865.458	0.0128082
865.537	0.0127322
865.615	0.0127625
865.693	0.0127879
865.771	0.0126366
865.849	0.0126176
865.927	0.0126956
866.005	0.0127378
866.083	0.0126587
866.162	0.0126791
866.240	0.0126679
866.318	0.0126086
866.396	0.0126470
866.474	0.0127388
866.552	0.0127731
866.630	0.0126758
866.708	0.0128489
866.787	0.0127278
866.865	0.0126794
866.943	0.0126642
867.021	0.0126014
867.099	0.0126996
867.177	0.0126070
867.255	0.0125994
867.333	0.0126225
867.412	0.0125249
867.490	0.0126714
867.568	0.0127778
867.646	0.0127067
867.724	0.0126410
867.802	0.0129031
867.880	0.0129461
867.958	0.0128459
868.037	0.0129044
868.115	0.0128381
868.193	0.0131007
868.271	0.0130363
868.349	0.0130412
868.427	0.0131299
868.505	0.0129686
868.583	0.0130297
868.662	0.0130872
868.740	0.0129475
868.818	0.0131571
868.896	0.0128378
868.974	0.0129375
869.052	0.0128117
869.130	0.0128656
869.208	0.0125767
869.287	0.0125741
869.365	0.0126160
869.443	0.0126085
869.521	0.0125114
869.599	0.0125900
869.677	0.0124306
869.755	0.0124402
869.833	0.0123421
869.912	0.0123316
869.990	0.0124232
870.068	0.0123554
870.146	0.0123717
870.224	0.0124934
870.302	0.0123313
870.380	0.0122533
870.458	0.0125037
870.537	0.0123298
870.615	0.0123742
870.693	0.0123978
870.771	0.0125787
870.849	0.0125664
870.927	0.0126202
871.005	0.0127409
871.083	0.0128374
871.162	0.0129938
871.240	0.0131432
871.318	0.0132843
871.396	0.0131844
871.474	0.0132936
871.552	0.0133445
871.630	0.0134477
871.708	0.0132434
871.787	0.0132211
871.865	0.0132796
871.943	0.0130247
872.021	0.0130779
872.099	0.0130538
872.177	0.0129747
872.255	0.0130383
872.333	0.0127412
872.412	0.0126935
872.490	0.0126739
872.568	0.0127332
872.646	0.0126396
872.724	0.0124679
872.802	0.0124993
872.880	0.0122807
872.958	0.0123359
873.037	0.0123038
873.115	0.0120656
873.193	0.0119616
873.271	0.0120911
873.349	0.0121610
873.427	0.0121968
873.505	0.0121117
873.583	0.0120946
873.662	0.0122526
873.740	0.0123607
873.818	0.0124422
873.896	0.0124494
873.974	0.0127554
874.052	0.0127134
874.130	0.0130109
874.208	0.0130595
874.287	0.0131170
874.365	0.0130391
874.443	0.0131870
874.521	0.0132317
874.599	0.0132124
874.677	0.0133221
874.755	0.0133160
874.833	0.0132665
874.912	0.0133437
874.990	0.0132755
875.068	0.0131837
875.146	0.0133401
875.224	0.0131998
875.302	0.0131738
875.380	0.0129871
875.458	0.0129800
875.537	0.0129047
875.615	0.0127509
875.693	0.0126674
875.771	0.0127174
875.849	0.0126817
875.927	0.0125267
876.005	0.0125023
876.083	0.0124283
876.162	0.0124668
876.240	0.0122176
876.318	0.0123666
876.396	0.0123592
876.474	0.0124653
876.552	0.0124794
876.630	0.0125979
876.708	0.0126141
876.787	0.0125694
876.865	0.0127798
876.943	0.0125888
877.021	0.0126902
877.099	0.0128664
877.177	0.0126584
877.255	0.0126769
877.333	0.0127271
877.412	0.0127494
877.490	0.0126466
877.568	0.0127010
877.646	0.0125675
877.724	0.0126849
877.802	0.0126386
877.880	0.0125420
877.958	0.0125695
878.037	0.0125395
878.115	0.0125718
878.193	0.0124332
878.271	0.0124885
878.349	0.0126285
878.427	0.0125624
878.505	0.0125246
878.583	0.0125964
878.662	0.0125649
878.740	0.0126560
878.818	0.0128655
878.896	0.0129250
878.974	0.0130890
879.052	0.0131886
879.130	0.0130569
879.208	0.0130266
879.287	0.0132336
879.365	0.0132380
879.443	0.0131237
879.521	0.0132043
879.599	0.0131991
879.677	0.0132538
879.755	0.0130016
879.833	0.0128757
879.912	0.0129320
879.990	0.0129409
880.068	0.0127268
880.146	0.0127739
880.224	0.0128321
880.302	0.0128076
880.380	0.0126102
880.458	0.0126717
880.537	0.0125589
880.615	0.0127024
880.693	0.0125925
880.771	0.0123627
880.849	0.0124076
880.927	0.0123949
881.005	0.0123994
881.083	0.0123407
881.162	0.0123704
881.240	0.0123441
881.318	0.0124021
881.396	0.0124615
881.474	0.0125439
881.552	0.0125433
881.630	0.0126711
881.708	0.0127866
881.787	0.0128423
881.865	0.0128326
881.943	0.0128893
882.021	0.0129394
882.099	0.0129415
882.177	0.0129794
882.255	0.0130302
882.333	0.0130636
882.412	0.0129944
882.490	0.0128365
882.568	0.0128118
882.646	0.0127663
882.724	0.0126101
882.802	0.0128216
882.880	0.0125703
882.958	0.0124969
883.037	0.0124805
883.115	0.0125230
883.193	0.0123063
883.271	0.0121532
883.349	0.0121368
883.427	0.0121023
883.505	0.0121709
883.583	0.0123276
883.662	0.0122128
883.740	0.0121092
883.818	0.0122510
883.896	0.0122326
883.974	0.0125510
884.052	0.0125144
884.130	0.0125484
884.208	0.0127341
884.287	0.0129572
884.365	0.0129206
884.443	0.0127825
884.521	0.0129240
884.599	0.0129306
884.677	0.0130405
884.755	0.0130149
884.833	0.0131129
884.912	0.0132561
884.990	0.0131607
885.068	0.0132073
885.146	0.0133384
885.224	0.0132610
885.302	0.0132510
885.380	0.0133289
885.458	0.0131993
885.537	0.0132875
885.615	0.0131655
885.693	0.0131146
885.771	0.0129311
885.849	0.0128257
885.927	0.0127777
886.005	0.0125279
886.083	0.0123849
886.162	0.0124269
886.240	0.0123540
886.318	0.0123103
886.396	0.0122682
886.474	0.0122498
886.552	0.0122208
886.630	0.0122723
886.708	0.0123003
886.787	0.0123988
886.865	0.0124761
886.943	0.0125026
887.021	0.0124743
887.099	0.0125262
887.177	0.0125192
887.255	0.0124910
887.333	0.0126765
887.412	0.0126624
887.490	0.0125784
887.568	0.0126869
887.646	0.0128880
887.724	0.0128792
887.802	0.0128992
887.880	0.0128815
887.958	0.0126760
888.037	0.0126320
888.115	0.0126733
888.193	0.0126901
888.271	0.0126373
888.349	0.0124193
888.427	0.0125398
888.505	0.0125758
888.583	0.0123901
888.662	0.0122575
888.740	0.0122988
888.818	0.0123136
888.896	0.0124854
888.974	0.0125855
889.052	0.0126772
889.130	0.0127077
889.208	0.0129527
889.287	0.0129795
889.365	0.0130715
889.443	0.0130009
889.521	0.0131630
889.599	0.0130955
889.677	0.0131334
889.755	0.0133048
889.833	0.0132048
889.912	0.0133324
889.990	0.0133784
890.068	0.0132678
890.146	0.0132152
890.224	0.0132896
890.302	0.0131085
890.380	0.0130552
890.458	0.0129209
890.537	0.0129256
890.615	0.0128500
890.693	0.0128172
890.771	0.0125922
890.849	0.0126117
890.927	0.0125957
891.005	0.0125119
891.083	0.0123278
891.162	0.0124175
891.240	0.0123731
891.318	0.0120837
891.396	0.0120033
891.474	0.0121632
891.552	0.0121773
891.630	0.0121255
891.708	0.0121330
891.787	0.0122506
891.865	0.0122893
891.943	0.0123111
892.021	0.0124142
892.099	0.0124483
892.177	0.0125337
892.255	0.0125771
892.333	0.0128400
892.412	0.0130146
892.490	0.0129077
892.568	0.0130298
892.646	0.0131210
892.724	0.0131528
892.802	0.0133102
892.880	0.0132822
892.958	0.0134277
893.037	0.0133688
893.115	0.0132790
893.193	0.0130837
893.271	0.0131607
893.349	0.0131470
893.427	0.0128515
893.505	0.0129756
893.583	0.0126037
893.662	0.0125233
893.740	0.0126674
893.818	0.0124227
893.896	0.0124286
893.974	0.0123053
894.052	0.0121672
894.130	0.0122389
894.208	0.0121837
894.287	0.0121447
894.365	0.0120428
894.443	0.0122157
894.521	0.0122240
894.599	0.0121178
894.677	0.0122183
894.755	0.0124004
894.833	0.0123884
894.912	0.0126015
894.990	0.0125108
895.068	0.0126846
895.146	0.0128229
895.224	0.0127121
895.302	0.0127927
895.380	0.0129696
895.458	0.0130527
895.537	0.0130939
895.615	0.0131519
895.693	0.0131114
895.771	0.0130254
895.849	0.0131583
895.927	0.0131443
896.005	0.0129651
896.083	0.0130333
896.162	0.0129070
896.240	0.0129838
896.318	0.0128406
896.396	0.0127997
896.474	0.0126463
896.552	0.0128207
896.630	0.0127202
896.708	0.0127570
896.787	0.0127503
896.865	0.0125929
896.943	0.0126999
897.021	0.0124995
897.099	0.0125468
897.177	0.0126101
897.255	0.0125138
897.333	0.0124302
897.412	0.0123609
897.490	0.0125002
897.568	0.0125621
897.646	0.0123370
897.724	0.0125113
897.802	0.0124771
897.880	0.0125586
897.958	0.0125452
898.037	0.0127473
898.115	0.0128146
898.193	0.0127733
898.271	0.0130394
898.349	0.0128969
898.427	0.0127785
898.505	0.0128388
898.583	0.0128477
898.662	0.0130318
898.740	0.0129125
898.818	0.0128446
898.896	0.0129589
898.974	0.0128261
899.052	0.0127597
899.130	0.0126579
899.208	0.0125690
899.287	0.0126862
899.365	0.0127340
899.443	0.0125466
899.521	0.0124806
899.599	0.0123473
899.677	0.0123540
899.755	0.0123402
899.833	0.0123854
899.912	0.0124906
899.990	0.0122885
900.068	0.0123889
900.146	0.0126418
900.224	0.0126528
900.302	0.0126509
900.380	0.0126846
900.458	0.0128658
900.537	0.0129424
900.615	0.0129655
900.693	0.0129886
900.771	0.0128661
900.849	0.0130320
900.927	0.0131841
901.005	0.0131866
901.083	0.0131319
901.162	0.0128065
901.240	0.0128605
901.318	0.0130296
901.396	0.0128925
901.474	0.0128596
901.552	0.0127720
901.630	0.0127257
901.708	0.0127708
901.787	0.0126140
901.865	0.0125846
901.943	0.0125521
902.021	0.0126341
902.099	0.0126081
902.177	0.0124209
902.255	0.0123309
902.333	0.0125735
902.412	0.0124730
902.490	0.0122954
902.568	0.0124429
902.646	0.0122617
902.724	0.0124107
902.802	0.0123311
902.880	0.0122295
902.958	0.0123772
903.037	0.0123351
903.115	0.0123595
903.193	0.0123774
903.271	0.0124808
903.349	0.0124391
903.427	0.0124714
903.505	0.0125433
903.583	0.0126063
903.662	0.0127050
903.740	0.0128117
903.818	0.0128217
903.896	0.0127362
903.974	0.0128436
904.052	0.0129250
904.130	0.0129002
904.208	0.0128812
904.287	0.0128258
904.365	0.0127844
904.443	0.0128382
904.521	0.0128456
904.599	0.0127619
904.677	0.0128513
904.755	0.0126147
904.833	0.0127230
904.912	0.0125499
904.990	0.0125619
905.068	0.0126352
905.146	0.0123689
905.224	0.0124743
905.302	0.0125048
905.380	0.0125461
905.458	0.0126316
905.537	0.0125775
905.615	0.0124876
905.693	0.0125496
905.771	0.0128554
905.849	0.0129124
905.927	0.0128043
906.005	0.0129199
906.083	0.0129412
906.162	0.0129691
906.240	0.0130270
906.318	0.0131240
906.396	0.0130615
906.474	0.0130293
906.552	0.0129950
906.630	0.0130880
906.708	0.0130726
906.787	0.0129249
906.865	0.0128282
906.943	0.0126736
907.021	0.0126365
907.099	0.0125764
907.177	0.0126984
907.255	0.0125190
907.333	0.0125895
907.412	0.0124641
907.490	0.0123227
907.568	0.0125786
907.646	0.0125214
907.724	0.0125919
907.802	0.0125016
907.880	0.0124446
907.958	0.0124362
908.037	0.0124536
908.115	0.0125519
908.193	0.0122599
908.271	0.0122157
908.349	0.0122543
908.427	0.0123217
908.505	0.0122965
908.583	0.0122705
908.662	0.0123189
908.740	0.0122365
908.818	0.0123375
908.896	0.0122878
908.974	0.0123970
909.052	0.0123342
909.130	0.0123942
909.208	0.0125277
909.287	0.0126848
909.365	0.0126551
909.443	0.0127008
909.521	0.0128605
909.599	0.0128486
909.677	0.0128486
909.755	0.0127650
909.833	0.0126917
909.912	0.0127421
909.990	0.0128397
910.068	0.0126973
910.146	0.0126972
910.224	0.0127620
910.302	0.0126706
910.380	0.0126768
910.458	0.0126251
910.537	0.0126620
910.615	0.0125410
910.693	0.0126843
910.771	0.0126360
910.849	0.0125254
910.927	0.0126544
911.005	0.0127408
911.083	0.0128760
911.162	0.0128392
911.240	0.0129366
911.318	0.0130003
911.396	0.0130390
911.474	0.0131367
911.552	0.0131068
911.630	0.0130756
911.708	0.0132254
911.787	0.0131644
911.865	0.0132040
911.943	0.0130681
912.021	0.0130357
912.099	0.0128452
912.177	0.0128926
912.255	0.0128441
912.333	0.0128568
912.412	0.0127989
912.490	0.0125329
912.568	0.0125405
912.646	0.0124355
912.724	0.0124413
912.802	0.0124598
912.880	0.0122328
912.958	0.0122942
913.037	0.0123195
913.115	0.0123267
913.193	0.0124210
913.271	0.0121533
913.349	0.0123121
913.427	0.0123287
913.505	0.0123164
913.583	0.0124294
913.662	0.0124348
913.740	0.0124052
913.818	0.0122614
913.896	0.0125748
913.974	0.0126162
914.052	0.0124557
914.130	0.0125375
914.208	0.0127850
914.287	0.0127771
914.365	0.0127847
914.443	0.0127367
914.521	0.0128600
914.599	0.0129166
914.677	0.0126994
914.755	0.0128742
914.833	0.0130017
914.912	0.0127437
914.990	0.0129472
915.068	0.0128595
915.146	0.0128535
915.224	0.0128097
915.302	0.0129077
915.380	0.0128816
915.458	0.0128735
915.537	0.0127150
915.615	0.0126540
915.693	0.0127872
915.771	0.0125863
915.849	0.0124400
915.927	0.0125728
916.005	0.0127067
916.083	0.0126165
916.162	0.0126505
916.240	0.0126613
916.318	0.0126608
916.396	0.0127333
916.474	0.0126942
916.552	0.0127961
916.630	0.0127271
916.708	0.0127680
916.787	0.0128883
916.865	0.0128074
916.943	0.0128806
917.021	0.0130926
917.099	0.0131174
917.177	0.0131234
917.255	0.0131678
917.333	0.0130493
917.412	0.0130617
917.490	0.0132503
917.568	0.0131281
917.646	0.0128722
917.724	0.0129853
917.802	0.0130721
917.880	0.0129183
917.958	0.0129268
918.037	0.0127064
918.115	0.0126844
918.193	0.0128314
918.271	0.0126255
918.349	0.0124908
918.427	0.0125978
918.505	0.0125301
918.583	0.0125419
918.662	0.0124910
918.740	0.0123960
918.818	0.0126438
918.896	0.0124863
918.974	0.0124242
919.052	0.0125481
919.130	0.0123996
919.208	0.0123306
919.287	0.0123662
919.365	0.0124194
919.443	0.0123972
919.521	0.0125344
919.599	0.0123779
919.677	0.0123396
919.755	0.0125545
919.833	0.0127341
919.912	0.0125164
919.990	0.0126637
920.068	0.0125777
920.146	0.0126282
920.224	0.0126789
920.302	0.0126703
920.380	0.0126440
920.458	0.0125540
920.537	0.0126665
920.615	0.0126781
920.693	0.0126721
920.771	0.0126630
920.849	0.0126701
920.927	0.0126963
921.005	0.0126460
921.083	0.0126315
921.162	0.0126409
921.240	0.0127161
921.318	0.0126154
921.396	0.0127148
921.474	0.0127973
921.552	0.0128011
921.630	0.0125886
921.708	0.0126762
921.787	0.0127480
921.865	0.0127567
921.943	0.0127277
922.021	0.0128718
922.099	0.0129826
922.177	0.0127962
922.255	0.0129008
922.333	0.0127059
922.412	0.0129164
922.490	0.0129091
922.568	0.0130287
922.646	0.0128212
922.724	0.0130003
922.802	0.0129758
922.880	0.0130215
922.958	0.0129124
923.037	0.0127813
923.115	0.0129926
923.193	0.0127493
923.271	0.0128494
923.349	0.0129226
923.427	0.0128724
923.505	0.0128665
923.583	0.0127009
923.662	0.0126631
923.740	0.0125955
923.818	0.0125684
923.896	0.0125417
923.974	0.0125175
924.052	0.0125745
924.130	0.0125337
924.208	0.0125629
924.287	0.0125082
924.365	0.0125732
924.443	0.0124306
924.521	0.0125406
924.599	0.0125330
924.677	0.0125802
924.755	0.0124737
924.833	0.0126522
924.912	0.0126357
924.990	0.0126297
925.068	0.0127740
925.146	0.0125570
925.224	0.0124243
925.302	0.0125157
925.380	0.0126105
925.458	0.0124977
925.537	0.0126749
925.615	0.0126344
925.693	0.0124860
925.771	0.0126138
925.849	0.0128473
925.927	0.0126781
926.005	0.0125607
926.083	0.0125878
926.162	0.0126534
926.240	0.0126365
926.318	0.0127126
926.396	0.0125294
926.474	0.0126922
926.552	0.0125479
926.630	0.0125583
926.708	0.0126749
926.787	0.0128172
926.865	0.0127299
926.943	0.0126373
927.021	0.0126691
927.099	0.0128128
927.177	0.0127470
927.255	0.0127290
927.333	0.0127518
927.412	0.0129486
927.490	0.0128674
927.568	0.0127554
927.646	0.0128903
927.724	0.0128445
927.802	0.0128420
927.880	0.0128452
927.958	0.0129851
928.037	0.0129097
928.115	0.0129834
928.193	0.0129683
928.271	0.0128776
928.349	0.0128668
928.427	0.0127462
928.505	0.0128719
928.583	0.0127766
928.662	0.0128473
928.740	0.0128712
928.818	0.0127618
928.896	0.0126517
928.974	0.0126460
929.052	0.0125214
929.130	0.0126915
929.208	0.0126642
929.287	0.0126506
929.365	0.0126687
929.443	0.0125746
929.521	0.0128040
929.599	0.0127228
929.677	0.0127062
929.755	0.0125645
929.833	0.0124998
929.912	0.0125304
929.990	0.0124288
930.068	0.0125443
930.146	0.0125929
930.224	0.0125585
930.302	0.0125557
930.380	0.0126455
930.458	0.0125662
930.537	0.0125266
930.615	0.0125992
930.693	0.0125784
930.771	0.0125977
930.849	0.0126222
930.927	0.0124628
931.005	0.0124976
931.083	0.0125750
931.162	0.0125345
931.240	0.0125559
931.318	0.0126510
931.396	0.0123849
931.474	0.0125845
931.552	0.0125957
931.630	0.0126019
931.708	0.0125328
931.787	0.0124777
931.865	0.0126379
931.943	0.0124366
932.021	0.0126657
932.099	0.0126405
932.177	0.0125474
932.255	0.0127029
932.333	0.0126322
932.412	0.0127053
932.490	0.0125835
932.568	0.0125849
932.646	0.0126797
932.724	0.0126335
932.802	0.0128030
932.880	0.0127083
932.958	0.0127570
933.037	0.0128648
933.115	0.0128313
933.193	0.0128708
933.271	0.0128686
933.349	0.0130654
933.427	0.0129642
933.505	0.0128776
933.583	0.0128024
933.662	0.0129532
933.740	0.0127835
933.818	0.0128119
933.896	0.0127489
933.974	0.0128710
934.052	0.0127699
934.130	0.0127589
934.208	0.0127881
934.287	0.0128296
934.365	0.0128854
934.443	0.0128036
934.521	0.0128159
934.599	0.0128683
934.677	0.0128535
934.755	0.0128224
934.833	0.0126543
934.912	0.0126357
934.990	0.0127050
935.068	0.0125787
935.146	0.0125539
935.224	0.0125727
935.302	0.0126098
935.380	0.0125047
935.458	0.0125571
935.537	0.0125393
935.615	0.0123974
935.693	0.0123978
935.771	0.0124632
935.849	0.0124644
935.927	0.0125500
936.005	0.0127065
936.083	0.0126398
936.162	0.0126220
936.240	0.0125508
936.318	0.0125220
936.396	0.0125512
936.474	0.0125986
936.552	0.0126673
936.630	0.0124759
936.708	0.0126498
936.787	0.0125881
936.865	0.0125190
936.943	0.0125921
937.021	0.0126845
937.099	0.0126268
937.177	0.0127206
937.255	0.0127009
937.333	0.0125927
937.412	0.0127184
937.490	0.0127486
937.568	0.0126929
937.646	0.0125978
937.724	0.0127032
937.802	0.0126488
937.880	0.0127514
937.958	0.0127200
938.037	0.0128518
938.115	0.0127552
938.193	0.0126894
938.271	0.0127458
938.349	0.0128806
938.427	0.0128269
938.505	0.0128969
938.583	0.0128537
938.662	0.0127147
938.740	0.0128900
938.818	0.0128694
938.896	0.0127368
938.974	0.0127239
939.052	0.0128119
939.130	0.0127960
939.208	0.0127558
939.287	0.0126650
939.365	0.0128294
939.443	0.0128156
939.521	0.0128492
939.599	0.0128427
939.677	0.0127541
939.755	0.0127259
939.833	0.0127175
939.912	0.0128125
939.990	0.0128772
940.068	0.0130050
940.146	0.0129057
940.224	0.0128268
940.302	0.0128084
940.380	0.0129322
940.458	0.0127176
940.537	0.0128412
940.615	0.0127714
940.693	0.0126863
940.771	0.0127349
940.849	0.0126758
940.927	0.0126330
941.005	0.0126577
941.083	0.0124567
941.162	0.0125240
941.240	0.0125056
941.318	0.0124005
941.396	0.0123260
941.474	0.0122880
941.552	0.0123840
941.630	0.0124497
941.708	0.0124647
941.787	0.0123647
941.865	0.0124122
941.943	0.0124318
942.021	0.0124366
942.099	0.0125036
942.177	0.0125222
942.255	0.0125901
942.333	0.0126757
942.412	0.0125735
942.490	0.0126011
942.568	0.0125346
942.646	0.0126289
942.724	0.0127055
942.802	0.0125591
942.880	0.0127579
942.958	0.0128296
943.037	0.0126658
943.115	0.0127312
943.193	0.0127921
943.271	0.0128707
943.349	0.0127567
943.427	0.0127438
943.505	0.0127646
943.583	0.0127004
943.662	0.0126910
943.740	0.0126469
943.818	0.0127253
943.896	0.0126249
943.974	0.0126817
944.052	0.0125314
944.130	0.0127530
944.208	0.0127225
944.287	0.0127303
944.365	0.0126151
944.443	0.0126731
944.521	0.0128635
944.599	0.0126833
944.677	0.0128835
944.755	0.0129178
944.833	0.0127338
944.912	0.0127629
944.990	0.0128594
945.068	0.0128073
945.146	0.0128997
945.224	0.0127698
945.302	0.0128273
945.380	0.0127734
945.458	0.0129707
945.537	0.0128864
945.615	0.0128553
945.693	0.0129052
945.771	0.0128390
945.849	0.0129596
945.927	0.0127764
946.005	0.0128628
946.083	0.0127947
946.162	0.0128142
946.240	0.0126778
946.318	0.0127325
946.396	0.0125930
946.474	0.0124637
946.552	0.0125929
946.630	0.0126414
946.708	0.0124807
946.787	0.0126147
946.865	0.0125484
946.943	0.0126302
947.021	0.0126991
947.099	0.0126292
947.177	0.0127802
947.255	0.0125832
947.333	0.0126576
947.412	0.0126806
947.490	0.0125912
947.568	0.0127376
947.646	0.0127487
947.724	0.0125922
947.802	0.0126097
947.880	0.0127850
947.958	0.0126527
948.037	0.0126754
948.115	0.0127072
948.193	0.0126803
948.271	0.0127884
948.349	0.0126919
948.427	0.0128333
948.505	0.0128696
948.583	0.0126646
948.662	0.0126633
948.740	0.0128197
948.818	0.0126077
948.896	0.0127617
948.974	0.0126134
949.052	0.0126645
949.130	0.0127062
949.208	0.0126753
949.287	0.0126132
949.365	0.0126785
949.443	0.0125208
949.521	0.0124964
949.599	0.0127087
949.677	0.0126546
949.755	0.0124883
949.833	0.0126735
949.912	0.0125894
949.990	0.0126020
950.068	0.0127529
950.146	0.0127900
950.224	0.0127068
950.302	0.0127880
950.380	0.0127139
950.458	0.0128559
950.537	0.0128048
950.615	0.0127486
950.693	0.0128596
950.771	0.0128032
950.849	0.0127283
950.927	0.0127419
951.005	0.0127238
951.083	0.0128532
951.162	0.0128358
951.240	0.0127308
951.318	0.0128753
951.396	0.0127491
951.474	0.0127612
951.552	0.0129171
951.630	0.0129153
951.708	0.0128974
951.787	0.0128136
951.865	0.0127561
951.943	0.0128772
952.021	0.0129725
952.099	0.0127956
952.177	0.0127467
952.255	0.0126985
952.333	0.0128072
952.412	0.0128201
952.490	0.0127933
952.568	0.0127867
952.646	0.0127637
952.724	0.0126373
952.802	0.0128022
952.880	0.0126701
952.958	0.0126617
953.037	0.0126819
953.115	0.0126837
953.193	0.0125666
953.271	0.0126825
953.349	0.0125394
953.427	0.0126521
953.505	0.0125864
953.583	0.0125352
953.662	0.0126569
953.740	0.0125448
953.818	0.0124818
953.896	0.0126907
953.974	0.0125549
954.052	0.0126892
954.130	0.0127598
954.208	0.0125702
954.287	0.0127126
954.365	0.0127065
954.443	0.0127020
954.521	0.0127202
954.599	0.0126949
954.677	0.0126794
954.755	0.0126237
954.833	0.0125072
954.912	0.0125287
954.990	0.0124667
955.068	0.0125091
955.146	0.0125639
955.224	0.0125632
955.302	0.0124752
955.380	0.0126276
955.458	0.0124747
955.537	0.0125940
955.615	0.0126946
955.693	0.0124625
955.771	0.0125543
955.849	0.0125651
955.927	0.0126524
956.005	0.0126661
956.083	0.0124571
956.162	0.0127528
956.240	0.0126774
956.318	0.0126425
956.396	0.0127671
956.474	0.0128152
956.552	0.0127753
956.630	0.0127360
956.708	0.0127595
956.787	0.0127865
956.865	0.0127511
956.943	0.0127897
957.021	0.0129851
957.099	0.0129674
957.177	0.0129520
957.255	0.0129337
957.333	0.0129015
957.412	0.0128419
957.490	0.0128709
957.568	0.0128387
957.646	0.0125936
957.724	0.0125507
957.802	0.0125844
957.880	0.0126065
957.958	0.0126406
958.037	0.0126479
958.115	0.0126406
958.193	0.0127820
958.271	0.0125719
958.349	0.0125676
958.427	0.0125729
958.505	0.0125640
958.583	0.0126741
958.662	0.0126468
958.740	0.0127689
958.818	0.0127459
958.896	0.0127102
958.974	0.0126173
959.052	0.0126379
959.130	0.0127578
959.208	0.0127629
959.287	0.0126692
959.365	0.0126076
959.443	0.0127815
959.521	0.0126573
959.599	0.0125418
959.677	0.0126045
959.755	0.0125976
959.833	0.0125661
959.912	0.0125711
959.990	0.0125938
960.068	0.0125406
960.146	0.0124500
960.224	0.0126237
960.302	0.0125939
960.380	0.0124824
960.458	0.0126902
960.537	0.0125785
960.615	0.0126212
960.693	0.0126044
960.771	0.0126384
960.849	0.0125935
960.927	0.0125596
961.005	0.0125152
961.083	0.0124218
961.162	0.0125134
961.240	0.0123850
961.318	0.0126384
961.396	0.0126198
961.474	0.0125088
961.552	0.0125794
961.630	0.0128056
961.708	0.0128102
961.787	0.0127174
961.865	0.0127685
961.943	0.0127739
962.021	0.0128665
962.099	0.0128351
962.177	0.0128746
962.255	0.0128362
962.333	0.0127586
962.412	0.0127755
962.490	0.0127342
962.568	0.0126278
962.646	0.0127654
962.724	0.0128242
962.802	0.0127364
962.880	0.0128117
962.958	0.0127033
963.037	0.0126910
963.115	0.0127254
963.193	0.0127936
963.271	0.0125274
963.349	0.0126467
963.427	0.0127208
963.505	0.0126910
963.583	0.0128354
963.662	0.0127801
963.740	0.0126537
963.818	0.0125908
963.896	0.0128127
963.974	0.0127531
964.052	0.0126286
964.130	0.0126598
964.208	0.0127483
964.287	0.0128346
964.365	0.0128131
964.443	0.0127178
964.521	0.0128096
964.599	0.0128493
964.677	0.0127451
964.755	0.0128812
964.833	0.0129199
964.912	0.0129350
964.990	0.0127160
965.068	0.0128876
965.146	0.0128516
965.224	0.0128034
965.302	0.0128404
965.380	0.0128413
965.458	0.0128306
965.537	0.0127483
965.615	0.0129007
965.693	0.0126974
965.771	0.0126334
965.849	0.0126760
965.927	0.0125871
966.005	0.0125723
966.083	0.0124887
966.162	0.0125877
966.240	0.0124943
966.318	0.0125479
966.396	0.0124965
966.474	0.0124838
966.552	0.0123052
966.630	0.0123512
966.708	0.0124249
966.787	0.0124401
966.865	0.0123849
966.943	0.0123242
967.021	0.0124473
967.099	0.0124749
967.177	0.0124158
967.255	0.0123676
967.333	0.0123833
967.412	0.0126065
967.490	0.0124460
967.568	0.0127187
967.646	0.0127387
967.724	0.0127897
967.802	0.0128671
967.880	0.0129139
967.958	0.0129910
968.037	0.0129507
968.115	0.0129794
968.193	0.0130803
968.271	0.0131400
968.349	0.0130972
968.427	0.0131225
968.505	0.0131347
968.583	0.0129713
968.662	0.0130450
968.740	0.0130740
968.818	0.0128475
968.896	0.0128677
968.974	0.0129277
969.052	0.0128699
969.130	0.0127886
969.208	0.0126136
969.287	0.0127531
969.365	0.0126698
969.443	0.0125311
969.521	0.0126293
969.599	0.0126270
969.677	0.0126048
969.755	0.0125086
969.833	0.0125702
969.912	0.0124571
