05/08/2022	20:03:51	Ver.	4.1	UNKNOWN
Optical Delay	649.982996	Delta X		0.078125	Sweeps	1	Scan Rate	0/0
Coordinates	Axis 1	NaN	Axis 2	NaN	Axis 3	NaN	Axis 4	NaN	Axis 5	NaN	Axis 6	0.000000
TX Power	0.000000	RX Power	0.000000

649.983	0.0132622
650.061	0.0133656
650.139	0.0134007
650.217	0.0132706
650.295	0.0132091
650.374	0.0132227
650.452	0.0131069
650.530	0.0131146
650.608	0.0131236
650.686	0.0130907
650.764	0.0131221
650.842	0.0130324
650.920	0.0130145
650.999	0.0130650
651.077	0.0131541
651.155	0.0131134
651.233	0.0130587
651.311	0.0132490
651.389	0.0133025
651.467	0.0131683
651.545	0.0133421
651.624	0.0133286
651.702	0.0133085
651.780	0.0133422
651.858	0.0133040
651.936	0.0130862
652.014	0.0131166
652.092	0.0131392
652.170	0.0131207
652.249	0.0131295
652.327	0.0130003
652.405	0.0130598
652.483	0.0129957
652.561	0.0130145
652.639	0.0130846
652.717	0.0130961
652.795	0.0132552
652.874	0.0132449
652.952	0.0133508
653.030	0.0135001
653.108	0.0135095
653.186	0.0134110
653.264	0.0136303
653.342	0.0135870
653.420	0.0135525
653.499	0.0135305
653.577	0.0134248
653.655	0.0133521
653.733	0.0131377
653.811	0.0131072
653.889	0.0131462
653.967	0.0131257
654.045	0.0128784
654.124	0.0129997
654.202	0.0129073
654.280	0.0129640
654.358	0.0128697
654.436	0.0129034
654.514	0.0128759
654.592	0.0129404
654.670	0.0129163
654.749	0.0129195
654.827	0.0130861
654.905	0.0129659
654.983	0.0130659
655.061	0.0130161
655.139	0.0131425
655.217	0.0130564
655.295	0.0130273
655.374	0.0131477
655.452	0.0131938
655.530	0.0133807
655.608	0.0136773
655.686	0.0136844
655.764	0.0136435
655.842	0.0137724
655.920	0.0140111
655.999	0.0140121
656.077	0.0141202
656.155	0.0141352
656.233	0.0140819
656.311	0.0140528
656.389	0.0140269
656.467	0.0139915
656.545	0.0138582
656.624	0.0138156
656.702	0.0134940
656.780	0.0132413
656.858	0.0131149
656.936	0.0129156
657.014	0.0125681
657.092	0.0125199
657.170	0.0123505
657.249	0.0121429
657.327	0.0119968
657.405	0.0118842
657.483	0.0118764
657.561	0.0116737
657.639	0.0118066
657.717	0.0119068
657.795	0.0119571
657.874	0.0121128
657.952	0.0120683
658.030	0.0123750
658.108	0.0124525
658.186	0.0126714
658.264	0.0128249
658.342	0.0130523
658.420	0.0131336
658.499	0.0134668
658.577	0.0137000
658.655	0.0136407
658.733	0.0140179
658.811	0.0143372
658.889	0.0144810
658.967	0.0146162
659.045	0.0149355
659.124	0.0150852
659.202	0.0151639
659.280	0.0152843
659.358	0.0152280
659.436	0.0152872
659.514	0.0152953
659.592	0.0152037
659.670	0.0147880
659.749	0.0145275
659.827	0.0143208
659.905	0.0140440
659.983	0.0136340
660.061	0.0132557
660.139	0.0128319
660.217	0.0124082
660.295	0.0119105
660.374	0.0116811
660.452	0.0113208
660.530	0.0110989
660.608	0.0107639
660.686	0.0104324
660.764	0.0105391
660.842	0.0102060
660.920	0.0101737
660.999	0.0102834
661.077	0.0101937
661.155	0.0101420
661.233	0.0105363
661.311	0.0107893
661.389	0.0111897
661.467	0.0114056
661.545	0.0117777
661.624	0.0123071
661.702	0.0127768
661.780	0.0133331
661.858	0.0136768
661.936	0.0143212
662.014	0.0147881
662.092	0.0151417
662.170	0.0154735
662.249	0.0158744
662.327	0.0161258
662.405	0.0162858
662.483	0.0165204
662.561	0.0165504
662.639	0.0166464
662.717	0.0166138
662.795	0.0165604
662.874	0.0164463
662.952	0.0161200
663.030	0.0159069
663.108	0.0155744
663.186	0.0153862
663.264	0.0150843
663.342	0.0145404
663.420	0.0141295
663.499	0.0135348
663.577	0.0130848
663.655	0.0126333
663.733	0.0120293
663.811	0.0113934
663.889	0.0111181
663.967	0.0106908
664.045	0.0101196
664.124	0.00973480
664.202	0.00951378
664.280	0.00933037
664.358	0.00927139
664.436	0.00915672
664.514	0.00931427
664.592	0.00932899
664.670	0.00950104
664.749	0.00989502
664.827	0.0102904
664.905	0.0106994
664.983	0.0110802
665.061	0.0114565
665.139	0.0120482
665.217	0.0124680
665.295	0.0129993
665.374	0.0134658
665.452	0.0139876
665.530	0.0143752
665.608	0.0149261
665.686	0.0154179
665.764	0.0158176
665.842	0.0160918
665.920	0.0163876
665.999	0.0165009
666.077	0.0168314
666.155	0.0168996
666.233	0.0167262
666.311	0.0166419
666.389	0.0166935
666.467	0.0164343
666.545	0.0161414
666.624	0.0157231
666.702	0.0155437
666.780	0.0151466
666.858	0.0149504
666.936	0.0143884
667.014	0.0140838
667.092	0.0137083
667.170	0.0133132
667.249	0.0128347
667.327	0.0125059
667.405	0.0121431
667.483	0.0120035
667.561	0.0117007
667.639	0.0115237
667.717	0.0111916
667.795	0.0110915
667.874	0.0109460
667.952	0.0108642
668.030	0.0108338
668.108	0.0107018
668.186	0.0108397
668.264	0.0107523
668.342	0.0109027
668.420	0.0109045
668.499	0.0110635
668.577	0.0113539
668.655	0.0114693
668.733	0.0117867
668.811	0.0118785
668.889	0.0121416
668.967	0.0124644
669.045	0.0125285
669.124	0.0128124
669.202	0.0129510
669.280	0.0133179
669.358	0.0133775
669.436	0.0134583
669.514	0.0134620
669.592	0.0138871
669.670	0.0137163
669.749	0.0139626
669.827	0.0140053
669.905	0.0142805
669.983	0.0145738
670.061	0.0145967
670.139	0.0148320
670.217	0.0149130
670.295	0.0149512
670.374	0.0148941
670.452	0.0151316
670.530	0.0151340
670.608	0.0149879
670.686	0.0148050
670.764	0.0148071
670.842	0.0146455
670.920	0.0144405
670.999	0.0141334
671.077	0.0140969
671.155	0.0138064
671.233	0.0136747
671.311	0.0136191
671.389	0.0134576
671.467	0.0132044
671.545	0.0131497
671.624	0.0131226
671.702	0.0130271
671.780	0.0129288
671.858	0.0128413
671.936	0.0126812
672.014	0.0124920
672.092	0.0125935
672.170	0.0123905
672.249	0.0121593
672.327	0.0122531
672.405	0.0121021
672.483	0.0121140
672.561	0.0121880
672.639	0.0121665
672.717	0.0121238
672.795	0.0121040
672.874	0.0123260
672.952	0.0124086
673.030	0.0126584
673.108	0.0128708
673.186	0.0131105
673.264	0.0130999
673.342	0.0132944
673.420	0.0133898
673.499	0.0132616
673.577	0.0132355
673.655	0.0131849
673.733	0.0131387
673.811	0.0130983
673.889	0.0128500
673.967	0.0126503
674.045	0.0125311
674.124	0.0125219
674.202	0.0124202
674.280	0.0124977
674.358	0.0123306
674.436	0.0124664
674.514	0.0126244
674.592	0.0125824
674.670	0.0129037
674.749	0.0131361
674.827	0.0133983
674.905	0.0134501
674.983	0.0135178
675.061	0.0134976
675.139	0.0135960
675.217	0.0135600
675.295	0.0134886
675.374	0.0135124
675.452	0.0136837
675.530	0.0136972
675.608	0.0138782
675.686	0.0139566
675.764	0.0139993
675.842	0.0142230
675.920	0.0145830
675.999	0.0148977
676.077	0.0150195
676.155	0.0153454
676.233	0.0155643
676.311	0.0156374
676.389	0.0156291
676.467	0.0154876
676.545	0.0154620
676.624	0.0153642
676.702	0.0151836
676.780	0.0149673
676.858	0.0145395
676.936	0.0140437
677.014	0.0135512
677.092	0.0130558
677.170	0.0126329
677.249	0.0121503
677.327	0.0114256
677.405	0.0111129
677.483	0.0107391
677.561	0.0103397
677.639	0.00999535
677.717	0.00999069
677.795	0.00984749
677.874	0.00999260
677.952	0.00994438
678.030	0.0101504
678.108	0.0103349
678.186	0.0104334
678.264	0.0108006
678.342	0.0111292
678.420	0.0113567
678.499	0.0114622
678.577	0.0118369
678.655	0.0121353
678.733	0.0125606
678.811	0.0128154
678.889	0.0130103
678.967	0.0132456
679.045	0.0136530
679.124	0.0139120
679.202	0.0142046
679.280	0.0145361
679.358	0.0147748
679.436	0.0151376
679.514	0.0152241
679.592	0.0154153
679.670	0.0154632
679.749	0.0156479
679.827	0.0156406
679.905	0.0156579
679.983	0.0157047
680.061	0.0157310
680.139	0.0155663
680.217	0.0154627
680.295	0.0154567
680.374	0.0154059
680.452	0.0152759
680.530	0.0150092
680.608	0.0147668
680.686	0.0145078
680.764	0.0142115
680.842	0.0140239
680.920	0.0135299
680.999	0.0130055
681.077	0.0128634
681.155	0.0125906
681.233	0.0121291
681.311	0.0121059
681.389	0.0119166
681.467	0.0116788
681.545	0.0115304
681.624	0.0116778
681.702	0.0114204
681.780	0.0113360
681.858	0.0113216
681.936	0.0110706
682.014	0.0108482
682.092	0.0108710
682.170	0.0105412
682.249	0.0104276
682.327	0.0103851
682.405	0.0101459
682.483	0.0102143
682.561	0.0105405
682.639	0.0106681
682.717	0.0108986
682.795	0.0113725
682.874	0.0118719
682.952	0.0123857
683.030	0.0129558
683.108	0.0135023
683.186	0.0140186
683.264	0.0147130
683.342	0.0152985
683.420	0.0156207
683.499	0.0159221
683.577	0.0162300
683.655	0.0164099
683.733	0.0165172
683.811	0.0166763
683.889	0.0166644
683.967	0.0166365
684.045	0.0166283
684.124	0.0163236
684.202	0.0161223
684.280	0.0159974
684.358	0.0158807
684.436	0.0154266
684.514	0.0150095
684.592	0.0146134
684.670	0.0142169
684.749	0.0138464
684.827	0.0134025
684.905	0.0132388
684.983	0.0126615
685.061	0.0121414
685.139	0.0118183
685.217	0.0114954
685.295	0.0112952
685.374	0.0110489
685.452	0.0107956
685.530	0.0106470
685.608	0.0104733
685.686	0.0104474
685.764	0.0105310
685.842	0.0106002
685.920	0.0106504
685.999	0.0107722
686.077	0.0109556
686.155	0.0111196
686.233	0.0112521
686.311	0.0116400
686.389	0.0119003
686.467	0.0121667
686.545	0.0123883
686.624	0.0126443
686.702	0.0126831
686.780	0.0130980
686.858	0.0132043
686.936	0.0134249
687.014	0.0136256
687.092	0.0138538
687.170	0.0141299
687.249	0.0143707
687.327	0.0145360
687.405	0.0148209
687.483	0.0151524
687.561	0.0151450
687.639	0.0152583
687.717	0.0155038
687.795	0.0156100
687.874	0.0157885
687.952	0.0157684
688.030	0.0156967
688.108	0.0155802
688.186	0.0155303
688.264	0.0153743
688.342	0.0152634
688.420	0.0150024
688.499	0.0150041
688.577	0.0148442
688.655	0.0145430
688.733	0.0143091
688.811	0.0140618
688.889	0.0137049
688.967	0.0132529
689.045	0.0129350
689.124	0.0126386
689.202	0.0121874
689.280	0.0118478
689.358	0.0115346
689.436	0.0113206
689.514	0.0109629
689.592	0.0108865
689.670	0.0108062
689.749	0.0107247
689.827	0.0109474
689.905	0.0112347
689.983	0.0112463
690.061	0.0112286
690.139	0.0113734
690.217	0.0116338
690.295	0.0119434
690.374	0.0119650
690.452	0.0119833
690.530	0.0121143
690.608	0.0122968
690.686	0.0123376
690.764	0.0123734
690.842	0.0124813
690.920	0.0125402
690.999	0.0125823
691.077	0.0127437
691.155	0.0128602
691.233	0.0130064
691.311	0.0132326
691.389	0.0132983
691.467	0.0135954
691.545	0.0136974
691.624	0.0136800
691.702	0.0138775
691.780	0.0141494
691.858	0.0140153
691.936	0.0143806
692.014	0.0145275
692.092	0.0146178
692.170	0.0148049
692.249	0.0149197
692.327	0.0150404
692.405	0.0150968
692.483	0.0150237
692.561	0.0151260
692.639	0.0150971
692.717	0.0151008
692.795	0.0150462
692.874	0.0146743
692.952	0.0146481
693.030	0.0142854
693.108	0.0139996
693.186	0.0136384
693.264	0.0134636
693.342	0.0131105
693.420	0.0128320
693.499	0.0125571
693.577	0.0123660
693.655	0.0123065
693.733	0.0124559
693.811	0.0123496
693.889	0.0126158
693.967	0.0126996
694.045	0.0127768
694.124	0.0130539
694.202	0.0133143
694.280	0.0134184
694.358	0.0135246
694.436	0.0136671
694.514	0.0135783
694.592	0.0133012
694.670	0.0134187
694.749	0.0132982
694.827	0.0132288
694.905	0.0129471
694.983	0.0128478
695.061	0.0126424
695.139	0.0125131
695.217	0.0124784
695.295	0.0124207
695.374	0.0123112
695.452	0.0122539
695.530	0.0122309
695.608	0.0121886
695.686	0.0121687
695.764	0.0122231
695.842	0.0121110
695.920	0.0120560
695.999	0.0120373
696.077	0.0121355
696.155	0.0121758
696.233	0.0121978
696.311	0.0123183
696.389	0.0125120
696.467	0.0125819
696.545	0.0129392
696.624	0.0130389
696.702	0.0132268
696.780	0.0134106
696.858	0.0135519
696.936	0.0136578
697.014	0.0137865
697.092	0.0137001
697.170	0.0137022
697.249	0.0136996
697.327	0.0136327
697.405	0.0134992
697.483	0.0134143
697.561	0.0131907
697.639	0.0130827
697.717	0.0131009
697.795	0.0133298
697.874	0.0133336
697.952	0.0131754
698.030	0.0133437
698.108	0.0133204
698.186	0.0135116
698.264	0.0135754
698.342	0.0138337
698.420	0.0141191
698.499	0.0141891
698.577	0.0143642
698.655	0.0146648
698.733	0.0148942
698.811	0.0148544
698.889	0.0150600
698.967	0.0152624
699.045	0.0151833
699.124	0.0152568
699.202	0.0151808
699.280	0.0150565
699.358	0.0147269
699.436	0.0147624
699.514	0.0144088
699.592	0.0140512
699.670	0.0135843
699.749	0.0133057
699.827	0.0127200
699.905	0.0124593
699.983	0.0121433
700.061	0.0119291
700.139	0.0117310
700.217	0.0117187
700.295	0.0114924
700.374	0.0113634
700.452	0.0113457
700.530	0.0111921
700.608	0.0111881
700.686	0.0111234
700.764	0.0111273
700.842	0.0111813
700.920	0.0113571
700.999	0.0113417
701.077	0.0113390
701.155	0.0114222
701.233	0.0116325
701.311	0.0117463
701.389	0.0116977
701.467	0.0119385
701.545	0.0119122
701.624	0.0122122
701.702	0.0126165
701.780	0.0128503
701.858	0.0129787
701.936	0.0134660
702.014	0.0137277
702.092	0.0138072
702.170	0.0141411
702.249	0.0146015
702.327	0.0147922
702.405	0.0148470
702.483	0.0150915
702.561	0.0150960
702.639	0.0150636
702.717	0.0151012
702.795	0.0150523
702.874	0.0148221
702.952	0.0144815
703.030	0.0144418
703.108	0.0141943
703.186	0.0139970
703.264	0.0139094
703.342	0.0137932
703.420	0.0135244
703.499	0.0137755
703.577	0.0137559
703.655	0.0137908
703.733	0.0137234
703.811	0.0136240
703.889	0.0137234
703.967	0.0135168
704.045	0.0134282
704.124	0.0134459
704.202	0.0132114
704.280	0.0131304
704.358	0.0130501
704.436	0.0129564
704.514	0.0130374
704.592	0.0127402
704.670	0.0127673
704.749	0.0127995
704.827	0.0127342
704.905	0.0128417
704.983	0.0127712
705.061	0.0127739
705.139	0.0128387
705.217	0.0128362
705.295	0.0130158
705.374	0.0130090
705.452	0.0128644
705.530	0.0130244
705.608	0.0131470
705.686	0.0130622
705.764	0.0130824
705.842	0.0131049
705.920	0.0131728
705.999	0.0130154
706.077	0.0130882
706.155	0.0130837
706.233	0.0129028
706.311	0.0129150
706.389	0.0128514
706.467	0.0127042
706.545	0.0127136
706.624	0.0125889
706.702	0.0123072
706.780	0.0125143
706.858	0.0124416
706.936	0.0123002
707.014	0.0123215
707.092	0.0124281
707.170	0.0124674
707.249	0.0126376
707.327	0.0127694
707.405	0.0130465
707.483	0.0131219
707.561	0.0132452
707.639	0.0134286
707.717	0.0134748
707.795	0.0137012
707.874	0.0138179
707.952	0.0139639
708.030	0.0138618
708.108	0.0139774
708.186	0.0140653
708.264	0.0139516
708.342	0.0141919
708.420	0.0141102
708.499	0.0140604
708.577	0.0140920
708.655	0.0139729
708.733	0.0139664
708.811	0.0137955
708.889	0.0136796
708.967	0.0136169
709.045	0.0134698
709.124	0.0131348
709.202	0.0130231
709.280	0.0129790
709.358	0.0127737
709.436	0.0126479
709.514	0.0127076
709.592	0.0127505
709.670	0.0126824
709.749	0.0127819
709.827	0.0131211
709.905	0.0132682
709.983	0.0133420
710.061	0.0133488
710.139	0.0134734
710.217	0.0136694
710.295	0.0136281
710.374	0.0135777
710.452	0.0135403
710.530	0.0134571
710.608	0.0132967
710.686	0.0133199
710.764	0.0133456
710.842	0.0131231
710.920	0.0131275
710.999	0.0129626
711.077	0.0130453
711.155	0.0130404
711.233	0.0130550
711.311	0.0131497
711.389	0.0130826
711.467	0.0130849
711.545	0.0132456
711.624	0.0133753
711.702	0.0131643
711.780	0.0131156
711.858	0.0130158
711.936	0.0129813
712.014	0.0127731
712.092	0.0126318
712.170	0.0125888
712.249	0.0124397
712.327	0.0123263
712.405	0.0123186
712.483	0.0122489
712.561	0.0121826
712.639	0.0120871
712.717	0.0122707
712.795	0.0123579
712.874	0.0124297
712.952	0.0127565
713.030	0.0127654
713.108	0.0130039
713.186	0.0131913
713.264	0.0134052
713.342	0.0136697
713.420	0.0142313
713.499	0.0142969
713.577	0.0144270
713.655	0.0146770
713.733	0.0147337
713.811	0.0147434
713.889	0.0145896
713.967	0.0145783
714.045	0.0144236
714.124	0.0143987
714.202	0.0141550
714.280	0.0139684
714.358	0.0139961
714.436	0.0138778
714.514	0.0135186
714.592	0.0135024
714.670	0.0132673
714.749	0.0132575
714.827	0.0132208
714.905	0.0129716
714.983	0.0129269
715.061	0.0130041
715.139	0.0127016
715.217	0.0126380
715.295	0.0127178
715.374	0.0125307
715.452	0.0125047
715.530	0.0127027
715.608	0.0122895
715.686	0.0122930
715.764	0.0124529
715.842	0.0124744
715.920	0.0126642
715.999	0.0126682
716.077	0.0127365
716.155	0.0128613
716.233	0.0129007
716.311	0.0128908
716.389	0.0130435
716.467	0.0131860
716.545	0.0132761
716.624	0.0134086
716.702	0.0134629
716.780	0.0133568
716.858	0.0134412
716.936	0.0135316
717.014	0.0133257
717.092	0.0133369
717.170	0.0133645
717.249	0.0134538
717.327	0.0133406
717.405	0.0133797
717.483	0.0133074
717.561	0.0131798
717.639	0.0131931
717.717	0.0133148
717.795	0.0129926
717.874	0.0132320
717.952	0.0132346
718.030	0.0132059
718.108	0.0132679
718.186	0.0132644
718.264	0.0133569
718.342	0.0133023
718.420	0.0132241
718.499	0.0132260
718.577	0.0133323
718.655	0.0132967
718.733	0.0132973
718.811	0.0133077
718.889	0.0133047
718.967	0.0133314
719.045	0.0134502
719.124	0.0134534
719.202	0.0134695
719.280	0.0135571
719.358	0.0136388
719.436	0.0134613
719.514	0.0135210
719.592	0.0135042
719.670	0.0134969
719.749	0.0134379
719.827	0.0131337
719.905	0.0132872
719.983	0.0131451
720.061	0.0131406
720.139	0.0127853
720.217	0.0128749
720.295	0.0128639
720.374	0.0128114
720.452	0.0126425
720.530	0.0128417
720.608	0.0127205
720.686	0.0125341
720.764	0.0126239
720.842	0.0127098
720.920	0.0127924
720.999	0.0128542
721.077	0.0128625
721.155	0.0128314
721.233	0.0129167
721.311	0.0131290
721.389	0.0131468
721.467	0.0131136
721.545	0.0131306
721.624	0.0131406
721.702	0.0131753
721.780	0.0131021
721.858	0.0131301
721.936	0.0131052
722.014	0.0131911
722.092	0.0132204
722.170	0.0132545
722.249	0.0132758
722.327	0.0134000
722.405	0.0133152
722.483	0.0134426
722.561	0.0134988
722.639	0.0136497
722.717	0.0136757
722.795	0.0135947
722.874	0.0137318
722.952	0.0136009
723.030	0.0133132
723.108	0.0135902
723.186	0.0132829
723.264	0.0131000
723.342	0.0129895
723.420	0.0127692
723.499	0.0127538
723.577	0.0127113
723.655	0.0127073
723.733	0.0125176
723.811	0.0125694
723.889	0.0126742
723.967	0.0127598
724.045	0.0128603
724.124	0.0129860
724.202	0.0133074
724.280	0.0134032
724.358	0.0135835
724.436	0.0137209
724.514	0.0138879
724.592	0.0139642
724.670	0.0137518
724.749	0.0138431
724.827	0.0139639
724.905	0.0140536
724.983	0.0139242
725.061	0.0139877
725.139	0.0139731
725.217	0.0138663
725.295	0.0137470
725.374	0.0136269
725.452	0.0136236
725.530	0.0135947
725.608	0.0134802
725.686	0.0134032
725.764	0.0134268
725.842	0.0134372
725.920	0.0133776
725.999	0.0133855
726.077	0.0134133
726.155	0.0132987
726.233	0.0133844
726.311	0.0134346
726.389	0.0133833
726.467	0.0133028
726.545	0.0130798
726.624	0.0128784
726.702	0.0128446
726.780	0.0127286
726.858	0.0125235
726.936	0.0125370
727.014	0.0122060
727.092	0.0121201
727.170	0.0120990
727.249	0.0119769
727.327	0.0120482
727.405	0.0120646
727.483	0.0120265
727.561	0.0121780
727.639	0.0123808
727.717	0.0123728
727.795	0.0125141
727.874	0.0124885
727.952	0.0125375
728.030	0.0126733
728.108	0.0128136
728.186	0.0128651
728.264	0.0128710
728.342	0.0130094
728.420	0.0131332
728.499	0.0128973
728.577	0.0130189
728.655	0.0131914
728.733	0.0132309
728.811	0.0134115
728.889	0.0135641
728.967	0.0135844
729.045	0.0137733
729.124	0.0139521
729.202	0.0142695
729.280	0.0141644
729.358	0.0144739
729.436	0.0144318
729.514	0.0144477
729.592	0.0143974
729.670	0.0145530
729.749	0.0143333
729.827	0.0142472
729.905	0.0140996
729.983	0.0139116
730.061	0.0137485
730.139	0.0135612
730.217	0.0134801
730.295	0.0133864
730.374	0.0133201
730.452	0.0132096
730.530	0.0131490
730.608	0.0130441
730.686	0.0130251
730.764	0.0132787
730.842	0.0131161
730.920	0.0129832
730.999	0.0129659
731.077	0.0129997
731.155	0.0129401
731.233	0.0128300
731.311	0.0128353
731.389	0.0128873
731.467	0.0128391
731.545	0.0127834
731.624	0.0126625
731.702	0.0128312
731.780	0.0129586
731.858	0.0127872
731.936	0.0128938
732.014	0.0130045
732.092	0.0129471
732.170	0.0131348
732.249	0.0131664
732.327	0.0130396
732.405	0.0131498
732.483	0.0132306
732.561	0.0131947
732.639	0.0132584
732.717	0.0132703
732.795	0.0133701
732.874	0.0132096
732.952	0.0132154
733.030	0.0130898
733.108	0.0130511
733.186	0.0132481
733.264	0.0130760
733.342	0.0131863
733.420	0.0131264
733.499	0.0131214
733.577	0.0131651
733.655	0.0131754
733.733	0.0130574
733.811	0.0129449
733.889	0.0131583
733.967	0.0131539
734.045	0.0130256
734.124	0.0130853
734.202	0.0130724
734.280	0.0130219
734.358	0.0130872
734.436	0.0129446
734.514	0.0128600
734.592	0.0128616
734.670	0.0129842
734.749	0.0128220
734.827	0.0129212
734.905	0.0128311
734.983	0.0129100
735.061	0.0128615
735.139	0.0128350
735.217	0.0128554
735.295	0.0128731
735.374	0.0128643
735.452	0.0130247
735.530	0.0130061
735.608	0.0131029
735.686	0.0132041
735.764	0.0132471
735.842	0.0133111
735.920	0.0134772
735.999	0.0134885
736.077	0.0135406
736.155	0.0135604
736.233	0.0138548
736.311	0.0137923
736.389	0.0139072
736.467	0.0140316
736.545	0.0138256
736.624	0.0137453
736.702	0.0137416
736.780	0.0137845
736.858	0.0136497
736.936	0.0135926
737.014	0.0134879
737.092	0.0134224
737.170	0.0132504
737.249	0.0132246
737.327	0.0132085
737.405	0.0130951
737.483	0.0131223
737.561	0.0130286
737.639	0.0129324
737.717	0.0130930
737.795	0.0129957
737.874	0.0129181
737.952	0.0130304
738.030	0.0129642
738.108	0.0129200
738.186	0.0130881
738.264	0.0131027
738.342	0.0130674
738.420	0.0132693
738.499	0.0132384
738.577	0.0133127
738.655	0.0134248
738.733	0.0132745
738.811	0.0134329
738.889	0.0132408
738.967	0.0133349
739.045	0.0132698
739.124	0.0132147
739.202	0.0131047
739.280	0.0131792
739.358	0.0130350
739.436	0.0133616
739.514	0.0130633
739.592	0.0132790
739.670	0.0132319
739.749	0.0131985
739.827	0.0132247
739.905	0.0131940
739.983	0.0133292
740.061	0.0132845
740.139	0.0131986
740.217	0.0132143
740.295	0.0132887
740.374	0.0132288
740.452	0.0130407
740.530	0.0130238
740.608	0.0129182
740.686	0.0130238
740.764	0.0129758
740.842	0.0128905
740.920	0.0128348
740.999	0.0127365
741.077	0.0127280
741.155	0.0127866
741.233	0.0127784
741.311	0.0128111
741.389	0.0128523
741.467	0.0129321
741.545	0.0128699
741.624	0.0127997
741.702	0.0130004
741.780	0.0131998
741.858	0.0132478
741.936	0.0131086
742.014	0.0132035
742.092	0.0133383
742.170	0.0133736
742.249	0.0133109
742.327	0.0134708
742.405	0.0135192
742.483	0.0135607
742.561	0.0137700
742.639	0.0136238
742.717	0.0137927
742.795	0.0138614
742.874	0.0138611
742.952	0.0138241
743.030	0.0138004
743.108	0.0138981
743.186	0.0139037
743.264	0.0137959
743.342	0.0139539
743.420	0.0135889
743.499	0.0136807
743.577	0.0136471
743.655	0.0134960
743.733	0.0135056
743.811	0.0135487
743.889	0.0133596
743.967	0.0133098
744.045	0.0132435
744.124	0.0130939
744.202	0.0130792
744.280	0.0130521
744.358	0.0130393
744.436	0.0129349
744.514	0.0130855
744.592	0.0131119
744.670	0.0130750
744.749	0.0131959
744.827	0.0131532
744.905	0.0132013
744.983	0.0131680
745.061	0.0132526
745.139	0.0133578
745.217	0.0132696
745.295	0.0132801
745.374	0.0131146
745.452	0.0131906
745.530	0.0133065
745.608	0.0131812
745.686	0.0133154
745.764	0.0132487
745.842	0.0131478
745.920	0.0131516
745.999	0.0130054
746.077	0.0133036
746.155	0.0132470
746.233	0.0131949
746.311	0.0132306
746.389	0.0131169
746.467	0.0132655
746.545	0.0132265
746.624	0.0131863
746.702	0.0132209
746.780	0.0133443
746.858	0.0134007
746.936	0.0133868
747.014	0.0135171
747.092	0.0134543
747.170	0.0134364
747.249	0.0133639
747.327	0.0132795
747.405	0.0132813
747.483	0.0133437
747.561	0.0132808
747.639	0.0131001
747.717	0.0133389
747.795	0.0130328
747.874	0.0130830
747.952	0.0129425
748.030	0.0130345
748.108	0.0129661
748.186	0.0127991
748.264	0.0129709
748.342	0.0128996
748.420	0.0127597
748.499	0.0128477
748.577	0.0127778
748.655	0.0127908
748.733	0.0129001
748.811	0.0129322
748.889	0.0129116
748.967	0.0129690
749.045	0.0131654
749.124	0.0133417
749.202	0.0135704
749.280	0.0135820
749.358	0.0137676
749.436	0.0140526
749.514	0.0141388
749.592	0.0140051
749.670	0.0141951
749.749	0.0142229
749.827	0.0142361
749.905	0.0142725
749.983	0.0142056
750.061	0.0140258
750.139	0.0138871
750.217	0.0137241
750.295	0.0135722
750.374	0.0134454
750.452	0.0132732
750.530	0.0131654
750.608	0.0130227
750.686	0.0128264
750.764	0.0129314
750.842	0.0129794
750.920	0.0129158
750.999	0.0129318
751.077	0.0130340
751.155	0.0130722
751.233	0.0131104
751.311	0.0131897
751.389	0.0131042
751.467	0.0131966
751.545	0.0131681
751.624	0.0132824
751.702	0.0132063
751.780	0.0131944
751.858	0.0132516
751.936	0.0130626
752.014	0.0129613
752.092	0.0129797
752.170	0.0130669
752.249	0.0129720
752.327	0.0129551
752.405	0.0128440
752.483	0.0129111
752.561	0.0129597
752.639	0.0129385
752.717	0.0126893
752.795	0.0128677
752.874	0.0128430
752.952	0.0128483
753.030	0.0129540
753.108	0.0129773
753.186	0.0129772
753.264	0.0129305
753.342	0.0130081
753.420	0.0129519
753.499	0.0130548
753.577	0.0130747
753.655	0.0130467
753.733	0.0130569
753.811	0.0129407
753.889	0.0127706
753.967	0.0129918
754.045	0.0127683
754.124	0.0127570
754.202	0.0126802
754.280	0.0126643
754.358	0.0129550
754.436	0.0127585
754.514	0.0127401
754.592	0.0127730
754.670	0.0128573
754.749	0.0128844
754.827	0.0128336
754.905	0.0128602
754.983	0.0130748
755.061	0.0128863
755.139	0.0130338
755.217	0.0132054
755.295	0.0131528
755.374	0.0133333
755.452	0.0132415
755.530	0.0134940
755.608	0.0135506
755.686	0.0136262
755.764	0.0136629
755.842	0.0135574
755.920	0.0137763
755.999	0.0138175
756.077	0.0138922
756.155	0.0137840
756.233	0.0138623
756.311	0.0138095
756.389	0.0137321
756.467	0.0136483
756.545	0.0136536
756.624	0.0134323
756.702	0.0134834
756.780	0.0134534
756.858	0.0133774
756.936	0.0132535
757.014	0.0131866
757.092	0.0130914
757.170	0.0131086
757.249	0.0131511
757.327	0.0129616
757.405	0.0129618
757.483	0.0129356
757.561	0.0129094
757.639	0.0129192
757.717	0.0130389
757.795	0.0130019
757.874	0.0127877
757.952	0.0128361
758.030	0.0128583
758.108	0.0129563
758.186	0.0130839
758.264	0.0131407
758.342	0.0132585
758.420	0.0132396
758.499	0.0132243
758.577	0.0130975
758.655	0.0132019
758.733	0.0133009
758.811	0.0131496
758.889	0.0130639
758.967	0.0131677
759.045	0.0132841
759.124	0.0133778
759.202	0.0133807
759.280	0.0133495
759.358	0.0133277
759.436	0.0133813
759.514	0.0134196
759.592	0.0134590
759.670	0.0134525
759.749	0.0134879
759.827	0.0134680
759.905	0.0134273
759.983	0.0133913
760.061	0.0132664
760.139	0.0131676
760.217	0.0130873
760.295	0.0130403
760.374	0.0130930
760.452	0.0129495
760.530	0.0128580
760.608	0.0129096
760.686	0.0129050
760.764	0.0127665
760.842	0.0129646
760.920	0.0127277
760.999	0.0127079
761.077	0.0127692
761.155	0.0127132
761.233	0.0128088
761.311	0.0126504
761.389	0.0126148
761.467	0.0126566
761.545	0.0126565
761.624	0.0125262
761.702	0.0126895
761.780	0.0126646
761.858	0.0126914
761.936	0.0126920
762.014	0.0129222
762.092	0.0130019
762.170	0.0131930
762.249	0.0134105
762.327	0.0134606
762.405	0.0134775
762.483	0.0137609
762.561	0.0138451
762.639	0.0139118
762.717	0.0140028
762.795	0.0140753
762.874	0.0140829
762.952	0.0139519
763.030	0.0140897
763.108	0.0139375
763.186	0.0138994
763.264	0.0139390
763.342	0.0136813
763.420	0.0136046
763.499	0.0137078
763.577	0.0135387
763.655	0.0134363
763.733	0.0133048
763.811	0.0132529
763.889	0.0133150
763.967	0.0131492
764.045	0.0132460
764.124	0.0130818
764.202	0.0130570
764.280	0.0131201
764.358	0.0130088
764.436	0.0131105
764.514	0.0130711
764.592	0.0129531
764.670	0.0130023
764.749	0.0131154
764.827	0.0131372
764.905	0.0131128
764.983	0.0132075
765.061	0.0131094
765.139	0.0131992
765.217	0.0132521
765.295	0.0132548
765.374	0.0132136
765.452	0.0132199
765.530	0.0133752
765.608	0.0132736
765.686	0.0131797
765.764	0.0132679
765.842	0.0133543
765.920	0.0132690
765.999	0.0131313
766.077	0.0131757
766.155	0.0132961
766.233	0.0131612
766.311	0.0129881
766.389	0.0133511
766.467	0.0134297
766.545	0.0134074
766.624	0.0133492
766.702	0.0134160
766.780	0.0134911
766.858	0.0136044
766.936	0.0134827
767.014	0.0135302
767.092	0.0136507
767.170	0.0136117
767.249	0.0134853
767.327	0.0134019
767.405	0.0134549
767.483	0.0134574
767.561	0.0133710
767.639	0.0134121
767.717	0.0132590
767.795	0.0132714
767.874	0.0132374
767.952	0.0132660
768.030	0.0132215
768.108	0.0132486
768.186	0.0133061
768.264	0.0132664
768.342	0.0131989
768.420	0.0132336
768.499	0.0131448
768.577	0.0132683
768.655	0.0132552
768.733	0.0131743
768.811	0.0133862
768.889	0.0133317
768.967	0.0133650
769.045	0.0134512
769.124	0.0136410
769.202	0.0134486
769.280	0.0135117
769.358	0.0133913
769.436	0.0133851
769.514	0.0134693
769.592	0.0133453
769.670	0.0133929
769.749	0.0133527
769.827	0.0132867
769.905	0.0131610
769.983	0.0130810
770.061	0.0129609
770.139	0.0131368
770.217	0.0131730
770.295	0.0130337
770.374	0.0132487
770.452	0.0131787
770.530	0.0131816
770.608	0.0130733
770.686	0.0131371
770.764	0.0132883
770.842	0.0133090
770.920	0.0133408
770.999	0.0133347
771.077	0.0133571
771.155	0.0133649
771.233	0.0132505
771.311	0.0132965
771.389	0.0134090
771.467	0.0133054
771.545	0.0131956
771.624	0.0131541
771.702	0.0131780
771.780	0.0132439
771.858	0.0132745
771.936	0.0131560
772.014	0.0131721
772.092	0.0133153
772.170	0.0132306
772.249	0.0132251
772.327	0.0132392
772.405	0.0131429
772.483	0.0132602
772.561	0.0132085
772.639	0.0132532
772.717	0.0132768
772.795	0.0132586
772.874	0.0132655
772.952	0.0132867
773.030	0.0132283
773.108	0.0132134
773.186	0.0131225
773.264	0.0132345
773.342	0.0132047
773.420	0.0131764
773.499	0.0133418
773.577	0.0133517
773.655	0.0133353
773.733	0.0133672
773.811	0.0131744
773.889	0.0133418
773.967	0.0133313
774.045	0.0132905
774.124	0.0133640
774.202	0.0133465
774.280	0.0132670
774.358	0.0132238
774.436	0.0131547
774.514	0.0131194
774.592	0.0132416
774.670	0.0130637
774.749	0.0129874
774.827	0.0130345
774.905	0.0127001
774.983	0.0127859
775.061	0.0128574
775.139	0.0126970
775.217	0.0127459
775.295	0.0128379
775.374	0.0127933
775.452	0.0128046
775.530	0.0127061
775.608	0.0128616
775.686	0.0128471
775.764	0.0128819
775.842	0.0130344
775.920	0.0131097
775.999	0.0130504
776.077	0.0133349
776.155	0.0133742
776.233	0.0132414
776.311	0.0133333
776.389	0.0133959
776.467	0.0134841
776.545	0.0135278
776.624	0.0136270
776.702	0.0137064
776.780	0.0136046
776.858	0.0135075
776.936	0.0136146
777.014	0.0135322
777.092	0.0136825
777.170	0.0136031
777.249	0.0137738
777.327	0.0136226
777.405	0.0136333
777.483	0.0134467
777.561	0.0135449
777.639	0.0134704
777.717	0.0133092
777.795	0.0132584
777.874	0.0131992
777.952	0.0131322
778.030	0.0131773
778.108	0.0130273
778.186	0.0127428
778.264	0.0129009
778.342	0.0130592
778.420	0.0128374
778.499	0.0127548
778.577	0.0126832
778.655	0.0126801
778.733	0.0126847
778.811	0.0126100
778.889	0.0127745
778.967	0.0127603
779.045	0.0127545
779.124	0.0127693
779.202	0.0127618
779.280	0.0128279
779.358	0.0128564
779.436	0.0128678
779.514	0.0129127
779.592	0.0129195
779.670	0.0129780
779.749	0.0130989
779.827	0.0130603
779.905	0.0130212
779.983	0.0131623
780.061	0.0134866
780.139	0.0133435
780.217	0.0133562
780.295	0.0134767
780.374	0.0134921
780.452	0.0135366
780.530	0.0135567
780.608	0.0136973
780.686	0.0137553
780.764	0.0137176
780.842	0.0137375
780.920	0.0136495
780.999	0.0136248
781.077	0.0135663
781.155	0.0134504
781.233	0.0134235
781.311	0.0133793
781.389	0.0134965
781.467	0.0133637
781.545	0.0132685
781.624	0.0132338
781.702	0.0131758
781.780	0.0131254
781.858	0.0131326
781.936	0.0130642
782.014	0.0128632
782.092	0.0128969
782.170	0.0129430
782.249	0.0128925
782.327	0.0126942
782.405	0.0127334
782.483	0.0128461
782.561	0.0127244
782.639	0.0127285
782.717	0.0126553
782.795	0.0126846
782.874	0.0127668
782.952	0.0127329
783.030	0.0127113
783.108	0.0129113
783.186	0.0129898
783.264	0.0129124
783.342	0.0131042
783.420	0.0131149
783.499	0.0132310
783.577	0.0133408
783.655	0.0133788
783.733	0.0134698
783.811	0.0135400
783.889	0.0133939
783.967	0.0135383
784.045	0.0135715
784.124	0.0134551
784.202	0.0137400
784.280	0.0136894
784.358	0.0134771
784.436	0.0136978
784.514	0.0136477
784.592	0.0136845
784.670	0.0137008
784.749	0.0138122
784.827	0.0136556
784.905	0.0135933
784.983	0.0136606
785.061	0.0135406
785.139	0.0135197
785.217	0.0135388
785.295	0.0133134
785.374	0.0132967
785.452	0.0132639
785.530	0.0132449
785.608	0.0131305
785.686	0.0130795
785.764	0.0129578
785.842	0.0129069
785.920	0.0129368
785.999	0.0129360
786.077	0.0128355
786.155	0.0129010
786.233	0.0129340
786.311	0.0129270
786.389	0.0128989
786.467	0.0127827
786.545	0.0128880
786.624	0.0129665
786.702	0.0129124
786.780	0.0130460
786.858	0.0130495
786.936	0.0130147
787.014	0.0130939
787.092	0.0130248
787.170	0.0131981
787.249	0.0132014
787.327	0.0132792
787.405	0.0131805
787.483	0.0131851
787.561	0.0132592
787.639	0.0133655
787.717	0.0132973
787.795	0.0133145
787.874	0.0132747
787.952	0.0131441
788.030	0.0134122
788.108	0.0133911
788.186	0.0132231
788.264	0.0133188
788.342	0.0132304
788.420	0.0134296
788.499	0.0134153
788.577	0.0133438
788.655	0.0133987
788.733	0.0133774
788.811	0.0133771
788.889	0.0134114
788.967	0.0133288
789.045	0.0134910
789.124	0.0133630
789.202	0.0133171
789.280	0.0133294
789.358	0.0133202
789.436	0.0132237
789.514	0.0132303
789.592	0.0133221
789.670	0.0132790
789.749	0.0133511
789.827	0.0131561
789.905	0.0133038
789.983	0.0133406
790.061	0.0133958
790.139	0.0133517
790.217	0.0132672
790.295	0.0133147
790.374	0.0133569
790.452	0.0133174
790.530	0.0132468
790.608	0.0133987
790.686	0.0131683
790.764	0.0132371
790.842	0.0133045
790.920	0.0132686
790.999	0.0132988
791.077	0.0131565
791.155	0.0132230
791.233	0.0132565
791.311	0.0131438
791.389	0.0131777
791.467	0.0132664
791.545	0.0133115
791.624	0.0131839
791.702	0.0133235
791.780	0.0132229
791.858	0.0132566
791.936	0.0132633
792.014	0.0132520
792.092	0.0133037
792.170	0.0134357
792.249	0.0133025
792.327	0.0134013
792.405	0.0133159
792.483	0.0134769
792.561	0.0133730
792.639	0.0133704
792.717	0.0133294
792.795	0.0133196
792.874	0.0132554
792.952	0.0133045
793.030	0.0132876
793.108	0.0131856
793.186	0.0132162
793.264	0.0133363
793.342	0.0131494
793.420	0.0131252
793.499	0.0131445
793.577	0.0131042
793.655	0.0132929
793.733	0.0132397
793.811	0.0130460
793.889	0.0131342
793.967	0.0131264
794.045	0.0129419
794.124	0.0130094
794.202	0.0128027
794.280	0.0127916
794.358	0.0129536
794.436	0.0128453
794.514	0.0128851
794.592	0.0128225
794.670	0.0129791
794.749	0.0131319
794.827	0.0130088
794.905	0.0129282
794.983	0.0131769
795.061	0.0131585
795.139	0.0133097
795.217	0.0132785
795.295	0.0133144
795.374	0.0134057
795.452	0.0134425
795.530	0.0134542
795.608	0.0135172
795.686	0.0135583
795.764	0.0133957
795.842	0.0133734
795.920	0.0133559
795.999	0.0132257
796.077	0.0134782
796.155	0.0133813
796.233	0.0132019
796.311	0.0132904
796.389	0.0132182
796.467	0.0132878
796.545	0.0132993
796.624	0.0129971
796.702	0.0130753
796.780	0.0132259
796.858	0.0130924
796.936	0.0130933
797.014	0.0131626
797.092	0.0130270
797.170	0.0129808
797.249	0.0129770
797.327	0.0129842
797.405	0.0130287
797.483	0.0129551
797.561	0.0128149
797.639	0.0128320
797.717	0.0129343
797.795	0.0128848
797.874	0.0129790
797.952	0.0129884
798.030	0.0130787
798.108	0.0130198
798.186	0.0130917
798.264	0.0132076
798.342	0.0132364
798.420	0.0133611
798.499	0.0132697
798.577	0.0132497
798.655	0.0133288
798.733	0.0133362
798.811	0.0134058
798.889	0.0136099
798.967	0.0134195
799.045	0.0133871
799.124	0.0134496
799.202	0.0134718
799.280	0.0134177
799.358	0.0133427
799.436	0.0133811
799.514	0.0134100
799.592	0.0132300
799.670	0.0132590
799.749	0.0132160
799.827	0.0131352
799.905	0.0130059
799.983	0.0130688
800.061	0.0130392
800.139	0.0128160
800.217	0.0128232
800.295	0.0127729
800.374	0.0129710
800.452	0.0129866
800.530	0.0130170
800.608	0.0129706
800.686	0.0129350
800.764	0.0130980
800.842	0.0133041
800.920	0.0132030
800.999	0.0132481
801.077	0.0132359
801.155	0.0133029
801.233	0.0132936
801.311	0.0132607
801.389	0.0133440
801.467	0.0135503
801.545	0.0133303
801.624	0.0134214
801.702	0.0135226
801.780	0.0135130
801.858	0.0134661
801.936	0.0133705
802.014	0.0134219
802.092	0.0134742
802.170	0.0134042
802.249	0.0133784
802.327	0.0133043
802.405	0.0130872
802.483	0.0130488
802.561	0.0131042
802.639	0.0129567
802.717	0.0129536
802.795	0.0128927
802.874	0.0126743
802.952	0.0127875
803.030	0.0127248
803.108	0.0128184
803.186	0.0127620
803.264	0.0126951
803.342	0.0128035
803.420	0.0128502
803.499	0.0128165
803.577	0.0129272
803.655	0.0130124
803.733	0.0131741
803.811	0.0129586
803.889	0.0131197
803.967	0.0132288
804.045	0.0131773
804.124	0.0132334
804.202	0.0132294
804.280	0.0133112
804.358	0.0134368
804.436	0.0135197
804.514	0.0135506
804.592	0.0135168
804.670	0.0134811
804.749	0.0135317
804.827	0.0136352
804.905	0.0135561
804.983	0.0134242
805.061	0.0134902
805.139	0.0133775
805.217	0.0134228
805.295	0.0132978
805.374	0.0133164
805.452	0.0131871
805.530	0.0132163
805.608	0.0132648
805.686	0.0134063
805.764	0.0133308
805.842	0.0131780
805.920	0.0131224
805.999	0.0131985
806.077	0.0132452
806.155	0.0133273
806.233	0.0132439
806.311	0.0131557
806.389	0.0130560
806.467	0.0132159
806.545	0.0133177
806.624	0.0132455
806.702	0.0133389
806.780	0.0132745
806.858	0.0132600
806.936	0.0133067
807.014	0.0132506
807.092	0.0133325
807.170	0.0133817
807.249	0.0133852
807.327	0.0134397
807.405	0.0134026
807.483	0.0134288
807.561	0.0133561
807.639	0.0134495
807.717	0.0133913
807.795	0.0134487
807.874	0.0134167
807.952	0.0132738
808.030	0.0133624
808.108	0.0133083
808.186	0.0134067
808.264	0.0133220
808.342	0.0131149
808.420	0.0131174
808.499	0.0133129
808.577	0.0131136
808.655	0.0129400
808.733	0.0130151
808.811	0.0132404
808.889	0.0131644
808.967	0.0132382
809.045	0.0130546
809.124	0.0130931
809.202	0.0132569
809.280	0.0132833
809.358	0.0132468
809.436	0.0132201
809.514	0.0131759
809.592	0.0133374
809.670	0.0132761
809.749	0.0132031
809.827	0.0131934
809.905	0.0133997
809.983	0.0133243
810.061	0.0134355
810.139	0.0133195
810.217	0.0133646
810.295	0.0134393
810.374	0.0135604
810.452	0.0134862
810.530	0.0133992
810.608	0.0134147
810.686	0.0134863
810.764	0.0133644
810.842	0.0133549
810.920	0.0132683
810.999	0.0133661
811.077	0.0135270
811.155	0.0132343
811.233	0.0132496
811.311	0.0133379
811.389	0.0131780
811.467	0.0131183
811.545	0.0131048
811.624	0.0131104
811.702	0.0130969
811.780	0.0131541
811.858	0.0131134
811.936	0.0131059
812.014	0.0131169
812.092	0.0131502
812.170	0.0131007
812.249	0.0131395
812.327	0.0131313
812.405	0.0132063
812.483	0.0133060
812.561	0.0132742
812.639	0.0133556
812.717	0.0134696
812.795	0.0135358
812.874	0.0135609
812.952	0.0135979
813.030	0.0136716
813.108	0.0137689
813.186	0.0137007
813.264	0.0137155
813.342	0.0138602
813.420	0.0137058
813.499	0.0137601
813.577	0.0136250
813.655	0.0136068
813.733	0.0134880
813.811	0.0136308
813.889	0.0136423
813.967	0.0134785
814.045	0.0133202
814.124	0.0133618
814.202	0.0132508
814.280	0.0133397
814.358	0.0131796
814.436	0.0131882
814.514	0.0132502
814.592	0.0132156
814.670	0.0132304
814.749	0.0131440
814.827	0.0131794
814.905	0.0132675
814.983	0.0131400
815.061	0.0131984
815.139	0.0132691
815.217	0.0132035
815.295	0.0132153
815.374	0.0132877
815.452	0.0132121
815.530	0.0133287
815.608	0.0134376
815.686	0.0132738
815.764	0.0132448
815.842	0.0132830
815.920	0.0132730
815.999	0.0130996
816.077	0.0132571
816.155	0.0132456
816.233	0.0131836
816.311	0.0131408
816.389	0.0131400
816.467	0.0131218
816.545	0.0129967
816.624	0.0131093
816.702	0.0130527
816.780	0.0130695
816.858	0.0129956
816.936	0.0130032
817.014	0.0129687
817.092	0.0130485
817.170	0.0127511
817.249	0.0130789
817.327	0.0129684
817.405	0.0129762
817.483	0.0130357
817.561	0.0129889
817.639	0.0128546
817.717	0.0130470
817.795	0.0130444
817.874	0.0129556
817.952	0.0130142
818.030	0.0129276
818.108	0.0131768
818.186	0.0130711
818.264	0.0130022
818.342	0.0132275
818.420	0.0131463
818.499	0.0130397
818.577	0.0130780
818.655	0.0131765
818.733	0.0131953
818.811	0.0131822
818.889	0.0131838
818.967	0.0132538
819.045	0.0131115
819.124	0.0131374
819.202	0.0133833
819.280	0.0132196
819.358	0.0132348
819.436	0.0131200
819.514	0.0132276
819.592	0.0128980
819.670	0.0128872
819.749	0.0129459
819.827	0.0129914
819.905	0.0128942
819.983	0.0131330
820.061	0.0130252
820.139	0.0131120
820.217	0.0130721
820.295	0.0130325
820.374	0.0129983
820.452	0.0131460
820.530	0.0132201
820.608	0.0132304
820.686	0.0132111
820.764	0.0132355
820.842	0.0132831
820.920	0.0132791
820.999	0.0132966
821.077	0.0133522
821.155	0.0134518
821.233	0.0133113
821.311	0.0133546
821.389	0.0134623
821.467	0.0133850
821.545	0.0133900
821.624	0.0133320
821.702	0.0133578
821.780	0.0133183
821.858	0.0134749
821.936	0.0132963
822.014	0.0132307
822.092	0.0133868
822.170	0.0132652
822.249	0.0130840
822.327	0.0131416
822.405	0.0131466
822.483	0.0131100
822.561	0.0129891
822.639	0.0129844
822.717	0.0129366
822.795	0.0129041
822.874	0.0129745
822.952	0.0129030
823.030	0.0129498
823.108	0.0127876
823.186	0.0128104
823.264	0.0128159
823.342	0.0128840
823.420	0.0129066
823.499	0.0129400
823.577	0.0129436
823.655	0.0129885
823.733	0.0130210
823.811	0.0130622
823.889	0.0129708
823.967	0.0130572
824.045	0.0131436
824.124	0.0132320
824.202	0.0132112
824.280	0.0131294
824.358	0.0131689
824.436	0.0131425
824.514	0.0132159
824.592	0.0131589
824.670	0.0131900
824.749	0.0132420
824.827	0.0133367
824.905	0.0133121
824.983	0.0131592
825.061	0.0131770
825.139	0.0130391
825.217	0.0130421
825.295	0.0132198
825.374	0.0130956
825.452	0.0131951
825.530	0.0132505
825.608	0.0130734
825.686	0.0130591
825.764	0.0131314
825.842	0.0132191
825.920	0.0131106
825.999	0.0130438
826.077	0.0131454
826.155	0.0129848
826.233	0.0133003
826.311	0.0132169
826.389	0.0131907
826.467	0.0131666
826.545	0.0131787
826.624	0.0132494
826.702	0.0133884
826.780	0.0135373
826.858	0.0134122
826.936	0.0133921
827.014	0.0133266
827.092	0.0134676
827.170	0.0133944
827.249	0.0133887
827.327	0.0133498
827.405	0.0133237
827.483	0.0132895
827.561	0.0133210
827.639	0.0132260
827.717	0.0133164
827.795	0.0132487
827.874	0.0131827
827.952	0.0131027
828.030	0.0131342
828.108	0.0130013
828.186	0.0131476
828.264	0.0129614
828.342	0.0130956
828.420	0.0130708
828.499	0.0131523
828.577	0.0131834
828.655	0.0132535
828.733	0.0132378
828.811	0.0131754
828.889	0.0131936
828.967	0.0130907
829.045	0.0131663
829.124	0.0132059
829.202	0.0132336
829.280	0.0131513
829.358	0.0131919
829.436	0.0132195
829.514	0.0131909
829.592	0.0131900
829.670	0.0131438
829.749	0.0132900
829.827	0.0132056
829.905	0.0131204
829.983	0.0133984
830.061	0.0133437
830.139	0.0133152
830.217	0.0131931
830.295	0.0134293
830.374	0.0133604
830.452	0.0131881
830.530	0.0131745
830.608	0.0132957
830.686	0.0133370
830.764	0.0133271
830.842	0.0132789
830.920	0.0131944
830.999	0.0132069
831.077	0.0131915
831.155	0.0130879
831.233	0.0131898
831.311	0.0131501
831.389	0.0131559
831.467	0.0131017
831.545	0.0132708
831.624	0.0131532
831.702	0.0130880
831.780	0.0131559
831.858	0.0131932
831.936	0.0131715
832.014	0.0131017
832.092	0.0132259
832.170	0.0132853
832.249	0.0131869
832.327	0.0131007
832.405	0.0132829
832.483	0.0133976
832.561	0.0132617
832.639	0.0134392
832.717	0.0135124
832.795	0.0134317
832.874	0.0134237
832.952	0.0133410
833.030	0.0134126
833.108	0.0135135
833.186	0.0133864
833.264	0.0133538
833.342	0.0133077
833.420	0.0134032
833.499	0.0133150
833.577	0.0132783
833.655	0.0134058
833.733	0.0133435
833.811	0.0134220
833.889	0.0131773
833.967	0.0132390
834.045	0.0132378
834.124	0.0132565
834.202	0.0133351
834.280	0.0131975
834.358	0.0131178
834.436	0.0131716
834.514	0.0132523
834.592	0.0132524
834.670	0.0131604
834.749	0.0132441
834.827	0.0134232
834.905	0.0132508
834.983	0.0131824
835.061	0.0132626
835.139	0.0132951
835.217	0.0131171
835.295	0.0132381
835.374	0.0133153
835.452	0.0130372
835.530	0.0132764
835.608	0.0131434
835.686	0.0131403
835.764	0.0130626
835.842	0.0131946
835.920	0.0130276
835.999	0.0130927
836.077	0.0132155
836.155	0.0130805
836.233	0.0132029
836.311	0.0131774
836.389	0.0131333
836.467	0.0131767
836.545	0.0132809
836.624	0.0132306
836.702	0.0132809
836.780	0.0130270
836.858	0.0131991
836.936	0.0132235
837.014	0.0130845
837.092	0.0131133
837.170	0.0131877
837.249	0.0130473
837.327	0.0132670
837.405	0.0131905
837.483	0.0133466
837.561	0.0133298
837.639	0.0132825
837.717	0.0132926
837.795	0.0133418
837.874	0.0133366
837.952	0.0132378
838.030	0.0133636
838.108	0.0134454
838.186	0.0133588
838.264	0.0133460
838.342	0.0135085
838.420	0.0133321
838.499	0.0134514
838.577	0.0132719
838.655	0.0134015
838.733	0.0133614
838.811	0.0132617
838.889	0.0133411
838.967	0.0132994
839.045	0.0133749
839.124	0.0134694
839.202	0.0133527
839.280	0.0132861
839.358	0.0133215
839.436	0.0134393
839.514	0.0132873
839.592	0.0133090
839.670	0.0132504
839.749	0.0133338
839.827	0.0134068
839.905	0.0132401
839.983	0.0132648
840.061	0.0132369
840.139	0.0132777
840.217	0.0131676
840.295	0.0130751
840.374	0.0130526
840.452	0.0131215
840.530	0.0130667
840.608	0.0130229
840.686	0.0131523
840.764	0.0130500
840.842	0.0130190
840.920	0.0131434
840.999	0.0130444
841.077	0.0132375
841.155	0.0132931
841.233	0.0133007
841.311	0.0131821
841.389	0.0132349
841.467	0.0133220
841.545	0.0132577
841.624	0.0133217
841.702	0.0132374
841.780	0.0133578
841.858	0.0132607
841.936	0.0132637
842.014	0.0133153
842.092	0.0133783
842.170	0.0132352
842.249	0.0132574
842.327	0.0132534
842.405	0.0132542
842.483	0.0131405
842.561	0.0131181
842.639	0.0132263
842.717	0.0133515
842.795	0.0133622
842.874	0.0132111
842.952	0.0131774
843.030	0.0132403
843.108	0.0132512
843.186	0.0132423
843.264	0.0132114
843.342	0.0133023
843.420	0.0135007
843.499	0.0134441
843.577	0.0133119
843.655	0.0131933
843.733	0.0132380
843.811	0.0132463
843.889	0.0131762
843.967	0.0132247
844.045	0.0133066
844.124	0.0131939
844.202	0.0131729
844.280	0.0131519
844.358	0.0131702
844.436	0.0131025
844.514	0.0132153
844.592	0.0131274
844.670	0.0132074
844.749	0.0132843
844.827	0.0132457
844.905	0.0130735
844.983	0.0132473
845.061	0.0132109
845.139	0.0131557
845.217	0.0132375
845.295	0.0133295
845.374	0.0132434
845.452	0.0132552
845.530	0.0131786
845.608	0.0132790
845.686	0.0134633
845.764	0.0133061
845.842	0.0133728
845.920	0.0134904
845.999	0.0134637
846.077	0.0133712
846.155	0.0133903
846.233	0.0134757
846.311	0.0135046
846.389	0.0131922
846.467	0.0133070
846.545	0.0134756
846.624	0.0132527
846.702	0.0134068
846.780	0.0132230
846.858	0.0133126
846.936	0.0133530
847.014	0.0133302
847.092	0.0131635
847.170	0.0131561
847.249	0.0132754
847.327	0.0132442
847.405	0.0132417
847.483	0.0131890
847.561	0.0132347
847.639	0.0132677
847.717	0.0130596
847.795	0.0132090
847.874	0.0131695
847.952	0.0130125
848.030	0.0132415
848.108	0.0132092
848.186	0.0129465
848.264	0.0131308
848.342	0.0132285
848.420	0.0129942
848.499	0.0130459
848.577	0.0131398
848.655	0.0129873
848.733	0.0129623
848.811	0.0130894
848.889	0.0130418
848.967	0.0130311
849.045	0.0130138
849.124	0.0130193
849.202	0.0129079
849.280	0.0130010
849.358	0.0130036
849.436	0.0131349
849.514	0.0131293
849.592	0.0130658
849.670	0.0131800
849.749	0.0129376
849.827	0.0131584
849.905	0.0132247
849.983	0.0131190
850.061	0.0132710
850.139	0.0133432
850.217	0.0134933
850.295	0.0134018
850.374	0.0133805
850.452	0.0134656
850.530	0.0132415
850.608	0.0133678
850.686	0.0134413
850.764	0.0134460
850.842	0.0134721
850.920	0.0133109
850.999	0.0134367
851.077	0.0133638
851.155	0.0133064
851.233	0.0132911
851.311	0.0133992
851.389	0.0134547
851.467	0.0132567
851.545	0.0132265
851.624	0.0131465
851.702	0.0131806
851.780	0.0131193
851.858	0.0130363
851.936	0.0130356
852.014	0.0131344
852.092	0.0130733
852.170	0.0129080
852.249	0.0129873
852.327	0.0128551
852.405	0.0128284
852.483	0.0129459
852.561	0.0129338
852.639	0.0129652
852.717	0.0128830
852.795	0.0128316
852.874	0.0128802
852.952	0.0129754
853.030	0.0130304
853.108	0.0129181
853.186	0.0129387
853.264	0.0130775
853.342	0.0130939
853.420	0.0132475
853.499	0.0131875
853.577	0.0132687
853.655	0.0133175
853.733	0.0133144
853.811	0.0135029
853.889	0.0133959
853.967	0.0135423
854.045	0.0136019
854.124	0.0134942
854.202	0.0134422
854.280	0.0134185
854.358	0.0133841
854.436	0.0133335
854.514	0.0133376
854.592	0.0132008
854.670	0.0129688
854.749	0.0130960
854.827	0.0129677
854.905	0.0128461
854.983	0.0128564
855.061	0.0128416
855.139	0.0129121
855.217	0.0127847
855.295	0.0128768
855.374	0.0127607
855.452	0.0126340
855.530	0.0127072
855.608	0.0127084
855.686	0.0127899
855.764	0.0125575
855.842	0.0126701
855.920	0.0126796
855.999	0.0128439
856.077	0.0126945
856.155	0.0127741
856.233	0.0128802
856.311	0.0128551
856.389	0.0130807
856.467	0.0130703
856.545	0.0131047
856.624	0.0131884
856.702	0.0132307
856.780	0.0133853
856.858	0.0133424
856.936	0.0134229
857.014	0.0135326
857.092	0.0135052
857.170	0.0135078
857.249	0.0137200
857.327	0.0136801
857.405	0.0136387
857.483	0.0135907
857.561	0.0136520
857.639	0.0136220
857.717	0.0135915
857.795	0.0136240
857.874	0.0137469
857.952	0.0135992
858.030	0.0136973
858.108	0.0133549
858.186	0.0134785
858.264	0.0133969
858.342	0.0134045
858.420	0.0133464
858.499	0.0132841
858.577	0.0132620
858.655	0.0131978
858.733	0.0131734
858.811	0.0129964
858.889	0.0130943
858.967	0.0130119
859.045	0.0129515
859.124	0.0130434
859.202	0.0128970
859.280	0.0128515
859.358	0.0130272
859.436	0.0130389
859.514	0.0130779
859.592	0.0129434
859.670	0.0129189
859.749	0.0130367
859.827	0.0130949
859.905	0.0130592
859.983	0.0128595
860.061	0.0129344
860.139	0.0129865
860.217	0.0131498
860.295	0.0131030
860.374	0.0129120
860.452	0.0130961
860.530	0.0131752
860.608	0.0131438
860.686	0.0131457
860.764	0.0131635
860.842	0.0132937
860.920	0.0132801
860.999	0.0133099
861.077	0.0132620
861.155	0.0132993
861.233	0.0132718
861.311	0.0132773
861.389	0.0133513
861.467	0.0133924
861.545	0.0134532
861.624	0.0133028
861.702	0.0134036
861.780	0.0133839
861.858	0.0133118
861.936	0.0133870
862.014	0.0135200
862.092	0.0136182
862.170	0.0136143
862.249	0.0134053
862.327	0.0134966
862.405	0.0134305
862.483	0.0133619
862.561	0.0133659
862.639	0.0134716
862.717	0.0132932
862.795	0.0133541
862.874	0.0131922
862.952	0.0133035
863.030	0.0132940
863.108	0.0132866
863.186	0.0133047
863.264	0.0131509
863.342	0.0131586
863.420	0.0132538
863.499	0.0133264
863.577	0.0134258
863.655	0.0131680
863.733	0.0131328
863.811	0.0131758
863.889	0.0132061
863.967	0.0132255
864.045	0.0132325
864.124	0.0132171
864.202	0.0133954
864.280	0.0131866
864.358	0.0133116
864.436	0.0133593
864.514	0.0132869
864.592	0.0135315
864.670	0.0133410
864.749	0.0133868
864.827	0.0135141
864.905	0.0134705
864.983	0.0134325
865.061	0.0134402
865.139	0.0134393
865.217	0.0132227
865.295	0.0133522
865.374	0.0131287
865.452	0.0131179
865.530	0.0132322
865.608	0.0131264
865.686	0.0129822
865.764	0.0128446
865.842	0.0130588
865.920	0.0130038
865.999	0.0128179
866.077	0.0127910
866.155	0.0128076
866.233	0.0128909
866.311	0.0129169
866.389	0.0128617
866.467	0.0130235
866.545	0.0130997
866.624	0.0130543
866.702	0.0131806
866.780	0.0130912
866.858	0.0132845
866.936	0.0131419
867.014	0.0133170
867.092	0.0133933
867.170	0.0133883
867.249	0.0133935
867.327	0.0133628
867.405	0.0134286
867.483	0.0135242
867.561	0.0135359
867.639	0.0134245
867.717	0.0135345
867.795	0.0135497
867.874	0.0136294
867.952	0.0133808
868.030	0.0133385
868.108	0.0134833
868.186	0.0133599
868.264	0.0133598
868.342	0.0132420
868.420	0.0133979
868.499	0.0132964
868.577	0.0131667
868.655	0.0131099
868.733	0.0131132
868.811	0.0130680
868.889	0.0129737
868.967	0.0129082
869.045	0.0127817
869.124	0.0128057
869.202	0.0129086
869.280	0.0127917
869.358	0.0128218
869.436	0.0127511
869.514	0.0129326
869.592	0.0127335
869.670	0.0129852
869.749	0.0128995
869.827	0.0130743
869.905	0.0131377
869.983	0.0131489
870.061	0.0131624
870.139	0.0133343
870.217	0.0134588
870.295	0.0132639
870.374	0.0134068
870.452	0.0135374
870.530	0.0133244
870.608	0.0135107
870.686	0.0137309
870.764	0.0135966
870.842	0.0135410
870.920	0.0134450
870.999	0.0135911
871.077	0.0135949
871.155	0.0136656
871.233	0.0136821
871.311	0.0134586
871.389	0.0133567
871.467	0.0134655
871.545	0.0135033
871.624	0.0134780
871.702	0.0134413
871.780	0.0133443
871.858	0.0133030
871.936	0.0132722
872.014	0.0133874
872.092	0.0133135
872.170	0.0133195
872.249	0.0132342
872.327	0.0132312
872.405	0.0132970
872.483	0.0133424
872.561	0.0132809
872.639	0.0130610
872.717	0.0133038
872.795	0.0132584
872.874	0.0132233
872.952	0.0132186
873.030	0.0130927
873.108	0.0129639
873.186	0.0129903
873.264	0.0130974
873.342	0.0128541
873.420	0.0128849
873.499	0.0129641
873.577	0.0129948
873.655	0.0127621
873.733	0.0127933
873.811	0.0129464
873.889	0.0128943
873.967	0.0127267
874.045	0.0127069
874.124	0.0128550
874.202	0.0127637
874.280	0.0128104
874.358	0.0129088
874.436	0.0128364
874.514	0.0130978
874.592	0.0131374
874.670	0.0131374
874.749	0.0131553
874.827	0.0133012
874.905	0.0133684
874.983	0.0132842
875.061	0.0134438
875.139	0.0135926
875.217	0.0137101
875.295	0.0135715
875.374	0.0135567
875.452	0.0136532
875.530	0.0136728
875.608	0.0136309
875.686	0.0136461
875.764	0.0135506
875.842	0.0135007
875.920	0.0134880
875.999	0.0133702
876.077	0.0134561
876.155	0.0134089
876.233	0.0132972
876.311	0.0130699
876.389	0.0129855
876.467	0.0130407
876.545	0.0130630
876.624	0.0127493
876.702	0.0127290
876.780	0.0128428
876.858	0.0126747
876.936	0.0126777
877.014	0.0127441
877.092	0.0127260
877.170	0.0126617
877.249	0.0126447
877.327	0.0127479
877.405	0.0128232
877.483	0.0129026
877.561	0.0129211
877.639	0.0129155
877.717	0.0129300
877.795	0.0132308
877.874	0.0132870
877.952	0.0132169
878.030	0.0132555
878.108	0.0132865
878.186	0.0134079
878.264	0.0133261
878.342	0.0133293
878.420	0.0133253
878.499	0.0134258
878.577	0.0134975
878.655	0.0133669
878.733	0.0133694
878.811	0.0132687
878.889	0.0132792
878.967	0.0132243
879.045	0.0131759
879.124	0.0131903
879.202	0.0133414
879.280	0.0132174
879.358	0.0131844
879.436	0.0132620
879.514	0.0131741
879.592	0.0130343
879.670	0.0131187
879.749	0.0132025
879.827	0.0131294
879.905	0.0129230
879.983	0.0129838
880.061	0.0129243
880.139	0.0128812
880.217	0.0130376
880.295	0.0129982
880.374	0.0129024
880.452	0.0129004
880.530	0.0127857
880.608	0.0129037
880.686	0.0130853
880.764	0.0130092
880.842	0.0129464
880.920	0.0128881
880.999	0.0130286
881.077	0.0129396
881.155	0.0130452
881.233	0.0129742
881.311	0.0128670
881.389	0.0131041
881.467	0.0130630
881.545	0.0130006
881.624	0.0131319
881.702	0.0130299
881.780	0.0131086
881.858	0.0131691
881.936	0.0132801
882.014	0.0132416
882.092	0.0131199
882.170	0.0131818
882.249	0.0131598
882.327	0.0130242
882.405	0.0129874
882.483	0.0129400
882.561	0.0130870
882.639	0.0131357
882.717	0.0130479
882.795	0.0132227
882.874	0.0131292
882.952	0.0131233
883.030	0.0132135
883.108	0.0131558
883.186	0.0132763
883.264	0.0131512
883.342	0.0130672
883.420	0.0133811
883.499	0.0133263
883.577	0.0133208
883.655	0.0131974
883.733	0.0132009
883.811	0.0133826
883.889	0.0133090
883.967	0.0133708
884.045	0.0132737
884.124	0.0131978
884.202	0.0132698
884.280	0.0132640
884.358	0.0130627
884.436	0.0132396
884.514	0.0133241
884.592	0.0131245
884.670	0.0132061
884.749	0.0133119
884.827	0.0131275
884.905	0.0132327
884.983	0.0131940
885.061	0.0131394
885.139	0.0132996
885.217	0.0133362
885.295	0.0132318
885.374	0.0131321
885.452	0.0132192
885.530	0.0134008
885.608	0.0131829
885.686	0.0131618
885.764	0.0132816
885.842	0.0132076
885.920	0.0133079
885.999	0.0134195
886.077	0.0134016
886.155	0.0132996
886.233	0.0133935
886.311	0.0132494
886.389	0.0132101
886.467	0.0131699
886.545	0.0131259
886.624	0.0131650
886.702	0.0131890
886.780	0.0130701
886.858	0.0131181
886.936	0.0132307
887.014	0.0130154
887.092	0.0130049
887.170	0.0130941
887.249	0.0132330
887.327	0.0130320
887.405	0.0129699
887.483	0.0130638
887.561	0.0130965
887.639	0.0131531
887.717	0.0130853
887.795	0.0129671
887.874	0.0129905
887.952	0.0129845
888.030	0.0130330
888.108	0.0131649
888.186	0.0131428
888.264	0.0130864
888.342	0.0132415
888.420	0.0132000
888.499	0.0132314
888.577	0.0133080
888.655	0.0133760
888.733	0.0132725
888.811	0.0133410
888.889	0.0133955
888.967	0.0134621
889.045	0.0133788
889.124	0.0135405
889.202	0.0135723
889.280	0.0135730
889.358	0.0134716
889.436	0.0135056
889.514	0.0135845
889.592	0.0134451
889.670	0.0134949
889.749	0.0135735
889.827	0.0134692
889.905	0.0134222
889.983	0.0134597
890.061	0.0135207
890.139	0.0135117
890.217	0.0134589
890.295	0.0133891
890.374	0.0135232
890.452	0.0136323
890.530	0.0136433
890.608	0.0134909
890.686	0.0133343
890.764	0.0135255
890.842	0.0132617
890.920	0.0133441
890.999	0.0133526
891.077	0.0131593
891.155	0.0133554
891.233	0.0132999
891.311	0.0132487
891.389	0.0131317
891.467	0.0132311
891.545	0.0131153
891.624	0.0130702
891.702	0.0130994
891.780	0.0130437
891.858	0.0130577
891.936	0.0129714
892.014	0.0131498
892.092	0.0130757
892.170	0.0130994
892.249	0.0131960
892.327	0.0130933
892.405	0.0131037
892.483	0.0131037
892.561	0.0131686
892.639	0.0132379
892.717	0.0131471
892.795	0.0132365
892.874	0.0131152
892.952	0.0131236
893.030	0.0131260
893.108	0.0131596
893.186	0.0131083
893.264	0.0132397
893.342	0.0132545
893.420	0.0132534
893.499	0.0132753
893.577	0.0133214
893.655	0.0132539
893.733	0.0134934
893.811	0.0135031
893.889	0.0133779
893.967	0.0134235
894.045	0.0134991
894.124	0.0135215
894.202	0.0135094
894.280	0.0135194
894.358	0.0133752
894.436	0.0133502
894.514	0.0134420
894.592	0.0132281
894.670	0.0131552
894.749	0.0132938
894.827	0.0132395
894.905	0.0133686
894.983	0.0133701
895.061	0.0129933
895.139	0.0129510
895.217	0.0131142
895.295	0.0130854
895.374	0.0130169
895.452	0.0132086
895.530	0.0131265
895.608	0.0131409
895.686	0.0129713
895.764	0.0130614
895.842	0.0131519
895.920	0.0130616
895.999	0.0130781
896.077	0.0131776
896.155	0.0131606
896.233	0.0130872
896.311	0.0130973
896.389	0.0131748
896.467	0.0132212
896.545	0.0130413
896.624	0.0131513
896.702	0.0132636
896.780	0.0131093
896.858	0.0131270
896.936	0.0131946
897.014	0.0131843
897.092	0.0130127
897.170	0.0132368
897.249	0.0131680
897.327	0.0130326
897.405	0.0132826
897.483	0.0131558
897.561	0.0132715
897.639	0.0132488
897.717	0.0132357
897.795	0.0131883
897.874	0.0131145
897.952	0.0131193
898.030	0.0132188
898.108	0.0132488
898.186	0.0131237
898.264	0.0131536
898.342	0.0130487
898.420	0.0131004
898.499	0.0131010
898.577	0.0130171
898.655	0.0130073
898.733	0.0131093
898.811	0.0132569
898.889	0.0131329
898.967	0.0131273
899.045	0.0132793
899.124	0.0131923
899.202	0.0132951
899.280	0.0131734
899.358	0.0133080
899.436	0.0132600
899.514	0.0132015
899.592	0.0133799
899.670	0.0133901
899.749	0.0134018
899.827	0.0132446
899.905	0.0133287
899.983	0.0133279
900.061	0.0134409
900.139	0.0133994
900.217	0.0133003
900.295	0.0132659
900.374	0.0132463
900.452	0.0132272
900.530	0.0133640
900.608	0.0132382
900.686	0.0133520
900.764	0.0131638
900.842	0.0132108
900.920	0.0132455
900.999	0.0131743
901.077	0.0130927
901.155	0.0132281
901.233	0.0132095
901.311	0.0130859
901.389	0.0132093
901.467	0.0131332
901.545	0.0128909
901.624	0.0130331
901.702	0.0130856
901.780	0.0132109
901.858	0.0132359
901.936	0.0131002
902.014	0.0131965
902.092	0.0131975
902.170	0.0131654
902.249	0.0130463
902.327	0.0131825
902.405	0.0132969
902.483	0.0131070
902.561	0.0130004
902.639	0.0131681
902.717	0.0131644
902.795	0.0131563
902.874	0.0131725
902.952	0.0130232
903.030	0.0129993
903.108	0.0132204
903.186	0.0130986
903.264	0.0131328
903.342	0.0131705
903.420	0.0130298
903.499	0.0131644
903.577	0.0131185
903.655	0.0130815
903.733	0.0129823
903.811	0.0131841
903.889	0.0130065
903.967	0.0130358
904.045	0.0130811
904.124	0.0130379
904.202	0.0131709
904.280	0.0130650
904.358	0.0132063
904.436	0.0132321
904.514	0.0131688
904.592	0.0131909
904.670	0.0131796
904.749	0.0132606
904.827	0.0133516
904.905	0.0133675
904.983	0.0133990
905.061	0.0133299
905.139	0.0133576
905.217	0.0134367
905.295	0.0134663
905.374	0.0135873
905.452	0.0136513
905.530	0.0135493
905.608	0.0134373
905.686	0.0134426
905.764	0.0136528
905.842	0.0136295
905.920	0.0136147
905.999	0.0134048
906.077	0.0132938
906.155	0.0132874
906.233	0.0133259
906.311	0.0133389
906.389	0.0132427
906.467	0.0132719
906.545	0.0132271
906.624	0.0130991
906.702	0.0130494
906.780	0.0130476
906.858	0.0131873
906.936	0.0130798
907.014	0.0131159
907.092	0.0130060
907.170	0.0131176
907.249	0.0128966
907.327	0.0130507
907.405	0.0130467
907.483	0.0130085
907.561	0.0129382
907.639	0.0130865
907.717	0.0131286
907.795	0.0130291
907.874	0.0129800
907.952	0.0130099
908.030	0.0130851
908.108	0.0131463
908.186	0.0130307
908.264	0.0129951
908.342	0.0129973
908.420	0.0131012
908.499	0.0132472
908.577	0.0130941
908.655	0.0131688
908.733	0.0132024
908.811	0.0132280
908.889	0.0131347
908.967	0.0131443
909.045	0.0131125
909.124	0.0131734
909.202	0.0131194
909.280	0.0132552
909.358	0.0132153
909.436	0.0132536
909.514	0.0131744
909.592	0.0134075
909.670	0.0131716
909.749	0.0132565
909.827	0.0135667
909.905	0.0133829
909.983	0.0132874
910.061	0.0133586
910.139	0.0134799
910.217	0.0134922
910.295	0.0134662
910.374	0.0134894
910.452	0.0135908
910.530	0.0134637
910.608	0.0133499
910.686	0.0135144
910.764	0.0132728
910.842	0.0134145
910.920	0.0134492
910.999	0.0133271
911.077	0.0133050
911.155	0.0131584
911.233	0.0132366
911.311	0.0133253
911.389	0.0133347
911.467	0.0131830
911.545	0.0131567
911.624	0.0132645
911.702	0.0131184
911.780	0.0131505
911.858	0.0129604
911.936	0.0130522
912.014	0.0131181
912.092	0.0131568
912.170	0.0129945
912.249	0.0130131
912.327	0.0129821
912.405	0.0130442
912.483	0.0131307
912.561	0.0131769
912.639	0.0130824
912.717	0.0132318
912.795	0.0133908
912.874	0.0131877
912.952	0.0132017
913.030	0.0132819
913.108	0.0133238
913.186	0.0131955
913.264	0.0132818
913.342	0.0134328
913.420	0.0134223
913.499	0.0133359
913.577	0.0132464
913.655	0.0131683
913.733	0.0131850
913.811	0.0133402
913.889	0.0132694
913.967	0.0131577
914.045	0.0133433
914.124	0.0133060
914.202	0.0130971
914.280	0.0132853
914.358	0.0133730
914.436	0.0133057
914.514	0.0133642
914.592	0.0131847
914.670	0.0132671
914.749	0.0131556
914.827	0.0132869
914.905	0.0133401
914.983	0.0132941
915.061	0.0133736
915.139	0.0131612
915.217	0.0130727
915.295	0.0132510
915.374	0.0132031
915.452	0.0133263
915.530	0.0132048
915.608	0.0131829
915.686	0.0132488
915.764	0.0131694
915.842	0.0132940
915.920	0.0132042
915.999	0.0132011
916.077	0.0131096
916.155	0.0131694
916.233	0.0131474
916.311	0.0131087
916.389	0.0131056
916.467	0.0131168
916.545	0.0130298
916.624	0.0131747
916.702	0.0131547
916.780	0.0131020
916.858	0.0131431
916.936	0.0130942
917.014	0.0132091
917.092	0.0132165
917.170	0.0132521
917.249	0.0131783
917.327	0.0131202
917.405	0.0132457
917.483	0.0134271
917.561	0.0134563
917.639	0.0133184
917.717	0.0133106
917.795	0.0132960
917.874	0.0133485
917.952	0.0134392
918.030	0.0133433
918.108	0.0133755
918.186	0.0134166
918.264	0.0134336
918.342	0.0134058
918.420	0.0133356
918.499	0.0133801
918.577	0.0133187
918.655	0.0132853
918.733	0.0132117
918.811	0.0131778
918.889	0.0131322
918.967	0.0131584
919.045	0.0131567
919.124	0.0131437
919.202	0.0131226
919.280	0.0130583
919.358	0.0131386
919.436	0.0131511
919.514	0.0132129
919.592	0.0132501
919.670	0.0133110
919.749	0.0129845
919.827	0.0131156
919.905	0.0132019
919.983	0.0130262
920.061	0.0130647
920.139	0.0131284
920.217	0.0131806
920.295	0.0131381
920.374	0.0130811
920.452	0.0131162
920.530	0.0132380
920.608	0.0132388
920.686	0.0131232
920.764	0.0131866
920.842	0.0132346
920.920	0.0133194
920.999	0.0132812
921.077	0.0133926
921.155	0.0133026
921.233	0.0133577
921.311	0.0132008
921.389	0.0134509
921.467	0.0134033
921.545	0.0133891
921.624	0.0132684
921.702	0.0132961
921.780	0.0134212
921.858	0.0131950
921.936	0.0132688
922.014	0.0133243
922.092	0.0133901
922.170	0.0133276
922.249	0.0132314
922.327	0.0133053
922.405	0.0133533
922.483	0.0132993
922.561	0.0133590
922.639	0.0132993
922.717	0.0131888
922.795	0.0133276
922.874	0.0133569
922.952	0.0133042
923.030	0.0133497
923.108	0.0132719
923.186	0.0132510
923.264	0.0131284
923.342	0.0132784
923.420	0.0131318
923.499	0.0130922
923.577	0.0132462
923.655	0.0132198
923.733	0.0132537
923.811	0.0131534
923.889	0.0131662
923.967	0.0131119
924.045	0.0130857
924.124	0.0132925
924.202	0.0131761
924.280	0.0130898
924.358	0.0130652
924.436	0.0131297
924.514	0.0130141
924.592	0.0131075
924.670	0.0130820
924.749	0.0130463
924.827	0.0129089
924.905	0.0130761
924.983	0.0131609
925.061	0.0131615
925.139	0.0130141
925.217	0.0130782
925.295	0.0132473
925.374	0.0132224
925.452	0.0132343
925.530	0.0132594
925.608	0.0133229
925.686	0.0133908
925.764	0.0132605
925.842	0.0133500
925.920	0.0135557
925.999	0.0134356
926.077	0.0133250
926.155	0.0134665
926.233	0.0134019
926.311	0.0133569
926.389	0.0134329
926.467	0.0134625
926.545	0.0133581
926.624	0.0134425
926.702	0.0133891
926.780	0.0134718
926.858	0.0134324
926.936	0.0133321
927.014	0.0133679
927.092	0.0131712
927.170	0.0133769
927.249	0.0133158
927.327	0.0132889
927.405	0.0133664
927.483	0.0133217
927.561	0.0131951
927.639	0.0131490
927.717	0.0133346
927.795	0.0132197
927.874	0.0133784
927.952	0.0133776
928.030	0.0132061
928.108	0.0132752
928.186	0.0133028
928.264	0.0132793
928.342	0.0132821
928.420	0.0132171
928.499	0.0132794
928.577	0.0133656
928.655	0.0133443
928.733	0.0131628
928.811	0.0131739
928.889	0.0131184
928.967	0.0132379
929.045	0.0131597
929.124	0.0131795
929.202	0.0132864
929.280	0.0132211
929.358	0.0132514
929.436	0.0132798
929.514	0.0133349
929.592	0.0130967
929.670	0.0132452
929.749	0.0131403
929.827	0.0130881
929.905	0.0130596
929.983	0.0131253
930.061	0.0131294
930.139	0.0131253
930.217	0.0130692
930.295	0.0132216
930.374	0.0131425
930.452	0.0132259
930.530	0.0131956
930.608	0.0130685
930.686	0.0132326
930.764	0.0131934
930.842	0.0132044
930.920	0.0132731
930.999	0.0133407
931.077	0.0132745
931.155	0.0133353
931.233	0.0134572
931.311	0.0132574
931.389	0.0132609
931.467	0.0133093
931.545	0.0134328
931.624	0.0133497
931.702	0.0134026
931.780	0.0134231
931.858	0.0133240
931.936	0.0133971
932.014	0.0132794
932.092	0.0134583
932.170	0.0133995
932.249	0.0132680
932.327	0.0132062
932.405	0.0133335
932.483	0.0132478
932.561	0.0132344
932.639	0.0133387
932.717	0.0133810
932.795	0.0132389
932.874	0.0131732
932.952	0.0131773
933.030	0.0132394
933.108	0.0131760
933.186	0.0131926
933.264	0.0132161
933.342	0.0131289
933.420	0.0132918
933.499	0.0130074
933.577	0.0130351
933.655	0.0132554
933.733	0.0131181
933.811	0.0130950
933.889	0.0131375
933.967	0.0131948
934.045	0.0131786
934.124	0.0131322
934.202	0.0132870
934.280	0.0131937
934.358	0.0130917
934.436	0.0130467
934.514	0.0132142
934.592	0.0132863
934.670	0.0131850
934.749	0.0132359
934.827	0.0132076
934.905	0.0132635
934.983	0.0131120
935.061	0.0131192
935.139	0.0132088
935.217	0.0131931
935.295	0.0132470
935.374	0.0131465
935.452	0.0131208
935.530	0.0131621
935.608	0.0131437
935.686	0.0132430
935.764	0.0132569
935.842	0.0132626
935.920	0.0132459
935.999	0.0131406
936.077	0.0132168
936.155	0.0132402
936.233	0.0132324
936.311	0.0132199
936.389	0.0133421
936.467	0.0133205
936.545	0.0133328
936.624	0.0133500
936.702	0.0133013
936.780	0.0134113
936.858	0.0131708
936.936	0.0133080
937.014	0.0133589
937.092	0.0132867
937.170	0.0133251
937.249	0.0132198
937.327	0.0133305
937.405	0.0132945
937.483	0.0132997
937.561	0.0132601
937.639	0.0132828
937.717	0.0134207
937.795	0.0132784
937.874	0.0131968
937.952	0.0132384
938.030	0.0133577
938.108	0.0131476
938.186	0.0131323
938.264	0.0132511
938.342	0.0131712
938.420	0.0131800
938.499	0.0130514
938.577	0.0131056
938.655	0.0133025
938.733	0.0131231
938.811	0.0130632
938.889	0.0130733
938.967	0.0131627
939.045	0.0130805
939.124	0.0130831
939.202	0.0131271
939.280	0.0131413
939.358	0.0130511
939.436	0.0131480
939.514	0.0130180
939.592	0.0130621
939.670	0.0131174
939.749	0.0131666
939.827	0.0130774
939.905	0.0128769
939.983	0.0130682
940.061	0.0130382
940.139	0.0130865
940.217	0.0131873
940.295	0.0131094
940.374	0.0132121
940.452	0.0130544
940.530	0.0131805
940.608	0.0130710
940.686	0.0130650
940.764	0.0131628
940.842	0.0131433
940.920	0.0133152
940.999	0.0133447
941.077	0.0131981
941.155	0.0132090
941.233	0.0131340
941.311	0.0131170
941.389	0.0132246
941.467	0.0132942
941.545	0.0132919
941.624	0.0133510
941.702	0.0132413
941.780	0.0132220
941.858	0.0132472
941.936	0.0133044
942.014	0.0132185
942.092	0.0132761
942.170	0.0132034
942.249	0.0132106
942.327	0.0131204
942.405	0.0133279
942.483	0.0132953
942.561	0.0131895
942.639	0.0132840
942.717	0.0132260
942.795	0.0130325
942.874	0.0131638
942.952	0.0132497
943.030	0.0132248
943.108	0.0130894
943.186	0.0131818
943.264	0.0131953
943.342	0.0130930
943.420	0.0132709
943.499	0.0133592
943.577	0.0132220
943.655	0.0131114
943.733	0.0131783
943.811	0.0132601
943.889	0.0132261
943.967	0.0132548
944.045	0.0131798
944.124	0.0132314
944.202	0.0131763
944.280	0.0131035
944.358	0.0132290
944.436	0.0132246
944.514	0.0132339
944.592	0.0131419
944.670	0.0131166
944.749	0.0132129
944.827	0.0132069
944.905	0.0131275
944.983	0.0131726
945.061	0.0133943
945.139	0.0135233
945.217	0.0134422
945.295	0.0132727
945.374	0.0132393
945.452	0.0132449
945.530	0.0132151
945.608	0.0133411
945.686	0.0132819
945.764	0.0133206
945.842	0.0132584
945.920	0.0132793
945.999	0.0132301
946.077	0.0133068
946.155	0.0133780
946.233	0.0134551
946.311	0.0133363
946.389	0.0132848
946.467	0.0133971
946.545	0.0133562
946.624	0.0132497
946.702	0.0134384
946.780	0.0133785
946.858	0.0133270
946.936	0.0134189
947.014	0.0133821
947.092	0.0133401
947.170	0.0132667
947.249	0.0133125
947.327	0.0131810
947.405	0.0131727
947.483	0.0132422
947.561	0.0133203
947.639	0.0132005
947.717	0.0132605
947.795	0.0131539
947.874	0.0131141
947.952	0.0132192
948.030	0.0131842
948.108	0.0131445
948.186	0.0129478
948.264	0.0131129
948.342	0.0131095
948.420	0.0130598
948.499	0.0131084
948.577	0.0131789
948.655	0.0131663
948.733	0.0131123
948.811	0.0130748
948.889	0.0130299
948.967	0.0130523
949.045	0.0130469
949.124	0.0131675
949.202	0.0130388
949.280	0.0130545
949.358	0.0131161
949.436	0.0130442
949.514	0.0130054
949.592	0.0129327
949.670	0.0131392
949.749	0.0132146
949.827	0.0131998
949.905	0.0132803
949.983	0.0132877
950.061	0.0132838
950.139	0.0133708
950.217	0.0133759
950.295	0.0133179
950.374	0.0133808
950.452	0.0133580
950.530	0.0133804
950.608	0.0132988
950.686	0.0131690
950.764	0.0134916
950.842	0.0133899
950.920	0.0132581
950.999	0.0132990
951.077	0.0133466
951.155	0.0134773
951.233	0.0134554
951.311	0.0133824
951.389	0.0131846
951.467	0.0134022
951.545	0.0134109
951.624	0.0132937
951.702	0.0133458
951.780	0.0133095
951.858	0.0132912
951.936	0.0132872
952.014	0.0131087
952.092	0.0131046
952.170	0.0131042
952.249	0.0131687
952.327	0.0130187
952.405	0.0131828
952.483	0.0130872
952.561	0.0131052
952.639	0.0130566
952.717	0.0129785
952.795	0.0129021
952.874	0.0130880
952.952	0.0130472
953.030	0.0128786
953.108	0.0129572
953.186	0.0131187
953.264	0.0130109
953.342	0.0130743
953.420	0.0131248
953.499	0.0131445
953.577	0.0131853
953.655	0.0130772
953.733	0.0131778
953.811	0.0131487
953.889	0.0132956
953.967	0.0131988
954.045	0.0134055
954.124	0.0132291
954.202	0.0132807
954.280	0.0133530
954.358	0.0134325
954.436	0.0133115
954.514	0.0134049
954.592	0.0133770
954.670	0.0134489
954.749	0.0133319
954.827	0.0133520
954.905	0.0133482
954.983	0.0133327
955.061	0.0132667
955.139	0.0133016
955.217	0.0133279
955.295	0.0133211
955.374	0.0132421
955.452	0.0132393
955.530	0.0131080
955.608	0.0131660
955.686	0.0131769
955.764	0.0131548
955.842	0.0132097
955.920	0.0130876
955.999	0.0131545
956.077	0.0130572
956.155	0.0131552
956.233	0.0131307
956.311	0.0129587
956.389	0.0129919
956.467	0.0132331
956.545	0.0131512
956.624	0.0131085
956.702	0.0132356
956.780	0.0131806
956.858	0.0131265
956.936	0.0132195
957.014	0.0131927
957.092	0.0132975
957.170	0.0131406
957.249	0.0131598
957.327	0.0133252
957.405	0.0133238
957.483	0.0133018
957.561	0.0133913
957.639	0.0133819
957.717	0.0133382
957.795	0.0133652
957.874	0.0133551
957.952	0.0133553
958.030	0.0133549
958.108	0.0132481
958.186	0.0133251
958.264	0.0134023
958.342	0.0133586
958.420	0.0131925
958.499	0.0133707
958.577	0.0132694
958.655	0.0132435
958.733	0.0133827
958.811	0.0133131
958.889	0.0133244
958.967	0.0131590
959.045	0.0130376
959.124	0.0131331
959.202	0.0132207
959.280	0.0131866
959.358	0.0130330
959.436	0.0130846
959.514	0.0130885
959.592	0.0131606
959.670	0.0132211
959.749	0.0129792
959.827	0.0130253
959.905	0.0131001
959.983	0.0130634
960.061	0.0131767
960.139	0.0130404
960.217	0.0130495
960.295	0.0131158
960.374	0.0131386
960.452	0.0131249
960.530	0.0131675
960.608	0.0131447
960.686	0.0131239
960.764	0.0131756
960.842	0.0130290
960.920	0.0130970
960.999	0.0131818
961.077	0.0131049
961.155	0.0131831
961.233	0.0131156
961.311	0.0130400
961.389	0.0131791
961.467	0.0131742
961.545	0.0131084
961.624	0.0130354
961.702	0.0130407
961.780	0.0130990
961.858	0.0130829
961.936	0.0131209
962.014	0.0130737
962.092	0.0131770
962.170	0.0131967
962.249	0.0129966
962.327	0.0131591
962.405	0.0132536
962.483	0.0131858
962.561	0.0132702
962.639	0.0132346
962.717	0.0132610
962.795	0.0133265
962.874	0.0133617
962.952	0.0134138
963.030	0.0132187
963.108	0.0134313
963.186	0.0134675
963.264	0.0134299
963.342	0.0134338
963.420	0.0133993
963.499	0.0132815
963.577	0.0133556
963.655	0.0134905
963.733	0.0134674
963.811	0.0134080
963.889	0.0133958
963.967	0.0135001
964.045	0.0135972
964.124	0.0134906
964.202	0.0134626
964.280	0.0135234
964.358	0.0134672
964.436	0.0134753
964.514	0.0134048
964.592	0.0135435
964.670	0.0134463
964.749	0.0133109
964.827	0.0133026
964.905	0.0134355
964.983	0.0133257
965.061	0.0131207
965.139	0.0132207
965.217	0.0132693
965.295	0.0132954
965.374	0.0129598
965.452	0.0129855
965.530	0.0130138
965.608	0.0129717
965.686	0.0129926
965.764	0.0131466
965.842	0.0130664
965.920	0.0129564
965.999	0.0129474
966.077	0.0129443
966.155	0.0128706
966.233	0.0130696
966.311	0.0130189
966.389	0.0128887
966.467	0.0131302
966.545	0.0131297
966.624	0.0131041
966.702	0.0130486
966.780	0.0130376
966.858	0.0130753
966.936	0.0132034
967.014	0.0132211
967.092	0.0131119
967.170	0.0132133
967.249	0.0131734
967.327	0.0133556
967.405	0.0133763
967.483	0.0132462
967.561	0.0134438
967.639	0.0133456
967.717	0.0133357
967.795	0.0133986
967.874	0.0132598
967.952	0.0133916
968.030	0.0135066
968.108	0.0133676
968.186	0.0134507
968.264	0.0134751
968.342	0.0135531
968.420	0.0133669
968.499	0.0133487
968.577	0.0134000
968.655	0.0132963
968.733	0.0133096
968.811	0.0133492
968.889	0.0133710
968.967	0.0133287
969.045	0.0133509
969.124	0.0133717
969.202	0.0132703
969.280	0.0131626
969.358	0.0130756
969.436	0.0129871
969.514	0.0130865
969.592	0.0131726
969.670	0.0132178
969.749	0.0131309
969.827	0.0130935
969.905	0.0131579
