06/13/2022	14:26:57	Ver.	4.1	UNKNOWN
Optical Delay	599.968395	Delta X		0.078125	Sweeps	1	Scan Rate	0/0
Coordinates	Axis 1	NaN	Axis 2	NaN	Axis 3	NaN	Axis 4	NaN	Axis 5	NaN	Axis 6	0.000000
TX Power	0.000000	RX Power	0.000000

599.968	0.0156947
600.047	0.0155947
600.125	0.0158342
600.203	0.0157070
600.281	0.0156625
600.359	0.0157597
600.437	0.0157772
600.515	0.0156194
600.593	0.0156641
600.672	0.0157818
600.750	0.0157272
600.828	0.0155761
600.906	0.0155573
600.984	0.0157551
601.062	0.0157419
601.140	0.0155803
601.218	0.0156048
601.297	0.0156216
601.375	0.0156275
601.453	0.0157422
601.531	0.0157583
601.609	0.0157373
601.687	0.0157496
601.765	0.0156257
601.843	0.0156425
601.922	0.0156606
602.000	0.0157522
602.078	0.0157292
602.156	0.0155612
602.234	0.0156728
602.312	0.0157756
602.390	0.0156222
602.468	0.0156362
602.547	0.0155656
602.625	0.0157291
602.703	0.0158080
602.781	0.0156554
602.859	0.0157537
602.937	0.0157137
603.015	0.0155355
603.093	0.0156860
603.172	0.0158085
603.250	0.0157715
603.328	0.0156200
603.406	0.0155793
603.484	0.0156536
603.562	0.0157919
603.640	0.0157194
603.718	0.0156825
603.797	0.0156612
603.875	0.0157849
603.953	0.0157451
604.031	0.0157585
604.109	0.0155590
604.187	0.0156908
604.265	0.0157628
604.343	0.0155752
604.422	0.0155906
604.500	0.0157909
604.578	0.0157147
604.656	0.0158214
604.734	0.0157449
604.812	0.0156643
604.890	0.0157398
604.968	0.0156544
605.047	0.0155790
605.125	0.0156277
605.203	0.0157880
605.281	0.0157359
605.359	0.0157932
605.437	0.0156355
605.515	0.0156411
605.593	0.0158112
605.672	0.0157748
605.750	0.0157385
605.828	0.0156746
605.906	0.0157419
605.984	0.0156004
606.062	0.0157410
606.140	0.0157886
606.218	0.0156912
606.297	0.0157343
606.375	0.0157727
606.453	0.0156658
606.531	0.0156051
606.609	0.0157342
606.687	0.0156824
606.765	0.0156877
606.843	0.0156734
606.922	0.0157418
607.000	0.0158506
607.078	0.0156735
607.156	0.0158940
607.234	0.0157599
607.312	0.0156379
607.390	0.0157790
607.468	0.0156535
607.547	0.0156590
607.625	0.0158290
607.703	0.0156622
607.781	0.0157458
607.859	0.0156340
607.937	0.0156561
608.015	0.0156387
608.093	0.0157001
608.172	0.0157597
608.250	0.0157172
608.328	0.0157390
608.406	0.0156660
608.484	0.0156393
608.562	0.0156628
608.640	0.0156535
608.718	0.0157551
608.797	0.0156051
608.875	0.0155671
608.953	0.0157549
609.031	0.0156694
609.109	0.0156973
609.187	0.0158034
609.265	0.0156509
609.343	0.0156897
609.422	0.0156739
609.500	0.0157072
609.578	0.0159093
609.656	0.0156861
609.734	0.0157948
609.812	0.0156934
609.890	0.0157005
609.968	0.0157323
610.047	0.0157475
610.125	0.0155551
610.203	0.0157760
610.281	0.0156918
610.359	0.0157470
610.437	0.0157520
610.515	0.0157602
610.593	0.0156786
610.672	0.0157967
610.750	0.0157681
610.828	0.0156520
610.906	0.0158067
610.984	0.0156824
611.062	0.0157169
611.140	0.0157429
611.218	0.0156523
611.297	0.0156170
611.375	0.0157151
611.453	0.0158952
611.531	0.0157740
611.609	0.0155708
611.687	0.0157537
611.765	0.0156417
611.843	0.0157310
611.922	0.0157192
612.000	0.0157998
612.078	0.0157307
612.156	0.0157568
612.234	0.0157077
612.312	0.0155764
612.390	0.0155760
612.468	0.0158169
612.547	0.0157975
612.625	0.0156413
612.703	0.0157495
612.781	0.0156434
612.859	0.0157659
612.937	0.0157874
613.015	0.0156895
613.093	0.0156768
613.172	0.0154607
613.250	0.0156568
613.328	0.0157489
613.406	0.0157870
613.484	0.0156736
613.562	0.0156035
613.640	0.0156519
613.718	0.0157015
613.797	0.0157899
613.875	0.0156767
613.953	0.0153881
614.031	0.0156233
614.109	0.0156900
614.187	0.0156922
614.265	0.0157601
614.343	0.0157334
614.422	0.0157334
614.500	0.0157037
614.578	0.0157706
614.656	0.0156551
614.734	0.0156395
614.812	0.0157838
614.890	0.0156651
614.968	0.0157546
615.047	0.0157764
615.125	0.0155275
615.203	0.0158606
615.281	0.0157566
615.359	0.0156836
615.437	0.0156846
615.515	0.0158356
615.593	0.0157943
615.672	0.0157248
615.750	0.0157201
615.828	0.0157410
615.906	0.0157127
615.984	0.0158031
616.062	0.0156679
616.140	0.0156850
616.218	0.0158276
616.297	0.0157484
616.375	0.0156684
616.453	0.0156656
616.531	0.0157722
616.609	0.0157267
616.687	0.0156770
616.765	0.0156185
616.843	0.0157381
616.922	0.0156454
617.000	0.0157901
617.078	0.0158212
617.156	0.0158023
617.234	0.0157088
617.312	0.0155212
617.390	0.0158198
617.468	0.0156642
617.547	0.0155778
617.625	0.0158188
617.703	0.0157223
617.781	0.0157484
617.859	0.0157704
617.937	0.0155753
618.015	0.0156805
618.093	0.0156366
618.172	0.0158590
618.250	0.0157464
618.328	0.0157487
618.406	0.0156556
618.484	0.0156173
618.562	0.0158084
618.640	0.0157092
618.718	0.0155498
618.797	0.0158602
618.875	0.0157923
618.953	0.0156815
619.031	0.0156551
619.109	0.0156307
619.187	0.0156302
619.265	0.0157258
619.343	0.0156761
619.422	0.0156930
619.500	0.0157249
619.578	0.0156291
619.656	0.0155678
619.734	0.0158419
619.812	0.0156654
619.890	0.0156796
619.968	0.0156432
620.047	0.0155783
620.125	0.0158341
620.203	0.0157647
620.281	0.0156504
620.359	0.0158771
620.437	0.0156792
620.515	0.0156609
620.593	0.0157722
620.672	0.0156966
620.750	0.0156970
620.828	0.0157412
620.906	0.0158209
620.984	0.0155801
621.062	0.0156790
621.140	0.0156356
621.218	0.0155811
621.297	0.0156660
621.375	0.0155711
621.453	0.0156251
621.531	0.0157742
621.609	0.0157229
621.687	0.0155685
621.765	0.0156626
621.843	0.0156063
621.922	0.0156396
622.000	0.0158125
622.078	0.0157504
622.156	0.0156357
622.234	0.0156831
622.312	0.0157400
622.390	0.0156532
622.468	0.0156291
622.547	0.0157008
622.625	0.0157063
622.703	0.0157771
622.781	0.0156687
622.859	0.0156971
622.937	0.0158008
623.015	0.0156667
623.093	0.0155349
623.172	0.0156939
623.250	0.0157829
623.328	0.0155589
623.406	0.0156994
623.484	0.0156454
623.562	0.0156555
623.640	0.0156556
623.718	0.0157095
623.797	0.0157227
623.875	0.0155773
623.953	0.0157803
624.031	0.0156640
624.109	0.0156499
624.187	0.0156673
624.265	0.0155817
624.343	0.0158484
624.422	0.0157010
624.500	0.0156992
624.578	0.0157217
624.656	0.0156525
624.734	0.0158346
624.812	0.0156375
624.890	0.0155350
624.968	0.0157597
625.047	0.0155874
625.125	0.0157256
625.203	0.0157236
625.281	0.0157642
625.359	0.0156808
625.437	0.0156539
625.515	0.0155006
625.593	0.0156630
625.672	0.0157289
625.750	0.0156475
625.828	0.0156358
625.906	0.0156442
625.984	0.0155885
626.062	0.0156858
626.140	0.0157288
626.218	0.0157197
626.297	0.0156820
626.375	0.0158254
626.453	0.0156748
626.531	0.0155864
626.609	0.0156607
626.687	0.0156847
626.765	0.0158595
626.843	0.0156299
626.922	0.0157500
627.000	0.0156470
627.078	0.0157275
627.156	0.0157042
627.234	0.0157542
627.312	0.0157241
627.390	0.0155922
627.468	0.0156921
627.547	0.0157493
627.625	0.0157175
627.703	0.0156956
627.781	0.0157437
627.859	0.0156756
627.937	0.0156867
628.015	0.0158370
628.093	0.0155823
628.172	0.0156245
628.250	0.0154733
628.328	0.0155692
628.406	0.0157406
628.484	0.0156843
628.562	0.0156761
628.640	0.0156030
628.718	0.0156049
628.797	0.0157327
628.875	0.0157668
628.953	0.0156895
629.031	0.0155884
629.109	0.0157574
629.187	0.0157601
629.265	0.0157211
629.343	0.0156064
629.422	0.0156104
629.500	0.0157563
629.578	0.0157065
629.656	0.0157452
629.734	0.0156414
629.812	0.0157198
629.890	0.0157235
629.968	0.0156925
630.047	0.0156670
630.125	0.0156712
630.203	0.0155623
630.281	0.0157755
630.359	0.0157277
630.437	0.0156947
630.515	0.0156949
630.593	0.0157250
630.672	0.0157876
630.750	0.0157599
630.828	0.0157541
630.906	0.0157307
630.984	0.0156448
631.062	0.0156409
631.140	0.0157355
631.218	0.0156503
631.297	0.0156783
631.375	0.0156875
631.453	0.0156796
631.531	0.0157030
631.609	0.0156276
631.687	0.0156170
631.765	0.0156959
631.843	0.0157880
631.922	0.0156915
632.000	0.0156229
632.078	0.0157659
632.156	0.0157273
632.234	0.0156436
632.312	0.0158343
632.390	0.0156012
632.468	0.0156870
632.547	0.0156007
632.625	0.0155444
632.703	0.0157125
632.781	0.0156740
632.859	0.0157758
632.937	0.0156868
633.015	0.0158234
633.093	0.0157764
633.172	0.0156005
633.250	0.0157543
633.328	0.0156863
633.406	0.0158627
633.484	0.0157489
633.562	0.0158119
633.640	0.0156915
633.718	0.0155726
633.797	0.0156274
633.875	0.0156813
633.953	0.0157330
634.031	0.0158016
634.109	0.0156834
634.187	0.0157170
634.265	0.0156653
634.343	0.0156211
634.422	0.0158304
634.500	0.0157877
634.578	0.0156932
634.656	0.0158015
634.734	0.0155505
634.812	0.0157678
634.890	0.0157068
634.968	0.0157397
635.047	0.0157345
635.125	0.0157205
635.203	0.0156659
635.281	0.0158328
635.359	0.0156753
635.437	0.0157024
635.515	0.0156194
635.593	0.0156674
635.672	0.0157109
635.750	0.0157069
635.828	0.0157732
635.906	0.0157232
635.984	0.0157655
636.062	0.0156528
636.140	0.0158216
636.218	0.0156510
636.297	0.0155836
636.375	0.0156651
636.453	0.0156978
636.531	0.0156979
636.609	0.0156266
636.687	0.0157639
636.765	0.0158163
636.843	0.0158942
636.922	0.0158089
637.000	0.0157040
637.078	0.0157621
637.156	0.0157972
637.234	0.0156451
637.312	0.0156793
637.390	0.0157574
637.468	0.0157561
637.547	0.0158292
637.625	0.0156834
637.703	0.0156708
637.781	0.0156863
637.859	0.0158360
637.937	0.0158842
638.015	0.0157543
638.093	0.0156702
638.172	0.0157957
638.250	0.0156098
638.328	0.0157175
638.406	0.0156846
638.484	0.0155954
638.562	0.0156618
638.640	0.0157046
638.718	0.0158010
638.797	0.0157462
638.875	0.0154932
638.953	0.0156744
639.031	0.0156058
639.109	0.0157513
639.187	0.0157349
639.265	0.0156361
639.343	0.0156638
639.422	0.0156167
639.500	0.0158556
639.578	0.0156409
639.656	0.0156604
639.734	0.0156590
639.812	0.0156899
639.890	0.0156875
639.968	0.0157094
640.047	0.0156944
640.125	0.0157017
640.203	0.0158649
640.281	0.0157729
640.359	0.0156697
640.437	0.0155924
640.515	0.0157241
640.593	0.0156478
640.672	0.0157529
640.750	0.0157332
640.828	0.0157189
640.906	0.0156960
640.984	0.0157199
641.062	0.0157613
641.140	0.0157653
641.218	0.0157505
641.297	0.0157487
641.375	0.0157120
641.453	0.0157291
641.531	0.0156737
641.609	0.0157810
641.687	0.0157067
641.765	0.0157665
641.843	0.0157698
641.922	0.0158196
642.000	0.0156623
642.078	0.0158134
642.156	0.0157857
642.234	0.0156435
642.312	0.0156485
642.390	0.0156919
642.468	0.0157581
642.547	0.0157742
642.625	0.0156725
642.703	0.0157061
642.781	0.0156612
642.859	0.0156619
642.937	0.0156903
643.015	0.0158161
643.093	0.0157162
643.172	0.0156510
643.250	0.0157348
643.328	0.0156785
643.406	0.0156190
643.484	0.0157249
643.562	0.0156715
643.640	0.0156854
643.718	0.0156111
643.797	0.0157269
643.875	0.0156857
643.953	0.0157326
644.031	0.0156571
644.109	0.0157626
644.187	0.0157211
644.265	0.0156073
644.343	0.0156749
644.422	0.0157335
644.500	0.0156509
644.578	0.0157457
644.656	0.0158321
644.734	0.0157417
644.812	0.0158102
644.890	0.0156686
644.968	0.0157938
645.047	0.0157965
645.125	0.0157777
645.203	0.0156671
645.281	0.0156300
645.359	0.0157574
645.437	0.0156551
645.515	0.0157163
645.593	0.0157368
645.672	0.0157391
645.750	0.0155523
645.828	0.0156822
645.906	0.0156719
645.984	0.0156685
646.062	0.0157948
646.140	0.0158215
646.218	0.0156870
646.297	0.0158090
646.375	0.0155627
646.453	0.0156966
646.531	0.0155902
646.609	0.0156895
646.687	0.0157735
646.765	0.0157373
646.843	0.0156792
646.922	0.0157967
647.000	0.0156722
647.078	0.0157190
647.156	0.0157388
647.234	0.0155682
647.312	0.0157333
647.390	0.0156879
647.468	0.0158327
647.547	0.0158775
647.625	0.0158092
647.703	0.0156009
647.781	0.0158008
647.859	0.0157277
647.937	0.0158124
648.015	0.0155703
648.093	0.0157103
648.172	0.0158011
648.250	0.0158123
648.328	0.0158514
648.406	0.0156622
648.484	0.0156454
648.562	0.0156770
648.640	0.0157957
648.718	0.0156480
648.797	0.0158160
648.875	0.0156898
648.953	0.0156892
649.031	0.0159236
649.109	0.0156779
649.187	0.0156980
649.265	0.0155820
649.343	0.0157775
649.422	0.0156253
649.500	0.0157547
649.578	0.0156944
649.656	0.0157639
649.734	0.0158257
649.812	0.0157544
649.890	0.0156911
649.968	0.0157370
650.047	0.0156503
650.125	0.0157283
650.203	0.0157211
650.281	0.0158195
650.359	0.0157146
650.437	0.0157334
650.515	0.0156626
650.593	0.0157240
650.672	0.0157853
650.750	0.0157529
650.828	0.0157869
650.906	0.0157523
650.984	0.0156899
651.062	0.0158020
651.140	0.0158670
651.218	0.0157076
651.297	0.0157085
651.375	0.0156937
651.453	0.0156213
651.531	0.0158032
651.609	0.0155917
651.687	0.0156041
651.765	0.0156361
651.843	0.0156841
651.922	0.0157109
652.000	0.0156988
652.078	0.0156596
652.156	0.0158282
652.234	0.0157272
652.312	0.0155948
652.390	0.0158263
652.468	0.0157221
652.547	0.0156601
652.625	0.0155804
652.703	0.0157674
652.781	0.0159052
652.859	0.0157505
652.937	0.0157518
653.015	0.0157404
653.093	0.0155987
653.172	0.0158300
653.250	0.0156481
653.328	0.0157616
653.406	0.0156598
653.484	0.0155693
653.562	0.0156915
653.640	0.0156062
653.718	0.0155437
653.797	0.0157594
653.875	0.0157008
653.953	0.0154934
654.031	0.0156262
654.109	0.0157574
654.187	0.0158046
654.265	0.0157288
654.343	0.0157339
654.422	0.0157846
654.500	0.0156301
654.578	0.0157378
654.656	0.0157479
654.734	0.0157509
654.812	0.0157224
654.890	0.0157565
654.968	0.0157079
655.047	0.0156845
655.125	0.0157920
655.203	0.0157706
655.281	0.0157386
655.359	0.0156878
655.437	0.0157479
655.515	0.0156764
655.593	0.0157471
655.672	0.0156816
655.750	0.0158567
655.828	0.0156514
655.906	0.0157016
655.984	0.0157265
656.062	0.0158129
656.140	0.0157738
656.218	0.0156499
656.297	0.0157585
656.375	0.0156748
656.453	0.0156266
656.531	0.0158199
656.609	0.0157446
656.687	0.0158146
656.765	0.0156735
656.843	0.0157054
656.922	0.0156313
657.000	0.0156034
657.078	0.0157454
657.156	0.0156974
657.234	0.0156171
657.312	0.0156250
657.390	0.0157700
657.468	0.0156528
657.547	0.0157494
657.625	0.0157087
657.703	0.0156062
657.781	0.0157067
657.859	0.0157732
657.937	0.0157074
658.015	0.0156767
658.093	0.0157530
658.172	0.0158609
658.250	0.0157838
658.328	0.0157997
658.406	0.0159303
658.484	0.0156964
658.562	0.0157249
658.640	0.0157163
658.718	0.0157471
658.797	0.0158444
658.875	0.0157042
658.953	0.0156512
659.031	0.0157258
659.109	0.0156722
659.187	0.0158763
659.265	0.0156844
659.343	0.0156432
659.422	0.0156561
659.500	0.0157987
659.578	0.0157130
659.656	0.0157195
659.734	0.0157426
659.812	0.0156232
659.890	0.0156752
659.968	0.0156709
660.047	0.0157550
660.125	0.0158137
660.203	0.0157119
660.281	0.0157263
660.359	0.0157185
660.437	0.0157848
660.515	0.0157838
660.593	0.0157639
660.672	0.0158051
660.750	0.0156810
660.828	0.0156244
660.906	0.0156992
660.984	0.0158289
661.062	0.0157798
661.140	0.0157376
661.218	0.0156607
661.297	0.0157361
661.375	0.0157664
661.453	0.0155955
661.531	0.0156914
661.609	0.0156173
661.687	0.0156689
661.765	0.0156682
661.843	0.0156161
661.922	0.0156465
662.000	0.0157040
662.078	0.0156651
662.156	0.0156914
662.234	0.0156613
662.312	0.0157530
662.390	0.0157053
662.468	0.0156307
662.547	0.0157991
662.625	0.0157089
662.703	0.0155369
662.781	0.0157179
662.859	0.0156921
662.937	0.0157460
663.015	0.0158150
663.093	0.0157628
663.172	0.0155753
663.250	0.0157124
663.328	0.0158019
663.406	0.0155976
663.484	0.0156792
663.562	0.0157426
663.640	0.0157853
663.718	0.0156863
663.797	0.0156884
663.875	0.0156217
663.953	0.0156577
664.031	0.0155534
664.109	0.0156243
664.187	0.0156479
664.265	0.0156059
664.343	0.0156487
664.422	0.0157307
664.500	0.0157581
664.578	0.0156882
664.656	0.0157142
664.734	0.0156517
664.812	0.0155096
664.890	0.0156998
664.968	0.0157700
665.047	0.0158017
665.125	0.0156408
665.203	0.0157168
665.281	0.0156338
665.359	0.0157835
665.437	0.0157453
665.515	0.0156145
665.593	0.0156950
665.672	0.0156818
665.750	0.0157446
665.828	0.0158523
665.906	0.0157675
665.984	0.0157553
666.062	0.0156448
666.140	0.0158090
666.218	0.0155936
666.297	0.0157780
666.375	0.0157792
666.453	0.0158290
666.531	0.0157003
666.609	0.0157525
666.687	0.0156427
666.765	0.0156635
666.843	0.0157050
666.922	0.0157903
667.000	0.0158351
667.078	0.0157220
667.156	0.0158664
667.234	0.0158597
667.312	0.0157460
667.390	0.0157347
667.468	0.0157967
667.547	0.0156571
667.625	0.0157068
667.703	0.0157867
667.781	0.0157909
667.859	0.0157291
667.937	0.0157769
668.015	0.0158627
668.093	0.0158429
668.172	0.0157152
668.250	0.0156230
668.328	0.0157479
668.406	0.0157661
668.484	0.0156673
668.562	0.0157544
668.640	0.0156834
668.718	0.0158000
668.797	0.0158774
668.875	0.0156987
668.953	0.0156850
669.031	0.0155910
669.109	0.0155405
669.187	0.0155996
669.265	0.0157610
669.343	0.0159499
669.422	0.0156071
669.500	0.0156455
669.578	0.0157154
669.656	0.0157162
669.734	0.0156715
669.812	0.0156964
669.890	0.0157352
669.968	0.0156082
670.047	0.0155206
670.125	0.0157884
670.203	0.0155836
670.281	0.0157277
670.359	0.0156848
670.437	0.0157789
670.515	0.0157191
670.593	0.0158417
670.672	0.0157861
670.750	0.0158570
670.828	0.0157626
670.906	0.0157218
670.984	0.0157767
671.062	0.0156647
671.140	0.0157104
671.218	0.0156331
671.297	0.0157265
671.375	0.0158137
671.453	0.0157491
671.531	0.0157651
671.609	0.0157232
671.687	0.0156783
671.765	0.0158328
671.843	0.0157512
671.922	0.0157555
672.000	0.0157362
672.078	0.0157559
672.156	0.0157259
672.234	0.0155526
672.312	0.0157366
672.390	0.0157506
672.468	0.0157123
672.547	0.0158983
672.625	0.0156732
672.703	0.0156390
672.781	0.0157790
672.859	0.0157569
672.937	0.0157434
673.015	0.0158316
673.093	0.0157361
673.172	0.0157250
673.250	0.0156674
673.328	0.0158186
673.406	0.0158452
673.484	0.0157407
673.562	0.0157671
673.640	0.0156493
673.718	0.0156050
673.797	0.0157612
673.875	0.0156222
673.953	0.0157842
674.031	0.0156488
674.109	0.0158044
674.187	0.0156844
674.265	0.0157432
674.343	0.0158386
674.422	0.0157510
674.500	0.0156744
674.578	0.0158210
674.656	0.0157480
674.734	0.0156785
674.812	0.0157493
674.890	0.0157880
674.968	0.0157069
675.047	0.0157530
675.125	0.0156914
675.203	0.0157307
675.281	0.0158109
675.359	0.0158309
675.437	0.0157120
675.515	0.0157484
675.593	0.0157679
675.672	0.0158082
675.750	0.0159307
675.828	0.0158468
675.906	0.0157076
675.984	0.0157930
676.062	0.0158320
676.140	0.0157458
676.218	0.0157805
676.297	0.0157215
676.375	0.0157134
676.453	0.0155221
676.531	0.0157245
676.609	0.0157354
676.687	0.0156601
676.765	0.0157925
676.843	0.0157594
676.922	0.0157160
677.000	0.0157153
677.078	0.0157410
677.156	0.0157488
677.234	0.0157964
677.312	0.0157552
677.390	0.0156863
677.468	0.0157086
677.547	0.0158354
677.625	0.0156976
677.703	0.0156065
677.781	0.0157395
677.859	0.0158282
677.937	0.0158270
678.015	0.0158462
678.093	0.0158212
678.172	0.0157502
678.250	0.0157950
678.328	0.0158025
678.406	0.0157262
678.484	0.0156303
678.562	0.0157782
678.640	0.0156744
678.718	0.0157025
678.797	0.0158748
678.875	0.0157650
678.953	0.0157374
679.031	0.0157387
679.109	0.0158951
679.187	0.0157534
679.265	0.0157220
679.343	0.0158871
679.422	0.0158379
679.500	0.0157746
679.578	0.0157418
679.656	0.0157439
679.734	0.0157770
679.812	0.0156805
679.890	0.0157471
679.968	0.0157658
680.047	0.0157810
680.125	0.0158350
680.203	0.0158550
680.281	0.0157867
680.359	0.0157473
680.437	0.0157880
680.515	0.0157942
680.593	0.0157829
680.672	0.0155782
680.750	0.0157354
680.828	0.0158427
680.906	0.0156107
680.984	0.0157173
681.062	0.0158142
681.140	0.0155952
681.218	0.0156096
681.297	0.0158336
681.375	0.0157943
681.453	0.0157017
681.531	0.0157049
681.609	0.0157124
681.687	0.0157980
681.765	0.0158417
681.843	0.0156470
681.922	0.0156102
682.000	0.0157320
682.078	0.0157430
682.156	0.0157778
682.234	0.0158035
682.312	0.0157207
682.390	0.0156953
682.468	0.0157035
682.547	0.0157743
682.625	0.0158288
682.703	0.0157090
682.781	0.0156254
682.859	0.0158015
682.937	0.0156274
683.015	0.0157317
683.093	0.0157582
683.172	0.0156792
683.250	0.0157327
683.328	0.0156863
683.406	0.0156397
683.484	0.0156847
683.562	0.0157449
683.640	0.0157164
683.718	0.0156871
683.797	0.0158406
683.875	0.0158203
683.953	0.0157040
684.031	0.0157656
684.109	0.0156901
684.187	0.0156960
684.265	0.0157906
684.343	0.0157826
684.422	0.0156590
684.500	0.0157093
684.578	0.0157413
684.656	0.0157314
684.734	0.0157295
684.812	0.0156158
684.890	0.0159315
684.968	0.0158238
685.047	0.0156952
685.125	0.0157144
685.203	0.0157227
685.281	0.0157309
685.359	0.0156470
685.437	0.0157890
685.515	0.0156781
685.593	0.0156585
685.672	0.0156925
685.750	0.0157560
685.828	0.0157880
685.906	0.0157768
685.984	0.0157343
686.062	0.0156636
686.140	0.0157215
686.218	0.0156853
686.297	0.0157046
686.375	0.0157354
686.453	0.0156225
686.531	0.0157387
686.609	0.0157121
686.687	0.0157616
686.765	0.0156781
686.843	0.0156687
686.922	0.0156048
687.000	0.0157278
687.078	0.0156256
687.156	0.0157151
687.234	0.0155892
687.312	0.0156741
687.390	0.0156744
687.468	0.0155614
687.547	0.0157462
687.625	0.0157883
687.703	0.0157806
687.781	0.0157517
687.859	0.0157399
687.937	0.0156909
688.015	0.0157407
688.093	0.0156785
688.172	0.0156828
688.250	0.0157594
688.328	0.0158716
688.406	0.0157519
688.484	0.0158009
688.562	0.0157943
688.640	0.0156693
688.718	0.0157326
688.797	0.0157214
688.875	0.0158006
688.953	0.0157026
689.031	0.0156615
689.109	0.0157040
689.187	0.0157543
689.265	0.0157362
689.343	0.0156515
689.422	0.0155936
689.500	0.0157240
689.578	0.0157816
689.656	0.0157307
689.734	0.0156380
689.812	0.0157325
689.890	0.0157018
689.968	0.0157214
690.047	0.0157640
690.125	0.0157906
690.203	0.0157228
690.281	0.0156891
690.359	0.0155769
690.437	0.0158188
690.515	0.0158443
690.593	0.0155692
690.672	0.0157851
690.750	0.0158706
690.828	0.0156473
690.906	0.0157029
690.984	0.0157600
691.062	0.0156513
691.140	0.0158817
691.218	0.0157184
691.297	0.0156728
691.375	0.0157633
691.453	0.0157444
691.531	0.0156156
691.609	0.0157887
691.687	0.0155804
691.765	0.0157648
691.843	0.0156927
691.922	0.0156840
692.000	0.0157019
692.078	0.0157230
692.156	0.0156925
692.234	0.0157494
692.312	0.0158472
692.390	0.0155830
692.468	0.0156532
692.547	0.0158096
692.625	0.0156145
692.703	0.0156495
692.781	0.0156053
692.859	0.0157912
692.937	0.0157686
693.015	0.0157452
693.093	0.0157230
693.172	0.0158845
693.250	0.0157249
693.328	0.0157620
693.406	0.0156487
693.484	0.0157127
693.562	0.0156308
693.640	0.0157013
693.718	0.0157353
693.797	0.0157298
693.875	0.0157301
693.953	0.0158743
694.031	0.0156341
694.109	0.0156656
694.187	0.0156242
694.265	0.0157390
694.343	0.0157502
694.422	0.0157171
694.500	0.0157280
694.578	0.0157481
694.656	0.0157876
694.734	0.0157751
694.812	0.0155643
694.890	0.0157759
694.968	0.0156382
695.047	0.0157003
695.125	0.0157873
695.203	0.0156085
695.281	0.0157594
695.359	0.0156213
695.437	0.0156205
695.515	0.0157814
695.593	0.0156619
695.672	0.0157774
695.750	0.0157197
695.828	0.0157919
695.906	0.0158459
695.984	0.0157760
696.062	0.0157273
696.140	0.0157367
696.218	0.0159010
696.297	0.0157604
696.375	0.0157024
696.453	0.0157092
696.531	0.0157861
696.609	0.0157014
696.687	0.0157057
696.765	0.0156322
696.843	0.0155752
696.922	0.0157918
697.000	0.0157879
697.078	0.0157812
697.156	0.0156384
697.234	0.0157043
697.312	0.0157019
697.390	0.0157673
697.468	0.0156678
697.547	0.0156727
697.625	0.0157466
697.703	0.0157607
697.781	0.0156551
697.859	0.0157429
697.937	0.0156930
698.015	0.0156340
698.093	0.0157709
698.172	0.0157256
698.250	0.0157421
698.328	0.0156297
698.406	0.0156101
698.484	0.0158109
698.562	0.0157834
698.640	0.0156443
698.718	0.0156030
698.797	0.0157589
698.875	0.0156901
698.953	0.0157276
699.031	0.0157298
699.109	0.0156590
699.187	0.0156048
699.265	0.0157018
699.343	0.0157901
699.422	0.0157164
699.500	0.0156340
699.578	0.0157749
699.656	0.0156204
699.734	0.0157325
699.812	0.0157500
699.890	0.0156505
699.968	0.0157050
700.047	0.0156525
700.125	0.0157482
700.203	0.0157089
700.281	0.0157290
700.359	0.0156416
700.437	0.0157248
700.515	0.0158378
700.593	0.0155704
700.672	0.0156068
700.750	0.0155838
700.828	0.0157269
700.906	0.0156461
700.984	0.0157045
701.062	0.0157644
701.140	0.0157442
701.218	0.0156367
701.297	0.0156519
701.375	0.0158519
701.453	0.0158691
701.531	0.0156655
701.609	0.0156394
701.687	0.0157915
701.765	0.0156610
701.843	0.0156862
701.922	0.0156348
702.000	0.0155576
702.078	0.0157459
702.156	0.0157784
702.234	0.0158117
702.312	0.0157202
702.390	0.0157649
702.468	0.0157848
702.547	0.0156673
702.625	0.0157497
702.703	0.0157144
702.781	0.0158905
702.859	0.0157484
702.937	0.0156369
703.015	0.0156972
703.093	0.0157599
703.172	0.0156712
703.250	0.0156770
703.328	0.0155193
703.406	0.0157614
703.484	0.0156689
703.562	0.0156843
703.640	0.0156453
703.718	0.0157464
703.797	0.0156918
703.875	0.0157516
703.953	0.0157821
704.031	0.0155011
704.109	0.0156279
704.187	0.0156668
704.265	0.0156763
704.343	0.0158142
704.422	0.0156862
704.500	0.0157597
704.578	0.0158597
704.656	0.0156188
704.734	0.0155891
704.812	0.0157674
704.890	0.0156026
704.968	0.0155792
705.047	0.0158268
705.125	0.0156715
705.203	0.0158283
705.281	0.0157403
705.359	0.0156716
705.437	0.0156844
705.515	0.0157364
705.593	0.0157187
705.672	0.0159344
705.750	0.0157357
705.828	0.0155463
705.906	0.0156471
705.984	0.0156731
706.062	0.0156654
706.140	0.0157580
706.218	0.0157232
706.297	0.0156675
706.375	0.0157693
706.453	0.0156805
706.531	0.0157262
706.609	0.0158215
706.687	0.0156316
706.765	0.0156753
706.843	0.0158356
706.922	0.0157610
707.000	0.0158027
707.078	0.0158011
707.156	0.0156313
707.234	0.0157813
707.312	0.0155647
707.390	0.0157243
707.468	0.0157848
707.547	0.0156497
707.625	0.0156927
707.703	0.0157430
707.781	0.0157453
707.859	0.0156596
707.937	0.0157512
708.015	0.0156975
708.093	0.0157475
708.172	0.0158319
708.250	0.0157285
708.328	0.0156647
708.406	0.0158064
708.484	0.0156803
708.562	0.0157025
708.640	0.0156164
708.718	0.0158318
708.797	0.0158508
708.875	0.0156653
708.953	0.0156180
709.031	0.0156420
709.109	0.0158489
709.187	0.0156684
709.265	0.0155613
709.343	0.0156347
709.422	0.0156859
709.500	0.0157117
709.578	0.0158259
709.656	0.0158018
709.734	0.0157314
709.812	0.0156739
709.890	0.0156629
709.968	0.0156388
710.047	0.0156522
710.125	0.0158392
710.203	0.0157876
710.281	0.0157091
710.359	0.0156380
710.437	0.0156783
710.515	0.0157015
710.593	0.0157348
710.672	0.0157005
710.750	0.0156515
710.828	0.0156241
710.906	0.0157999
710.984	0.0158025
711.062	0.0157430
711.140	0.0156395
711.218	0.0156894
711.297	0.0156944
711.375	0.0157761
711.453	0.0157378
711.531	0.0156328
711.609	0.0155788
711.687	0.0156768
711.765	0.0156072
711.843	0.0157421
711.922	0.0157633
712.000	0.0157070
712.078	0.0156389
712.156	0.0156557
712.234	0.0156922
712.312	0.0157877
712.390	0.0155840
712.468	0.0157003
712.547	0.0155794
712.625	0.0155913
712.703	0.0157397
712.781	0.0156628
712.859	0.0157464
712.937	0.0157430
713.015	0.0157714
713.093	0.0157432
713.172	0.0155949
713.250	0.0156110
713.328	0.0158096
713.406	0.0157289
713.484	0.0156379
713.562	0.0155765
713.640	0.0157085
713.718	0.0157726
713.797	0.0157615
713.875	0.0157569
713.953	0.0157991
714.031	0.0156283
714.109	0.0154927
714.187	0.0156451
714.265	0.0157662
714.343	0.0157127
714.422	0.0155759
714.500	0.0156365
714.578	0.0157507
714.656	0.0158279
714.734	0.0156561
714.812	0.0156080
714.890	0.0156122
714.968	0.0156802
715.047	0.0156274
715.125	0.0156305
715.203	0.0156758
715.281	0.0157655
715.359	0.0157037
715.437	0.0156392
715.515	0.0157094
715.593	0.0156669
715.672	0.0155769
715.750	0.0156573
715.828	0.0157116
715.906	0.0157711
715.984	0.0157425
716.062	0.0156081
716.140	0.0157205
716.218	0.0157648
716.297	0.0157265
716.375	0.0157296
716.453	0.0156788
716.531	0.0156018
716.609	0.0156696
716.687	0.0157598
716.765	0.0157126
716.843	0.0157559
716.922	0.0157525
717.000	0.0156814
717.078	0.0155771
717.156	0.0157241
717.234	0.0156561
717.312	0.0157616
717.390	0.0157027
717.468	0.0157019
717.547	0.0156616
717.625	0.0155135
717.703	0.0157364
717.781	0.0158235
717.859	0.0157506
717.937	0.0157922
718.015	0.0156615
718.093	0.0157178
718.172	0.0157315
718.250	0.0156192
718.328	0.0157414
718.406	0.0157458
718.484	0.0157068
718.562	0.0155308
718.640	0.0157583
718.718	0.0156510
718.797	0.0156576
718.875	0.0157929
718.953	0.0157780
719.031	0.0157362
719.109	0.0157788
719.187	0.0157005
719.265	0.0156162
719.343	0.0157942
719.422	0.0157070
719.500	0.0157523
719.578	0.0156721
719.656	0.0156935
719.734	0.0156734
719.812	0.0157909
719.890	0.0157169
719.968	0.0156731
720.047	0.0158434
720.125	0.0158083
720.203	0.0156569
720.281	0.0156905
720.359	0.0157317
720.437	0.0156995
720.515	0.0156683
720.593	0.0157890
720.672	0.0157044
720.750	0.0157170
720.828	0.0156696
720.906	0.0156841
720.984	0.0157159
721.062	0.0156799
721.140	0.0157169
721.218	0.0157188
721.297	0.0156738
721.375	0.0156764
721.453	0.0157794
721.531	0.0157529
721.609	0.0158332
721.687	0.0157143
721.765	0.0157304
721.843	0.0158568
721.922	0.0157542
722.000	0.0158194
722.078	0.0157856
722.156	0.0158028
722.234	0.0157073
722.312	0.0156080
722.390	0.0157079
722.468	0.0157747
722.547	0.0156309
722.625	0.0156100
722.703	0.0157197
722.781	0.0156892
722.859	0.0157178
722.937	0.0157607
723.015	0.0158636
723.093	0.0156950
723.172	0.0157764
723.250	0.0157895
723.328	0.0157037
723.406	0.0157063
723.484	0.0155950
723.562	0.0156944
723.640	0.0157644
723.718	0.0156915
723.797	0.0157024
723.875	0.0155871
723.953	0.0158201
724.031	0.0157017
724.109	0.0156136
724.187	0.0156622
724.265	0.0157309
724.343	0.0156683
724.422	0.0156976
724.500	0.0159025
724.578	0.0158106
724.656	0.0156452
724.734	0.0157147
724.812	0.0156648
724.890	0.0157275
724.968	0.0156767
725.047	0.0156816
725.125	0.0157570
725.203	0.0156448
725.281	0.0157288
725.359	0.0156528
725.437	0.0156838
725.515	0.0157314
725.593	0.0157590
725.672	0.0157153
725.750	0.0156865
725.828	0.0156351
725.906	0.0155005
725.984	0.0157459
726.062	0.0155885
726.140	0.0156664
726.218	0.0156787
726.297	0.0157059
726.375	0.0156515
726.453	0.0157072
726.531	0.0157017
726.609	0.0156940
726.687	0.0156479
726.765	0.0155981
726.843	0.0155729
726.922	0.0157105
727.000	0.0156116
727.078	0.0155732
727.156	0.0156746
727.234	0.0156384
727.312	0.0157458
727.390	0.0156961
727.468	0.0155693
727.547	0.0157433
727.625	0.0157273
727.703	0.0157166
727.781	0.0156773
727.859	0.0156243
727.937	0.0157388
728.015	0.0157388
728.093	0.0157110
728.172	0.0156886
728.250	0.0155795
728.328	0.0156338
728.406	0.0156533
728.484	0.0156416
728.562	0.0156776
728.640	0.0156343
728.718	0.0156602
728.797	0.0156927
728.875	0.0157381
728.953	0.0157096
729.031	0.0157405
729.109	0.0156174
729.187	0.0156428
729.265	0.0157204
729.343	0.0155183
729.422	0.0155507
729.500	0.0155926
729.578	0.0155162
729.656	0.0157291
729.734	0.0156881
729.812	0.0156483
729.890	0.0157229
729.968	0.0157345
730.047	0.0156788
730.125	0.0155441
730.203	0.0156992
730.281	0.0156416
730.359	0.0157420
730.437	0.0157202
730.515	0.0156572
730.593	0.0156284
730.672	0.0156469
730.750	0.0157051
730.828	0.0156451
730.906	0.0158083
730.984	0.0156906
731.062	0.0156853
731.140	0.0159189
731.218	0.0158511
731.297	0.0156934
731.375	0.0157678
731.453	0.0156711
731.531	0.0159274
731.609	0.0157469
731.687	0.0156682
731.765	0.0158661
731.843	0.0158392
731.922	0.0156997
732.000	0.0157814
732.078	0.0155682
732.156	0.0156770
732.234	0.0157515
732.312	0.0156498
732.390	0.0157252
732.468	0.0157594
732.547	0.0157265
732.625	0.0156918
732.703	0.0156757
732.781	0.0156524
732.859	0.0156112
732.937	0.0157001
733.015	0.0156209
733.093	0.0156454
733.172	0.0157303
733.250	0.0158850
733.328	0.0157014
733.406	0.0157079
733.484	0.0155748
733.562	0.0158013
733.640	0.0158128
733.718	0.0157558
733.797	0.0158007
733.875	0.0156251
733.953	0.0157481
734.031	0.0155434
734.109	0.0156503
734.187	0.0157221
734.265	0.0156585
734.343	0.0156948
734.422	0.0156882
734.500	0.0155263
734.578	0.0155666
734.656	0.0156164
734.734	0.0156468
734.812	0.0156422
734.890	0.0156598
734.968	0.0157071
735.047	0.0155713
735.125	0.0157350
735.203	0.0155970
735.281	0.0157794
735.359	0.0157856
735.437	0.0157173
735.515	0.0156940
735.593	0.0157962
735.672	0.0157732
735.750	0.0157439
735.828	0.0157150
735.906	0.0157173
735.984	0.0158248
736.062	0.0157454
736.140	0.0156986
736.218	0.0158687
736.297	0.0158176
736.375	0.0158659
736.453	0.0157253
736.531	0.0156996
736.609	0.0157002
736.687	0.0158395
736.765	0.0155628
736.843	0.0155888
736.922	0.0158221
737.000	0.0156502
737.078	0.0155812
737.156	0.0156377
737.234	0.0157426
737.312	0.0157157
737.390	0.0156120
737.468	0.0156846
737.547	0.0158858
737.625	0.0156108
737.703	0.0155569
737.781	0.0156618
737.859	0.0156807
737.937	0.0155971
738.015	0.0156091
738.093	0.0154630
738.172	0.0154484
738.250	0.0154302
738.328	0.0154738
738.406	0.0154246
738.484	0.0154905
738.562	0.0154968
738.640	0.0155143
738.718	0.0156266
738.797	0.0156169
738.875	0.0156005
738.953	0.0158073
739.031	0.0157051
739.109	0.0157577
739.187	0.0158397
739.265	0.0157254
739.343	0.0157632
739.422	0.0158863
739.500	0.0159699
739.578	0.0160214
739.656	0.0158386
739.734	0.0158061
739.812	0.0157724
739.890	0.0158579
739.968	0.0157381
740.047	0.0157754
740.125	0.0157799
740.203	0.0155951
740.281	0.0157327
740.359	0.0156056
740.437	0.0155199
740.515	0.0155122
740.593	0.0156116
740.672	0.0154057
740.750	0.0155125
740.828	0.0154668
740.906	0.0155546
740.984	0.0154755
741.062	0.0155141
741.140	0.0155688
741.218	0.0156322
741.297	0.0155717
741.375	0.0155940
741.453	0.0156790
741.531	0.0156335
741.609	0.0154999
741.687	0.0157313
741.765	0.0156046
741.843	0.0156887
741.922	0.0157202
742.000	0.0156800
742.078	0.0158643
742.156	0.0157886
742.234	0.0157623
742.312	0.0156460
742.390	0.0159795
742.468	0.0159449
742.547	0.0157479
742.625	0.0157381
742.703	0.0158002
742.781	0.0159282
742.859	0.0158111
742.937	0.0157642
743.015	0.0157517
743.093	0.0156605
743.172	0.0157808
743.250	0.0158162
743.328	0.0156824
743.406	0.0157372
743.484	0.0157388
743.562	0.0156300
743.640	0.0157287
743.718	0.0157532
743.797	0.0155733
743.875	0.0156123
743.953	0.0157653
744.031	0.0158438
744.109	0.0156429
744.187	0.0157848
744.265	0.0156013
744.343	0.0156903
744.422	0.0157077
744.500	0.0155807
744.578	0.0156057
744.656	0.0157261
744.734	0.0156168
744.812	0.0155957
744.890	0.0155637
744.968	0.0155438
745.047	0.0156398
745.125	0.0155610
745.203	0.0155336
745.281	0.0154579
745.359	0.0155766
745.437	0.0154871
745.515	0.0154428
745.593	0.0156155
745.672	0.0156573
745.750	0.0156757
745.828	0.0156100
745.906	0.0156782
745.984	0.0156051
746.062	0.0157534
746.140	0.0157659
746.218	0.0158304
746.297	0.0156087
746.375	0.0157112
746.453	0.0156109
746.531	0.0156464
746.609	0.0157021
746.687	0.0156870
746.765	0.0156039
746.843	0.0156682
746.922	0.0158205
747.000	0.0157168
747.078	0.0156734
747.156	0.0156059
747.234	0.0157189
747.312	0.0157494
747.390	0.0158922
747.468	0.0159193
747.547	0.0158904
747.625	0.0158276
747.703	0.0157624
747.781	0.0157852
747.859	0.0158381
747.937	0.0156519
748.015	0.0156960
748.093	0.0157144
748.172	0.0157489
748.250	0.0155978
748.328	0.0155902
748.406	0.0155727
748.484	0.0155198
748.562	0.0155098
748.640	0.0156175
748.718	0.0156461
748.797	0.0156711
748.875	0.0156806
748.953	0.0158253
749.031	0.0157889
749.109	0.0158141
749.187	0.0157108
749.265	0.0156342
749.343	0.0158215
749.422	0.0159720
749.500	0.0156870
749.578	0.0156820
749.656	0.0158569
749.734	0.0156429
749.812	0.0156329
749.890	0.0157424
749.968	0.0156231
750.047	0.0156401
750.125	0.0155453
750.203	0.0157275
750.281	0.0156988
750.359	0.0157149
750.437	0.0156213
750.515	0.0157221
750.593	0.0158677
750.672	0.0156376
750.750	0.0156136
750.828	0.0157394
750.906	0.0156004
750.984	0.0156344
751.062	0.0157167
751.140	0.0155780
751.218	0.0156648
751.297	0.0157394
751.375	0.0157026
751.453	0.0157651
751.531	0.0158038
751.609	0.0157075
751.687	0.0156585
751.765	0.0157245
751.843	0.0156930
751.922	0.0157283
752.000	0.0158669
752.078	0.0157389
752.156	0.0157867
752.234	0.0158998
752.312	0.0157648
752.390	0.0159563
752.468	0.0159261
752.547	0.0160968
752.625	0.0159087
752.703	0.0158939
752.781	0.0157249
752.859	0.0158318
752.937	0.0157854
753.015	0.0157450
753.093	0.0157450
753.172	0.0155561
753.250	0.0157094
753.328	0.0156110
753.406	0.0155264
753.484	0.0155093
753.562	0.0155959
753.640	0.0155064
753.718	0.0155771
753.797	0.0156047
753.875	0.0155090
753.953	0.0156338
754.031	0.0154149
754.109	0.0154995
754.187	0.0156263
754.265	0.0157163
754.343	0.0156087
754.422	0.0156618
754.500	0.0156856
754.578	0.0156453
754.656	0.0156048
754.734	0.0157048
754.812	0.0155882
754.890	0.0156029
754.968	0.0156401
755.047	0.0156660
755.125	0.0155781
755.203	0.0156444
755.281	0.0155680
755.359	0.0156907
755.437	0.0157193
755.515	0.0157381
755.593	0.0157355
755.672	0.0157914
755.750	0.0157774
755.828	0.0158648
755.906	0.0158441
755.984	0.0157664
756.062	0.0156281
756.140	0.0156495
756.218	0.0156425
756.297	0.0156290
756.375	0.0155419
756.453	0.0157948
756.531	0.0156594
756.609	0.0156525
756.687	0.0158346
756.765	0.0157085
756.843	0.0157011
756.922	0.0158036
757.000	0.0155943
757.078	0.0157413
757.156	0.0157281
757.234	0.0156754
757.312	0.0158316
757.390	0.0157793
757.468	0.0158003
757.547	0.0159018
757.625	0.0157787
757.703	0.0158443
757.781	0.0156728
757.859	0.0156798
757.937	0.0157257
758.015	0.0157807
758.093	0.0157062
758.172	0.0156842
758.250	0.0156470
758.328	0.0156119
758.406	0.0157114
758.484	0.0158409
758.562	0.0157523
758.640	0.0155614
758.718	0.0157439
758.797	0.0157513
758.875	0.0156985
758.953	0.0157250
759.031	0.0158319
759.109	0.0156223
759.187	0.0156635
759.265	0.0157670
759.343	0.0156564
759.422	0.0155796
759.500	0.0156044
759.578	0.0154914
759.656	0.0155688
759.734	0.0157741
759.812	0.0156012
759.890	0.0156789
759.968	0.0156559
760.047	0.0156351
760.125	0.0155784
760.203	0.0155784
760.281	0.0156821
760.359	0.0155550
760.437	0.0154989
760.515	0.0155551
760.593	0.0156283
760.672	0.0156438
760.750	0.0156170
760.828	0.0158147
760.906	0.0156767
760.984	0.0157445
761.062	0.0157354
761.140	0.0157485
761.218	0.0159595
761.297	0.0159299
761.375	0.0158270
761.453	0.0157964
761.531	0.0158167
761.609	0.0158853
761.687	0.0158185
761.765	0.0157340
761.843	0.0158603
761.922	0.0157531
762.000	0.0158194
762.078	0.0157875
762.156	0.0156767
762.234	0.0155016
762.312	0.0158113
762.390	0.0157709
762.468	0.0156739
762.547	0.0155698
762.625	0.0155235
762.703	0.0154028
762.781	0.0156667
762.859	0.0154857
762.937	0.0154474
763.015	0.0155141
763.093	0.0156349
763.172	0.0155479
763.250	0.0155885
763.328	0.0156314
763.406	0.0156467
763.484	0.0156542
763.562	0.0157336
763.640	0.0157732
763.718	0.0156821
763.797	0.0158197
763.875	0.0158773
763.953	0.0155955
764.031	0.0155656
764.109	0.0154718
764.187	0.0155550
764.265	0.0155717
764.343	0.0154745
764.422	0.0154889
764.500	0.0154944
764.578	0.0156451
764.656	0.0157678
764.734	0.0155988
764.812	0.0155736
764.890	0.0154684
764.968	0.0156956
765.047	0.0156687
765.125	0.0156184
765.203	0.0157221
765.281	0.0157610
765.359	0.0156743
765.437	0.0156857
765.515	0.0157121
765.593	0.0157913
765.672	0.0156029
765.750	0.0157168
765.828	0.0159298
765.906	0.0158623
765.984	0.0157021
766.062	0.0157259
766.140	0.0157245
766.218	0.0158659
766.297	0.0157488
766.375	0.0158019
766.453	0.0157629
766.531	0.0157345
766.609	0.0156622
766.687	0.0156286
766.765	0.0156058
766.843	0.0158373
766.922	0.0157729
767.000	0.0156670
767.078	0.0156409
767.156	0.0158170
767.234	0.0156365
767.312	0.0156267
767.390	0.0157877
767.468	0.0156818
767.547	0.0156902
767.625	0.0157161
767.703	0.0156391
767.781	0.0155898
767.859	0.0155511
767.937	0.0158212
768.015	0.0155944
768.093	0.0156277
768.172	0.0156689
768.250	0.0157069
768.328	0.0156738
768.406	0.0158007
768.484	0.0158020
768.562	0.0156504
768.640	0.0159544
768.718	0.0159257
768.797	0.0158824
768.875	0.0156433
768.953	0.0157664
769.031	0.0156577
769.109	0.0157090
769.187	0.0156964
769.265	0.0156843
769.343	0.0157243
769.422	0.0155911
769.500	0.0156390
769.578	0.0157858
769.656	0.0156165
769.734	0.0156658
769.812	0.0155090
769.890	0.0156951
769.968	0.0158073
770.047	0.0156413
770.125	0.0154856
770.203	0.0155389
770.281	0.0155642
770.359	0.0156443
770.437	0.0156236
770.515	0.0156140
770.593	0.0155175
770.672	0.0155524
770.750	0.0157056
770.828	0.0155307
770.906	0.0155546
770.984	0.0156253
771.062	0.0155709
771.140	0.0156386
771.218	0.0157603
771.297	0.0157203
771.375	0.0157825
771.453	0.0157203
771.531	0.0157359
771.609	0.0157392
771.687	0.0157452
771.765	0.0157273
771.843	0.0158589
771.922	0.0157744
772.000	0.0157462
772.078	0.0157307
772.156	0.0157474
772.234	0.0158096
772.312	0.0157108
772.390	0.0156365
772.468	0.0157990
772.547	0.0155994
772.625	0.0157621
772.703	0.0157392
772.781	0.0156556
772.859	0.0158101
772.937	0.0157430
773.015	0.0156842
773.093	0.0159763
773.172	0.0157700
773.250	0.0158557
773.328	0.0158205
773.406	0.0156694
773.484	0.0157259
773.562	0.0157838
773.640	0.0159347
773.718	0.0157279
773.797	0.0155676
773.875	0.0157430
773.953	0.0158382
774.031	0.0156389
774.109	0.0157043
774.187	0.0156540
774.265	0.0156426
774.343	0.0157442
774.422	0.0157246
774.500	0.0158001
774.578	0.0155836
774.656	0.0155670
774.734	0.0155791
774.812	0.0156007
774.890	0.0155815
774.968	0.0156187
775.047	0.0156273
775.125	0.0157406
775.203	0.0155296
775.281	0.0156300
775.359	0.0157024
775.437	0.0156477
775.515	0.0156696
775.593	0.0155721
775.672	0.0156981
775.750	0.0156849
775.828	0.0155521
775.906	0.0156576
775.984	0.0157058
776.062	0.0157848
776.140	0.0156075
776.218	0.0157435
776.297	0.0157697
776.375	0.0158562
776.453	0.0158360
776.531	0.0158573
776.609	0.0155962
776.687	0.0156335
776.765	0.0157529
776.843	0.0157502
776.922	0.0156615
777.000	0.0156687
777.078	0.0155926
777.156	0.0155930
777.234	0.0155999
777.312	0.0157510
777.390	0.0156920
777.468	0.0156485
777.547	0.0157514
777.625	0.0156843
777.703	0.0156017
777.781	0.0156035
777.859	0.0157734
777.937	0.0156379
778.015	0.0157781
778.093	0.0157251
778.172	0.0156677
778.250	0.0158108
778.328	0.0156843
778.406	0.0155832
778.484	0.0156100
778.562	0.0157722
778.640	0.0156611
778.718	0.0156300
778.797	0.0156599
778.875	0.0156962
778.953	0.0157887
779.031	0.0156429
779.109	0.0157228
779.187	0.0156286
779.265	0.0157568
779.343	0.0156809
779.422	0.0157539
779.500	0.0158313
779.578	0.0158082
779.656	0.0158321
779.734	0.0157613
779.812	0.0156332
779.890	0.0155974
779.968	0.0156666
780.047	0.0156919
780.125	0.0158009
780.203	0.0155908
780.281	0.0157352
780.359	0.0157074
780.437	0.0156252
780.515	0.0156901
780.593	0.0156576
780.672	0.0155991
780.750	0.0156355
780.828	0.0157876
780.906	0.0157937
780.984	0.0155993
781.062	0.0155904
781.140	0.0156664
781.218	0.0156494
781.297	0.0156546
781.375	0.0156474
781.453	0.0156699
781.531	0.0156539
781.609	0.0156416
781.687	0.0156581
781.765	0.0155450
781.843	0.0156215
781.922	0.0156497
782.000	0.0155516
782.078	0.0156895
782.156	0.0155025
782.234	0.0155518
782.312	0.0155917
782.390	0.0157364
782.468	0.0157726
782.547	0.0156113
782.625	0.0156790
782.703	0.0156675
782.781	0.0157328
782.859	0.0156509
782.937	0.0155975
783.015	0.0156941
783.093	0.0156582
783.172	0.0158012
783.250	0.0158443
783.328	0.0156374
783.406	0.0157025
783.484	0.0155481
783.562	0.0157880
783.640	0.0158365
783.718	0.0157829
783.797	0.0154803
783.875	0.0154823
783.953	0.0158302
784.031	0.0156238
784.109	0.0156339
784.187	0.0156149
784.265	0.0155113
784.343	0.0154948
784.422	0.0157065
784.500	0.0157443
784.578	0.0155579
784.656	0.0156541
784.734	0.0158112
784.812	0.0155718
784.890	0.0155875
784.968	0.0156145
785.047	0.0155329
785.125	0.0155103
785.203	0.0155972
785.281	0.0155391
785.359	0.0155218
785.437	0.0156169
785.515	0.0156022
785.593	0.0156255
785.672	0.0154892
785.750	0.0156775
785.828	0.0156225
785.906	0.0156234
785.984	0.0156357
786.062	0.0154214
786.140	0.0154701
786.218	0.0155119
786.297	0.0154979
786.375	0.0155732
786.453	0.0155941
786.531	0.0156066
786.609	0.0155087
786.687	0.0155197
786.765	0.0156271
786.843	0.0155114
786.922	0.0155529
787.000	0.0156216
787.078	0.0156746
787.156	0.0157611
787.234	0.0157621
787.312	0.0157107
787.390	0.0156937
787.468	0.0157410
787.547	0.0157378
787.625	0.0157014
787.703	0.0157511
787.781	0.0157561
787.859	0.0158394
787.937	0.0156573
788.015	0.0157161
788.093	0.0156956
788.172	0.0155872
788.250	0.0157008
788.328	0.0156932
788.406	0.0156945
788.484	0.0157150
788.562	0.0156641
788.640	0.0155988
788.718	0.0156484
788.797	0.0156799
788.875	0.0156927
788.953	0.0157797
789.031	0.0157542
789.109	0.0155529
789.187	0.0157850
789.265	0.0156622
789.343	0.0156882
789.422	0.0156644
789.500	0.0156635
789.578	0.0158135
789.656	0.0155477
789.734	0.0156818
789.812	0.0157056
789.890	0.0156837
789.968	0.0156575
790.047	0.0156970
790.125	0.0157192
790.203	0.0155930
790.281	0.0156282
790.359	0.0157787
790.437	0.0156248
790.515	0.0156367
790.593	0.0155681
790.672	0.0156184
790.750	0.0157750
790.828	0.0157053
790.906	0.0156998
790.984	0.0156770
791.062	0.0156099
791.140	0.0157245
791.218	0.0157382
791.297	0.0157640
791.375	0.0157964
791.453	0.0156512
791.531	0.0156833
791.609	0.0157448
791.687	0.0156522
791.765	0.0156540
791.843	0.0157001
791.922	0.0157037
792.000	0.0157748
792.078	0.0157523
792.156	0.0155397
792.234	0.0156580
792.312	0.0157662
792.390	0.0157605
792.468	0.0156181
792.547	0.0155422
792.625	0.0156631
792.703	0.0155403
792.781	0.0154974
792.859	0.0156121
792.937	0.0157479
793.015	0.0156497
793.093	0.0157596
793.172	0.0155402
793.250	0.0156911
793.328	0.0156661
793.406	0.0157891
793.484	0.0156176
793.562	0.0157796
793.640	0.0156806
793.718	0.0157085
793.797	0.0157080
793.875	0.0156583
793.953	0.0157960
794.031	0.0157558
794.109	0.0157035
794.187	0.0156955
794.265	0.0156600
794.343	0.0156526
794.422	0.0157263
794.500	0.0157177
794.578	0.0157315
794.656	0.0156773
794.734	0.0156566
794.812	0.0157132
794.890	0.0156184
794.968	0.0156303
795.047	0.0157063
795.125	0.0157168
795.203	0.0157063
795.281	0.0158370
795.359	0.0157976
795.437	0.0157002
795.515	0.0155841
795.593	0.0156698
795.672	0.0158170
795.750	0.0158132
795.828	0.0157845
795.906	0.0157509
795.984	0.0156496
796.062	0.0156728
796.140	0.0158162
796.218	0.0157571
796.297	0.0156951
796.375	0.0156715
796.453	0.0157334
796.531	0.0156798
796.609	0.0157252
796.687	0.0156353
796.765	0.0157801
796.843	0.0156680
796.922	0.0157037
797.000	0.0159031
797.078	0.0157335
797.156	0.0156281
797.234	0.0157260
797.312	0.0155300
797.390	0.0156486
797.468	0.0155897
797.547	0.0155856
797.625	0.0156801
797.703	0.0156354
797.781	0.0157162
797.859	0.0156454
797.937	0.0156361
798.015	0.0156492
798.093	0.0156825
798.172	0.0156097
798.250	0.0157188
798.328	0.0157813
798.406	0.0157146
798.484	0.0157333
798.562	0.0157106
798.640	0.0157087
798.718	0.0157160
798.797	0.0156845
798.875	0.0157584
798.953	0.0157590
799.031	0.0158451
799.109	0.0157856
799.187	0.0157024
799.265	0.0157195
799.343	0.0157496
799.422	0.0157393
799.500	0.0158228
799.578	0.0158455
799.656	0.0157169
799.734	0.0157456
799.812	0.0159588
799.890	0.0157155
799.968	0.0157353
800.047	0.0158887
800.125	0.0156560
800.203	0.0158070
800.281	0.0158077
800.359	0.0157400
800.437	0.0157339
800.515	0.0158695
800.593	0.0157440
800.672	0.0157419
800.750	0.0157473
800.828	0.0158050
800.906	0.0156719
800.984	0.0155673
801.062	0.0156039
801.140	0.0156619
801.218	0.0156249
801.297	0.0156664
801.375	0.0156814
801.453	0.0156029
801.531	0.0155862
801.609	0.0156213
801.687	0.0156175
801.765	0.0156580
801.843	0.0157324
801.922	0.0157835
802.000	0.0156803
802.078	0.0157292
802.156	0.0157796
802.234	0.0157066
802.312	0.0155827
802.390	0.0158112
802.468	0.0157885
802.547	0.0156708
802.625	0.0157712
802.703	0.0157072
802.781	0.0157717
802.859	0.0157437
802.937	0.0158075
803.015	0.0157155
803.093	0.0155972
803.172	0.0157178
803.250	0.0156734
803.328	0.0157601
803.406	0.0158485
803.484	0.0157076
803.562	0.0156346
803.640	0.0157137
803.718	0.0156300
803.797	0.0157701
803.875	0.0157133
803.953	0.0158289
804.031	0.0157308
804.109	0.0156294
804.187	0.0156422
804.265	0.0157827
804.343	0.0157103
804.422	0.0156863
804.500	0.0157360
804.578	0.0156634
804.656	0.0155933
804.734	0.0156867
804.812	0.0157061
804.890	0.0156544
804.968	0.0156902
805.047	0.0156177
805.125	0.0156331
805.203	0.0156757
805.281	0.0157207
805.359	0.0157858
805.437	0.0157685
805.515	0.0156800
805.593	0.0157001
805.672	0.0156777
805.750	0.0156471
805.828	0.0157323
805.906	0.0157081
805.984	0.0156803
806.062	0.0158195
806.140	0.0156957
806.218	0.0155652
806.297	0.0156181
806.375	0.0156017
806.453	0.0156225
806.531	0.0157102
806.609	0.0156886
806.687	0.0157774
806.765	0.0156660
806.843	0.0157141
806.922	0.0157201
807.000	0.0157979
807.078	0.0158143
807.156	0.0156332
807.234	0.0156691
807.312	0.0157819
807.390	0.0158219
807.468	0.0156771
807.547	0.0156672
807.625	0.0157788
807.703	0.0156712
807.781	0.0157191
807.859	0.0158194
807.937	0.0158612
808.015	0.0157314
808.093	0.0157348
808.172	0.0155674
808.250	0.0157668
808.328	0.0158721
808.406	0.0156873
808.484	0.0156219
808.562	0.0156467
808.640	0.0156532
808.718	0.0158414
808.797	0.0157276
808.875	0.0156972
808.953	0.0156770
809.031	0.0155924
809.109	0.0157408
809.187	0.0156867
809.265	0.0156418
809.343	0.0155885
809.422	0.0156707
809.500	0.0155341
809.578	0.0156497
809.656	0.0155696
809.734	0.0156884
809.812	0.0156446
809.890	0.0156519
809.968	0.0156325
810.047	0.0155772
810.125	0.0155820
810.203	0.0156498
810.281	0.0158067
810.359	0.0156223
810.437	0.0156448
810.515	0.0157155
810.593	0.0156858
810.672	0.0155962
810.750	0.0156216
810.828	0.0157795
810.906	0.0158541
810.984	0.0156197
811.062	0.0155923
811.140	0.0157972
811.218	0.0156150
811.297	0.0156734
811.375	0.0157701
811.453	0.0157614
811.531	0.0159125
811.609	0.0157513
811.687	0.0155539
811.765	0.0156985
811.843	0.0157048
811.922	0.0157552
812.000	0.0157497
812.078	0.0156766
812.156	0.0156919
812.234	0.0157961
812.312	0.0157432
812.390	0.0157216
812.468	0.0156957
812.547	0.0157178
812.625	0.0156754
812.703	0.0157158
812.781	0.0156779
812.859	0.0155955
812.937	0.0156603
813.015	0.0156988
813.093	0.0156614
813.172	0.0157299
813.250	0.0157993
813.328	0.0157570
813.406	0.0156559
813.484	0.0157930
813.562	0.0157391
813.640	0.0157701
813.718	0.0157606
813.797	0.0157716
813.875	0.0158800
813.953	0.0157896
814.031	0.0157539
814.109	0.0158242
814.187	0.0157080
814.265	0.0156864
814.343	0.0157993
814.422	0.0157616
814.500	0.0158146
814.578	0.0157598
814.656	0.0156609
814.734	0.0157307
814.812	0.0158096
814.890	0.0158656
814.968	0.0158157
815.047	0.0157696
815.125	0.0158388
815.203	0.0157326
815.281	0.0158387
815.359	0.0156966
815.437	0.0157500
815.515	0.0158890
815.593	0.0156502
815.672	0.0156300
815.750	0.0157144
815.828	0.0157808
815.906	0.0157385
815.984	0.0156617
816.062	0.0155679
816.140	0.0156658
816.218	0.0157107
816.297	0.0156055
816.375	0.0157066
816.453	0.0157523
816.531	0.0155638
816.609	0.0156736
816.687	0.0157332
816.765	0.0156716
816.843	0.0157655
816.922	0.0157264
817.000	0.0157289
817.078	0.0156255
817.156	0.0158454
817.234	0.0156615
817.312	0.0157401
817.390	0.0157302
817.468	0.0157005
817.547	0.0157588
817.625	0.0157535
817.703	0.0157384
817.781	0.0156972
817.859	0.0158479
817.937	0.0157381
818.015	0.0157207
818.093	0.0157427
818.172	0.0157241
818.250	0.0155991
818.328	0.0157861
818.406	0.0157111
818.484	0.0158162
818.562	0.0157232
818.640	0.0155993
818.718	0.0157056
818.797	0.0157188
818.875	0.0156584
818.953	0.0157365
819.031	0.0156372
819.109	0.0156289
819.187	0.0157267
819.265	0.0156765
819.343	0.0156960
819.422	0.0158054
819.500	0.0156505
819.578	0.0156318
819.656	0.0156421
819.734	0.0157021
819.812	0.0158137
819.890	0.0155931
819.968	0.0155419
820.047	0.0157839
820.125	0.0156874
820.203	0.0156364
820.281	0.0156430
820.359	0.0156837
820.437	0.0157581
820.515	0.0156947
820.593	0.0156525
820.672	0.0157251
820.750	0.0157653
820.828	0.0157194
820.906	0.0157828
820.984	0.0156456
821.062	0.0157251
821.140	0.0156228
821.218	0.0157080
821.297	0.0156644
821.375	0.0156454
821.453	0.0157479
821.531	0.0156577
821.609	0.0155810
821.687	0.0156861
821.765	0.0157518
821.843	0.0156866
821.922	0.0156743
822.000	0.0156098
822.078	0.0156853
822.156	0.0156222
822.234	0.0156831
822.312	0.0156194
822.390	0.0156245
822.468	0.0156898
822.547	0.0155595
822.625	0.0156435
822.703	0.0157281
822.781	0.0158920
822.859	0.0156819
822.937	0.0156943
823.015	0.0156967
823.093	0.0157343
823.172	0.0156500
823.250	0.0156291
823.328	0.0157744
823.406	0.0157108
823.484	0.0155177
823.562	0.0157789
823.640	0.0156594
823.718	0.0155892
823.797	0.0157096
823.875	0.0156436
823.953	0.0155481
824.031	0.0157402
824.109	0.0157376
824.187	0.0157302
824.265	0.0155821
824.343	0.0156206
824.422	0.0156295
824.500	0.0157747
824.578	0.0157857
824.656	0.0157587
824.734	0.0156900
824.812	0.0156766
824.890	0.0157920
824.968	0.0157756
825.047	0.0158011
825.125	0.0156631
825.203	0.0156653
825.281	0.0158818
825.359	0.0156341
825.437	0.0157349
825.515	0.0156225
825.593	0.0156860
825.672	0.0156584
825.750	0.0156023
825.828	0.0157073
825.906	0.0155703
825.984	0.0156787
826.062	0.0158318
826.140	0.0157755
826.218	0.0156951
826.297	0.0157547
826.375	0.0156429
826.453	0.0156115
826.531	0.0157224
826.609	0.0157265
826.687	0.0155677
826.765	0.0156734
826.843	0.0155686
826.922	0.0156332
827.000	0.0157480
827.078	0.0157574
827.156	0.0156123
827.234	0.0157298
827.312	0.0157394
827.390	0.0158363
827.468	0.0158393
827.547	0.0158205
827.625	0.0157856
827.703	0.0157347
827.781	0.0156415
827.859	0.0157112
827.937	0.0156204
828.015	0.0156545
828.093	0.0156549
828.172	0.0156748
828.250	0.0156110
828.328	0.0155861
828.406	0.0155760
828.484	0.0155913
828.562	0.0157419
828.640	0.0157244
828.718	0.0156763
828.797	0.0157296
828.875	0.0157114
828.953	0.0156776
829.031	0.0156455
829.109	0.0156577
829.187	0.0156651
829.265	0.0157895
829.343	0.0156440
829.422	0.0156296
829.500	0.0156696
829.578	0.0157024
829.656	0.0158721
829.734	0.0155926
829.812	0.0156119
829.890	0.0158520
829.968	0.0157775
830.047	0.0157587
830.125	0.0156643
830.203	0.0156547
830.281	0.0157368
830.359	0.0157319
830.437	0.0156972
830.515	0.0157771
830.593	0.0157466
830.672	0.0157220
830.750	0.0157359
830.828	0.0155424
830.906	0.0156451
830.984	0.0156236
831.062	0.0156532
831.140	0.0156292
831.218	0.0156158
831.297	0.0156944
831.375	0.0156220
831.453	0.0157081
831.531	0.0156501
831.609	0.0157340
831.687	0.0156012
831.765	0.0156473
831.843	0.0157887
831.922	0.0157481
832.000	0.0157365
832.078	0.0156148
832.156	0.0156836
832.234	0.0157470
832.312	0.0157298
832.390	0.0155299
832.468	0.0156497
832.547	0.0157377
832.625	0.0155664
832.703	0.0158105
832.781	0.0156380
832.859	0.0157003
832.937	0.0157576
833.015	0.0157705
833.093	0.0157658
833.172	0.0157650
833.250	0.0158162
833.328	0.0157439
833.406	0.0157029
833.484	0.0158778
833.562	0.0157668
833.640	0.0157656
833.718	0.0157513
833.797	0.0157213
833.875	0.0157429
833.953	0.0157184
834.031	0.0157280
834.109	0.0156413
834.187	0.0157726
834.265	0.0156949
834.343	0.0157011
834.422	0.0155883
834.500	0.0156902
834.578	0.0157365
834.656	0.0157076
834.734	0.0155676
834.812	0.0156365
834.890	0.0156747
834.968	0.0157118
835.047	0.0156688
835.125	0.0156634
835.203	0.0156100
835.281	0.0156358
835.359	0.0155766
835.437	0.0156438
835.515	0.0155965
835.593	0.0157603
835.672	0.0156906
835.750	0.0157404
835.828	0.0156451
835.906	0.0157453
835.984	0.0156585
836.062	0.0158140
836.140	0.0157060
836.218	0.0155550
836.297	0.0156851
836.375	0.0157856
836.453	0.0156676
836.531	0.0156779
836.609	0.0157317
836.687	0.0157142
836.765	0.0156547
836.843	0.0156687
836.922	0.0157375
837.000	0.0154699
837.078	0.0157555
837.156	0.0157240
837.234	0.0157322
837.312	0.0156973
837.390	0.0155783
837.468	0.0156139
837.547	0.0155820
837.625	0.0156552
837.703	0.0155985
837.781	0.0155585
837.859	0.0157117
837.937	0.0155781
838.015	0.0157504
838.093	0.0156261
838.172	0.0155653
838.250	0.0157938
838.328	0.0156252
838.406	0.0156441
838.484	0.0156870
838.562	0.0156229
838.640	0.0156744
838.718	0.0158295
838.797	0.0156840
838.875	0.0156693
838.953	0.0157758
839.031	0.0157462
839.109	0.0157307
839.187	0.0158199
839.265	0.0158469
839.343	0.0158049
839.422	0.0156529
839.500	0.0157018
839.578	0.0157948
839.656	0.0156356
839.734	0.0156458
839.812	0.0157510
839.890	0.0158334
839.968	0.0156792
840.047	0.0155819
840.125	0.0157700
840.203	0.0156882
840.281	0.0156761
840.359	0.0155552
840.437	0.0156174
840.515	0.0156963
840.593	0.0155481
840.672	0.0157526
840.750	0.0156918
840.828	0.0156095
840.906	0.0156838
840.984	0.0158388
841.062	0.0156812
841.140	0.0157594
841.218	0.0157157
841.297	0.0155508
841.375	0.0156773
841.453	0.0156722
841.531	0.0156702
841.609	0.0157280
841.687	0.0156435
841.765	0.0155938
841.843	0.0156286
841.922	0.0156863
842.000	0.0156483
842.078	0.0156373
842.156	0.0157840
842.234	0.0156281
842.312	0.0155402
842.390	0.0156920
842.468	0.0155381
842.547	0.0155048
842.625	0.0157591
842.703	0.0157034
842.781	0.0158392
842.859	0.0156749
842.937	0.0156233
843.015	0.0156329
843.093	0.0157136
843.172	0.0157811
843.250	0.0156556
843.328	0.0156980
843.406	0.0156612
843.484	0.0156388
843.562	0.0157017
843.640	0.0157345
843.718	0.0156197
843.797	0.0157629
843.875	0.0158189
843.953	0.0156818
844.031	0.0155798
844.109	0.0156965
844.187	0.0158183
844.265	0.0158192
844.343	0.0156702
844.422	0.0156347
844.500	0.0156398
844.578	0.0156499
844.656	0.0156278
844.734	0.0156498
844.812	0.0157372
844.890	0.0156651
844.968	0.0157803
845.047	0.0157425
845.125	0.0156902
845.203	0.0157618
845.281	0.0158040
845.359	0.0157067
845.437	0.0156203
845.515	0.0156432
845.593	0.0157841
845.672	0.0157114
845.750	0.0156534
845.828	0.0156922
845.906	0.0157668
845.984	0.0157189
846.062	0.0157270
846.140	0.0154893
846.218	0.0156368
846.297	0.0157803
846.375	0.0158241
846.453	0.0157271
846.531	0.0157295
846.609	0.0157675
846.687	0.0157632
846.765	0.0156191
846.843	0.0157780
846.922	0.0156682
847.000	0.0155643
847.078	0.0156686
847.156	0.0157651
847.234	0.0157131
847.312	0.0155487
847.390	0.0156521
847.468	0.0156831
847.547	0.0155833
847.625	0.0155814
847.703	0.0155325
847.781	0.0155912
847.859	0.0156097
847.937	0.0157053
848.015	0.0157555
848.093	0.0155059
848.172	0.0155932
848.250	0.0156562
848.328	0.0157041
848.406	0.0156898
848.484	0.0156245
848.562	0.0157972
848.640	0.0157329
848.718	0.0157702
848.797	0.0156872
848.875	0.0158026
848.953	0.0158147
849.031	0.0157588
849.109	0.0158115
849.187	0.0158968
849.265	0.0157002
849.343	0.0157845
849.422	0.0157994
849.500	0.0157791
849.578	0.0157660
849.656	0.0156010
849.734	0.0156564
849.812	0.0157430
849.890	0.0156596
849.968	0.0157645
850.047	0.0157198
850.125	0.0156165
850.203	0.0156703
850.281	0.0157798
850.359	0.0155659
850.437	0.0155549
850.515	0.0156198
850.593	0.0156652
850.672	0.0156171
850.750	0.0155653
850.828	0.0155383
850.906	0.0156319
850.984	0.0157390
851.062	0.0154782
851.140	0.0155779
851.218	0.0157011
851.297	0.0157172
851.375	0.0157207
851.453	0.0158913
851.531	0.0157722
851.609	0.0156742
851.687	0.0157243
851.765	0.0157278
851.843	0.0156436
851.922	0.0156509
852.000	0.0157718
852.078	0.0156971
852.156	0.0157742
852.234	0.0156158
852.312	0.0157732
852.390	0.0158117
852.468	0.0157511
852.547	0.0159196
852.625	0.0158044
852.703	0.0157072
852.781	0.0156595
852.859	0.0157266
852.937	0.0157635
853.015	0.0158127
853.093	0.0159442
853.172	0.0156361
853.250	0.0156470
853.328	0.0157967
853.406	0.0156329
853.484	0.0155418
853.562	0.0156942
853.640	0.0156080
853.718	0.0155653
853.797	0.0156104
853.875	0.0156648
853.953	0.0156815
854.031	0.0156067
854.109	0.0155334
854.187	0.0156475
854.265	0.0156620
854.343	0.0156267
854.422	0.0156529
854.500	0.0157387
854.578	0.0156717
854.656	0.0156649
854.734	0.0156763
854.812	0.0156094
854.890	0.0157699
854.968	0.0156059
855.047	0.0156498
855.125	0.0156239
855.203	0.0155194
855.281	0.0158020
855.359	0.0156317
855.437	0.0156107
855.515	0.0158764
855.593	0.0157907
855.672	0.0156036
855.750	0.0156876
855.828	0.0156507
855.906	0.0158157
855.984	0.0157198
856.062	0.0157693
856.140	0.0158064
856.218	0.0157585
856.297	0.0158479
856.375	0.0157220
856.453	0.0157975
856.531	0.0159251
856.609	0.0157809
856.687	0.0157043
856.765	0.0157687
856.843	0.0157803
856.922	0.0156751
857.000	0.0157966
857.078	0.0158639
857.156	0.0156901
857.234	0.0157495
857.312	0.0157544
857.390	0.0156768
857.468	0.0157334
857.547	0.0158280
857.625	0.0155931
857.703	0.0156351
857.781	0.0157806
857.859	0.0156015
857.937	0.0156190
858.015	0.0157448
858.093	0.0156654
858.172	0.0155543
858.250	0.0156928
858.328	0.0156349
858.406	0.0157040
858.484	0.0156197
858.562	0.0156731
858.640	0.0156272
858.718	0.0155899
858.797	0.0156940
858.875	0.0156207
858.953	0.0156033
859.031	0.0156832
859.109	0.0158046
859.187	0.0158057
859.265	0.0157437
859.343	0.0156274
859.422	0.0157162
859.500	0.0156953
859.578	0.0157353
859.656	0.0156681
859.734	0.0155413
859.812	0.0157539
859.890	0.0157017
859.968	0.0156373
860.047	0.0156210
860.125	0.0156667
860.203	0.0156964
860.281	0.0156241
860.359	0.0156947
860.437	0.0156713
860.515	0.0156133
860.593	0.0157439
860.672	0.0156832
860.750	0.0156903
860.828	0.0158278
860.906	0.0157590
860.984	0.0156718
861.062	0.0159012
861.140	0.0157275
861.218	0.0158563
861.297	0.0159197
861.375	0.0159414
861.453	0.0157897
861.531	0.0157835
861.609	0.0158831
861.687	0.0158323
861.765	0.0158632
861.843	0.0157691
861.922	0.0158438
862.000	0.0157871
862.078	0.0156963
862.156	0.0156918
862.234	0.0157366
862.312	0.0156638
862.390	0.0156185
862.468	0.0155885
862.547	0.0156600
862.625	0.0156882
862.703	0.0155810
862.781	0.0157482
862.859	0.0155743
862.937	0.0154233
863.015	0.0155582
863.093	0.0156763
863.172	0.0157544
863.250	0.0157499
863.328	0.0155962
863.406	0.0157219
863.484	0.0155647
863.562	0.0155814
863.640	0.0157265
863.718	0.0157190
863.797	0.0156575
863.875	0.0156848
863.953	0.0157104
864.031	0.0156784
864.109	0.0157752
864.187	0.0156748
864.265	0.0156173
864.343	0.0158134
864.422	0.0157781
864.500	0.0158513
864.578	0.0156534
864.656	0.0156769
864.734	0.0158134
864.812	0.0157449
864.890	0.0158197
864.968	0.0158363
865.047	0.0158289
865.125	0.0158243
865.203	0.0158451
865.281	0.0159515
865.359	0.0157679
865.437	0.0158022
865.515	0.0157622
865.593	0.0157450
865.672	0.0156818
865.750	0.0157769
865.828	0.0158101
865.906	0.0157036
865.984	0.0156216
866.062	0.0155259
866.140	0.0155445
866.218	0.0156859
866.297	0.0156882
866.375	0.0155891
866.453	0.0156073
866.531	0.0155642
866.609	0.0157092
866.687	0.0156458
866.765	0.0156113
866.843	0.0155604
866.922	0.0154900
867.000	0.0155338
867.078	0.0156259
867.156	0.0155876
867.234	0.0156026
867.312	0.0156921
867.390	0.0157729
867.468	0.0157378
867.547	0.0159248
867.625	0.0157644
867.703	0.0159576
867.781	0.0158695
867.859	0.0157932
867.937	0.0158085
868.015	0.0158096
868.093	0.0159403
868.172	0.0158952
868.250	0.0158174
868.328	0.0156344
868.406	0.0156896
868.484	0.0156535
868.562	0.0157812
868.640	0.0158024
868.718	0.0156429
868.797	0.0156890
868.875	0.0156606
868.953	0.0157094
869.031	0.0156947
869.109	0.0157004
869.187	0.0157257
869.265	0.0156303
869.343	0.0156827
869.422	0.0156437
869.500	0.0156686
869.578	0.0156834
869.656	0.0157368
869.734	0.0158786
869.812	0.0157447
869.890	0.0156305
869.968	0.0159264
870.047	0.0158506
870.125	0.0158072
870.203	0.0156741
870.281	0.0156218
870.359	0.0158500
870.437	0.0156670
870.515	0.0155610
870.593	0.0156614
870.672	0.0155767
870.750	0.0157999
870.828	0.0155658
870.906	0.0157737
870.984	0.0157218
871.062	0.0156315
871.140	0.0157574
871.218	0.0157626
871.297	0.0157438
871.375	0.0157040
871.453	0.0157282
871.531	0.0158041
871.609	0.0156839
871.687	0.0156355
871.765	0.0155990
871.843	0.0157195
871.922	0.0157353
872.000	0.0157249
872.078	0.0155441
872.156	0.0156883
872.234	0.0156853
872.312	0.0156921
872.390	0.0155558
872.468	0.0157809
872.547	0.0157156
872.625	0.0156398
872.703	0.0157144
872.781	0.0157024
872.859	0.0157416
872.937	0.0157735
873.015	0.0157383
873.093	0.0157871
873.172	0.0159158
873.250	0.0157663
873.328	0.0157474
873.406	0.0155807
873.484	0.0156604
873.562	0.0158108
873.640	0.0156609
873.718	0.0155881
873.797	0.0156879
873.875	0.0156947
873.953	0.0157720
874.031	0.0156844
874.109	0.0155220
874.187	0.0157278
874.265	0.0155302
874.343	0.0155091
874.422	0.0154639
874.500	0.0154933
874.578	0.0156575
874.656	0.0156802
874.734	0.0156593
874.812	0.0155634
874.890	0.0155180
874.968	0.0156675
875.047	0.0155891
875.125	0.0155221
875.203	0.0156219
875.281	0.0156166
875.359	0.0154613
875.437	0.0157479
875.515	0.0157150
875.593	0.0159095
875.672	0.0157427
875.750	0.0158064
875.828	0.0159235
875.906	0.0159103
875.984	0.0157935
876.062	0.0158706
876.140	0.0158350
876.218	0.0158990
876.297	0.0159386
876.375	0.0158065
876.453	0.0157506
876.531	0.0158109
876.609	0.0158949
876.687	0.0157765
876.765	0.0158229
876.843	0.0157301
876.922	0.0157796
877.000	0.0156668
877.078	0.0156824
877.156	0.0156310
877.234	0.0156536
877.312	0.0156472
877.390	0.0155453
877.468	0.0156837
877.547	0.0156400
877.625	0.0155327
877.703	0.0153839
877.781	0.0156234
877.859	0.0153970
877.937	0.0153719
878.015	0.0154144
878.093	0.0154826
878.172	0.0154852
878.250	0.0153928
878.328	0.0154287
878.406	0.0155270
878.484	0.0155244
878.562	0.0155482
878.640	0.0155904
878.718	0.0156112
878.797	0.0155396
878.875	0.0157228
878.953	0.0156796
879.031	0.0155479
879.109	0.0157548
879.187	0.0157367
879.265	0.0158511
879.343	0.0157262
879.422	0.0157992
879.500	0.0156750
879.578	0.0157845
879.656	0.0158244
879.734	0.0158656
879.812	0.0159028
879.890	0.0157996
879.968	0.0156902
880.047	0.0158459
880.125	0.0156229
880.203	0.0156781
880.281	0.0156161
880.359	0.0157946
880.437	0.0158144
880.515	0.0157088
880.593	0.0158846
880.672	0.0157990
880.750	0.0158060
880.828	0.0157816
880.906	0.0158866
880.984	0.0158524
881.062	0.0156364
881.140	0.0156647
881.218	0.0155719
881.297	0.0156714
881.375	0.0157969
881.453	0.0157046
881.531	0.0157250
881.609	0.0156551
881.687	0.0153957
881.765	0.0154845
881.843	0.0155939
881.922	0.0154619
882.000	0.0156021
882.078	0.0155586
882.156	0.0156156
882.234	0.0155627
882.312	0.0156031
882.390	0.0154157
882.468	0.0155488
882.547	0.0155159
882.625	0.0155943
882.703	0.0156881
882.781	0.0155537
882.859	0.0156020
882.937	0.0157705
883.015	0.0156293
883.093	0.0155827
883.172	0.0157666
883.250	0.0157677
883.328	0.0156213
883.406	0.0157507
883.484	0.0156062
883.562	0.0157610
883.640	0.0157430
883.718	0.0157552
883.797	0.0156581
883.875	0.0158073
883.953	0.0157571
884.031	0.0156153
884.109	0.0156361
884.187	0.0157233
884.265	0.0158338
884.343	0.0157173
884.422	0.0158648
884.500	0.0157610
884.578	0.0156549
884.656	0.0158649
884.734	0.0155577
884.812	0.0156612
884.890	0.0157911
884.968	0.0156808
885.047	0.0156594
885.125	0.0156662
885.203	0.0156036
885.281	0.0157034
885.359	0.0156113
885.437	0.0156055
885.515	0.0156915
885.593	0.0156779
885.672	0.0154649
885.750	0.0156446
885.828	0.0155975
885.906	0.0155554
885.984	0.0155360
886.062	0.0157141
886.140	0.0156752
886.218	0.0155929
886.297	0.0155988
886.375	0.0155605
886.453	0.0155641
886.531	0.0156082
886.609	0.0156641
886.687	0.0158401
886.765	0.0158306
886.843	0.0157383
886.922	0.0157650
887.000	0.0157669
887.078	0.0157858
887.156	0.0158122
887.234	0.0157279
887.312	0.0158181
887.390	0.0158132
887.468	0.0158765
887.547	0.0157429
887.625	0.0158372
887.703	0.0157195
887.781	0.0157593
887.859	0.0157675
887.937	0.0155547
888.015	0.0157368
888.093	0.0156768
888.172	0.0155633
888.250	0.0157317
888.328	0.0155722
888.406	0.0156693
888.484	0.0156094
888.562	0.0155394
888.640	0.0155202
888.718	0.0156277
888.797	0.0156015
888.875	0.0156854
888.953	0.0156280
889.031	0.0155453
889.109	0.0156026
889.187	0.0156456
889.265	0.0157194
889.343	0.0155039
889.422	0.0155544
889.500	0.0156209
889.578	0.0155379
889.656	0.0154853
889.734	0.0156536
889.812	0.0155831
889.890	0.0155478
889.968	0.0156454
890.047	0.0156080
890.125	0.0155704
890.203	0.0155560
890.281	0.0157841
890.359	0.0156117
890.437	0.0156447
890.515	0.0156973
890.593	0.0156577
890.672	0.0156216
890.750	0.0156951
890.828	0.0157825
890.906	0.0157169
890.984	0.0158346
891.062	0.0158591
891.140	0.0156954
891.218	0.0157678
891.297	0.0160169
891.375	0.0158232
891.453	0.0159064
891.531	0.0159946
891.609	0.0160043
891.687	0.0158434
891.765	0.0159793
891.843	0.0158528
891.922	0.0158006
892.000	0.0158339
892.078	0.0156791
892.156	0.0157681
892.234	0.0157082
892.312	0.0157479
892.390	0.0156764
892.468	0.0157230
892.547	0.0156059
892.625	0.0156094
892.703	0.0156991
892.781	0.0156658
892.859	0.0156576
892.937	0.0157203
893.015	0.0157423
893.093	0.0156241
893.172	0.0157269
893.250	0.0156386
893.328	0.0156608
893.406	0.0156831
893.484	0.0157365
893.562	0.0157091
893.640	0.0156385
893.718	0.0158035
893.797	0.0157764
893.875	0.0157072
893.953	0.0156477
894.031	0.0157504
894.109	0.0156794
894.187	0.0157970
894.265	0.0158359
894.343	0.0156282
894.422	0.0155286
894.500	0.0156435
894.578	0.0156384
894.656	0.0156544
894.734	0.0157030
894.812	0.0157756
894.890	0.0157313
894.968	0.0156784
895.047	0.0156217
895.125	0.0156760
895.203	0.0158118
895.281	0.0158416
895.359	0.0157318
895.437	0.0157551
895.515	0.0155927
895.593	0.0156898
895.672	0.0157502
895.750	0.0157375
895.828	0.0157226
895.906	0.0156016
895.984	0.0157088
896.062	0.0157288
896.140	0.0156332
896.218	0.0155949
896.297	0.0156677
896.375	0.0155115
896.453	0.0156017
896.531	0.0156661
896.609	0.0155714
896.687	0.0156863
896.765	0.0156423
896.843	0.0155969
896.922	0.0157036
897.000	0.0156519
897.078	0.0156470
897.156	0.0158093
897.234	0.0156882
897.312	0.0156303
897.390	0.0159052
897.468	0.0158530
897.547	0.0157410
897.625	0.0155790
897.703	0.0156009
897.781	0.0157628
897.859	0.0156879
897.937	0.0157233
898.015	0.0156115
898.093	0.0156228
898.172	0.0157199
898.250	0.0156925
898.328	0.0157327
898.406	0.0156348
898.484	0.0156618
898.562	0.0157187
898.640	0.0156546
898.718	0.0156485
898.797	0.0156321
898.875	0.0156882
898.953	0.0158431
899.031	0.0157130
899.109	0.0156654
899.187	0.0157190
899.265	0.0157608
899.343	0.0157786
899.422	0.0156556
899.500	0.0156843
899.578	0.0157125
899.656	0.0157863
899.734	0.0156680
899.812	0.0157029
899.890	0.0157484
899.968	0.0157266
900.047	0.0155458
900.125	0.0155112
900.203	0.0155654
900.281	0.0156715
900.359	0.0155784
900.437	0.0155257
900.515	0.0156477
900.593	0.0155189
900.672	0.0155753
900.750	0.0155527
900.828	0.0155357
900.906	0.0155948
900.984	0.0154510
901.062	0.0155994
901.140	0.0156396
901.218	0.0158044
901.297	0.0157603
901.375	0.0155332
901.453	0.0157318
901.531	0.0157777
901.609	0.0158516
901.687	0.0157734
901.765	0.0157259
901.843	0.0157410
901.922	0.0156455
902.000	0.0157120
902.078	0.0157757
902.156	0.0156406
902.234	0.0157435
902.312	0.0156808
902.390	0.0157149
902.468	0.0156824
902.547	0.0157394
902.625	0.0156393
902.703	0.0156698
902.781	0.0156438
902.859	0.0155798
902.937	0.0157401
903.015	0.0156078
903.093	0.0156864
903.172	0.0157075
903.250	0.0156665
903.328	0.0155998
903.406	0.0156654
903.484	0.0158503
903.562	0.0157246
903.640	0.0156281
903.718	0.0157077
903.797	0.0158161
903.875	0.0157209
903.953	0.0157505
904.031	0.0157739
904.109	0.0157505
904.187	0.0157384
904.265	0.0157121
904.343	0.0157855
904.422	0.0157977
904.500	0.0156390
904.578	0.0158625
904.656	0.0156792
904.734	0.0157523
904.812	0.0157126
904.890	0.0155643
904.968	0.0154884
905.047	0.0156829
905.125	0.0156242
905.203	0.0155943
905.281	0.0154969
905.359	0.0155250
905.437	0.0156313
905.515	0.0154904
905.593	0.0155475
905.672	0.0156358
905.750	0.0156587
905.828	0.0156007
905.906	0.0157309
905.984	0.0158231
906.062	0.0156515
906.140	0.0157918
906.218	0.0159160
906.297	0.0157957
906.375	0.0158079
906.453	0.0159068
906.531	0.0158330
906.609	0.0158192
906.687	0.0157498
906.765	0.0158962
906.843	0.0158710
906.922	0.0157868
907.000	0.0158699
907.078	0.0158512
907.156	0.0157932
907.234	0.0158118
907.312	0.0157826
907.390	0.0157092
907.468	0.0157570
907.547	0.0156881
907.625	0.0155714
907.703	0.0157365
907.781	0.0157696
907.859	0.0157738
907.937	0.0157874
908.015	0.0156726
908.093	0.0155534
908.172	0.0156437
908.250	0.0155891
908.328	0.0158069
908.406	0.0157417
908.484	0.0156264
908.562	0.0156412
908.640	0.0156531
908.718	0.0156041
908.797	0.0156693
908.875	0.0156666
908.953	0.0157993
909.031	0.0156814
909.109	0.0156110
909.187	0.0155860
909.265	0.0157379
909.343	0.0157272
909.422	0.0156285
909.500	0.0156213
909.578	0.0155830
909.656	0.0157465
909.734	0.0157900
909.812	0.0157278
909.890	0.0156133
909.968	0.0157783
910.047	0.0158048
910.125	0.0157710
910.203	0.0156319
910.281	0.0157131
910.359	0.0158040
910.437	0.0158680
910.515	0.0158163
910.593	0.0158050
910.672	0.0155632
910.750	0.0155925
910.828	0.0156663
910.906	0.0156149
910.984	0.0156914
911.062	0.0155672
911.140	0.0155750
911.218	0.0156416
911.297	0.0157001
911.375	0.0156625
911.453	0.0157553
911.531	0.0156013
911.609	0.0156658
911.687	0.0158741
911.765	0.0156992
911.843	0.0156776
911.922	0.0157932
912.000	0.0158096
912.078	0.0157410
912.156	0.0158299
912.234	0.0158073
912.312	0.0158012
912.390	0.0157674
912.468	0.0157349
912.547	0.0158071
912.625	0.0158036
912.703	0.0156980
912.781	0.0157404
912.859	0.0157294
912.937	0.0157464
913.015	0.0157474
913.093	0.0156396
913.172	0.0156722
913.250	0.0156742
913.328	0.0156611
913.406	0.0156575
913.484	0.0156436
913.562	0.0156865
913.640	0.0155494
913.718	0.0156036
913.797	0.0156962
913.875	0.0155992
913.953	0.0156509
914.031	0.0157072
914.109	0.0157315
914.187	0.0155798
914.265	0.0156201
914.343	0.0156672
914.422	0.0158203
914.500	0.0155862
914.578	0.0156663
914.656	0.0155698
914.734	0.0155141
914.812	0.0156674
914.890	0.0156284
914.968	0.0156659
915.047	0.0154926
915.125	0.0156918
915.203	0.0155758
915.281	0.0156699
915.359	0.0156504
915.437	0.0157694
915.515	0.0156834
915.593	0.0157008
915.672	0.0157497
915.750	0.0156371
915.828	0.0156953
915.906	0.0156660
915.984	0.0155953
916.062	0.0156765
916.140	0.0157860
916.218	0.0157953
916.297	0.0157253
916.375	0.0156979
916.453	0.0156622
916.531	0.0157217
916.609	0.0157061
916.687	0.0156699
916.765	0.0155585
916.843	0.0155093
916.922	0.0156339
917.000	0.0156267
917.078	0.0155164
917.156	0.0156601
917.234	0.0156336
917.312	0.0156845
917.390	0.0157197
917.468	0.0156760
917.547	0.0157361
917.625	0.0156376
917.703	0.0156254
917.781	0.0155692
917.859	0.0156931
917.937	0.0158125
918.015	0.0156189
918.093	0.0158112
918.172	0.0156525
918.250	0.0157837
918.328	0.0157172
918.406	0.0157722
918.484	0.0157198
918.562	0.0158532
918.640	0.0156729
918.718	0.0156425
918.797	0.0157176
918.875	0.0157542
918.953	0.0157444
919.031	0.0156255
919.109	0.0156376
919.187	0.0157288
919.265	0.0156801
919.343	0.0156446
919.422	0.0156628
919.500	0.0156205
919.578	0.0157172
919.656	0.0156223
919.734	0.0157606
919.812	0.0157082
919.890	0.0155161
