06/13/2022	15:07:29	Ver.	4.1	UNKNOWN
Optical Delay	599.961724	Delta X		0.078125	Sweeps	1	Scan Rate	0/0
Coordinates	Axis 1	NaN	Axis 2	NaN	Axis 3	NaN	Axis 4	NaN	Axis 5	NaN	Axis 6	0.000000
TX Power	0.000000	RX Power	0.000000

599.962	0.0158488
600.040	0.0159792
600.118	0.0157773
600.196	0.0158315
600.274	0.0157866
600.352	0.0159057
600.430	0.0158025
600.509	0.0158880
600.587	0.0158164
600.665	0.0158273
600.743	0.0158669
600.821	0.0157226
600.899	0.0157913
600.977	0.0159084
601.055	0.0157790
601.134	0.0158818
601.212	0.0157729
601.290	0.0158321
601.368	0.0157893
601.446	0.0158088
601.524	0.0157626
601.602	0.0157113
601.680	0.0157468
601.759	0.0158271
601.837	0.0157792
601.915	0.0158437
601.993	0.0157762
602.071	0.0156965
602.149	0.0157980
602.227	0.0158831
602.305	0.0157741
602.384	0.0158887
602.462	0.0156786
602.540	0.0157687
602.618	0.0155821
602.696	0.0158606
602.774	0.0158042
602.852	0.0157431
602.930	0.0156631
603.009	0.0157234
603.087	0.0158169
603.165	0.0157010
603.243	0.0157305
603.321	0.0156976
603.399	0.0157065
603.477	0.0156744
603.555	0.0156207
603.634	0.0158063
603.712	0.0156599
603.790	0.0157043
603.868	0.0156566
603.946	0.0157680
604.024	0.0157694
604.102	0.0156950
604.180	0.0156826
604.259	0.0157047
604.337	0.0156915
604.415	0.0156991
604.493	0.0157056
604.571	0.0156328
604.649	0.0157636
604.727	0.0156832
604.805	0.0156544
604.884	0.0157453
604.962	0.0156159
605.040	0.0156024
605.118	0.0155922
605.196	0.0157493
605.274	0.0155874
605.352	0.0157467
605.430	0.0157003
605.509	0.0157381
605.587	0.0157236
605.665	0.0156393
605.743	0.0157508
605.821	0.0156380
605.899	0.0157587
605.977	0.0158035
606.055	0.0157005
606.134	0.0155905
606.212	0.0156935
606.290	0.0157504
606.368	0.0157045
606.446	0.0158140
606.524	0.0157242
606.602	0.0156547
606.680	0.0157695
606.759	0.0158063
606.837	0.0156557
606.915	0.0157235
606.993	0.0157687
607.071	0.0157488
607.149	0.0156739
607.227	0.0157590
607.305	0.0157504
607.384	0.0156881
607.462	0.0155821
607.540	0.0156465
607.618	0.0155542
607.696	0.0155811
607.774	0.0156718
607.852	0.0157184
607.930	0.0156226
608.009	0.0155869
608.087	0.0157166
608.165	0.0157381
608.243	0.0155201
608.321	0.0154911
608.399	0.0156089
608.477	0.0158221
608.555	0.0157265
608.634	0.0155960
608.712	0.0156921
608.790	0.0155977
608.868	0.0157547
608.946	0.0156215
609.024	0.0155518
609.102	0.0156013
609.180	0.0156123
609.259	0.0155284
609.337	0.0157600
609.415	0.0155022
609.493	0.0156193
609.571	0.0155480
609.649	0.0155915
609.727	0.0157468
609.805	0.0156462
609.884	0.0156624
609.962	0.0156696
610.040	0.0156065
610.118	0.0157152
610.196	0.0155629
610.274	0.0156377
610.352	0.0156770
610.430	0.0155244
610.509	0.0157725
610.587	0.0158463
610.665	0.0155410
610.743	0.0156138
610.821	0.0157465
610.899	0.0157390
610.977	0.0157347
611.055	0.0156807
611.134	0.0156514
611.212	0.0157406
611.290	0.0156849
611.368	0.0155138
611.446	0.0156043
611.524	0.0157601
611.602	0.0156375
611.680	0.0157295
611.759	0.0156424
611.837	0.0157094
611.915	0.0159120
611.993	0.0157603
612.071	0.0156289
612.149	0.0157213
612.227	0.0156990
612.305	0.0157673
612.384	0.0156458
612.462	0.0157885
612.540	0.0157790
612.618	0.0157454
612.696	0.0156990
612.774	0.0157600
612.852	0.0156679
612.930	0.0156679
613.009	0.0158192
613.087	0.0157694
613.165	0.0156453
613.243	0.0157726
613.321	0.0158279
613.399	0.0157360
613.477	0.0157003
613.555	0.0157697
613.634	0.0156905
613.712	0.0158442
613.790	0.0157858
613.868	0.0158334
613.946	0.0159161
614.024	0.0157747
614.102	0.0158373
614.180	0.0158804
614.259	0.0158447
614.337	0.0158356
614.415	0.0156908
614.493	0.0157944
614.571	0.0159172
614.649	0.0158123
614.727	0.0159113
614.805	0.0157716
614.884	0.0158855
614.962	0.0156573
615.040	0.0157058
615.118	0.0158069
615.196	0.0157813
615.274	0.0158504
615.352	0.0159248
615.430	0.0158620
615.509	0.0158033
615.587	0.0156532
615.665	0.0158798
615.743	0.0158884
615.821	0.0157082
615.899	0.0157511
615.977	0.0157195
616.055	0.0158920
616.134	0.0157950
616.212	0.0157561
616.290	0.0158767
616.368	0.0157801
616.446	0.0159278
616.524	0.0156880
616.602	0.0157939
616.680	0.0159319
616.759	0.0159271
616.837	0.0157554
616.915	0.0157601
616.993	0.0157466
617.071	0.0157335
617.149	0.0158968
617.227	0.0157327
617.305	0.0158420
617.384	0.0157043
617.462	0.0157570
617.540	0.0157919
617.618	0.0159065
617.696	0.0158114
617.774	0.0156948
617.852	0.0158408
617.930	0.0157727
618.009	0.0157090
618.087	0.0158007
618.165	0.0157787
618.243	0.0158906
618.321	0.0157793
618.399	0.0158646
618.477	0.0159272
618.555	0.0158395
618.634	0.0156626
618.712	0.0157361
618.790	0.0157955
618.868	0.0158680
618.946	0.0158218
619.024	0.0158432
619.102	0.0157748
619.180	0.0157298
619.259	0.0157940
619.337	0.0158633
619.415	0.0156902
619.493	0.0157961
619.571	0.0157856
619.649	0.0158569
619.727	0.0156639
619.805	0.0158091
619.884	0.0158160
619.962	0.0158327
620.040	0.0159315
620.118	0.0159470
620.196	0.0158147
620.274	0.0158195
620.352	0.0158486
620.430	0.0159335
620.509	0.0158935
620.587	0.0159120
620.665	0.0157533
620.743	0.0156680
620.821	0.0157125
620.899	0.0158780
620.977	0.0158900
621.055	0.0157887
621.134	0.0158261
621.212	0.0157385
621.290	0.0158430
621.368	0.0158514
621.446	0.0160006
621.524	0.0158962
621.602	0.0157667
621.680	0.0157183
621.759	0.0157889
621.837	0.0157934
621.915	0.0157683
621.993	0.0157786
622.071	0.0158131
622.149	0.0158053
622.227	0.0157619
622.305	0.0158289
622.384	0.0158916
622.462	0.0158157
622.540	0.0156124
622.618	0.0157873
622.696	0.0157144
622.774	0.0157905
622.852	0.0156636
622.930	0.0158059
623.009	0.0157460
623.087	0.0158244
623.165	0.0156873
623.243	0.0157386
623.321	0.0157060
623.399	0.0156870
623.477	0.0158938
623.555	0.0159056
623.634	0.0157388
623.712	0.0158385
623.790	0.0157970
623.868	0.0158276
623.946	0.0157926
624.024	0.0157614
624.102	0.0157928
624.180	0.0158233
624.259	0.0157305
624.337	0.0158106
624.415	0.0159056
624.493	0.0158251
624.571	0.0158848
624.649	0.0158062
624.727	0.0156273
624.805	0.0158137
624.884	0.0159717
624.962	0.0158037
625.040	0.0158196
625.118	0.0158108
625.196	0.0157829
625.274	0.0157255
625.352	0.0157767
625.430	0.0158116
625.509	0.0158481
625.587	0.0156508
625.665	0.0156709
625.743	0.0157681
625.821	0.0158136
625.899	0.0158319
625.977	0.0157280
626.055	0.0156930
626.134	0.0158011
626.212	0.0157767
626.290	0.0157817
626.368	0.0156675
626.446	0.0158524
626.524	0.0156934
626.602	0.0156903
626.680	0.0156830
626.759	0.0157587
626.837	0.0158595
626.915	0.0157860
626.993	0.0155358
627.071	0.0157141
627.149	0.0157185
627.227	0.0157000
627.305	0.0157311
627.384	0.0157338
627.462	0.0156480
627.540	0.0156959
627.618	0.0157384
627.696	0.0158032
627.774	0.0157601
627.852	0.0156955
627.930	0.0157033
628.009	0.0158090
628.087	0.0156738
628.165	0.0157785
628.243	0.0157019
628.321	0.0157269
628.399	0.0156805
628.477	0.0157502
628.555	0.0155920
628.634	0.0157264
628.712	0.0156754
628.790	0.0157104
628.868	0.0157099
628.946	0.0158132
629.024	0.0157381
629.102	0.0156902
629.180	0.0157700
629.259	0.0157588
629.337	0.0156561
629.415	0.0156085
629.493	0.0157234
629.571	0.0155471
629.649	0.0156185
629.727	0.0158475
629.805	0.0157095
629.884	0.0156621
629.962	0.0157025
630.040	0.0155875
630.118	0.0157661
630.196	0.0158721
630.274	0.0155914
630.352	0.0156039
630.430	0.0156867
630.509	0.0158600
630.587	0.0157435
630.665	0.0157150
630.743	0.0157465
630.821	0.0157375
630.899	0.0155846
630.977	0.0157277
631.055	0.0157702
631.134	0.0157838
631.212	0.0156326
631.290	0.0156569
631.368	0.0156830
631.446	0.0156128
631.524	0.0156587
631.602	0.0157597
631.680	0.0156573
631.759	0.0157082
631.837	0.0157579
631.915	0.0158124
631.993	0.0157150
632.071	0.0155762
632.149	0.0156905
632.227	0.0156388
632.305	0.0157673
632.384	0.0157145
632.462	0.0155138
632.540	0.0157821
632.618	0.0156627
632.696	0.0155393
632.774	0.0156172
632.852	0.0156763
632.930	0.0158113
633.009	0.0157581
633.087	0.0156703
633.165	0.0157567
633.243	0.0156357
633.321	0.0156557
633.399	0.0155387
633.477	0.0155781
633.555	0.0156550
633.634	0.0155631
633.712	0.0155695
633.790	0.0157301
633.868	0.0158238
633.946	0.0156799
634.024	0.0155488
634.102	0.0156006
634.180	0.0156673
634.259	0.0155412
634.337	0.0156299
634.415	0.0156428
634.493	0.0157301
634.571	0.0156037
634.649	0.0156573
634.727	0.0156210
634.805	0.0157458
634.884	0.0157763
634.962	0.0156284
635.040	0.0156544
635.118	0.0157668
635.196	0.0156241
635.274	0.0157018
635.352	0.0156661
635.430	0.0156617
635.509	0.0157237
635.587	0.0157844
635.665	0.0156200
635.743	0.0157170
635.821	0.0157116
635.899	0.0157575
635.977	0.0156828
636.055	0.0158302
636.134	0.0157659
636.212	0.0156832
636.290	0.0157295
636.368	0.0158533
636.446	0.0156631
636.524	0.0157290
636.602	0.0157307
636.680	0.0157721
636.759	0.0157921
636.837	0.0157022
636.915	0.0157424
636.993	0.0157004
637.071	0.0156850
637.149	0.0157788
637.227	0.0157169
637.305	0.0156435
637.384	0.0156693
637.462	0.0156178
637.540	0.0156406
637.618	0.0158419
637.696	0.0156915
637.774	0.0157829
637.852	0.0157854
637.930	0.0157826
638.009	0.0156510
638.087	0.0157491
638.165	0.0157561
638.243	0.0158489
638.321	0.0158142
638.399	0.0156899
638.477	0.0157820
638.555	0.0157742
638.634	0.0158659
638.712	0.0157157
638.790	0.0157040
638.868	0.0156990
638.946	0.0157366
639.024	0.0157858
639.102	0.0156341
639.180	0.0156915
639.259	0.0158511
639.337	0.0157079
639.415	0.0157581
639.493	0.0157650
639.571	0.0158132
639.649	0.0157371
639.727	0.0156973
639.805	0.0157607
639.884	0.0158682
639.962	0.0158331
640.040	0.0157616
640.118	0.0158893
640.196	0.0157241
640.274	0.0158765
640.352	0.0157381
640.430	0.0159126
640.509	0.0159130
640.587	0.0158403
640.665	0.0157295
640.743	0.0158046
640.821	0.0157098
640.899	0.0159144
640.977	0.0157894
641.055	0.0158254
641.134	0.0158529
641.212	0.0159113
641.290	0.0158469
641.368	0.0157724
641.446	0.0158245
641.524	0.0158939
641.602	0.0158361
641.680	0.0157647
641.759	0.0157694
641.837	0.0159020
641.915	0.0157299
641.993	0.0158773
642.071	0.0159607
642.149	0.0159361
642.227	0.0158441
642.305	0.0156934
642.384	0.0158147
642.462	0.0158997
642.540	0.0157436
642.618	0.0157123
642.696	0.0158150
642.774	0.0158659
642.852	0.0158250
642.930	0.0158353
643.009	0.0157956
643.087	0.0159650
643.165	0.0159459
643.243	0.0158183
643.321	0.0159462
643.399	0.0159653
643.477	0.0157327
643.555	0.0157583
643.634	0.0158679
643.712	0.0159114
643.790	0.0158768
643.868	0.0158778
643.946	0.0159733
644.024	0.0157781
644.102	0.0158488
644.180	0.0158801
644.259	0.0158783
644.337	0.0157197
644.415	0.0157491
644.493	0.0157645
644.571	0.0158372
644.649	0.0158060
644.727	0.0158968
644.805	0.0157122
644.884	0.0157655
644.962	0.0157793
645.040	0.0158630
645.118	0.0158195
645.196	0.0157030
645.274	0.0159785
645.352	0.0157741
645.430	0.0159711
645.509	0.0158772
645.587	0.0158078
645.665	0.0158375
645.743	0.0158681
645.821	0.0158527
645.899	0.0157578
645.977	0.0159216
646.055	0.0158446
646.134	0.0158817
646.212	0.0158397
646.290	0.0159093
646.368	0.0160104
646.446	0.0158081
646.524	0.0158768
646.602	0.0158588
646.680	0.0157841
646.759	0.0158081
646.837	0.0159861
646.915	0.0158714
646.993	0.0157923
647.071	0.0158121
647.149	0.0159262
647.227	0.0158221
647.305	0.0159454
647.384	0.0157520
647.462	0.0157455
647.540	0.0158425
647.618	0.0158631
647.696	0.0157846
647.774	0.0157676
647.852	0.0158973
647.930	0.0157876
648.009	0.0157118
648.087	0.0157984
648.165	0.0157790
648.243	0.0158234
648.321	0.0157771
648.399	0.0157432
648.477	0.0158111
648.555	0.0158375
648.634	0.0158286
648.712	0.0158521
648.790	0.0157986
648.868	0.0157151
648.946	0.0158174
649.024	0.0157520
649.102	0.0158591
649.180	0.0158324
649.259	0.0158022
649.337	0.0158588
649.415	0.0158908
649.493	0.0157106
649.571	0.0157060
649.649	0.0157415
649.727	0.0158500
649.805	0.0158402
649.884	0.0157606
649.962	0.0156231
650.040	0.0158009
650.118	0.0159132
650.196	0.0156379
650.274	0.0156828
650.352	0.0156963
650.430	0.0158807
650.509	0.0158115
650.587	0.0157667
650.665	0.0158395
650.743	0.0157149
650.821	0.0156594
650.899	0.0156768
650.977	0.0158053
651.055	0.0156894
651.134	0.0156985
651.212	0.0157312
651.290	0.0156346
651.368	0.0155905
651.446	0.0157483
651.524	0.0157166
651.602	0.0157758
651.680	0.0156690
651.759	0.0156244
651.837	0.0158457
651.915	0.0157065
651.993	0.0156837
652.071	0.0158482
652.149	0.0156329
652.227	0.0155659
652.305	0.0157768
652.384	0.0156924
652.462	0.0157526
652.540	0.0157270
652.618	0.0157987
652.696	0.0157066
652.774	0.0156722
652.852	0.0156580
652.930	0.0157779
653.009	0.0158185
653.087	0.0157571
653.165	0.0157482
653.243	0.0156535
653.321	0.0157336
653.399	0.0156527
653.477	0.0157761
653.555	0.0157015
653.634	0.0156991
653.712	0.0156940
653.790	0.0157845
653.868	0.0157843
653.946	0.0156056
654.024	0.0157912
654.102	0.0157446
654.180	0.0155844
654.259	0.0157107
654.337	0.0155621
654.415	0.0156256
654.493	0.0154449
654.571	0.0156506
654.649	0.0157104
654.727	0.0156380
654.805	0.0155836
654.884	0.0157201
654.962	0.0156950
655.040	0.0155901
655.118	0.0157610
655.196	0.0155940
655.274	0.0156998
655.352	0.0156071
655.430	0.0155929
655.509	0.0157532
655.587	0.0155653
655.665	0.0156483
655.743	0.0156760
655.821	0.0156075
655.899	0.0156380
655.977	0.0157067
656.055	0.0156870
656.134	0.0156125
656.212	0.0156426
656.290	0.0157188
656.368	0.0156126
656.446	0.0157386
656.524	0.0156808
656.602	0.0156908
656.680	0.0157088
656.759	0.0157032
656.837	0.0156462
656.915	0.0157780
656.993	0.0157005
657.071	0.0156117
657.149	0.0157814
657.227	0.0156998
657.305	0.0157013
657.384	0.0157758
657.462	0.0157365
657.540	0.0157626
657.618	0.0156088
657.696	0.0156870
657.774	0.0156582
657.852	0.0157488
657.930	0.0156105
658.009	0.0156412
658.087	0.0156733
658.165	0.0156584
658.243	0.0157850
658.321	0.0156869
658.399	0.0155440
658.477	0.0155309
658.555	0.0155267
658.634	0.0156685
658.712	0.0156509
658.790	0.0157037
658.868	0.0157538
658.946	0.0156284
659.024	0.0155715
659.102	0.0156594
659.180	0.0156676
659.259	0.0157675
659.337	0.0156173
659.415	0.0156722
659.493	0.0157642
659.571	0.0157614
659.649	0.0158440
659.727	0.0158548
659.805	0.0156563
659.884	0.0157173
659.962	0.0156507
660.040	0.0156172
660.118	0.0157348
660.196	0.0157755
660.274	0.0155463
660.352	0.0157016
660.430	0.0156004
660.509	0.0156190
660.587	0.0157141
660.665	0.0157182
660.743	0.0157005
660.821	0.0155901
660.899	0.0156268
660.977	0.0157803
661.055	0.0156851
661.134	0.0155860
661.212	0.0155464
661.290	0.0157024
661.368	0.0157879
661.446	0.0158212
661.524	0.0156656
661.602	0.0157563
661.680	0.0157150
661.759	0.0156937
661.837	0.0157294
661.915	0.0156581
661.993	0.0155876
662.071	0.0156558
662.149	0.0156476
662.227	0.0157291
662.305	0.0157250
662.384	0.0157035
662.462	0.0157170
662.540	0.0157771
662.618	0.0156413
662.696	0.0156758
662.774	0.0157288
662.852	0.0157813
662.930	0.0157159
663.009	0.0155596
663.087	0.0156776
663.165	0.0157526
663.243	0.0158511
663.321	0.0156393
663.399	0.0157334
663.477	0.0156979
663.555	0.0156986
663.634	0.0155718
663.712	0.0157526
663.790	0.0157382
663.868	0.0158048
663.946	0.0156815
664.024	0.0156155
664.102	0.0157629
664.180	0.0157832
664.259	0.0156008
664.337	0.0156020
664.415	0.0157629
664.493	0.0157999
664.571	0.0158511
664.649	0.0157617
664.727	0.0158066
664.805	0.0157125
664.884	0.0157181
664.962	0.0156483
665.040	0.0156257
665.118	0.0158231
665.196	0.0158194
665.274	0.0158188
665.352	0.0157991
665.430	0.0158870
665.509	0.0157464
665.587	0.0158934
665.665	0.0159986
665.743	0.0158745
665.821	0.0157734
665.899	0.0160205
665.977	0.0158270
666.055	0.0158627
666.134	0.0158521
666.212	0.0159332
666.290	0.0157560
666.368	0.0159454
666.446	0.0157841
666.524	0.0159648
666.602	0.0158826
666.680	0.0158141
666.759	0.0157455
666.837	0.0157463
666.915	0.0158093
666.993	0.0158214
667.071	0.0157823
667.149	0.0159047
667.227	0.0158893
667.305	0.0158104
667.384	0.0158669
667.462	0.0158062
667.540	0.0158727
667.618	0.0157618
667.696	0.0159210
667.774	0.0158773
667.852	0.0159740
667.930	0.0157121
668.009	0.0158401
668.087	0.0159063
668.165	0.0158901
668.243	0.0157494
668.321	0.0157713
668.399	0.0159513
668.477	0.0158943
668.555	0.0157825
668.634	0.0157805
668.712	0.0159028
668.790	0.0159463
668.868	0.0158955
668.946	0.0158400
669.024	0.0157026
669.102	0.0158270
669.180	0.0158176
669.259	0.0159028
669.337	0.0158231
669.415	0.0158329
669.493	0.0158860
669.571	0.0160362
669.649	0.0159623
669.727	0.0158329
669.805	0.0157518
669.884	0.0157910
669.962	0.0159389
670.040	0.0158165
670.118	0.0157635
670.196	0.0158559
670.274	0.0159071
670.352	0.0159031
670.430	0.0158308
670.509	0.0158504
670.587	0.0157894
670.665	0.0158669
670.743	0.0159609
670.821	0.0157064
670.899	0.0157195
670.977	0.0158937
671.055	0.0158012
671.134	0.0158289
671.212	0.0157639
671.290	0.0157969
671.368	0.0158863
671.446	0.0158204
671.524	0.0157841
671.602	0.0158059
671.680	0.0158063
671.759	0.0158792
671.837	0.0158093
671.915	0.0157736
671.993	0.0158387
672.071	0.0158018
672.149	0.0158167
672.227	0.0157813
672.305	0.0158746
672.384	0.0158089
672.462	0.0158115
672.540	0.0157574
672.618	0.0156857
672.696	0.0157726
672.774	0.0158071
672.852	0.0156584
672.930	0.0157175
673.009	0.0159143
673.087	0.0158447
673.165	0.0158439
673.243	0.0155585
673.321	0.0157487
673.399	0.0157327
673.477	0.0158580
673.555	0.0157722
673.634	0.0156191
673.712	0.0156567
673.790	0.0157171
673.868	0.0158328
673.946	0.0158179
674.024	0.0157397
674.102	0.0157327
674.180	0.0157018
674.259	0.0157554
674.337	0.0156848
674.415	0.0157675
674.493	0.0157965
674.571	0.0156737
674.649	0.0157554
674.727	0.0157426
674.805	0.0156188
674.884	0.0157375
674.962	0.0157459
675.040	0.0157236
675.118	0.0157321
675.196	0.0157786
675.274	0.0156585
675.352	0.0157432
675.430	0.0156333
675.509	0.0157098
675.587	0.0158675
675.665	0.0157237
675.743	0.0156102
675.821	0.0157977
675.899	0.0158261
675.977	0.0156963
676.055	0.0157482
676.134	0.0157256
676.212	0.0156054
676.290	0.0156675
676.368	0.0157691
676.446	0.0156177
676.524	0.0157718
676.602	0.0156513
676.680	0.0156741
676.759	0.0157625
676.837	0.0157993
676.915	0.0157835
676.993	0.0157731
677.071	0.0157185
677.149	0.0155757
677.227	0.0157780
677.305	0.0158128
677.384	0.0158134
677.462	0.0157301
677.540	0.0157957
677.618	0.0157703
677.696	0.0157542
677.774	0.0156458
677.852	0.0157188
677.930	0.0157557
678.009	0.0157478
678.087	0.0156959
678.165	0.0158513
678.243	0.0156649
678.321	0.0158143
678.399	0.0156623
678.477	0.0157005
678.555	0.0157067
678.634	0.0156988
678.712	0.0157014
678.790	0.0158289
678.868	0.0156821
678.946	0.0156519
679.024	0.0157166
679.102	0.0157004
679.180	0.0157356
679.259	0.0157332
679.337	0.0157401
679.415	0.0157230
679.493	0.0158122
679.571	0.0157307
679.649	0.0157490
679.727	0.0157532
679.805	0.0157950
679.884	0.0158097
679.962	0.0157327
680.040	0.0156458
680.118	0.0158589
680.196	0.0156921
680.274	0.0157294
680.352	0.0157250
680.430	0.0156763
680.509	0.0157875
680.587	0.0158117
680.665	0.0157869
680.743	0.0157132
680.821	0.0156689
680.899	0.0156544
680.977	0.0157603
681.055	0.0156698
681.134	0.0156820
681.212	0.0158051
681.290	0.0157153
681.368	0.0156458
681.446	0.0156361
681.524	0.0157376
681.602	0.0156905
681.680	0.0156867
681.759	0.0157255
681.837	0.0155775
681.915	0.0155717
681.993	0.0155419
682.071	0.0156844
682.149	0.0155743
682.227	0.0156201
682.305	0.0155753
682.384	0.0156813
682.462	0.0156451
682.540	0.0156152
682.618	0.0155119
682.696	0.0156285
682.774	0.0157120
682.852	0.0156226
682.930	0.0155884
683.009	0.0156197
683.087	0.0156579
683.165	0.0156320
683.243	0.0155554
683.321	0.0156741
683.399	0.0156718
683.477	0.0156549
683.555	0.0156256
683.634	0.0156950
683.712	0.0157491
683.790	0.0155590
683.868	0.0155365
683.946	0.0156496
684.024	0.0157169
684.102	0.0157454
684.180	0.0155803
684.259	0.0154920
684.337	0.0156195
684.415	0.0155020
684.493	0.0156947
684.571	0.0157132
684.649	0.0156715
684.727	0.0156011
684.805	0.0155447
684.884	0.0157120
684.962	0.0156631
685.040	0.0155346
685.118	0.0156447
685.196	0.0155898
685.274	0.0156000
685.352	0.0156443
685.430	0.0156361
685.509	0.0156236
685.587	0.0157336
685.665	0.0156487
685.743	0.0157045
685.821	0.0157159
685.899	0.0158202
685.977	0.0158208
686.055	0.0156338
686.134	0.0156738
686.212	0.0155975
686.290	0.0157026
686.368	0.0157140
686.446	0.0156255
686.524	0.0156803
686.602	0.0157415
686.680	0.0157307
686.759	0.0156432
686.837	0.0156229
686.915	0.0156364
686.993	0.0156905
687.071	0.0156313
687.149	0.0156016
687.227	0.0156259
687.305	0.0156758
687.384	0.0156807
687.462	0.0156238
687.540	0.0157777
687.618	0.0155496
687.696	0.0156609
687.774	0.0157768
687.852	0.0156503
687.930	0.0156993
688.009	0.0156933
688.087	0.0157997
688.165	0.0157557
688.243	0.0156881
688.321	0.0156934
688.399	0.0157852
688.477	0.0157690
688.555	0.0157241
688.634	0.0157803
688.712	0.0157426
688.790	0.0157146
688.868	0.0157006
688.946	0.0157606
689.024	0.0157227
689.102	0.0157614
689.180	0.0158526
689.259	0.0156190
689.337	0.0156861
689.415	0.0158331
689.493	0.0156943
689.571	0.0157438
689.649	0.0158160
689.727	0.0158126
689.805	0.0158107
689.884	0.0158266
689.962	0.0158143
690.040	0.0157370
690.118	0.0157839
690.196	0.0157575
690.274	0.0157330
690.352	0.0157800
690.430	0.0157466
690.509	0.0156347
690.587	0.0156756
690.665	0.0157404
690.743	0.0157660
690.821	0.0159035
690.899	0.0157059
690.977	0.0158161
691.055	0.0157108
691.134	0.0157887
691.212	0.0157090
691.290	0.0157584
691.368	0.0159087
691.446	0.0156808
691.524	0.0156686
691.602	0.0158440
691.680	0.0158511
691.759	0.0158169
691.837	0.0157265
691.915	0.0158150
691.993	0.0158382
692.071	0.0158851
692.149	0.0157355
692.227	0.0156873
692.305	0.0156937
692.384	0.0157690
692.462	0.0159103
692.540	0.0156273
692.618	0.0157768
692.696	0.0157748
692.774	0.0158354
692.852	0.0157833
692.930	0.0157843
693.009	0.0157097
693.087	0.0157703
693.165	0.0158759
693.243	0.0158208
693.321	0.0158914
693.399	0.0158907
693.477	0.0157633
693.555	0.0157956
693.634	0.0158059
693.712	0.0158826
693.790	0.0156712
693.868	0.0157698
693.946	0.0158375
694.024	0.0158366
694.102	0.0157607
694.180	0.0158465
694.259	0.0158853
694.337	0.0159794
694.415	0.0159190
694.493	0.0158382
694.571	0.0158465
694.649	0.0158618
694.727	0.0158893
694.805	0.0158556
694.884	0.0157822
694.962	0.0158408
695.040	0.0157693
695.118	0.0158077
695.196	0.0158021
695.274	0.0158563
695.352	0.0157403
695.430	0.0158643
695.509	0.0158315
695.587	0.0157233
695.665	0.0157992
695.743	0.0158066
695.821	0.0159394
695.899	0.0158298
695.977	0.0159341
696.055	0.0157415
696.134	0.0155976
696.212	0.0158161
696.290	0.0157499
696.368	0.0158018
696.446	0.0158307
696.524	0.0156802
696.602	0.0156998
696.680	0.0157815
696.759	0.0157927
696.837	0.0157638
696.915	0.0157960
696.993	0.0157466
697.071	0.0157236
697.149	0.0157758
697.227	0.0158763
697.305	0.0157973
697.384	0.0158449
697.462	0.0158224
697.540	0.0158507
697.618	0.0156834
697.696	0.0157609
697.774	0.0158968
697.852	0.0158036
697.930	0.0157508
698.009	0.0157885
698.087	0.0156624
698.165	0.0156358
698.243	0.0159337
698.321	0.0157460
698.399	0.0157417
698.477	0.0157150
698.555	0.0156750
698.634	0.0159014
698.712	0.0159565
698.790	0.0158008
698.868	0.0157000
698.946	0.0158209
699.024	0.0157918
699.102	0.0157117
699.180	0.0157818
699.259	0.0157338
699.337	0.0158296
699.415	0.0157367
699.493	0.0156929
699.571	0.0158100
699.649	0.0157478
699.727	0.0158270
699.805	0.0157930
699.884	0.0157307
699.962	0.0157697
700.040	0.0157202
700.118	0.0158044
700.196	0.0157642
700.274	0.0157848
700.352	0.0157164
700.430	0.0157404
700.509	0.0157536
700.587	0.0158861
700.665	0.0157615
700.743	0.0158205
700.821	0.0156525
700.899	0.0157400
700.977	0.0156390
701.055	0.0157782
701.134	0.0158789
701.212	0.0159943
701.290	0.0157388
701.368	0.0157278
701.446	0.0158788
701.524	0.0159640
701.602	0.0157305
701.680	0.0158258
701.759	0.0157920
701.837	0.0157280
701.915	0.0156973
701.993	0.0157430
702.071	0.0158643
702.149	0.0158640
702.227	0.0158133
702.305	0.0157601
702.384	0.0157796
702.462	0.0157901
702.540	0.0157669
702.618	0.0156393
702.696	0.0158041
702.774	0.0158617
702.852	0.0156905
702.930	0.0158544
703.009	0.0158076
703.087	0.0156936
703.165	0.0158712
703.243	0.0158607
703.321	0.0157186
703.399	0.0157571
703.477	0.0157432
703.555	0.0157050
703.634	0.0157666
703.712	0.0158367
703.790	0.0156891
703.868	0.0157379
703.946	0.0156915
704.024	0.0157905
704.102	0.0157019
704.180	0.0157848
704.259	0.0157146
704.337	0.0156843
704.415	0.0157818
704.493	0.0156881
704.571	0.0156653
704.649	0.0156694
704.727	0.0157609
704.805	0.0156630
704.884	0.0157161
704.962	0.0156779
705.040	0.0157375
705.118	0.0156898
705.196	0.0156745
705.274	0.0156406
705.352	0.0157471
705.430	0.0157703
705.509	0.0156866
705.587	0.0157158
705.665	0.0156947
705.743	0.0156018
705.821	0.0157054
705.899	0.0156821
705.977	0.0157510
706.055	0.0156654
706.134	0.0156401
706.212	0.0157167
706.290	0.0156509
706.368	0.0156451
706.446	0.0157389
706.524	0.0156194
706.602	0.0156905
706.680	0.0156717
706.759	0.0157389
706.837	0.0157392
706.915	0.0156387
706.993	0.0157078
707.071	0.0156554
707.149	0.0156448
707.227	0.0156723
707.305	0.0156075
707.384	0.0155304
707.462	0.0158067
707.540	0.0156837
707.618	0.0156458
707.696	0.0156637
707.774	0.0155847
707.852	0.0155437
707.930	0.0155486
708.009	0.0156180
708.087	0.0156165
708.165	0.0156028
708.243	0.0156719
708.321	0.0156045
708.399	0.0156525
708.477	0.0156755
708.555	0.0156275
708.634	0.0156907
708.712	0.0157533
708.790	0.0157409
708.868	0.0156895
708.946	0.0156111
709.024	0.0157702
709.102	0.0156614
709.180	0.0156279
709.259	0.0156740
709.337	0.0156446
709.415	0.0157650
709.493	0.0157261
709.571	0.0156100
709.649	0.0154964
709.727	0.0156710
709.805	0.0156284
709.884	0.0157351
709.962	0.0156497
710.040	0.0155194
710.118	0.0156889
710.196	0.0156034
710.274	0.0158664
710.352	0.0157813
710.430	0.0156386
710.509	0.0156404
710.587	0.0156291
710.665	0.0157277
710.743	0.0157473
710.821	0.0156180
710.899	0.0156775
710.977	0.0157334
711.055	0.0157809
711.134	0.0157948
711.212	0.0157816
711.290	0.0155393
711.368	0.0157368
711.446	0.0158746
711.524	0.0157402
711.602	0.0157439
711.680	0.0157971
711.759	0.0156619
711.837	0.0157285
711.915	0.0157287
711.993	0.0156921
712.071	0.0156667
712.149	0.0156554
712.227	0.0157106
712.305	0.0156902
712.384	0.0158217
712.462	0.0158867
712.540	0.0157774
712.618	0.0157209
712.696	0.0157441
712.774	0.0156641
712.852	0.0156811
712.930	0.0157789
713.009	0.0157659
713.087	0.0158018
713.165	0.0156961
713.243	0.0156368
713.321	0.0157368
713.399	0.0157751
713.477	0.0158554
713.555	0.0157891
713.634	0.0157548
713.712	0.0159035
713.790	0.0158141
713.868	0.0157760
713.946	0.0157015
714.024	0.0157208
714.102	0.0157272
714.180	0.0157278
714.259	0.0157847
714.337	0.0158540
714.415	0.0158701
714.493	0.0157455
714.571	0.0156812
714.649	0.0157486
714.727	0.0158214
714.805	0.0157730
714.884	0.0158137
714.962	0.0158668
715.040	0.0158465
715.118	0.0156875
715.196	0.0156296
715.274	0.0157523
715.352	0.0157961
715.430	0.0158475
715.509	0.0156503
715.587	0.0157003
715.665	0.0156873
715.743	0.0158292
715.821	0.0158503
715.899	0.0157326
715.977	0.0157461
716.055	0.0156898
716.134	0.0158473
716.212	0.0159342
716.290	0.0157111
716.368	0.0157337
716.446	0.0158698
716.524	0.0157776
716.602	0.0157978
716.680	0.0157576
716.759	0.0158240
716.837	0.0157560
716.915	0.0156877
716.993	0.0158044
717.071	0.0159608
717.149	0.0156702
717.227	0.0156462
717.305	0.0157845
717.384	0.0158377
717.462	0.0157688
717.540	0.0159020
717.618	0.0158714
717.696	0.0157410
717.774	0.0157052
717.852	0.0158164
717.930	0.0156051
718.009	0.0158536
718.087	0.0158730
718.165	0.0159034
718.243	0.0157513
718.321	0.0158556
718.399	0.0158988
718.477	0.0157772
718.555	0.0157976
718.634	0.0157899
718.712	0.0158167
718.790	0.0158804
718.868	0.0158604
718.946	0.0157249
719.024	0.0157941
719.102	0.0157125
719.180	0.0159142
719.259	0.0159319
719.337	0.0158628
719.415	0.0157508
719.493	0.0156461
719.571	0.0157323
719.649	0.0157285
719.727	0.0158298
719.805	0.0159054
719.884	0.0158690
719.962	0.0158669
720.040	0.0157673
720.118	0.0157241
720.196	0.0158816
720.274	0.0158466
720.352	0.0156982
720.430	0.0158029
720.509	0.0158739
720.587	0.0159125
720.665	0.0157470
720.743	0.0158478
720.821	0.0158536
720.899	0.0157012
720.977	0.0158162
721.055	0.0158734
721.134	0.0158187
721.212	0.0158029
721.290	0.0159108
721.368	0.0158826
721.446	0.0158868
721.524	0.0157451
721.602	0.0157678
721.680	0.0159068
721.759	0.0159066
721.837	0.0158005
721.915	0.0157442
721.993	0.0158417
722.071	0.0159715
722.149	0.0157901
722.227	0.0158617
722.305	0.0157629
722.384	0.0158835
722.462	0.0157919
722.540	0.0156526
722.618	0.0157519
722.696	0.0157925
722.774	0.0157732
722.852	0.0158331
722.930	0.0159161
723.009	0.0158511
723.087	0.0158366
723.165	0.0158951
723.243	0.0158252
723.321	0.0157903
723.399	0.0157542
723.477	0.0158274
723.555	0.0157842
723.634	0.0158009
723.712	0.0157606
723.790	0.0158216
723.868	0.0158514
723.946	0.0158447
724.024	0.0157307
724.102	0.0157540
724.180	0.0158068
724.259	0.0156785
724.337	0.0158131
724.415	0.0157693
724.493	0.0158320
724.571	0.0157403
724.649	0.0158030
724.727	0.0157901
724.805	0.0158115
724.884	0.0157279
724.962	0.0157436
725.040	0.0157896
725.118	0.0157806
725.196	0.0156832
725.274	0.0156637
725.352	0.0158336
725.430	0.0157777
725.509	0.0157430
725.587	0.0157475
725.665	0.0157838
725.743	0.0158531
725.821	0.0158588
725.899	0.0158141
725.977	0.0157314
726.055	0.0157732
726.134	0.0158780
726.212	0.0157265
726.290	0.0158509
726.368	0.0157832
726.446	0.0158448
726.524	0.0157756
726.602	0.0158114
726.680	0.0158563
726.759	0.0156596
726.837	0.0158537
726.915	0.0157182
726.993	0.0157688
727.071	0.0157469
727.149	0.0156968
727.227	0.0157335
727.305	0.0159910
727.384	0.0157983
727.462	0.0158017
727.540	0.0157938
727.618	0.0157061
727.696	0.0157478
727.774	0.0157909
727.852	0.0157576
727.930	0.0158017
728.009	0.0158366
728.087	0.0159364
728.165	0.0158886
728.243	0.0157952
728.321	0.0156707
728.399	0.0156847
728.477	0.0157393
728.555	0.0157243
728.634	0.0158437
728.712	0.0157538
728.790	0.0157235
728.868	0.0158298
728.946	0.0158052
729.024	0.0156949
729.102	0.0157942
729.180	0.0157410
729.259	0.0157766
729.337	0.0158533
729.415	0.0156636
729.493	0.0156964
729.571	0.0157106
729.649	0.0157909
729.727	0.0158524
729.805	0.0157329
729.884	0.0155995
729.962	0.0158047
730.040	0.0157867
730.118	0.0157731
730.196	0.0156153
730.274	0.0156926
730.352	0.0157529
730.430	0.0155486
730.509	0.0157888
730.587	0.0157580
730.665	0.0158531
730.743	0.0157755
730.821	0.0157303
730.899	0.0157143
730.977	0.0155975
731.055	0.0157719
731.134	0.0156681
731.212	0.0157512
731.290	0.0157595
731.368	0.0156502
731.446	0.0157143
731.524	0.0158051
731.602	0.0156386
731.680	0.0156860
731.759	0.0156528
731.837	0.0156946
731.915	0.0156223
731.993	0.0156829
732.071	0.0156341
732.149	0.0156249
732.227	0.0156791
732.305	0.0157377
732.384	0.0156092
732.462	0.0157781
732.540	0.0156897
732.618	0.0156967
732.696	0.0156919
732.774	0.0157298
732.852	0.0157887
732.930	0.0157774
733.009	0.0155795
733.087	0.0157401
733.165	0.0155843
733.243	0.0157686
733.321	0.0156664
733.399	0.0158566
733.477	0.0157668
733.555	0.0157697
733.634	0.0157198
733.712	0.0156185
733.790	0.0158250
733.868	0.0158229
733.946	0.0156997
734.024	0.0155949
734.102	0.0157587
734.180	0.0156409
734.259	0.0157979
734.337	0.0157896
734.415	0.0156981
734.493	0.0157632
734.571	0.0158283
734.649	0.0157480
734.727	0.0157654
734.805	0.0158203
734.884	0.0157250
734.962	0.0157893
735.040	0.0157802
735.118	0.0158910
735.196	0.0159121
735.274	0.0157114
735.352	0.0158078
735.430	0.0158984
735.509	0.0157488
735.587	0.0158078
735.665	0.0158134
735.743	0.0156964
735.821	0.0158080
735.899	0.0158614
735.977	0.0157587
736.055	0.0157840
736.134	0.0157119
736.212	0.0158295
736.290	0.0157686
736.368	0.0157304
736.446	0.0157743
736.524	0.0157984
736.602	0.0158562
736.680	0.0157819
736.759	0.0157629
736.837	0.0157971
736.915	0.0158352
736.993	0.0158919
737.071	0.0158146
737.149	0.0158584
737.227	0.0157874
737.305	0.0157204
737.384	0.0157160
737.462	0.0160159
737.540	0.0158012
737.618	0.0158340
737.696	0.0159267
737.774	0.0157906
737.852	0.0157483
737.930	0.0158837
738.009	0.0157220
738.087	0.0158344
738.165	0.0160000
738.243	0.0158683
738.321	0.0157136
738.399	0.0156313
738.477	0.0157825
738.555	0.0157963
738.634	0.0157435
738.712	0.0157956
738.790	0.0157747
738.868	0.0157361
738.946	0.0157490
739.024	0.0157257
739.102	0.0158208
739.180	0.0157609
739.259	0.0157298
739.337	0.0159003
739.415	0.0158030
739.493	0.0157835
739.571	0.0157747
739.649	0.0156966
739.727	0.0158677
739.805	0.0159027
739.884	0.0158793
739.962	0.0158539
740.040	0.0156225
740.118	0.0156659
740.196	0.0157482
740.274	0.0158666
740.352	0.0158676
740.430	0.0157024
740.509	0.0158891
740.587	0.0158289
740.665	0.0157291
740.743	0.0157746
740.821	0.0157464
740.899	0.0157192
740.977	0.0156995
741.055	0.0158378
741.134	0.0157583
741.212	0.0158494
741.290	0.0157880
741.368	0.0157061
741.446	0.0157712
741.524	0.0158127
741.602	0.0158013
741.680	0.0157234
741.759	0.0158108
741.837	0.0157563
741.915	0.0158305
741.993	0.0157087
742.071	0.0158553
742.149	0.0157318
742.227	0.0157919
742.305	0.0157772
742.384	0.0158501
742.462	0.0157839
742.540	0.0157242
742.618	0.0158937
742.696	0.0157426
742.774	0.0156039
742.852	0.0156917
742.930	0.0157746
743.009	0.0157220
743.087	0.0157596
743.165	0.0157058
743.243	0.0157849
743.321	0.0158104
743.399	0.0157506
743.477	0.0154798
743.555	0.0157472
743.634	0.0157997
743.712	0.0157507
743.790	0.0157360
743.868	0.0158173
743.946	0.0156455
744.024	0.0158004
744.102	0.0156712
744.180	0.0156453
744.259	0.0157509
744.337	0.0158257
744.415	0.0158801
744.493	0.0158037
744.571	0.0157381
744.649	0.0156965
744.727	0.0158463
744.805	0.0159807
744.884	0.0158012
744.962	0.0158379
745.040	0.0156459
745.118	0.0157159
745.196	0.0159542
745.274	0.0157851
745.352	0.0156950
745.430	0.0157804
745.509	0.0158005
745.587	0.0158301
745.665	0.0155761
745.743	0.0159206
745.821	0.0157948
745.899	0.0157785
745.977	0.0156909
746.055	0.0159779
746.134	0.0159213
746.212	0.0156514
746.290	0.0157746
746.368	0.0157803
746.446	0.0157465
746.524	0.0157641
746.602	0.0159674
746.680	0.0158488
746.759	0.0158314
746.837	0.0157246
746.915	0.0158405
746.993	0.0157845
747.071	0.0157309
747.149	0.0157915
747.227	0.0157298
747.305	0.0156983
747.384	0.0156464
747.462	0.0157426
747.540	0.0157668
747.618	0.0157733
747.696	0.0157339
747.774	0.0156944
747.852	0.0157549
747.930	0.0156653
748.009	0.0156594
748.087	0.0157157
748.165	0.0156680
748.243	0.0157950
748.321	0.0157384
748.399	0.0157999
748.477	0.0156650
748.555	0.0158691
748.634	0.0157461
748.712	0.0157009
748.790	0.0158130
748.868	0.0158647
748.946	0.0157743
749.024	0.0157485
749.102	0.0158189
749.180	0.0158129
749.259	0.0158891
749.337	0.0158702
749.415	0.0157169
749.493	0.0158697
749.571	0.0158582
749.649	0.0157050
749.727	0.0157883
749.805	0.0157757
749.884	0.0157141
749.962	0.0157290
750.040	0.0159030
750.118	0.0158327
750.196	0.0158204
750.274	0.0156609
750.352	0.0157681
750.430	0.0156825
750.509	0.0157932
750.587	0.0156876
750.665	0.0158315
750.743	0.0157615
750.821	0.0156681
750.899	0.0157310
750.977	0.0156045
751.055	0.0156571
751.134	0.0158057
751.212	0.0156830
751.290	0.0155766
751.368	0.0156657
751.446	0.0157872
751.524	0.0156506
751.602	0.0156562
751.680	0.0157111
751.759	0.0158532
751.837	0.0156697
751.915	0.0157020
751.993	0.0157924
752.071	0.0157156
752.149	0.0157408
752.227	0.0156785
752.305	0.0156306
752.384	0.0158109
752.462	0.0157702
752.540	0.0156228
752.618	0.0157040
752.696	0.0158280
752.774	0.0157158
752.852	0.0154433
752.930	0.0156606
753.009	0.0156356
753.087	0.0155550
753.165	0.0157362
753.243	0.0156808
753.321	0.0155607
753.399	0.0155380
753.477	0.0156290
753.555	0.0156635
753.634	0.0156207
753.712	0.0157032
753.790	0.0157528
753.868	0.0156564
753.946	0.0156062
754.024	0.0157976
754.102	0.0155112
754.180	0.0157761
754.259	0.0156718
754.337	0.0156668
754.415	0.0157617
754.493	0.0158042
754.571	0.0157298
754.649	0.0156950
754.727	0.0157656
754.805	0.0158275
754.884	0.0158198
754.962	0.0155676
755.040	0.0157198
755.118	0.0156754
755.196	0.0156312
755.274	0.0157872
755.352	0.0157156
755.430	0.0157783
755.509	0.0158613
755.587	0.0157951
755.665	0.0158894
755.743	0.0156729
755.821	0.0159118
755.899	0.0158295
755.977	0.0158327
756.055	0.0159079
756.134	0.0159216
756.212	0.0158218
756.290	0.0158792
756.368	0.0156472
756.446	0.0157069
756.524	0.0159052
756.602	0.0158088
756.680	0.0155899
756.759	0.0156093
756.837	0.0155995
756.915	0.0156532
756.993	0.0157493
757.071	0.0156377
757.149	0.0156070
757.227	0.0157096
757.305	0.0157692
757.384	0.0157970
757.462	0.0158151
757.540	0.0158249
757.618	0.0156532
757.696	0.0157729
757.774	0.0155883
757.852	0.0157492
757.930	0.0155766
758.009	0.0158282
758.087	0.0157713
758.165	0.0156525
758.243	0.0157198
758.321	0.0156615
758.399	0.0158465
758.477	0.0155976
758.555	0.0157149
758.634	0.0157084
758.712	0.0157496
758.790	0.0155883
758.868	0.0156829
758.946	0.0157771
759.024	0.0156281
759.102	0.0157286
759.180	0.0156892
759.259	0.0157453
759.337	0.0158042
759.415	0.0158118
759.493	0.0156990
759.571	0.0157091
759.649	0.0156328
759.727	0.0157183
759.805	0.0156774
759.884	0.0157301
759.962	0.0158062
760.040	0.0157113
760.118	0.0156899
760.196	0.0158192
760.274	0.0158923
760.352	0.0157843
760.430	0.0157336
760.509	0.0157368
760.587	0.0158960
760.665	0.0157967
760.743	0.0158173
760.821	0.0158412
760.899	0.0159122
760.977	0.0158421
761.055	0.0156753
761.134	0.0160089
761.212	0.0158291
761.290	0.0158340
761.368	0.0158983
761.446	0.0158952
761.524	0.0159450
761.602	0.0159068
761.680	0.0158497
761.759	0.0158324
761.837	0.0158237
761.915	0.0159087
761.993	0.0158304
762.071	0.0157568
762.149	0.0158383
762.227	0.0158458
762.305	0.0156181
762.384	0.0156798
762.462	0.0155852
762.540	0.0157745
762.618	0.0155927
762.696	0.0156224
762.774	0.0157095
762.852	0.0156964
762.930	0.0154863
763.009	0.0156097
763.087	0.0155685
763.165	0.0155793
763.243	0.0155622
763.321	0.0157056
763.399	0.0156953
763.477	0.0155955
763.555	0.0155767
763.634	0.0155908
763.712	0.0156471
763.790	0.0157860
763.868	0.0157027
763.946	0.0156020
764.024	0.0156609
764.102	0.0156682
764.180	0.0158244
764.259	0.0157630
764.337	0.0156619
764.415	0.0158361
764.493	0.0157814
764.571	0.0157823
764.649	0.0158048
764.727	0.0157504
764.805	0.0158119
764.884	0.0158389
764.962	0.0157280
765.040	0.0157053
765.118	0.0158047
765.196	0.0158444
765.274	0.0156825
765.352	0.0157866
765.430	0.0158025
765.509	0.0157307
765.587	0.0157348
765.665	0.0156812
765.743	0.0158843
765.821	0.0157063
765.899	0.0156527
765.977	0.0157874
766.055	0.0158391
766.134	0.0159000
766.212	0.0157527
766.290	0.0157003
766.368	0.0157513
766.446	0.0157088
766.524	0.0157521
766.602	0.0156697
766.680	0.0154568
766.759	0.0156445
766.837	0.0155950
766.915	0.0157683
766.993	0.0156672
767.071	0.0155627
767.149	0.0159406
767.227	0.0155411
767.305	0.0157552
767.384	0.0157911
767.462	0.0158539
767.540	0.0157479
767.618	0.0157911
767.696	0.0156271
767.774	0.0156982
767.852	0.0156717
767.930	0.0156034
768.009	0.0156920
768.087	0.0157352
768.165	0.0157643
768.243	0.0156466
768.321	0.0155603
768.399	0.0157581
768.477	0.0156812
768.555	0.0156405
768.634	0.0155769
768.712	0.0156215
768.790	0.0155748
768.868	0.0156034
768.946	0.0157755
769.024	0.0157139
769.102	0.0158639
769.180	0.0157598
769.259	0.0159557
769.337	0.0159895
769.415	0.0157794
769.493	0.0157030
769.571	0.0158147
769.649	0.0157492
769.727	0.0158887
769.805	0.0157043
769.884	0.0155457
769.962	0.0156300
770.040	0.0157542
770.118	0.0157088
770.196	0.0156108
770.274	0.0157195
770.352	0.0157674
770.430	0.0156553
770.509	0.0155305
770.587	0.0156553
770.665	0.0157946
770.743	0.0156953
770.821	0.0155331
770.899	0.0157150
770.977	0.0157207
771.055	0.0157273
771.134	0.0157748
771.212	0.0156815
771.290	0.0157402
771.368	0.0158384
771.446	0.0157616
771.524	0.0159395
771.602	0.0158248
771.680	0.0157322
771.759	0.0157136
771.837	0.0157048
771.915	0.0156279
771.993	0.0157203
772.071	0.0156306
772.149	0.0157158
772.227	0.0156145
772.305	0.0156631
772.384	0.0158009
772.462	0.0157158
772.540	0.0156573
772.618	0.0156113
772.696	0.0157121
772.774	0.0157682
772.852	0.0156715
772.930	0.0157899
773.009	0.0159158
773.087	0.0159756
773.165	0.0158263
773.243	0.0158382
773.321	0.0158366
773.399	0.0159229
773.477	0.0157675
773.555	0.0157168
773.634	0.0157694
773.712	0.0157647
773.790	0.0157335
773.868	0.0157557
773.946	0.0158456
774.024	0.0158199
774.102	0.0157748
774.180	0.0157319
774.259	0.0158223
774.337	0.0155875
774.415	0.0157822
774.493	0.0156865
774.571	0.0158247
774.649	0.0157175
774.727	0.0155627
774.805	0.0155959
774.884	0.0156091
774.962	0.0156705
775.040	0.0155832
775.118	0.0154515
775.196	0.0155480
775.274	0.0154070
775.352	0.0155031
775.430	0.0155573
775.509	0.0155672
775.587	0.0155616
775.665	0.0156431
775.743	0.0157333
775.821	0.0156756
775.899	0.0157975
775.977	0.0155939
776.055	0.0157180
776.134	0.0157152
776.212	0.0156484
776.290	0.0157721
776.368	0.0158134
776.446	0.0157369
776.524	0.0157893
776.602	0.0157512
776.680	0.0156229
776.759	0.0157188
776.837	0.0157217
776.915	0.0157777
776.993	0.0156127
777.071	0.0156445
777.149	0.0157117
777.227	0.0157481
777.305	0.0156007
777.384	0.0157190
777.462	0.0157555
777.540	0.0157270
777.618	0.0157569
777.696	0.0158374
777.774	0.0159068
777.852	0.0157520
777.930	0.0159302
778.009	0.0158788
778.087	0.0157938
778.165	0.0159453
778.243	0.0159296
778.321	0.0157477
778.399	0.0158430
778.477	0.0158306
778.555	0.0157831
778.634	0.0158167
778.712	0.0159286
778.790	0.0157239
778.868	0.0157413
778.946	0.0157907
779.024	0.0157689
779.102	0.0159322
779.180	0.0159076
779.259	0.0158187
779.337	0.0158252
779.415	0.0158223
779.493	0.0157528
779.571	0.0156574
779.649	0.0157000
779.727	0.0155688
779.805	0.0155225
779.884	0.0154781
779.962	0.0154794
780.040	0.0154149
780.118	0.0155252
780.196	0.0154156
780.274	0.0153775
780.352	0.0152469
780.430	0.0152924
780.509	0.0154128
780.587	0.0153179
780.665	0.0155574
780.743	0.0154345
780.821	0.0154150
780.899	0.0156363
780.977	0.0157286
781.055	0.0156422
781.134	0.0157597
781.212	0.0157589
781.290	0.0159106
781.368	0.0158260
781.446	0.0159410
781.524	0.0159524
781.602	0.0158477
781.680	0.0159692
781.759	0.0158124
781.837	0.0158962
781.915	0.0160006
781.993	0.0158748
782.071	0.0158582
782.149	0.0158907
782.227	0.0157260
782.305	0.0157702
782.384	0.0159280
782.462	0.0158726
782.540	0.0159383
782.618	0.0157466
782.696	0.0156580
782.774	0.0156602
782.852	0.0157673
782.930	0.0155946
783.009	0.0155528
783.087	0.0155773
783.165	0.0155334
783.243	0.0154456
783.321	0.0155282
783.399	0.0154818
783.477	0.0154837
783.555	0.0154996
783.634	0.0155714
783.712	0.0155375
783.790	0.0156055
783.868	0.0157559
783.946	0.0157897
784.024	0.0157136
784.102	0.0157816
784.180	0.0156743
784.259	0.0158366
784.337	0.0157606
784.415	0.0157248
784.493	0.0155674
784.571	0.0158166
784.649	0.0156783
784.727	0.0155933
784.805	0.0157298
784.884	0.0157653
784.962	0.0155952
785.040	0.0155453
785.118	0.0157654
785.196	0.0156933
785.274	0.0156138
785.352	0.0157124
785.430	0.0158263
785.509	0.0156515
785.587	0.0157626
785.665	0.0157593
785.743	0.0157766
785.821	0.0158416
785.899	0.0158460
785.977	0.0158983
786.055	0.0159383
786.134	0.0158466
786.212	0.0158009
786.290	0.0158979
786.368	0.0158872
786.446	0.0158966
786.524	0.0158418
786.602	0.0159453
786.680	0.0158125
786.759	0.0157201
786.837	0.0157205
786.915	0.0156802
786.993	0.0157549
787.071	0.0158405
787.149	0.0156305
787.227	0.0156781
787.305	0.0154737
787.384	0.0155748
787.462	0.0156620
787.540	0.0156999
787.618	0.0154736
787.696	0.0155106
787.774	0.0155640
787.852	0.0155126
787.930	0.0156483
788.009	0.0156862
788.087	0.0154689
788.165	0.0155006
788.243	0.0154391
788.321	0.0155577
788.399	0.0155121
788.477	0.0154065
788.555	0.0155062
788.634	0.0156686
788.712	0.0155885
788.790	0.0157425
788.868	0.0156266
788.946	0.0158813
789.024	0.0159244
789.102	0.0158298
789.180	0.0158160
789.259	0.0158440
789.337	0.0158791
789.415	0.0160607
789.493	0.0159019
789.571	0.0160091
789.649	0.0160363
789.727	0.0159709
789.805	0.0159595
789.884	0.0158971
789.962	0.0158506
790.040	0.0159575
790.118	0.0159248
790.196	0.0159148
790.274	0.0159672
790.352	0.0158755
790.430	0.0159525
790.509	0.0157051
790.587	0.0157932
790.665	0.0158312
790.743	0.0158008
790.821	0.0157708
790.899	0.0156718
790.977	0.0156742
791.055	0.0155814
791.134	0.0156282
791.212	0.0156932
791.290	0.0155924
791.368	0.0156763
791.446	0.0155578
791.524	0.0155615
791.602	0.0155929
791.680	0.0155577
791.759	0.0156094
791.837	0.0153687
791.915	0.0154966
791.993	0.0155080
792.071	0.0156076
792.149	0.0155042
792.227	0.0155156
792.305	0.0155772
792.384	0.0155280
792.462	0.0156051
792.540	0.0155831
792.618	0.0156841
792.696	0.0156837
792.774	0.0156601
792.852	0.0159303
792.930	0.0157919
793.009	0.0158366
793.087	0.0158117
793.165	0.0158313
793.243	0.0159747
793.321	0.0160992
793.399	0.0160721
793.477	0.0159815
793.555	0.0160532
793.634	0.0160401
793.712	0.0160237
793.790	0.0161132
793.868	0.0160355
793.946	0.0162027
794.024	0.0159322
794.102	0.0159554
794.180	0.0160218
794.259	0.0160245
794.337	0.0158851
794.415	0.0158445
794.493	0.0158327
794.571	0.0159167
794.649	0.0158686
794.727	0.0158698
794.805	0.0157259
794.884	0.0157722
794.962	0.0157474
795.040	0.0156356
795.118	0.0158144
795.196	0.0157839
795.274	0.0157018
795.352	0.0157265
795.430	0.0157062
795.509	0.0156631
795.587	0.0156139
795.665	0.0156616
795.743	0.0158247
795.821	0.0156918
795.899	0.0157628
795.977	0.0156470
796.055	0.0157455
796.134	0.0157980
796.212	0.0156822
796.290	0.0157645
796.368	0.0157593
796.446	0.0157726
796.524	0.0157677
796.602	0.0157592
796.680	0.0156401
796.759	0.0158219
796.837	0.0158768
796.915	0.0158250
796.993	0.0159305
797.071	0.0158875
797.149	0.0157136
797.227	0.0159053
797.305	0.0159982
797.384	0.0158146
797.462	0.0159473
797.540	0.0159418
797.618	0.0160665
797.696	0.0161344
797.774	0.0158871
797.852	0.0160091
797.930	0.0160078
798.009	0.0159219
798.087	0.0160757
798.165	0.0159498
798.243	0.0159365
798.321	0.0158808
798.399	0.0157292
798.477	0.0158823
798.555	0.0158836
798.634	0.0158039
798.712	0.0157565
798.790	0.0157653
798.868	0.0156773
798.946	0.0157356
799.024	0.0155970
799.102	0.0157446
799.180	0.0157864
799.259	0.0155694
799.337	0.0156535
799.415	0.0156108
799.493	0.0156550
799.571	0.0155880
799.649	0.0155710
799.727	0.0157012
799.805	0.0156702
799.884	0.0157329
799.962	0.0155157
800.040	0.0155858
800.118	0.0155557
800.196	0.0156600
800.274	0.0155402
800.352	0.0155852
800.430	0.0156828
800.509	0.0156279
800.587	0.0157003
800.665	0.0158288
800.743	0.0159977
800.821	0.0159452
800.899	0.0159454
800.977	0.0159949
801.055	0.0161008
801.134	0.0162110
801.212	0.0160738
801.290	0.0161938
801.368	0.0161240
801.446	0.0161545
801.524	0.0162478
801.602	0.0161249
801.680	0.0162171
801.759	0.0160885
801.837	0.0159721
801.915	0.0158734
801.993	0.0158576
802.071	0.0157920
802.149	0.0158383
802.227	0.0157359
802.305	0.0156580
802.384	0.0157421
802.462	0.0155711
802.540	0.0155402
802.618	0.0156208
802.696	0.0155617
802.774	0.0156007
802.852	0.0155471
802.930	0.0156596
803.009	0.0156651
803.087	0.0154996
803.165	0.0154480
803.243	0.0155149
803.321	0.0154606
803.399	0.0153300
803.477	0.0156329
803.555	0.0154874
803.634	0.0155879
803.712	0.0156292
803.790	0.0157241
803.868	0.0157990
803.946	0.0156198
804.024	0.0156748
804.102	0.0158153
804.180	0.0157204
804.259	0.0157552
804.337	0.0158588
804.415	0.0158949
804.493	0.0157825
804.571	0.0159470
804.649	0.0160686
804.727	0.0159441
804.805	0.0160112
804.884	0.0159613
804.962	0.0159059
805.040	0.0161295
805.118	0.0160420
805.196	0.0160667
805.274	0.0160904
805.352	0.0157668
805.430	0.0159415
805.509	0.0159186
805.587	0.0158816
805.665	0.0157701
805.743	0.0158151
805.821	0.0158839
805.899	0.0157568
805.977	0.0156219
806.055	0.0158008
806.134	0.0158464
806.212	0.0157001
806.290	0.0157586
806.368	0.0156260
806.446	0.0157626
806.524	0.0156422
806.602	0.0157850
806.680	0.0157255
806.759	0.0154800
806.837	0.0155186
806.915	0.0156066
806.993	0.0155280
807.071	0.0155717
807.149	0.0156486
807.227	0.0156593
807.305	0.0155763
807.384	0.0156766
807.462	0.0156386
807.540	0.0156626
807.618	0.0158109
807.696	0.0157635
807.774	0.0157334
807.852	0.0159042
807.930	0.0159673
808.009	0.0156992
808.087	0.0159182
808.165	0.0158629
808.243	0.0158482
808.321	0.0159628
808.399	0.0157416
808.477	0.0158478
808.555	0.0158676
808.634	0.0159039
808.712	0.0157903
808.790	0.0158932
808.868	0.0159436
808.946	0.0159080
809.024	0.0157171
809.102	0.0158002
809.180	0.0158603
809.259	0.0158540
809.337	0.0158215
809.415	0.0158231
809.493	0.0157715
809.571	0.0156848
809.649	0.0156790
809.727	0.0158735
809.805	0.0157706
809.884	0.0157975
809.962	0.0157796
810.040	0.0156188
810.118	0.0157800
810.196	0.0156934
810.274	0.0155972
810.352	0.0156161
810.430	0.0155441
810.509	0.0156259
810.587	0.0155347
810.665	0.0155334
810.743	0.0155562
810.821	0.0155168
810.899	0.0155873
810.977	0.0155888
811.055	0.0154748
811.134	0.0154999
811.212	0.0155231
811.290	0.0156492
811.368	0.0156102
811.446	0.0155899
811.524	0.0156528
811.602	0.0156252
811.680	0.0155141
811.759	0.0157161
811.837	0.0157859
811.915	0.0158206
811.993	0.0157811
812.071	0.0158548
812.149	0.0157792
812.227	0.0158531
812.305	0.0159081
812.384	0.0157298
812.462	0.0158674
812.540	0.0158543
812.618	0.0159341
812.696	0.0158266
812.774	0.0159511
812.852	0.0158086
812.930	0.0159104
813.009	0.0158095
813.087	0.0159177
813.165	0.0157998
813.243	0.0158778
813.321	0.0159026
813.399	0.0157603
813.477	0.0158732
813.555	0.0158516
813.634	0.0158030
813.712	0.0157323
813.790	0.0156569
813.868	0.0156319
813.946	0.0157357
814.024	0.0155094
814.102	0.0157021
814.180	0.0155772
814.259	0.0156654
814.337	0.0156636
814.415	0.0154037
814.493	0.0155885
814.571	0.0157442
814.649	0.0156286
814.727	0.0155405
814.805	0.0156108
814.884	0.0155580
814.962	0.0155680
815.040	0.0156350
815.118	0.0157529
815.196	0.0156239
815.274	0.0157014
815.352	0.0156332
815.430	0.0157023
815.509	0.0156414
815.587	0.0157300
815.665	0.0157280
815.743	0.0157618
815.821	0.0157456
815.899	0.0157844
815.977	0.0159041
816.055	0.0159786
816.134	0.0159653
816.212	0.0158479
816.290	0.0158367
816.368	0.0159284
816.446	0.0159335
816.524	0.0158257
816.602	0.0158716
816.680	0.0159731
816.759	0.0158703
816.837	0.0158585
816.915	0.0158004
816.993	0.0157618
817.071	0.0158066
817.149	0.0157576
817.227	0.0156895
817.305	0.0158409
817.384	0.0158059
817.462	0.0157530
817.540	0.0157944
817.618	0.0158247
817.696	0.0156418
817.774	0.0156676
817.852	0.0158493
817.930	0.0158414
818.009	0.0157186
818.087	0.0158189
818.165	0.0159899
818.243	0.0157708
818.321	0.0157645
818.399	0.0157933
818.477	0.0158989
818.555	0.0160636
818.634	0.0160184
818.712	0.0160327
818.790	0.0161648
818.868	0.0160116
818.946	0.0160291
819.024	0.0159189
819.102	0.0159024
819.180	0.0158703
819.259	0.0157570
819.337	0.0158030
819.415	0.0158236
819.493	0.0156742
819.571	0.0157492
819.649	0.0156885
819.727	0.0157501
819.805	0.0156448
819.884	0.0156705
819.962	0.0154786
820.040	0.0156772
820.118	0.0156995
820.196	0.0154320
820.274	0.0154080
820.352	0.0155389
820.430	0.0155534
820.509	0.0155699
820.587	0.0156693
820.665	0.0155779
820.743	0.0155810
820.821	0.0156094
820.899	0.0156825
820.977	0.0156691
821.055	0.0157280
821.134	0.0156328
821.212	0.0157147
821.290	0.0158507
821.368	0.0157907
821.446	0.0159805
821.524	0.0159354
821.602	0.0158417
821.680	0.0160289
821.759	0.0159574
821.837	0.0160926
821.915	0.0160318
821.993	0.0161411
822.071	0.0161521
822.149	0.0162074
822.227	0.0162259
822.305	0.0160992
822.384	0.0160580
822.462	0.0160032
822.540	0.0161734
822.618	0.0160805
822.696	0.0160081
822.774	0.0159875
822.852	0.0160426
822.930	0.0158617
823.009	0.0158488
823.087	0.0158225
823.165	0.0156731
823.243	0.0157996
823.321	0.0158192
823.399	0.0156943
823.477	0.0157113
823.555	0.0156007
823.634	0.0157133
823.712	0.0155890
823.790	0.0154666
823.868	0.0155250
823.946	0.0156325
824.024	0.0155865
824.102	0.0155772
824.180	0.0154440
824.259	0.0154100
824.337	0.0155838
824.415	0.0155205
824.493	0.0156056
824.571	0.0154891
824.649	0.0155972
824.727	0.0156091
824.805	0.0155475
824.884	0.0157877
824.962	0.0159039
825.040	0.0158776
825.118	0.0157395
825.196	0.0157755
825.274	0.0157638
825.352	0.0157956
825.430	0.0159382
825.509	0.0159029
825.587	0.0158885
825.665	0.0156846
825.743	0.0157768
825.821	0.0158450
825.899	0.0158070
825.977	0.0156602
826.055	0.0157005
826.134	0.0157114
826.212	0.0156882
826.290	0.0157114
826.368	0.0157520
826.446	0.0155342
826.524	0.0156249
826.602	0.0156845
826.680	0.0156095
826.759	0.0154710
826.837	0.0155749
826.915	0.0155657
826.993	0.0156661
827.071	0.0157446
827.149	0.0157243
827.227	0.0157423
827.305	0.0158003
827.384	0.0156841
827.462	0.0157641
827.540	0.0158392
827.618	0.0157735
827.696	0.0157259
827.774	0.0159045
827.852	0.0157557
827.930	0.0157627
828.009	0.0159700
828.087	0.0160019
828.165	0.0158430
828.243	0.0156977
828.321	0.0158018
828.399	0.0160033
828.477	0.0158067
828.555	0.0158596
828.634	0.0159164
828.712	0.0159111
828.790	0.0159197
828.868	0.0159790
828.946	0.0157565
829.024	0.0158746
829.102	0.0156956
829.180	0.0156072
829.259	0.0156566
829.337	0.0157307
829.415	0.0156293
829.493	0.0156197
829.571	0.0155765
829.649	0.0155693
829.727	0.0154941
829.805	0.0153569
829.884	0.0155251
829.962	0.0154053
830.040	0.0153803
830.118	0.0154137
830.196	0.0153190
830.274	0.0154025
830.352	0.0155893
830.430	0.0155441
830.509	0.0153169
830.587	0.0153892
830.665	0.0154128
830.743	0.0154873
830.821	0.0156075
830.899	0.0155941
830.977	0.0156442
831.055	0.0156393
831.134	0.0156617
831.212	0.0157777
831.290	0.0157707
831.368	0.0157786
831.446	0.0158519
831.524	0.0160393
831.602	0.0159211
831.680	0.0160546
831.759	0.0161123
831.837	0.0159713
831.915	0.0161867
831.993	0.0160880
832.071	0.0160625
832.149	0.0161320
832.227	0.0160810
832.305	0.0159294
832.384	0.0159209
832.462	0.0159209
832.540	0.0156850
832.618	0.0157545
832.696	0.0157684
832.774	0.0155194
832.852	0.0156271
832.930	0.0155191
833.009	0.0154430
833.087	0.0153633
833.165	0.0154170
833.243	0.0155053
833.321	0.0154385
833.399	0.0153043
833.477	0.0153506
833.555	0.0153695
833.634	0.0153973
833.712	0.0154935
833.790	0.0154388
833.868	0.0154794
833.946	0.0155650
834.024	0.0156166
834.102	0.0157109
834.180	0.0156502
834.259	0.0157718
834.337	0.0157393
834.415	0.0158033
834.493	0.0159432
834.571	0.0159155
834.649	0.0159071
834.727	0.0160387
834.805	0.0160068
834.884	0.0160258
834.962	0.0162101
835.040	0.0161132
835.118	0.0161810
835.196	0.0161005
835.274	0.0161179
835.352	0.0160474
835.430	0.0158575
835.509	0.0158915
835.587	0.0158789
835.665	0.0159415
835.743	0.0159460
835.821	0.0157615
835.899	0.0156275
835.977	0.0157047
836.055	0.0155505
836.134	0.0156310
836.212	0.0155469
836.290	0.0154756
836.368	0.0154032
836.446	0.0152947
836.524	0.0150877
836.602	0.0151982
836.680	0.0151575
836.759	0.0153162
836.837	0.0152375
836.915	0.0152176
836.993	0.0153034
837.071	0.0152791
837.149	0.0153160
837.227	0.0153631
837.305	0.0154596
837.384	0.0154836
837.462	0.0157452
837.540	0.0157726
837.618	0.0158614
837.696	0.0158517
837.774	0.0159796
837.852	0.0160093
837.930	0.0159347
838.009	0.0160457
838.087	0.0160356
838.165	0.0161956
838.243	0.0160379
838.321	0.0160739
838.399	0.0160057
838.477	0.0160188
838.555	0.0160796
838.634	0.0161016
838.712	0.0159392
838.790	0.0160587
838.868	0.0159248
838.946	0.0159782
839.024	0.0159932
839.102	0.0159619
839.180	0.0159919
839.259	0.0159803
839.337	0.0158598
839.415	0.0158405
839.493	0.0159960
839.571	0.0158871
839.649	0.0159222
839.727	0.0158748
839.805	0.0159430
839.884	0.0158108
839.962	0.0158213
840.040	0.0156259
840.118	0.0157283
840.196	0.0156905
840.274	0.0155874
840.352	0.0154534
840.430	0.0154678
840.509	0.0154442
840.587	0.0154101
840.665	0.0153812
840.743	0.0154698
840.821	0.0154737
840.899	0.0152949
840.977	0.0153754
841.055	0.0154895
841.134	0.0154351
841.212	0.0154318
841.290	0.0155146
841.368	0.0155556
841.446	0.0155907
841.524	0.0155544
841.602	0.0156934
841.680	0.0157425
841.759	0.0155665
841.837	0.0156213
841.915	0.0156624
841.993	0.0157236
842.071	0.0156850
842.149	0.0157127
842.227	0.0156818
842.305	0.0157497
842.384	0.0158325
842.462	0.0157030
842.540	0.0156447
842.618	0.0158026
842.696	0.0157835
842.774	0.0158183
842.852	0.0158126
842.930	0.0159007
843.009	0.0159547
843.087	0.0158752
843.165	0.0158630
843.243	0.0159017
843.321	0.0158124
843.399	0.0157763
843.477	0.0157903
843.555	0.0158149
843.634	0.0156123
843.712	0.0157196
843.790	0.0156747
843.868	0.0157646
843.946	0.0157273
844.024	0.0158154
844.102	0.0158237
844.180	0.0158015
844.259	0.0157383
844.337	0.0159917
844.415	0.0159559
844.493	0.0158697
844.571	0.0159814
844.649	0.0157902
844.727	0.0158541
844.805	0.0158742
844.884	0.0159017
844.962	0.0158105
845.040	0.0157504
845.118	0.0158520
845.196	0.0155998
845.274	0.0156620
845.352	0.0155903
845.430	0.0153215
845.509	0.0153161
845.587	0.0155151
845.665	0.0154182
845.743	0.0152876
845.821	0.0152991
845.899	0.0153131
845.977	0.0152322
846.055	0.0153852
846.134	0.0153429
846.212	0.0154922
846.290	0.0155437
846.368	0.0156822
846.446	0.0155394
846.524	0.0155580
846.602	0.0156622
846.680	0.0157536
846.759	0.0156962
846.837	0.0158870
846.915	0.0158317
846.993	0.0158624
847.071	0.0157580
847.149	0.0159200
847.227	0.0159663
847.305	0.0158896
847.384	0.0158236
847.462	0.0158923
847.540	0.0158981
847.618	0.0159378
847.696	0.0158971
847.774	0.0159606
847.852	0.0159956
847.930	0.0159219
848.009	0.0160291
848.087	0.0159370
848.165	0.0158681
848.243	0.0159215
848.321	0.0158613
848.399	0.0157999
848.477	0.0158130
848.555	0.0156989
848.634	0.0156744
848.712	0.0157770
848.790	0.0156681
848.868	0.0155611
848.946	0.0155566
849.024	0.0154359
849.102	0.0155984
849.180	0.0155789
849.259	0.0154867
849.337	0.0153420
849.415	0.0154767
849.493	0.0155726
849.571	0.0155179
849.649	0.0155167
849.727	0.0154630
849.805	0.0154036
849.884	0.0154529
849.962	0.0155702
850.040	0.0155313
850.118	0.0155125
850.196	0.0156197
850.274	0.0157448
850.352	0.0156438
850.430	0.0157204
850.509	0.0157059
850.587	0.0158787
850.665	0.0159548
850.743	0.0157121
850.821	0.0157518
850.899	0.0158922
850.977	0.0158392
851.055	0.0158810
851.134	0.0158498
851.212	0.0158206
851.290	0.0158475
851.368	0.0159244
851.446	0.0158250
851.524	0.0156618
851.602	0.0157504
851.680	0.0157197
851.759	0.0157353
851.837	0.0156972
851.915	0.0157511
851.993	0.0157511
852.071	0.0156092
852.149	0.0156882
852.227	0.0156753
852.305	0.0157214
852.384	0.0155872
852.462	0.0156257
852.540	0.0157091
852.618	0.0157584
852.696	0.0157022
852.774	0.0155909
852.852	0.0155258
852.930	0.0157589
853.009	0.0155481
853.087	0.0156297
853.165	0.0157684
853.243	0.0156117
853.321	0.0156061
853.399	0.0158352
853.477	0.0157256
853.555	0.0155120
853.634	0.0155427
853.712	0.0155988
853.790	0.0156135
853.868	0.0156991
853.946	0.0156177
854.024	0.0156516
854.102	0.0156200
854.180	0.0156471
854.259	0.0154661
854.337	0.0157111
854.415	0.0157294
854.493	0.0157185
854.571	0.0158175
854.649	0.0158019
854.727	0.0157742
854.805	0.0158342
854.884	0.0157824
854.962	0.0157787
855.040	0.0158365
855.118	0.0159092
855.196	0.0158248
855.274	0.0157831
855.352	0.0158617
855.430	0.0158752
855.509	0.0158214
855.587	0.0156604
855.665	0.0156681
855.743	0.0158433
855.821	0.0156841
855.899	0.0157063
855.977	0.0157932
856.055	0.0156496
856.134	0.0157197
856.212	0.0158829
856.290	0.0157977
856.368	0.0157864
856.446	0.0157104
856.524	0.0157609
856.602	0.0156471
856.680	0.0157407
856.759	0.0158237
856.837	0.0157478
856.915	0.0157353
856.993	0.0156455
857.071	0.0156456
857.149	0.0157330
857.227	0.0156683
857.305	0.0156290
857.384	0.0157125
857.462	0.0157233
857.540	0.0156611
857.618	0.0157370
857.696	0.0157828
857.774	0.0156998
857.852	0.0157190
857.930	0.0156786
858.009	0.0157281
858.087	0.0158155
858.165	0.0156201
858.243	0.0156744
858.321	0.0157806
858.399	0.0157750
858.477	0.0156101
858.555	0.0157739
858.634	0.0158340
858.712	0.0158171
858.790	0.0157382
858.868	0.0158080
858.946	0.0158806
859.024	0.0158346
859.102	0.0159241
859.180	0.0158197
859.259	0.0160112
859.337	0.0159457
859.415	0.0159515
859.493	0.0158358
859.571	0.0159904
859.649	0.0159913
859.727	0.0158205
859.805	0.0158443
859.884	0.0158359
859.962	0.0156999
860.040	0.0158196
860.118	0.0158667
860.196	0.0156892
860.274	0.0158222
860.352	0.0157660
860.430	0.0158006
860.509	0.0156885
860.587	0.0157442
860.665	0.0157410
860.743	0.0156660
860.821	0.0156594
860.899	0.0156300
860.977	0.0156561
861.055	0.0156416
861.134	0.0156599
861.212	0.0156586
861.290	0.0157172
861.368	0.0157678
861.446	0.0158978
861.524	0.0158647
861.602	0.0158588
861.680	0.0158498
861.759	0.0159088
861.837	0.0157825
861.915	0.0158222
861.993	0.0159761
862.071	0.0159661
862.149	0.0159144
862.227	0.0157558
862.305	0.0157475
862.384	0.0156974
862.462	0.0157299
862.540	0.0157321
862.618	0.0155627
862.696	0.0155733
862.774	0.0157803
862.852	0.0156686
862.930	0.0155873
863.009	0.0157594
863.087	0.0156757
863.165	0.0157697
863.243	0.0157533
863.321	0.0157903
863.399	0.0156867
863.477	0.0158347
863.555	0.0159190
863.634	0.0158681
863.712	0.0158274
863.790	0.0158209
863.868	0.0158828
863.946	0.0159315
864.024	0.0158974
864.102	0.0156634
864.180	0.0157291
864.259	0.0157235
864.337	0.0156331
864.415	0.0156053
864.493	0.0157068
864.571	0.0157535
864.649	0.0158228
864.727	0.0156257
864.805	0.0157298
864.884	0.0157811
864.962	0.0156858
865.040	0.0156441
865.118	0.0157599
865.196	0.0156403
865.274	0.0156985
865.352	0.0157990
865.430	0.0158002
865.509	0.0157890
865.587	0.0157074
865.665	0.0156710
865.743	0.0156999
865.821	0.0156020
865.899	0.0157377
865.977	0.0157921
866.055	0.0157935
866.134	0.0156523
866.212	0.0156783
866.290	0.0156775
866.368	0.0156535
866.446	0.0155827
866.524	0.0156905
866.602	0.0156893
866.680	0.0156625
866.759	0.0156550
866.837	0.0156906
866.915	0.0156994
866.993	0.0156992
867.071	0.0158298
867.149	0.0157636
867.227	0.0157246
867.305	0.0159989
867.384	0.0158832
867.462	0.0158121
867.540	0.0158358
867.618	0.0158078
867.696	0.0159449
867.774	0.0158661
867.852	0.0159905
867.930	0.0157588
868.009	0.0158233
868.087	0.0158669
868.165	0.0159557
868.243	0.0157574
868.321	0.0158385
868.399	0.0156071
868.477	0.0156879
868.555	0.0157664
868.634	0.0157927
868.712	0.0157005
868.790	0.0156204
868.868	0.0157587
868.946	0.0156123
869.024	0.0157456
869.102	0.0157339
869.180	0.0156285
869.259	0.0157079
869.337	0.0156173
869.415	0.0157132
869.493	0.0157465
869.571	0.0156866
869.649	0.0157742
869.727	0.0157038
869.805	0.0156981
869.884	0.0158625
869.962	0.0157437
870.040	0.0156918
870.118	0.0157253
870.196	0.0156968
870.274	0.0157777
870.352	0.0156421
870.430	0.0156743
870.509	0.0158367
870.587	0.0158539
870.665	0.0157006
870.743	0.0157648
870.821	0.0160021
870.899	0.0157876
870.977	0.0159492
871.055	0.0158418
871.134	0.0159114
871.212	0.0158771
871.290	0.0159183
871.368	0.0158794
871.446	0.0157658
871.524	0.0157610
871.602	0.0157806
871.680	0.0158575
871.759	0.0158470
871.837	0.0157117
871.915	0.0156949
871.993	0.0158557
872.071	0.0158316
872.149	0.0158031
872.227	0.0158342
872.305	0.0159190
872.384	0.0157154
872.462	0.0156643
872.540	0.0157502
872.618	0.0157675
872.696	0.0157429
872.774	0.0157845
872.852	0.0156921
872.930	0.0158247
873.009	0.0158206
873.087	0.0156570
873.165	0.0156790
873.243	0.0156753
873.321	0.0156150
873.399	0.0156937
873.477	0.0156015
873.555	0.0157295
873.634	0.0156957
873.712	0.0157104
873.790	0.0156155
873.868	0.0156072
873.946	0.0157852
874.024	0.0157211
874.102	0.0156945
874.180	0.0156883
874.259	0.0155988
874.337	0.0157086
874.415	0.0155337
874.493	0.0156770
874.571	0.0156311
874.649	0.0155823
874.727	0.0155480
874.805	0.0156376
874.884	0.0157187
874.962	0.0156533
875.040	0.0156554
875.118	0.0156503
875.196	0.0156908
875.274	0.0158391
875.352	0.0157220
875.430	0.0158994
875.509	0.0159221
875.587	0.0158563
875.665	0.0157159
875.743	0.0157610
875.821	0.0158393
875.899	0.0159562
875.977	0.0158286
876.055	0.0157622
876.134	0.0158653
876.212	0.0158821
876.290	0.0158015
876.368	0.0156864
876.446	0.0156641
876.524	0.0156780
876.602	0.0158904
876.680	0.0156812
876.759	0.0156516
876.837	0.0158192
876.915	0.0157640
876.993	0.0156122
877.071	0.0156212
877.149	0.0158288
877.227	0.0158000
877.305	0.0157531
877.384	0.0157917
877.462	0.0158253
877.540	0.0157582
877.618	0.0159332
877.696	0.0158152
877.774	0.0159507
877.852	0.0157819
877.930	0.0158614
878.009	0.0157773
878.087	0.0157289
878.165	0.0157837
878.243	0.0157340
878.321	0.0158031
878.399	0.0157590
878.477	0.0157770
878.555	0.0160787
878.634	0.0160054
878.712	0.0159216
878.790	0.0159753
878.868	0.0159474
878.946	0.0159794
879.024	0.0159689
879.102	0.0158363
879.180	0.0157851
879.259	0.0157349
879.337	0.0158880
879.415	0.0158784
879.493	0.0158241
879.571	0.0159042
879.649	0.0157352
879.727	0.0156935
879.805	0.0158252
879.884	0.0157516
879.962	0.0157919
880.040	0.0158507
880.118	0.0157746
880.196	0.0157435
880.274	0.0156360
880.352	0.0158186
880.430	0.0156783
880.509	0.0158635
880.587	0.0159286
880.665	0.0157643
880.743	0.0158114
880.821	0.0157858
880.899	0.0156941
880.977	0.0157826
881.055	0.0157383
881.134	0.0158751
881.212	0.0158273
881.290	0.0159412
881.368	0.0159283
881.446	0.0158707
881.524	0.0158817
881.602	0.0158085
881.680	0.0158685
881.759	0.0158623
881.837	0.0156933
881.915	0.0158050
881.993	0.0158195
882.071	0.0159280
882.149	0.0159532
882.227	0.0158788
882.305	0.0159143
882.384	0.0159114
882.462	0.0159248
882.540	0.0160992
882.618	0.0158669
882.696	0.0158097
882.774	0.0158063
882.852	0.0159369
882.930	0.0159290
883.009	0.0157979
883.087	0.0157937
883.165	0.0159502
883.243	0.0157739
883.321	0.0157273
883.399	0.0158342
883.477	0.0157167
883.555	0.0156756
883.634	0.0157328
883.712	0.0156244
883.790	0.0158244
883.868	0.0156702
883.946	0.0156157
884.024	0.0158057
884.102	0.0157695
884.180	0.0156948
884.259	0.0157369
884.337	0.0157874
884.415	0.0157236
884.493	0.0158210
884.571	0.0158678
884.649	0.0157977
884.727	0.0158729
884.805	0.0157621
884.884	0.0157506
884.962	0.0157655
885.040	0.0156719
885.118	0.0157109
885.196	0.0157816
885.274	0.0158095
885.352	0.0157106
885.430	0.0156753
885.509	0.0157342
885.587	0.0158389
885.665	0.0158507
885.743	0.0157369
885.821	0.0158599
885.899	0.0158494
885.977	0.0158380
886.055	0.0157336
886.134	0.0158665
886.212	0.0158784
886.290	0.0157044
886.368	0.0156888
886.446	0.0157034
886.524	0.0158093
886.602	0.0158432
886.680	0.0158066
886.759	0.0158179
886.837	0.0159122
886.915	0.0158492
886.993	0.0158350
887.071	0.0158592
887.149	0.0158337
887.227	0.0158833
887.305	0.0158849
887.384	0.0158504
887.462	0.0159100
887.540	0.0158658
887.618	0.0158335
887.696	0.0158667
887.774	0.0158458
887.852	0.0158327
887.930	0.0158020
888.009	0.0157978
888.087	0.0156926
888.165	0.0157601
888.243	0.0157607
888.321	0.0158174
888.399	0.0157296
888.477	0.0156377
888.555	0.0156382
888.634	0.0156987
888.712	0.0157777
888.790	0.0157555
888.868	0.0156767
888.946	0.0156237
889.024	0.0157212
889.102	0.0156282
889.180	0.0155746
889.259	0.0156882
889.337	0.0157118
889.415	0.0156496
889.493	0.0157448
889.571	0.0158745
889.649	0.0156828
889.727	0.0157119
889.805	0.0158244
889.884	0.0157363
889.962	0.0157516
890.040	0.0155879
890.118	0.0158546
890.196	0.0159931
890.274	0.0157688
890.352	0.0158342
890.430	0.0158517
890.509	0.0159264
890.587	0.0159648
890.665	0.0158812
890.743	0.0158060
890.821	0.0158675
890.899	0.0158218
890.977	0.0158237
891.055	0.0159799
891.134	0.0156778
891.212	0.0156944
891.290	0.0157362
891.368	0.0157382
891.446	0.0157020
891.524	0.0156407
891.602	0.0156087
891.680	0.0155910
891.759	0.0157220
891.837	0.0157750
891.915	0.0158108
891.993	0.0158573
892.071	0.0158833
892.149	0.0159472
892.227	0.0158501
892.305	0.0157963
892.384	0.0158381
892.462	0.0156766
892.540	0.0157850
892.618	0.0157555
892.696	0.0158138
892.774	0.0158675
892.852	0.0157813
892.930	0.0157329
893.009	0.0156033
893.087	0.0156267
893.165	0.0158374
893.243	0.0157993
893.321	0.0156678
893.399	0.0156084
893.477	0.0155012
893.555	0.0156721
893.634	0.0157836
893.712	0.0156824
893.790	0.0156207
893.868	0.0156507
893.946	0.0156041
894.024	0.0156535
894.102	0.0157471
894.180	0.0158095
894.259	0.0157349
894.337	0.0157191
894.415	0.0156577
894.493	0.0158157
894.571	0.0157986
894.649	0.0157185
894.727	0.0157951
894.805	0.0158370
894.884	0.0157585
894.962	0.0158063
895.040	0.0159117
895.118	0.0158321
895.196	0.0157810
895.274	0.0158064
895.352	0.0160032
895.430	0.0158829
895.509	0.0159105
895.587	0.0157675
895.665	0.0156673
895.743	0.0158070
895.821	0.0158285
895.899	0.0157855
895.977	0.0158203
896.055	0.0157363
896.134	0.0158038
896.212	0.0158214
896.290	0.0158059
896.368	0.0158589
896.446	0.0158601
896.524	0.0156350
896.602	0.0156794
896.680	0.0157823
896.759	0.0157572
896.837	0.0156647
896.915	0.0158035
896.993	0.0157837
897.071	0.0157766
897.149	0.0155414
897.227	0.0156055
897.305	0.0156797
897.384	0.0156652
897.462	0.0157212
897.540	0.0157373
897.618	0.0157053
897.696	0.0157387
897.774	0.0157124
897.852	0.0158557
897.930	0.0158221
898.009	0.0157233
898.087	0.0158877
898.165	0.0158932
898.243	0.0158144
898.321	0.0157180
898.399	0.0158031
898.477	0.0159399
898.555	0.0158934
898.634	0.0158021
898.712	0.0159373
898.790	0.0157851
898.868	0.0158799
898.946	0.0158609
899.024	0.0156955
899.102	0.0157816
899.180	0.0159375
899.259	0.0157309
899.337	0.0156332
899.415	0.0156982
899.493	0.0156314
899.571	0.0156135
899.649	0.0156788
899.727	0.0156641
899.805	0.0155709
899.884	0.0156493
899.962	0.0157602
900.040	0.0158140
900.118	0.0156581
900.196	0.0157293
900.274	0.0156978
900.352	0.0155946
900.430	0.0155093
900.509	0.0156003
900.587	0.0157788
900.665	0.0158389
900.743	0.0157319
900.821	0.0157969
900.899	0.0158212
900.977	0.0158034
901.055	0.0159030
901.134	0.0157794
901.212	0.0158300
901.290	0.0158928
901.368	0.0159333
901.446	0.0160213
901.524	0.0158819
901.602	0.0158079
901.680	0.0157317
901.759	0.0158642
901.837	0.0158837
901.915	0.0158983
901.993	0.0159997
902.071	0.0158218
902.149	0.0157937
902.227	0.0158270
902.305	0.0158396
902.384	0.0156104
902.462	0.0157084
902.540	0.0157964
902.618	0.0158826
902.696	0.0156990
902.774	0.0158171
902.852	0.0157368
902.930	0.0156888
903.009	0.0157355
903.087	0.0156700
903.165	0.0157356
903.243	0.0157473
903.321	0.0156949
903.399	0.0157578
903.477	0.0158444
903.555	0.0157063
903.634	0.0157780
903.712	0.0158600
903.790	0.0158926
903.868	0.0158594
903.946	0.0158032
904.024	0.0158506
904.102	0.0158617
904.180	0.0159840
904.259	0.0160326
904.337	0.0160181
904.415	0.0159529
904.493	0.0159787
904.571	0.0159270
904.649	0.0158705
904.727	0.0160197
904.805	0.0158083
904.884	0.0159123
904.962	0.0158858
905.040	0.0158836
905.118	0.0157981
905.196	0.0158697
905.274	0.0158720
905.352	0.0158173
905.430	0.0157833
905.509	0.0157116
905.587	0.0157158
905.665	0.0157883
905.743	0.0157372
905.821	0.0158414
905.899	0.0158177
905.977	0.0157558
906.055	0.0157429
906.134	0.0157406
906.212	0.0158192
906.290	0.0159600
906.368	0.0157919
906.446	0.0157771
906.524	0.0157353
906.602	0.0158311
906.680	0.0158411
906.759	0.0159816
906.837	0.0158373
906.915	0.0158700
906.993	0.0158269
907.071	0.0158405
907.149	0.0158979
907.227	0.0158414
907.305	0.0158074
907.384	0.0157571
907.462	0.0157910
907.540	0.0158823
907.618	0.0157634
907.696	0.0157716
907.774	0.0156355
907.852	0.0157529
907.930	0.0158403
908.009	0.0157593
908.087	0.0157207
908.165	0.0156728
908.243	0.0157354
908.321	0.0157344
908.399	0.0157698
908.477	0.0156573
908.555	0.0155893
908.634	0.0156236
908.712	0.0157128
908.790	0.0157099
908.868	0.0157991
908.946	0.0158105
909.024	0.0157642
909.102	0.0158102
909.180	0.0157272
909.259	0.0157176
909.337	0.0158955
909.415	0.0158525
909.493	0.0158580
909.571	0.0158949
909.649	0.0157755
909.727	0.0157879
909.805	0.0158264
909.884	0.0157901
909.962	0.0157650
910.040	0.0156496
910.118	0.0158662
910.196	0.0158083
910.274	0.0158154
910.352	0.0157385
910.430	0.0158425
910.509	0.0156898
910.587	0.0158818
910.665	0.0158590
910.743	0.0158049
910.821	0.0157838
910.899	0.0156109
910.977	0.0156892
911.055	0.0156406
911.134	0.0156063
911.212	0.0156737
911.290	0.0156731
911.368	0.0157047
911.446	0.0156596
911.524	0.0156913
911.602	0.0156750
911.680	0.0157197
911.759	0.0155840
911.837	0.0156781
911.915	0.0156861
911.993	0.0156184
912.071	0.0156868
912.149	0.0155019
912.227	0.0157107
912.305	0.0156033
912.384	0.0157982
912.462	0.0157416
912.540	0.0155793
912.618	0.0156654
912.696	0.0156236
912.774	0.0158266
912.852	0.0157008
912.930	0.0157515
913.009	0.0156979
913.087	0.0155714
913.165	0.0157135
913.243	0.0156959
913.321	0.0157554
913.399	0.0155949
913.477	0.0156949
913.555	0.0156645
913.634	0.0157078
913.712	0.0157163
913.790	0.0156831
913.868	0.0156663
913.946	0.0157133
914.024	0.0158042
914.102	0.0158897
914.180	0.0156796
914.259	0.0157175
914.337	0.0157400
914.415	0.0157728
914.493	0.0158658
914.571	0.0157352
914.649	0.0157652
914.727	0.0157149
914.805	0.0157087
914.884	0.0157192
914.962	0.0156756
915.040	0.0156262
915.118	0.0157650
915.196	0.0157674
915.274	0.0156989
915.352	0.0157628
915.430	0.0157093
915.509	0.0158120
915.587	0.0158720
915.665	0.0158458
915.743	0.0156568
915.821	0.0157341
915.899	0.0158670
915.977	0.0159028
916.055	0.0158036
916.134	0.0158048
916.212	0.0158450
916.290	0.0157085
916.368	0.0158115
916.446	0.0157384
916.524	0.0157410
916.602	0.0157481
916.680	0.0158543
916.759	0.0158595
916.837	0.0157481
916.915	0.0158376
916.993	0.0158235
917.071	0.0157869
917.149	0.0156639
917.227	0.0156187
917.305	0.0156906
917.384	0.0158324
917.462	0.0158212
917.540	0.0158293
917.618	0.0157022
917.696	0.0157578
917.774	0.0156208
917.852	0.0156281
917.930	0.0157150
918.009	0.0156817
918.087	0.0156641
918.165	0.0157013
918.243	0.0157986
918.321	0.0156680
918.399	0.0157437
918.477	0.0156760
918.555	0.0155595
918.634	0.0158778
918.712	0.0157672
918.790	0.0157580
918.868	0.0159418
918.946	0.0158018
919.024	0.0158370
919.102	0.0158730
919.180	0.0158021
919.259	0.0157810
919.337	0.0158315
919.415	0.0159119
919.493	0.0157971
919.571	0.0158944
919.649	0.0158511
919.727	0.0158591
919.805	0.0157005
919.884	0.0158627
