06/13/2022	15:09:34	Ver.	4.1	UNKNOWN
Optical Delay	599.968395	Delta X		0.078125	Sweeps	1	Scan Rate	0/0
Coordinates	Axis 1	NaN	Axis 2	NaN	Axis 3	NaN	Axis 4	NaN	Axis 5	NaN	Axis 6	0.000000
TX Power	0.000000	RX Power	0.000000

599.968	0.0159431
600.047	0.0158785
600.125	0.0159772
600.203	0.0159241
600.281	0.0157880
600.359	0.0160498
600.437	0.0159100
600.515	0.0160001
600.593	0.0160669
600.672	0.0159364
600.750	0.0158416
600.828	0.0158826
600.906	0.0160227
600.984	0.0159159
601.062	0.0159230
601.140	0.0159429
601.218	0.0159203
601.297	0.0159338
601.375	0.0159873
601.453	0.0159245
601.531	0.0159301
601.609	0.0158858
601.687	0.0158609
601.765	0.0159377
601.843	0.0159444
601.922	0.0158412
602.000	0.0158884
602.078	0.0158488
602.156	0.0160204
602.234	0.0158539
602.312	0.0159493
602.390	0.0159526
602.468	0.0159116
602.547	0.0159196
602.625	0.0159504
602.703	0.0158524
602.781	0.0158057
602.859	0.0158829
602.937	0.0158917
603.015	0.0160360
603.093	0.0159700
603.172	0.0158806
603.250	0.0159562
603.328	0.0158097
603.406	0.0159148
603.484	0.0159474
603.562	0.0161098
603.640	0.0158954
603.718	0.0158936
603.797	0.0158271
603.875	0.0157769
603.953	0.0159426
604.031	0.0160592
604.109	0.0161264
604.187	0.0159820
604.265	0.0158836
604.343	0.0158935
604.422	0.0159320
604.500	0.0159850
604.578	0.0159705
604.656	0.0160647
604.734	0.0159915
604.812	0.0158471
604.890	0.0158901
604.968	0.0158788
605.047	0.0159618
605.125	0.0158678
605.203	0.0160979
605.281	0.0159715
605.359	0.0159773
605.437	0.0159440
605.515	0.0160072
605.593	0.0159739
605.672	0.0159415
605.750	0.0160076
605.828	0.0158941
605.906	0.0159456
605.984	0.0159474
606.062	0.0159396
606.140	0.0159351
606.218	0.0160412
606.297	0.0161597
606.375	0.0159879
606.453	0.0159142
606.531	0.0157588
606.609	0.0160502
606.687	0.0159778
606.765	0.0159531
606.843	0.0158479
606.922	0.0158456
607.000	0.0159039
607.078	0.0159871
607.156	0.0159296
607.234	0.0159003
607.312	0.0159553
607.390	0.0158896
607.468	0.0157926
607.547	0.0158269
607.625	0.0157901
607.703	0.0159205
607.781	0.0160196
607.859	0.0160116
607.937	0.0159480
608.015	0.0159018
608.093	0.0159119
608.172	0.0160259
608.250	0.0160379
608.328	0.0156814
608.406	0.0159574
608.484	0.0159056
608.562	0.0158309
608.640	0.0159267
608.718	0.0158826
608.797	0.0159309
608.875	0.0158950
608.953	0.0158632
609.031	0.0159242
609.109	0.0158017
609.187	0.0158086
609.265	0.0159548
609.343	0.0160113
609.422	0.0159543
609.500	0.0158047
609.578	0.0158436
609.656	0.0159215
609.734	0.0159455
609.812	0.0158990
609.890	0.0159533
609.968	0.0158610
610.047	0.0158778
610.125	0.0159196
610.203	0.0159824
610.281	0.0159339
610.359	0.0158627
610.437	0.0159067
610.515	0.0157968
610.593	0.0158892
610.672	0.0158917
610.750	0.0160350
610.828	0.0159010
610.906	0.0157847
610.984	0.0159963
611.062	0.0159223
611.140	0.0159599
611.218	0.0159451
611.297	0.0159381
611.375	0.0158232
611.453	0.0159319
611.531	0.0159270
611.609	0.0160564
611.687	0.0158696
611.765	0.0158131
611.843	0.0159676
611.922	0.0159014
612.000	0.0160278
612.078	0.0158321
612.156	0.0158409
612.234	0.0157616
612.312	0.0158897
612.390	0.0160168
612.468	0.0159812
612.547	0.0158867
612.625	0.0158899
612.703	0.0159604
612.781	0.0159225
612.859	0.0159400
612.937	0.0159314
613.015	0.0158183
613.093	0.0158906
613.172	0.0158141
613.250	0.0158086
613.328	0.0159497
613.406	0.0158978
613.484	0.0158451
613.562	0.0159039
613.640	0.0159179
613.718	0.0159382
613.797	0.0160152
613.875	0.0158302
613.953	0.0158705
614.031	0.0157613
614.109	0.0158119
614.187	0.0159363
614.265	0.0159368
614.343	0.0158176
614.422	0.0159549
614.500	0.0158807
614.578	0.0158747
614.656	0.0160167
614.734	0.0158932
614.812	0.0159440
614.890	0.0159009
614.968	0.0159328
615.047	0.0157978
615.125	0.0158330
615.203	0.0158587
615.281	0.0158923
615.359	0.0158802
615.437	0.0157214
615.515	0.0158431
615.593	0.0159472
615.672	0.0158181
615.750	0.0156781
615.828	0.0157825
615.906	0.0158733
615.984	0.0159387
616.062	0.0159638
616.140	0.0158324
616.218	0.0158541
616.297	0.0157857
616.375	0.0157479
616.453	0.0158361
616.531	0.0158636
616.609	0.0158928
616.687	0.0158871
616.765	0.0157246
616.843	0.0158817
616.922	0.0158903
617.000	0.0158700
617.078	0.0159084
617.156	0.0158638
617.234	0.0158729
617.312	0.0158556
617.390	0.0158116
617.468	0.0159478
617.547	0.0159049
617.625	0.0157324
617.703	0.0157473
617.781	0.0159736
617.859	0.0159850
617.937	0.0159279
618.015	0.0158789
618.093	0.0159509
618.172	0.0158625
618.250	0.0158493
618.328	0.0159711
618.406	0.0158836
618.484	0.0158214
618.562	0.0159460
618.640	0.0159010
618.718	0.0158363
618.797	0.0160049
618.875	0.0159821
618.953	0.0159631
619.031	0.0159969
619.109	0.0158882
619.187	0.0158731
619.265	0.0159818
619.343	0.0160174
619.422	0.0158984
619.500	0.0159168
619.578	0.0160071
619.656	0.0158979
619.734	0.0159447
619.812	0.0160065
619.890	0.0159878
619.968	0.0158910
620.047	0.0159519
620.125	0.0158712
620.203	0.0159605
620.281	0.0160751
620.359	0.0160410
620.437	0.0158643
620.515	0.0158284
620.593	0.0159495
620.672	0.0159638
620.750	0.0159684
620.828	0.0160030
620.906	0.0159284
620.984	0.0159989
621.062	0.0159618
621.140	0.0161404
621.218	0.0159279
621.297	0.0159754
621.375	0.0159328
621.453	0.0160201
621.531	0.0160406
621.609	0.0159493
621.687	0.0158731
621.765	0.0159594
621.843	0.0159274
621.922	0.0161121
622.000	0.0160736
622.078	0.0159877
622.156	0.0158634
622.234	0.0159708
622.312	0.0159493
622.390	0.0160257
622.468	0.0159850
622.547	0.0160247
622.625	0.0161259
622.703	0.0159588
622.781	0.0160783
622.859	0.0160924
622.937	0.0161427
623.015	0.0160058
623.093	0.0160001
623.172	0.0159956
623.250	0.0159729
623.328	0.0160517
623.406	0.0160542
623.484	0.0161208
623.562	0.0159968
623.640	0.0159891
623.718	0.0161236
623.797	0.0158229
623.875	0.0160271
623.953	0.0160400
624.031	0.0160658
624.109	0.0160196
624.187	0.0160855
624.265	0.0159978
624.343	0.0160002
624.422	0.0159987
624.500	0.0160097
624.578	0.0160491
624.656	0.0160440
624.734	0.0159602
624.812	0.0160848
624.890	0.0160149
624.968	0.0157281
625.047	0.0160025
625.125	0.0161569
625.203	0.0158976
625.281	0.0158889
625.359	0.0161119
625.437	0.0161129
625.515	0.0159447
625.593	0.0159464
625.672	0.0160025
625.750	0.0160515
625.828	0.0159807
625.906	0.0160532
625.984	0.0160769
626.062	0.0160662
626.140	0.0159680
626.218	0.0159030
626.297	0.0159533
626.375	0.0159410
626.453	0.0159897
626.531	0.0160451
626.609	0.0160494
626.687	0.0160306
626.765	0.0160313
626.843	0.0159617
626.922	0.0162201
627.000	0.0160354
627.078	0.0159162
627.156	0.0160683
627.234	0.0160416
627.312	0.0158979
627.390	0.0161097
627.468	0.0160905
627.547	0.0160095
627.625	0.0159003
627.703	0.0158640
627.781	0.0160758
627.859	0.0159038
627.937	0.0159664
628.015	0.0159432
628.093	0.0160000
628.172	0.0158694
628.250	0.0159249
628.328	0.0159787
628.406	0.0159477
628.484	0.0159654
628.562	0.0158739
628.640	0.0159901
628.718	0.0160236
628.797	0.0159275
628.875	0.0158929
628.953	0.0158498
629.031	0.0158593
629.109	0.0159798
629.187	0.0160011
629.265	0.0159569
629.343	0.0159818
629.422	0.0160281
629.500	0.0160587
629.578	0.0159996
629.656	0.0160238
629.734	0.0159118
629.812	0.0159209
629.890	0.0160001
629.968	0.0158437
630.047	0.0160711
630.125	0.0160972
630.203	0.0160313
630.281	0.0159533
630.359	0.0159733
630.437	0.0160148
630.515	0.0160197
630.593	0.0159743
630.672	0.0159971
630.750	0.0159003
630.828	0.0159821
630.906	0.0159609
630.984	0.0159142
631.062	0.0160056
631.140	0.0158870
631.218	0.0159054
631.297	0.0159368
631.375	0.0160156
631.453	0.0160965
631.531	0.0158959
631.609	0.0158914
631.687	0.0160246
631.765	0.0159901
631.843	0.0158124
631.922	0.0159775
632.000	0.0161210
632.078	0.0160317
632.156	0.0159680
632.234	0.0159590
632.312	0.0160420
632.390	0.0159657
632.468	0.0158815
632.547	0.0159109
632.625	0.0160076
632.703	0.0158764
632.781	0.0159788
632.859	0.0159641
632.937	0.0160287
633.015	0.0159779
633.093	0.0160740
633.172	0.0160091
633.250	0.0158878
633.328	0.0160197
633.406	0.0160815
633.484	0.0160117
633.562	0.0160793
633.640	0.0159550
633.718	0.0159846
633.797	0.0160011
633.875	0.0159845
633.953	0.0158955
634.031	0.0158957
634.109	0.0159354
634.187	0.0160468
634.265	0.0159646
634.343	0.0158385
634.422	0.0159978
634.500	0.0159911
634.578	0.0160081
634.656	0.0159397
634.734	0.0158849
634.812	0.0159760
634.890	0.0160013
634.968	0.0159967
635.047	0.0158862
635.125	0.0160771
635.203	0.0159312
635.281	0.0160284
635.359	0.0158892
635.437	0.0159938
635.515	0.0160155
635.593	0.0159805
635.672	0.0161337
635.750	0.0160898
635.828	0.0158941
635.906	0.0159408
635.984	0.0158751
636.062	0.0161341
636.140	0.0160120
636.218	0.0159703
636.297	0.0160070
636.375	0.0161449
636.453	0.0160207
636.531	0.0159647
636.609	0.0160516
636.687	0.0159839
636.765	0.0158836
636.843	0.0160006
636.922	0.0160477
637.000	0.0160445
637.078	0.0158817
637.156	0.0160030
637.234	0.0159525
637.312	0.0160233
637.390	0.0159301
637.468	0.0158691
637.547	0.0158973
637.625	0.0160194
637.703	0.0160349
637.781	0.0158067
637.859	0.0159123
637.937	0.0161084
638.015	0.0159801
638.093	0.0159453
638.172	0.0159982
638.250	0.0160265
638.328	0.0159900
638.406	0.0160611
638.484	0.0160686
638.562	0.0159531
638.640	0.0160641
638.718	0.0160008
638.797	0.0158742
638.875	0.0160393
638.953	0.0160969
639.031	0.0159295
639.109	0.0160367
639.187	0.0159508
639.265	0.0159215
639.343	0.0160349
639.422	0.0159116
639.500	0.0159637
639.578	0.0159542
639.656	0.0159090
639.734	0.0158697
639.812	0.0158913
639.890	0.0158850
639.968	0.0157614
640.047	0.0158299
640.125	0.0156747
640.203	0.0157820
640.281	0.0158809
640.359	0.0158644
640.437	0.0157770
640.515	0.0158109
640.593	0.0159249
640.672	0.0159375
640.750	0.0158270
640.828	0.0159792
640.906	0.0159495
640.984	0.0159573
641.062	0.0159503
641.140	0.0158795
641.218	0.0160088
641.297	0.0159499
641.375	0.0157271
641.453	0.0161034
641.531	0.0160440
641.609	0.0158428
641.687	0.0160497
641.765	0.0161136
641.843	0.0160681
641.922	0.0158989
642.000	0.0158044
642.078	0.0158852
642.156	0.0158634
642.234	0.0158871
642.312	0.0157748
642.390	0.0159313
642.468	0.0158517
642.547	0.0156992
642.625	0.0157303
642.703	0.0157845
642.781	0.0158742
642.859	0.0159656
642.937	0.0158005
643.015	0.0159624
643.093	0.0159940
643.172	0.0159468
643.250	0.0159252
643.328	0.0159645
643.406	0.0158927
643.484	0.0159187
643.562	0.0157792
643.640	0.0159261
643.718	0.0161311
643.797	0.0158963
643.875	0.0159382
643.953	0.0160134
644.031	0.0159704
644.109	0.0158471
644.187	0.0159512
644.265	0.0158788
644.343	0.0157766
644.422	0.0159345
644.500	0.0158831
644.578	0.0157783
644.656	0.0159782
644.734	0.0159120
644.812	0.0160623
644.890	0.0160251
644.968	0.0158129
645.047	0.0160445
645.125	0.0158137
645.203	0.0159266
645.281	0.0159344
645.359	0.0158084
645.437	0.0159221
645.515	0.0159557
645.593	0.0159848
645.672	0.0158498
645.750	0.0159167
645.828	0.0158874
645.906	0.0159601
645.984	0.0159126
646.062	0.0158996
646.140	0.0159003
646.218	0.0158578
646.297	0.0158742
646.375	0.0159361
646.453	0.0160356
646.531	0.0160569
646.609	0.0161147
646.687	0.0160040
646.765	0.0159763
646.843	0.0160041
646.922	0.0160475
647.000	0.0160336
647.078	0.0160844
647.156	0.0160976
647.234	0.0160645
647.312	0.0161798
647.390	0.0161636
647.468	0.0161353
647.547	0.0159934
647.625	0.0160963
647.703	0.0161211
647.781	0.0160590
647.859	0.0160725
647.937	0.0159885
648.015	0.0160217
648.093	0.0159791
648.172	0.0160975
648.250	0.0160273
648.328	0.0160632
648.406	0.0159988
648.484	0.0160056
648.562	0.0161946
648.640	0.0160331
648.718	0.0161246
648.797	0.0160706
648.875	0.0159797
648.953	0.0159988
649.031	0.0162193
649.109	0.0161083
649.187	0.0159741
649.265	0.0159706
649.343	0.0160830
649.422	0.0161724
649.500	0.0163095
649.578	0.0160861
649.656	0.0161027
649.734	0.0160957
649.812	0.0161005
649.890	0.0162061
649.968	0.0161006
650.047	0.0160669
650.125	0.0159750
650.203	0.0161322
650.281	0.0161397
650.359	0.0160679
650.437	0.0161089
650.515	0.0161697
650.593	0.0161738
650.672	0.0159859
650.750	0.0160651
650.828	0.0160615
650.906	0.0161056
650.984	0.0161257
651.062	0.0160178
651.140	0.0161392
651.218	0.0160697
651.297	0.0162517
651.375	0.0162308
651.453	0.0161797
651.531	0.0162275
651.609	0.0159550
651.687	0.0159939
651.765	0.0161142
651.843	0.0161564
651.922	0.0160201
652.000	0.0160339
652.078	0.0162135
652.156	0.0160152
652.234	0.0160242
652.312	0.0160697
652.390	0.0160223
652.468	0.0160625
652.547	0.0160421
652.625	0.0160462
652.703	0.0160310
652.781	0.0160562
652.859	0.0159905
652.937	0.0161302
653.015	0.0159355
653.093	0.0159962
653.172	0.0160030
653.250	0.0160892
653.328	0.0160898
653.406	0.0160844
653.484	0.0159895
653.562	0.0159210
653.640	0.0161610
653.718	0.0159876
653.797	0.0160025
653.875	0.0160131
653.953	0.0159321
654.031	0.0159840
654.109	0.0160083
654.187	0.0160806
654.265	0.0160683
654.343	0.0160208
654.422	0.0161490
654.500	0.0159532
654.578	0.0160894
654.656	0.0159781
654.734	0.0159708
654.812	0.0160512
654.890	0.0160874
654.968	0.0161111
655.047	0.0160307
655.125	0.0159714
655.203	0.0159922
655.281	0.0159383
655.359	0.0161571
655.437	0.0160352
655.515	0.0160168
655.593	0.0159360
655.672	0.0159495
655.750	0.0159458
655.828	0.0159133
655.906	0.0160132
655.984	0.0159399
656.062	0.0158601
656.140	0.0158321
656.218	0.0158129
656.297	0.0159488
656.375	0.0160510
656.453	0.0159427
656.531	0.0159451
656.609	0.0159341
656.687	0.0159602
656.765	0.0158975
656.843	0.0160580
656.922	0.0159634
657.000	0.0159771
657.078	0.0159341
657.156	0.0159022
657.234	0.0158901
657.312	0.0161063
657.390	0.0160337
657.468	0.0160675
657.547	0.0158240
657.625	0.0159275
657.703	0.0160567
657.781	0.0160384
657.859	0.0159563
657.937	0.0159161
658.015	0.0160052
658.093	0.0160009
658.172	0.0159491
658.250	0.0160702
658.328	0.0159441
658.406	0.0159872
658.484	0.0159856
658.562	0.0161312
658.640	0.0160715
658.718	0.0159754
658.797	0.0158723
658.875	0.0159324
658.953	0.0160958
659.031	0.0161075
659.109	0.0158795
659.187	0.0158878
659.265	0.0160545
659.343	0.0159122
659.422	0.0159449
659.500	0.0159880
659.578	0.0157957
659.656	0.0160105
659.734	0.0160471
659.812	0.0159760
659.890	0.0159877
659.968	0.0160317
660.047	0.0159690
660.125	0.0160384
660.203	0.0160937
660.281	0.0159350
660.359	0.0158546
660.437	0.0160033
660.515	0.0161594
660.593	0.0160875
660.672	0.0159106
660.750	0.0159857
660.828	0.0159837
660.906	0.0159856
660.984	0.0159552
661.062	0.0159471
661.140	0.0159707
661.218	0.0159373
661.297	0.0158833
661.375	0.0159197
661.453	0.0158526
661.531	0.0159618
661.609	0.0157836
661.687	0.0158667
661.765	0.0159940
661.843	0.0159439
661.922	0.0158440
662.000	0.0158210
662.078	0.0158916
662.156	0.0159341
662.234	0.0159292
662.312	0.0159074
662.390	0.0158057
662.468	0.0158285
662.547	0.0158810
662.625	0.0158604
662.703	0.0159190
662.781	0.0158782
662.859	0.0158561
662.937	0.0159892
663.015	0.0157110
663.093	0.0157707
663.172	0.0158613
663.250	0.0158603
663.328	0.0159368
663.406	0.0157095
663.484	0.0157596
663.562	0.0158580
663.640	0.0158914
663.718	0.0158694
663.797	0.0159153
663.875	0.0157613
663.953	0.0158850
664.031	0.0157786
664.109	0.0158731
664.187	0.0158733
664.265	0.0158065
664.343	0.0157842
664.422	0.0157487
664.500	0.0157597
664.578	0.0157871
664.656	0.0158550
664.734	0.0158801
664.812	0.0157458
664.890	0.0158150
664.968	0.0157861
665.047	0.0157359
665.125	0.0156526
665.203	0.0158678
665.281	0.0157362
665.359	0.0158128
665.437	0.0158321
665.515	0.0156827
665.593	0.0157040
665.672	0.0156885
665.750	0.0158972
665.828	0.0159998
665.906	0.0158406
665.984	0.0158311
666.062	0.0158784
666.140	0.0158679
666.218	0.0157258
666.297	0.0159001
666.375	0.0157471
666.453	0.0157170
666.531	0.0159081
666.609	0.0157817
666.687	0.0158924
666.765	0.0158739
666.843	0.0159564
666.922	0.0158566
667.000	0.0158104
667.078	0.0157955
667.156	0.0158346
667.234	0.0158882
667.312	0.0159157
667.390	0.0158740
667.468	0.0157787
667.547	0.0158144
667.625	0.0158974
667.703	0.0158398
667.781	0.0157990
667.859	0.0157932
667.937	0.0158965
668.015	0.0159547
668.093	0.0158530
668.172	0.0157537
668.250	0.0157306
668.328	0.0157394
668.406	0.0157898
668.484	0.0158296
668.562	0.0157526
668.640	0.0158350
668.718	0.0158497
668.797	0.0158039
668.875	0.0157754
668.953	0.0159678
669.031	0.0158203
669.109	0.0158263
669.187	0.0158556
669.265	0.0158350
669.343	0.0158606
669.422	0.0159196
669.500	0.0158807
669.578	0.0157127
669.656	0.0159653
669.734	0.0156767
669.812	0.0159610
669.890	0.0159669
669.968	0.0158517
670.047	0.0157899
670.125	0.0158916
670.203	0.0160026
670.281	0.0159610
670.359	0.0159367
670.437	0.0159415
670.515	0.0158586
670.593	0.0158412
670.672	0.0160025
670.750	0.0157523
670.828	0.0158794
670.906	0.0158894
670.984	0.0158257
671.062	0.0159624
671.140	0.0158410
671.218	0.0158181
671.297	0.0158690
671.375	0.0160458
671.453	0.0160320
671.531	0.0159776
671.609	0.0159686
671.687	0.0157150
671.765	0.0160297
671.843	0.0160207
671.922	0.0160287
672.000	0.0160333
672.078	0.0160130
672.156	0.0160319
672.234	0.0159872
672.312	0.0159740
672.390	0.0160098
672.468	0.0159147
672.547	0.0158456
672.625	0.0158329
672.703	0.0161762
672.781	0.0159124
672.859	0.0160097
672.937	0.0160495
673.015	0.0160429
673.093	0.0158925
673.172	0.0159365
673.250	0.0159459
673.328	0.0160387
673.406	0.0160972
673.484	0.0158721
673.562	0.0161043
673.640	0.0160294
673.718	0.0160587
673.797	0.0160823
673.875	0.0160916
673.953	0.0160163
674.031	0.0161717
674.109	0.0159487
674.187	0.0160564
674.265	0.0161487
674.343	0.0160443
674.422	0.0160479
674.500	0.0161226
674.578	0.0159233
674.656	0.0160838
674.734	0.0161429
674.812	0.0160704
674.890	0.0160046
674.968	0.0161224
675.047	0.0160809
675.125	0.0160354
675.203	0.0159716
675.281	0.0161449
675.359	0.0160521
675.437	0.0158617
675.515	0.0159354
675.593	0.0161636
675.672	0.0160697
675.750	0.0159578
675.828	0.0160925
675.906	0.0160657
675.984	0.0161008
676.062	0.0159809
676.140	0.0159743
676.218	0.0159164
676.297	0.0159444
676.375	0.0160632
676.453	0.0160483
676.531	0.0160719
676.609	0.0161194
676.687	0.0159637
676.765	0.0158141
676.843	0.0159519
676.922	0.0160630
677.000	0.0159755
677.078	0.0158896
677.156	0.0160886
677.234	0.0160710
677.312	0.0159239
677.390	0.0160362
677.468	0.0159919
677.547	0.0160697
677.625	0.0160672
677.703	0.0159403
677.781	0.0160512
677.859	0.0160284
677.937	0.0159898
678.015	0.0159100
678.093	0.0160410
678.172	0.0159862
678.250	0.0160240
678.328	0.0160933
678.406	0.0160874
678.484	0.0160640
678.562	0.0160522
678.640	0.0160515
678.718	0.0160281
678.797	0.0160092
678.875	0.0158639
678.953	0.0160530
679.031	0.0160297
679.109	0.0160802
679.187	0.0158890
679.265	0.0159637
679.343	0.0158791
679.422	0.0158922
679.500	0.0157701
679.578	0.0160151
679.656	0.0158853
679.734	0.0159023
679.812	0.0159109
679.890	0.0158799
679.968	0.0159722
680.047	0.0159003
680.125	0.0160707
680.203	0.0159163
680.281	0.0159041
680.359	0.0158150
680.437	0.0158948
680.515	0.0161125
680.593	0.0159935
680.672	0.0159449
680.750	0.0158273
680.828	0.0159587
680.906	0.0160593
680.984	0.0159697
681.062	0.0159195
681.140	0.0158743
681.218	0.0159934
681.297	0.0158057
681.375	0.0157724
681.453	0.0160675
681.531	0.0159281
681.609	0.0158775
681.687	0.0158935
681.765	0.0158637
681.843	0.0159851
681.922	0.0159795
682.000	0.0159776
682.078	0.0158701
682.156	0.0159203
682.234	0.0160390
682.312	0.0159302
682.390	0.0158260
682.468	0.0158874
682.547	0.0160589
682.625	0.0159972
682.703	0.0158707
682.781	0.0159173
682.859	0.0160735
682.937	0.0159738
683.015	0.0159998
683.093	0.0159586
683.172	0.0159102
683.250	0.0159057
683.328	0.0158562
683.406	0.0159622
683.484	0.0159767
683.562	0.0160467
683.640	0.0159268
683.718	0.0160040
683.797	0.0160419
683.875	0.0158188
683.953	0.0158316
684.031	0.0159801
684.109	0.0159790
684.187	0.0159669
684.265	0.0157910
684.343	0.0159105
684.422	0.0159624
684.500	0.0159692
684.578	0.0159412
684.656	0.0159993
684.734	0.0160128
684.812	0.0157861
684.890	0.0159492
684.968	0.0159200
685.047	0.0158887
685.125	0.0159892
685.203	0.0158194
685.281	0.0160253
685.359	0.0159819
685.437	0.0158273
685.515	0.0159176
685.593	0.0158432
685.672	0.0159772
685.750	0.0159312
685.828	0.0158626
685.906	0.0159493
685.984	0.0158749
686.062	0.0159554
686.140	0.0159408
686.218	0.0158553
686.297	0.0156919
686.375	0.0157787
686.453	0.0159172
686.531	0.0158671
686.609	0.0158160
686.687	0.0160527
686.765	0.0158523
686.843	0.0158683
686.922	0.0157555
687.000	0.0158172
687.078	0.0158799
687.156	0.0157990
687.234	0.0159273
687.312	0.0160078
687.390	0.0158881
687.468	0.0158640
687.547	0.0157416
687.625	0.0159198
687.703	0.0159167
687.781	0.0158027
687.859	0.0158122
687.937	0.0158646
688.015	0.0159042
688.093	0.0159109
688.172	0.0157813
688.250	0.0157632
688.328	0.0158740
688.406	0.0158018
688.484	0.0157724
688.562	0.0158250
688.640	0.0158745
688.718	0.0157400
688.797	0.0158632
688.875	0.0157201
688.953	0.0158195
689.031	0.0158744
689.109	0.0159373
689.187	0.0158395
689.265	0.0159332
689.343	0.0158662
689.422	0.0159387
689.500	0.0157512
689.578	0.0159267
689.656	0.0158376
689.734	0.0159702
689.812	0.0158414
689.890	0.0157937
689.968	0.0157794
690.047	0.0159357
690.125	0.0158875
690.203	0.0158029
690.281	0.0159773
690.359	0.0158218
690.437	0.0158220
690.515	0.0159417
690.593	0.0157890
690.672	0.0158565
690.750	0.0159047
690.828	0.0158649
690.906	0.0158083
690.984	0.0156910
691.062	0.0157956
691.140	0.0159306
691.218	0.0158382
691.297	0.0157932
691.375	0.0158449
691.453	0.0157443
691.531	0.0159466
691.609	0.0159129
691.687	0.0158241
691.765	0.0158328
691.843	0.0157182
691.922	0.0158227
692.000	0.0158429
692.078	0.0158901
692.156	0.0157426
692.234	0.0158119
692.312	0.0159296
692.390	0.0158414
692.468	0.0159498
692.547	0.0157586
692.625	0.0157586
692.703	0.0158979
692.781	0.0158778
692.859	0.0158659
692.937	0.0159595
693.015	0.0158790
693.093	0.0159274
693.172	0.0158975
693.250	0.0159766
693.328	0.0159872
693.406	0.0157795
693.484	0.0159047
693.562	0.0159204
693.640	0.0157838
693.718	0.0158287
693.797	0.0160394
693.875	0.0158801
693.953	0.0158273
694.031	0.0160888
694.109	0.0159287
694.187	0.0158377
694.265	0.0159070
694.343	0.0159604
694.422	0.0158341
694.500	0.0159586
694.578	0.0159613
694.656	0.0159284
694.734	0.0158941
694.812	0.0159290
694.890	0.0157743
694.968	0.0159142
695.047	0.0159737
695.125	0.0158789
695.203	0.0159384
695.281	0.0159162
695.359	0.0158441
695.437	0.0158093
695.515	0.0159811
695.593	0.0160481
695.672	0.0158989
695.750	0.0159539
695.828	0.0159768
695.906	0.0159735
695.984	0.0158767
696.062	0.0158334
696.140	0.0159579
696.218	0.0159864
696.297	0.0158671
696.375	0.0157838
696.453	0.0159708
696.531	0.0158719
696.609	0.0159451
696.687	0.0159621
696.765	0.0159420
696.843	0.0159022
696.922	0.0159891
697.000	0.0159513
697.078	0.0159762
697.156	0.0159016
697.234	0.0159465
697.312	0.0160484
697.390	0.0159188
697.468	0.0159060
697.547	0.0160445
697.625	0.0159708
697.703	0.0158620
697.781	0.0158679
697.859	0.0159161
697.937	0.0160869
698.015	0.0159874
698.093	0.0159208
698.172	0.0159247
698.250	0.0159223
698.328	0.0160014
698.406	0.0160320
698.484	0.0160734
698.562	0.0159387
698.640	0.0160034
698.718	0.0159970
698.797	0.0160857
698.875	0.0160677
698.953	0.0160646
699.031	0.0158619
699.109	0.0159050
699.187	0.0160079
699.265	0.0158728
699.343	0.0158487
699.422	0.0159895
699.500	0.0161000
699.578	0.0161194
699.656	0.0159949
699.734	0.0160445
699.812	0.0159439
699.890	0.0159873
699.968	0.0160508
700.047	0.0159212
700.125	0.0160916
700.203	0.0159894
700.281	0.0159644
700.359	0.0159952
700.437	0.0159542
700.515	0.0160748
700.593	0.0160061
700.672	0.0159862
700.750	0.0160116
700.828	0.0159859
700.906	0.0159591
700.984	0.0159972
701.062	0.0160526
701.140	0.0159837
701.218	0.0158752
701.297	0.0160336
701.375	0.0159132
701.453	0.0160337
701.531	0.0160461
701.609	0.0160621
701.687	0.0160259
701.765	0.0158848
701.843	0.0159098
701.922	0.0160878
702.000	0.0160375
702.078	0.0158974
702.156	0.0160529
702.234	0.0160709
702.312	0.0158250
702.390	0.0160494
702.468	0.0160777
702.547	0.0158955
702.625	0.0159678
702.703	0.0160510
702.781	0.0161153
702.859	0.0159560
702.937	0.0159888
703.015	0.0160183
703.093	0.0159629
703.172	0.0160728
703.250	0.0160973
703.328	0.0162524
703.406	0.0161433
703.484	0.0159456
703.562	0.0159340
703.640	0.0160813
703.718	0.0160418
703.797	0.0159344
703.875	0.0159805
703.953	0.0160396
704.031	0.0161326
704.109	0.0160721
704.187	0.0160381
704.265	0.0160197
704.343	0.0159640
704.422	0.0160352
704.500	0.0160781
704.578	0.0159031
704.656	0.0161113
704.734	0.0160590
704.812	0.0160406
704.890	0.0161429
704.968	0.0160276
705.047	0.0159775
705.125	0.0158138
705.203	0.0161485
705.281	0.0160873
705.359	0.0158990
705.437	0.0160918
705.515	0.0161938
705.593	0.0159888
705.672	0.0159465
705.750	0.0159589
705.828	0.0160336
705.906	0.0160953
705.984	0.0159106
706.062	0.0159815
706.140	0.0160315
706.218	0.0159664
706.297	0.0159453
706.375	0.0159802
706.453	0.0159677
706.531	0.0159785
706.609	0.0160856
706.687	0.0159151
706.765	0.0158660
706.843	0.0158059
706.922	0.0159631
707.000	0.0160960
707.078	0.0159930
707.156	0.0159899
707.234	0.0160504
707.312	0.0159343
707.390	0.0158282
707.468	0.0160284
707.547	0.0159937
707.625	0.0159744
707.703	0.0161890
707.781	0.0160217
707.859	0.0158363
707.937	0.0159557
708.015	0.0160500
708.093	0.0159776
708.172	0.0160165
708.250	0.0160119
708.328	0.0158408
708.406	0.0159996
708.484	0.0159615
708.562	0.0159937
708.640	0.0159498
708.718	0.0157775
708.797	0.0159659
708.875	0.0158662
708.953	0.0158447
709.031	0.0160314
709.109	0.0159849
709.187	0.0159583
709.265	0.0160298
709.343	0.0159526
709.422	0.0158621
709.500	0.0158701
709.578	0.0159390
709.656	0.0159984
709.734	0.0159582
709.812	0.0159753
709.890	0.0158800
709.968	0.0160373
710.047	0.0159782
710.125	0.0159326
710.203	0.0158280
710.281	0.0158818
710.359	0.0159648
710.437	0.0160195
710.515	0.0158326
710.593	0.0158559
710.672	0.0160555
710.750	0.0160535
710.828	0.0159152
710.906	0.0158544
710.984	0.0159289
711.062	0.0158701
711.140	0.0157271
711.218	0.0157773
711.297	0.0158259
711.375	0.0157992
711.453	0.0158150
711.531	0.0159662
711.609	0.0159241
711.687	0.0160372
711.765	0.0159562
711.843	0.0159635
711.922	0.0157799
712.000	0.0158607
712.078	0.0159151
712.156	0.0159437
712.234	0.0160338
712.312	0.0158389
712.390	0.0158778
712.468	0.0157861
712.547	0.0159222
712.625	0.0158639
712.703	0.0159083
712.781	0.0159339
712.859	0.0159707
712.937	0.0158174
713.015	0.0157442
713.093	0.0157912
713.172	0.0159608
713.250	0.0159148
713.328	0.0159645
713.406	0.0158522
713.484	0.0158304
713.562	0.0157379
713.640	0.0160071
713.718	0.0158842
713.797	0.0159910
713.875	0.0158583
713.953	0.0158264
714.031	0.0158450
714.109	0.0159011
714.187	0.0158457
714.265	0.0159489
714.343	0.0159250
714.422	0.0158450
714.500	0.0158694
714.578	0.0160023
714.656	0.0159114
714.734	0.0158746
714.812	0.0159132
714.890	0.0157023
714.968	0.0158838
715.047	0.0159640
715.125	0.0159106
715.203	0.0158675
715.281	0.0158460
715.359	0.0158445
715.437	0.0159547
715.515	0.0160520
715.593	0.0158467
715.672	0.0158905
715.750	0.0160081
715.828	0.0158418
715.906	0.0158771
715.984	0.0158573
716.062	0.0158376
716.140	0.0159049
716.218	0.0159377
716.297	0.0159588
716.375	0.0158718
716.453	0.0158503
716.531	0.0158828
716.609	0.0159537
716.687	0.0159547
716.765	0.0157607
716.843	0.0159000
716.922	0.0159089
717.000	0.0160296
717.078	0.0159058
717.156	0.0159794
717.234	0.0158714
717.312	0.0159389
717.390	0.0160522
717.468	0.0159341
717.547	0.0161020
717.625	0.0159835
717.703	0.0159796
717.781	0.0159754
717.859	0.0159659
717.937	0.0159331
718.015	0.0159919
718.093	0.0159443
718.172	0.0160680
718.250	0.0159705
718.328	0.0158257
718.406	0.0159700
718.484	0.0158969
718.562	0.0160170
718.640	0.0158516
718.718	0.0159955
718.797	0.0160004
718.875	0.0159000
718.953	0.0158471
719.031	0.0159500
719.109	0.0157938
719.187	0.0157934
719.265	0.0158824
719.343	0.0160058
719.422	0.0159537
719.500	0.0159833
719.578	0.0160297
719.656	0.0160196
719.734	0.0158734
719.812	0.0159429
719.890	0.0158199
719.968	0.0158636
720.047	0.0160643
720.125	0.0160464
720.203	0.0159557
720.281	0.0159534
720.359	0.0157851
720.437	0.0161455
720.515	0.0159905
720.593	0.0159430
720.672	0.0159871
720.750	0.0159877
720.828	0.0159740
720.906	0.0160278
720.984	0.0159389
721.062	0.0159428
721.140	0.0161259
721.218	0.0160151
721.297	0.0160822
721.375	0.0160728
721.453	0.0160711
721.531	0.0159413
721.609	0.0160127
721.687	0.0161755
721.765	0.0159740
721.843	0.0159645
721.922	0.0160332
722.000	0.0160877
722.078	0.0161056
722.156	0.0161602
722.234	0.0160609
722.312	0.0160057
722.390	0.0159278
722.468	0.0159129
722.547	0.0161554
722.625	0.0161689
722.703	0.0160926
722.781	0.0159520
722.859	0.0161883
722.937	0.0160613
723.015	0.0159653
723.093	0.0159734
723.172	0.0159679
723.250	0.0160554
723.328	0.0161320
723.406	0.0159931
723.484	0.0160772
723.562	0.0160397
723.640	0.0160635
723.718	0.0161376
723.797	0.0161009
723.875	0.0160872
723.953	0.0162807
724.031	0.0161090
724.109	0.0160867
724.187	0.0160825
724.265	0.0162310
724.343	0.0160869
724.422	0.0161350
724.500	0.0159881
724.578	0.0159737
724.656	0.0159821
724.734	0.0162056
724.812	0.0160334
724.890	0.0160028
724.968	0.0160189
725.047	0.0160892
725.125	0.0160065
725.203	0.0159344
725.281	0.0161382
725.359	0.0161877
725.437	0.0160397
725.515	0.0160192
725.593	0.0160249
725.672	0.0158853
725.750	0.0160494
725.828	0.0161134
725.906	0.0160798
725.984	0.0159659
726.062	0.0161649
726.140	0.0160477
726.218	0.0159731
726.297	0.0161983
726.375	0.0160208
726.453	0.0159421
726.531	0.0160295
726.609	0.0161198
726.687	0.0160519
726.765	0.0161214
726.843	0.0161804
726.922	0.0160182
727.000	0.0159580
727.078	0.0161780
727.156	0.0160756
727.234	0.0160391
727.312	0.0160769
727.390	0.0159908
727.468	0.0160642
727.547	0.0162512
727.625	0.0160451
727.703	0.0160697
727.781	0.0161323
727.859	0.0160563
727.937	0.0160346
728.015	0.0160899
728.093	0.0160950
728.172	0.0159834
728.250	0.0160573
728.328	0.0160679
728.406	0.0160770
728.484	0.0159566
728.562	0.0160973
728.640	0.0160282
728.718	0.0161020
728.797	0.0159706
728.875	0.0160912
728.953	0.0159984
729.031	0.0159811
729.109	0.0159539
729.187	0.0159917
729.265	0.0160859
729.343	0.0159632
729.422	0.0159421
729.500	0.0160228
729.578	0.0160155
729.656	0.0160521
729.734	0.0161041
729.812	0.0160274
729.890	0.0161485
729.968	0.0159676
730.047	0.0160959
730.125	0.0161414
730.203	0.0159869
730.281	0.0159895
730.359	0.0161897
730.437	0.0159687
730.515	0.0160043
730.593	0.0161595
730.672	0.0160709
730.750	0.0160690
730.828	0.0160842
730.906	0.0161317
730.984	0.0160262
731.062	0.0160312
731.140	0.0160248
731.218	0.0159909
731.297	0.0160307
731.375	0.0159511
731.453	0.0159548
731.531	0.0161172
731.609	0.0161060
731.687	0.0160500
731.765	0.0159921
731.843	0.0159724
731.922	0.0160941
732.000	0.0160606
732.078	0.0159774
732.156	0.0160679
732.234	0.0160853
732.312	0.0159660
732.390	0.0159608
732.468	0.0159040
732.547	0.0161531
732.625	0.0161047
732.703	0.0160223
732.781	0.0160888
732.859	0.0160406
732.937	0.0158687
733.015	0.0160819
733.093	0.0160587
733.172	0.0160918
733.250	0.0160416
733.328	0.0158920
733.406	0.0159017
733.484	0.0159758
733.562	0.0159731
733.640	0.0160134
733.718	0.0160141
733.797	0.0160680
733.875	0.0161584
733.953	0.0160489
734.031	0.0160126
734.109	0.0160995
734.187	0.0159777
734.265	0.0158464
734.343	0.0160147
734.422	0.0159450
734.500	0.0158118
734.578	0.0159003
734.656	0.0158085
734.734	0.0158935
734.812	0.0160540
734.890	0.0159744
734.968	0.0157889
735.047	0.0159796
735.125	0.0159000
735.203	0.0159095
735.281	0.0159146
735.359	0.0159325
735.437	0.0159261
735.515	0.0159404
735.593	0.0160368
735.672	0.0158399
735.750	0.0158983
735.828	0.0160308
735.906	0.0160049
735.984	0.0159578
736.062	0.0160380
736.140	0.0159502
736.218	0.0158901
736.297	0.0160419
736.375	0.0159379
736.453	0.0158900
736.531	0.0159530
736.609	0.0158961
736.687	0.0159018
736.765	0.0159844
736.843	0.0159262
736.922	0.0157970
737.000	0.0161133
737.078	0.0159062
737.156	0.0158488
737.234	0.0158897
737.312	0.0158544
737.390	0.0158733
737.468	0.0159262
737.547	0.0159330
737.625	0.0159642
737.703	0.0158862
737.781	0.0159115
737.859	0.0157338
737.937	0.0159753
738.015	0.0158658
738.093	0.0158732
738.172	0.0159883
738.250	0.0158130
738.328	0.0158002
738.406	0.0158530
738.484	0.0159884
738.562	0.0160105
738.640	0.0159016
738.718	0.0158593
738.797	0.0159404
738.875	0.0158678
738.953	0.0159660
739.031	0.0159718
739.109	0.0159565
739.187	0.0157794
739.265	0.0158772
739.343	0.0159757
739.422	0.0159427
739.500	0.0159894
739.578	0.0159234
739.656	0.0158362
739.734	0.0159628
739.812	0.0160166
739.890	0.0159895
739.968	0.0159620
740.047	0.0158809
740.125	0.0158892
740.203	0.0157996
740.281	0.0159784
740.359	0.0159665
740.437	0.0158577
740.515	0.0158396
740.593	0.0157050
740.672	0.0158519
740.750	0.0158773
740.828	0.0158570
740.906	0.0157251
740.984	0.0158397
741.062	0.0159570
741.140	0.0158387
741.218	0.0158412
741.297	0.0159402
741.375	0.0159476
741.453	0.0159190
741.531	0.0159285
741.609	0.0159154
741.687	0.0160535
741.765	0.0159355
741.843	0.0159506
741.922	0.0159211
742.000	0.0159618
742.078	0.0159685
742.156	0.0159308
742.234	0.0160390
742.312	0.0159763
742.390	0.0159333
742.468	0.0159673
742.547	0.0160116
742.625	0.0159579
742.703	0.0160229
742.781	0.0159309
742.859	0.0157113
742.937	0.0158950
743.015	0.0158755
743.093	0.0158226
743.172	0.0158975
743.250	0.0159589
743.328	0.0157912
743.406	0.0158365
743.484	0.0158356
743.562	0.0158575
743.640	0.0158994
743.718	0.0157892
743.797	0.0158258
743.875	0.0159400
743.953	0.0158252
744.031	0.0157863
744.109	0.0159512
744.187	0.0159546
744.265	0.0158158
744.343	0.0158014
744.422	0.0158176
744.500	0.0158651
744.578	0.0159460
744.656	0.0157916
744.734	0.0159196
744.812	0.0159383
744.890	0.0158847
744.968	0.0157304
745.047	0.0159229
745.125	0.0159589
745.203	0.0159480
745.281	0.0157963
745.359	0.0158665
745.437	0.0157672
745.515	0.0158359
745.593	0.0158029
745.672	0.0156811
745.750	0.0159447
745.828	0.0160165
745.906	0.0158514
745.984	0.0159451
746.062	0.0157853
746.140	0.0159061
746.218	0.0158912
746.297	0.0159612
746.375	0.0160262
746.453	0.0159589
746.531	0.0160558
746.609	0.0159165
746.687	0.0159209
746.765	0.0159254
746.843	0.0159879
746.922	0.0160030
747.000	0.0161041
747.078	0.0160369
747.156	0.0159504
747.234	0.0160822
747.312	0.0160505
747.390	0.0160352
747.468	0.0159873
747.547	0.0161510
747.625	0.0159684
747.703	0.0160217
747.781	0.0159293
747.859	0.0160040
747.937	0.0159957
748.015	0.0160194
748.093	0.0158830
748.172	0.0160194
748.250	0.0160450
748.328	0.0160085
748.406	0.0158411
748.484	0.0159894
748.562	0.0161556
748.640	0.0159043
748.718	0.0159178
748.797	0.0159775
748.875	0.0159907
748.953	0.0159647
749.031	0.0160343
749.109	0.0158469
749.187	0.0160320
749.265	0.0160797
749.343	0.0160249
749.422	0.0159821
749.500	0.0159983
749.578	0.0160160
749.656	0.0161217
749.734	0.0161123
749.812	0.0161523
749.890	0.0161488
749.968	0.0160268
750.047	0.0160710
750.125	0.0161835
750.203	0.0159798
750.281	0.0161624
750.359	0.0162104
750.437	0.0160094
750.515	0.0160834
750.593	0.0160203
750.672	0.0160644
750.750	0.0160908
750.828	0.0159823
750.906	0.0159489
750.984	0.0159477
751.062	0.0160150
751.140	0.0160899
751.218	0.0159371
751.297	0.0159297
751.375	0.0159755
751.453	0.0157794
751.531	0.0160154
751.609	0.0159982
751.687	0.0158688
751.765	0.0159071
751.843	0.0159618
751.922	0.0161341
752.000	0.0160005
752.078	0.0160429
752.156	0.0161717
752.234	0.0161095
752.312	0.0160081
752.390	0.0160609
752.468	0.0161405
752.547	0.0160648
752.625	0.0160796
752.703	0.0161666
752.781	0.0160368
752.859	0.0161407
752.937	0.0160140
753.015	0.0160176
753.093	0.0160078
753.172	0.0159946
753.250	0.0160107
753.328	0.0160262
753.406	0.0159473
753.484	0.0159368
753.562	0.0160933
753.640	0.0160874
753.718	0.0159773
753.797	0.0159768
753.875	0.0160716
753.953	0.0159929
754.031	0.0159138
754.109	0.0160115
754.187	0.0159244
754.265	0.0160256
754.343	0.0159509
754.422	0.0160287
754.500	0.0159966
754.578	0.0158791
754.656	0.0159039
754.734	0.0160350
754.812	0.0159994
754.890	0.0159773
754.968	0.0159710
755.047	0.0160667
755.125	0.0159166
755.203	0.0159984
755.281	0.0160887
755.359	0.0160343
755.437	0.0161009
755.515	0.0162183
755.593	0.0159854
755.672	0.0159879
755.750	0.0162016
755.828	0.0159946
755.906	0.0159922
755.984	0.0159757
756.062	0.0158995
756.140	0.0159600
756.218	0.0160992
756.297	0.0159684
756.375	0.0158965
756.453	0.0159821
756.531	0.0161216
756.609	0.0159309
756.687	0.0160735
756.765	0.0160605
756.843	0.0159706
756.922	0.0160686
757.000	0.0159908
757.078	0.0158984
757.156	0.0160423
757.234	0.0160519
757.312	0.0161099
757.390	0.0160687
757.468	0.0161304
757.547	0.0159963
757.625	0.0159940
757.703	0.0160179
757.781	0.0160429
757.859	0.0158643
757.937	0.0160061
758.015	0.0158877
758.093	0.0160412
758.172	0.0159348
758.250	0.0159675
758.328	0.0159228
758.406	0.0159605
758.484	0.0159586
758.562	0.0160028
758.640	0.0160710
758.718	0.0159613
758.797	0.0159563
758.875	0.0159233
758.953	0.0160680
759.031	0.0159525
759.109	0.0159145
759.187	0.0159200
759.265	0.0159969
759.343	0.0159538
759.422	0.0161610
759.500	0.0158801
759.578	0.0158817
759.656	0.0158788
759.734	0.0158833
759.812	0.0159433
759.890	0.0159739
759.968	0.0160153
760.047	0.0158912
760.125	0.0159277
760.203	0.0158807
760.281	0.0158481
760.359	0.0158313
760.437	0.0159573
760.515	0.0159294
760.593	0.0157758
760.672	0.0157421
760.750	0.0158818
760.828	0.0159986
760.906	0.0159018
760.984	0.0158393
761.062	0.0158347
761.140	0.0158933
761.218	0.0158888
761.297	0.0158423
761.375	0.0159495
761.453	0.0158437
761.531	0.0158976
761.609	0.0159127
761.687	0.0158235
761.765	0.0158266
761.843	0.0159111
761.922	0.0160257
762.000	0.0159924
762.078	0.0159283
762.156	0.0159401
762.234	0.0158067
762.312	0.0160029
762.390	0.0160367
762.468	0.0159891
762.547	0.0158986
762.625	0.0159103
762.703	0.0160437
762.781	0.0159728
762.859	0.0158147
762.937	0.0159117
763.015	0.0159117
763.093	0.0159906
763.172	0.0160198
763.250	0.0160693
763.328	0.0160135
763.406	0.0160557
763.484	0.0159793
763.562	0.0159364
763.640	0.0159937
763.718	0.0160127
763.797	0.0159182
763.875	0.0159897
763.953	0.0159769
764.031	0.0158492
764.109	0.0159336
764.187	0.0160486
764.265	0.0157607
764.343	0.0157948
764.422	0.0157581
764.500	0.0157842
764.578	0.0156261
764.656	0.0157963
764.734	0.0158949
764.812	0.0156437
764.890	0.0156905
764.968	0.0158318
765.047	0.0158797
765.125	0.0157814
765.203	0.0157706
765.281	0.0159286
765.359	0.0157551
765.437	0.0157464
765.515	0.0157829
765.593	0.0157767
765.672	0.0157999
765.750	0.0158231
765.828	0.0159211
765.906	0.0159128
765.984	0.0159288
766.062	0.0160138
766.140	0.0159437
766.218	0.0158739
766.297	0.0160699
766.375	0.0159853
766.453	0.0159682
766.531	0.0158901
766.609	0.0158433
766.687	0.0159664
766.765	0.0160348
766.843	0.0158453
766.922	0.0159474
767.000	0.0160582
767.078	0.0158379
767.156	0.0159610
767.234	0.0159663
767.312	0.0159804
767.390	0.0159597
767.468	0.0159293
767.547	0.0160029
767.625	0.0158691
767.703	0.0159235
767.781	0.0160125
767.859	0.0159455
767.937	0.0159419
768.015	0.0160195
768.093	0.0160108
768.172	0.0158879
768.250	0.0159270
768.328	0.0158614
768.406	0.0159257
768.484	0.0158923
768.562	0.0157025
768.640	0.0157329
768.718	0.0159160
768.797	0.0158385
768.875	0.0158344
768.953	0.0159480
769.031	0.0158178
769.109	0.0158117
769.187	0.0160467
769.265	0.0157918
769.343	0.0158688
769.422	0.0157980
769.500	0.0159413
769.578	0.0159719
769.656	0.0159223
769.734	0.0158784
769.812	0.0158634
769.890	0.0157539
769.968	0.0158241
770.047	0.0159061
770.125	0.0157591
770.203	0.0158047
770.281	0.0158464
770.359	0.0156688
770.437	0.0157898
770.515	0.0158260
770.593	0.0158523
770.672	0.0159446
770.750	0.0158838
770.828	0.0158317
770.906	0.0159203
770.984	0.0158320
771.062	0.0159988
771.140	0.0160532
771.218	0.0160562
771.297	0.0160062
771.375	0.0160603
771.453	0.0159500
771.531	0.0160437
771.609	0.0160308
771.687	0.0160902
771.765	0.0162117
771.843	0.0160735
771.922	0.0161972
772.000	0.0160333
772.078	0.0161024
772.156	0.0160732
772.234	0.0159544
772.312	0.0158607
772.390	0.0159541
772.468	0.0158585
772.547	0.0159273
772.625	0.0158216
772.703	0.0159242
772.781	0.0158987
772.859	0.0159454
772.937	0.0159818
773.015	0.0159341
773.093	0.0158875
773.172	0.0160092
773.250	0.0158689
773.328	0.0158825
773.406	0.0158939
773.484	0.0158248
773.562	0.0159346
773.640	0.0158109
773.718	0.0157899
773.797	0.0158623
773.875	0.0160091
773.953	0.0159283
774.031	0.0158864
774.109	0.0159885
774.187	0.0160217
774.265	0.0159691
774.343	0.0158584
774.422	0.0160067
774.500	0.0159837
774.578	0.0160177
774.656	0.0160602
774.734	0.0159984
774.812	0.0161256
774.890	0.0159195
774.968	0.0158906
775.047	0.0159981
775.125	0.0159983
775.203	0.0160671
775.281	0.0161090
775.359	0.0160766
775.437	0.0159338
775.515	0.0161066
775.593	0.0159654
775.672	0.0161015
775.750	0.0160391
775.828	0.0160002
775.906	0.0160716
775.984	0.0160686
776.062	0.0161166
776.140	0.0162014
776.218	0.0162872
776.297	0.0161597
776.375	0.0161219
776.453	0.0161281
776.531	0.0161539
776.609	0.0161518
776.687	0.0161401
776.765	0.0160503
776.843	0.0160950
776.922	0.0159412
777.000	0.0159316
777.078	0.0160179
777.156	0.0159589
777.234	0.0159518
777.312	0.0160001
777.390	0.0159071
777.468	0.0159670
777.547	0.0158798
777.625	0.0159002
777.703	0.0158978
777.781	0.0159688
777.859	0.0159323
777.937	0.0159438
778.015	0.0158813
778.093	0.0159366
778.172	0.0158524
778.250	0.0159261
778.328	0.0159485
778.406	0.0159949
778.484	0.0160581
778.562	0.0160026
778.640	0.0160205
778.718	0.0160542
778.797	0.0160805
778.875	0.0159077
778.953	0.0161190
779.031	0.0159550
779.109	0.0159534
779.187	0.0159646
779.265	0.0161213
779.343	0.0161045
779.422	0.0158971
779.500	0.0159776
779.578	0.0159637
779.656	0.0158797
779.734	0.0160042
779.812	0.0160397
779.890	0.0159538
779.968	0.0160622
780.047	0.0160715
780.125	0.0160858
780.203	0.0161337
780.281	0.0160648
780.359	0.0161315
780.437	0.0159997
780.515	0.0161100
780.593	0.0161699
780.672	0.0159916
780.750	0.0160890
780.828	0.0162127
780.906	0.0162157
780.984	0.0162412
781.062	0.0161419
781.140	0.0160704
781.218	0.0161160
781.297	0.0160943
781.375	0.0161436
781.453	0.0161948
781.531	0.0161189
781.609	0.0160437
781.687	0.0161168
781.765	0.0162177
781.843	0.0161140
781.922	0.0160951
782.000	0.0160970
782.078	0.0161269
782.156	0.0159648
782.234	0.0160942
782.312	0.0160225
782.390	0.0159892
782.468	0.0159635
782.547	0.0158205
782.625	0.0157909
782.703	0.0158970
782.781	0.0158361
782.859	0.0157813
782.937	0.0156774
783.015	0.0157758
783.093	0.0158165
783.172	0.0157581
783.250	0.0159082
783.328	0.0156798
783.406	0.0157053
783.484	0.0158737
783.562	0.0158589
783.640	0.0158728
783.718	0.0159105
783.797	0.0158830
783.875	0.0160536
783.953	0.0161221
784.031	0.0160799
784.109	0.0161182
784.187	0.0161298
784.265	0.0161852
784.343	0.0162808
784.422	0.0160856
784.500	0.0162883
784.578	0.0162675
784.656	0.0163822
784.734	0.0161395
784.812	0.0162412
784.890	0.0162922
784.968	0.0162713
785.047	0.0161620
785.125	0.0161379
785.203	0.0160599
785.281	0.0160914
785.359	0.0160835
785.437	0.0161268
785.515	0.0159753
785.593	0.0160074
785.672	0.0160648
785.750	0.0159499
785.828	0.0158916
785.906	0.0158707
785.984	0.0158369
786.062	0.0158143
786.140	0.0159228
786.218	0.0158575
786.297	0.0159280
786.375	0.0159109
786.453	0.0158313
786.531	0.0159318
786.609	0.0161156
786.687	0.0160552
786.765	0.0158294
786.843	0.0159796
786.922	0.0159679
787.000	0.0160020
787.078	0.0159814
787.156	0.0158672
787.234	0.0160035
787.312	0.0160694
787.390	0.0159224
787.468	0.0158567
787.547	0.0158978
787.625	0.0157578
787.703	0.0158648
787.781	0.0159010
787.859	0.0159890
787.937	0.0157692
788.015	0.0158102
788.093	0.0159286
788.172	0.0160056
788.250	0.0159184
788.328	0.0158453
788.406	0.0160169
788.484	0.0159812
788.562	0.0159759
788.640	0.0161973
788.718	0.0159770
788.797	0.0160035
788.875	0.0159345
788.953	0.0160883
789.031	0.0160433
789.109	0.0160352
789.187	0.0159658
789.265	0.0160342
789.343	0.0160513
789.422	0.0160257
789.500	0.0161673
789.578	0.0160287
789.656	0.0159499
789.734	0.0159820
789.812	0.0158867
789.890	0.0160943
789.968	0.0159342
790.047	0.0159117
790.125	0.0157906
790.203	0.0159914
790.281	0.0159052
790.359	0.0159135
790.437	0.0158827
790.515	0.0157757
790.593	0.0157935
790.672	0.0160049
790.750	0.0157965
790.828	0.0158703
790.906	0.0159049
790.984	0.0158463
791.062	0.0157311
791.140	0.0157049
791.218	0.0156861
791.297	0.0158714
791.375	0.0157491
791.453	0.0158244
791.531	0.0158373
791.609	0.0157986
791.687	0.0157484
791.765	0.0157858
791.843	0.0158322
791.922	0.0158044
792.000	0.0158482
792.078	0.0158861
792.156	0.0158901
792.234	0.0158802
792.312	0.0158047
792.390	0.0158793
792.468	0.0158122
792.547	0.0158416
792.625	0.0158362
792.703	0.0159659
792.781	0.0160007
792.859	0.0160139
792.937	0.0159223
793.015	0.0159174
793.093	0.0160429
793.172	0.0160540
793.250	0.0160835
793.328	0.0161025
793.406	0.0159985
793.484	0.0160449
793.562	0.0160496
793.640	0.0159244
793.718	0.0160786
793.797	0.0158496
793.875	0.0159711
793.953	0.0159659
794.031	0.0159180
794.109	0.0159669
794.187	0.0158884
794.265	0.0158234
794.343	0.0159010
794.422	0.0159092
794.500	0.0158549
794.578	0.0157816
794.656	0.0157257
794.734	0.0157738
794.812	0.0159112
794.890	0.0157782
794.968	0.0157795
795.047	0.0158130
795.125	0.0159284
795.203	0.0160374
795.281	0.0159418
795.359	0.0158838
795.437	0.0158331
795.515	0.0158024
795.593	0.0157555
795.672	0.0158960
795.750	0.0158163
795.828	0.0156610
795.906	0.0158020
795.984	0.0158952
796.062	0.0157093
796.140	0.0157353
796.218	0.0157491
796.297	0.0158063
796.375	0.0158316
796.453	0.0158517
796.531	0.0158813
796.609	0.0159322
796.687	0.0159341
796.765	0.0159731
796.843	0.0158853
796.922	0.0159750
797.000	0.0160571
797.078	0.0160789
797.156	0.0162072
797.234	0.0162509
797.312	0.0160965
797.390	0.0162215
797.468	0.0161720
797.547	0.0160494
797.625	0.0160575
797.703	0.0161731
797.781	0.0162032
797.859	0.0162157
797.937	0.0162218
798.015	0.0160717
798.093	0.0159898
798.172	0.0160767
798.250	0.0160690
798.328	0.0157852
798.406	0.0159548
798.484	0.0158874
798.562	0.0159124
798.640	0.0158574
798.718	0.0159267
798.797	0.0158217
798.875	0.0157874
798.953	0.0158006
799.031	0.0157551
799.109	0.0155545
799.187	0.0158569
799.265	0.0158093
799.343	0.0157594
799.422	0.0158494
799.500	0.0159313
799.578	0.0158022
799.656	0.0157781
799.734	0.0158343
799.812	0.0158469
799.890	0.0159335
799.968	0.0158488
800.047	0.0159029
800.125	0.0159194
800.203	0.0159499
800.281	0.0158466
800.359	0.0159022
800.437	0.0158318
800.515	0.0158353
800.593	0.0159859
800.672	0.0160677
800.750	0.0158582
800.828	0.0159361
800.906	0.0160931
800.984	0.0159893
801.062	0.0160487
801.140	0.0160845
801.218	0.0161091
801.297	0.0161391
801.375	0.0160870
801.453	0.0162309
801.531	0.0160892
801.609	0.0163301
801.687	0.0163423
801.765	0.0162159
801.843	0.0162146
801.922	0.0161193
802.000	0.0162437
802.078	0.0162011
802.156	0.0162003
802.234	0.0160023
802.312	0.0158591
802.390	0.0160598
802.468	0.0158619
802.547	0.0159472
802.625	0.0158569
802.703	0.0159455
802.781	0.0159679
802.859	0.0157845
802.937	0.0159090
803.015	0.0158584
803.093	0.0158922
803.172	0.0158511
803.250	0.0159127
803.328	0.0158952
803.406	0.0158304
803.484	0.0158541
803.562	0.0159366
803.640	0.0158418
803.718	0.0157932
803.797	0.0159480
803.875	0.0158315
803.953	0.0157344
804.031	0.0158330
804.109	0.0159278
804.187	0.0159408
804.265	0.0159148
804.343	0.0160233
804.422	0.0159505
804.500	0.0161087
804.578	0.0160880
804.656	0.0161395
804.734	0.0160632
804.812	0.0161107
804.890	0.0163873
804.968	0.0162606
805.047	0.0161857
805.125	0.0161997
805.203	0.0162700
805.281	0.0164096
805.359	0.0162888
805.437	0.0162030
805.515	0.0162323
805.593	0.0162896
805.672	0.0163076
805.750	0.0163120
805.828	0.0160204
805.906	0.0161832
805.984	0.0160656
806.062	0.0160099
806.140	0.0160548
806.218	0.0160257
806.297	0.0160403
806.375	0.0159172
806.453	0.0159142
806.531	0.0159714
806.609	0.0159464
806.687	0.0156742
806.765	0.0158834
806.843	0.0156875
806.922	0.0158472
807.000	0.0158002
807.078	0.0157770
807.156	0.0157375
807.234	0.0157934
807.312	0.0156747
807.390	0.0157948
807.468	0.0156526
807.547	0.0157858
807.625	0.0158700
807.703	0.0158614
807.781	0.0158205
807.859	0.0158820
807.937	0.0158801
808.015	0.0159669
808.093	0.0158073
808.172	0.0157984
808.250	0.0160739
808.328	0.0159373
808.406	0.0159661
808.484	0.0160310
808.562	0.0159717
808.640	0.0160567
808.718	0.0160286
808.797	0.0162005
808.875	0.0160470
808.953	0.0161054
809.031	0.0161251
809.109	0.0161423
809.187	0.0161295
809.265	0.0161881
809.343	0.0161269
809.422	0.0161459
809.500	0.0161008
809.578	0.0162020
809.656	0.0161155
809.734	0.0159946
809.812	0.0159525
809.890	0.0160233
809.968	0.0160175
810.047	0.0161375
810.125	0.0159897
810.203	0.0160770
810.281	0.0159877
810.359	0.0159879
810.437	0.0159995
810.515	0.0159879
810.593	0.0159087
810.672	0.0158234
810.750	0.0158497
810.828	0.0158729
810.906	0.0158539
810.984	0.0159014
811.062	0.0158389
811.140	0.0157701
811.218	0.0158063
811.297	0.0157267
811.375	0.0157277
811.453	0.0157207
811.531	0.0158588
811.609	0.0157747
811.687	0.0157994
811.765	0.0157903
811.843	0.0159015
811.922	0.0158735
812.000	0.0158205
812.078	0.0160477
812.156	0.0159631
812.234	0.0159678
812.312	0.0157855
812.390	0.0160537
812.468	0.0161227
812.547	0.0160191
812.625	0.0160980
812.703	0.0160632
812.781	0.0158244
812.859	0.0159774
812.937	0.0160790
813.015	0.0160031
813.093	0.0160400
813.172	0.0158780
813.250	0.0159406
813.328	0.0159824
813.406	0.0161093
813.484	0.0161380
813.562	0.0160879
813.640	0.0160684
813.718	0.0160606
813.797	0.0160410
813.875	0.0158366
813.953	0.0160516
814.031	0.0160658
814.109	0.0159600
814.187	0.0160049
814.265	0.0159901
814.343	0.0159171
814.422	0.0159097
814.500	0.0161073
814.578	0.0159669
814.656	0.0159013
814.734	0.0159193
814.812	0.0160621
814.890	0.0158503
814.968	0.0158528
815.047	0.0159336
815.125	0.0159755
815.203	0.0159415
815.281	0.0158580
815.359	0.0156857
815.437	0.0158353
815.515	0.0155996
815.593	0.0154636
815.672	0.0155983
815.750	0.0156173
815.828	0.0157750
815.906	0.0155922
815.984	0.0154932
816.062	0.0156792
816.140	0.0157790
816.218	0.0156368
816.297	0.0155865
816.375	0.0157920
816.453	0.0158120
816.531	0.0157597
816.609	0.0158942
816.687	0.0158784
816.765	0.0159682
816.843	0.0160510
816.922	0.0160908
817.000	0.0161214
817.078	0.0160912
817.156	0.0160299
817.234	0.0160645
817.312	0.0161612
817.390	0.0159760
817.468	0.0159997
817.547	0.0160349
817.625	0.0160204
817.703	0.0158999
817.781	0.0160525
817.859	0.0160063
817.937	0.0159203
818.015	0.0158266
818.093	0.0159203
818.172	0.0159682
818.250	0.0160803
818.328	0.0159476
818.406	0.0158354
818.484	0.0159506
818.562	0.0157632
818.640	0.0157970
818.718	0.0158159
818.797	0.0157322
818.875	0.0156319
818.953	0.0156357
819.031	0.0157553
819.109	0.0157056
819.187	0.0157128
819.265	0.0157211
819.343	0.0157157
819.422	0.0156239
819.500	0.0157843
819.578	0.0157063
819.656	0.0156088
819.734	0.0156702
819.812	0.0157279
819.890	0.0156268
819.968	0.0157006
820.047	0.0157189
820.125	0.0158193
820.203	0.0158337
820.281	0.0157516
820.359	0.0158740
820.437	0.0158678
820.515	0.0159369
820.593	0.0159869
820.672	0.0160233
820.750	0.0160612
820.828	0.0159596
820.906	0.0160640
820.984	0.0160915
821.062	0.0160713
821.140	0.0162776
821.218	0.0162536
821.297	0.0162500
821.375	0.0162576
821.453	0.0162358
821.531	0.0161670
821.609	0.0160236
821.687	0.0160602
821.765	0.0160564
821.843	0.0159267
821.922	0.0159223
822.000	0.0158144
822.078	0.0157253
822.156	0.0156554
822.234	0.0155979
822.312	0.0157338
822.390	0.0155975
822.468	0.0157167
822.547	0.0157802
822.625	0.0158031
822.703	0.0157300
822.781	0.0155518
822.859	0.0158150
822.937	0.0157684
823.015	0.0158372
823.093	0.0157996
823.172	0.0158593
823.250	0.0160611
823.328	0.0160592
823.406	0.0160029
823.484	0.0160848
823.562	0.0161084
823.640	0.0160770
823.718	0.0162823
823.797	0.0162367
823.875	0.0161398
823.953	0.0162524
824.031	0.0163040
824.109	0.0161118
824.187	0.0161276
824.265	0.0163216
824.343	0.0162986
824.422	0.0160453
824.500	0.0162124
824.578	0.0160453
824.656	0.0158533
824.734	0.0159026
824.812	0.0159880
824.890	0.0160203
824.968	0.0158409
825.047	0.0157666
825.125	0.0157323
825.203	0.0158004
825.281	0.0157929
825.359	0.0158688
825.437	0.0157406
825.515	0.0158996
825.593	0.0157684
825.672	0.0158234
825.750	0.0159132
825.828	0.0158948
825.906	0.0160501
825.984	0.0159427
826.062	0.0158271
826.140	0.0160112
826.218	0.0159074
826.297	0.0159786
826.375	0.0159388
826.453	0.0158947
826.531	0.0162025
826.609	0.0161619
826.687	0.0162237
826.765	0.0161130
826.843	0.0160542
826.922	0.0162438
827.000	0.0162272
827.078	0.0162700
827.156	0.0161412
827.234	0.0161861
827.312	0.0162345
827.390	0.0162820
827.468	0.0161780
827.547	0.0161137
827.625	0.0159959
827.703	0.0160600
827.781	0.0161234
827.859	0.0160629
827.937	0.0160678
828.015	0.0159232
828.093	0.0159039
828.172	0.0158943
828.250	0.0158853
828.328	0.0158579
828.406	0.0158585
828.484	0.0159039
828.562	0.0157887
828.640	0.0158279
828.718	0.0158010
828.797	0.0157423
828.875	0.0158876
828.953	0.0159385
829.031	0.0158077
829.109	0.0158837
829.187	0.0160961
829.265	0.0160239
829.343	0.0159720
829.422	0.0159696
829.500	0.0159099
829.578	0.0158616
829.656	0.0160508
829.734	0.0159212
829.812	0.0160450
829.890	0.0159418
829.968	0.0159805
830.047	0.0158950
830.125	0.0158057
830.203	0.0158066
830.281	0.0158703
830.359	0.0158704
830.437	0.0159461
830.515	0.0159544
830.593	0.0158985
830.672	0.0158547
830.750	0.0157953
830.828	0.0159046
830.906	0.0159834
830.984	0.0160454
831.062	0.0161286
831.140	0.0161835
831.218	0.0159738
831.297	0.0159763
831.375	0.0160975
831.453	0.0160875
831.531	0.0160506
831.609	0.0160743
831.687	0.0159770
831.765	0.0159547
831.843	0.0159313
831.922	0.0157928
832.000	0.0159934
832.078	0.0160284
832.156	0.0157003
832.234	0.0158094
832.312	0.0158806
832.390	0.0157770
832.468	0.0158585
832.547	0.0158334
832.625	0.0158761
832.703	0.0159152
832.781	0.0159831
832.859	0.0159126
832.937	0.0160788
833.015	0.0158826
833.093	0.0158666
833.172	0.0159261
833.250	0.0160773
833.328	0.0159547
833.406	0.0160361
833.484	0.0160364
833.562	0.0160315
833.640	0.0161619
833.718	0.0160509
833.797	0.0159223
833.875	0.0160495
833.953	0.0162045
834.031	0.0161539
834.109	0.0161905
834.187	0.0162289
834.265	0.0161743
834.343	0.0160922
834.422	0.0159792
834.500	0.0160100
834.578	0.0161811
834.656	0.0157048
834.734	0.0158588
834.812	0.0157736
834.890	0.0159020
834.968	0.0159280
835.047	0.0157780
835.125	0.0157890
835.203	0.0157803
835.281	0.0157999
835.359	0.0157211
835.437	0.0157605
835.515	0.0158496
835.593	0.0157250
835.672	0.0155437
835.750	0.0157421
835.828	0.0157804
835.906	0.0155656
835.984	0.0156440
836.062	0.0157478
836.140	0.0157302
836.218	0.0155479
836.297	0.0157179
836.375	0.0156248
836.453	0.0157378
836.531	0.0159042
836.609	0.0157729
836.687	0.0158414
836.765	0.0159032
836.843	0.0159459
836.922	0.0158966
837.000	0.0159686
837.078	0.0161824
837.156	0.0162402
837.234	0.0161133
837.312	0.0163329
837.390	0.0163055
837.468	0.0161932
837.547	0.0163187
837.625	0.0163618
837.703	0.0163638
837.781	0.0163687
837.859	0.0162936
837.937	0.0162804
838.015	0.0161992
838.093	0.0161884
838.172	0.0160850
838.250	0.0162000
838.328	0.0159459
838.406	0.0160265
838.484	0.0158744
838.562	0.0158434
838.640	0.0157951
838.718	0.0158376
838.797	0.0157629
838.875	0.0155958
838.953	0.0157381
839.031	0.0157277
839.109	0.0156211
839.187	0.0156853
839.265	0.0154958
839.343	0.0154750
839.422	0.0156289
839.500	0.0156302
839.578	0.0154559
839.656	0.0153482
839.734	0.0155219
839.812	0.0154381
839.890	0.0155621
839.968	0.0155482
840.047	0.0156292
840.125	0.0157229
840.203	0.0156800
840.281	0.0157848
840.359	0.0158916
840.437	0.0158791
840.515	0.0158997
840.593	0.0161418
840.672	0.0161734
840.750	0.0161106
840.828	0.0161970
840.906	0.0161887
840.984	0.0161797
841.062	0.0162753
841.140	0.0162588
841.218	0.0163132
841.297	0.0162387
841.375	0.0161572
841.453	0.0161938
841.531	0.0160951
841.609	0.0162150
841.687	0.0159946
841.765	0.0160976
841.843	0.0160565
841.922	0.0160262
842.000	0.0160661
842.078	0.0159343
842.156	0.0158527
842.234	0.0160148
842.312	0.0158640
842.390	0.0160417
842.468	0.0157985
842.547	0.0157917
842.625	0.0158733
842.703	0.0158217
842.781	0.0157616
842.859	0.0157590
842.937	0.0156905
843.015	0.0157146
843.093	0.0157180
843.172	0.0158273
843.250	0.0156826
843.328	0.0156152
843.406	0.0156508
843.484	0.0157021
843.562	0.0158517
843.640	0.0158667
843.718	0.0157787
843.797	0.0157699
843.875	0.0159641
843.953	0.0159441
844.031	0.0159389
844.109	0.0160652
844.187	0.0160555
844.265	0.0160389
844.343	0.0160702
844.422	0.0160899
844.500	0.0160846
844.578	0.0161738
844.656	0.0160568
844.734	0.0161259
844.812	0.0161478
844.890	0.0161665
844.968	0.0161359
845.047	0.0161636
845.125	0.0160515
845.203	0.0160253
845.281	0.0160480
845.359	0.0160947
845.437	0.0160854
845.515	0.0161046
845.593	0.0159727
845.672	0.0160503
845.750	0.0159863
845.828	0.0159801
845.906	0.0160462
845.984	0.0160093
846.062	0.0159877
846.140	0.0159814
846.218	0.0159557
846.297	0.0159123
846.375	0.0158827
846.453	0.0159132
846.531	0.0160081
846.609	0.0159678
846.687	0.0158104
846.765	0.0158263
846.843	0.0158765
846.922	0.0159122
847.000	0.0159946
847.078	0.0159802
847.156	0.0159141
847.234	0.0160505
847.312	0.0158910
847.390	0.0158940
847.468	0.0159987
847.547	0.0160853
847.625	0.0158913
847.703	0.0158595
847.781	0.0158331
847.859	0.0158410
847.937	0.0159252
848.015	0.0159383
848.093	0.0158102
848.172	0.0159313
848.250	0.0158535
848.328	0.0158744
848.406	0.0159494
848.484	0.0159068
848.562	0.0158316
848.640	0.0158944
848.718	0.0160052
848.797	0.0159544
848.875	0.0159764
848.953	0.0159228
849.031	0.0160854
849.109	0.0161958
849.187	0.0161656
849.265	0.0159521
849.343	0.0161644
849.422	0.0161860
849.500	0.0162769
849.578	0.0161137
849.656	0.0161564
849.734	0.0161430
849.812	0.0161073
849.890	0.0161711
849.968	0.0161509
850.047	0.0161229
850.125	0.0162474
850.203	0.0161361
850.281	0.0159818
850.359	0.0160899
850.437	0.0161501
850.515	0.0161781
850.593	0.0161337
850.672	0.0159929
850.750	0.0160369
850.828	0.0161528
850.906	0.0161436
850.984	0.0161197
851.062	0.0160026
851.140	0.0160007
851.218	0.0160201
851.297	0.0159299
851.375	0.0160490
851.453	0.0158896
851.531	0.0158945
851.609	0.0159598
851.687	0.0159662
851.765	0.0159506
851.843	0.0157967
851.922	0.0156635
852.000	0.0159359
852.078	0.0157061
852.156	0.0157275
852.234	0.0157963
852.312	0.0157172
852.390	0.0157736
852.468	0.0158096
852.547	0.0158842
852.625	0.0158226
852.703	0.0157229
852.781	0.0158601
852.859	0.0159013
852.937	0.0158466
853.015	0.0158134
853.093	0.0159824
853.172	0.0159348
853.250	0.0160337
853.328	0.0159472
853.406	0.0160555
853.484	0.0160773
853.562	0.0161759
853.640	0.0162029
853.718	0.0160331
853.797	0.0162264
853.875	0.0161838
853.953	0.0161198
854.031	0.0161303
854.109	0.0159801
854.187	0.0160414
854.265	0.0160436
854.343	0.0160400
854.422	0.0159788
854.500	0.0159816
854.578	0.0159259
854.656	0.0160503
854.734	0.0160808
854.812	0.0160101
854.890	0.0160732
854.968	0.0159372
855.047	0.0160083
855.125	0.0160635
855.203	0.0159390
855.281	0.0159886
855.359	0.0159074
855.437	0.0160622
855.515	0.0159726
855.593	0.0159121
855.672	0.0159300
855.750	0.0158669
855.828	0.0157939
855.906	0.0157493
855.984	0.0159669
856.062	0.0158028
856.140	0.0156784
856.218	0.0156828
856.297	0.0156364
856.375	0.0156779
856.453	0.0158856
856.531	0.0157098
856.609	0.0157043
856.687	0.0158093
856.765	0.0158223
856.843	0.0158949
856.922	0.0158704
857.000	0.0158262
857.078	0.0158986
857.156	0.0158777
857.234	0.0158939
857.312	0.0158518
857.390	0.0160397
857.468	0.0161382
857.547	0.0160179
857.625	0.0160367
857.703	0.0159750
857.781	0.0159382
857.859	0.0161040
857.937	0.0161213
858.015	0.0159177
858.093	0.0159114
858.172	0.0160545
858.250	0.0160021
858.328	0.0159042
858.406	0.0158371
858.484	0.0159805
858.562	0.0160120
858.640	0.0158728
858.718	0.0158315
858.797	0.0160872
858.875	0.0160612
858.953	0.0159253
859.031	0.0159399
859.109	0.0159238
859.187	0.0160081
859.265	0.0160538
859.343	0.0160356
859.422	0.0161121
859.500	0.0160503
859.578	0.0160959
859.656	0.0160555
859.734	0.0160550
859.812	0.0160378
859.890	0.0159924
859.968	0.0160112
860.047	0.0159312
860.125	0.0158833
860.203	0.0158359
860.281	0.0158090
860.359	0.0158660
860.437	0.0158809
860.515	0.0157728
860.593	0.0156335
860.672	0.0159044
860.750	0.0158659
860.828	0.0157674
860.906	0.0157739
860.984	0.0158336
861.062	0.0159737
861.140	0.0158562
861.218	0.0159351
861.297	0.0159595
861.375	0.0159013
861.453	0.0159361
861.531	0.0160311
861.609	0.0160242
861.687	0.0161020
861.765	0.0159522
861.843	0.0158291
861.922	0.0161418
862.000	0.0159300
862.078	0.0159166
862.156	0.0160292
862.234	0.0159951
862.312	0.0159574
862.390	0.0160249
862.468	0.0159846
862.547	0.0161573
862.625	0.0161372
862.703	0.0161465
862.781	0.0161345
862.859	0.0160849
862.937	0.0161667
863.015	0.0160717
863.093	0.0161407
863.172	0.0160163
863.250	0.0161180
863.328	0.0161481
863.406	0.0160688
863.484	0.0162225
863.562	0.0159988
863.640	0.0159724
863.718	0.0160906
863.797	0.0161495
863.875	0.0159546
863.953	0.0159906
864.031	0.0159437
864.109	0.0159515
864.187	0.0159628
864.265	0.0157784
864.343	0.0157759
864.422	0.0158583
864.500	0.0157095
864.578	0.0157840
864.656	0.0157571
864.734	0.0157642
864.812	0.0157417
864.890	0.0158642
864.968	0.0158828
865.047	0.0158810
865.125	0.0159161
865.203	0.0161121
865.281	0.0159328
865.359	0.0159292
865.437	0.0161266
865.515	0.0161251
865.593	0.0159689
865.672	0.0160648
865.750	0.0159470
865.828	0.0162086
865.906	0.0160761
865.984	0.0160130
866.062	0.0160507
866.140	0.0161588
866.218	0.0160179
866.297	0.0161482
866.375	0.0159632
866.453	0.0159164
866.531	0.0160069
866.609	0.0159472
866.687	0.0159850
866.765	0.0159824
866.843	0.0159258
866.922	0.0158900
867.000	0.0158123
867.078	0.0159931
867.156	0.0159483
867.234	0.0157523
867.312	0.0158128
867.390	0.0157336
867.468	0.0159245
867.547	0.0159418
867.625	0.0157645
867.703	0.0157039
867.781	0.0157981
867.859	0.0158062
867.937	0.0158898
868.015	0.0158437
868.093	0.0159554
868.172	0.0159850
868.250	0.0159977
868.328	0.0159227
868.406	0.0160160
868.484	0.0158569
868.562	0.0159288
868.640	0.0159319
868.718	0.0159393
868.797	0.0160049
868.875	0.0159438
868.953	0.0158807
869.031	0.0158920
869.109	0.0157538
869.187	0.0158825
869.265	0.0158768
869.343	0.0159293
869.422	0.0159771
869.500	0.0158852
869.578	0.0157684
869.656	0.0157820
869.734	0.0159299
869.812	0.0159724
869.890	0.0158858
869.968	0.0160107
870.047	0.0159683
870.125	0.0160150
870.203	0.0159636
870.281	0.0160169
870.359	0.0158968
870.437	0.0159365
870.515	0.0161069
870.593	0.0158855
870.672	0.0159946
870.750	0.0159544
870.828	0.0158952
870.906	0.0159452
870.984	0.0159344
871.062	0.0159315
871.140	0.0160272
871.218	0.0160473
871.297	0.0160951
871.375	0.0160487
871.453	0.0159319
871.531	0.0160394
871.609	0.0159786
871.687	0.0159385
871.765	0.0160342
871.843	0.0159276
871.922	0.0160002
872.000	0.0161862
872.078	0.0158891
872.156	0.0159095
872.234	0.0159227
872.312	0.0158916
872.390	0.0159569
872.468	0.0158701
872.547	0.0158809
872.625	0.0158394
872.703	0.0158955
872.781	0.0157458
872.859	0.0158320
872.937	0.0155558
873.015	0.0156434
873.093	0.0157781
873.172	0.0157614
873.250	0.0158700
873.328	0.0158465
873.406	0.0157955
873.484	0.0158955
873.562	0.0159959
873.640	0.0160902
873.718	0.0160351
873.797	0.0160658
873.875	0.0161295
873.953	0.0159724
874.031	0.0161613
874.109	0.0161835
874.187	0.0161092
874.265	0.0160503
874.343	0.0161194
874.422	0.0160971
874.500	0.0160184
874.578	0.0160168
874.656	0.0159343
874.734	0.0158544
874.812	0.0160271
874.890	0.0159830
874.968	0.0159348
875.047	0.0157410
875.125	0.0158060
875.203	0.0159203
875.281	0.0158385
875.359	0.0158358
875.437	0.0158293
875.515	0.0158242
875.593	0.0158342
875.672	0.0158414
875.750	0.0158964
875.828	0.0158337
875.906	0.0159518
875.984	0.0159153
876.062	0.0158626
876.140	0.0159531
876.218	0.0159563
876.297	0.0161700
876.375	0.0160844
876.453	0.0158770
876.531	0.0159339
876.609	0.0159563
876.687	0.0159039
876.765	0.0160149
876.843	0.0160062
876.922	0.0160132
877.000	0.0158649
877.078	0.0159458
877.156	0.0159455
877.234	0.0159098
877.312	0.0159616
877.390	0.0158926
877.468	0.0159636
877.547	0.0159653
877.625	0.0159488
877.703	0.0158609
877.781	0.0159345
877.859	0.0159807
877.937	0.0160394
878.015	0.0159805
878.093	0.0159789
878.172	0.0159943
878.250	0.0158706
878.328	0.0160648
878.406	0.0159837
878.484	0.0158376
878.562	0.0158923
878.640	0.0158255
878.718	0.0159618
878.797	0.0158833
878.875	0.0158488
878.953	0.0158598
879.031	0.0158369
879.109	0.0158823
879.187	0.0158961
879.265	0.0158777
879.343	0.0157483
879.422	0.0157512
879.500	0.0159306
879.578	0.0158347
879.656	0.0158543
879.734	0.0159266
879.812	0.0159395
879.890	0.0159491
879.968	0.0159507
880.047	0.0158547
880.125	0.0158769
880.203	0.0159462
880.281	0.0159612
880.359	0.0157996
880.437	0.0157930
880.515	0.0158202
880.593	0.0157870
880.672	0.0157967
880.750	0.0157698
880.828	0.0158247
880.906	0.0159386
880.984	0.0157272
881.062	0.0158262
881.140	0.0157861
881.218	0.0158397
881.297	0.0158634
881.375	0.0159464
881.453	0.0159204
881.531	0.0159911
881.609	0.0157951
881.687	0.0158990
881.765	0.0159505
881.843	0.0160380
881.922	0.0157982
882.000	0.0158434
882.078	0.0158840
882.156	0.0159418
882.234	0.0159307
882.312	0.0158305
882.390	0.0156830
882.468	0.0158584
882.547	0.0158344
882.625	0.0159932
882.703	0.0159879
882.781	0.0159086
882.859	0.0160095
882.937	0.0159734
883.015	0.0157652
883.093	0.0159602
883.172	0.0160191
883.250	0.0160011
883.328	0.0160218
883.406	0.0159326
883.484	0.0159864
883.562	0.0160613
883.640	0.0158305
883.718	0.0158290
883.797	0.0159908
883.875	0.0158823
883.953	0.0158438
884.031	0.0159728
884.109	0.0159020
884.187	0.0158925
884.265	0.0159917
884.343	0.0159012
884.422	0.0159800
884.500	0.0158612
884.578	0.0159177
884.656	0.0159946
884.734	0.0160173
884.812	0.0160696
884.890	0.0160541
884.968	0.0159883
885.047	0.0159117
885.125	0.0159197
885.203	0.0160641
885.281	0.0159171
885.359	0.0160002
885.437	0.0160303
885.515	0.0159801
885.593	0.0159937
885.672	0.0159001
885.750	0.0160519
885.828	0.0161330
885.906	0.0160590
885.984	0.0161279
886.062	0.0161077
886.140	0.0159473
886.218	0.0161575
886.297	0.0159433
886.375	0.0160098
886.453	0.0161559
886.531	0.0160683
886.609	0.0161755
886.687	0.0161324
886.765	0.0160482
886.843	0.0161135
886.922	0.0160580
887.000	0.0161948
887.078	0.0159056
887.156	0.0161224
887.234	0.0159906
887.312	0.0158993
887.390	0.0160758
887.468	0.0160391
887.547	0.0159851
887.625	0.0160701
887.703	0.0160662
887.781	0.0159396
887.859	0.0159618
887.937	0.0159627
888.015	0.0160479
888.093	0.0158788
888.172	0.0160426
888.250	0.0160899
888.328	0.0160888
888.406	0.0161008
888.484	0.0158791
888.562	0.0160133
888.640	0.0161258
888.718	0.0158966
888.797	0.0161259
888.875	0.0160504
888.953	0.0159030
889.031	0.0160856
889.109	0.0160983
889.187	0.0158559
889.265	0.0159844
889.343	0.0159750
889.422	0.0159133
889.500	0.0159328
889.578	0.0159925
889.656	0.0159762
889.734	0.0158981
889.812	0.0160261
889.890	0.0160011
889.968	0.0159011
890.047	0.0158963
890.125	0.0160186
890.203	0.0160398
890.281	0.0158897
890.359	0.0160097
890.437	0.0159914
890.515	0.0160759
890.593	0.0161088
890.672	0.0160542
890.750	0.0160679
890.828	0.0159120
890.906	0.0159780
890.984	0.0161823
891.062	0.0160701
891.140	0.0159093
891.218	0.0158949
891.297	0.0160624
891.375	0.0159879
891.453	0.0159335
891.531	0.0159361
891.609	0.0159705
891.687	0.0159458
891.765	0.0158226
891.843	0.0159641
891.922	0.0159027
892.000	0.0159057
892.078	0.0159222
892.156	0.0159469
892.234	0.0158754
892.312	0.0159603
892.390	0.0159014
892.468	0.0158425
892.547	0.0157692
892.625	0.0157973
892.703	0.0157906
892.781	0.0157643
892.859	0.0158105
892.937	0.0158687
893.015	0.0158368
893.093	0.0157909
893.172	0.0157565
893.250	0.0157555
893.328	0.0159221
893.406	0.0158497
893.484	0.0158227
893.562	0.0157950
893.640	0.0158031
893.718	0.0158961
893.797	0.0159681
893.875	0.0158240
893.953	0.0157493
894.031	0.0158190
894.109	0.0160059
894.187	0.0158156
894.265	0.0158362
894.343	0.0158759
894.422	0.0158979
894.500	0.0157734
894.578	0.0159805
894.656	0.0158936
894.734	0.0159052
894.812	0.0159663
894.890	0.0157938
894.968	0.0159551
895.047	0.0158393
895.125	0.0158805
895.203	0.0159223
895.281	0.0158253
895.359	0.0157644
895.437	0.0158926
895.515	0.0158515
895.593	0.0158159
895.672	0.0158932
895.750	0.0158698
895.828	0.0159115
895.906	0.0159203
895.984	0.0158865
896.062	0.0157929
896.140	0.0158968
896.218	0.0159084
896.297	0.0159724
896.375	0.0160252
896.453	0.0159029
896.531	0.0157833
896.609	0.0159122
896.687	0.0157778
896.765	0.0157742
896.843	0.0159754
896.922	0.0159171
897.000	0.0158292
897.078	0.0159502
897.156	0.0159018
897.234	0.0157948
897.312	0.0159087
897.390	0.0158284
897.468	0.0158849
897.547	0.0158607
897.625	0.0159477
897.703	0.0159117
897.781	0.0158003
897.859	0.0157914
897.937	0.0159573
898.015	0.0159759
898.093	0.0159302
898.172	0.0157800
898.250	0.0158842
898.328	0.0160442
898.406	0.0158958
898.484	0.0157982
898.562	0.0159720
898.640	0.0158865
898.718	0.0159277
898.797	0.0158482
898.875	0.0159036
898.953	0.0159417
899.031	0.0158967
899.109	0.0159447
899.187	0.0158675
899.265	0.0159241
899.343	0.0159201
899.422	0.0159418
899.500	0.0158339
899.578	0.0158591
899.656	0.0158937
899.734	0.0157787
899.812	0.0158141
899.890	0.0158100
899.968	0.0158723
900.047	0.0159003
900.125	0.0158424
900.203	0.0158736
900.281	0.0159309
900.359	0.0159129
900.437	0.0158582
900.515	0.0157295
900.593	0.0158592
900.672	0.0159284
900.750	0.0157770
900.828	0.0157151
900.906	0.0157915
900.984	0.0157993
901.062	0.0158915
901.140	0.0158064
901.218	0.0156171
901.297	0.0158256
901.375	0.0158935
901.453	0.0157932
901.531	0.0159753
901.609	0.0158450
901.687	0.0158996
901.765	0.0159079
901.843	0.0158398
901.922	0.0156813
902.000	0.0159000
902.078	0.0158474
902.156	0.0159513
902.234	0.0159361
902.312	0.0157880
902.390	0.0158196
902.468	0.0158767
902.547	0.0159911
902.625	0.0159860
902.703	0.0159648
902.781	0.0159785
902.859	0.0159981
902.937	0.0160242
903.015	0.0158896
903.093	0.0159142
903.172	0.0159570
903.250	0.0159291
903.328	0.0157740
903.406	0.0158462
903.484	0.0159669
903.562	0.0160323
903.640	0.0157968
903.718	0.0158228
903.797	0.0159750
903.875	0.0160792
903.953	0.0158287
904.031	0.0159235
904.109	0.0159976
904.187	0.0158210
904.265	0.0158945
904.343	0.0159412
904.422	0.0159595
904.500	0.0159243
904.578	0.0157816
904.656	0.0158804
904.734	0.0157325
904.812	0.0156957
904.890	0.0159122
904.968	0.0160049
905.047	0.0157770
905.125	0.0158070
905.203	0.0157537
905.281	0.0159097
905.359	0.0159531
905.437	0.0158106
905.515	0.0160503
905.593	0.0159438
905.672	0.0159343
905.750	0.0159616
905.828	0.0160477
905.906	0.0160274
905.984	0.0159734
906.062	0.0160291
906.140	0.0159410
906.218	0.0159517
906.297	0.0159444
906.375	0.0160008
906.453	0.0160310
906.531	0.0160491
906.609	0.0159500
906.687	0.0158449
906.765	0.0158685
906.843	0.0159032
906.922	0.0159780
907.000	0.0158342
907.078	0.0158158
907.156	0.0159513
907.234	0.0158406
907.312	0.0156625
907.390	0.0158339
907.468	0.0159221
907.547	0.0158291
907.625	0.0158945
907.703	0.0159135
907.781	0.0157200
907.859	0.0156760
907.937	0.0158560
908.015	0.0158141
908.093	0.0158245
908.172	0.0158363
908.250	0.0158758
908.328	0.0158868
908.406	0.0159394
908.484	0.0159123
908.562	0.0160757
908.640	0.0159492
908.718	0.0159033
908.797	0.0158823
908.875	0.0159676
908.953	0.0159013
909.031	0.0160637
909.109	0.0159271
909.187	0.0157475
909.265	0.0158232
909.343	0.0158942
909.422	0.0158345
909.500	0.0158823
909.578	0.0159769
909.656	0.0158543
909.734	0.0158932
909.812	0.0159195
909.890	0.0159190
909.968	0.0159145
910.047	0.0158698
910.125	0.0158513
910.203	0.0160204
910.281	0.0159069
910.359	0.0156515
910.437	0.0158967
910.515	0.0157703
910.593	0.0158169
910.672	0.0159257
910.750	0.0158517
910.828	0.0159334
910.906	0.0159247
910.984	0.0159698
911.062	0.0159789
911.140	0.0158110
911.218	0.0159271
911.297	0.0157504
911.375	0.0158918
911.453	0.0159973
911.531	0.0158171
911.609	0.0160060
911.687	0.0158012
911.765	0.0160312
911.843	0.0157901
911.922	0.0159065
912.000	0.0161329
912.078	0.0160844
912.156	0.0159557
912.234	0.0159309
912.312	0.0160885
912.390	0.0159082
912.468	0.0158971
912.547	0.0158772
912.625	0.0160629
912.703	0.0161489
912.781	0.0158292
912.859	0.0159640
912.937	0.0159326
913.015	0.0158917
913.093	0.0159449
913.172	0.0160368
913.250	0.0158638
913.328	0.0159067
913.406	0.0157944
913.484	0.0159084
913.562	0.0159923
913.640	0.0158463
913.718	0.0159797
913.797	0.0160447
913.875	0.0160175
913.953	0.0159637
914.031	0.0159554
914.109	0.0158334
914.187	0.0158318
914.265	0.0159904
914.343	0.0159238
914.422	0.0160096
914.500	0.0160815
914.578	0.0159610
914.656	0.0158932
914.734	0.0159533
914.812	0.0159863
914.890	0.0158154
914.968	0.0160583
915.047	0.0159679
915.125	0.0159101
915.203	0.0159805
915.281	0.0160768
915.359	0.0161148
915.437	0.0157842
915.515	0.0158939
915.593	0.0160574
915.672	0.0159064
915.750	0.0158817
915.828	0.0160054
915.906	0.0159485
915.984	0.0159030
916.062	0.0158831
916.140	0.0158714
916.218	0.0158262
916.297	0.0159830
916.375	0.0159525
916.453	0.0159529
916.531	0.0160002
916.609	0.0159309
916.687	0.0159235
916.765	0.0158959
916.843	0.0158378
916.922	0.0159433
917.000	0.0160320
917.078	0.0160039
917.156	0.0160641
917.234	0.0158688
917.312	0.0159082
917.390	0.0159747
917.468	0.0159947
917.547	0.0158086
917.625	0.0158849
917.703	0.0158213
917.781	0.0159978
917.859	0.0159350
917.937	0.0159409
918.015	0.0158353
918.093	0.0158891
918.172	0.0159447
918.250	0.0160523
918.328	0.0159448
918.406	0.0159367
918.484	0.0158364
918.562	0.0158921
918.640	0.0158562
918.718	0.0157698
918.797	0.0159632
918.875	0.0159527
918.953	0.0158228
919.031	0.0159315
919.109	0.0158340
919.187	0.0158184
919.265	0.0158477
919.343	0.0157349
919.422	0.0157779
919.500	0.0158488
919.578	0.0156577
919.656	0.0158561
919.734	0.0159168
919.812	0.0158154
919.890	0.0158723
