06/13/2022	14:36:48	Ver.	4.1	UNKNOWN
Optical Delay	599.968395	Delta X		0.078125	Sweeps	1	Scan Rate	0/0
Coordinates	Axis 1	NaN	Axis 2	NaN	Axis 3	NaN	Axis 4	NaN	Axis 5	NaN	Axis 6	0.000000
TX Power	0.000000	RX Power	0.000000

599.968	0.0155910
600.047	0.0155347
600.125	0.0155039
600.203	0.0156148
600.281	0.0156732
600.359	0.0156413
600.437	0.0156459
600.515	0.0155050
600.593	0.0155676
600.672	0.0155443
600.750	0.0156468
600.828	0.0155907
600.906	0.0156364
600.984	0.0156538
601.062	0.0156254
601.140	0.0157106
601.218	0.0154581
601.297	0.0156056
601.375	0.0156306
601.453	0.0155744
601.531	0.0156640
601.609	0.0157337
601.687	0.0155052
601.765	0.0155883
601.843	0.0157088
601.922	0.0155893
602.000	0.0155280
602.078	0.0156442
602.156	0.0156003
602.234	0.0156034
602.312	0.0156351
602.390	0.0156139
602.468	0.0155321
602.547	0.0156207
602.625	0.0156264
602.703	0.0156290
602.781	0.0156357
602.859	0.0154572
602.937	0.0156197
603.015	0.0157393
603.093	0.0155740
603.172	0.0155570
603.250	0.0155080
603.328	0.0156385
603.406	0.0154980
603.484	0.0153690
603.562	0.0154987
603.640	0.0156659
603.718	0.0157395
603.797	0.0155894
603.875	0.0155865
603.953	0.0155016
604.031	0.0156327
604.109	0.0156512
604.187	0.0157024
604.265	0.0156144
604.343	0.0156783
604.422	0.0156046
604.500	0.0155811
604.578	0.0155978
604.656	0.0157432
604.734	0.0154814
604.812	0.0156280
604.890	0.0157811
604.968	0.0156326
605.047	0.0156258
605.125	0.0156076
605.203	0.0155414
605.281	0.0156699
605.359	0.0155276
605.437	0.0156008
605.515	0.0156738
605.593	0.0155593
605.672	0.0156383
605.750	0.0156615
605.828	0.0156420
605.906	0.0156949
605.984	0.0154682
606.062	0.0156260
606.140	0.0154800
606.218	0.0155761
606.297	0.0155690
606.375	0.0157420
606.453	0.0156291
606.531	0.0155490
606.609	0.0156084
606.687	0.0155866
606.765	0.0155520
606.843	0.0156001
606.922	0.0156121
607.000	0.0156612
607.078	0.0156129
607.156	0.0155632
607.234	0.0156043
607.312	0.0155516
607.390	0.0155243
607.468	0.0155131
607.547	0.0156728
607.625	0.0156325
607.703	0.0155355
607.781	0.0156261
607.859	0.0157448
607.937	0.0155034
608.015	0.0154917
608.093	0.0157468
608.172	0.0155305
608.250	0.0155428
608.328	0.0157454
608.406	0.0155200
608.484	0.0156113
608.562	0.0156933
608.640	0.0155448
608.718	0.0155357
608.797	0.0157280
608.875	0.0157185
608.953	0.0156080
609.031	0.0156827
609.109	0.0155830
609.187	0.0157580
609.265	0.0157476
609.343	0.0156866
609.422	0.0155365
609.500	0.0155689
609.578	0.0156178
609.656	0.0156739
609.734	0.0155365
609.812	0.0157443
609.890	0.0156310
609.968	0.0156352
610.047	0.0155856
610.125	0.0157307
610.203	0.0156596
610.281	0.0156766
610.359	0.0156332
610.437	0.0156316
610.515	0.0155681
610.593	0.0156362
610.672	0.0155951
610.750	0.0156343
610.828	0.0158085
610.906	0.0155769
610.984	0.0156021
611.062	0.0156389
611.140	0.0155567
611.218	0.0157209
611.297	0.0154930
611.375	0.0156758
611.453	0.0156009
611.531	0.0155961
611.609	0.0156253
611.687	0.0155695
611.765	0.0155383
611.843	0.0155346
611.922	0.0156232
612.000	0.0156802
612.078	0.0155095
612.156	0.0156651
612.234	0.0155978
612.312	0.0156552
612.390	0.0156733
612.468	0.0157872
612.547	0.0156763
612.625	0.0154499
612.703	0.0156522
612.781	0.0157324
612.859	0.0156312
612.937	0.0155666
613.015	0.0155995
613.093	0.0157021
613.172	0.0155394
613.250	0.0155487
613.328	0.0156136
613.406	0.0156195
613.484	0.0156612
613.562	0.0155835
613.640	0.0154922
613.718	0.0154789
613.797	0.0154693
613.875	0.0156547
613.953	0.0156635
614.031	0.0154995
614.109	0.0157420
614.187	0.0156358
614.265	0.0155568
614.343	0.0156548
614.422	0.0156126
614.500	0.0156979
614.578	0.0156210
614.656	0.0154726
614.734	0.0156157
614.812	0.0156194
614.890	0.0155596
614.968	0.0156191
615.047	0.0155788
615.125	0.0155849
615.203	0.0156605
615.281	0.0156814
615.359	0.0157499
615.437	0.0155052
615.515	0.0155322
615.593	0.0156527
615.672	0.0156996
615.750	0.0156162
615.828	0.0156863
615.906	0.0156282
615.984	0.0155946
616.062	0.0155420
616.140	0.0155452
616.218	0.0156891
616.297	0.0156064
616.375	0.0155508
616.453	0.0156590
616.531	0.0155579
616.609	0.0156016
616.687	0.0156617
616.765	0.0156213
616.843	0.0156515
616.922	0.0157116
617.000	0.0156778
617.078	0.0155299
617.156	0.0156661
617.234	0.0156681
617.312	0.0156449
617.390	0.0155449
617.468	0.0155587
617.547	0.0156616
617.625	0.0157609
617.703	0.0157405
617.781	0.0156985
617.859	0.0157062
617.937	0.0156337
618.015	0.0156207
618.093	0.0156245
618.172	0.0156499
618.250	0.0155641
618.328	0.0156455
618.406	0.0157131
618.484	0.0155932
618.562	0.0156860
618.640	0.0156213
618.718	0.0156554
618.797	0.0155933
618.875	0.0156216
618.953	0.0156203
619.031	0.0157767
619.109	0.0156355
619.187	0.0157075
619.265	0.0156808
619.343	0.0156287
619.422	0.0155737
619.500	0.0155947
619.578	0.0156275
619.656	0.0156504
619.734	0.0156992
619.812	0.0156916
619.890	0.0155814
619.968	0.0156837
620.047	0.0157493
620.125	0.0157204
620.203	0.0156875
620.281	0.0155227
620.359	0.0156509
620.437	0.0157552
620.515	0.0156580
620.593	0.0156450
620.672	0.0154904
620.750	0.0154351
620.828	0.0155863
620.906	0.0155547
620.984	0.0155679
621.062	0.0155470
621.140	0.0154399
621.218	0.0154765
621.297	0.0156032
621.375	0.0155848
621.453	0.0155025
621.531	0.0156334
621.609	0.0156779
621.687	0.0155846
621.765	0.0156574
621.843	0.0156618
621.922	0.0156993
622.000	0.0156252
622.078	0.0155856
622.156	0.0154642
622.234	0.0154558
622.312	0.0157817
622.390	0.0156894
622.468	0.0156380
622.547	0.0155800
622.625	0.0156072
622.703	0.0156321
622.781	0.0155962
622.859	0.0154295
622.937	0.0155543
623.015	0.0156621
623.093	0.0156572
623.172	0.0156503
623.250	0.0156573
623.328	0.0156553
623.406	0.0156425
623.484	0.0156171
623.562	0.0156513
623.640	0.0154828
623.718	0.0156638
623.797	0.0156445
623.875	0.0156610
623.953	0.0156989
624.031	0.0155790
624.109	0.0155433
624.187	0.0155450
624.265	0.0155975
624.343	0.0155360
624.422	0.0155215
624.500	0.0155105
624.578	0.0157118
624.656	0.0155772
624.734	0.0156258
624.812	0.0156355
624.890	0.0157867
624.968	0.0155508
625.047	0.0156243
625.125	0.0157203
625.203	0.0156443
625.281	0.0155572
625.359	0.0156656
625.437	0.0156074
625.515	0.0154749
625.593	0.0156291
625.672	0.0155448
625.750	0.0154699
625.828	0.0156339
625.906	0.0157290
625.984	0.0155550
626.062	0.0155630
626.140	0.0156162
626.218	0.0156166
626.297	0.0155966
626.375	0.0155659
626.453	0.0156228
626.531	0.0156297
626.609	0.0155895
626.687	0.0157446
626.765	0.0156808
626.843	0.0155421
626.922	0.0155259
627.000	0.0156609
627.078	0.0155320
627.156	0.0156628
627.234	0.0156461
627.312	0.0155353
627.390	0.0157085
627.468	0.0155901
627.547	0.0155989
627.625	0.0155980
627.703	0.0156873
627.781	0.0155102
627.859	0.0155823
627.937	0.0157005
628.015	0.0155791
628.093	0.0156774
628.172	0.0157156
628.250	0.0156015
628.328	0.0155599
628.406	0.0156131
628.484	0.0157416
628.562	0.0156756
628.640	0.0155614
628.718	0.0155091
628.797	0.0156261
628.875	0.0156674
628.953	0.0155754
629.031	0.0156082
629.109	0.0156799
629.187	0.0155264
629.265	0.0155746
629.343	0.0156252
629.422	0.0157528
629.500	0.0155683
629.578	0.0156570
629.656	0.0156286
629.734	0.0155585
629.812	0.0157536
629.890	0.0156203
629.968	0.0155343
630.047	0.0156347
630.125	0.0156979
630.203	0.0156770
630.281	0.0155562
630.359	0.0155639
630.437	0.0155669
630.515	0.0155462
630.593	0.0154547
630.672	0.0156251
630.750	0.0157478
630.828	0.0155903
630.906	0.0156173
630.984	0.0155887
631.062	0.0156015
631.140	0.0155299
631.218	0.0156032
631.297	0.0155990
631.375	0.0156413
631.453	0.0155975
631.531	0.0156769
631.609	0.0156235
631.687	0.0155643
631.765	0.0156131
631.843	0.0156507
631.922	0.0155390
632.000	0.0156300
632.078	0.0156455
632.156	0.0155897
632.234	0.0156922
632.312	0.0157349
632.390	0.0155854
632.468	0.0154446
632.547	0.0156673
632.625	0.0157074
632.703	0.0155684
632.781	0.0156315
632.859	0.0154410
632.937	0.0156137
633.015	0.0155836
633.093	0.0156152
633.172	0.0156906
633.250	0.0155968
633.328	0.0156865
633.406	0.0156801
633.484	0.0155992
633.562	0.0154565
633.640	0.0156438
633.718	0.0156520
633.797	0.0155677
633.875	0.0156338
633.953	0.0156386
634.031	0.0156709
634.109	0.0155806
634.187	0.0155953
634.265	0.0156106
634.343	0.0156387
634.422	0.0156519
634.500	0.0157117
634.578	0.0155305
634.656	0.0156242
634.734	0.0156436
634.812	0.0155898
634.890	0.0155274
634.968	0.0157560
635.047	0.0156767
635.125	0.0155199
635.203	0.0155769
635.281	0.0156123
635.359	0.0156242
635.437	0.0156310
635.515	0.0155511
635.593	0.0156643
635.672	0.0155188
635.750	0.0154917
635.828	0.0155723
635.906	0.0155913
635.984	0.0156606
636.062	0.0156738
636.140	0.0155579
636.218	0.0156228
636.297	0.0155473
636.375	0.0155976
636.453	0.0154736
636.531	0.0155861
636.609	0.0156462
636.687	0.0156709
636.765	0.0156297
636.843	0.0157291
636.922	0.0156915
637.000	0.0156651
637.078	0.0156575
637.156	0.0156141
637.234	0.0155998
637.312	0.0155619
637.390	0.0154574
637.468	0.0155458
637.547	0.0155902
637.625	0.0156287
637.703	0.0157092
637.781	0.0156781
637.859	0.0155553
637.937	0.0157051
638.015	0.0155697
638.093	0.0157170
638.172	0.0156629
638.250	0.0155849
638.328	0.0156400
638.406	0.0157054
638.484	0.0155943
638.562	0.0155672
638.640	0.0156568
638.718	0.0155800
638.797	0.0156437
638.875	0.0155750
638.953	0.0156909
639.031	0.0155366
639.109	0.0156149
639.187	0.0155794
639.265	0.0156892
639.343	0.0157244
639.422	0.0154484
639.500	0.0156594
639.578	0.0156906
639.656	0.0155928
639.734	0.0155749
639.812	0.0156538
639.890	0.0155922
639.968	0.0156459
640.047	0.0155851
640.125	0.0155629
640.203	0.0155712
640.281	0.0154719
640.359	0.0157314
640.437	0.0155611
640.515	0.0156196
640.593	0.0155475
640.672	0.0155558
640.750	0.0156716
640.828	0.0155293
640.906	0.0155284
640.984	0.0156507
641.062	0.0157010
641.140	0.0156332
641.218	0.0155688
641.297	0.0155416
641.375	0.0155715
641.453	0.0156303
641.531	0.0155865
641.609	0.0156429
641.687	0.0155374
641.765	0.0155822
641.843	0.0155885
641.922	0.0155103
642.000	0.0155092
642.078	0.0155074
642.156	0.0156728
642.234	0.0156136
642.312	0.0157038
642.390	0.0157693
642.468	0.0156646
642.547	0.0156032
642.625	0.0155821
642.703	0.0155383
642.781	0.0156149
642.859	0.0156049
642.937	0.0154891
643.015	0.0157279
643.093	0.0157853
643.172	0.0155362
643.250	0.0155491
643.328	0.0156689
643.406	0.0155903
643.484	0.0156120
643.562	0.0157861
643.640	0.0156968
643.718	0.0156519
643.797	0.0157726
643.875	0.0156012
643.953	0.0155290
644.031	0.0155914
644.109	0.0155991
644.187	0.0155805
644.265	0.0156843
644.343	0.0155537
644.422	0.0156953
644.500	0.0156901
644.578	0.0155366
644.656	0.0156454
644.734	0.0156171
644.812	0.0156167
644.890	0.0155409
644.968	0.0156420
645.047	0.0156596
645.125	0.0154756
645.203	0.0155894
645.281	0.0154378
645.359	0.0156596
645.437	0.0157696
645.515	0.0157148
645.593	0.0155058
645.672	0.0156849
645.750	0.0156909
645.828	0.0155831
645.906	0.0156406
645.984	0.0157259
646.062	0.0156237
646.140	0.0155816
646.218	0.0156969
646.297	0.0156893
646.375	0.0155518
646.453	0.0156470
646.531	0.0155103
646.609	0.0156233
646.687	0.0157135
646.765	0.0157183
646.843	0.0156615
646.922	0.0156191
647.000	0.0155441
647.078	0.0157246
647.156	0.0156071
647.234	0.0155780
647.312	0.0155731
647.390	0.0155124
647.468	0.0156087
647.547	0.0156490
647.625	0.0155960
647.703	0.0156258
647.781	0.0157222
647.859	0.0155503
647.937	0.0156549
648.015	0.0155484
648.093	0.0155888
648.172	0.0157010
648.250	0.0156288
648.328	0.0156126
648.406	0.0156540
648.484	0.0156623
648.562	0.0156436
648.640	0.0155795
648.718	0.0155386
648.797	0.0155802
648.875	0.0155497
648.953	0.0157095
649.031	0.0157926
649.109	0.0155345
649.187	0.0156005
649.265	0.0155166
649.343	0.0156207
649.422	0.0155059
649.500	0.0155804
649.578	0.0155254
649.656	0.0155650
649.734	0.0156720
649.812	0.0156038
649.890	0.0156379
649.968	0.0156940
650.047	0.0156184
650.125	0.0155007
650.203	0.0157324
650.281	0.0156174
650.359	0.0155656
650.437	0.0155283
650.515	0.0157480
650.593	0.0156435
650.672	0.0156824
650.750	0.0156184
650.828	0.0155441
650.906	0.0154993
650.984	0.0156195
651.062	0.0157166
651.140	0.0157609
651.218	0.0155211
651.297	0.0156197
651.375	0.0156761
651.453	0.0156365
651.531	0.0155958
651.609	0.0156353
651.687	0.0156227
651.765	0.0156136
651.843	0.0156178
651.922	0.0157550
652.000	0.0156416
652.078	0.0156713
652.156	0.0156201
652.234	0.0155664
652.312	0.0155906
652.390	0.0156093
652.468	0.0155645
652.547	0.0154948
652.625	0.0156792
652.703	0.0156374
652.781	0.0155818
652.859	0.0155927
652.937	0.0155846
653.015	0.0155416
653.093	0.0157286
653.172	0.0154960
653.250	0.0156371
653.328	0.0155524
653.406	0.0156693
653.484	0.0155310
653.562	0.0155949
653.640	0.0155503
653.718	0.0156123
653.797	0.0156675
653.875	0.0155715
653.953	0.0155608
654.031	0.0156971
654.109	0.0155956
654.187	0.0156435
654.265	0.0154920
654.343	0.0156631
654.422	0.0154880
654.500	0.0155967
654.578	0.0156549
654.656	0.0155931
654.734	0.0156628
654.812	0.0156012
654.890	0.0155659
654.968	0.0155997
655.047	0.0157058
655.125	0.0155280
655.203	0.0158025
655.281	0.0156125
655.359	0.0154591
655.437	0.0155426
655.515	0.0156213
655.593	0.0157590
655.672	0.0156158
655.750	0.0155429
655.828	0.0155700
655.906	0.0156719
655.984	0.0155763
656.062	0.0156385
656.140	0.0156467
656.218	0.0155792
656.297	0.0155196
656.375	0.0156937
656.453	0.0155692
656.531	0.0155684
656.609	0.0156493
656.687	0.0156823
656.765	0.0156701
656.843	0.0156288
656.922	0.0155677
657.000	0.0154707
657.078	0.0155658
657.156	0.0155937
657.234	0.0156139
657.312	0.0156322
657.390	0.0156518
657.468	0.0157350
657.547	0.0154705
657.625	0.0155923
657.703	0.0155468
657.781	0.0155167
657.859	0.0155619
657.937	0.0156100
658.015	0.0155111
658.093	0.0156537
658.172	0.0156087
658.250	0.0156805
658.328	0.0155798
658.406	0.0155544
658.484	0.0155995
658.562	0.0155605
658.640	0.0156595
658.718	0.0157056
658.797	0.0156523
658.875	0.0155827
658.953	0.0156611
659.031	0.0156519
659.109	0.0154794
659.187	0.0156019
659.265	0.0157561
659.343	0.0155101
659.422	0.0155527
659.500	0.0156577
659.578	0.0155296
659.656	0.0154575
659.734	0.0155553
659.812	0.0156319
659.890	0.0156770
659.968	0.0156054
660.047	0.0155528
660.125	0.0155413
660.203	0.0155148
660.281	0.0156606
660.359	0.0156461
660.437	0.0156150
660.515	0.0155211
660.593	0.0154555
660.672	0.0156305
660.750	0.0153584
660.828	0.0155782
660.906	0.0155660
660.984	0.0155624
661.062	0.0156959
661.140	0.0156038
661.218	0.0155441
661.297	0.0155920
661.375	0.0154946
661.453	0.0154691
661.531	0.0157126
661.609	0.0155676
661.687	0.0155820
661.765	0.0156496
661.843	0.0155177
661.922	0.0155224
662.000	0.0156062
662.078	0.0156116
662.156	0.0154739
662.234	0.0155713
662.312	0.0155831
662.390	0.0155589
662.468	0.0155759
662.547	0.0156392
662.625	0.0155394
662.703	0.0155250
662.781	0.0155956
662.859	0.0155557
662.937	0.0156752
663.015	0.0155981
663.093	0.0153849
663.172	0.0155190
663.250	0.0156248
663.328	0.0155562
663.406	0.0154478
663.484	0.0154874
663.562	0.0155767
663.640	0.0154655
663.718	0.0153765
663.797	0.0154980
663.875	0.0156073
663.953	0.0155922
664.031	0.0156535
664.109	0.0156413
664.187	0.0156860
664.265	0.0155475
664.343	0.0156610
664.422	0.0155864
664.500	0.0154606
664.578	0.0156322
664.656	0.0156123
664.734	0.0155712
664.812	0.0155708
664.890	0.0154179
664.968	0.0155092
665.047	0.0155579
665.125	0.0156149
665.203	0.0157480
665.281	0.0156085
665.359	0.0155957
665.437	0.0156281
665.515	0.0154974
665.593	0.0155392
665.672	0.0154672
665.750	0.0156818
665.828	0.0156426
665.906	0.0154667
665.984	0.0155875
666.062	0.0155350
666.140	0.0155258
666.218	0.0155907
666.297	0.0156857
666.375	0.0154471
666.453	0.0155431
666.531	0.0155829
666.609	0.0156207
666.687	0.0154247
666.765	0.0156153
666.843	0.0156232
666.922	0.0155748
667.000	0.0154736
667.078	0.0156870
667.156	0.0155677
667.234	0.0156558
667.312	0.0155659
667.390	0.0156307
667.468	0.0155165
667.547	0.0157014
667.625	0.0156571
667.703	0.0156110
667.781	0.0155045
667.859	0.0156068
667.937	0.0156256
668.015	0.0155563
668.093	0.0154412
668.172	0.0156158
668.250	0.0155334
668.328	0.0156132
668.406	0.0155100
668.484	0.0154637
668.562	0.0158126
668.640	0.0155753
668.718	0.0156227
668.797	0.0156445
668.875	0.0156219
668.953	0.0154555
669.031	0.0155524
669.109	0.0156673
669.187	0.0156259
669.265	0.0155743
669.343	0.0155234
669.422	0.0155733
669.500	0.0156552
669.578	0.0157323
669.656	0.0155820
669.734	0.0156478
669.812	0.0156292
669.890	0.0156059
669.968	0.0156197
670.047	0.0156394
670.125	0.0155430
670.203	0.0155709
670.281	0.0157368
670.359	0.0156918
670.437	0.0156510
670.515	0.0155357
670.593	0.0155704
670.672	0.0156715
670.750	0.0156409
670.828	0.0155128
670.906	0.0155888
670.984	0.0156326
671.062	0.0156726
671.140	0.0157710
671.218	0.0154687
671.297	0.0154919
671.375	0.0155476
671.453	0.0154865
671.531	0.0156203
671.609	0.0155228
671.687	0.0154085
671.765	0.0155495
671.843	0.0154834
671.922	0.0156460
672.000	0.0156684
672.078	0.0155848
672.156	0.0156484
672.234	0.0154845
672.312	0.0154858
672.390	0.0154203
672.468	0.0155406
672.547	0.0156278
672.625	0.0155231
672.703	0.0156662
672.781	0.0155737
672.859	0.0157224
672.937	0.0156374
673.015	0.0156075
673.093	0.0157216
673.172	0.0157820
673.250	0.0156908
673.328	0.0156973
673.406	0.0156781
673.484	0.0156392
673.562	0.0158504
673.640	0.0155502
673.718	0.0156901
673.797	0.0155000
673.875	0.0155327
673.953	0.0158031
674.031	0.0156749
674.109	0.0155588
674.187	0.0156944
674.265	0.0155777
674.343	0.0157383
674.422	0.0155972
674.500	0.0155679
674.578	0.0156486
674.656	0.0155404
674.734	0.0155352
674.812	0.0156776
674.890	0.0155914
674.968	0.0154771
675.047	0.0155067
675.125	0.0154838
675.203	0.0157030
675.281	0.0156470
675.359	0.0155072
675.437	0.0156562
675.515	0.0156293
675.593	0.0156002
675.672	0.0156323
675.750	0.0156399
675.828	0.0155967
675.906	0.0156258
675.984	0.0156427
676.062	0.0154250
676.140	0.0156331
676.218	0.0157433
676.297	0.0156590
676.375	0.0155907
676.453	0.0156003
676.531	0.0156448
676.609	0.0156276
676.687	0.0156834
676.765	0.0155727
676.843	0.0156238
676.922	0.0156384
677.000	0.0155890
677.078	0.0155889
677.156	0.0156148
677.234	0.0156828
677.312	0.0157660
677.390	0.0155943
677.468	0.0155400
677.547	0.0155795
677.625	0.0155505
677.703	0.0155114
677.781	0.0155407
677.859	0.0154593
677.937	0.0156056
678.015	0.0156758
678.093	0.0154797
678.172	0.0154699
678.250	0.0156777
678.328	0.0154900
678.406	0.0155426
678.484	0.0155916
678.562	0.0156039
678.640	0.0155968
678.718	0.0155053
678.797	0.0155083
678.875	0.0154596
678.953	0.0156368
679.031	0.0158668
679.109	0.0155875
679.187	0.0155260
679.265	0.0156198
679.343	0.0155669
679.422	0.0157323
679.500	0.0156742
679.578	0.0156771
679.656	0.0155763
679.734	0.0156263
679.812	0.0156284
679.890	0.0156129
679.968	0.0156963
680.047	0.0156083
680.125	0.0154787
680.203	0.0155654
680.281	0.0157124
680.359	0.0156948
680.437	0.0155862
680.515	0.0156131
680.593	0.0157581
680.672	0.0156918
680.750	0.0155551
680.828	0.0156438
680.906	0.0156435
680.984	0.0156720
681.062	0.0156762
681.140	0.0155900
681.218	0.0155915
681.297	0.0155554
681.375	0.0155406
681.453	0.0154959
681.531	0.0155533
681.609	0.0156166
681.687	0.0154556
681.765	0.0155188
681.843	0.0156651
681.922	0.0156779
682.000	0.0156640
682.078	0.0155256
682.156	0.0157266
682.234	0.0157036
682.312	0.0155907
682.390	0.0157087
682.468	0.0157162
682.547	0.0155975
682.625	0.0155750
682.703	0.0157551
682.781	0.0156564
682.859	0.0158099
682.937	0.0156355
683.015	0.0155386
683.093	0.0157543
683.172	0.0157413
683.250	0.0156330
683.328	0.0155887
683.406	0.0156071
683.484	0.0155192
683.562	0.0156320
683.640	0.0156323
683.718	0.0156216
683.797	0.0156538
683.875	0.0156715
683.953	0.0156130
684.031	0.0155688
684.109	0.0155544
684.187	0.0154735
684.265	0.0156964
684.343	0.0155785
684.422	0.0156557
684.500	0.0154926
684.578	0.0154457
684.656	0.0155789
684.734	0.0156578
684.812	0.0156687
684.890	0.0155089
684.968	0.0156242
685.047	0.0155859
685.125	0.0156176
685.203	0.0156319
685.281	0.0155874
685.359	0.0156223
685.437	0.0155852
685.515	0.0157494
685.593	0.0156644
685.672	0.0155386
685.750	0.0156678
685.828	0.0158360
685.906	0.0157223
685.984	0.0157327
686.062	0.0156055
686.140	0.0157004
686.218	0.0155830
686.297	0.0157230
686.375	0.0155962
686.453	0.0157544
686.531	0.0157154
686.609	0.0157172
686.687	0.0155589
686.765	0.0156084
686.843	0.0155840
686.922	0.0155037
687.000	0.0156884
687.078	0.0155822
687.156	0.0155651
687.234	0.0156044
687.312	0.0156853
687.390	0.0155384
687.468	0.0155169
687.547	0.0155754
687.625	0.0156827
687.703	0.0155919
687.781	0.0156311
687.859	0.0155144
687.937	0.0155129
688.015	0.0154761
688.093	0.0157099
688.172	0.0155421
688.250	0.0155498
688.328	0.0155793
688.406	0.0155726
688.484	0.0156044
688.562	0.0155621
688.640	0.0155360
688.718	0.0156625
688.797	0.0155473
688.875	0.0155917
688.953	0.0155750
689.031	0.0157210
689.109	0.0155838
689.187	0.0156275
689.265	0.0157724
689.343	0.0155158
689.422	0.0155821
689.500	0.0155182
689.578	0.0155352
689.656	0.0156483
689.734	0.0156553
689.812	0.0156337
689.890	0.0155056
689.968	0.0156557
690.047	0.0155823
690.125	0.0155180
690.203	0.0156207
690.281	0.0156274
690.359	0.0156117
690.437	0.0154696
690.515	0.0156288
690.593	0.0157882
690.672	0.0157129
690.750	0.0156159
690.828	0.0155376
690.906	0.0154951
690.984	0.0156940
691.062	0.0155212
691.140	0.0156798
691.218	0.0156806
691.297	0.0157293
691.375	0.0156367
691.453	0.0155674
691.531	0.0156842
691.609	0.0157168
691.687	0.0156037
691.765	0.0156362
691.843	0.0156437
691.922	0.0156232
692.000	0.0156441
692.078	0.0157194
692.156	0.0156670
692.234	0.0155437
692.312	0.0155489
692.390	0.0156393
692.468	0.0155893
692.547	0.0155919
692.625	0.0156573
692.703	0.0156281
692.781	0.0157080
692.859	0.0157442
692.937	0.0155685
693.015	0.0157594
693.093	0.0156966
693.172	0.0154553
693.250	0.0156676
693.328	0.0155732
693.406	0.0155006
693.484	0.0156752
693.562	0.0156341
693.640	0.0155654
693.718	0.0154765
693.797	0.0155968
693.875	0.0156209
693.953	0.0155582
694.031	0.0156624
694.109	0.0156323
694.187	0.0156238
694.265	0.0156178
694.343	0.0156011
694.422	0.0154713
694.500	0.0156736
694.578	0.0155548
694.656	0.0157059
694.734	0.0155824
694.812	0.0154497
694.890	0.0156238
694.968	0.0154568
695.047	0.0154959
695.125	0.0156365
695.203	0.0157603
695.281	0.0155672
695.359	0.0154990
695.437	0.0155562
695.515	0.0157704
695.593	0.0155750
695.672	0.0154667
695.750	0.0156311
695.828	0.0155505
695.906	0.0156995
695.984	0.0156613
696.062	0.0156746
696.140	0.0156680
696.218	0.0156727
696.297	0.0156226
696.375	0.0155356
696.453	0.0155228
696.531	0.0155903
696.609	0.0155515
696.687	0.0156492
696.765	0.0155093
696.843	0.0154805
696.922	0.0155938
697.000	0.0156458
697.078	0.0155849
697.156	0.0155227
697.234	0.0154936
697.312	0.0154784
697.390	0.0154951
697.468	0.0156284
697.547	0.0156481
697.625	0.0154189
697.703	0.0155663
697.781	0.0153992
697.859	0.0155971
697.937	0.0155210
698.015	0.0155643
698.093	0.0155564
698.172	0.0155211
698.250	0.0156464
698.328	0.0156571
698.406	0.0155103
698.484	0.0156974
698.562	0.0155779
698.640	0.0155864
698.718	0.0156475
698.797	0.0156810
698.875	0.0156550
698.953	0.0156269
699.031	0.0155536
699.109	0.0155728
699.187	0.0155447
699.265	0.0155027
699.343	0.0155557
699.422	0.0156711
699.500	0.0156174
699.578	0.0156029
699.656	0.0154819
699.734	0.0154559
699.812	0.0156098
699.890	0.0154310
699.968	0.0155052
700.047	0.0157605
700.125	0.0155527
700.203	0.0156473
700.281	0.0157616
700.359	0.0155966
700.437	0.0156385
700.515	0.0155953
700.593	0.0155322
700.672	0.0156015
700.750	0.0157688
700.828	0.0156538
700.906	0.0156288
700.984	0.0157632
701.062	0.0156011
701.140	0.0156374
701.218	0.0156335
701.297	0.0155800
701.375	0.0155096
701.453	0.0156689
701.531	0.0156623
701.609	0.0155210
701.687	0.0156269
701.765	0.0155486
701.843	0.0155717
701.922	0.0157229
702.000	0.0155257
702.078	0.0155019
702.156	0.0156068
702.234	0.0156163
702.312	0.0154911
702.390	0.0155488
702.468	0.0157004
702.547	0.0155374
702.625	0.0156736
702.703	0.0155370
702.781	0.0153973
702.859	0.0156168
702.937	0.0154404
703.015	0.0155652
703.093	0.0156258
703.172	0.0155297
703.250	0.0156203
703.328	0.0156340
703.406	0.0156503
703.484	0.0156261
703.562	0.0154996
703.640	0.0156975
703.718	0.0156473
703.797	0.0155342
703.875	0.0156137
703.953	0.0155710
704.031	0.0155115
704.109	0.0157269
704.187	0.0157697
704.265	0.0154555
704.343	0.0156042
704.422	0.0156231
704.500	0.0155385
704.578	0.0157333
704.656	0.0156269
704.734	0.0156280
704.812	0.0157325
704.890	0.0155201
704.968	0.0156949
705.047	0.0156189
705.125	0.0156564
705.203	0.0156825
705.281	0.0156124
705.359	0.0155907
705.437	0.0156063
705.515	0.0156879
705.593	0.0156308
705.672	0.0157351
705.750	0.0155257
705.828	0.0156098
705.906	0.0156656
705.984	0.0156077
706.062	0.0156069
706.140	0.0157515
706.218	0.0155798
706.297	0.0155171
706.375	0.0155547
706.453	0.0156492
706.531	0.0155687
706.609	0.0156423
706.687	0.0156447
706.765	0.0157893
706.843	0.0156610
706.922	0.0155767
707.000	0.0156397
707.078	0.0155759
707.156	0.0155621
707.234	0.0155987
707.312	0.0156159
707.390	0.0157482
707.468	0.0155183
707.547	0.0155567
707.625	0.0156715
707.703	0.0155723
707.781	0.0155600
707.859	0.0157013
707.937	0.0155607
708.015	0.0156245
708.093	0.0156638
708.172	0.0156723
708.250	0.0155825
708.328	0.0155762
708.406	0.0156436
708.484	0.0156483
708.562	0.0155600
708.640	0.0155890
708.718	0.0156190
708.797	0.0155485
708.875	0.0156039
708.953	0.0154748
709.031	0.0155132
709.109	0.0156133
709.187	0.0156686
709.265	0.0155910
709.343	0.0156102
709.422	0.0156723
709.500	0.0156006
709.578	0.0154747
709.656	0.0157573
709.734	0.0156541
709.812	0.0155869
709.890	0.0155802
709.968	0.0155711
710.047	0.0156084
710.125	0.0156481
710.203	0.0156820
710.281	0.0154889
710.359	0.0155486
710.437	0.0157202
710.515	0.0155817
710.593	0.0155502
710.672	0.0155851
710.750	0.0156259
710.828	0.0155965
710.906	0.0155686
710.984	0.0155879
711.062	0.0155972
711.140	0.0155686
711.218	0.0155618
711.297	0.0155954
711.375	0.0154829
711.453	0.0154990
711.531	0.0155901
711.609	0.0156498
711.687	0.0155450
711.765	0.0154962
711.843	0.0157024
711.922	0.0158246
712.000	0.0156342
712.078	0.0156415
712.156	0.0156670
712.234	0.0156304
712.312	0.0156065
712.390	0.0156679
712.468	0.0157151
712.547	0.0156145
712.625	0.0155488
712.703	0.0157080
712.781	0.0157033
712.859	0.0155281
712.937	0.0156161
713.015	0.0155563
713.093	0.0157175
713.172	0.0156158
713.250	0.0155654
713.328	0.0156767
713.406	0.0156120
713.484	0.0156360
713.562	0.0156233
713.640	0.0155806
713.718	0.0155416
713.797	0.0157079
713.875	0.0156564
713.953	0.0156580
714.031	0.0155733
714.109	0.0157448
714.187	0.0156559
714.265	0.0156084
714.343	0.0156139
714.422	0.0155706
714.500	0.0156639
714.578	0.0155962
714.656	0.0156077
714.734	0.0156624
714.812	0.0155098
714.890	0.0154787
714.968	0.0155637
715.047	0.0156899
715.125	0.0156360
715.203	0.0157489
715.281	0.0156306
715.359	0.0156695
715.437	0.0156356
715.515	0.0156838
715.593	0.0156412
715.672	0.0155738
715.750	0.0154674
715.828	0.0155907
715.906	0.0156063
715.984	0.0157619
716.062	0.0155922
716.140	0.0154424
716.218	0.0155502
716.297	0.0157039
716.375	0.0155783
716.453	0.0155506
716.531	0.0156921
716.609	0.0155497
716.687	0.0156027
716.765	0.0155526
716.843	0.0155862
716.922	0.0156913
717.000	0.0156096
717.078	0.0154350
717.156	0.0155698
717.234	0.0157343
717.312	0.0155806
717.390	0.0154447
717.468	0.0155204
717.547	0.0156448
717.625	0.0156243
717.703	0.0154922
717.781	0.0155722
717.859	0.0156471
717.937	0.0156013
718.015	0.0156138
718.093	0.0155512
718.172	0.0155663
718.250	0.0155376
718.328	0.0155975
718.406	0.0155114
718.484	0.0154523
718.562	0.0155313
718.640	0.0156034
718.718	0.0156351
718.797	0.0156569
718.875	0.0155980
718.953	0.0154369
719.031	0.0155675
719.109	0.0157623
719.187	0.0156400
719.265	0.0156141
719.343	0.0154504
719.422	0.0156074
719.500	0.0156230
719.578	0.0155112
719.656	0.0155767
719.734	0.0155618
719.812	0.0156297
719.890	0.0155803
719.968	0.0155629
720.047	0.0156539
720.125	0.0154618
720.203	0.0154979
720.281	0.0157182
720.359	0.0155598
720.437	0.0155607
720.515	0.0156263
720.593	0.0156355
720.672	0.0156168
720.750	0.0155536
720.828	0.0155694
720.906	0.0157905
720.984	0.0156306
721.062	0.0157762
721.140	0.0157161
721.218	0.0156457
721.297	0.0155364
721.375	0.0156366
721.453	0.0157110
721.531	0.0157025
721.609	0.0155947
721.687	0.0157455
721.765	0.0156605
721.843	0.0156621
721.922	0.0156815
722.000	0.0157182
722.078	0.0156718
722.156	0.0156282
722.234	0.0155617
722.312	0.0155916
722.390	0.0155291
722.468	0.0154922
722.547	0.0156192
722.625	0.0156644
722.703	0.0154974
722.781	0.0155891
722.859	0.0156672
722.937	0.0157464
723.015	0.0155322
723.093	0.0156155
723.172	0.0155025
723.250	0.0154888
723.328	0.0156812
723.406	0.0156535
723.484	0.0155600
723.562	0.0156576
723.640	0.0156381
723.718	0.0156416
723.797	0.0156462
723.875	0.0157632
723.953	0.0157868
724.031	0.0156405
724.109	0.0154444
724.187	0.0156724
724.265	0.0157411
724.343	0.0155769
724.422	0.0154881
724.500	0.0157413
724.578	0.0157329
724.656	0.0155991
724.734	0.0156261
724.812	0.0156133
724.890	0.0156118
724.968	0.0157309
725.047	0.0156778
725.125	0.0157095
725.203	0.0156329
725.281	0.0157685
725.359	0.0157796
725.437	0.0156436
725.515	0.0155883
725.593	0.0156886
725.672	0.0155814
725.750	0.0156336
725.828	0.0157572
725.906	0.0156973
725.984	0.0156457
726.062	0.0156860
726.140	0.0156230
726.218	0.0156223
726.297	0.0156119
726.375	0.0156528
726.453	0.0158019
726.531	0.0156093
726.609	0.0155563
726.687	0.0156643
726.765	0.0156443
726.843	0.0155259
726.922	0.0156316
727.000	0.0156498
727.078	0.0156853
727.156	0.0155702
727.234	0.0156284
727.312	0.0156449
727.390	0.0157277
727.468	0.0156478
727.547	0.0156335
727.625	0.0155395
727.703	0.0154810
727.781	0.0156156
727.859	0.0155675
727.937	0.0156980
728.015	0.0156249
728.093	0.0156498
728.172	0.0155948
728.250	0.0156259
728.328	0.0156882
728.406	0.0155843
728.484	0.0156599
728.562	0.0156595
728.640	0.0157834
728.718	0.0158656
728.797	0.0156445
728.875	0.0155047
728.953	0.0155470
729.031	0.0155523
729.109	0.0156573
729.187	0.0156654
729.265	0.0156321
729.343	0.0156393
729.422	0.0156615
729.500	0.0156457
729.578	0.0155576
729.656	0.0155087
729.734	0.0157232
729.812	0.0156807
729.890	0.0154892
729.968	0.0155997
730.047	0.0157099
730.125	0.0157785
730.203	0.0156201
730.281	0.0155067
730.359	0.0155631
730.437	0.0156313
730.515	0.0155878
730.593	0.0155922
730.672	0.0155943
730.750	0.0154884
730.828	0.0156728
730.906	0.0156407
730.984	0.0155318
731.062	0.0155217
731.140	0.0155805
731.218	0.0155634
731.297	0.0155452
731.375	0.0155277
731.453	0.0155619
731.531	0.0155137
731.609	0.0156715
731.687	0.0155180
731.765	0.0154801
731.843	0.0155743
731.922	0.0156462
732.000	0.0155698
732.078	0.0155779
732.156	0.0156824
732.234	0.0156245
732.312	0.0156996
732.390	0.0155051
732.468	0.0156325
732.547	0.0155129
732.625	0.0155701
732.703	0.0155917
732.781	0.0155628
732.859	0.0154295
732.937	0.0155650
733.015	0.0156252
733.093	0.0154088
733.172	0.0155346
733.250	0.0155422
733.328	0.0155194
733.406	0.0155247
733.484	0.0156149
733.562	0.0156735
733.640	0.0156129
733.718	0.0156705
733.797	0.0155991
733.875	0.0154856
733.953	0.0155070
734.031	0.0155780
734.109	0.0156225
734.187	0.0155383
734.265	0.0155087
734.343	0.0155639
734.422	0.0155803
734.500	0.0155766
734.578	0.0155865
734.656	0.0155978
734.734	0.0157072
734.812	0.0156593
734.890	0.0157558
734.968	0.0156650
735.047	0.0155753
735.125	0.0154816
735.203	0.0155743
735.281	0.0154901
735.359	0.0156021
735.437	0.0156908
735.515	0.0155337
735.593	0.0156954
735.672	0.0155291
735.750	0.0154961
735.828	0.0155457
735.906	0.0156683
735.984	0.0155432
736.062	0.0155718
736.140	0.0156186
736.218	0.0155433
736.297	0.0156146
736.375	0.0154621
736.453	0.0156683
736.531	0.0156322
736.609	0.0155465
736.687	0.0155553
736.765	0.0155846
736.843	0.0156004
736.922	0.0157605
737.000	0.0155769
737.078	0.0155647
737.156	0.0155032
737.234	0.0154804
737.312	0.0157552
737.390	0.0155214
737.468	0.0156546
737.547	0.0155950
737.625	0.0155743
737.703	0.0155333
737.781	0.0154516
737.859	0.0155677
737.937	0.0156263
738.015	0.0156506
738.093	0.0155272
738.172	0.0155016
738.250	0.0156766
738.328	0.0155080
738.406	0.0155782
738.484	0.0156616
738.562	0.0156586
738.640	0.0156921
738.718	0.0158041
738.797	0.0156287
738.875	0.0156105
738.953	0.0155847
739.031	0.0156345
739.109	0.0156189
739.187	0.0154664
739.265	0.0157139
739.343	0.0156257
739.422	0.0155817
739.500	0.0155714
739.578	0.0155766
739.656	0.0156171
739.734	0.0155883
739.812	0.0156368
739.890	0.0156187
739.968	0.0157085
740.047	0.0156656
740.125	0.0157049
740.203	0.0156186
740.281	0.0155910
740.359	0.0155999
740.437	0.0154663
740.515	0.0155129
740.593	0.0155302
740.672	0.0155964
740.750	0.0155840
740.828	0.0156884
740.906	0.0157679
740.984	0.0156428
741.062	0.0157522
741.140	0.0156692
741.218	0.0155310
741.297	0.0157187
741.375	0.0156226
741.453	0.0157068
741.531	0.0155962
741.609	0.0155077
741.687	0.0155699
741.765	0.0156232
741.843	0.0155692
741.922	0.0155303
742.000	0.0156381
742.078	0.0157098
742.156	0.0154870
742.234	0.0156216
742.312	0.0156561
742.390	0.0155329
742.468	0.0154578
742.547	0.0154459
742.625	0.0156068
742.703	0.0154271
742.781	0.0154853
742.859	0.0153950
742.937	0.0155209
743.015	0.0155331
743.093	0.0155462
743.172	0.0154553
743.250	0.0156164
743.328	0.0156657
743.406	0.0155448
743.484	0.0155909
743.562	0.0156944
743.640	0.0158089
743.718	0.0158665
743.797	0.0159029
743.875	0.0158853
743.953	0.0160207
744.031	0.0159766
744.109	0.0160056
744.187	0.0158463
744.265	0.0159423
744.343	0.0156934
744.422	0.0157335
744.500	0.0156867
744.578	0.0156718
744.656	0.0154353
744.734	0.0153761
744.812	0.0152470
744.890	0.0151965
744.968	0.0151091
745.047	0.0149152
745.125	0.0149908
745.203	0.0149975
745.281	0.0148705
745.359	0.0149667
745.437	0.0150134
745.515	0.0149860
745.593	0.0149704
745.672	0.0150133
745.750	0.0152496
745.828	0.0152974
745.906	0.0156718
745.984	0.0156823
746.062	0.0155399
746.140	0.0157368
746.218	0.0159344
746.297	0.0161174
746.375	0.0164372
746.453	0.0166902
746.531	0.0168576
746.609	0.0170837
746.687	0.0172510
746.765	0.0173985
746.843	0.0177183
746.922	0.0176711
747.000	0.0176362
747.078	0.0176284
747.156	0.0174409
747.234	0.0170667
747.312	0.0167165
747.390	0.0163030
747.468	0.0158075
747.547	0.0153649
747.625	0.0148936
747.703	0.0142854
747.781	0.0138638
747.859	0.0132916
747.937	0.0128912
748.015	0.0125170
748.093	0.0120660
748.172	0.0117574
748.250	0.0117009
748.328	0.0118645
748.406	0.0118392
748.484	0.0120952
748.562	0.0124139
748.640	0.0130571
748.718	0.0137631
748.797	0.0145397
748.875	0.0153651
748.953	0.0162249
749.031	0.0170686
749.109	0.0179810
749.187	0.0185909
749.265	0.0193024
749.343	0.0199590
749.422	0.0203907
749.500	0.0206773
749.578	0.0208389
749.656	0.0208788
749.734	0.0208586
749.812	0.0206597
749.890	0.0203907
749.968	0.0200372
750.047	0.0195077
750.125	0.0190105
750.203	0.0182088
750.281	0.0173425
750.359	0.0165600
750.437	0.0156246
750.515	0.0146111
750.593	0.0136589
750.672	0.0127442
750.750	0.0118159
750.828	0.0108272
750.906	0.0102567
750.984	0.00960823
751.062	0.00898010
751.140	0.00879761
751.218	0.00860359
751.297	0.00837898
751.375	0.00853485
751.453	0.00881493
751.531	0.00911240
751.609	0.00982704
751.687	0.0106839
751.765	0.0115846
751.843	0.0127118
751.922	0.0139989
752.000	0.0154613
752.078	0.0168919
752.156	0.0182821
752.234	0.0198379
752.312	0.0212150
752.390	0.0223749
752.468	0.0233849
752.547	0.0241103
752.625	0.0247050
752.703	0.0248088
752.781	0.0246461
752.859	0.0246130
752.937	0.0241953
753.015	0.0236041
753.093	0.0226753
753.172	0.0216899
753.250	0.0209473
753.328	0.0196532
753.406	0.0183826
753.484	0.0173073
753.562	0.0159381
753.640	0.0145753
753.718	0.0131859
753.797	0.0116146
753.875	0.0103682
753.953	0.00926567
754.031	0.00809456
754.109	0.00707703
754.187	0.00655350
754.265	0.00596481
754.343	0.00565956
754.422	0.00576157
754.500	0.00593285
754.578	0.00631866
754.656	0.00721680
754.734	0.00805016
754.812	0.00936424
754.890	0.0108060
754.968	0.0121877
755.047	0.0136064
755.125	0.0154790
755.203	0.0170003
755.281	0.0185770
755.359	0.0201807
755.437	0.0213231
755.515	0.0224543
755.593	0.0234080
755.672	0.0239287
755.750	0.0244281
755.828	0.0247247
755.906	0.0246310
755.984	0.0244353
756.062	0.0239115
756.140	0.0231386
756.218	0.0226462
756.297	0.0217649
756.375	0.0208150
756.453	0.0197926
756.531	0.0187447
756.609	0.0177142
756.687	0.0167461
756.765	0.0156398
756.843	0.0144431
756.922	0.0132896
757.000	0.0124580
757.078	0.0113669
757.156	0.0102518
757.234	0.00930733
757.312	0.00847191
757.390	0.00770729
757.468	0.00693207
757.547	0.00639069
757.625	0.00606644
757.703	0.00625648
757.781	0.00642235
757.859	0.00700127
757.937	0.00806274
758.015	0.00909264
758.093	0.0107429
758.172	0.0126920
758.250	0.0144321
758.328	0.0165522
758.406	0.0187120
758.484	0.0207386
758.562	0.0225077
758.640	0.0241674
758.718	0.0254311
758.797	0.0263741
758.875	0.0271085
758.953	0.0270685
759.031	0.0270114
759.109	0.0263486
759.187	0.0252245
759.265	0.0238068
759.343	0.0225063
759.422	0.0205542
759.500	0.0187048
759.578	0.0168250
759.656	0.0149347
759.734	0.0130930
759.812	0.0114571
759.890	0.00995758
759.968	0.00866028
760.047	0.00743141
760.125	0.00656731
760.203	0.00600731
760.281	0.00570641
760.359	0.00585846
760.437	0.00607399
760.515	0.00672890
760.593	0.00720291
760.672	0.00790802
760.750	0.00870651
760.828	0.00977791
760.906	0.0108929
760.984	0.0121054
761.062	0.0133261
761.140	0.0147016
761.218	0.0160140
761.297	0.0175143
761.375	0.0190168
761.453	0.0202316
761.531	0.0217445
761.609	0.0228201
761.687	0.0238013
761.765	0.0248469
761.843	0.0254627
761.922	0.0259369
762.000	0.0261512
762.078	0.0262045
762.156	0.0259846
762.234	0.0252863
762.312	0.0245998
762.390	0.0235574
762.468	0.0220327
762.547	0.0205516
762.625	0.0189754
762.703	0.0170306
762.781	0.0152163
762.859	0.0133553
762.937	0.0117870
763.015	0.0101860
763.093	0.00873863
763.172	0.00757286
763.250	0.00648697
763.328	0.00576241
763.406	0.00519089
763.484	0.00510674
763.562	0.00490570
763.640	0.00515976
763.718	0.00555588
763.797	0.00620239
763.875	0.00727692
763.953	0.00831909
764.031	0.00939835
764.109	0.0108294
764.187	0.0125277
764.265	0.0139702
764.343	0.0154840
764.422	0.0172109
764.500	0.0188089
764.578	0.0200877
764.656	0.0213317
764.734	0.0225307
764.812	0.0232256
764.890	0.0240199
764.968	0.0245204
765.047	0.0247482
765.125	0.0248173
765.203	0.0245828
765.281	0.0242025
765.359	0.0236465
765.437	0.0226518
765.515	0.0214912
765.593	0.0202605
765.672	0.0188575
765.750	0.0174979
765.828	0.0161471
765.906	0.0148038
765.984	0.0134929
766.062	0.0124699
766.140	0.0114301
766.218	0.0107192
766.297	0.0100925
766.375	0.00995155
766.453	0.00966286
766.531	0.00954498
766.609	0.00987427
766.687	0.0101019
766.765	0.0104543
766.843	0.0110788
766.922	0.0115816
767.000	0.0123993
767.078	0.0132108
767.156	0.0138735
767.234	0.0146213
767.312	0.0154977
767.390	0.0163206
767.468	0.0170759
767.547	0.0175967
767.625	0.0181647
767.703	0.0185055
767.781	0.0187481
767.859	0.0188897
767.937	0.0189537
768.015	0.0191767
768.093	0.0190964
768.172	0.0190069
768.250	0.0188486
768.328	0.0185282
768.406	0.0182867
768.484	0.0180111
768.562	0.0176080
768.640	0.0172051
768.718	0.0166753
768.797	0.0162082
768.875	0.0157067
768.953	0.0151818
769.031	0.0146209
769.109	0.0140703
769.187	0.0137228
769.265	0.0131821
769.343	0.0128456
769.422	0.0125327
769.500	0.0122114
769.578	0.0119629
769.656	0.0120080
769.734	0.0120569
769.812	0.0119163
769.890	0.0122282
769.968	0.0126484
770.047	0.0129598
770.125	0.0134457
770.203	0.0138922
770.281	0.0145114
770.359	0.0152100
770.437	0.0157322
770.515	0.0162794
770.593	0.0168599
770.672	0.0173523
770.750	0.0179401
770.828	0.0180891
770.906	0.0184892
770.984	0.0187479
771.062	0.0187420
771.140	0.0188778
771.218	0.0188425
771.297	0.0187612
771.375	0.0184654
771.453	0.0183495
771.531	0.0180855
771.609	0.0177239
771.687	0.0174355
771.765	0.0170302
771.843	0.0167299
771.922	0.0162111
772.000	0.0158870
772.078	0.0155572
772.156	0.0151415
772.234	0.0148096
772.312	0.0143354
772.390	0.0140495
772.468	0.0137722
772.547	0.0136012
772.625	0.0134107
772.703	0.0131955
772.781	0.0132697
772.859	0.0132869
772.937	0.0133364
773.015	0.0135165
773.093	0.0137556
773.172	0.0139205
773.250	0.0141891
773.328	0.0145585
773.406	0.0148531
773.484	0.0152519
773.562	0.0155688
773.640	0.0158554
773.718	0.0160995
773.797	0.0163263
773.875	0.0165424
773.953	0.0167280
774.031	0.0168287
774.109	0.0168008
774.187	0.0167661
774.265	0.0166904
774.343	0.0167133
774.422	0.0166331
774.500	0.0163960
774.578	0.0160941
774.656	0.0158763
774.734	0.0158775
774.812	0.0154943
774.890	0.0154716
774.968	0.0152282
775.047	0.0150192
775.125	0.0149738
775.203	0.0148258
775.281	0.0148773
775.359	0.0149673
775.437	0.0149246
775.515	0.0148583
775.593	0.0149365
775.672	0.0150540
775.750	0.0150846
775.828	0.0152797
775.906	0.0153036
775.984	0.0153920
776.062	0.0154498
776.140	0.0155149
776.218	0.0156902
776.297	0.0156837
776.375	0.0156425
776.453	0.0156481
776.531	0.0156305
776.609	0.0156980
776.687	0.0159084
776.765	0.0157446
776.843	0.0159992
776.922	0.0159744
777.000	0.0159407
777.078	0.0161919
777.156	0.0161608
777.234	0.0162569
777.312	0.0163295
777.390	0.0164376
777.468	0.0164777
777.547	0.0165749
777.625	0.0166377
777.703	0.0167308
777.781	0.0168172
777.859	0.0168179
777.937	0.0167148
778.015	0.0166064
778.093	0.0164643
778.172	0.0164635
778.250	0.0162373
778.328	0.0160941
778.406	0.0158366
778.484	0.0154903
778.562	0.0153289
778.640	0.0151067
778.718	0.0148460
778.797	0.0148747
778.875	0.0146033
778.953	0.0144892
779.031	0.0144546
779.109	0.0144085
779.187	0.0146281
779.265	0.0146836
779.343	0.0148627
779.422	0.0150047
779.500	0.0150529
779.578	0.0150701
779.656	0.0151189
779.734	0.0153187
779.812	0.0153800
779.890	0.0154771
779.968	0.0156190
780.047	0.0156374
780.125	0.0156010
780.203	0.0154836
780.281	0.0156303
780.359	0.0155108
780.437	0.0154256
780.515	0.0155212
780.593	0.0153454
780.672	0.0154437
780.750	0.0155475
780.828	0.0157109
780.906	0.0156371
780.984	0.0157301
781.062	0.0157450
781.140	0.0160896
781.218	0.0160651
781.297	0.0159457
781.375	0.0161193
781.453	0.0160896
781.531	0.0161490
781.609	0.0159523
781.687	0.0160675
781.765	0.0160102
781.843	0.0159824
781.922	0.0159143
782.000	0.0158665
782.078	0.0157316
782.156	0.0156921
782.234	0.0157683
782.312	0.0158150
782.390	0.0157056
782.468	0.0156877
782.547	0.0158725
782.625	0.0157965
782.703	0.0157133
782.781	0.0158447
782.859	0.0160318
782.937	0.0158764
783.015	0.0159991
783.093	0.0159111
783.172	0.0157765
783.250	0.0158905
783.328	0.0157179
783.406	0.0156403
783.484	0.0155983
783.562	0.0153455
783.640	0.0153223
783.718	0.0152103
783.797	0.0154169
783.875	0.0152866
783.953	0.0153417
784.031	0.0154309
784.109	0.0155772
784.187	0.0156161
784.265	0.0156129
784.343	0.0157274
784.422	0.0157691
784.500	0.0159412
784.578	0.0159010
784.656	0.0158751
784.734	0.0158815
784.812	0.0159017
784.890	0.0158430
784.968	0.0157388
785.047	0.0156062
785.125	0.0154418
785.203	0.0153892
785.281	0.0153291
785.359	0.0153139
785.437	0.0154144
785.515	0.0152473
785.593	0.0151344
785.672	0.0152312
785.750	0.0151234
785.828	0.0150420
785.906	0.0152189
785.984	0.0153338
786.062	0.0153967
786.140	0.0154539
786.218	0.0155168
786.297	0.0157802
786.375	0.0156643
786.453	0.0158668
786.531	0.0157882
786.609	0.0157422
786.687	0.0156002
786.765	0.0155515
786.843	0.0155482
786.922	0.0154770
787.000	0.0153771
787.078	0.0153834
787.156	0.0152437
787.234	0.0150426
787.312	0.0150952
787.390	0.0150104
787.468	0.0150538
787.547	0.0152012
787.625	0.0152084
787.703	0.0152535
787.781	0.0154208
787.859	0.0154031
787.937	0.0156540
788.015	0.0157622
788.093	0.0158715
788.172	0.0160657
788.250	0.0161465
788.328	0.0161207
788.406	0.0162136
788.484	0.0162567
788.562	0.0161967
788.640	0.0161061
788.718	0.0162753
788.797	0.0163757
788.875	0.0162818
788.953	0.0162073
789.031	0.0162704
789.109	0.0162113
789.187	0.0160755
789.265	0.0159911
789.343	0.0159585
789.422	0.0159628
789.500	0.0157389
789.578	0.0156792
789.656	0.0158133
789.734	0.0156010
789.812	0.0154296
789.890	0.0153052
789.968	0.0153400
790.047	0.0153485
790.125	0.0155705
790.203	0.0153078
790.281	0.0153020
790.359	0.0153145
790.437	0.0152908
790.515	0.0153276
790.593	0.0153302
790.672	0.0151791
790.750	0.0151981
790.828	0.0151627
790.906	0.0150993
790.984	0.0152068
791.062	0.0152456
791.140	0.0152448
791.218	0.0153191
791.297	0.0153854
791.375	0.0154457
791.453	0.0154895
791.531	0.0155058
791.609	0.0156291
791.687	0.0156628
791.765	0.0156232
791.843	0.0155511
791.922	0.0156800
792.000	0.0156966
792.078	0.0156441
792.156	0.0156763
792.234	0.0156091
792.312	0.0156419
792.390	0.0154621
792.468	0.0154836
792.547	0.0155077
792.625	0.0153390
792.703	0.0153801
792.781	0.0153594
792.859	0.0150941
792.937	0.0153852
793.015	0.0152928
793.093	0.0152128
793.172	0.0154053
793.250	0.0155373
793.328	0.0155930
793.406	0.0156914
793.484	0.0159640
793.562	0.0161183
793.640	0.0162556
793.718	0.0163153
793.797	0.0163267
793.875	0.0162204
793.953	0.0163715
794.031	0.0162685
794.109	0.0162915
794.187	0.0161883
794.265	0.0161170
794.343	0.0161482
794.422	0.0159708
794.500	0.0158931
794.578	0.0159314
794.656	0.0157509
794.734	0.0156840
794.812	0.0156844
794.890	0.0157120
794.968	0.0156063
795.047	0.0157509
795.125	0.0156392
795.203	0.0155177
795.281	0.0155218
795.359	0.0156206
795.437	0.0156588
795.515	0.0154579
795.593	0.0152723
795.672	0.0154841
795.750	0.0154506
795.828	0.0153825
795.906	0.0154256
795.984	0.0153333
796.062	0.0152688
796.140	0.0152436
796.218	0.0153682
796.297	0.0152531
796.375	0.0153125
796.453	0.0152663
796.531	0.0152275
796.609	0.0152553
796.687	0.0153774
796.765	0.0154387
796.843	0.0154773
796.922	0.0154619
797.000	0.0155636
797.078	0.0155656
797.156	0.0155708
797.234	0.0156205
797.312	0.0156528
797.390	0.0158054
797.468	0.0158383
797.547	0.0156152
797.625	0.0156244
797.703	0.0155411
797.781	0.0154860
797.859	0.0156982
797.937	0.0155224
798.015	0.0153473
798.093	0.0152995
798.172	0.0153057
798.250	0.0153696
798.328	0.0152552
798.406	0.0154707
798.484	0.0153805
798.562	0.0153325
798.640	0.0154333
798.718	0.0155415
798.797	0.0156068
798.875	0.0156906
798.953	0.0157426
799.031	0.0158498
799.109	0.0158162
799.187	0.0157926
799.265	0.0159135
799.343	0.0159396
799.422	0.0159630
799.500	0.0159415
799.578	0.0158590
799.656	0.0158714
799.734	0.0158096
799.812	0.0159692
799.890	0.0156908
799.968	0.0156466
800.047	0.0157925
800.125	0.0156783
800.203	0.0156630
800.281	0.0156180
800.359	0.0157049
800.437	0.0156425
800.515	0.0155614
800.593	0.0155632
800.672	0.0155068
800.750	0.0155421
800.828	0.0154894
800.906	0.0155204
800.984	0.0156829
801.062	0.0156338
801.140	0.0154559
801.218	0.0154913
801.297	0.0156718
801.375	0.0157276
801.453	0.0156272
801.531	0.0155968
801.609	0.0157761
801.687	0.0157076
801.765	0.0156095
801.843	0.0156031
801.922	0.0156287
802.000	0.0155759
802.078	0.0158176
802.156	0.0157923
802.234	0.0157777
802.312	0.0157674
802.390	0.0157831
802.468	0.0158411
802.547	0.0159864
802.625	0.0156514
802.703	0.0156072
802.781	0.0157692
802.859	0.0158323
802.937	0.0157538
803.015	0.0156185
803.093	0.0155161
803.172	0.0156397
803.250	0.0155676
803.328	0.0155124
803.406	0.0155269
803.484	0.0155550
803.562	0.0155127
803.640	0.0155015
803.718	0.0153021
803.797	0.0153430
803.875	0.0153725
803.953	0.0153037
804.031	0.0154141
804.109	0.0153937
804.187	0.0154868
804.265	0.0154577
804.343	0.0154291
804.422	0.0153987
804.500	0.0155605
804.578	0.0155256
804.656	0.0156451
804.734	0.0156382
804.812	0.0157311
804.890	0.0157159
804.968	0.0156726
805.047	0.0157671
805.125	0.0158553
805.203	0.0158420
805.281	0.0158295
805.359	0.0158463
805.437	0.0159454
805.515	0.0158431
805.593	0.0159148
805.672	0.0158955
805.750	0.0160184
805.828	0.0158756
805.906	0.0157699
805.984	0.0157880
806.062	0.0156957
806.140	0.0157568
806.218	0.0156754
806.297	0.0156480
806.375	0.0154887
806.453	0.0157054
806.531	0.0155143
806.609	0.0154247
806.687	0.0156150
806.765	0.0155999
806.843	0.0155400
806.922	0.0155452
807.000	0.0154953
807.078	0.0154623
807.156	0.0155024
807.234	0.0157222
807.312	0.0156707
807.390	0.0157177
807.468	0.0157266
807.547	0.0155962
807.625	0.0156072
807.703	0.0156660
807.781	0.0158195
807.859	0.0156562
807.937	0.0157455
808.015	0.0157010
808.093	0.0157565
808.172	0.0155033
808.250	0.0156313
808.328	0.0156420
808.406	0.0156418
808.484	0.0157245
808.562	0.0156877
808.640	0.0156371
808.718	0.0157516
808.797	0.0156992
808.875	0.0156443
808.953	0.0156966
809.031	0.0156522
809.109	0.0157276
809.187	0.0157661
809.265	0.0157402
809.343	0.0155811
809.422	0.0156516
809.500	0.0156746
809.578	0.0156230
809.656	0.0155949
809.734	0.0155078
809.812	0.0154749
809.890	0.0154958
809.968	0.0155811
810.047	0.0155019
810.125	0.0153481
810.203	0.0154716
810.281	0.0154159
810.359	0.0153308
810.437	0.0153834
810.515	0.0153680
810.593	0.0154314
810.672	0.0153439
810.750	0.0155006
810.828	0.0155633
810.906	0.0155857
810.984	0.0155314
811.062	0.0155701
811.140	0.0156055
811.218	0.0157200
811.297	0.0155804
811.375	0.0156116
811.453	0.0156030
811.531	0.0157198
811.609	0.0157620
811.687	0.0155450
811.765	0.0155445
811.843	0.0155975
811.922	0.0156052
812.000	0.0156245
812.078	0.0157257
812.156	0.0156298
812.234	0.0157059
812.312	0.0155794
812.390	0.0157488
812.468	0.0157179
812.547	0.0157029
812.625	0.0156674
812.703	0.0155734
812.781	0.0155574
812.859	0.0155994
812.937	0.0155915
813.015	0.0156399
813.093	0.0156223
813.172	0.0156293
813.250	0.0155442
813.328	0.0156093
813.406	0.0156525
813.484	0.0154691
813.562	0.0155618
813.640	0.0156765
813.718	0.0155785
813.797	0.0156343
813.875	0.0156912
813.953	0.0155878
814.031	0.0156665
814.109	0.0157887
814.187	0.0158669
814.265	0.0156311
814.343	0.0157570
814.422	0.0157775
814.500	0.0158121
814.578	0.0158141
814.656	0.0157627
814.734	0.0157665
814.812	0.0157989
814.890	0.0157647
814.968	0.0157163
815.047	0.0156870
815.125	0.0156406
815.203	0.0156000
815.281	0.0155051
815.359	0.0153793
815.437	0.0154517
815.515	0.0154497
815.593	0.0154417
815.672	0.0154211
815.750	0.0153711
815.828	0.0152599
815.906	0.0152749
815.984	0.0154337
816.062	0.0154090
816.140	0.0153427
816.218	0.0153349
816.297	0.0155023
816.375	0.0153729
816.453	0.0156242
816.531	0.0155035
816.609	0.0154064
816.687	0.0156070
816.765	0.0155686
816.843	0.0156475
816.922	0.0156367
817.000	0.0154597
817.078	0.0155631
817.156	0.0156130
817.234	0.0155398
817.312	0.0156077
817.390	0.0154713
817.468	0.0155746
817.547	0.0156612
817.625	0.0154921
817.703	0.0155857
817.781	0.0156927
817.859	0.0157415
817.937	0.0156717
818.015	0.0158334
818.093	0.0157825
818.172	0.0157158
818.250	0.0156644
818.328	0.0156373
818.406	0.0156131
818.484	0.0157281
818.562	0.0156805
818.640	0.0158140
818.718	0.0156419
818.797	0.0157149
818.875	0.0156460
818.953	0.0156277
819.031	0.0155813
819.109	0.0156270
819.187	0.0155290
819.265	0.0153126
819.343	0.0155022
819.422	0.0154709
819.500	0.0153827
819.578	0.0154559
819.656	0.0155103
819.734	0.0155466
819.812	0.0155901
819.890	0.0155876
819.968	0.0155168
820.047	0.0156195
820.125	0.0157011
820.203	0.0156609
820.281	0.0157053
820.359	0.0157590
820.437	0.0157427
820.515	0.0156884
820.593	0.0156366
820.672	0.0159087
820.750	0.0157294
820.828	0.0155635
820.906	0.0157265
820.984	0.0157095
821.062	0.0156014
821.140	0.0156673
821.218	0.0156430
821.297	0.0153761
821.375	0.0154475
821.453	0.0156087
821.531	0.0156474
821.609	0.0156503
821.687	0.0155925
821.765	0.0153941
821.843	0.0155496
821.922	0.0155708
822.000	0.0156325
822.078	0.0155743
822.156	0.0156557
822.234	0.0158579
822.312	0.0157395
822.390	0.0156731
822.468	0.0156823
822.547	0.0156837
822.625	0.0157435
822.703	0.0156603
822.781	0.0156003
822.859	0.0155765
822.937	0.0155643
823.015	0.0153954
823.093	0.0154427
823.172	0.0155344
823.250	0.0154854
823.328	0.0154919
823.406	0.0154295
823.484	0.0153685
823.562	0.0153527
823.640	0.0156212
823.718	0.0154929
823.797	0.0153270
823.875	0.0155650
823.953	0.0154945
824.031	0.0155434
824.109	0.0156163
824.187	0.0154832
824.265	0.0154983
824.343	0.0155409
824.422	0.0156456
824.500	0.0156341
824.578	0.0156566
824.656	0.0155933
824.734	0.0156151
824.812	0.0156642
824.890	0.0156940
824.968	0.0156581
825.047	0.0155272
825.125	0.0155186
825.203	0.0155781
825.281	0.0157111
825.359	0.0156693
825.437	0.0157039
825.515	0.0157571
825.593	0.0157997
825.672	0.0157390
825.750	0.0158440
825.828	0.0158696
825.906	0.0158492
825.984	0.0157433
826.062	0.0159364
826.140	0.0159569
826.218	0.0160108
826.297	0.0159058
826.375	0.0160062
826.453	0.0158286
826.531	0.0159256
826.609	0.0157820
826.687	0.0157409
826.765	0.0157784
826.843	0.0156664
826.922	0.0157267
827.000	0.0155388
827.078	0.0157496
827.156	0.0155025
827.234	0.0154533
827.312	0.0154531
827.390	0.0153488
827.468	0.0153905
827.547	0.0154424
827.625	0.0154274
827.703	0.0155080
827.781	0.0154427
827.859	0.0155172
827.937	0.0154199
828.015	0.0153020
828.093	0.0154534
828.172	0.0154485
828.250	0.0153707
828.328	0.0154129
828.406	0.0155294
828.484	0.0154285
828.562	0.0153371
828.640	0.0155374
828.718	0.0155360
828.797	0.0155679
828.875	0.0156024
828.953	0.0156244
829.031	0.0156041
829.109	0.0156627
829.187	0.0156041
829.265	0.0156950
829.343	0.0158556
829.422	0.0157864
829.500	0.0156726
829.578	0.0157532
829.656	0.0159618
829.734	0.0159092
829.812	0.0160011
829.890	0.0157442
829.968	0.0159856
830.047	0.0159896
830.125	0.0158851
830.203	0.0157766
830.281	0.0158061
830.359	0.0157995
830.437	0.0157378
830.515	0.0155183
830.593	0.0156364
830.672	0.0157075
830.750	0.0155476
830.828	0.0154181
830.906	0.0154293
830.984	0.0155721
831.062	0.0154871
831.140	0.0154144
831.218	0.0155903
831.297	0.0155733
831.375	0.0155419
831.453	0.0155563
831.531	0.0156725
831.609	0.0155998
831.687	0.0155469
831.765	0.0156563
831.843	0.0156237
831.922	0.0158867
832.000	0.0159259
832.078	0.0156765
832.156	0.0157092
832.234	0.0157691
832.312	0.0157773
832.390	0.0156595
832.468	0.0158633
832.547	0.0157907
832.625	0.0158160
832.703	0.0155572
832.781	0.0156493
832.859	0.0156778
832.937	0.0157121
833.015	0.0156331
833.093	0.0154762
833.172	0.0156353
833.250	0.0154996
833.328	0.0155253
833.406	0.0156421
833.484	0.0155152
833.562	0.0155672
833.640	0.0156020
833.718	0.0155741
833.797	0.0154147
833.875	0.0155031
833.953	0.0156288
834.031	0.0155945
834.109	0.0155479
834.187	0.0156092
834.265	0.0155684
834.343	0.0155236
834.422	0.0156683
834.500	0.0154810
834.578	0.0155737
834.656	0.0156289
834.734	0.0157135
834.812	0.0155656
834.890	0.0155845
834.968	0.0157662
835.047	0.0157138
835.125	0.0156635
835.203	0.0156086
835.281	0.0156367
835.359	0.0157217
835.437	0.0156030
835.515	0.0156213
835.593	0.0156754
835.672	0.0159026
835.750	0.0157629
835.828	0.0156715
835.906	0.0156231
835.984	0.0158028
836.062	0.0157879
836.140	0.0156487
836.218	0.0157388
836.297	0.0156377
836.375	0.0155923
836.453	0.0154887
836.531	0.0154582
836.609	0.0156453
836.687	0.0154939
836.765	0.0154124
836.843	0.0152764
836.922	0.0153768
837.000	0.0155003
837.078	0.0155503
837.156	0.0154060
837.234	0.0154611
837.312	0.0155045
837.390	0.0154201
837.468	0.0155265
837.547	0.0156467
837.625	0.0155836
837.703	0.0156844
837.781	0.0156611
837.859	0.0158248
837.937	0.0157132
838.015	0.0157563
838.093	0.0158547
838.172	0.0156732
838.250	0.0157622
838.328	0.0158186
838.406	0.0157878
838.484	0.0157799
838.562	0.0156346
838.640	0.0156082
838.718	0.0158015
838.797	0.0157247
838.875	0.0156168
838.953	0.0155699
839.031	0.0155940
839.109	0.0155286
839.187	0.0155826
839.265	0.0155795
839.343	0.0155601
839.422	0.0155186
839.500	0.0154192
839.578	0.0155570
839.656	0.0156890
839.734	0.0155367
839.812	0.0154877
839.890	0.0155015
839.968	0.0156474
840.047	0.0156837
840.125	0.0155602
840.203	0.0155974
840.281	0.0157028
840.359	0.0157036
840.437	0.0157637
840.515	0.0157042
840.593	0.0156534
840.672	0.0157755
840.750	0.0156510
840.828	0.0155383
840.906	0.0157415
840.984	0.0157064
841.062	0.0156900
841.140	0.0158619
841.218	0.0156749
841.297	0.0156915
841.375	0.0159181
841.453	0.0158182
841.531	0.0157163
841.609	0.0158443
841.687	0.0156687
841.765	0.0157029
841.843	0.0156450
841.922	0.0156165
842.000	0.0155466
842.078	0.0154785
842.156	0.0153017
842.234	0.0153553
842.312	0.0154555
842.390	0.0154102
842.468	0.0153236
842.547	0.0153625
842.625	0.0153645
842.703	0.0154374
842.781	0.0154219
842.859	0.0154012
842.937	0.0153607
843.015	0.0153949
843.093	0.0155232
843.172	0.0154944
843.250	0.0157243
843.328	0.0156434
843.406	0.0157041
843.484	0.0158731
843.562	0.0158709
843.640	0.0159313
843.718	0.0157980
843.797	0.0159718
843.875	0.0160146
843.953	0.0158195
844.031	0.0158813
844.109	0.0158006
844.187	0.0156888
844.265	0.0156419
844.343	0.0156247
844.422	0.0156630
844.500	0.0157050
844.578	0.0156929
844.656	0.0154196
844.734	0.0154514
844.812	0.0154059
844.890	0.0154147
844.968	0.0154990
845.047	0.0154809
845.125	0.0153482
845.203	0.0153339
845.281	0.0152912
845.359	0.0152478
845.437	0.0155740
845.515	0.0155290
845.593	0.0156186
845.672	0.0155542
845.750	0.0156104
845.828	0.0157658
845.906	0.0158513
845.984	0.0159224
846.062	0.0160914
846.140	0.0162438
846.218	0.0162148
846.297	0.0163084
846.375	0.0163542
846.453	0.0163007
846.531	0.0164370
846.609	0.0165051
846.687	0.0163877
846.765	0.0162463
846.843	0.0163680
846.922	0.0161964
847.000	0.0161761
847.078	0.0160451
847.156	0.0159601
847.234	0.0157606
847.312	0.0154057
847.390	0.0151824
847.468	0.0151006
847.547	0.0149435
847.625	0.0149315
847.703	0.0147965
847.781	0.0146519
847.859	0.0145695
847.937	0.0145863
848.015	0.0144398
848.093	0.0145866
848.172	0.0146287
848.250	0.0146386
848.328	0.0146284
848.406	0.0146268
848.484	0.0148488
848.562	0.0151165
848.640	0.0153711
848.718	0.0154064
848.797	0.0154965
848.875	0.0157407
848.953	0.0160011
849.031	0.0162172
849.109	0.0164033
849.187	0.0164987
849.265	0.0167380
849.343	0.0167051
849.422	0.0167312
849.500	0.0168752
849.578	0.0168850
849.656	0.0170000
849.734	0.0168142
849.812	0.0167435
849.890	0.0166664
849.968	0.0165488
850.047	0.0163044
850.125	0.0161848
850.203	0.0160754
850.281	0.0158501
850.359	0.0156530
850.437	0.0155067
850.515	0.0152283
850.593	0.0150608
850.672	0.0148865
850.750	0.0148100
850.828	0.0146177
850.906	0.0145625
850.984	0.0143240
851.062	0.0144455
851.140	0.0142124
851.218	0.0143556
851.297	0.0144272
851.375	0.0144041
851.453	0.0144703
851.531	0.0147306
851.609	0.0149638
851.687	0.0151341
851.765	0.0152723
851.843	0.0153740
851.922	0.0156026
852.000	0.0158491
852.078	0.0160977
852.156	0.0162427
852.234	0.0162669
852.312	0.0164964
852.390	0.0165457
852.468	0.0167714
852.547	0.0169061
852.625	0.0167060
852.703	0.0166737
852.781	0.0167353
852.859	0.0166714
852.937	0.0165367
853.015	0.0166003
853.093	0.0165250
853.172	0.0164850
853.250	0.0162178
853.328	0.0160517
853.406	0.0158775
853.484	0.0158449
853.562	0.0156006
853.640	0.0156146
853.718	0.0153329
853.797	0.0153819
853.875	0.0151104
853.953	0.0150832
854.031	0.0150217
854.109	0.0146696
854.187	0.0148184
854.265	0.0147577
854.343	0.0147042
854.422	0.0145993
854.500	0.0147200
854.578	0.0147380
854.656	0.0148068
854.734	0.0149995
854.812	0.0150935
854.890	0.0152644
854.968	0.0154556
855.047	0.0154888
855.125	0.0155697
855.203	0.0159609
855.281	0.0160855
855.359	0.0162483
855.437	0.0163883
855.515	0.0164524
855.593	0.0164765
855.672	0.0165815
855.750	0.0164986
855.828	0.0164870
855.906	0.0164899
855.984	0.0164211
856.062	0.0162721
856.140	0.0161638
856.218	0.0160624
856.297	0.0159023
856.375	0.0157581
856.453	0.0156805
856.531	0.0155722
856.609	0.0153773
856.687	0.0154525
856.765	0.0151423
856.843	0.0150867
856.922	0.0151284
857.000	0.0149711
857.078	0.0148291
857.156	0.0150121
857.234	0.0149777
857.312	0.0149834
857.390	0.0149476
857.468	0.0149620
857.547	0.0151658
857.625	0.0151550
857.703	0.0151733
857.781	0.0153043
857.859	0.0154449
857.937	0.0157291
858.015	0.0156652
858.093	0.0157353
858.172	0.0158796
858.250	0.0161637
858.328	0.0161040
858.406	0.0163130
858.484	0.0164902
858.562	0.0165647
858.640	0.0164581
858.718	0.0166674
858.797	0.0166244
858.875	0.0165266
858.953	0.0165659
859.031	0.0165221
859.109	0.0164453
859.187	0.0162746
859.265	0.0161308
859.343	0.0160202
859.422	0.0159756
859.500	0.0157526
859.578	0.0155972
859.656	0.0156782
859.734	0.0154190
859.812	0.0153693
859.890	0.0151064
859.968	0.0151215
860.047	0.0150652
860.125	0.0148669
860.203	0.0149637
860.281	0.0147843
860.359	0.0149580
860.437	0.0149895
860.515	0.0149331
860.593	0.0150134
860.672	0.0150534
860.750	0.0150372
860.828	0.0150432
860.906	0.0152637
860.984	0.0153545
861.062	0.0152484
861.140	0.0153604
861.218	0.0154797
861.297	0.0154576
861.375	0.0157793
861.453	0.0158866
861.531	0.0159070
861.609	0.0159779
861.687	0.0161255
861.765	0.0162569
861.843	0.0163404
861.922	0.0165793
862.000	0.0165423
862.078	0.0164574
862.156	0.0163905
862.234	0.0163433
862.312	0.0164230
862.390	0.0163212
862.468	0.0162074
862.547	0.0162919
862.625	0.0160681
862.703	0.0158891
862.781	0.0158019
862.859	0.0157191
862.937	0.0155801
863.015	0.0155822
863.093	0.0154966
863.172	0.0155879
863.250	0.0155058
863.328	0.0152639
863.406	0.0152691
863.484	0.0153498
863.562	0.0154667
863.640	0.0154344
863.718	0.0151134
863.797	0.0153036
863.875	0.0154264
863.953	0.0155154
864.031	0.0154572
864.109	0.0154778
864.187	0.0156000
864.265	0.0156207
864.343	0.0154256
864.422	0.0155655
864.500	0.0155247
864.578	0.0156464
864.656	0.0155679
864.734	0.0156457
864.812	0.0156606
864.890	0.0158231
864.968	0.0157139
865.047	0.0156632
865.125	0.0157300
865.203	0.0158751
865.281	0.0157507
865.359	0.0157987
865.437	0.0156717
865.515	0.0156578
865.593	0.0156075
865.672	0.0156097
865.750	0.0156947
865.828	0.0157138
865.906	0.0155547
865.984	0.0154664
866.062	0.0155717
866.140	0.0156593
866.218	0.0155593
866.297	0.0154800
866.375	0.0155476
866.453	0.0153240
866.531	0.0153936
866.609	0.0155382
866.687	0.0153688
866.765	0.0154447
866.843	0.0155312
866.922	0.0156033
867.000	0.0154675
867.078	0.0154991
867.156	0.0156328
867.234	0.0156543
867.312	0.0155839
867.390	0.0156675
867.468	0.0157007
867.547	0.0157035
867.625	0.0157878
867.703	0.0157044
867.781	0.0157650
867.859	0.0157540
867.937	0.0159388
868.015	0.0160766
868.093	0.0160415
868.172	0.0161469
868.250	0.0159733
868.328	0.0160122
868.406	0.0159720
868.484	0.0160725
868.562	0.0160071
868.640	0.0158866
868.718	0.0157708
868.797	0.0158488
868.875	0.0157807
868.953	0.0155457
869.031	0.0156400
869.109	0.0155219
869.187	0.0155402
869.265	0.0155184
869.343	0.0154344
869.422	0.0154908
869.500	0.0153674
869.578	0.0153459
869.656	0.0153413
869.734	0.0153559
869.812	0.0152908
869.890	0.0153282
869.968	0.0153155
870.047	0.0152853
870.125	0.0152758
870.203	0.0154754
870.281	0.0154314
870.359	0.0153519
870.437	0.0153873
870.515	0.0154565
870.593	0.0155349
870.672	0.0154410
870.750	0.0154739
870.828	0.0156879
870.906	0.0156048
870.984	0.0155413
871.062	0.0156586
871.140	0.0156023
871.218	0.0157030
871.297	0.0155843
871.375	0.0156084
871.453	0.0157098
871.531	0.0154995
871.609	0.0156135
871.687	0.0157396
871.765	0.0155679
871.843	0.0157175
871.922	0.0156775
872.000	0.0157025
872.078	0.0156519
872.156	0.0155853
872.234	0.0155980
872.312	0.0155508
872.390	0.0155549
872.468	0.0155151
872.547	0.0155445
872.625	0.0156009
872.703	0.0155194
872.781	0.0155511
872.859	0.0154645
872.937	0.0155820
873.015	0.0155689
873.093	0.0154308
873.172	0.0155885
873.250	0.0155635
873.328	0.0155258
873.406	0.0157267
873.484	0.0158684
873.562	0.0157603
873.640	0.0158646
873.718	0.0159772
873.797	0.0160802
873.875	0.0160029
873.953	0.0161047
874.031	0.0159818
874.109	0.0160786
874.187	0.0161523
874.265	0.0161159
874.343	0.0159227
874.422	0.0159829
874.500	0.0159533
874.578	0.0157245
874.656	0.0157137
874.734	0.0158128
874.812	0.0156721
874.890	0.0155046
874.968	0.0155368
875.047	0.0154552
875.125	0.0153844
875.203	0.0152763
875.281	0.0153162
875.359	0.0153283
875.437	0.0152818
875.515	0.0153218
875.593	0.0154132
875.672	0.0152021
875.750	0.0151492
875.828	0.0152806
875.906	0.0151714
875.984	0.0151968
876.062	0.0151998
876.140	0.0153847
876.218	0.0152445
876.297	0.0153719
876.375	0.0153843
876.453	0.0154184
876.531	0.0154952
876.609	0.0155875
876.687	0.0156674
876.765	0.0157049
876.843	0.0157880
876.922	0.0156831
877.000	0.0157381
877.078	0.0157860
877.156	0.0157111
877.234	0.0157849
877.312	0.0157436
877.390	0.0157969
877.468	0.0158550
877.547	0.0157791
877.625	0.0157798
877.703	0.0158050
877.781	0.0155372
877.859	0.0156462
877.937	0.0157594
878.015	0.0154379
878.093	0.0154906
878.172	0.0152832
878.250	0.0152415
878.328	0.0154848
878.406	0.0155085
878.484	0.0152492
878.562	0.0152374
878.640	0.0153944
878.718	0.0153500
878.797	0.0155653
878.875	0.0152865
878.953	0.0155450
879.031	0.0155518
879.109	0.0155239
879.187	0.0154479
879.265	0.0154611
879.343	0.0157316
879.422	0.0158949
879.500	0.0157648
879.578	0.0158207
879.656	0.0157236
879.734	0.0159332
879.812	0.0158804
879.890	0.0158690
879.968	0.0158361
880.047	0.0157710
880.125	0.0159409
880.203	0.0159467
880.281	0.0158643
880.359	0.0158070
880.437	0.0157613
880.515	0.0157384
880.593	0.0156358
880.672	0.0157497
880.750	0.0155463
880.828	0.0155929
880.906	0.0155766
880.984	0.0155036
881.062	0.0154845
881.140	0.0155309
881.218	0.0153214
881.297	0.0154573
881.375	0.0154055
881.453	0.0153038
881.531	0.0153326
881.609	0.0154343
881.687	0.0154923
881.765	0.0153403
881.843	0.0154581
881.922	0.0154471
882.000	0.0153655
882.078	0.0153904
882.156	0.0154219
882.234	0.0156075
882.312	0.0155904
882.390	0.0156279
882.468	0.0157355
882.547	0.0157209
882.625	0.0156171
882.703	0.0157150
882.781	0.0156709
882.859	0.0157201
882.937	0.0158277
883.015	0.0157793
883.093	0.0157555
883.172	0.0159772
883.250	0.0159737
883.328	0.0158059
883.406	0.0157372
883.484	0.0157718
883.562	0.0158290
883.640	0.0158775
883.718	0.0156728
883.797	0.0155511
883.875	0.0155701
883.953	0.0155826
884.031	0.0154440
884.109	0.0156396
884.187	0.0155688
884.265	0.0153799
884.343	0.0154633
884.422	0.0155047
884.500	0.0154678
884.578	0.0155323
884.656	0.0153812
884.734	0.0154753
884.812	0.0154508
884.890	0.0152947
884.968	0.0155479
885.047	0.0154736
885.125	0.0155356
885.203	0.0155544
885.281	0.0156138
885.359	0.0157297
885.437	0.0156917
885.515	0.0159188
885.593	0.0158953
885.672	0.0158191
885.750	0.0159469
885.828	0.0159047
885.906	0.0158488
885.984	0.0157211
886.062	0.0157984
886.140	0.0156603
886.218	0.0157565
886.297	0.0156950
886.375	0.0157767
886.453	0.0157011
886.531	0.0158019
886.609	0.0156079
886.687	0.0155459
886.765	0.0156900
886.843	0.0158058
886.922	0.0157764
887.000	0.0156235
887.078	0.0156708
887.156	0.0155113
887.234	0.0155771
887.312	0.0156834
887.390	0.0156144
887.468	0.0155283
887.547	0.0154143
887.625	0.0155913
887.703	0.0156629
887.781	0.0154518
887.859	0.0154246
887.937	0.0155378
888.015	0.0155478
888.093	0.0156119
888.172	0.0156435
888.250	0.0156549
888.328	0.0156297
888.406	0.0155430
888.484	0.0157057
888.562	0.0155959
888.640	0.0155108
888.718	0.0155539
888.797	0.0156206
888.875	0.0155992
888.953	0.0157434
889.031	0.0156894
889.109	0.0156361
889.187	0.0157250
889.265	0.0155846
889.343	0.0156609
889.422	0.0157271
889.500	0.0156211
889.578	0.0156742
889.656	0.0156763
889.734	0.0156380
889.812	0.0156704
889.890	0.0156510
889.968	0.0155553
890.047	0.0156083
890.125	0.0156130
890.203	0.0157112
890.281	0.0156473
890.359	0.0157172
890.437	0.0156688
890.515	0.0155703
890.593	0.0157510
890.672	0.0156318
890.750	0.0157870
890.828	0.0156541
890.906	0.0157035
890.984	0.0157483
891.062	0.0157048
891.140	0.0155724
891.218	0.0156791
891.297	0.0157283
891.375	0.0156493
891.453	0.0157399
891.531	0.0156552
891.609	0.0156324
891.687	0.0156644
891.765	0.0157043
891.843	0.0157822
891.922	0.0157004
892.000	0.0157363
892.078	0.0156387
892.156	0.0155599
892.234	0.0155265
892.312	0.0154160
892.390	0.0154452
892.468	0.0155161
892.547	0.0155379
892.625	0.0155126
892.703	0.0155623
892.781	0.0154465
892.859	0.0155015
892.937	0.0155742
893.015	0.0154784
893.093	0.0155141
893.172	0.0156029
893.250	0.0155186
893.328	0.0156075
893.406	0.0156395
893.484	0.0156287
893.562	0.0157494
893.640	0.0155328
893.718	0.0156441
893.797	0.0157531
893.875	0.0156639
893.953	0.0156776
894.031	0.0157521
894.109	0.0156766
894.187	0.0157157
894.265	0.0157507
894.343	0.0156267
894.422	0.0157237
894.500	0.0159088
894.578	0.0156826
894.656	0.0156069
894.734	0.0156968
894.812	0.0156527
894.890	0.0157927
894.968	0.0158187
895.047	0.0157268
895.125	0.0157648
895.203	0.0157765
895.281	0.0157538
895.359	0.0156947
895.437	0.0157835
895.515	0.0155891
895.593	0.0154359
895.672	0.0154977
895.750	0.0155975
895.828	0.0154975
895.906	0.0155030
895.984	0.0153896
896.062	0.0154204
896.140	0.0153861
896.218	0.0154379
896.297	0.0153999
896.375	0.0153221
896.453	0.0153777
896.531	0.0154407
896.609	0.0154206
896.687	0.0154598
896.765	0.0155529
896.843	0.0154415
896.922	0.0155824
897.000	0.0155813
897.078	0.0155944
897.156	0.0156742
897.234	0.0156554
897.312	0.0155545
897.390	0.0157294
897.468	0.0157243
897.547	0.0157636
897.625	0.0158010
897.703	0.0156275
897.781	0.0157080
897.859	0.0157762
897.937	0.0156573
898.015	0.0157317
898.093	0.0155445
898.172	0.0156188
898.250	0.0155006
898.328	0.0156719
898.406	0.0155466
898.484	0.0156137
898.562	0.0155518
898.640	0.0154855
898.718	0.0156113
898.797	0.0156283
898.875	0.0155444
898.953	0.0156021
899.031	0.0156047
899.109	0.0155460
899.187	0.0155797
899.265	0.0154888
899.343	0.0155442
899.422	0.0154641
899.500	0.0155799
899.578	0.0155156
899.656	0.0156898
899.734	0.0155988
899.812	0.0156791
899.890	0.0156687
899.968	0.0156090
900.047	0.0156473
900.125	0.0155495
900.203	0.0156818
900.281	0.0157576
900.359	0.0156648
900.437	0.0156769
900.515	0.0155576
900.593	0.0156238
900.672	0.0157090
900.750	0.0156887
900.828	0.0156845
900.906	0.0157285
900.984	0.0155018
901.062	0.0155597
901.140	0.0153412
901.218	0.0154518
901.297	0.0155730
901.375	0.0154760
901.453	0.0154668
901.531	0.0153635
901.609	0.0154195
901.687	0.0154659
901.765	0.0153703
901.843	0.0153509
901.922	0.0154688
902.000	0.0152959
902.078	0.0153411
902.156	0.0153963
902.234	0.0154408
902.312	0.0155121
902.390	0.0154975
902.468	0.0154390
902.547	0.0153740
902.625	0.0155457
902.703	0.0154651
902.781	0.0156481
902.859	0.0156146
902.937	0.0155523
903.015	0.0157407
903.093	0.0157588
903.172	0.0156941
903.250	0.0157021
903.328	0.0156899
903.406	0.0157745
903.484	0.0157239
903.562	0.0157460
903.640	0.0158220
903.718	0.0157796
903.797	0.0157182
903.875	0.0156313
903.953	0.0156560
904.031	0.0156196
904.109	0.0155050
904.187	0.0155020
904.265	0.0155722
904.343	0.0156343
904.422	0.0156170
904.500	0.0155480
904.578	0.0155784
904.656	0.0155502
904.734	0.0156802
904.812	0.0154798
904.890	0.0153990
904.968	0.0155458
905.047	0.0156467
905.125	0.0156505
905.203	0.0156029
905.281	0.0155190
905.359	0.0155613
905.437	0.0156874
905.515	0.0155875
905.593	0.0156334
905.672	0.0155453
905.750	0.0155727
905.828	0.0154474
905.906	0.0156898
905.984	0.0154585
906.062	0.0156212
906.140	0.0156030
906.218	0.0155837
906.297	0.0155375
906.375	0.0156145
906.453	0.0158221
906.531	0.0156385
906.609	0.0156525
906.687	0.0156384
906.765	0.0156469
906.843	0.0155910
906.922	0.0156192
907.000	0.0156828
907.078	0.0156086
907.156	0.0155904
907.234	0.0156030
907.312	0.0156024
907.390	0.0157061
907.468	0.0156962
907.547	0.0156046
907.625	0.0155939
907.703	0.0155665
907.781	0.0155486
907.859	0.0156908
907.937	0.0157323
908.015	0.0158453
908.093	0.0156538
908.172	0.0154881
908.250	0.0155999
908.328	0.0156778
908.406	0.0156042
908.484	0.0157520
908.562	0.0157231
908.640	0.0157510
908.718	0.0156611
908.797	0.0157170
908.875	0.0156969
908.953	0.0157497
909.031	0.0156664
909.109	0.0155704
909.187	0.0156652
909.265	0.0155274
909.343	0.0156170
909.422	0.0155893
909.500	0.0155569
909.578	0.0156237
909.656	0.0155953
909.734	0.0155003
909.812	0.0156071
909.890	0.0155377
909.968	0.0155311
910.047	0.0155438
910.125	0.0154693
910.203	0.0155101
910.281	0.0155907
910.359	0.0155766
910.437	0.0156649
910.515	0.0155489
910.593	0.0155531
910.672	0.0156910
910.750	0.0156487
910.828	0.0157226
910.906	0.0156180
910.984	0.0156551
911.062	0.0157053
911.140	0.0157208
911.218	0.0157317
911.297	0.0156563
911.375	0.0156026
911.453	0.0158026
911.531	0.0158412
911.609	0.0156115
911.687	0.0156850
911.765	0.0155782
911.843	0.0156082
911.922	0.0157230
912.000	0.0155519
912.078	0.0155598
912.156	0.0156274
912.234	0.0154790
912.312	0.0154722
912.390	0.0156568
912.468	0.0156494
912.547	0.0154660
912.625	0.0154697
912.703	0.0154285
912.781	0.0155733
912.859	0.0155119
912.937	0.0155308
913.015	0.0155278
913.093	0.0156564
913.172	0.0154871
913.250	0.0154704
913.328	0.0155958
913.406	0.0155775
913.484	0.0155701
913.562	0.0156242
913.640	0.0156364
913.718	0.0157264
913.797	0.0155778
913.875	0.0156664
913.953	0.0156190
914.031	0.0155894
914.109	0.0156071
914.187	0.0156223
914.265	0.0157865
914.343	0.0157428
914.422	0.0156247
914.500	0.0156606
914.578	0.0155978
914.656	0.0156558
914.734	0.0156445
914.812	0.0156514
914.890	0.0155834
914.968	0.0156300
915.047	0.0156251
915.125	0.0156451
915.203	0.0156634
915.281	0.0157312
915.359	0.0156177
915.437	0.0157407
915.515	0.0156395
915.593	0.0156344
915.672	0.0155573
915.750	0.0155881
915.828	0.0156017
915.906	0.0156355
915.984	0.0155914
916.062	0.0154309
916.140	0.0156563
916.218	0.0155178
916.297	0.0156328
916.375	0.0156553
916.453	0.0155020
916.531	0.0154374
916.609	0.0154920
916.687	0.0154521
916.765	0.0154014
916.843	0.0155315
916.922	0.0154312
917.000	0.0154274
917.078	0.0155166
917.156	0.0155654
917.234	0.0154790
917.312	0.0155998
917.390	0.0154903
917.468	0.0154520
917.547	0.0155968
917.625	0.0156788
917.703	0.0155898
917.781	0.0156742
917.859	0.0156895
917.937	0.0155923
918.015	0.0157055
918.093	0.0156329
918.172	0.0155066
918.250	0.0155715
918.328	0.0155734
918.406	0.0156045
918.484	0.0155203
918.562	0.0154926
918.640	0.0154866
918.718	0.0154652
918.797	0.0153889
918.875	0.0154751
918.953	0.0153555
919.031	0.0155879
919.109	0.0156041
919.187	0.0154668
919.265	0.0155659
919.343	0.0155907
919.422	0.0155952
919.500	0.0155478
919.578	0.0155047
919.656	0.0155856
919.734	0.0156036
919.812	0.0156640
919.890	0.0156437
