06/13/2022	14:39:28	Ver.	4.1	UNKNOWN
Optical Delay	599.968395	Delta X		0.078125	Sweeps	1	Scan Rate	0/0
Coordinates	Axis 1	NaN	Axis 2	NaN	Axis 3	NaN	Axis 4	NaN	Axis 5	NaN	Axis 6	0.000000
TX Power	0.000000	RX Power	0.000000

599.968	0.0154930
600.047	0.0155034
600.125	0.0155080
600.203	0.0155415
600.281	0.0156224
600.359	0.0155081
600.437	0.0155364
600.515	0.0156194
600.593	0.0155431
600.672	0.0154750
600.750	0.0154199
600.828	0.0156057
600.906	0.0156567
600.984	0.0155855
601.062	0.0154987
601.140	0.0155485
601.218	0.0156214
601.297	0.0155382
601.375	0.0153211
601.453	0.0154812
601.531	0.0155385
601.609	0.0154374
601.687	0.0155032
601.765	0.0156047
601.843	0.0155280
601.922	0.0154818
602.000	0.0155699
602.078	0.0153995
602.156	0.0154234
602.234	0.0154868
602.312	0.0155848
602.390	0.0155785
602.468	0.0153952
602.547	0.0154268
602.625	0.0154536
602.703	0.0155101
602.781	0.0156299
602.859	0.0155450
602.937	0.0155473
603.015	0.0155645
603.093	0.0154514
603.172	0.0154840
603.250	0.0155569
603.328	0.0155318
603.406	0.0154794
603.484	0.0154533
603.562	0.0154296
603.640	0.0154766
603.718	0.0155188
603.797	0.0156781
603.875	0.0154733
603.953	0.0155256
604.031	0.0155135
604.109	0.0153355
604.187	0.0154073
604.265	0.0154622
604.343	0.0155631
604.422	0.0156490
604.500	0.0155502
604.578	0.0153240
604.656	0.0154835
604.734	0.0154180
604.812	0.0154427
604.890	0.0155043
604.968	0.0155573
605.047	0.0153500
605.125	0.0154840
605.203	0.0156741
605.281	0.0156269
605.359	0.0155023
605.437	0.0154874
605.515	0.0156734
605.593	0.0155023
605.672	0.0156180
605.750	0.0154719
605.828	0.0154811
605.906	0.0155322
605.984	0.0154640
606.062	0.0155653
606.140	0.0155552
606.218	0.0154887
606.297	0.0154207
606.375	0.0156760
606.453	0.0156657
606.531	0.0154496
606.609	0.0154481
606.687	0.0154201
606.765	0.0154186
606.843	0.0154720
606.922	0.0154730
607.000	0.0154869
607.078	0.0154565
607.156	0.0155045
607.234	0.0154767
607.312	0.0156160
607.390	0.0153997
607.468	0.0156413
607.547	0.0154341
607.625	0.0154865
607.703	0.0155349
607.781	0.0154449
607.859	0.0154599
607.937	0.0154816
608.015	0.0154128
608.093	0.0154212
608.172	0.0154967
608.250	0.0154919
608.328	0.0156020
608.406	0.0154472
608.484	0.0153439
608.562	0.0154057
608.640	0.0154925
608.718	0.0155215
608.797	0.0155383
608.875	0.0155192
608.953	0.0155518
609.031	0.0154352
609.109	0.0155753
609.187	0.0154337
609.265	0.0155447
609.343	0.0156449
609.422	0.0156140
609.500	0.0155794
609.578	0.0154950
609.656	0.0155171
609.734	0.0156055
609.812	0.0155239
609.890	0.0156387
609.968	0.0154939
610.047	0.0154723
610.125	0.0154628
610.203	0.0155406
610.281	0.0153450
610.359	0.0154326
610.437	0.0155730
610.515	0.0154816
610.593	0.0154331
610.672	0.0155754
610.750	0.0156076
610.828	0.0153920
610.906	0.0156705
610.984	0.0154245
611.062	0.0154744
611.140	0.0155000
611.218	0.0155402
611.297	0.0153843
611.375	0.0156570
611.453	0.0154127
611.531	0.0155633
611.609	0.0154996
611.687	0.0155748
611.765	0.0156529
611.843	0.0154974
611.922	0.0155426
612.000	0.0154796
612.078	0.0153864
612.156	0.0155152
612.234	0.0155197
612.312	0.0156179
612.390	0.0155000
612.468	0.0155206
612.547	0.0155191
612.625	0.0153252
612.703	0.0155667
612.781	0.0154425
612.859	0.0154124
612.937	0.0155282
613.015	0.0154025
613.093	0.0154458
613.172	0.0154289
613.250	0.0155549
613.328	0.0155681
613.406	0.0155827
613.484	0.0152700
613.562	0.0155803
613.640	0.0155363
613.718	0.0154472
613.797	0.0153868
613.875	0.0154004
613.953	0.0155619
614.031	0.0154635
614.109	0.0155089
614.187	0.0155827
614.265	0.0154615
614.343	0.0153877
614.422	0.0156263
614.500	0.0155334
614.578	0.0155033
614.656	0.0155164
614.734	0.0153758
614.812	0.0155089
614.890	0.0155458
614.968	0.0154996
615.047	0.0156057
615.125	0.0155002
615.203	0.0153941
615.281	0.0155544
615.359	0.0155322
615.437	0.0155725
615.515	0.0154351
615.593	0.0155283
615.672	0.0155852
615.750	0.0154159
615.828	0.0154722
615.906	0.0156851
615.984	0.0155437
616.062	0.0156631
616.140	0.0155125
616.218	0.0155071
616.297	0.0154895
616.375	0.0155204
616.453	0.0155930
616.531	0.0152913
616.609	0.0155180
616.687	0.0154914
616.765	0.0155215
616.843	0.0156283
616.922	0.0155687
617.000	0.0153306
617.078	0.0154886
617.156	0.0157205
617.234	0.0156903
617.312	0.0154823
617.390	0.0155376
617.468	0.0154137
617.547	0.0155975
617.625	0.0155374
617.703	0.0154741
617.781	0.0155541
617.859	0.0155804
617.937	0.0157005
618.015	0.0155296
618.093	0.0155347
618.172	0.0154796
618.250	0.0154491
618.328	0.0155839
618.406	0.0154976
618.484	0.0155393
618.562	0.0156931
618.640	0.0156047
618.718	0.0155463
618.797	0.0155418
618.875	0.0156006
618.953	0.0156173
619.031	0.0154671
619.109	0.0154977
619.187	0.0154293
619.265	0.0154671
619.343	0.0155204
619.422	0.0154361
619.500	0.0156821
619.578	0.0155275
619.656	0.0154200
619.734	0.0155785
619.812	0.0155373
619.890	0.0153946
619.968	0.0156127
620.047	0.0155500
620.125	0.0154173
620.203	0.0155394
620.281	0.0156671
620.359	0.0155106
620.437	0.0154816
620.515	0.0154835
620.593	0.0153466
620.672	0.0155678
620.750	0.0155079
620.828	0.0153984
620.906	0.0155315
620.984	0.0154440
621.062	0.0153699
621.140	0.0156149
621.218	0.0155708
621.297	0.0154121
621.375	0.0156743
621.453	0.0155383
621.531	0.0155177
621.609	0.0155189
621.687	0.0156371
621.765	0.0155220
621.843	0.0154870
621.922	0.0154322
622.000	0.0156259
622.078	0.0154635
622.156	0.0155230
622.234	0.0155440
622.312	0.0156027
622.390	0.0155512
622.468	0.0155272
622.547	0.0154296
622.625	0.0156089
622.703	0.0155518
622.781	0.0154755
622.859	0.0154205
622.937	0.0154645
623.015	0.0155772
623.093	0.0155369
623.172	0.0155466
623.250	0.0156041
623.328	0.0155238
623.406	0.0154256
623.484	0.0154811
623.562	0.0155891
623.640	0.0156223
623.718	0.0153471
623.797	0.0154961
623.875	0.0155451
623.953	0.0153668
624.031	0.0155434
624.109	0.0156251
624.187	0.0156737
624.265	0.0155602
624.343	0.0154753
624.422	0.0155535
624.500	0.0156373
624.578	0.0156123
624.656	0.0155193
624.734	0.0156308
624.812	0.0155718
624.890	0.0155344
624.968	0.0155255
625.047	0.0154826
625.125	0.0154163
625.203	0.0154688
625.281	0.0155904
625.359	0.0155563
625.437	0.0156273
625.515	0.0157172
625.593	0.0155210
625.672	0.0153876
625.750	0.0153409
625.828	0.0154408
625.906	0.0154900
625.984	0.0154833
626.062	0.0155383
626.140	0.0156580
626.218	0.0154443
626.297	0.0154658
626.375	0.0154385
626.453	0.0154251
626.531	0.0154927
626.609	0.0154621
626.687	0.0154505
626.765	0.0155805
626.843	0.0155503
626.922	0.0154910
627.000	0.0155592
627.078	0.0155743
627.156	0.0155398
627.234	0.0154247
627.312	0.0155030
627.390	0.0156877
627.468	0.0155605
627.547	0.0154085
627.625	0.0156120
627.703	0.0154313
627.781	0.0155911
627.859	0.0154898
627.937	0.0155561
628.015	0.0154967
628.093	0.0155244
628.172	0.0155991
628.250	0.0155779
628.328	0.0154897
628.406	0.0154804
628.484	0.0155600
628.562	0.0155398
628.640	0.0155862
628.718	0.0155729
628.797	0.0157420
628.875	0.0156642
628.953	0.0155760
629.031	0.0154978
629.109	0.0154269
629.187	0.0153987
629.265	0.0156949
629.343	0.0156167
629.422	0.0155869
629.500	0.0155406
629.578	0.0155360
629.656	0.0154822
629.734	0.0155123
629.812	0.0155085
629.890	0.0154347
629.968	0.0155020
630.047	0.0156974
630.125	0.0155416
630.203	0.0154802
630.281	0.0154555
630.359	0.0155209
630.437	0.0154388
630.515	0.0155281
630.593	0.0155623
630.672	0.0155555
630.750	0.0154563
630.828	0.0154743
630.906	0.0156618
630.984	0.0156667
631.062	0.0156932
631.140	0.0154973
631.218	0.0155407
631.297	0.0156303
631.375	0.0156372
631.453	0.0154443
631.531	0.0156126
631.609	0.0154924
631.687	0.0156429
631.765	0.0155020
631.843	0.0155453
631.922	0.0155294
632.000	0.0154987
632.078	0.0154842
632.156	0.0155572
632.234	0.0155785
632.312	0.0155721
632.390	0.0154794
632.468	0.0156052
632.547	0.0155241
632.625	0.0154786
632.703	0.0155276
632.781	0.0155539
632.859	0.0155182
632.937	0.0155635
633.015	0.0154895
633.093	0.0154739
633.172	0.0154012
633.250	0.0154456
633.328	0.0155089
633.406	0.0155536
633.484	0.0155617
633.562	0.0155402
633.640	0.0155593
633.718	0.0154973
633.797	0.0155239
633.875	0.0155222
633.953	0.0154806
634.031	0.0154750
634.109	0.0154722
634.187	0.0153112
634.265	0.0155285
634.343	0.0154393
634.422	0.0156837
634.500	0.0157304
634.578	0.0156573
634.656	0.0155627
634.734	0.0154164
634.812	0.0154404
634.890	0.0155165
634.968	0.0154487
635.047	0.0155627
635.125	0.0153820
635.203	0.0156128
635.281	0.0155183
635.359	0.0153670
635.437	0.0154868
635.515	0.0155742
635.593	0.0155342
635.672	0.0153959
635.750	0.0154615
635.828	0.0155634
635.906	0.0154571
635.984	0.0155621
636.062	0.0154231
636.140	0.0153540
636.218	0.0155511
636.297	0.0154539
636.375	0.0156111
636.453	0.0155412
636.531	0.0155173
636.609	0.0155428
636.687	0.0155987
636.765	0.0154831
636.843	0.0155344
636.922	0.0155234
637.000	0.0155453
637.078	0.0155395
637.156	0.0155334
637.234	0.0155434
637.312	0.0153385
637.390	0.0155222
637.468	0.0156507
637.547	0.0154192
637.625	0.0153529
637.703	0.0154303
637.781	0.0155196
637.859	0.0153992
637.937	0.0156130
638.015	0.0155332
638.093	0.0155486
638.172	0.0154231
638.250	0.0154700
638.328	0.0154951
638.406	0.0156349
638.484	0.0154684
638.562	0.0154817
638.640	0.0156071
638.718	0.0155252
638.797	0.0155714
638.875	0.0156286
638.953	0.0155659
639.031	0.0154781
639.109	0.0155796
639.187	0.0154710
639.265	0.0155138
639.343	0.0155022
639.422	0.0154538
639.500	0.0155151
639.578	0.0155293
639.656	0.0157305
639.734	0.0154575
639.812	0.0155425
639.890	0.0154863
639.968	0.0155157
640.047	0.0155190
640.125	0.0154980
640.203	0.0155329
640.281	0.0155706
640.359	0.0156246
640.437	0.0155309
640.515	0.0154855
640.593	0.0155190
640.672	0.0154570
640.750	0.0154249
640.828	0.0156108
640.906	0.0154738
640.984	0.0153970
641.062	0.0155064
641.140	0.0154568
641.218	0.0155317
641.297	0.0155640
641.375	0.0156450
641.453	0.0156017
641.531	0.0154163
641.609	0.0155516
641.687	0.0156120
641.765	0.0154671
641.843	0.0155640
641.922	0.0156023
642.000	0.0155544
642.078	0.0155376
642.156	0.0156152
642.234	0.0156876
642.312	0.0156345
642.390	0.0156481
642.468	0.0156108
642.547	0.0156844
642.625	0.0156009
642.703	0.0155395
642.781	0.0155540
642.859	0.0155184
642.937	0.0155322
643.015	0.0154828
643.093	0.0155725
643.172	0.0155930
643.250	0.0155302
643.328	0.0155841
643.406	0.0153452
643.484	0.0155262
643.562	0.0154899
643.640	0.0155355
643.718	0.0154575
643.797	0.0154958
643.875	0.0154753
643.953	0.0154085
644.031	0.0155344
644.109	0.0155888
644.187	0.0155025
644.265	0.0155299
644.343	0.0154539
644.422	0.0155530
644.500	0.0155210
644.578	0.0155373
644.656	0.0155887
644.734	0.0154101
644.812	0.0155402
644.890	0.0155417
644.968	0.0155659
645.047	0.0155804
645.125	0.0155006
645.203	0.0154534
645.281	0.0155225
645.359	0.0155449
645.437	0.0156652
645.515	0.0155737
645.593	0.0155308
645.672	0.0154333
645.750	0.0155591
645.828	0.0155663
645.906	0.0155719
645.984	0.0155594
646.062	0.0156018
646.140	0.0154865
646.218	0.0155149
646.297	0.0156043
646.375	0.0156042
646.453	0.0155507
646.531	0.0154649
646.609	0.0154594
646.687	0.0154930
646.765	0.0155449
646.843	0.0154508
646.922	0.0155758
647.000	0.0155196
647.078	0.0153924
647.156	0.0154519
647.234	0.0155132
647.312	0.0155591
647.390	0.0154867
647.468	0.0156042
647.547	0.0155730
647.625	0.0154927
647.703	0.0154843
647.781	0.0155566
647.859	0.0155669
647.937	0.0155486
648.015	0.0154987
648.093	0.0154980
648.172	0.0155589
648.250	0.0154127
648.328	0.0156064
648.406	0.0155541
648.484	0.0155891
648.562	0.0155126
648.640	0.0154855
648.718	0.0155743
648.797	0.0155257
648.875	0.0155963
648.953	0.0155910
649.031	0.0154555
649.109	0.0155153
649.187	0.0154401
649.265	0.0155229
649.343	0.0153926
649.422	0.0154998
649.500	0.0155077
649.578	0.0153900
649.656	0.0153553
649.734	0.0154337
649.812	0.0155399
649.890	0.0154205
649.968	0.0155710
650.047	0.0154433
650.125	0.0154224
650.203	0.0154031
650.281	0.0156097
650.359	0.0155374
650.437	0.0153854
650.515	0.0155001
650.593	0.0155347
650.672	0.0155518
650.750	0.0155574
650.828	0.0155966
650.906	0.0154093
650.984	0.0153635
651.062	0.0153942
651.140	0.0155087
651.218	0.0154256
651.297	0.0155152
651.375	0.0156078
651.453	0.0155328
651.531	0.0155084
651.609	0.0153775
651.687	0.0155318
651.765	0.0155961
651.843	0.0155459
651.922	0.0154252
652.000	0.0154356
652.078	0.0155485
652.156	0.0154859
652.234	0.0155824
652.312	0.0155482
652.390	0.0155403
652.468	0.0155310
652.547	0.0155657
652.625	0.0155871
652.703	0.0154530
652.781	0.0154028
652.859	0.0155237
652.937	0.0154033
653.015	0.0155745
653.093	0.0155928
653.172	0.0154489
653.250	0.0155767
653.328	0.0156490
653.406	0.0154552
653.484	0.0155099
653.562	0.0155518
653.640	0.0155747
653.718	0.0154694
653.797	0.0154534
653.875	0.0155303
653.953	0.0154556
654.031	0.0156918
654.109	0.0154266
654.187	0.0154338
654.265	0.0155836
654.343	0.0154598
654.422	0.0155439
654.500	0.0155070
654.578	0.0154299
654.656	0.0156129
654.734	0.0154218
654.812	0.0155227
654.890	0.0155672
654.968	0.0155992
655.047	0.0155083
655.125	0.0154657
655.203	0.0155801
655.281	0.0156420
655.359	0.0155186
655.437	0.0155722
655.515	0.0153561
655.593	0.0154218
655.672	0.0154055
655.750	0.0155956
655.828	0.0154967
655.906	0.0155466
655.984	0.0154006
656.062	0.0154189
656.140	0.0155707
656.218	0.0154558
656.297	0.0155884
656.375	0.0155129
656.453	0.0155000
656.531	0.0154281
656.609	0.0154462
656.687	0.0154953
656.765	0.0154145
656.843	0.0154620
656.922	0.0154679
657.000	0.0155849
657.078	0.0155496
657.156	0.0155089
657.234	0.0153744
657.312	0.0152783
657.390	0.0155401
657.468	0.0154624
657.547	0.0155204
657.625	0.0154920
657.703	0.0154284
657.781	0.0155055
657.859	0.0155876
657.937	0.0153946
658.015	0.0154941
658.093	0.0154433
658.172	0.0156015
658.250	0.0154665
658.328	0.0154637
658.406	0.0154034
658.484	0.0155472
658.562	0.0154757
658.640	0.0155313
658.718	0.0155682
658.797	0.0154541
658.875	0.0154365
658.953	0.0154845
659.031	0.0155621
659.109	0.0153683
659.187	0.0155224
659.265	0.0154022
659.343	0.0154562
659.422	0.0156226
659.500	0.0154726
659.578	0.0156270
659.656	0.0153824
659.734	0.0154790
659.812	0.0154570
659.890	0.0155473
659.968	0.0155312
660.047	0.0154099
660.125	0.0154099
660.203	0.0153672
660.281	0.0154086
660.359	0.0155460
660.437	0.0156108
660.515	0.0155027
660.593	0.0154617
660.672	0.0154949
660.750	0.0154537
660.828	0.0156448
660.906	0.0155362
660.984	0.0156599
661.062	0.0156855
661.140	0.0155068
661.218	0.0154718
661.297	0.0154080
661.375	0.0154438
661.453	0.0155649
661.531	0.0155909
661.609	0.0155164
661.687	0.0155149
661.765	0.0155226
661.843	0.0154195
661.922	0.0154939
662.000	0.0155572
662.078	0.0155040
662.156	0.0156284
662.234	0.0154466
662.312	0.0154999
662.390	0.0156322
662.468	0.0155410
662.547	0.0154805
662.625	0.0154810
662.703	0.0153754
662.781	0.0155864
662.859	0.0156266
662.937	0.0154850
663.015	0.0155540
663.093	0.0154897
663.172	0.0154515
663.250	0.0155553
663.328	0.0155441
663.406	0.0155491
663.484	0.0153951
663.562	0.0155180
663.640	0.0155048
663.718	0.0155997
663.797	0.0155553
663.875	0.0154330
663.953	0.0155914
664.031	0.0154906
664.109	0.0155217
664.187	0.0155371
664.265	0.0155573
664.343	0.0153987
664.422	0.0155180
664.500	0.0154023
664.578	0.0154879
664.656	0.0154575
664.734	0.0154774
664.812	0.0154052
664.890	0.0155110
664.968	0.0153697
665.047	0.0156110
665.125	0.0154208
665.203	0.0155176
665.281	0.0157104
665.359	0.0155273
665.437	0.0156730
665.515	0.0154919
665.593	0.0154346
665.672	0.0156065
665.750	0.0155246
665.828	0.0153957
665.906	0.0155120
665.984	0.0155697
666.062	0.0155823
666.140	0.0156051
666.218	0.0153608
666.297	0.0155910
666.375	0.0154493
666.453	0.0153249
666.531	0.0154482
666.609	0.0155203
666.687	0.0154982
666.765	0.0154612
666.843	0.0154865
666.922	0.0154547
667.000	0.0154850
667.078	0.0155340
667.156	0.0156275
667.234	0.0154870
667.312	0.0154765
667.390	0.0155070
667.468	0.0155758
667.547	0.0154547
667.625	0.0155466
667.703	0.0154496
667.781	0.0154938
667.859	0.0156183
667.937	0.0155546
668.015	0.0154350
668.093	0.0156030
668.172	0.0154304
668.250	0.0154208
668.328	0.0155567
668.406	0.0157366
668.484	0.0156611
668.562	0.0156319
668.640	0.0155151
668.718	0.0154095
668.797	0.0154674
668.875	0.0153174
668.953	0.0154462
669.031	0.0156097
669.109	0.0155374
669.187	0.0156069
669.265	0.0154714
669.343	0.0155519
669.422	0.0154868
669.500	0.0155033
669.578	0.0155882
669.656	0.0155243
669.734	0.0155854
669.812	0.0153631
669.890	0.0154811
669.968	0.0156107
670.047	0.0155095
670.125	0.0155878
670.203	0.0155418
670.281	0.0154954
670.359	0.0154618
670.437	0.0155940
670.515	0.0155170
670.593	0.0155463
670.672	0.0154797
670.750	0.0154562
670.828	0.0155768
670.906	0.0156525
670.984	0.0154945
671.062	0.0155471
671.140	0.0154159
671.218	0.0155720
671.297	0.0154851
671.375	0.0155596
671.453	0.0155415
671.531	0.0155416
671.609	0.0155159
671.687	0.0154584
671.765	0.0154832
671.843	0.0156046
671.922	0.0156305
672.000	0.0155338
672.078	0.0155910
672.156	0.0155081
672.234	0.0155601
672.312	0.0155098
672.390	0.0155321
672.468	0.0155402
672.547	0.0155170
672.625	0.0154662
672.703	0.0155006
672.781	0.0155666
672.859	0.0154971
672.937	0.0155949
673.015	0.0155125
673.093	0.0156001
673.172	0.0154577
673.250	0.0155295
673.328	0.0155498
673.406	0.0155606
673.484	0.0156268
673.562	0.0154240
673.640	0.0155005
673.718	0.0155074
673.797	0.0154931
673.875	0.0155148
673.953	0.0154933
674.031	0.0153932
674.109	0.0155383
674.187	0.0154964
674.265	0.0155034
674.343	0.0154307
674.422	0.0154398
674.500	0.0154259
674.578	0.0156432
674.656	0.0154881
674.734	0.0154027
674.812	0.0154597
674.890	0.0155637
674.968	0.0155313
675.047	0.0155557
675.125	0.0156392
675.203	0.0155687
675.281	0.0155949
675.359	0.0155241
675.437	0.0156879
675.515	0.0154875
675.593	0.0154961
675.672	0.0154397
675.750	0.0155626
675.828	0.0155666
675.906	0.0155938
675.984	0.0156200
676.062	0.0154822
676.140	0.0155202
676.218	0.0155801
676.297	0.0156058
676.375	0.0155047
676.453	0.0154588
676.531	0.0155939
676.609	0.0156787
676.687	0.0154243
676.765	0.0154006
676.843	0.0154382
676.922	0.0155193
677.000	0.0155186
677.078	0.0156226
677.156	0.0154958
677.234	0.0153419
677.312	0.0155374
677.390	0.0154637
677.468	0.0154128
677.547	0.0153998
677.625	0.0155325
677.703	0.0155766
677.781	0.0154683
677.859	0.0155357
677.937	0.0155643
678.015	0.0153292
678.093	0.0155204
678.172	0.0154758
678.250	0.0154350
678.328	0.0153588
678.406	0.0154591
678.484	0.0155400
678.562	0.0155566
678.640	0.0154949
678.718	0.0154152
678.797	0.0154569
678.875	0.0155467
678.953	0.0155008
679.031	0.0154205
679.109	0.0154900
679.187	0.0156438
679.265	0.0155193
679.343	0.0156023
679.422	0.0156670
679.500	0.0154913
679.578	0.0156189
679.656	0.0155754
679.734	0.0155124
679.812	0.0155391
679.890	0.0155948
679.968	0.0155811
680.047	0.0155236
680.125	0.0155655
680.203	0.0154942
680.281	0.0156185
680.359	0.0154185
680.437	0.0154443
680.515	0.0155762
680.593	0.0156456
680.672	0.0154863
680.750	0.0154805
680.828	0.0153865
680.906	0.0153942
680.984	0.0155204
681.062	0.0155513
681.140	0.0154742
681.218	0.0154247
681.297	0.0155237
681.375	0.0155748
681.453	0.0154267
681.531	0.0155750
681.609	0.0155662
681.687	0.0154554
681.765	0.0154164
681.843	0.0153451
681.922	0.0154665
682.000	0.0156426
682.078	0.0155732
682.156	0.0155658
682.234	0.0154708
682.312	0.0154095
682.390	0.0155798
682.468	0.0154925
682.547	0.0155801
682.625	0.0155343
682.703	0.0154184
682.781	0.0155848
682.859	0.0155667
682.937	0.0154765
683.015	0.0155242
683.093	0.0154749
683.172	0.0155742
683.250	0.0155899
683.328	0.0154389
683.406	0.0155198
683.484	0.0155283
683.562	0.0155803
683.640	0.0154541
683.718	0.0155458
683.797	0.0154164
683.875	0.0154210
683.953	0.0154292
684.031	0.0154789
684.109	0.0155277
684.187	0.0154951
684.265	0.0154828
684.343	0.0155254
684.422	0.0155936
684.500	0.0154800
684.578	0.0155082
684.656	0.0155791
684.734	0.0154069
684.812	0.0155068
684.890	0.0155348
684.968	0.0155578
685.047	0.0154656
685.125	0.0155171
685.203	0.0154087
685.281	0.0155057
685.359	0.0153618
685.437	0.0155145
685.515	0.0154214
685.593	0.0155466
685.672	0.0154317
685.750	0.0155081
685.828	0.0156158
685.906	0.0153510
685.984	0.0154291
686.062	0.0155708
686.140	0.0155085
686.218	0.0155108
686.297	0.0156223
686.375	0.0156028
686.453	0.0155806
686.531	0.0155743
686.609	0.0156021
686.687	0.0156786
686.765	0.0154575
686.843	0.0153754
686.922	0.0155788
687.000	0.0155360
687.078	0.0155280
687.156	0.0155919
687.234	0.0156126
687.312	0.0155062
687.390	0.0157124
687.468	0.0156235
687.547	0.0156596
687.625	0.0155385
687.703	0.0156476
687.781	0.0155259
687.859	0.0156274
687.937	0.0155996
688.015	0.0155606
688.093	0.0154524
688.172	0.0156786
688.250	0.0155981
688.328	0.0155133
688.406	0.0155730
688.484	0.0155440
688.562	0.0155968
688.640	0.0155610
688.718	0.0153130
688.797	0.0155241
688.875	0.0156634
688.953	0.0154227
689.031	0.0154662
689.109	0.0154470
689.187	0.0155147
689.265	0.0154773
689.343	0.0154130
689.422	0.0155766
689.500	0.0155926
689.578	0.0153564
689.656	0.0155656
689.734	0.0154743
689.812	0.0155975
689.890	0.0154586
689.968	0.0154415
690.047	0.0155795
690.125	0.0156368
690.203	0.0156400
690.281	0.0155836
690.359	0.0153946
690.437	0.0155123
690.515	0.0155229
690.593	0.0155382
690.672	0.0155151
690.750	0.0154070
690.828	0.0156583
690.906	0.0155296
690.984	0.0155802
691.062	0.0154192
691.140	0.0155627
691.218	0.0156093
691.297	0.0155197
691.375	0.0154679
691.453	0.0154425
691.531	0.0154811
691.609	0.0156142
691.687	0.0154887
691.765	0.0155987
691.843	0.0154879
691.922	0.0155215
692.000	0.0154057
692.078	0.0157180
692.156	0.0155785
692.234	0.0155389
692.312	0.0155116
692.390	0.0155119
692.468	0.0155814
692.547	0.0155002
692.625	0.0155447
692.703	0.0154936
692.781	0.0154948
692.859	0.0154192
692.937	0.0153886
693.015	0.0155084
693.093	0.0154109
693.172	0.0153737
693.250	0.0155028
693.328	0.0154900
693.406	0.0154423
693.484	0.0156651
693.562	0.0154497
693.640	0.0154397
693.718	0.0154135
693.797	0.0155405
693.875	0.0155312
693.953	0.0153892
694.031	0.0155807
694.109	0.0154460
694.187	0.0155869
694.265	0.0155417
694.343	0.0156139
694.422	0.0154738
694.500	0.0154340
694.578	0.0154848
694.656	0.0155073
694.734	0.0154729
694.812	0.0155087
694.890	0.0154813
694.968	0.0155330
695.047	0.0154912
695.125	0.0154823
695.203	0.0154896
695.281	0.0153708
695.359	0.0154403
695.437	0.0154368
695.515	0.0155227
695.593	0.0155315
695.672	0.0155453
695.750	0.0154931
695.828	0.0154910
695.906	0.0155205
695.984	0.0154161
696.062	0.0153855
696.140	0.0154288
696.218	0.0153787
696.297	0.0154640
696.375	0.0155013
696.453	0.0154327
696.531	0.0152337
696.609	0.0155459
696.687	0.0155638
696.765	0.0154631
696.843	0.0154118
696.922	0.0155698
697.000	0.0154870
697.078	0.0154977
697.156	0.0153978
697.234	0.0154504
697.312	0.0154721
697.390	0.0155497
697.468	0.0155380
697.547	0.0155535
697.625	0.0155482
697.703	0.0153846
697.781	0.0153989
697.859	0.0153828
697.937	0.0154882
698.015	0.0155263
698.093	0.0154268
698.172	0.0153554
698.250	0.0153645
698.328	0.0156215
698.406	0.0154419
698.484	0.0154034
698.562	0.0154446
698.640	0.0155419
698.718	0.0155719
698.797	0.0154388
698.875	0.0155494
698.953	0.0154955
699.031	0.0155093
699.109	0.0153673
699.187	0.0153352
699.265	0.0155579
699.343	0.0155618
699.422	0.0154193
699.500	0.0155717
699.578	0.0155513
699.656	0.0154658
699.734	0.0155505
699.812	0.0154775
699.890	0.0154263
699.968	0.0155715
700.047	0.0155019
700.125	0.0155565
700.203	0.0155900
700.281	0.0155644
700.359	0.0154673
700.437	0.0155451
700.515	0.0155094
700.593	0.0155330
700.672	0.0156071
700.750	0.0154971
700.828	0.0155594
700.906	0.0155720
700.984	0.0155109
701.062	0.0155389
701.140	0.0155741
701.218	0.0155354
701.297	0.0154955
701.375	0.0154144
701.453	0.0153826
701.531	0.0155315
701.609	0.0154234
701.687	0.0154931
701.765	0.0153909
701.843	0.0154838
701.922	0.0153230
702.000	0.0155306
702.078	0.0155328
702.156	0.0156187
702.234	0.0155885
702.312	0.0154904
702.390	0.0154907
702.468	0.0154863
702.547	0.0153513
702.625	0.0154491
702.703	0.0154987
702.781	0.0155434
702.859	0.0152902
702.937	0.0155374
703.015	0.0154835
703.093	0.0154913
703.172	0.0155280
703.250	0.0154056
703.328	0.0154539
703.406	0.0155980
703.484	0.0155833
703.562	0.0155254
703.640	0.0155413
703.718	0.0154003
703.797	0.0154807
703.875	0.0154845
703.953	0.0155162
704.031	0.0154649
704.109	0.0155080
704.187	0.0154908
704.265	0.0154780
704.343	0.0154647
704.422	0.0154448
704.500	0.0154335
704.578	0.0153626
704.656	0.0154265
704.734	0.0155174
704.812	0.0155418
704.890	0.0155666
704.968	0.0154171
705.047	0.0155379
705.125	0.0154240
705.203	0.0154225
705.281	0.0155672
705.359	0.0156270
705.437	0.0154696
705.515	0.0155312
705.593	0.0154622
705.672	0.0153267
705.750	0.0155135
705.828	0.0155705
705.906	0.0155891
705.984	0.0155191
706.062	0.0154218
706.140	0.0153922
706.218	0.0154170
706.297	0.0154012
706.375	0.0156022
706.453	0.0154661
706.531	0.0154607
706.609	0.0154583
706.687	0.0154285
706.765	0.0155698
706.843	0.0155029
706.922	0.0153381
707.000	0.0154579
707.078	0.0154535
707.156	0.0156334
707.234	0.0155414
707.312	0.0156583
707.390	0.0153933
707.468	0.0154318
707.547	0.0156647
707.625	0.0154028
707.703	0.0155591
707.781	0.0155399
707.859	0.0155482
707.937	0.0155305
708.015	0.0155263
708.093	0.0155092
708.172	0.0155037
708.250	0.0155001
708.328	0.0156963
708.406	0.0156133
708.484	0.0155595
708.562	0.0155074
708.640	0.0154575
708.718	0.0155393
708.797	0.0154996
708.875	0.0153712
708.953	0.0155423
709.031	0.0155364
709.109	0.0155555
709.187	0.0155036
709.265	0.0156260
709.343	0.0156075
709.422	0.0154700
709.500	0.0155247
709.578	0.0155548
709.656	0.0154961
709.734	0.0155075
709.812	0.0154681
709.890	0.0155202
709.968	0.0155812
710.047	0.0155274
710.125	0.0154531
710.203	0.0154663
710.281	0.0155430
710.359	0.0154836
710.437	0.0153933
710.515	0.0155537
710.593	0.0155216
710.672	0.0155215
710.750	0.0154264
710.828	0.0156741
710.906	0.0155034
710.984	0.0154337
711.062	0.0154726
711.140	0.0156173
711.218	0.0154118
711.297	0.0154050
711.375	0.0155398
711.453	0.0156222
711.531	0.0155325
711.609	0.0154847
711.687	0.0155985
711.765	0.0154720
711.843	0.0155011
711.922	0.0154119
712.000	0.0155136
712.078	0.0154874
712.156	0.0154196
712.234	0.0155025
712.312	0.0155630
712.390	0.0154746
712.468	0.0154294
712.547	0.0155700
712.625	0.0154634
712.703	0.0154877
712.781	0.0155244
712.859	0.0154436
712.937	0.0155081
713.015	0.0154530
713.093	0.0154472
713.172	0.0154274
713.250	0.0154459
713.328	0.0154424
713.406	0.0153576
713.484	0.0155783
713.562	0.0154800
713.640	0.0154484
713.718	0.0154764
713.797	0.0155396
713.875	0.0155679
713.953	0.0154541
714.031	0.0154207
714.109	0.0155772
714.187	0.0155081
714.265	0.0155025
714.343	0.0156210
714.422	0.0155862
714.500	0.0154928
714.578	0.0154736
714.656	0.0154308
714.734	0.0154369
714.812	0.0155298
714.890	0.0153951
714.968	0.0154895
715.047	0.0154180
715.125	0.0154816
715.203	0.0154594
715.281	0.0155141
715.359	0.0154347
715.437	0.0155616
715.515	0.0155228
715.593	0.0155662
715.672	0.0155109
715.750	0.0153854
715.828	0.0154415
715.906	0.0155104
715.984	0.0156106
716.062	0.0154944
716.140	0.0154227
716.218	0.0154779
716.297	0.0155250
716.375	0.0154973
716.453	0.0154149
716.531	0.0153069
716.609	0.0154585
716.687	0.0154514
716.765	0.0155187
716.843	0.0154271
716.922	0.0155496
717.000	0.0155664
717.078	0.0155209
717.156	0.0155206
717.234	0.0154666
717.312	0.0154887
717.390	0.0155565
717.468	0.0154947
717.547	0.0154206
717.625	0.0156055
717.703	0.0155109
717.781	0.0155770
717.859	0.0154501
717.937	0.0154976
718.015	0.0155136
718.093	0.0154644
718.172	0.0154723
718.250	0.0156105
718.328	0.0155130
718.406	0.0154978
718.484	0.0155041
718.562	0.0154755
718.640	0.0154485
718.718	0.0155174
718.797	0.0154865
718.875	0.0153740
718.953	0.0153214
719.031	0.0155232
719.109	0.0154620
719.187	0.0155898
719.265	0.0154478
719.343	0.0154000
719.422	0.0154836
719.500	0.0154638
719.578	0.0155892
719.656	0.0154699
719.734	0.0155087
719.812	0.0156507
719.890	0.0154456
719.968	0.0155386
720.047	0.0156006
720.125	0.0155962
720.203	0.0154974
720.281	0.0153481
720.359	0.0153925
720.437	0.0155093
720.515	0.0155953
720.593	0.0155503
720.672	0.0154824
720.750	0.0154594
720.828	0.0154520
720.906	0.0154603
720.984	0.0155736
721.062	0.0155414
721.140	0.0155045
721.218	0.0154734
721.297	0.0154704
721.375	0.0155206
721.453	0.0156005
721.531	0.0154671
721.609	0.0156220
721.687	0.0156200
721.765	0.0155595
721.843	0.0154898
721.922	0.0155161
722.000	0.0155297
722.078	0.0155050
722.156	0.0155317
722.234	0.0155606
722.312	0.0154249
722.390	0.0154786
722.468	0.0155502
722.547	0.0155836
722.625	0.0154630
722.703	0.0155708
722.781	0.0154885
722.859	0.0154388
722.937	0.0154086
723.015	0.0155659
723.093	0.0155773
723.172	0.0155891
723.250	0.0154360
723.328	0.0155331
723.406	0.0156883
723.484	0.0154594
723.562	0.0154842
723.640	0.0155671
723.718	0.0154813
723.797	0.0154523
723.875	0.0153957
723.953	0.0155641
724.031	0.0155334
724.109	0.0155251
724.187	0.0155374
724.265	0.0155846
724.343	0.0154822
724.422	0.0155062
724.500	0.0155275
724.578	0.0154977
724.656	0.0154444
724.734	0.0155355
724.812	0.0155598
724.890	0.0155538
724.968	0.0153883
725.047	0.0155255
725.125	0.0154786
725.203	0.0154528
725.281	0.0155070
725.359	0.0155183
725.437	0.0155886
725.515	0.0155416
725.593	0.0154517
725.672	0.0155153
725.750	0.0154765
725.828	0.0155147
725.906	0.0155441
725.984	0.0155225
726.062	0.0155077
726.140	0.0154930
726.218	0.0154946
726.297	0.0154842
726.375	0.0155259
726.453	0.0154622
726.531	0.0155318
726.609	0.0154553
726.687	0.0154129
726.765	0.0154620
726.843	0.0155520
726.922	0.0156079
727.000	0.0153796
727.078	0.0155392
727.156	0.0156318
727.234	0.0155651
727.312	0.0154786
727.390	0.0153697
727.468	0.0154607
727.547	0.0153926
727.625	0.0155166
727.703	0.0154768
727.781	0.0154314
727.859	0.0154817
727.937	0.0155887
728.015	0.0155392
728.093	0.0156154
728.172	0.0155270
728.250	0.0154697
728.328	0.0153996
728.406	0.0156348
728.484	0.0154980
728.562	0.0153968
728.640	0.0153754
728.718	0.0155308
728.797	0.0154424
728.875	0.0154713
728.953	0.0154356
729.031	0.0152865
729.109	0.0155028
729.187	0.0155580
729.265	0.0155086
729.343	0.0154646
729.422	0.0154636
729.500	0.0155299
729.578	0.0154604
729.656	0.0153203
729.734	0.0155048
729.812	0.0155331
729.890	0.0155094
729.968	0.0154585
730.047	0.0153945
730.125	0.0154420
730.203	0.0155765
730.281	0.0155289
730.359	0.0154858
730.437	0.0154750
730.515	0.0155067
730.593	0.0154739
730.672	0.0154910
730.750	0.0155220
730.828	0.0154033
730.906	0.0155083
730.984	0.0155299
731.062	0.0154673
731.140	0.0154025
731.218	0.0154298
731.297	0.0155836
731.375	0.0155899
731.453	0.0153465
731.531	0.0155431
731.609	0.0155175
731.687	0.0154926
731.765	0.0153822
731.843	0.0155916
731.922	0.0153941
732.000	0.0153947
732.078	0.0155552
732.156	0.0154522
732.234	0.0154946
732.312	0.0154530
732.390	0.0155355
732.468	0.0154912
732.547	0.0153999
732.625	0.0154501
732.703	0.0154745
732.781	0.0155553
732.859	0.0155540
732.937	0.0154347
733.015	0.0154336
733.093	0.0153600
733.172	0.0155643
733.250	0.0155138
733.328	0.0154601
733.406	0.0153194
733.484	0.0153755
733.562	0.0154687
733.640	0.0155772
733.718	0.0154569
733.797	0.0154860
733.875	0.0155266
733.953	0.0155200
734.031	0.0154585
734.109	0.0155334
734.187	0.0153690
734.265	0.0156013
734.343	0.0155242
734.422	0.0154228
734.500	0.0154328
734.578	0.0154337
734.656	0.0154108
734.734	0.0154225
734.812	0.0154574
734.890	0.0153870
734.968	0.0155779
735.047	0.0155201
735.125	0.0153963
735.203	0.0154023
735.281	0.0155717
735.359	0.0154166
735.437	0.0153612
735.515	0.0154164
735.593	0.0153937
735.672	0.0153959
735.750	0.0153605
735.828	0.0155229
735.906	0.0154823
735.984	0.0154841
736.062	0.0154848
736.140	0.0153765
736.218	0.0155222
736.297	0.0154726
736.375	0.0154552
736.453	0.0154729
736.531	0.0154971
736.609	0.0153850
736.687	0.0154811
736.765	0.0154203
736.843	0.0153518
736.922	0.0155008
737.000	0.0153847
737.078	0.0154355
737.156	0.0155856
737.234	0.0155403
737.312	0.0154275
737.390	0.0154964
737.468	0.0154746
737.547	0.0154739
737.625	0.0153671
737.703	0.0156429
737.781	0.0155273
737.859	0.0154832
737.937	0.0154906
738.015	0.0156093
738.093	0.0155927
738.172	0.0154642
738.250	0.0155802
738.328	0.0155720
738.406	0.0155561
738.484	0.0153480
738.562	0.0152930
738.640	0.0155286
738.718	0.0153856
738.797	0.0154781
738.875	0.0153717
738.953	0.0153310
739.031	0.0155324
739.109	0.0154441
739.187	0.0156499
739.265	0.0153472
739.343	0.0155517
739.422	0.0154198
739.500	0.0156289
739.578	0.0156398
739.656	0.0154358
739.734	0.0155588
739.812	0.0156140
739.890	0.0154176
739.968	0.0154919
740.047	0.0155170
740.125	0.0154668
740.203	0.0154451
740.281	0.0156495
740.359	0.0154028
740.437	0.0154956
740.515	0.0155305
740.593	0.0154411
740.672	0.0154448
740.750	0.0155219
740.828	0.0155788
740.906	0.0155824
740.984	0.0156654
741.062	0.0156517
741.140	0.0156126
741.218	0.0154953
741.297	0.0156161
741.375	0.0156645
741.453	0.0155368
741.531	0.0154832
741.609	0.0154254
741.687	0.0153956
741.765	0.0154005
741.843	0.0154230
741.922	0.0154166
742.000	0.0152801
742.078	0.0153830
742.156	0.0154322
742.234	0.0154295
742.312	0.0154847
742.390	0.0156129
742.468	0.0154626
742.547	0.0154520
742.625	0.0155656
742.703	0.0155751
742.781	0.0156799
742.859	0.0157021
742.937	0.0156995
743.015	0.0156057
743.093	0.0154577
743.172	0.0154967
743.250	0.0154055
743.328	0.0154366
743.406	0.0154099
743.484	0.0155134
743.562	0.0154144
743.640	0.0153038
743.718	0.0154031
743.797	0.0155099
743.875	0.0154932
743.953	0.0155372
744.031	0.0154197
744.109	0.0155741
744.187	0.0156554
744.265	0.0156846
744.343	0.0157114
744.422	0.0155621
744.500	0.0157069
744.578	0.0155762
744.656	0.0155252
744.734	0.0156660
744.812	0.0154616
744.890	0.0155171
744.968	0.0156664
745.047	0.0155439
745.125	0.0155508
745.203	0.0156947
745.281	0.0155779
745.359	0.0156523
745.437	0.0156895
745.515	0.0157449
745.593	0.0157738
745.672	0.0156898
745.750	0.0157348
745.828	0.0157564
745.906	0.0157322
745.984	0.0158398
746.062	0.0155733
746.140	0.0154543
746.218	0.0154020
746.297	0.0154839
746.375	0.0154120
746.453	0.0151446
746.531	0.0151817
746.609	0.0152721
746.687	0.0149545
746.765	0.0148993
746.843	0.0149347
746.922	0.0149920
747.000	0.0148984
747.078	0.0147720
747.156	0.0149241
747.234	0.0150484
747.312	0.0152905
747.390	0.0155766
747.468	0.0156011
747.547	0.0159405
747.625	0.0160934
747.703	0.0160162
747.781	0.0161417
747.859	0.0162237
747.937	0.0163233
748.015	0.0162160
748.093	0.0160519
748.172	0.0161095
748.250	0.0159633
748.328	0.0159618
748.406	0.0158690
748.484	0.0159178
748.562	0.0159061
748.640	0.0158593
748.718	0.0158437
748.797	0.0159397
748.875	0.0157669
748.953	0.0156536
749.031	0.0157410
749.109	0.0155822
749.187	0.0154026
749.265	0.0155046
749.343	0.0152770
749.422	0.0152270
749.500	0.0149658
749.578	0.0149370
749.656	0.0148460
749.734	0.0145121
749.812	0.0145274
749.890	0.0144353
749.968	0.0144685
750.047	0.0144012
750.125	0.0144195
750.203	0.0144067
750.281	0.0144669
750.359	0.0145962
750.437	0.0146986
750.515	0.0149964
750.593	0.0149344
750.672	0.0151952
750.750	0.0154777
750.828	0.0156001
750.906	0.0157936
750.984	0.0159296
751.062	0.0161823
751.140	0.0163085
751.218	0.0164693
751.297	0.0166360
751.375	0.0165392
751.453	0.0168278
751.531	0.0168480
751.609	0.0169621
751.687	0.0171235
751.765	0.0171703
751.843	0.0172292
751.922	0.0174377
752.000	0.0175245
752.078	0.0176500
752.156	0.0176974
752.234	0.0176895
752.312	0.0173514
752.390	0.0172962
752.468	0.0169801
752.547	0.0163312
752.625	0.0160280
752.703	0.0153806
752.781	0.0147417
752.859	0.0142739
752.937	0.0135799
753.015	0.0129428
753.093	0.0123274
753.172	0.0117278
753.250	0.0111189
753.328	0.0107372
753.406	0.0105011
753.484	0.0103771
753.562	0.0102353
753.640	0.0103620
753.718	0.0107132
753.797	0.0109735
753.875	0.0116107
753.953	0.0124448
754.031	0.0131969
754.109	0.0141209
754.187	0.0151258
754.265	0.0161641
754.343	0.0173051
754.422	0.0183349
754.500	0.0192596
754.578	0.0198759
754.656	0.0206081
754.734	0.0210790
754.812	0.0214069
754.890	0.0214907
754.968	0.0216701
755.047	0.0214172
755.125	0.0213622
755.203	0.0209595
755.281	0.0205622
755.359	0.0200964
755.437	0.0196494
755.515	0.0190578
755.593	0.0185106
755.672	0.0180347
755.750	0.0172961
755.828	0.0165231
755.906	0.0158912
755.984	0.0152488
756.062	0.0145805
756.140	0.0138971
756.218	0.0132264
756.297	0.0125768
756.375	0.0118603
756.453	0.0112750
756.531	0.0107094
756.609	0.00977020
756.687	0.00914253
756.765	0.00882965
756.843	0.00834801
756.922	0.00790497
757.000	0.00773514
757.078	0.00793434
757.156	0.00802620
757.234	0.00850304
757.312	0.00914459
757.390	0.00988365
757.468	0.0109192
757.547	0.0119576
757.625	0.0131395
757.703	0.0143742
757.781	0.0157864
757.859	0.0170602
757.937	0.0184048
758.015	0.0196476
758.093	0.0206611
758.172	0.0218795
758.250	0.0228093
758.328	0.0235558
758.406	0.0239129
758.484	0.0241778
758.562	0.0242268
758.640	0.0239790
758.718	0.0234991
758.797	0.0229664
758.875	0.0221483
758.953	0.0212411
759.031	0.0202319
759.109	0.0194985
759.187	0.0184984
759.265	0.0173717
759.343	0.0164442
759.422	0.0155128
759.500	0.0148174
759.578	0.0140968
759.656	0.0133984
759.734	0.0129875
759.812	0.0124628
759.890	0.0120529
759.968	0.0119434
760.047	0.0117839
760.125	0.0116644
760.203	0.0115196
760.281	0.0116520
760.359	0.0115458
760.437	0.0115732
760.515	0.0117109
760.593	0.0116727
760.672	0.0116797
760.750	0.0115668
760.828	0.0113770
760.906	0.0113898
760.984	0.0112347
761.062	0.0113305
761.140	0.0112684
761.218	0.0114795
761.297	0.0116399
761.375	0.0117503
761.453	0.0121547
761.531	0.0127682
761.609	0.0135007
761.687	0.0142506
761.765	0.0149329
761.843	0.0156013
761.922	0.0163546
762.000	0.0172279
762.078	0.0179514
762.156	0.0186752
762.234	0.0192540
762.312	0.0197659
762.390	0.0201013
762.468	0.0204330
762.547	0.0208675
762.625	0.0209184
762.703	0.0209304
762.781	0.0210374
762.859	0.0209812
762.937	0.0209168
763.015	0.0206758
763.093	0.0206582
763.172	0.0202895
763.250	0.0198772
763.328	0.0197121
763.406	0.0193797
763.484	0.0187846
763.562	0.0185849
763.640	0.0182227
763.718	0.0176411
763.797	0.0171588
763.875	0.0167857
763.953	0.0161932
764.031	0.0153588
764.109	0.0148059
764.187	0.0142782
764.265	0.0132072
764.343	0.0122676
764.422	0.0111785
764.500	0.0101626
764.578	0.00905907
764.656	0.00795059
764.734	0.00730919
764.812	0.00654404
764.890	0.00599762
764.968	0.00596733
765.047	0.00594757
765.125	0.00632240
765.203	0.00705299
765.281	0.00801300
765.359	0.00906532
765.437	0.0106139
765.515	0.0122060
765.593	0.0138856
765.672	0.0156368
765.750	0.0171011
765.828	0.0188795
765.906	0.0203455
765.984	0.0214948
766.062	0.0223479
766.140	0.0231147
766.218	0.0234741
766.297	0.0235767
766.375	0.0233356
766.453	0.0227963
766.531	0.0220976
766.609	0.0213554
766.687	0.0206490
766.765	0.0196301
766.843	0.0187529
766.922	0.0178198
767.000	0.0172737
767.078	0.0167862
767.156	0.0161958
767.234	0.0160847
767.312	0.0160619
767.390	0.0159334
767.468	0.0159960
767.547	0.0159886
767.625	0.0161078
767.703	0.0161211
767.781	0.0160788
767.859	0.0158766
767.937	0.0154589
768.015	0.0148751
768.093	0.0140134
768.172	0.0133109
768.250	0.0127125
768.328	0.0117490
768.406	0.0107333
768.484	0.00989403
768.562	0.00923782
768.640	0.00876633
768.718	0.00836960
768.797	0.00827080
768.875	0.00826370
768.953	0.00878098
769.031	0.00952568
769.109	0.0104111
769.187	0.0114724
769.265	0.0129428
769.343	0.0144893
769.422	0.0159924
769.500	0.0175114
769.578	0.0192802
769.656	0.0206561
769.734	0.0221626
769.812	0.0232369
769.890	0.0239191
769.968	0.0242471
770.047	0.0244191
770.125	0.0241306
770.203	0.0234280
770.281	0.0226968
770.359	0.0218671
770.437	0.0204383
770.515	0.0190253
770.593	0.0176669
770.672	0.0160882
770.750	0.0147634
770.828	0.0134406
770.906	0.0124286
770.984	0.0115819
771.062	0.0109432
771.140	0.0106532
771.218	0.0107146
771.297	0.0106035
771.375	0.0109608
771.453	0.0113439
771.531	0.0119680
771.609	0.0124146
771.687	0.0127914
771.765	0.0133022
771.843	0.0135981
771.922	0.0136939
772.000	0.0136991
772.078	0.0137434
772.156	0.0135658
772.234	0.0131648
772.312	0.0130257
772.390	0.0126736
772.468	0.0123889
772.547	0.0126350
772.625	0.0126025
772.703	0.0128790
772.781	0.0133568
772.859	0.0137167
772.937	0.0145151
773.015	0.0152617
773.093	0.0162126
773.172	0.0173361
773.250	0.0183980
773.328	0.0194919
773.406	0.0204427
773.484	0.0214371
773.562	0.0222205
773.640	0.0227592
773.718	0.0230270
773.797	0.0230438
773.875	0.0228130
773.953	0.0222222
774.031	0.0216074
774.109	0.0206647
774.187	0.0196059
774.265	0.0185818
774.343	0.0173273
774.422	0.0159122
774.500	0.0147006
774.578	0.0136038
774.656	0.0124847
774.734	0.0118161
774.812	0.0111358
774.890	0.0105972
774.968	0.0103418
775.047	0.0102895
775.125	0.0104060
775.203	0.0106232
775.281	0.0110213
775.359	0.0114236
775.437	0.0119336
775.515	0.0125986
775.593	0.0131025
775.672	0.0135416
775.750	0.0140809
775.828	0.0144106
775.906	0.0146355
775.984	0.0148733
776.062	0.0150375
776.140	0.0150658
776.218	0.0153645
776.297	0.0150112
776.375	0.0149733
776.453	0.0148012
776.531	0.0147752
776.609	0.0145917
776.687	0.0145258
776.765	0.0145254
776.843	0.0146771
776.922	0.0147581
777.000	0.0152070
777.078	0.0156482
777.156	0.0160305
777.234	0.0165604
777.312	0.0170574
777.390	0.0174430
777.468	0.0179355
777.547	0.0184003
777.625	0.0186668
777.703	0.0189359
777.781	0.0190263
777.859	0.0190504
777.937	0.0189348
778.015	0.0187167
778.093	0.0184248
778.172	0.0179512
778.250	0.0174135
778.328	0.0167986
778.406	0.0161413
778.484	0.0156621
778.562	0.0151376
778.640	0.0146330
778.718	0.0142348
778.797	0.0138810
778.875	0.0136047
778.953	0.0136094
779.031	0.0136535
779.109	0.0137825
779.187	0.0139713
779.265	0.0141496
779.343	0.0144116
779.422	0.0147961
779.500	0.0150146
779.578	0.0152153
779.656	0.0155737
779.734	0.0154953
779.812	0.0156886
779.890	0.0155729
779.968	0.0158974
780.047	0.0157523
780.125	0.0157161
780.203	0.0154766
780.281	0.0154511
780.359	0.0152995
780.437	0.0151766
780.515	0.0150268
780.593	0.0150711
780.672	0.0148923
780.750	0.0150043
780.828	0.0150776
780.906	0.0150878
780.984	0.0151791
781.062	0.0150920
781.140	0.0152613
781.218	0.0154024
781.297	0.0153619
781.375	0.0155301
781.453	0.0156964
781.531	0.0156625
781.609	0.0158278
781.687	0.0157926
781.765	0.0157518
781.843	0.0158108
781.922	0.0157437
782.000	0.0157463
782.078	0.0158183
782.156	0.0156950
782.234	0.0156445
782.312	0.0157163
782.390	0.0154605
782.468	0.0156494
782.547	0.0154761
782.625	0.0154725
782.703	0.0154568
782.781	0.0155396
782.859	0.0154843
782.937	0.0153510
783.015	0.0154794
783.093	0.0153255
783.172	0.0153252
783.250	0.0153241
783.328	0.0153277
783.406	0.0154071
783.484	0.0153728
783.562	0.0153333
783.640	0.0154288
783.718	0.0155312
783.797	0.0155765
783.875	0.0156144
783.953	0.0156429
784.031	0.0157176
784.109	0.0157587
784.187	0.0159659
784.265	0.0159292
784.343	0.0160747
784.422	0.0162140
784.500	0.0161193
784.578	0.0161843
784.656	0.0161391
784.734	0.0161765
784.812	0.0160036
784.890	0.0160115
784.968	0.0159083
785.047	0.0157339
785.125	0.0156316
785.203	0.0155708
785.281	0.0154377
785.359	0.0154015
785.437	0.0152086
785.515	0.0152935
785.593	0.0150468
785.672	0.0151372
785.750	0.0151820
785.828	0.0151112
785.906	0.0151853
785.984	0.0152402
786.062	0.0154446
786.140	0.0155866
786.218	0.0155843
786.297	0.0155881
786.375	0.0154978
786.453	0.0157660
786.531	0.0157967
786.609	0.0159659
786.687	0.0159826
786.765	0.0157990
786.843	0.0156970
786.922	0.0157684
787.000	0.0157217
787.078	0.0155675
787.156	0.0152811
787.234	0.0152757
787.312	0.0151857
787.390	0.0152286
787.468	0.0150919
787.547	0.0151566
787.625	0.0150687
787.703	0.0150577
787.781	0.0150438
787.859	0.0151849
787.937	0.0152252
788.015	0.0152566
788.093	0.0152247
788.172	0.0152889
788.250	0.0153379
788.328	0.0153722
788.406	0.0154747
788.484	0.0153667
788.562	0.0155709
788.640	0.0155305
788.718	0.0155301
788.797	0.0152182
788.875	0.0153300
788.953	0.0149872
789.031	0.0150681
789.109	0.0150143
789.187	0.0149213
789.265	0.0149319
789.343	0.0149372
789.422	0.0150314
789.500	0.0150639
789.578	0.0150497
789.656	0.0151731
789.734	0.0154294
789.812	0.0156704
789.890	0.0156988
789.968	0.0160621
790.047	0.0161646
790.125	0.0163008
790.203	0.0165622
790.281	0.0165876
790.359	0.0168462
790.437	0.0167809
790.515	0.0166893
790.593	0.0166972
790.672	0.0166288
790.750	0.0165634
790.828	0.0162804
790.906	0.0161339
790.984	0.0160521
791.062	0.0156028
791.140	0.0155431
791.218	0.0154509
791.297	0.0152347
791.375	0.0152378
791.453	0.0152583
791.531	0.0152585
791.609	0.0152592
791.687	0.0152022
791.765	0.0153023
791.843	0.0151829
791.922	0.0152744
792.000	0.0153008
792.078	0.0153343
792.156	0.0154108
792.234	0.0153986
792.312	0.0154237
792.390	0.0151499
792.468	0.0152235
792.547	0.0152158
792.625	0.0150485
792.703	0.0149981
792.781	0.0148880
792.859	0.0147099
792.937	0.0147847
793.015	0.0148778
793.093	0.0148634
793.172	0.0147730
793.250	0.0148283
793.328	0.0150136
793.406	0.0152590
793.484	0.0153276
793.562	0.0153951
793.640	0.0155687
793.718	0.0156781
793.797	0.0158649
793.875	0.0159648
793.953	0.0161434
794.031	0.0160146
794.109	0.0157392
794.187	0.0159013
794.265	0.0161046
794.343	0.0158787
794.422	0.0157657
794.500	0.0157230
794.578	0.0156090
794.656	0.0153336
794.734	0.0153638
794.812	0.0152361
794.890	0.0150431
794.968	0.0150060
795.047	0.0151641
795.125	0.0152692
795.203	0.0152991
795.281	0.0153996
795.359	0.0154138
795.437	0.0155695
795.515	0.0155601
795.593	0.0157398
795.672	0.0156886
795.750	0.0157530
795.828	0.0156430
795.906	0.0155647
795.984	0.0156569
796.062	0.0155774
796.140	0.0153442
796.218	0.0153155
796.297	0.0151266
796.375	0.0152009
796.453	0.0149461
796.531	0.0148888
796.609	0.0149976
796.687	0.0149464
796.765	0.0149624
796.843	0.0149369
796.922	0.0151683
797.000	0.0151628
797.078	0.0154183
797.156	0.0154809
797.234	0.0157698
797.312	0.0158856
797.390	0.0161366
797.468	0.0163694
797.547	0.0162701
797.625	0.0162230
797.703	0.0163660
797.781	0.0164090
797.859	0.0163321
797.937	0.0163018
798.015	0.0161755
798.093	0.0160151
798.172	0.0158850
798.250	0.0157377
798.328	0.0157567
798.406	0.0155491
798.484	0.0154841
798.562	0.0153773
798.640	0.0150527
798.718	0.0150534
798.797	0.0152824
798.875	0.0151977
798.953	0.0151829
799.031	0.0151590
799.109	0.0152491
799.187	0.0153011
799.265	0.0153193
799.343	0.0151417
799.422	0.0153195
799.500	0.0153757
799.578	0.0151824
799.656	0.0152537
799.734	0.0152399
799.812	0.0151469
799.890	0.0149789
799.968	0.0151234
800.047	0.0150607
800.125	0.0151112
800.203	0.0149510
800.281	0.0150471
800.359	0.0148508
800.437	0.0149364
800.515	0.0149899
800.593	0.0149741
800.672	0.0151575
800.750	0.0151629
800.828	0.0154292
800.906	0.0153046
800.984	0.0153011
801.062	0.0155473
801.140	0.0155593
801.218	0.0156688
801.297	0.0156789
801.375	0.0157654
801.453	0.0159630
801.531	0.0158125
801.609	0.0158338
801.687	0.0159293
801.765	0.0158685
801.843	0.0158192
801.922	0.0157995
802.000	0.0157919
802.078	0.0157212
802.156	0.0157571
802.234	0.0157359
802.312	0.0157368
802.390	0.0158430
802.468	0.0157156
802.547	0.0158624
802.625	0.0157192
802.703	0.0158195
802.781	0.0159135
802.859	0.0158764
802.937	0.0159198
803.015	0.0158474
803.093	0.0158640
803.172	0.0158192
803.250	0.0158234
803.328	0.0157045
803.406	0.0157145
803.484	0.0156606
803.562	0.0157091
803.640	0.0154939
803.718	0.0153935
803.797	0.0154928
803.875	0.0155331
803.953	0.0155865
804.031	0.0154074
804.109	0.0153494
804.187	0.0153166
804.265	0.0153545
804.343	0.0153954
804.422	0.0155849
804.500	0.0153680
804.578	0.0153191
804.656	0.0153984
804.734	0.0153967
804.812	0.0154742
804.890	0.0153038
804.968	0.0152494
805.047	0.0153555
805.125	0.0152369
805.203	0.0152530
805.281	0.0150450
805.359	0.0151741
805.437	0.0152378
805.515	0.0152200
805.593	0.0152250
805.672	0.0151627
805.750	0.0151464
805.828	0.0151373
805.906	0.0151010
805.984	0.0151388
806.062	0.0152516
806.140	0.0152673
806.218	0.0152682
806.297	0.0153495
806.375	0.0155348
806.453	0.0155305
806.531	0.0155576
806.609	0.0153455
806.687	0.0155553
806.765	0.0155075
806.843	0.0157401
806.922	0.0156898
807.000	0.0155312
807.078	0.0155956
807.156	0.0154930
807.234	0.0156649
807.312	0.0155888
807.390	0.0153496
807.468	0.0155451
807.547	0.0154925
807.625	0.0154083
807.703	0.0154673
807.781	0.0154417
807.859	0.0153755
807.937	0.0154493
808.015	0.0156407
808.093	0.0156097
808.172	0.0156915
808.250	0.0156712
808.328	0.0158178
808.406	0.0160587
808.484	0.0160812
808.562	0.0160703
808.640	0.0161929
808.718	0.0161588
808.797	0.0161903
808.875	0.0161528
808.953	0.0160724
809.031	0.0159244
809.109	0.0160266
809.187	0.0159617
809.265	0.0158154
809.343	0.0155688
809.422	0.0156111
809.500	0.0155753
809.578	0.0153491
809.656	0.0153210
809.734	0.0151976
809.812	0.0151196
809.890	0.0150288
809.968	0.0149881
810.047	0.0150407
810.125	0.0151597
810.203	0.0150175
810.281	0.0150938
810.359	0.0151629
810.437	0.0151299
810.515	0.0151504
810.593	0.0153972
810.672	0.0153434
810.750	0.0153609
810.828	0.0156187
810.906	0.0154626
810.984	0.0154376
811.062	0.0156900
811.140	0.0156287
811.218	0.0155316
811.297	0.0156838
811.375	0.0155683
811.453	0.0155808
811.531	0.0155782
811.609	0.0155515
811.687	0.0156489
811.765	0.0156286
811.843	0.0155728
811.922	0.0156763
812.000	0.0158069
812.078	0.0156454
812.156	0.0157858
812.234	0.0156841
812.312	0.0156739
812.390	0.0155959
812.468	0.0155636
812.547	0.0155150
812.625	0.0153593
812.703	0.0153637
812.781	0.0151045
812.859	0.0152785
812.937	0.0152196
813.015	0.0151815
813.093	0.0150277
813.172	0.0151582
813.250	0.0150999
813.328	0.0150011
813.406	0.0151670
813.484	0.0151707
813.562	0.0151936
813.640	0.0151170
813.718	0.0152518
813.797	0.0154876
813.875	0.0153072
813.953	0.0155350
814.031	0.0155399
814.109	0.0156570
814.187	0.0157655
814.265	0.0159090
814.343	0.0158200
814.422	0.0158922
814.500	0.0158923
814.578	0.0159495
814.656	0.0160565
814.734	0.0160370
814.812	0.0160695
814.890	0.0160276
814.968	0.0159877
815.047	0.0160750
815.125	0.0161436
815.203	0.0159357
815.281	0.0159280
815.359	0.0157960
815.437	0.0157827
815.515	0.0158517
815.593	0.0156359
815.672	0.0156733
815.750	0.0156470
815.828	0.0155663
815.906	0.0154791
815.984	0.0153146
816.062	0.0153822
816.140	0.0153923
816.218	0.0152876
816.297	0.0153210
816.375	0.0151916
816.453	0.0151939
816.531	0.0151308
816.609	0.0151598
816.687	0.0151592
816.765	0.0151406
816.843	0.0152490
816.922	0.0151559
817.000	0.0152945
817.078	0.0152415
817.156	0.0153342
817.234	0.0153561
817.312	0.0152391
817.390	0.0153475
817.468	0.0152076
817.547	0.0152274
817.625	0.0152967
817.703	0.0153400
817.781	0.0154861
817.859	0.0153286
817.937	0.0153568
818.015	0.0152932
818.093	0.0153361
818.172	0.0152825
818.250	0.0155236
818.328	0.0153026
818.406	0.0153768
818.484	0.0153641
818.562	0.0153177
818.640	0.0154373
818.718	0.0154497
818.797	0.0154888
818.875	0.0156477
818.953	0.0155907
819.031	0.0156980
819.109	0.0159352
819.187	0.0158583
819.265	0.0159430
819.343	0.0160224
819.422	0.0160216
819.500	0.0160877
819.578	0.0160579
819.656	0.0160037
819.734	0.0160825
819.812	0.0160518
819.890	0.0159539
819.968	0.0159020
820.047	0.0158237
820.125	0.0156184
820.203	0.0154464
820.281	0.0156341
820.359	0.0155128
820.437	0.0154819
820.515	0.0154036
820.593	0.0152443
820.672	0.0151669
820.750	0.0150968
820.828	0.0150628
820.906	0.0150508
820.984	0.0149884
821.062	0.0149995
821.140	0.0148119
821.218	0.0148188
821.297	0.0150482
821.375	0.0150129
821.453	0.0148884
821.531	0.0150925
821.609	0.0150122
821.687	0.0151841
821.765	0.0152630
821.843	0.0153229
821.922	0.0154133
822.000	0.0154971
822.078	0.0154762
822.156	0.0156165
822.234	0.0154923
822.312	0.0157166
822.390	0.0156915
822.468	0.0159339
822.547	0.0161195
822.625	0.0159350
822.703	0.0159926
822.781	0.0160172
822.859	0.0159573
822.937	0.0159026
823.015	0.0159361
823.093	0.0159564
823.172	0.0158685
823.250	0.0159475
823.328	0.0157552
823.406	0.0156426
823.484	0.0156308
823.562	0.0155872
823.640	0.0155338
823.718	0.0154518
823.797	0.0154797
823.875	0.0155031
823.953	0.0152711
824.031	0.0153136
824.109	0.0151619
824.187	0.0151958
824.265	0.0152640
824.343	0.0152223
824.422	0.0153279
824.500	0.0153506
824.578	0.0152306
824.656	0.0151995
824.734	0.0152746
824.812	0.0152129
824.890	0.0152097
824.968	0.0152602
825.047	0.0152911
825.125	0.0153172
825.203	0.0153174
825.281	0.0153594
825.359	0.0152164
825.437	0.0154346
825.515	0.0153283
825.593	0.0153172
825.672	0.0154473
825.750	0.0153857
825.828	0.0154550
825.906	0.0154471
825.984	0.0154011
826.062	0.0155245
826.140	0.0156635
826.218	0.0155737
826.297	0.0155318
826.375	0.0156815
826.453	0.0157320
826.531	0.0156099
826.609	0.0157654
826.687	0.0156071
826.765	0.0156105
826.843	0.0157484
826.922	0.0156265
827.000	0.0155972
827.078	0.0157305
827.156	0.0155762
827.234	0.0156612
827.312	0.0156979
827.390	0.0156184
827.468	0.0155488
827.547	0.0155227
827.625	0.0156089
827.703	0.0155785
827.781	0.0155619
827.859	0.0155434
827.937	0.0156342
828.015	0.0156371
828.093	0.0156320
828.172	0.0155938
828.250	0.0156887
828.328	0.0155151
828.406	0.0155293
828.484	0.0155722
828.562	0.0154951
828.640	0.0154978
828.718	0.0154465
828.797	0.0154443
828.875	0.0154144
828.953	0.0154556
829.031	0.0154220
829.109	0.0154648
829.187	0.0153326
829.265	0.0152089
829.343	0.0152740
829.422	0.0153516
829.500	0.0152319
829.578	0.0152525
829.656	0.0151788
829.734	0.0152510
829.812	0.0151889
829.890	0.0153014
829.968	0.0154448
830.047	0.0153436
830.125	0.0153291
830.203	0.0153531
830.281	0.0154539
830.359	0.0155864
830.437	0.0154795
830.515	0.0156010
830.593	0.0156608
830.672	0.0156656
830.750	0.0157216
830.828	0.0156318
830.906	0.0157964
830.984	0.0156444
831.062	0.0155832
831.140	0.0157874
831.218	0.0157181
831.297	0.0155528
831.375	0.0154431
831.453	0.0156095
831.531	0.0157361
831.609	0.0156046
831.687	0.0156110
831.765	0.0157408
831.843	0.0155761
831.922	0.0156000
832.000	0.0154950
832.078	0.0154331
832.156	0.0156197
832.234	0.0153593
832.312	0.0154197
832.390	0.0154041
832.468	0.0153012
832.547	0.0153490
832.625	0.0153250
832.703	0.0153496
832.781	0.0152313
832.859	0.0153427
832.937	0.0153053
833.015	0.0152949
833.093	0.0152758
833.172	0.0154094
833.250	0.0155002
833.328	0.0155109
833.406	0.0154513
833.484	0.0153553
833.562	0.0155210
833.640	0.0154515
833.718	0.0155942
833.797	0.0155122
833.875	0.0154880
833.953	0.0156313
834.031	0.0156053
834.109	0.0156098
834.187	0.0156079
834.265	0.0156037
834.343	0.0155886
834.422	0.0155904
834.500	0.0155585
834.578	0.0156580
834.656	0.0156494
834.734	0.0156149
834.812	0.0157374
834.890	0.0156354
834.968	0.0156445
835.047	0.0157631
835.125	0.0156939
835.203	0.0158516
835.281	0.0157066
835.359	0.0157661
835.437	0.0157568
835.515	0.0156702
835.593	0.0156969
835.672	0.0158835
835.750	0.0156790
835.828	0.0156431
835.906	0.0157024
835.984	0.0155267
836.062	0.0157189
836.140	0.0156069
836.218	0.0155627
836.297	0.0156311
836.375	0.0154770
836.453	0.0153889
836.531	0.0154974
836.609	0.0154441
836.687	0.0153551
836.765	0.0154469
836.843	0.0155383
836.922	0.0154278
837.000	0.0153700
837.078	0.0154866
837.156	0.0154700
837.234	0.0154705
837.312	0.0154179
837.390	0.0154789
837.468	0.0154423
837.547	0.0153807
837.625	0.0154613
837.703	0.0154610
837.781	0.0155428
837.859	0.0152981
837.937	0.0152586
838.015	0.0155190
838.093	0.0154806
838.172	0.0154121
838.250	0.0154208
838.328	0.0154208
838.406	0.0153725
838.484	0.0154659
838.562	0.0154037
838.640	0.0155293
838.718	0.0153635
838.797	0.0153854
838.875	0.0155029
838.953	0.0155414
839.031	0.0154454
839.109	0.0155077
839.187	0.0153986
839.265	0.0156610
839.343	0.0156595
839.422	0.0155168
839.500	0.0155522
839.578	0.0156472
839.656	0.0156016
839.734	0.0155370
839.812	0.0155957
839.890	0.0156057
839.968	0.0155892
840.047	0.0156212
840.125	0.0156221
840.203	0.0157289
840.281	0.0155458
840.359	0.0157780
840.437	0.0155886
840.515	0.0156365
840.593	0.0155989
840.672	0.0155964
840.750	0.0155208
840.828	0.0155861
840.906	0.0155012
840.984	0.0155380
841.062	0.0154386
841.140	0.0154379
841.218	0.0155731
841.297	0.0154250
841.375	0.0156229
841.453	0.0155151
841.531	0.0154868
841.609	0.0155842
841.687	0.0156006
841.765	0.0156606
841.843	0.0156793
841.922	0.0156079
842.000	0.0155923
842.078	0.0156107
842.156	0.0155881
842.234	0.0155986
842.312	0.0154947
842.390	0.0155176
842.468	0.0155372
842.547	0.0155691
842.625	0.0155082
842.703	0.0153305
842.781	0.0153332
842.859	0.0154660
842.937	0.0155096
843.015	0.0155401
843.093	0.0155989
843.172	0.0155119
843.250	0.0154731
843.328	0.0154629
843.406	0.0154729
843.484	0.0154440
843.562	0.0153704
843.640	0.0153622
843.718	0.0153573
843.797	0.0153806
843.875	0.0154833
843.953	0.0153062
844.031	0.0151829
844.109	0.0153981
844.187	0.0152854
844.265	0.0153908
844.343	0.0153913
844.422	0.0153760
844.500	0.0154852
844.578	0.0153458
844.656	0.0152277
844.734	0.0152293
844.812	0.0153947
844.890	0.0154599
844.968	0.0156001
845.047	0.0155137
845.125	0.0154175
845.203	0.0154062
845.281	0.0154362
845.359	0.0155095
845.437	0.0154414
845.515	0.0154133
845.593	0.0153320
845.672	0.0154317
845.750	0.0155025
845.828	0.0156095
845.906	0.0155405
845.984	0.0154851
846.062	0.0155129
846.140	0.0155988
846.218	0.0156573
846.297	0.0155665
846.375	0.0155236
846.453	0.0154814
846.531	0.0155032
846.609	0.0155408
846.687	0.0154626
846.765	0.0154790
846.843	0.0155172
846.922	0.0155236
847.000	0.0154945
847.078	0.0155659
847.156	0.0155595
847.234	0.0153993
847.312	0.0154033
847.390	0.0155183
847.468	0.0155940
847.547	0.0154121
847.625	0.0154687
847.703	0.0154854
847.781	0.0157230
847.859	0.0156231
847.937	0.0155953
848.015	0.0155441
848.093	0.0156340
848.172	0.0156579
848.250	0.0156865
848.328	0.0157003
848.406	0.0157407
848.484	0.0157016
848.562	0.0157424
848.640	0.0156961
848.718	0.0155973
848.797	0.0157274
848.875	0.0156479
848.953	0.0156075
849.031	0.0155360
849.109	0.0155644
849.187	0.0155534
849.265	0.0155309
849.343	0.0155106
849.422	0.0155357
849.500	0.0153149
849.578	0.0152513
849.656	0.0152950
849.734	0.0152752
849.812	0.0150571
849.890	0.0150101
849.968	0.0149218
850.047	0.0149516
850.125	0.0149709
850.203	0.0149399
850.281	0.0149054
850.359	0.0148602
850.437	0.0150374
850.515	0.0150619
850.593	0.0149451
850.672	0.0149120
850.750	0.0151747
850.828	0.0152318
850.906	0.0154130
850.984	0.0153700
851.062	0.0155087
851.140	0.0155280
851.218	0.0157731
851.297	0.0158319
851.375	0.0158867
851.453	0.0159847
851.531	0.0161887
851.609	0.0162544
851.687	0.0162238
851.765	0.0163033
851.843	0.0164326
851.922	0.0162585
852.000	0.0163369
852.078	0.0163216
852.156	0.0162885
852.234	0.0163142
852.312	0.0162251
852.390	0.0160477
852.468	0.0159277
852.547	0.0160623
852.625	0.0159588
852.703	0.0158320
852.781	0.0155849
852.859	0.0154970
852.937	0.0153990
853.015	0.0151662
853.093	0.0150877
853.172	0.0150057
853.250	0.0147725
853.328	0.0148244
853.406	0.0147151
853.484	0.0145290
853.562	0.0144845
853.640	0.0146139
853.718	0.0145653
853.797	0.0145528
853.875	0.0144141
853.953	0.0145274
854.031	0.0146216
854.109	0.0146211
854.187	0.0146848
854.265	0.0148756
854.343	0.0150355
854.422	0.0150475
854.500	0.0151974
854.578	0.0153332
854.656	0.0155468
854.734	0.0156449
854.812	0.0159025
854.890	0.0160193
854.968	0.0162465
855.047	0.0162290
855.125	0.0163936
855.203	0.0163884
855.281	0.0165795
855.359	0.0165343
855.437	0.0166498
855.515	0.0165576
855.593	0.0166524
855.672	0.0164626
855.750	0.0164008
855.828	0.0163534
855.906	0.0163001
855.984	0.0161957
856.062	0.0161251
856.140	0.0158674
856.218	0.0159116
856.297	0.0157355
856.375	0.0156113
856.453	0.0155637
856.531	0.0154581
856.609	0.0152218
856.687	0.0152142
856.765	0.0151187
856.843	0.0150127
856.922	0.0149654
857.000	0.0149382
857.078	0.0147674
857.156	0.0147513
857.234	0.0146870
857.312	0.0147180
857.390	0.0145493
857.468	0.0145744
857.547	0.0145738
857.625	0.0145492
857.703	0.0144648
857.781	0.0146027
857.859	0.0146092
857.937	0.0147249
858.015	0.0148914
858.093	0.0147800
858.172	0.0148371
858.250	0.0151582
858.328	0.0152414
858.406	0.0153535
858.484	0.0154305
858.562	0.0155238
858.640	0.0158128
858.718	0.0157792
858.797	0.0159586
858.875	0.0159490
858.953	0.0160752
859.031	0.0162144
859.109	0.0164635
859.187	0.0164864
859.265	0.0164659
859.343	0.0165379
859.422	0.0165462
859.500	0.0165581
859.578	0.0167949
859.656	0.0165574
859.734	0.0166573
859.812	0.0166451
859.890	0.0165775
859.968	0.0165595
860.047	0.0163939
860.125	0.0163293
860.203	0.0162835
860.281	0.0162102
860.359	0.0161108
860.437	0.0159445
860.515	0.0156546
860.593	0.0155276
860.672	0.0153727
860.750	0.0153510
860.828	0.0151168
860.906	0.0150445
860.984	0.0148922
861.062	0.0146745
861.140	0.0146259
861.218	0.0146606
861.297	0.0144579
861.375	0.0143682
861.453	0.0144561
861.531	0.0144386
861.609	0.0143178
861.687	0.0143759
861.765	0.0143300
861.843	0.0145131
861.922	0.0145484
862.000	0.0147757
862.078	0.0149204
862.156	0.0149852
862.234	0.0150456
862.312	0.0152438
862.390	0.0154843
862.468	0.0155682
862.547	0.0157972
862.625	0.0158063
862.703	0.0159650
862.781	0.0161460
862.859	0.0162234
862.937	0.0163650
863.015	0.0163802
863.093	0.0165253
863.172	0.0165063
863.250	0.0166392
863.328	0.0165416
863.406	0.0164822
863.484	0.0164004
863.562	0.0163931
863.640	0.0164426
863.718	0.0163546
863.797	0.0161909
863.875	0.0159905
863.953	0.0160638
864.031	0.0159312
864.109	0.0158166
864.187	0.0157829
864.265	0.0155531
864.343	0.0155690
864.422	0.0154597
864.500	0.0153372
864.578	0.0153180
864.656	0.0151915
864.734	0.0151663
864.812	0.0151172
864.890	0.0148380
864.968	0.0149049
865.047	0.0149257
865.125	0.0148672
865.203	0.0148357
865.281	0.0148227
865.359	0.0148392
865.437	0.0148025
865.515	0.0149284
865.593	0.0149100
865.672	0.0149407
865.750	0.0149979
865.828	0.0151490
865.906	0.0152991
865.984	0.0153773
866.062	0.0154237
866.140	0.0155117
866.218	0.0155338
866.297	0.0157330
866.375	0.0158573
866.453	0.0158858
866.531	0.0160323
866.609	0.0161262
866.687	0.0161415
866.765	0.0162572
866.843	0.0162926
866.922	0.0162447
867.000	0.0162812
867.078	0.0162286
867.156	0.0161553
867.234	0.0163277
867.312	0.0161964
867.390	0.0161153
867.468	0.0159286
867.547	0.0159377
867.625	0.0157030
867.703	0.0157836
867.781	0.0156023
867.859	0.0155975
867.937	0.0154359
868.015	0.0153784
868.093	0.0152653
868.172	0.0151009
868.250	0.0149713
868.328	0.0149297
868.406	0.0148347
868.484	0.0148399
868.562	0.0147389
868.640	0.0147083
868.718	0.0147195
868.797	0.0147224
868.875	0.0147446
868.953	0.0147459
869.031	0.0147780
869.109	0.0149582
869.187	0.0150777
869.265	0.0150246
869.343	0.0150664
869.422	0.0151404
869.500	0.0152792
869.578	0.0153139
869.656	0.0153596
869.734	0.0155249
869.812	0.0155954
869.890	0.0156835
869.968	0.0157421
870.047	0.0157945
870.125	0.0157223
870.203	0.0157598
870.281	0.0158706
870.359	0.0159511
870.437	0.0159365
870.515	0.0160226
870.593	0.0159943
870.672	0.0159980
870.750	0.0158551
870.828	0.0159626
870.906	0.0157806
870.984	0.0159348
871.062	0.0159863
871.140	0.0159228
871.218	0.0158544
871.297	0.0158015
871.375	0.0158308
871.453	0.0158806
871.531	0.0157036
871.609	0.0156422
871.687	0.0154841
871.765	0.0155391
871.843	0.0156030
871.922	0.0154794
872.000	0.0152441
872.078	0.0151743
872.156	0.0150686
872.234	0.0150927
872.312	0.0151659
872.390	0.0151443
872.468	0.0149366
872.547	0.0149154
872.625	0.0148509
872.703	0.0149164
872.781	0.0150444
872.859	0.0150390
872.937	0.0150440
873.015	0.0150796
873.093	0.0151292
873.172	0.0150712
873.250	0.0152153
873.328	0.0152571
873.406	0.0153223
873.484	0.0152875
873.562	0.0154636
873.640	0.0154490
873.718	0.0154892
873.797	0.0154711
873.875	0.0154492
873.953	0.0156471
874.031	0.0156441
874.109	0.0156281
874.187	0.0157690
874.265	0.0157600
874.343	0.0157813
874.422	0.0157230
874.500	0.0158157
874.578	0.0158004
874.656	0.0156807
874.734	0.0156100
874.812	0.0157266
874.890	0.0158287
874.968	0.0156849
875.047	0.0156158
875.125	0.0156742
875.203	0.0155708
875.281	0.0155732
875.359	0.0156941
875.437	0.0158074
875.515	0.0155843
875.593	0.0155579
875.672	0.0157027
875.750	0.0156360
875.828	0.0155096
875.906	0.0156765
875.984	0.0156448
876.062	0.0155680
876.140	0.0156355
876.218	0.0155305
876.297	0.0155294
876.375	0.0156128
876.453	0.0155785
876.531	0.0154999
876.609	0.0154926
876.687	0.0152615
876.765	0.0153337
876.843	0.0154201
876.922	0.0154223
877.000	0.0151858
877.078	0.0153225
877.156	0.0153689
877.234	0.0153253
877.312	0.0151564
877.390	0.0153197
877.468	0.0153928
877.547	0.0152894
877.625	0.0153155
877.703	0.0154101
877.781	0.0154496
877.859	0.0154764
877.937	0.0153455
878.015	0.0153645
878.093	0.0153381
878.172	0.0153785
878.250	0.0154514
878.328	0.0153652
878.406	0.0154356
878.484	0.0154587
878.562	0.0154766
878.640	0.0155846
878.718	0.0154785
878.797	0.0155943
878.875	0.0156208
878.953	0.0154907
879.031	0.0155695
879.109	0.0157264
879.187	0.0157140
879.265	0.0156594
879.343	0.0155764
879.422	0.0157176
879.500	0.0156620
879.578	0.0158530
879.656	0.0155934
879.734	0.0156032
879.812	0.0157088
879.890	0.0158768
879.968	0.0157030
880.047	0.0158699
880.125	0.0157580
880.203	0.0157312
880.281	0.0157040
880.359	0.0157719
880.437	0.0157241
880.515	0.0157243
880.593	0.0156721
880.672	0.0156168
880.750	0.0155215
880.828	0.0154308
880.906	0.0155282
880.984	0.0154482
881.062	0.0154321
881.140	0.0153995
881.218	0.0154424
881.297	0.0154031
881.375	0.0152853
881.453	0.0151680
881.531	0.0153556
881.609	0.0151910
881.687	0.0152160
881.765	0.0153063
881.843	0.0154344
881.922	0.0153801
882.000	0.0154385
882.078	0.0154276
882.156	0.0155462
882.234	0.0154871
882.312	0.0154376
882.390	0.0155748
882.468	0.0157396
882.547	0.0155058
882.625	0.0155338
882.703	0.0155125
882.781	0.0156839
882.859	0.0155933
882.937	0.0154357
883.015	0.0154783
883.093	0.0155305
883.172	0.0155951
883.250	0.0155337
883.328	0.0155992
883.406	0.0157512
883.484	0.0155940
883.562	0.0156976
883.640	0.0156266
883.718	0.0155943
883.797	0.0156689
883.875	0.0156335
883.953	0.0157581
884.031	0.0155946
884.109	0.0155630
884.187	0.0155723
884.265	0.0155354
884.343	0.0155669
884.422	0.0155096
884.500	0.0154903
884.578	0.0155257
884.656	0.0154736
884.734	0.0154896
884.812	0.0154553
884.890	0.0153297
884.968	0.0155280
885.047	0.0155416
885.125	0.0154933
885.203	0.0155623
885.281	0.0154729
885.359	0.0154460
885.437	0.0155116
885.515	0.0155448
885.593	0.0155502
885.672	0.0155717
885.750	0.0154715
885.828	0.0155891
885.906	0.0155844
885.984	0.0155231
886.062	0.0153806
886.140	0.0155724
886.218	0.0155991
886.297	0.0154521
886.375	0.0153773
886.453	0.0154330
886.531	0.0154395
886.609	0.0154134
886.687	0.0155716
886.765	0.0155115
886.843	0.0155159
886.922	0.0156531
887.000	0.0155856
887.078	0.0157466
887.156	0.0157408
887.234	0.0156577
887.312	0.0158051
887.390	0.0158161
887.468	0.0157454
887.547	0.0156630
887.625	0.0156664
887.703	0.0156844
887.781	0.0158944
887.859	0.0157385
887.937	0.0156392
888.015	0.0156804
888.093	0.0156547
888.172	0.0156731
888.250	0.0155110
888.328	0.0156483
888.406	0.0154611
888.484	0.0154580
888.562	0.0155419
888.640	0.0156435
888.718	0.0154877
888.797	0.0154930
888.875	0.0154593
888.953	0.0155047
889.031	0.0154622
889.109	0.0154527
889.187	0.0153921
889.265	0.0154800
889.343	0.0154060
889.422	0.0153630
889.500	0.0153075
889.578	0.0153355
889.656	0.0153821
889.734	0.0153728
889.812	0.0153391
889.890	0.0153217
889.968	0.0152582
890.047	0.0152756
890.125	0.0152902
890.203	0.0152511
890.281	0.0153416
890.359	0.0153273
890.437	0.0154005
890.515	0.0154163
890.593	0.0154321
890.672	0.0154625
890.750	0.0155449
890.828	0.0155901
890.906	0.0158273
890.984	0.0157005
891.062	0.0155531
891.140	0.0156727
891.218	0.0157607
891.297	0.0157171
891.375	0.0158379
891.453	0.0158317
891.531	0.0156807
891.609	0.0156734
891.687	0.0157084
891.765	0.0155110
891.843	0.0155391
891.922	0.0154996
892.000	0.0155015
892.078	0.0154913
892.156	0.0152670
892.234	0.0152880
892.312	0.0152920
892.390	0.0152604
892.468	0.0153551
892.547	0.0152280
892.625	0.0153339
892.703	0.0153749
892.781	0.0153835
892.859	0.0154464
892.937	0.0153645
893.015	0.0153892
893.093	0.0154797
893.172	0.0154125
893.250	0.0152953
893.328	0.0152691
893.406	0.0152047
893.484	0.0153332
893.562	0.0152717
893.640	0.0153027
893.718	0.0153017
893.797	0.0153406
893.875	0.0153149
893.953	0.0151823
894.031	0.0153308
894.109	0.0153089
894.187	0.0154298
894.265	0.0153084
894.343	0.0154011
894.422	0.0154925
894.500	0.0156298
894.578	0.0154784
894.656	0.0156052
894.734	0.0157236
894.812	0.0157341
894.890	0.0157554
894.968	0.0157138
895.047	0.0156365
895.125	0.0159342
895.203	0.0159006
895.281	0.0158529
895.359	0.0156464
895.437	0.0157147
895.515	0.0157388
895.593	0.0154817
895.672	0.0156125
895.750	0.0155630
895.828	0.0154700
895.906	0.0154041
895.984	0.0153510
896.062	0.0155345
896.140	0.0154456
896.218	0.0153809
896.297	0.0152830
896.375	0.0153289
896.453	0.0154762
896.531	0.0155034
896.609	0.0153793
896.687	0.0154903
896.765	0.0154556
896.843	0.0154225
896.922	0.0153725
897.000	0.0152824
897.078	0.0153500
897.156	0.0153872
897.234	0.0153815
897.312	0.0154128
897.390	0.0153875
897.468	0.0152734
897.547	0.0151546
897.625	0.0153819
897.703	0.0154099
897.781	0.0154347
897.859	0.0151806
897.937	0.0153430
898.015	0.0153107
898.093	0.0153081
898.172	0.0152892
898.250	0.0152963
898.328	0.0154636
898.406	0.0153505
898.484	0.0155798
898.562	0.0155596
898.640	0.0154868
898.718	0.0156426
898.797	0.0156943
898.875	0.0157600
898.953	0.0157309
899.031	0.0157520
899.109	0.0158492
899.187	0.0158241
899.265	0.0157874
899.343	0.0158552
899.422	0.0158003
899.500	0.0158554
899.578	0.0156986
899.656	0.0156708
899.734	0.0157098
899.812	0.0155972
899.890	0.0156281
899.968	0.0156230
900.047	0.0157018
900.125	0.0155291
900.203	0.0153092
900.281	0.0154453
900.359	0.0153769
900.437	0.0154133
900.515	0.0154619
900.593	0.0154804
900.672	0.0152345
900.750	0.0154127
900.828	0.0153672
900.906	0.0153680
900.984	0.0153896
901.062	0.0154440
901.140	0.0154186
901.218	0.0154022
901.297	0.0153333
901.375	0.0154211
901.453	0.0155683
901.531	0.0154263
901.609	0.0153139
901.687	0.0154305
901.765	0.0153306
901.843	0.0154587
901.922	0.0153914
902.000	0.0154240
902.078	0.0152279
902.156	0.0153558
902.234	0.0154293
902.312	0.0155523
902.390	0.0155746
902.468	0.0155532
902.547	0.0154716
902.625	0.0155367
902.703	0.0154909
902.781	0.0155408
902.859	0.0154585
902.937	0.0155062
903.015	0.0156953
903.093	0.0155515
903.172	0.0155111
903.250	0.0153778
903.328	0.0155501
903.406	0.0155817
903.484	0.0155219
903.562	0.0153465
903.640	0.0155118
903.718	0.0154311
903.797	0.0154505
903.875	0.0154880
903.953	0.0154031
904.031	0.0153675
904.109	0.0154572
904.187	0.0154137
904.265	0.0154443
904.343	0.0155292
904.422	0.0154812
904.500	0.0154584
904.578	0.0154328
904.656	0.0155067
904.734	0.0155192
904.812	0.0156006
904.890	0.0156480
904.968	0.0156197
905.047	0.0156230
905.125	0.0156734
905.203	0.0156837
905.281	0.0154861
905.359	0.0157044
905.437	0.0157193
905.515	0.0157361
905.593	0.0156738
905.672	0.0156611
905.750	0.0156796
905.828	0.0157312
905.906	0.0156915
905.984	0.0158119
906.062	0.0157869
906.140	0.0155807
906.218	0.0156747
906.297	0.0155278
906.375	0.0154483
906.453	0.0155692
906.531	0.0155569
906.609	0.0155641
906.687	0.0155748
906.765	0.0154977
906.843	0.0155347
906.922	0.0154885
907.000	0.0155587
907.078	0.0154472
907.156	0.0154048
907.234	0.0154968
907.312	0.0154935
907.390	0.0154703
907.468	0.0155304
907.547	0.0154050
907.625	0.0154232
907.703	0.0152834
907.781	0.0155330
907.859	0.0154858
907.937	0.0154464
908.015	0.0154896
908.093	0.0154940
908.172	0.0154668
908.250	0.0154214
908.328	0.0154858
908.406	0.0155685
908.484	0.0155378
908.562	0.0155667
908.640	0.0156094
908.718	0.0155080
908.797	0.0155406
908.875	0.0155051
908.953	0.0155587
909.031	0.0155949
909.109	0.0155776
909.187	0.0154955
909.265	0.0154436
909.343	0.0154401
909.422	0.0156602
909.500	0.0155889
909.578	0.0155364
909.656	0.0155087
909.734	0.0155823
909.812	0.0155745
909.890	0.0155322
909.968	0.0156401
910.047	0.0155271
910.125	0.0154741
910.203	0.0154789
910.281	0.0156328
910.359	0.0155804
910.437	0.0156376
910.515	0.0155869
910.593	0.0156230
910.672	0.0156582
910.750	0.0158488
910.828	0.0156130
910.906	0.0157389
910.984	0.0156468
911.062	0.0155978
911.140	0.0156921
911.218	0.0156059
911.297	0.0156287
911.375	0.0156759
911.453	0.0157034
911.531	0.0155232
911.609	0.0156569
911.687	0.0155250
911.765	0.0157201
911.843	0.0156179
911.922	0.0156093
912.000	0.0157301
912.078	0.0156262
912.156	0.0156905
912.234	0.0156424
912.312	0.0155086
912.390	0.0154809
912.468	0.0154858
912.547	0.0156066
912.625	0.0154708
912.703	0.0155061
912.781	0.0155134
912.859	0.0154940
912.937	0.0153299
913.015	0.0152980
913.093	0.0154418
913.172	0.0154490
913.250	0.0153374
913.328	0.0152980
913.406	0.0154228
913.484	0.0152312
913.562	0.0154908
913.640	0.0154685
913.718	0.0154530
913.797	0.0152727
913.875	0.0153507
913.953	0.0152926
914.031	0.0155130
914.109	0.0155187
914.187	0.0154549
914.265	0.0155275
914.343	0.0154128
914.422	0.0153844
914.500	0.0154694
914.578	0.0154897
914.656	0.0154919
914.734	0.0154753
914.812	0.0153645
914.890	0.0154134
914.968	0.0155048
915.047	0.0153699
915.125	0.0155550
915.203	0.0154550
915.281	0.0154227
915.359	0.0155196
915.437	0.0155209
915.515	0.0155605
915.593	0.0155857
915.672	0.0156493
915.750	0.0156089
915.828	0.0156089
915.906	0.0155195
915.984	0.0156477
916.062	0.0155081
916.140	0.0155574
916.218	0.0156914
916.297	0.0157346
916.375	0.0155912
916.453	0.0155012
916.531	0.0155857
916.609	0.0155768
916.687	0.0155315
916.765	0.0155930
916.843	0.0156493
916.922	0.0156245
917.000	0.0155612
917.078	0.0155772
917.156	0.0154688
917.234	0.0156300
917.312	0.0156185
917.390	0.0155155
917.468	0.0154753
917.547	0.0154633
917.625	0.0153966
917.703	0.0154150
917.781	0.0153870
917.859	0.0154077
917.937	0.0153793
918.015	0.0154983
918.093	0.0152934
918.172	0.0154305
918.250	0.0154966
918.328	0.0154705
918.406	0.0153529
918.484	0.0154072
918.562	0.0155456
918.640	0.0154414
918.718	0.0155823
918.797	0.0155652
918.875	0.0155592
918.953	0.0155586
919.031	0.0155678
919.109	0.0153764
919.187	0.0154343
919.265	0.0154417
919.343	0.0153529
919.422	0.0154600
919.500	0.0154276
919.578	0.0154791
919.656	0.0153119
919.734	0.0152493
919.812	0.0152676
919.890	0.0152347
