06/13/2022	14:46:53	Ver.	4.1	UNKNOWN
Optical Delay	599.968395	Delta X		0.078125	Sweeps	1	Scan Rate	0/0
Coordinates	Axis 1	NaN	Axis 2	NaN	Axis 3	NaN	Axis 4	NaN	Axis 5	NaN	Axis 6	0.000000
TX Power	0.000000	RX Power	0.000000

599.968	0.0156804
600.047	0.0157484
600.125	0.0157840
600.203	0.0156441
600.281	0.0156626
600.359	0.0157430
600.437	0.0156841
600.515	0.0156425
600.593	0.0157317
600.672	0.0157493
600.750	0.0158396
600.828	0.0155302
600.906	0.0157476
600.984	0.0156905
601.062	0.0155908
601.140	0.0156969
601.218	0.0156109
601.297	0.0155479
601.375	0.0157449
601.453	0.0157231
601.531	0.0156553
601.609	0.0156561
601.687	0.0157515
601.765	0.0156350
601.843	0.0157449
601.922	0.0158186
602.000	0.0155538
602.078	0.0156819
602.156	0.0157598
602.234	0.0157082
602.312	0.0155296
602.390	0.0157941
602.468	0.0157116
602.547	0.0156631
602.625	0.0157820
602.703	0.0155846
602.781	0.0156347
602.859	0.0157177
602.937	0.0157552
603.015	0.0157447
603.093	0.0156685
603.172	0.0156326
603.250	0.0157283
603.328	0.0157732
603.406	0.0157107
603.484	0.0157049
603.562	0.0157273
603.640	0.0155763
603.718	0.0157147
603.797	0.0155589
603.875	0.0156264
603.953	0.0156957
604.031	0.0156425
604.109	0.0157632
604.187	0.0156516
604.265	0.0155865
604.343	0.0156410
604.422	0.0155865
604.500	0.0157124
604.578	0.0156847
604.656	0.0156942
604.734	0.0156256
604.812	0.0157088
604.890	0.0156867
604.968	0.0158487
605.047	0.0156656
605.125	0.0157539
605.203	0.0156785
605.281	0.0156822
605.359	0.0157333
605.437	0.0157625
605.515	0.0156495
605.593	0.0157819
605.672	0.0158279
605.750	0.0158328
605.828	0.0157393
605.906	0.0156584
605.984	0.0156765
606.062	0.0157461
606.140	0.0157367
606.218	0.0157128
606.297	0.0157484
606.375	0.0157270
606.453	0.0157442
606.531	0.0157892
606.609	0.0158261
606.687	0.0156887
606.765	0.0158303
606.843	0.0157156
606.922	0.0156371
607.000	0.0156852
607.078	0.0156590
607.156	0.0156897
607.234	0.0156192
607.312	0.0155559
607.390	0.0157236
607.468	0.0157521
607.547	0.0156966
607.625	0.0156003
607.703	0.0156974
607.781	0.0155685
607.859	0.0157575
607.937	0.0157171
608.015	0.0157406
608.093	0.0156366
608.172	0.0156320
608.250	0.0156409
608.328	0.0156444
608.406	0.0156505
608.484	0.0157944
608.562	0.0156785
608.640	0.0156193
608.718	0.0156046
608.797	0.0156136
608.875	0.0158675
608.953	0.0157484
609.031	0.0156284
609.109	0.0159302
609.187	0.0155900
609.265	0.0156437
609.343	0.0157005
609.422	0.0157156
609.500	0.0155325
609.578	0.0156845
609.656	0.0156468
609.734	0.0156145
609.812	0.0155908
609.890	0.0157168
609.968	0.0155627
610.047	0.0157036
610.125	0.0156404
610.203	0.0156546
610.281	0.0157648
610.359	0.0155448
610.437	0.0157345
610.515	0.0156349
610.593	0.0156602
610.672	0.0158449
610.750	0.0158614
610.828	0.0157175
610.906	0.0157029
610.984	0.0156322
611.062	0.0157322
611.140	0.0157130
611.218	0.0156664
611.297	0.0156480
611.375	0.0156813
611.453	0.0156584
611.531	0.0157630
611.609	0.0156770
611.687	0.0156265
611.765	0.0157166
611.843	0.0157206
611.922	0.0155130
612.000	0.0156714
612.078	0.0157391
612.156	0.0156952
612.234	0.0156947
612.312	0.0157259
612.390	0.0155566
612.468	0.0156159
612.547	0.0156142
612.625	0.0157384
612.703	0.0158367
612.781	0.0157005
612.859	0.0157072
612.937	0.0157294
613.015	0.0157417
613.093	0.0157420
613.172	0.0156532
613.250	0.0156379
613.328	0.0157082
613.406	0.0155891
613.484	0.0157858
613.562	0.0157643
613.640	0.0156212
613.718	0.0156502
613.797	0.0157245
613.875	0.0156740
613.953	0.0157830
614.031	0.0155959
614.109	0.0155636
614.187	0.0157693
614.265	0.0156950
614.343	0.0157595
614.422	0.0155451
614.500	0.0156059
614.578	0.0158136
614.656	0.0156474
614.734	0.0156808
614.812	0.0158057
614.890	0.0156685
614.968	0.0156137
615.047	0.0158326
615.125	0.0156461
615.203	0.0155477
615.281	0.0157075
615.359	0.0155375
615.437	0.0156716
615.515	0.0156101
615.593	0.0157755
615.672	0.0156324
615.750	0.0156112
615.828	0.0156950
615.906	0.0156217
615.984	0.0156178
616.062	0.0157604
616.140	0.0157687
616.218	0.0156951
616.297	0.0155853
616.375	0.0156140
616.453	0.0157885
616.531	0.0157263
616.609	0.0157323
616.687	0.0156598
616.765	0.0156863
616.843	0.0155547
616.922	0.0157332
617.000	0.0156850
617.078	0.0156391
617.156	0.0158032
617.234	0.0157632
617.312	0.0156268
617.390	0.0157872
617.468	0.0156536
617.547	0.0157177
617.625	0.0156488
617.703	0.0156133
617.781	0.0156864
617.859	0.0156909
617.937	0.0155257
618.015	0.0155372
618.093	0.0157019
618.172	0.0156920
618.250	0.0157829
618.328	0.0156165
618.406	0.0155923
618.484	0.0157291
618.562	0.0156308
618.640	0.0157437
618.718	0.0158009
618.797	0.0156071
618.875	0.0157590
618.953	0.0157391
619.031	0.0157658
619.109	0.0156069
619.187	0.0157581
619.265	0.0157091
619.343	0.0156738
619.422	0.0155980
619.500	0.0157569
619.578	0.0157197
619.656	0.0156174
619.734	0.0157036
619.812	0.0157653
619.890	0.0156634
619.968	0.0154873
620.047	0.0156623
620.125	0.0155708
620.203	0.0158553
620.281	0.0156757
620.359	0.0157582
620.437	0.0156802
620.515	0.0157450
620.593	0.0156605
620.672	0.0156535
620.750	0.0157420
620.828	0.0157202
620.906	0.0156458
620.984	0.0156734
621.062	0.0157282
621.140	0.0156232
621.218	0.0156189
621.297	0.0157120
621.375	0.0156685
621.453	0.0155432
621.531	0.0156094
621.609	0.0157020
621.687	0.0156154
621.765	0.0156173
621.843	0.0156793
621.922	0.0156254
622.000	0.0154900
622.078	0.0156487
622.156	0.0155611
622.234	0.0158315
622.312	0.0158006
622.390	0.0156591
622.468	0.0155888
622.547	0.0155677
622.625	0.0156193
622.703	0.0156264
622.781	0.0154436
622.859	0.0155510
622.937	0.0157322
623.015	0.0156791
623.093	0.0156034
623.172	0.0156075
623.250	0.0155822
623.328	0.0156778
623.406	0.0156732
623.484	0.0159003
623.562	0.0157021
623.640	0.0155420
623.718	0.0156831
623.797	0.0156592
623.875	0.0156024
623.953	0.0156568
624.031	0.0156609
624.109	0.0154731
624.187	0.0155654
624.265	0.0156827
624.343	0.0155728
624.422	0.0156628
624.500	0.0157862
624.578	0.0156776
624.656	0.0156397
624.734	0.0154350
624.812	0.0154767
624.890	0.0156061
624.968	0.0156940
625.047	0.0157497
625.125	0.0157275
625.203	0.0157772
625.281	0.0156016
625.359	0.0156863
625.437	0.0156789
625.515	0.0157849
625.593	0.0157330
625.672	0.0156895
625.750	0.0156335
625.828	0.0156134
625.906	0.0156234
625.984	0.0156043
626.062	0.0156619
626.140	0.0156856
626.218	0.0156851
626.297	0.0156953
626.375	0.0157321
626.453	0.0157518
626.531	0.0156596
626.609	0.0157005
626.687	0.0156514
626.765	0.0157008
626.843	0.0157481
626.922	0.0157204
627.000	0.0156780
627.078	0.0157739
627.156	0.0157474
627.234	0.0155190
627.312	0.0159448
627.390	0.0156850
627.468	0.0157521
627.547	0.0156742
627.625	0.0157212
627.703	0.0155768
627.781	0.0156236
627.859	0.0157225
627.937	0.0157442
628.015	0.0156276
628.093	0.0156745
628.172	0.0157042
628.250	0.0156917
628.328	0.0155090
628.406	0.0156088
628.484	0.0157657
628.562	0.0157281
628.640	0.0156904
628.718	0.0157299
628.797	0.0156534
628.875	0.0156036
628.953	0.0156593
629.031	0.0156195
629.109	0.0157430
629.187	0.0157335
629.265	0.0156367
629.343	0.0157692
629.422	0.0157466
629.500	0.0155502
629.578	0.0156274
629.656	0.0155246
629.734	0.0155833
629.812	0.0155914
629.890	0.0156665
629.968	0.0156956
630.047	0.0157394
630.125	0.0156674
630.203	0.0157722
630.281	0.0156470
630.359	0.0156574
630.437	0.0157139
630.515	0.0158096
630.593	0.0156585
630.672	0.0157619
630.750	0.0157431
630.828	0.0156044
630.906	0.0156306
630.984	0.0157764
631.062	0.0157018
631.140	0.0156869
631.218	0.0157318
631.297	0.0155729
631.375	0.0155782
631.453	0.0156805
631.531	0.0156511
631.609	0.0157217
631.687	0.0156309
631.765	0.0156083
631.843	0.0157254
631.922	0.0155261
632.000	0.0157632
632.078	0.0155418
632.156	0.0156769
632.234	0.0157366
632.312	0.0157145
632.390	0.0157079
632.468	0.0156935
632.547	0.0156053
632.625	0.0157001
632.703	0.0156284
632.781	0.0156241
632.859	0.0156666
632.937	0.0156010
633.015	0.0156999
633.093	0.0157871
633.172	0.0157139
633.250	0.0155679
633.328	0.0156837
633.406	0.0156140
633.484	0.0156505
633.562	0.0156375
633.640	0.0156940
633.718	0.0157721
633.797	0.0156955
633.875	0.0157451
633.953	0.0155332
634.031	0.0156024
634.109	0.0157011
634.187	0.0156423
634.265	0.0156177
634.343	0.0156138
634.422	0.0155453
634.500	0.0157229
634.578	0.0157050
634.656	0.0155996
634.734	0.0155032
634.812	0.0156715
634.890	0.0156641
634.968	0.0157253
635.047	0.0156451
635.125	0.0155672
635.203	0.0155950
635.281	0.0157042
635.359	0.0155241
635.437	0.0156506
635.515	0.0156707
635.593	0.0156625
635.672	0.0156229
635.750	0.0155981
635.828	0.0155959
635.906	0.0155562
635.984	0.0156563
636.062	0.0156509
636.140	0.0156203
636.218	0.0156554
636.297	0.0157032
636.375	0.0157424
636.453	0.0155508
636.531	0.0156078
636.609	0.0156590
636.687	0.0155774
636.765	0.0158714
636.843	0.0156117
636.922	0.0156553
637.000	0.0155993
637.078	0.0157481
637.156	0.0157288
637.234	0.0157362
637.312	0.0156678
637.390	0.0156210
637.468	0.0156500
637.547	0.0157234
637.625	0.0156685
637.703	0.0156382
637.781	0.0156255
637.859	0.0155532
637.937	0.0156446
638.015	0.0157033
638.093	0.0156364
638.172	0.0155833
638.250	0.0156040
638.328	0.0157078
638.406	0.0156023
638.484	0.0156153
638.562	0.0155479
638.640	0.0157187
638.718	0.0156635
638.797	0.0157069
638.875	0.0155881
638.953	0.0156193
639.031	0.0156758
639.109	0.0155219
639.187	0.0154708
639.265	0.0158358
639.343	0.0157359
639.422	0.0155928
639.500	0.0155212
639.578	0.0156086
639.656	0.0156309
639.734	0.0156927
639.812	0.0156387
639.890	0.0155239
639.968	0.0156445
640.047	0.0156502
640.125	0.0155045
640.203	0.0156387
640.281	0.0156628
640.359	0.0156891
640.437	0.0156406
640.515	0.0156876
640.593	0.0156052
640.672	0.0157475
640.750	0.0157040
640.828	0.0156166
640.906	0.0155889
640.984	0.0156482
641.062	0.0157005
641.140	0.0156985
641.218	0.0157069
641.297	0.0157668
641.375	0.0156847
641.453	0.0156516
641.531	0.0156003
641.609	0.0157055
641.687	0.0156099
641.765	0.0155837
641.843	0.0157116
641.922	0.0156956
642.000	0.0155275
642.078	0.0156441
642.156	0.0157415
642.234	0.0156808
642.312	0.0156353
642.390	0.0157398
642.468	0.0157050
642.547	0.0156284
642.625	0.0157710
642.703	0.0156509
642.781	0.0156995
642.859	0.0157935
642.937	0.0157130
643.015	0.0157092
643.093	0.0155250
643.172	0.0154864
643.250	0.0157552
643.328	0.0157859
643.406	0.0157283
643.484	0.0157416
643.562	0.0155461
643.640	0.0156379
643.718	0.0157971
643.797	0.0157625
643.875	0.0155579
643.953	0.0156293
644.031	0.0157253
644.109	0.0156898
644.187	0.0156205
644.265	0.0156979
644.343	0.0156376
644.422	0.0156494
644.500	0.0157446
644.578	0.0156493
644.656	0.0158319
644.734	0.0157238
644.812	0.0156393
644.890	0.0156401
644.968	0.0157174
645.047	0.0157565
645.125	0.0155727
645.203	0.0156641
645.281	0.0157603
645.359	0.0157223
645.437	0.0157868
645.515	0.0157796
645.593	0.0156533
645.672	0.0157467
645.750	0.0156429
645.828	0.0158168
645.906	0.0157027
645.984	0.0156949
646.062	0.0155874
646.140	0.0157541
646.218	0.0157774
646.297	0.0157178
646.375	0.0157236
646.453	0.0157658
646.531	0.0156401
646.609	0.0155519
646.687	0.0156499
646.765	0.0157394
646.843	0.0157569
646.922	0.0156390
647.000	0.0156921
647.078	0.0157126
647.156	0.0158163
647.234	0.0155075
647.312	0.0156305
647.390	0.0157449
647.468	0.0156778
647.547	0.0156653
647.625	0.0156493
647.703	0.0157976
647.781	0.0157315
647.859	0.0157896
647.937	0.0156140
648.015	0.0156453
648.093	0.0156144
648.172	0.0157691
648.250	0.0156602
648.328	0.0157781
648.406	0.0157050
648.484	0.0156860
648.562	0.0155928
648.640	0.0155216
648.718	0.0156861
648.797	0.0156406
648.875	0.0157878
648.953	0.0157222
649.031	0.0157082
649.109	0.0156235
649.187	0.0157136
649.265	0.0156993
649.343	0.0155497
649.422	0.0158309
649.500	0.0156544
649.578	0.0156030
649.656	0.0155309
649.734	0.0156390
649.812	0.0156968
649.890	0.0157329
649.968	0.0155044
650.047	0.0156609
650.125	0.0157105
650.203	0.0156220
650.281	0.0157842
650.359	0.0156816
650.437	0.0156834
650.515	0.0156312
650.593	0.0156375
650.672	0.0157098
650.750	0.0156773
650.828	0.0156358
650.906	0.0156522
650.984	0.0156028
651.062	0.0156160
651.140	0.0155391
651.218	0.0158060
651.297	0.0155178
651.375	0.0155063
651.453	0.0156452
651.531	0.0157764
651.609	0.0157431
651.687	0.0157259
651.765	0.0156336
651.843	0.0156561
651.922	0.0156426
652.000	0.0156132
652.078	0.0156005
652.156	0.0157227
652.234	0.0156508
652.312	0.0156816
652.390	0.0155739
652.468	0.0155614
652.547	0.0156658
652.625	0.0156422
652.703	0.0155887
652.781	0.0156244
652.859	0.0155239
652.937	0.0156912
653.015	0.0156563
653.093	0.0157558
653.172	0.0156828
653.250	0.0155883
653.328	0.0156636
653.406	0.0156895
653.484	0.0156915
653.562	0.0155508
653.640	0.0157367
653.718	0.0155827
653.797	0.0156429
653.875	0.0156207
653.953	0.0156877
654.031	0.0155955
654.109	0.0156754
654.187	0.0156244
654.265	0.0157982
654.343	0.0155964
654.422	0.0155817
654.500	0.0156932
654.578	0.0156938
654.656	0.0157150
654.734	0.0157031
654.812	0.0156646
654.890	0.0156282
654.968	0.0155770
655.047	0.0156831
655.125	0.0156779
655.203	0.0157565
655.281	0.0156514
655.359	0.0157022
655.437	0.0156560
655.515	0.0156905
655.593	0.0156524
655.672	0.0157223
655.750	0.0156407
655.828	0.0157993
655.906	0.0157267
655.984	0.0156733
656.062	0.0154787
656.140	0.0155988
656.218	0.0156982
656.297	0.0157378
656.375	0.0157270
656.453	0.0155313
656.531	0.0156857
656.609	0.0156722
656.687	0.0156829
656.765	0.0155421
656.843	0.0156924
656.922	0.0156632
657.000	0.0156423
657.078	0.0157062
657.156	0.0156569
657.234	0.0156673
657.312	0.0155507
657.390	0.0155273
657.468	0.0157032
657.547	0.0157018
657.625	0.0156431
657.703	0.0156644
657.781	0.0156648
657.859	0.0155857
657.937	0.0157256
658.015	0.0157305
658.093	0.0155653
658.172	0.0156612
658.250	0.0156253
658.328	0.0156527
658.406	0.0157120
658.484	0.0157610
658.562	0.0156620
658.640	0.0156224
658.718	0.0157050
658.797	0.0155582
658.875	0.0157091
658.953	0.0157244
659.031	0.0156817
659.109	0.0156133
659.187	0.0155475
659.265	0.0156017
659.343	0.0157062
659.422	0.0158575
659.500	0.0156843
659.578	0.0156729
659.656	0.0157827
659.734	0.0156379
659.812	0.0157658
659.890	0.0156991
659.968	0.0155311
660.047	0.0156874
660.125	0.0157023
660.203	0.0157459
660.281	0.0157336
660.359	0.0159136
660.437	0.0156660
660.515	0.0156610
660.593	0.0155967
660.672	0.0155796
660.750	0.0156182
660.828	0.0157747
660.906	0.0157442
660.984	0.0157447
661.062	0.0156831
661.140	0.0156163
661.218	0.0157564
661.297	0.0158205
661.375	0.0157457
661.453	0.0157149
661.531	0.0155862
661.609	0.0155987
661.687	0.0156910
661.765	0.0156658
661.843	0.0155682
661.922	0.0157547
662.000	0.0157442
662.078	0.0156916
662.156	0.0157742
662.234	0.0156540
662.312	0.0156337
662.390	0.0156350
662.468	0.0156441
662.547	0.0156470
662.625	0.0156921
662.703	0.0157139
662.781	0.0155785
662.859	0.0157043
662.937	0.0157102
663.015	0.0156359
663.093	0.0156698
663.172	0.0158527
663.250	0.0156652
663.328	0.0155785
663.406	0.0155431
663.484	0.0157581
663.562	0.0157016
663.640	0.0155312
663.718	0.0156934
663.797	0.0158197
663.875	0.0156308
663.953	0.0156227
664.031	0.0156310
664.109	0.0156760
664.187	0.0157962
664.265	0.0155737
664.343	0.0157607
664.422	0.0158537
664.500	0.0156620
664.578	0.0157461
664.656	0.0156470
664.734	0.0156547
664.812	0.0156023
664.890	0.0157617
664.968	0.0157477
665.047	0.0156686
665.125	0.0156812
665.203	0.0157128
665.281	0.0157119
665.359	0.0157150
665.437	0.0157030
665.515	0.0158496
665.593	0.0157995
665.672	0.0156364
665.750	0.0156861
665.828	0.0157752
665.906	0.0157027
665.984	0.0157097
666.062	0.0157604
666.140	0.0157494
666.218	0.0158044
666.297	0.0157291
666.375	0.0157562
666.453	0.0157709
666.531	0.0158855
666.609	0.0157475
666.687	0.0158630
666.765	0.0157156
666.843	0.0157981
666.922	0.0158247
667.000	0.0157554
667.078	0.0157577
667.156	0.0157048
667.234	0.0158057
667.312	0.0157345
667.390	0.0159000
667.468	0.0157304
667.547	0.0155597
667.625	0.0157855
667.703	0.0156097
667.781	0.0157005
667.859	0.0157571
667.937	0.0156757
668.015	0.0157864
668.093	0.0155370
668.172	0.0158338
668.250	0.0157343
668.328	0.0157074
668.406	0.0156728
668.484	0.0157640
668.562	0.0157096
668.640	0.0157027
668.718	0.0156520
668.797	0.0156936
668.875	0.0157763
668.953	0.0158810
669.031	0.0155867
669.109	0.0156908
669.187	0.0156929
669.265	0.0156849
669.343	0.0156978
669.422	0.0156203
669.500	0.0157446
669.578	0.0157444
669.656	0.0156804
669.734	0.0156548
669.812	0.0157738
669.890	0.0155337
669.968	0.0156385
670.047	0.0157211
670.125	0.0156022
670.203	0.0156474
670.281	0.0158533
670.359	0.0156384
670.437	0.0156740
670.515	0.0156427
670.593	0.0157205
670.672	0.0156205
670.750	0.0156168
670.828	0.0156136
670.906	0.0156526
670.984	0.0156438
671.062	0.0156377
671.140	0.0155145
671.218	0.0155215
671.297	0.0156433
671.375	0.0155463
671.453	0.0155128
671.531	0.0154583
671.609	0.0156008
671.687	0.0156087
671.765	0.0155855
671.843	0.0157052
671.922	0.0155990
672.000	0.0156523
672.078	0.0155949
672.156	0.0154791
672.234	0.0156934
672.312	0.0156821
672.390	0.0156730
672.468	0.0155795
672.547	0.0154240
672.625	0.0156616
672.703	0.0154121
672.781	0.0153870
672.859	0.0156561
672.937	0.0155839
673.015	0.0155715
673.093	0.0155455
673.172	0.0155372
673.250	0.0156503
673.328	0.0156960
673.406	0.0155537
673.484	0.0154740
673.562	0.0155466
673.640	0.0154533
673.718	0.0155734
673.797	0.0156673
673.875	0.0155380
673.953	0.0154436
674.031	0.0155249
674.109	0.0156960
674.187	0.0155467
674.265	0.0155122
674.343	0.0155511
674.422	0.0155830
674.500	0.0157151
674.578	0.0155962
674.656	0.0155955
674.734	0.0156759
674.812	0.0155518
674.890	0.0155923
674.968	0.0156139
675.047	0.0154869
675.125	0.0155489
675.203	0.0155043
675.281	0.0157340
675.359	0.0155595
675.437	0.0155247
675.515	0.0156563
675.593	0.0156820
675.672	0.0156740
675.750	0.0156123
675.828	0.0154678
675.906	0.0155003
675.984	0.0155840
676.062	0.0156042
676.140	0.0155937
676.218	0.0157753
676.297	0.0155671
676.375	0.0156006
676.453	0.0155128
676.531	0.0155639
676.609	0.0156129
676.687	0.0156174
676.765	0.0155637
676.843	0.0156187
676.922	0.0156369
677.000	0.0156747
677.078	0.0155540
677.156	0.0156501
677.234	0.0156610
677.312	0.0157223
677.390	0.0156599
677.468	0.0157767
677.547	0.0156297
677.625	0.0157284
677.703	0.0156493
677.781	0.0157036
677.859	0.0157114
677.937	0.0155170
678.015	0.0157428
678.093	0.0157487
678.172	0.0156451
678.250	0.0155675
678.328	0.0155304
678.406	0.0157578
678.484	0.0155580
678.562	0.0155664
678.640	0.0157489
678.718	0.0157093
678.797	0.0156477
678.875	0.0155618
678.953	0.0155850
679.031	0.0155950
679.109	0.0156751
679.187	0.0157069
679.265	0.0154857
679.343	0.0157535
679.422	0.0156689
679.500	0.0156345
679.578	0.0156786
679.656	0.0156870
679.734	0.0157233
679.812	0.0156303
679.890	0.0157255
679.968	0.0155852
680.047	0.0157038
680.125	0.0155708
680.203	0.0156793
680.281	0.0157130
680.359	0.0155685
680.437	0.0156142
680.515	0.0156206
680.593	0.0156876
680.672	0.0156135
680.750	0.0157171
680.828	0.0156722
680.906	0.0156563
680.984	0.0157540
681.062	0.0156282
681.140	0.0157918
681.218	0.0156132
681.297	0.0157208
681.375	0.0158160
681.453	0.0157282
681.531	0.0156593
681.609	0.0157658
681.687	0.0156718
681.765	0.0158005
681.843	0.0157095
681.922	0.0157272
682.000	0.0158720
682.078	0.0157643
682.156	0.0157182
682.234	0.0159186
682.312	0.0156720
682.390	0.0157718
682.468	0.0157156
682.547	0.0157108
682.625	0.0157908
682.703	0.0158968
682.781	0.0158116
682.859	0.0157101
682.937	0.0157442
683.015	0.0158320
683.093	0.0157364
683.172	0.0156982
683.250	0.0157526
683.328	0.0157356
683.406	0.0158474
683.484	0.0158759
683.562	0.0157793
683.640	0.0156995
683.718	0.0158068
683.797	0.0157700
683.875	0.0157418
683.953	0.0157368
684.031	0.0157269
684.109	0.0158227
684.187	0.0156417
684.265	0.0158450
684.343	0.0157661
684.422	0.0157815
684.500	0.0158682
684.578	0.0159242
684.656	0.0158721
684.734	0.0156980
684.812	0.0158012
684.890	0.0157900
684.968	0.0157462
685.047	0.0157487
685.125	0.0157133
685.203	0.0158954
685.281	0.0158080
685.359	0.0157490
685.437	0.0157547
685.515	0.0158227
685.593	0.0157046
685.672	0.0157640
685.750	0.0159248
685.828	0.0157799
685.906	0.0158507
685.984	0.0157405
686.062	0.0159301
686.140	0.0157473
686.218	0.0155973
686.297	0.0158963
686.375	0.0157654
686.453	0.0156885
686.531	0.0157033
686.609	0.0158828
686.687	0.0157816
686.765	0.0158022
686.843	0.0158281
686.922	0.0159013
687.000	0.0156902
687.078	0.0158329
687.156	0.0158507
687.234	0.0156868
687.312	0.0158393
687.390	0.0157188
687.468	0.0158305
687.547	0.0157454
687.625	0.0156934
687.703	0.0157764
687.781	0.0157994
687.859	0.0157877
687.937	0.0157505
688.015	0.0157461
688.093	0.0158230
688.172	0.0157484
688.250	0.0158264
688.328	0.0156578
688.406	0.0158524
688.484	0.0158392
688.562	0.0158234
688.640	0.0157924
688.718	0.0157726
688.797	0.0157494
688.875	0.0157855
688.953	0.0158273
689.031	0.0159548
689.109	0.0158267
689.187	0.0157513
689.265	0.0156291
689.343	0.0158311
689.422	0.0156236
689.500	0.0157597
689.578	0.0157968
689.656	0.0158231
689.734	0.0157580
689.812	0.0159370
689.890	0.0157864
689.968	0.0157722
690.047	0.0156796
690.125	0.0157453
690.203	0.0158575
690.281	0.0158563
690.359	0.0156626
690.437	0.0157117
690.515	0.0158326
690.593	0.0157395
690.672	0.0157314
690.750	0.0157529
690.828	0.0156571
690.906	0.0155727
690.984	0.0157685
691.062	0.0156774
691.140	0.0158124
691.218	0.0156803
691.297	0.0156077
691.375	0.0156617
691.453	0.0156400
691.531	0.0155639
691.609	0.0155792
691.687	0.0158104
691.765	0.0156104
691.843	0.0155656
691.922	0.0156450
692.000	0.0155974
692.078	0.0156190
692.156	0.0156698
692.234	0.0155656
692.312	0.0155437
692.390	0.0156204
692.468	0.0157085
692.547	0.0155489
692.625	0.0156635
692.703	0.0157672
692.781	0.0156190
692.859	0.0155860
692.937	0.0157044
693.015	0.0156932
693.093	0.0157403
693.172	0.0155401
693.250	0.0154509
693.328	0.0156207
693.406	0.0154647
693.484	0.0154419
693.562	0.0157195
693.640	0.0156256
693.718	0.0155499
693.797	0.0157806
693.875	0.0157781
693.953	0.0156340
694.031	0.0155372
694.109	0.0155475
694.187	0.0153691
694.265	0.0154482
694.343	0.0156938
694.422	0.0155218
694.500	0.0154900
694.578	0.0155319
694.656	0.0157135
694.734	0.0155675
694.812	0.0155806
694.890	0.0154606
694.968	0.0155826
695.047	0.0155489
695.125	0.0156318
695.203	0.0156289
695.281	0.0155539
695.359	0.0156211
695.437	0.0156411
695.515	0.0156034
695.593	0.0155746
695.672	0.0155915
695.750	0.0154912
695.828	0.0155545
695.906	0.0156776
695.984	0.0156545
696.062	0.0155672
696.140	0.0154878
696.218	0.0155353
696.297	0.0156551
696.375	0.0156857
696.453	0.0155869
696.531	0.0156023
696.609	0.0155750
696.687	0.0157230
696.765	0.0155679
696.843	0.0155131
696.922	0.0157256
697.000	0.0156136
697.078	0.0156067
697.156	0.0154939
697.234	0.0156405
697.312	0.0155376
697.390	0.0156966
697.468	0.0155871
697.547	0.0155082
697.625	0.0155143
697.703	0.0156377
697.781	0.0156620
697.859	0.0156931
697.937	0.0155658
698.015	0.0156176
698.093	0.0154772
698.172	0.0157027
698.250	0.0156731
698.328	0.0156801
698.406	0.0157703
698.484	0.0155523
698.562	0.0156138
698.640	0.0155132
698.718	0.0155184
698.797	0.0156232
698.875	0.0157296
698.953	0.0155524
699.031	0.0156223
699.109	0.0155787
699.187	0.0156017
699.265	0.0156079
699.343	0.0156549
699.422	0.0155388
699.500	0.0156024
699.578	0.0155795
699.656	0.0156378
699.734	0.0156493
699.812	0.0155657
699.890	0.0157776
699.968	0.0156124
700.047	0.0157191
700.125	0.0156513
700.203	0.0157180
700.281	0.0157298
700.359	0.0156508
700.437	0.0156740
700.515	0.0155862
700.593	0.0156101
700.672	0.0155842
700.750	0.0156226
700.828	0.0155868
700.906	0.0156812
700.984	0.0156087
701.062	0.0156435
701.140	0.0157986
701.218	0.0157838
701.297	0.0158381
701.375	0.0158039
701.453	0.0157551
701.531	0.0156806
701.609	0.0156940
701.687	0.0156915
701.765	0.0156777
701.843	0.0157124
701.922	0.0158128
702.000	0.0159055
702.078	0.0156971
702.156	0.0156210
702.234	0.0157433
702.312	0.0157243
702.390	0.0159128
702.468	0.0157469
702.547	0.0156198
702.625	0.0156885
702.703	0.0156277
702.781	0.0155540
702.859	0.0158669
702.937	0.0156691
703.015	0.0156832
703.093	0.0156969
703.172	0.0157045
703.250	0.0157258
703.328	0.0158225
703.406	0.0157896
703.484	0.0157678
703.562	0.0157348
703.640	0.0156377
703.718	0.0157483
703.797	0.0157854
703.875	0.0157574
703.953	0.0156844
704.031	0.0156558
704.109	0.0157817
704.187	0.0155551
704.265	0.0157244
704.343	0.0159057
704.422	0.0158033
704.500	0.0156964
704.578	0.0157001
704.656	0.0157868
704.734	0.0156658
704.812	0.0155994
704.890	0.0156980
704.968	0.0157738
705.047	0.0156947
705.125	0.0156973
705.203	0.0157475
705.281	0.0157500
705.359	0.0158525
705.437	0.0157908
705.515	0.0157188
705.593	0.0157497
705.672	0.0157489
705.750	0.0157319
705.828	0.0158338
705.906	0.0158471
705.984	0.0158266
706.062	0.0156513
706.140	0.0156823
706.218	0.0157843
706.297	0.0156217
706.375	0.0158648
706.453	0.0157919
706.531	0.0157069
706.609	0.0158347
706.687	0.0158017
706.765	0.0157542
706.843	0.0157247
706.922	0.0157406
707.000	0.0157414
707.078	0.0157298
707.156	0.0158060
707.234	0.0157734
707.312	0.0158599
707.390	0.0156429
707.468	0.0155975
707.547	0.0156465
707.625	0.0156949
707.703	0.0157239
707.781	0.0157847
707.859	0.0156289
707.937	0.0155537
708.015	0.0158338
708.093	0.0157735
708.172	0.0156794
708.250	0.0157957
708.328	0.0156527
708.406	0.0157028
708.484	0.0157572
708.562	0.0157844
708.640	0.0156932
708.718	0.0156351
708.797	0.0156877
708.875	0.0157995
708.953	0.0156661
709.031	0.0157865
709.109	0.0156930
709.187	0.0157780
709.265	0.0156645
709.343	0.0157301
709.422	0.0157969
709.500	0.0157613
709.578	0.0156387
709.656	0.0157843
709.734	0.0157105
709.812	0.0155984
709.890	0.0157482
709.968	0.0158298
710.047	0.0156715
710.125	0.0157941
710.203	0.0156777
710.281	0.0157002
710.359	0.0155779
710.437	0.0156996
710.515	0.0157778
710.593	0.0157318
710.672	0.0157342
710.750	0.0156927
710.828	0.0156095
710.906	0.0156947
710.984	0.0157101
711.062	0.0156211
711.140	0.0156482
711.218	0.0158705
711.297	0.0157912
711.375	0.0156277
711.453	0.0156474
711.531	0.0156646
711.609	0.0156477
711.687	0.0156898
711.765	0.0155737
711.843	0.0156297
711.922	0.0157434
712.000	0.0157858
712.078	0.0157262
712.156	0.0155759
712.234	0.0155303
712.312	0.0157015
712.390	0.0156628
712.468	0.0157734
712.547	0.0158122
712.625	0.0156923
712.703	0.0156985
712.781	0.0158508
712.859	0.0157092
712.937	0.0157874
713.015	0.0157922
713.093	0.0155694
713.172	0.0158197
713.250	0.0156748
713.328	0.0156529
713.406	0.0156571
713.484	0.0156354
713.562	0.0156956
713.640	0.0157425
713.718	0.0155842
713.797	0.0157491
713.875	0.0156754
713.953	0.0156516
714.031	0.0156713
714.109	0.0155634
714.187	0.0156041
714.265	0.0157066
714.343	0.0156638
714.422	0.0155772
714.500	0.0156716
714.578	0.0156799
714.656	0.0156309
714.734	0.0157011
714.812	0.0155888
714.890	0.0156676
714.968	0.0156785
715.047	0.0154845
715.125	0.0156674
715.203	0.0157942
715.281	0.0156525
715.359	0.0157529
715.437	0.0157638
715.515	0.0157739
715.593	0.0155624
715.672	0.0157129
715.750	0.0155961
715.828	0.0155781
715.906	0.0155946
715.984	0.0155793
716.062	0.0156949
716.140	0.0157061
716.218	0.0156789
716.297	0.0156940
716.375	0.0156364
716.453	0.0156387
716.531	0.0157146
716.609	0.0155765
716.687	0.0156895
716.765	0.0155706
716.843	0.0157167
716.922	0.0155981
717.000	0.0157166
717.078	0.0156313
717.156	0.0156576
717.234	0.0155829
717.312	0.0156151
717.390	0.0156090
717.468	0.0155610
717.547	0.0155745
717.625	0.0157092
717.703	0.0157543
717.781	0.0157918
717.859	0.0157735
717.937	0.0156840
718.015	0.0157308
718.093	0.0156063
718.172	0.0155785
718.250	0.0157620
718.328	0.0158099
718.406	0.0157127
718.484	0.0156124
718.562	0.0156655
718.640	0.0157347
718.718	0.0156838
718.797	0.0156462
718.875	0.0157456
718.953	0.0157063
719.031	0.0155325
719.109	0.0156265
719.187	0.0155452
719.265	0.0157895
719.343	0.0155708
719.422	0.0157365
719.500	0.0156918
719.578	0.0156803
719.656	0.0156162
719.734	0.0155296
719.812	0.0155278
719.890	0.0156116
719.968	0.0156817
720.047	0.0157086
720.125	0.0156867
720.203	0.0156652
720.281	0.0156336
720.359	0.0157040
720.437	0.0155463
720.515	0.0156956
720.593	0.0156535
720.672	0.0157096
720.750	0.0156147
720.828	0.0155740
720.906	0.0157043
720.984	0.0157647
721.062	0.0155844
721.140	0.0155639
721.218	0.0155614
721.297	0.0155358
721.375	0.0156193
721.453	0.0156497
721.531	0.0156833
721.609	0.0157470
721.687	0.0156984
721.765	0.0156467
721.843	0.0157533
721.922	0.0155910
722.000	0.0154690
722.078	0.0155971
722.156	0.0155702
722.234	0.0156696
722.312	0.0157177
722.390	0.0156139
722.468	0.0155878
722.547	0.0156234
722.625	0.0156606
722.703	0.0156188
722.781	0.0156198
722.859	0.0156039
722.937	0.0156532
723.015	0.0156756
723.093	0.0156779
723.172	0.0154528
723.250	0.0155354
723.328	0.0155931
723.406	0.0157024
723.484	0.0156441
723.562	0.0156078
723.640	0.0154292
723.718	0.0156461
723.797	0.0155869
723.875	0.0156069
723.953	0.0156049
724.031	0.0157351
724.109	0.0157136
724.187	0.0155787
724.265	0.0155965
724.343	0.0156128
724.422	0.0156054
724.500	0.0156180
724.578	0.0156536
724.656	0.0156796
724.734	0.0157226
724.812	0.0156483
724.890	0.0156192
724.968	0.0156145
725.047	0.0156891
725.125	0.0156819
725.203	0.0156318
725.281	0.0156413
725.359	0.0158230
725.437	0.0156628
725.515	0.0156990
725.593	0.0155881
725.672	0.0155939
725.750	0.0155640
725.828	0.0155846
725.906	0.0156651
725.984	0.0157206
726.062	0.0156530
726.140	0.0157358
726.218	0.0156762
726.297	0.0155743
726.375	0.0157793
726.453	0.0156304
726.531	0.0155499
726.609	0.0156055
726.687	0.0156183
726.765	0.0157410
726.843	0.0156919
726.922	0.0156627
727.000	0.0157351
727.078	0.0155811
727.156	0.0155690
727.234	0.0156886
727.312	0.0155368
727.390	0.0157643
727.468	0.0156688
727.547	0.0156415
727.625	0.0156442
727.703	0.0156637
727.781	0.0157248
727.859	0.0156926
727.937	0.0155752
728.015	0.0157306
728.093	0.0156046
728.172	0.0156679
728.250	0.0155622
728.328	0.0156548
728.406	0.0156696
728.484	0.0157732
728.562	0.0156664
728.640	0.0156851
728.718	0.0156661
728.797	0.0157863
728.875	0.0156141
728.953	0.0156974
729.031	0.0158144
729.109	0.0157932
729.187	0.0157155
729.265	0.0157810
729.343	0.0157292
729.422	0.0157156
729.500	0.0156888
729.578	0.0157648
729.656	0.0154701
729.734	0.0156049
729.812	0.0157628
729.890	0.0156954
729.968	0.0157740
730.047	0.0157542
730.125	0.0156950
730.203	0.0157504
730.281	0.0158326
730.359	0.0159347
730.437	0.0157982
730.515	0.0157720
730.593	0.0158247
730.672	0.0157682
730.750	0.0157738
730.828	0.0158099
730.906	0.0157695
730.984	0.0157819
731.062	0.0157999
731.140	0.0157616
731.218	0.0157809
731.297	0.0157523
731.375	0.0156666
731.453	0.0156658
731.531	0.0155888
731.609	0.0155953
731.687	0.0156142
731.765	0.0156426
731.843	0.0157407
731.922	0.0157796
732.000	0.0156877
732.078	0.0158869
732.156	0.0158041
732.234	0.0156821
732.312	0.0157772
732.390	0.0156638
732.468	0.0157133
732.547	0.0157247
732.625	0.0157582
732.703	0.0158195
732.781	0.0156136
732.859	0.0157431
732.937	0.0156750
733.015	0.0156308
733.093	0.0155713
733.172	0.0156867
733.250	0.0155422
733.328	0.0157574
733.406	0.0158852
733.484	0.0157249
733.562	0.0156152
733.640	0.0159497
733.718	0.0157696
733.797	0.0158677
733.875	0.0156233
733.953	0.0156178
734.031	0.0155969
734.109	0.0156528
734.187	0.0156454
734.265	0.0155876
734.343	0.0157049
734.422	0.0155518
734.500	0.0155747
734.578	0.0154979
734.656	0.0156473
734.734	0.0157528
734.812	0.0157706
734.890	0.0156429
734.968	0.0155163
735.047	0.0157516
735.125	0.0157294
735.203	0.0156001
735.281	0.0156471
735.359	0.0155865
735.437	0.0155753
735.515	0.0157433
735.593	0.0156833
735.672	0.0157272
735.750	0.0156441
735.828	0.0156187
735.906	0.0157750
735.984	0.0157631
736.062	0.0156551
736.140	0.0156029
736.218	0.0157737
736.297	0.0157585
736.375	0.0155609
736.453	0.0156726
736.531	0.0156654
736.609	0.0157122
736.687	0.0156666
736.765	0.0157089
736.843	0.0157713
736.922	0.0157586
737.000	0.0158376
737.078	0.0159289
737.156	0.0157152
737.234	0.0156260
737.312	0.0158720
737.390	0.0159077
737.468	0.0157658
737.547	0.0156648
737.625	0.0157113
737.703	0.0156683
737.781	0.0157530
737.859	0.0156216
737.937	0.0157629
738.015	0.0156841
738.093	0.0155617
738.172	0.0156308
738.250	0.0157323
738.328	0.0157286
738.406	0.0156913
738.484	0.0156431
738.562	0.0157745
738.640	0.0157453
738.718	0.0158259
738.797	0.0158128
738.875	0.0157310
738.953	0.0157489
739.031	0.0156583
739.109	0.0158195
739.187	0.0157410
739.265	0.0155659
739.343	0.0155905
739.422	0.0156456
739.500	0.0155801
739.578	0.0156686
739.656	0.0158107
739.734	0.0156897
739.812	0.0157207
739.890	0.0157212
739.968	0.0156595
740.047	0.0156366
740.125	0.0157580
740.203	0.0156189
740.281	0.0156921
740.359	0.0156902
740.437	0.0155791
740.515	0.0157040
740.593	0.0157722
740.672	0.0157545
740.750	0.0157354
740.828	0.0157243
740.906	0.0157619
740.984	0.0158092
741.062	0.0157756
741.140	0.0157085
741.218	0.0156037
741.297	0.0156375
741.375	0.0156561
741.453	0.0154749
741.531	0.0157935
741.609	0.0157053
741.687	0.0155458
741.765	0.0155860
741.843	0.0155733
741.922	0.0156131
742.000	0.0156319
742.078	0.0156266
742.156	0.0157045
742.234	0.0158099
742.312	0.0156773
742.390	0.0156477
742.468	0.0156572
742.547	0.0157368
742.625	0.0157248
742.703	0.0157324
742.781	0.0157404
742.859	0.0157800
742.937	0.0156423
743.015	0.0157691
743.093	0.0157153
743.172	0.0156322
743.250	0.0157400
743.328	0.0157481
743.406	0.0155888
743.484	0.0156454
743.562	0.0155415
743.640	0.0157725
743.718	0.0157114
743.797	0.0157146
743.875	0.0158602
743.953	0.0157506
744.031	0.0158200
744.109	0.0157858
744.187	0.0156513
744.265	0.0156387
744.343	0.0158199
744.422	0.0156284
744.500	0.0155557
744.578	0.0156841
744.656	0.0156438
744.734	0.0156500
744.812	0.0155916
744.890	0.0157315
744.968	0.0157569
745.047	0.0157394
745.125	0.0157713
745.203	0.0158318
745.281	0.0159067
745.359	0.0159479
745.437	0.0157921
745.515	0.0159651
745.593	0.0157941
745.672	0.0159081
745.750	0.0158186
745.828	0.0157401
745.906	0.0157891
745.984	0.0156943
746.062	0.0156290
746.140	0.0158145
746.218	0.0156666
746.297	0.0157008
746.375	0.0158174
746.453	0.0157317
746.531	0.0156794
746.609	0.0156111
746.687	0.0157814
746.765	0.0156612
746.843	0.0156525
746.922	0.0157887
747.000	0.0158192
747.078	0.0157392
747.156	0.0157430
747.234	0.0157638
747.312	0.0158949
747.390	0.0157574
747.468	0.0158330
747.547	0.0157602
747.625	0.0157663
747.703	0.0157333
747.781	0.0157078
747.859	0.0155872
747.937	0.0157681
748.015	0.0155533
748.093	0.0155274
748.172	0.0156406
748.250	0.0156389
748.328	0.0156882
748.406	0.0156758
748.484	0.0157123
748.562	0.0157779
748.640	0.0155980
748.718	0.0157362
748.797	0.0158337
748.875	0.0157675
748.953	0.0158227
749.031	0.0157784
749.109	0.0158275
749.187	0.0157241
749.265	0.0156015
749.343	0.0156541
749.422	0.0156625
749.500	0.0155540
749.578	0.0157209
749.656	0.0156307
749.734	0.0156516
749.812	0.0156460
749.890	0.0156305
749.968	0.0156402
750.047	0.0158353
750.125	0.0158625
750.203	0.0157911
750.281	0.0157092
750.359	0.0159012
750.437	0.0157056
750.515	0.0157600
750.593	0.0155927
750.672	0.0155815
750.750	0.0155970
750.828	0.0155692
750.906	0.0156790
750.984	0.0155367
751.062	0.0154735
751.140	0.0156329
751.218	0.0154478
751.297	0.0156210
751.375	0.0155869
751.453	0.0158235
751.531	0.0157133
751.609	0.0157874
751.687	0.0158367
751.765	0.0158585
751.843	0.0158813
751.922	0.0158933
752.000	0.0158376
752.078	0.0157475
752.156	0.0158137
752.234	0.0157330
752.312	0.0155625
752.390	0.0156268
752.468	0.0155855
752.547	0.0154886
752.625	0.0154031
752.703	0.0156006
752.781	0.0156076
752.859	0.0154158
752.937	0.0156834
753.015	0.0157197
753.093	0.0157609
753.172	0.0157748
753.250	0.0159994
753.328	0.0158994
753.406	0.0159341
753.484	0.0159150
753.562	0.0159984
753.640	0.0159032
753.718	0.0158253
753.797	0.0157285
753.875	0.0156709
753.953	0.0157765
754.031	0.0157224
754.109	0.0156870
754.187	0.0156390
754.265	0.0157003
754.343	0.0156543
754.422	0.0153955
754.500	0.0155606
754.578	0.0156777
754.656	0.0155132
754.734	0.0152767
754.812	0.0153451
754.890	0.0151935
754.968	0.0153218
755.047	0.0154645
755.125	0.0154411
755.203	0.0153450
755.281	0.0154166
755.359	0.0157552
755.437	0.0158026
755.515	0.0157616
755.593	0.0158762
755.672	0.0161886
755.750	0.0160649
755.828	0.0161242
755.906	0.0160246
755.984	0.0160029
756.062	0.0158689
756.140	0.0158466
756.218	0.0158248
756.297	0.0157005
756.375	0.0156540
756.453	0.0156020
756.531	0.0155601
756.609	0.0153691
756.687	0.0153392
756.765	0.0153971
756.843	0.0155122
756.922	0.0154529
757.000	0.0154072
757.078	0.0154930
757.156	0.0153955
757.234	0.0156255
757.312	0.0156445
757.390	0.0157178
757.468	0.0155610
757.547	0.0158053
757.625	0.0158995
757.703	0.0158804
757.781	0.0159024
757.859	0.0160593
757.937	0.0163209
758.015	0.0163161
758.093	0.0162579
758.172	0.0162402
758.250	0.0161938
758.328	0.0161626
758.406	0.0162041
758.484	0.0160178
758.562	0.0159644
758.640	0.0159000
758.718	0.0157561
758.797	0.0156267
758.875	0.0156435
758.953	0.0155550
759.031	0.0154876
759.109	0.0154337
759.187	0.0154166
759.265	0.0153465
759.343	0.0152280
759.422	0.0151334
759.500	0.0148516
759.578	0.0148352
759.656	0.0146745
759.734	0.0144185
759.812	0.0143936
759.890	0.0144875
759.968	0.0145262
760.047	0.0146750
760.125	0.0149306
760.203	0.0151087
760.281	0.0153738
760.359	0.0157345
760.437	0.0159951
760.515	0.0162316
760.593	0.0163474
760.672	0.0165556
760.750	0.0167725
760.828	0.0167317
760.906	0.0168713
760.984	0.0168193
761.062	0.0168613
761.140	0.0168489
761.218	0.0167357
761.297	0.0166328
761.375	0.0165974
761.453	0.0165067
761.531	0.0162651
761.609	0.0162082
761.687	0.0160772
761.765	0.0160030
761.843	0.0158485
761.922	0.0157617
762.000	0.0157587
762.078	0.0158272
762.156	0.0156106
762.234	0.0156493
762.312	0.0156681
762.390	0.0158164
762.468	0.0156728
762.547	0.0157593
762.625	0.0157404
762.703	0.0158153
762.781	0.0157452
762.859	0.0156307
762.937	0.0156122
763.015	0.0155962
763.093	0.0152924
763.172	0.0152299
763.250	0.0149879
763.328	0.0148203
763.406	0.0145832
763.484	0.0145735
763.562	0.0146418
763.640	0.0146272
763.718	0.0146546
763.797	0.0147389
763.875	0.0148682
763.953	0.0150651
764.031	0.0151616
764.109	0.0153516
764.187	0.0154842
764.265	0.0155730
764.343	0.0155835
764.422	0.0156295
764.500	0.0158913
764.578	0.0159450
764.656	0.0159186
764.734	0.0159068
764.812	0.0160310
764.890	0.0160522
764.968	0.0161725
765.047	0.0161813
765.125	0.0161627
765.203	0.0160668
765.281	0.0161290
765.359	0.0160262
765.437	0.0158559
765.515	0.0158152
765.593	0.0159081
765.672	0.0158133
765.750	0.0159193
765.828	0.0158826
765.906	0.0158479
765.984	0.0161890
766.062	0.0162785
766.140	0.0161355
766.218	0.0162001
766.297	0.0162238
766.375	0.0161830
766.453	0.0162319
766.531	0.0164109
766.609	0.0163905
766.687	0.0163938
766.765	0.0161815
766.843	0.0163653
766.922	0.0164107
767.000	0.0164306
767.078	0.0163592
767.156	0.0162891
767.234	0.0163795
767.312	0.0162445
767.390	0.0162097
767.468	0.0160722
767.547	0.0159292
767.625	0.0158758
767.703	0.0156457
767.781	0.0154972
767.859	0.0151359
767.937	0.0151402
768.015	0.0152477
768.093	0.0148692
768.172	0.0146223
768.250	0.0146310
768.328	0.0144496
768.406	0.0143474
768.484	0.0143809
768.562	0.0142155
768.640	0.0141939
768.718	0.0141387
768.797	0.0140643
768.875	0.0141554
768.953	0.0143362
769.031	0.0142696
769.109	0.0143274
769.187	0.0144543
769.265	0.0144439
769.343	0.0147095
769.422	0.0147389
769.500	0.0148405
769.578	0.0150883
769.656	0.0152507
769.734	0.0153576
769.812	0.0155185
769.890	0.0157816
769.968	0.0158888
770.047	0.0162260
770.125	0.0164149
770.203	0.0165442
770.281	0.0167646
770.359	0.0170882
770.437	0.0171763
770.515	0.0173337
770.593	0.0173520
770.672	0.0175492
770.750	0.0174736
770.828	0.0175520
770.906	0.0176991
770.984	0.0176681
771.062	0.0175785
771.140	0.0175578
771.218	0.0174983
771.297	0.0174381
771.375	0.0174435
771.453	0.0173474
771.531	0.0171437
771.609	0.0169557
771.687	0.0168230
771.765	0.0165142
771.843	0.0163567
771.922	0.0161235
772.000	0.0156264
772.078	0.0153608
772.156	0.0148347
772.234	0.0146281
772.312	0.0145163
772.390	0.0143484
772.468	0.0141640
772.547	0.0141686
772.625	0.0141294
772.703	0.0140790
772.781	0.0140952
772.859	0.0142307
772.937	0.0143175
773.015	0.0144318
773.093	0.0143952
773.172	0.0145964
773.250	0.0146845
773.328	0.0148434
773.406	0.0149986
773.484	0.0150561
773.562	0.0150010
773.640	0.0149506
773.718	0.0148593
773.797	0.0147023
773.875	0.0146477
773.953	0.0143807
774.031	0.0143278
774.109	0.0142888
774.187	0.0142510
774.265	0.0142264
774.343	0.0142625
774.422	0.0143996
774.500	0.0143899
774.578	0.0145836
774.656	0.0148930
774.734	0.0151328
774.812	0.0154153
774.890	0.0156249
774.968	0.0159288
775.047	0.0163332
775.125	0.0165315
775.203	0.0167194
775.281	0.0167517
775.359	0.0171442
775.437	0.0170862
775.515	0.0171288
775.593	0.0171632
775.672	0.0169071
775.750	0.0170714
775.828	0.0169952
775.906	0.0168041
775.984	0.0169293
776.062	0.0169218
776.140	0.0168870
776.218	0.0171453
776.297	0.0172108
776.375	0.0172993
776.453	0.0175332
776.531	0.0174811
776.609	0.0176128
776.687	0.0178405
776.765	0.0176970
776.843	0.0175700
776.922	0.0173811
777.000	0.0172108
777.078	0.0171599
777.156	0.0168089
777.234	0.0166541
777.312	0.0163493
777.390	0.0161287
777.468	0.0159406
777.547	0.0156615
777.625	0.0154620
777.703	0.0152119
777.781	0.0150043
777.859	0.0149467
777.937	0.0145248
778.015	0.0144279
778.093	0.0142862
778.172	0.0139227
778.250	0.0138495
778.328	0.0136628
778.406	0.0133246
778.484	0.0133150
778.562	0.0131097
778.640	0.0128556
778.718	0.0128152
778.797	0.0126594
778.875	0.0124458
778.953	0.0125258
779.031	0.0125159
779.109	0.0125647
779.187	0.0125025
779.265	0.0126379
779.343	0.0130811
779.422	0.0132797
779.500	0.0135041
779.578	0.0137992
779.656	0.0141216
779.734	0.0144927
779.812	0.0148898
779.890	0.0152827
779.968	0.0155929
780.047	0.0159687
780.125	0.0165184
780.203	0.0168742
780.281	0.0172115
780.359	0.0175994
780.437	0.0180674
780.515	0.0183232
780.593	0.0185613
780.672	0.0189806
780.750	0.0193549
780.828	0.0194615
780.906	0.0195938
780.984	0.0196871
781.062	0.0196474
781.140	0.0196389
781.218	0.0195924
781.297	0.0195927
781.375	0.0193291
781.453	0.0191535
781.531	0.0187961
781.609	0.0185290
781.687	0.0181962
781.765	0.0177594
781.843	0.0173261
781.922	0.0168609
782.000	0.0164739
782.078	0.0159417
782.156	0.0155007
782.234	0.0150677
782.312	0.0147613
782.390	0.0144757
782.468	0.0139805
782.547	0.0137286
782.625	0.0135248
782.703	0.0132984
782.781	0.0130711
782.859	0.0130771
782.937	0.0129826
783.015	0.0129288
783.093	0.0130373
783.172	0.0130869
783.250	0.0132223
783.328	0.0132762
783.406	0.0135067
783.484	0.0136294
783.562	0.0138285
783.640	0.0140181
783.718	0.0142805
783.797	0.0143625
783.875	0.0143446
783.953	0.0143615
784.031	0.0145463
784.109	0.0144117
784.187	0.0145269
784.265	0.0145700
784.343	0.0145818
784.422	0.0147876
784.500	0.0146526
784.578	0.0147239
784.656	0.0149933
784.734	0.0150500
784.812	0.0153580
784.890	0.0154545
784.968	0.0156281
785.047	0.0157317
785.125	0.0158237
785.203	0.0159061
785.281	0.0160320
785.359	0.0159507
785.437	0.0160826
785.515	0.0161956
785.593	0.0161987
785.672	0.0161956
785.750	0.0163664
785.828	0.0165936
785.906	0.0167870
785.984	0.0170708
786.062	0.0175179
786.140	0.0177099
786.218	0.0180209
786.297	0.0184171
786.375	0.0187578
786.453	0.0189816
786.531	0.0192178
786.609	0.0195837
786.687	0.0195530
786.765	0.0195912
786.843	0.0195670
786.922	0.0193594
787.000	0.0190750
787.078	0.0186707
787.156	0.0182477
787.234	0.0177824
787.312	0.0170409
787.390	0.0163795
787.468	0.0158089
787.547	0.0151723
787.625	0.0145885
787.703	0.0139155
787.781	0.0134141
787.859	0.0129707
787.937	0.0128082
788.015	0.0126131
788.093	0.0123569
788.172	0.0123365
788.250	0.0123854
788.328	0.0125190
788.406	0.0127643
788.484	0.0128796
788.562	0.0131290
788.640	0.0134711
788.718	0.0138892
788.797	0.0140966
788.875	0.0144781
788.953	0.0147825
789.031	0.0149277
789.109	0.0152416
789.187	0.0154182
789.265	0.0156027
789.343	0.0158812
789.422	0.0159364
789.500	0.0159032
789.578	0.0159617
789.656	0.0158041
789.734	0.0156291
789.812	0.0153719
789.890	0.0152043
789.968	0.0151337
790.047	0.0147968
790.125	0.0145192
790.203	0.0144611
790.281	0.0143372
790.359	0.0142747
790.437	0.0144470
790.515	0.0148587
790.593	0.0149480
790.672	0.0150395
790.750	0.0153771
790.828	0.0158298
790.906	0.0161214
790.984	0.0165478
791.062	0.0168292
791.140	0.0171340
791.218	0.0171819
791.297	0.0173897
791.375	0.0176157
791.453	0.0175768
791.531	0.0174951
791.609	0.0178954
791.687	0.0178140
791.765	0.0176333
791.843	0.0178160
791.922	0.0177715
792.000	0.0175832
792.078	0.0175426
792.156	0.0175252
792.234	0.0174492
792.312	0.0171127
792.390	0.0169864
792.468	0.0169079
792.547	0.0167493
792.625	0.0165807
792.703	0.0163661
792.781	0.0160609
792.859	0.0156723
792.937	0.0155790
793.015	0.0151658
793.093	0.0149487
793.172	0.0149062
793.250	0.0146268
793.328	0.0143862
793.406	0.0143991
793.484	0.0143255
793.562	0.0139529
793.640	0.0140237
793.718	0.0140865
793.797	0.0141759
793.875	0.0141312
793.953	0.0141118
794.031	0.0142115
794.109	0.0143894
794.187	0.0144798
794.265	0.0145993
794.343	0.0146881
794.422	0.0147631
794.500	0.0150370
794.578	0.0151389
794.656	0.0153036
794.734	0.0152420
794.812	0.0156104
794.890	0.0156629
794.968	0.0155260
795.047	0.0157416
795.125	0.0157288
795.203	0.0157578
795.281	0.0157819
795.359	0.0158427
795.437	0.0156271
795.515	0.0154998
795.593	0.0154308
795.672	0.0151237
795.750	0.0148052
795.828	0.0147788
795.906	0.0145324
795.984	0.0145345
796.062	0.0144659
796.140	0.0142544
796.218	0.0142902
796.297	0.0143462
796.375	0.0144109
796.453	0.0147530
796.531	0.0148855
796.609	0.0151834
796.687	0.0153999
796.765	0.0156779
796.843	0.0160346
796.922	0.0164555
797.000	0.0166427
797.078	0.0168969
797.156	0.0173015
797.234	0.0173402
797.312	0.0174930
797.390	0.0178604
797.468	0.0177818
797.547	0.0177462
797.625	0.0177965
797.703	0.0176492
797.781	0.0176238
797.859	0.0174032
797.937	0.0172110
798.015	0.0170221
798.093	0.0168493
798.172	0.0166164
798.250	0.0164114
798.328	0.0161646
798.406	0.0157398
798.484	0.0157434
798.562	0.0157809
798.640	0.0154070
798.718	0.0151965
798.797	0.0152254
798.875	0.0152722
798.953	0.0150586
799.031	0.0150647
799.109	0.0149494
799.187	0.0150060
799.265	0.0151675
799.343	0.0152748
799.422	0.0151178
799.500	0.0152175
799.578	0.0152809
799.656	0.0152744
799.734	0.0152521
799.812	0.0153897
799.890	0.0153892
799.968	0.0154443
800.047	0.0155050
800.125	0.0153447
800.203	0.0151653
800.281	0.0150203
800.359	0.0149726
800.437	0.0148969
800.515	0.0146503
800.593	0.0144769
800.672	0.0143905
800.750	0.0141593
800.828	0.0141582
800.906	0.0140768
800.984	0.0139865
801.062	0.0140802
801.140	0.0138860
801.218	0.0140026
801.297	0.0139928
801.375	0.0141362
801.453	0.0142947
801.531	0.0144192
801.609	0.0146111
801.687	0.0149131
801.765	0.0150738
801.843	0.0152684
801.922	0.0157386
802.000	0.0159096
802.078	0.0159631
802.156	0.0162900
802.234	0.0164108
802.312	0.0167270
802.390	0.0170025
802.468	0.0170153
802.547	0.0171190
802.625	0.0173628
802.703	0.0174323
802.781	0.0175333
802.859	0.0175151
802.937	0.0175773
803.015	0.0176867
803.093	0.0175797
803.172	0.0173637
803.250	0.0174656
803.328	0.0174226
803.406	0.0171832
803.484	0.0171607
803.562	0.0169769
803.640	0.0166125
803.718	0.0164955
803.797	0.0164066
803.875	0.0162272
803.953	0.0161162
804.031	0.0159084
804.109	0.0157648
804.187	0.0156496
804.265	0.0154111
804.343	0.0152075
804.422	0.0151195
804.500	0.0151404
804.578	0.0149291
804.656	0.0148622
804.734	0.0148987
804.812	0.0149513
804.890	0.0149366
804.968	0.0148943
805.047	0.0148224
805.125	0.0149357
805.203	0.0148381
805.281	0.0149205
805.359	0.0149487
805.437	0.0148792
805.515	0.0146296
805.593	0.0147179
805.672	0.0145455
805.750	0.0144360
805.828	0.0142867
805.906	0.0142667
805.984	0.0141535
806.062	0.0143140
806.140	0.0141480
806.218	0.0139921
806.297	0.0144190
806.375	0.0145068
806.453	0.0147244
806.531	0.0149423
806.609	0.0151653
806.687	0.0151406
806.765	0.0156066
806.843	0.0157531
806.922	0.0158950
807.000	0.0161810
807.078	0.0164448
807.156	0.0164478
807.234	0.0165051
807.312	0.0168808
807.390	0.0167769
807.468	0.0169858
807.547	0.0169997
807.625	0.0169176
807.703	0.0169735
807.781	0.0169630
807.859	0.0169465
807.937	0.0170614
808.015	0.0170860
808.093	0.0170381
808.172	0.0169942
808.250	0.0169153
808.328	0.0167935
808.406	0.0166863
808.484	0.0165702
808.562	0.0165360
808.640	0.0163631
808.718	0.0161394
808.797	0.0159171
808.875	0.0158936
808.953	0.0156568
809.031	0.0154741
809.109	0.0154430
809.187	0.0152203
809.265	0.0151730
809.343	0.0150529
809.422	0.0150045
809.500	0.0150933
809.578	0.0151027
809.656	0.0150071
809.734	0.0151189
809.812	0.0151109
809.890	0.0153356
809.968	0.0154391
810.047	0.0152840
810.125	0.0152451
810.203	0.0154118
810.281	0.0154281
810.359	0.0153520
810.437	0.0151724
810.515	0.0151919
810.593	0.0152486
810.672	0.0152289
810.750	0.0150128
810.828	0.0150364
810.906	0.0149187
810.984	0.0147459
811.062	0.0149691
811.140	0.0149165
811.218	0.0149648
811.297	0.0150024
811.375	0.0150954
811.453	0.0152872
811.531	0.0153116
811.609	0.0155154
811.687	0.0155516
811.765	0.0157030
811.843	0.0158262
811.922	0.0158006
812.000	0.0159948
812.078	0.0161088
812.156	0.0161128
812.234	0.0162754
812.312	0.0163471
812.390	0.0163406
812.468	0.0162985
812.547	0.0163634
812.625	0.0165128
812.703	0.0165736
812.781	0.0166933
812.859	0.0166038
812.937	0.0165131
813.015	0.0165543
813.093	0.0165547
813.172	0.0164935
813.250	0.0163859
813.328	0.0162467
813.406	0.0163821
813.484	0.0160683
813.562	0.0159415
813.640	0.0159737
813.718	0.0157615
813.797	0.0156317
813.875	0.0155382
813.953	0.0153838
814.031	0.0151215
814.109	0.0153394
814.187	0.0151679
814.265	0.0150811
814.343	0.0151752
814.422	0.0150301
814.500	0.0151019
814.578	0.0150040
814.656	0.0150138
814.734	0.0150240
814.812	0.0150629
814.890	0.0151456
814.968	0.0151240
815.047	0.0152004
815.125	0.0151852
815.203	0.0150085
815.281	0.0152333
815.359	0.0152778
815.437	0.0153600
815.515	0.0153446
815.593	0.0152681
815.672	0.0153059
815.750	0.0152591
815.828	0.0154089
815.906	0.0153806
815.984	0.0152820
816.062	0.0154032
816.140	0.0153707
816.218	0.0155135
816.297	0.0154127
816.375	0.0153877
816.453	0.0153786
816.531	0.0155036
816.609	0.0156357
816.687	0.0155850
816.765	0.0156331
816.843	0.0156541
816.922	0.0157843
817.000	0.0159266
817.078	0.0159540
817.156	0.0160703
817.234	0.0161233
817.312	0.0161272
817.390	0.0161394
817.468	0.0164438
817.547	0.0164558
817.625	0.0164982
817.703	0.0166309
817.781	0.0163759
817.859	0.0165122
817.937	0.0164813
818.015	0.0165071
818.093	0.0164682
818.172	0.0165543
818.250	0.0164371
818.328	0.0163839
818.406	0.0164014
818.484	0.0163215
818.562	0.0161536
818.640	0.0160827
818.718	0.0158279
818.797	0.0156592
818.875	0.0156252
818.953	0.0153632
819.031	0.0153745
819.109	0.0152148
819.187	0.0149929
819.265	0.0148902
819.343	0.0148341
819.422	0.0148546
819.500	0.0147646
819.578	0.0149439
819.656	0.0148360
819.734	0.0149075
819.812	0.0150729
819.890	0.0150874
819.968	0.0150131
820.047	0.0150488
820.125	0.0152017
820.203	0.0152502
820.281	0.0152614
820.359	0.0152058
820.437	0.0152448
820.515	0.0153049
820.593	0.0153449
820.672	0.0152569
820.750	0.0152505
820.828	0.0152263
820.906	0.0151965
820.984	0.0150786
821.062	0.0153243
821.140	0.0151842
821.218	0.0152567
821.297	0.0153790
821.375	0.0151912
821.453	0.0152666
821.531	0.0154630
821.609	0.0153269
821.687	0.0153165
821.765	0.0153761
821.843	0.0154731
821.922	0.0154449
822.000	0.0155782
822.078	0.0153866
822.156	0.0154807
822.234	0.0155546
822.312	0.0156185
822.390	0.0158215
822.468	0.0158145
822.547	0.0159058
822.625	0.0160755
822.703	0.0160505
822.781	0.0162056
822.859	0.0163641
822.937	0.0165536
823.015	0.0167085
823.093	0.0168295
823.172	0.0169499
823.250	0.0170848
823.328	0.0169666
823.406	0.0169365
823.484	0.0168591
823.562	0.0168320
823.640	0.0166503
823.718	0.0165231
823.797	0.0164813
823.875	0.0163203
823.953	0.0161711
824.031	0.0159164
824.109	0.0157762
824.187	0.0157251
824.265	0.0154462
824.343	0.0153464
824.422	0.0150619
824.500	0.0150664
824.578	0.0149642
824.656	0.0149008
824.734	0.0147206
824.812	0.0147522
824.890	0.0147007
824.968	0.0146676
825.047	0.0147116
825.125	0.0148637
825.203	0.0148392
825.281	0.0150051
825.359	0.0151455
825.437	0.0152512
825.515	0.0154015
825.593	0.0154453
825.672	0.0155573
825.750	0.0156759
825.828	0.0157367
825.906	0.0158060
825.984	0.0159540
826.062	0.0159402
826.140	0.0159836
826.218	0.0160718
826.297	0.0159401
826.375	0.0158203
826.453	0.0158405
826.531	0.0158256
826.609	0.0158144
826.687	0.0157032
826.765	0.0155814
826.843	0.0156259
826.922	0.0154182
827.000	0.0154561
827.078	0.0155550
827.156	0.0153633
827.234	0.0154228
827.312	0.0152380
827.390	0.0153210
827.468	0.0152086
827.547	0.0152232
827.625	0.0152747
827.703	0.0152925
827.781	0.0152921
827.859	0.0153386
827.937	0.0152334
828.015	0.0154391
828.093	0.0155754
828.172	0.0155751
828.250	0.0156742
828.328	0.0158186
828.406	0.0158700
828.484	0.0161385
828.562	0.0162991
828.640	0.0163763
828.718	0.0165012
828.797	0.0167204
828.875	0.0166869
828.953	0.0166747
829.031	0.0167889
829.109	0.0167650
829.187	0.0167764
829.265	0.0167887
829.343	0.0165691
829.422	0.0165733
829.500	0.0163396
829.578	0.0161685
829.656	0.0159595
829.734	0.0158681
829.812	0.0155252
829.890	0.0154772
829.968	0.0152644
830.047	0.0151767
830.125	0.0150532
830.203	0.0149281
830.281	0.0148757
830.359	0.0148615
830.437	0.0148701
830.515	0.0147154
830.593	0.0149830
830.672	0.0149818
830.750	0.0151231
830.828	0.0152932
830.906	0.0152663
830.984	0.0155430
831.062	0.0155784
831.140	0.0157477
831.218	0.0158200
831.297	0.0160202
831.375	0.0161913
831.453	0.0161683
831.531	0.0162128
831.609	0.0161263
831.687	0.0161771
831.765	0.0160806
831.843	0.0160220
831.922	0.0159891
832.000	0.0158018
832.078	0.0157598
832.156	0.0157618
832.234	0.0156750
832.312	0.0155791
832.390	0.0154882
832.468	0.0153338
832.547	0.0152748
832.625	0.0152470
832.703	0.0151626
832.781	0.0152049
832.859	0.0151812
832.937	0.0150947
833.015	0.0151722
833.093	0.0150648
833.172	0.0149692
833.250	0.0150936
833.328	0.0150096
833.406	0.0149525
833.484	0.0151612
833.562	0.0153317
833.640	0.0153976
833.718	0.0154288
833.797	0.0155000
833.875	0.0156389
833.953	0.0158885
834.031	0.0160154
834.109	0.0161378
834.187	0.0162830
834.265	0.0166231
834.343	0.0166400
834.422	0.0166779
834.500	0.0167609
834.578	0.0167981
834.656	0.0167633
834.734	0.0166866
834.812	0.0167520
834.890	0.0165942
834.968	0.0165024
835.047	0.0163949
835.125	0.0161631
835.203	0.0160006
835.281	0.0158376
835.359	0.0157108
835.437	0.0153900
835.515	0.0154156
835.593	0.0151957
835.672	0.0149834
835.750	0.0151112
835.828	0.0149934
835.906	0.0148244
835.984	0.0150010
836.062	0.0150194
836.140	0.0150696
836.218	0.0151985
836.297	0.0154185
836.375	0.0155163
836.453	0.0156005
836.531	0.0156046
836.609	0.0156886
836.687	0.0157861
836.765	0.0159116
836.843	0.0160531
836.922	0.0161741
837.000	0.0160510
837.078	0.0161174
837.156	0.0159877
837.234	0.0160823
837.312	0.0159167
837.390	0.0158641
837.468	0.0158559
837.547	0.0157531
837.625	0.0155933
837.703	0.0154373
837.781	0.0155175
837.859	0.0153474
837.937	0.0152141
838.015	0.0152060
838.093	0.0150215
838.172	0.0151217
838.250	0.0149207
838.328	0.0149405
838.406	0.0150524
838.484	0.0150321
838.562	0.0150706
838.640	0.0150974
838.718	0.0150025
838.797	0.0151804
838.875	0.0151043
838.953	0.0151490
839.031	0.0152483
839.109	0.0154353
839.187	0.0154195
839.265	0.0154291
839.343	0.0155854
839.422	0.0156835
839.500	0.0157658
839.578	0.0160396
839.656	0.0160948
839.734	0.0163188
839.812	0.0163010
839.890	0.0163510
839.968	0.0164735
840.047	0.0163780
840.125	0.0163109
840.203	0.0164793
840.281	0.0163574
840.359	0.0162405
840.437	0.0160630
840.515	0.0162516
840.593	0.0160219
840.672	0.0158662
840.750	0.0157167
840.828	0.0156013
840.906	0.0155078
840.984	0.0153621
841.062	0.0152038
841.140	0.0150719
841.218	0.0150052
841.297	0.0151350
841.375	0.0151746
841.453	0.0151367
841.531	0.0152230
841.609	0.0151743
841.687	0.0153936
841.765	0.0154723
841.843	0.0156112
841.922	0.0154909
842.000	0.0156941
842.078	0.0158915
842.156	0.0158639
842.234	0.0157908
842.312	0.0159860
842.390	0.0160719
842.468	0.0161295
842.547	0.0160604
842.625	0.0161343
842.703	0.0160872
842.781	0.0161740
842.859	0.0159880
842.937	0.0160167
843.015	0.0160076
843.093	0.0158144
843.172	0.0157660
843.250	0.0157059
843.328	0.0155472
843.406	0.0155291
843.484	0.0153492
843.562	0.0153226
843.640	0.0152092
843.718	0.0153664
843.797	0.0151678
843.875	0.0151730
843.953	0.0151064
844.031	0.0151855
844.109	0.0152072
844.187	0.0152461
844.265	0.0151620
844.343	0.0152318
844.422	0.0153932
844.500	0.0154047
844.578	0.0154381
844.656	0.0155087
844.734	0.0155853
844.812	0.0156731
844.890	0.0156776
844.968	0.0157195
845.047	0.0157935
845.125	0.0158842
845.203	0.0159310
845.281	0.0159674
845.359	0.0160474
845.437	0.0159122
845.515	0.0160632
845.593	0.0162312
845.672	0.0161800
845.750	0.0161176
845.828	0.0160767
845.906	0.0160805
845.984	0.0161250
846.062	0.0161866
846.140	0.0159836
846.218	0.0159188
846.297	0.0157605
846.375	0.0157921
846.453	0.0159800
846.531	0.0156709
846.609	0.0155937
846.687	0.0155839
846.765	0.0157147
846.843	0.0156017
846.922	0.0155251
847.000	0.0155763
847.078	0.0156542
847.156	0.0154507
847.234	0.0154568
847.312	0.0154874
847.390	0.0156367
847.468	0.0157764
847.547	0.0155804
847.625	0.0158131
847.703	0.0157466
847.781	0.0157659
847.859	0.0158102
847.937	0.0159160
848.015	0.0159161
848.093	0.0157647
848.172	0.0159135
848.250	0.0159216
848.328	0.0159184
848.406	0.0159880
848.484	0.0158317
848.562	0.0158798
848.640	0.0157932
848.718	0.0158210
848.797	0.0158080
848.875	0.0157452
848.953	0.0156332
849.031	0.0156158
849.109	0.0154820
849.187	0.0156064
849.265	0.0154221
849.343	0.0153590
849.422	0.0155104
849.500	0.0154758
849.578	0.0155337
849.656	0.0155856
849.734	0.0155707
849.812	0.0156035
849.890	0.0156042
849.968	0.0157979
850.047	0.0157316
850.125	0.0157968
850.203	0.0157098
850.281	0.0158140
850.359	0.0158584
850.437	0.0157622
850.515	0.0158602
850.593	0.0159680
850.672	0.0159499
850.750	0.0158781
850.828	0.0160772
850.906	0.0159062
850.984	0.0159052
851.062	0.0158455
851.140	0.0160225
851.218	0.0157881
851.297	0.0159377
851.375	0.0158955
851.453	0.0158315
851.531	0.0157796
851.609	0.0156117
851.687	0.0157960
851.765	0.0157863
851.843	0.0157051
851.922	0.0155436
852.000	0.0157354
852.078	0.0155815
852.156	0.0155954
852.234	0.0154583
852.312	0.0157024
852.390	0.0157885
852.468	0.0156699
852.547	0.0157641
852.625	0.0157302
852.703	0.0157467
852.781	0.0157203
852.859	0.0157014
852.937	0.0155962
853.015	0.0156332
853.093	0.0156100
853.172	0.0155360
853.250	0.0155046
853.328	0.0155104
853.406	0.0155802
853.484	0.0153783
853.562	0.0155397
853.640	0.0154149
853.718	0.0153680
853.797	0.0153880
853.875	0.0152916
853.953	0.0154546
854.031	0.0155444
854.109	0.0155006
854.187	0.0155171
854.265	0.0155643
854.343	0.0156119
854.422	0.0156134
854.500	0.0156549
854.578	0.0155237
854.656	0.0157510
854.734	0.0157345
854.812	0.0156980
854.890	0.0157394
854.968	0.0158559
855.047	0.0158549
855.125	0.0158459
855.203	0.0158804
855.281	0.0158841
855.359	0.0158117
855.437	0.0158198
855.515	0.0158064
855.593	0.0158360
855.672	0.0158085
855.750	0.0157285
855.828	0.0158527
855.906	0.0156682
855.984	0.0157420
856.062	0.0157991
856.140	0.0156197
856.218	0.0156068
856.297	0.0155781
856.375	0.0155357
856.453	0.0155829
856.531	0.0156500
856.609	0.0156715
856.687	0.0156588
856.765	0.0155701
856.843	0.0156623
856.922	0.0156341
857.000	0.0156067
857.078	0.0157171
857.156	0.0155063
857.234	0.0154047
857.312	0.0154990
857.390	0.0156692
857.468	0.0155429
857.547	0.0156406
857.625	0.0156104
857.703	0.0155908
857.781	0.0157926
857.859	0.0156995
857.937	0.0157195
858.015	0.0157933
858.093	0.0158022
858.172	0.0158304
858.250	0.0158787
858.328	0.0158547
858.406	0.0157693
858.484	0.0157978
858.562	0.0160208
858.640	0.0158493
858.718	0.0158439
858.797	0.0157951
858.875	0.0157217
858.953	0.0156863
859.031	0.0158303
859.109	0.0157084
859.187	0.0155884
859.265	0.0155316
859.343	0.0155392
859.422	0.0154707
859.500	0.0155082
859.578	0.0154762
859.656	0.0154786
859.734	0.0154468
859.812	0.0154753
859.890	0.0154477
859.968	0.0156156
860.047	0.0155142
860.125	0.0154709
860.203	0.0155983
860.281	0.0155013
860.359	0.0155707
860.437	0.0157324
860.515	0.0157848
860.593	0.0156402
860.672	0.0156068
860.750	0.0158392
860.828	0.0156786
860.906	0.0155872
860.984	0.0156347
861.062	0.0156846
861.140	0.0155489
861.218	0.0155818
861.297	0.0155621
861.375	0.0155759
861.453	0.0154681
861.531	0.0156648
861.609	0.0156885
861.687	0.0155647
861.765	0.0156644
861.843	0.0155793
861.922	0.0156864
862.000	0.0157716
862.078	0.0157043
862.156	0.0157618
862.234	0.0157740
862.312	0.0156097
862.390	0.0156393
862.468	0.0157841
862.547	0.0156654
862.625	0.0157148
862.703	0.0156929
862.781	0.0157446
862.859	0.0157280
862.937	0.0156937
863.015	0.0157889
863.093	0.0156499
863.172	0.0157649
863.250	0.0158237
863.328	0.0158572
863.406	0.0157756
863.484	0.0157153
863.562	0.0159136
863.640	0.0159635
863.718	0.0160496
863.797	0.0159938
863.875	0.0159605
863.953	0.0160574
864.031	0.0160006
864.109	0.0159229
864.187	0.0159661
864.265	0.0159690
864.343	0.0159341
864.422	0.0159354
864.500	0.0157459
864.578	0.0157568
864.656	0.0156285
864.734	0.0156713
864.812	0.0155420
864.890	0.0154914
864.968	0.0156180
865.047	0.0153358
865.125	0.0155656
865.203	0.0155138
865.281	0.0151968
865.359	0.0153152
865.437	0.0154285
865.515	0.0153724
865.593	0.0152483
865.672	0.0153928
865.750	0.0154094
865.828	0.0153874
865.906	0.0151934
865.984	0.0153905
866.062	0.0154820
866.140	0.0154604
866.218	0.0155559
866.297	0.0155359
866.375	0.0155437
866.453	0.0154493
866.531	0.0154826
866.609	0.0155771
866.687	0.0155361
866.765	0.0155433
866.843	0.0155788
866.922	0.0157700
867.000	0.0157006
867.078	0.0158284
867.156	0.0157962
867.234	0.0158365
867.312	0.0158139
867.390	0.0158789
867.468	0.0158892
867.547	0.0160455
867.625	0.0158007
867.703	0.0159622
867.781	0.0158977
867.859	0.0160718
867.937	0.0158060
868.015	0.0157802
868.093	0.0158865
868.172	0.0159168
868.250	0.0157856
868.328	0.0157310
868.406	0.0157253
868.484	0.0158040
868.562	0.0156552
868.640	0.0158056
868.718	0.0156738
868.797	0.0156414
868.875	0.0158710
868.953	0.0157200
869.031	0.0158344
869.109	0.0158967
869.187	0.0158553
869.265	0.0159006
869.343	0.0158313
869.422	0.0157822
869.500	0.0157887
869.578	0.0158488
869.656	0.0159151
869.734	0.0158210
869.812	0.0156767
869.890	0.0158408
869.968	0.0158539
870.047	0.0158984
870.125	0.0158584
870.203	0.0159452
870.281	0.0158508
870.359	0.0158051
870.437	0.0157446
870.515	0.0157479
870.593	0.0157957
870.672	0.0155923
870.750	0.0156928
870.828	0.0156813
870.906	0.0155595
870.984	0.0155413
871.062	0.0154888
871.140	0.0155299
871.218	0.0154757
871.297	0.0155565
871.375	0.0155255
871.453	0.0154928
871.531	0.0154509
871.609	0.0153833
871.687	0.0154876
871.765	0.0154173
871.843	0.0154748
871.922	0.0155614
872.000	0.0156248
872.078	0.0155866
872.156	0.0155683
872.234	0.0156120
872.312	0.0157817
872.390	0.0156950
872.468	0.0156202
872.547	0.0157030
872.625	0.0158103
872.703	0.0157871
872.781	0.0157476
872.859	0.0157612
872.937	0.0157163
873.015	0.0157365
873.093	0.0157858
873.172	0.0157166
873.250	0.0156126
873.328	0.0158015
873.406	0.0156211
873.484	0.0155578
873.562	0.0156398
873.640	0.0155917
873.718	0.0155217
873.797	0.0155235
873.875	0.0154640
873.953	0.0154945
874.031	0.0153899
874.109	0.0155360
874.187	0.0156967
874.265	0.0157784
874.343	0.0156189
874.422	0.0158173
874.500	0.0158332
874.578	0.0158758
874.656	0.0159106
874.734	0.0158955
874.812	0.0159965
874.890	0.0160243
874.968	0.0160186
875.047	0.0159216
875.125	0.0159381
875.203	0.0159270
875.281	0.0159568
875.359	0.0158113
875.437	0.0159095
875.515	0.0158250
875.593	0.0157906
875.672	0.0155952
875.750	0.0156117
875.828	0.0155606
875.906	0.0155626
875.984	0.0154624
876.062	0.0154737
876.140	0.0154888
876.218	0.0153335
876.297	0.0154750
876.375	0.0155785
876.453	0.0154581
876.531	0.0153090
876.609	0.0155212
876.687	0.0154164
876.765	0.0156527
876.843	0.0156770
876.922	0.0156088
877.000	0.0154833
877.078	0.0155811
877.156	0.0157272
877.234	0.0156837
877.312	0.0155804
877.390	0.0156723
877.468	0.0157102
877.547	0.0157256
877.625	0.0157729
877.703	0.0158324
877.781	0.0159869
877.859	0.0157700
877.937	0.0158109
878.015	0.0160136
878.093	0.0159100
878.172	0.0158526
878.250	0.0159850
878.328	0.0159395
878.406	0.0158596
878.484	0.0158670
878.562	0.0157784
878.640	0.0156265
878.718	0.0155573
878.797	0.0155695
878.875	0.0155142
878.953	0.0154963
879.031	0.0154737
879.109	0.0154547
879.187	0.0153230
879.265	0.0154244
879.343	0.0154034
879.422	0.0153129
879.500	0.0153491
879.578	0.0154745
879.656	0.0154848
879.734	0.0155577
879.812	0.0154522
879.890	0.0155534
879.968	0.0156105
880.047	0.0155387
880.125	0.0157566
880.203	0.0156493
880.281	0.0157095
880.359	0.0158346
880.437	0.0157870
880.515	0.0159585
880.593	0.0157989
880.672	0.0157269
880.750	0.0157423
880.828	0.0159191
880.906	0.0159406
880.984	0.0157517
881.062	0.0157532
881.140	0.0157742
881.218	0.0157654
881.297	0.0157918
881.375	0.0158455
881.453	0.0157244
881.531	0.0158359
881.609	0.0157639
881.687	0.0159275
881.765	0.0158068
881.843	0.0156007
881.922	0.0156963
882.000	0.0156889
882.078	0.0156735
882.156	0.0156689
882.234	0.0156453
882.312	0.0158026
882.390	0.0158805
882.468	0.0155524
882.547	0.0155880
882.625	0.0157220
882.703	0.0156287
882.781	0.0156597
882.859	0.0156886
882.937	0.0157122
883.015	0.0157344
883.093	0.0157983
883.172	0.0157675
883.250	0.0158016
883.328	0.0157362
883.406	0.0159013
883.484	0.0157520
883.562	0.0158492
883.640	0.0157664
883.718	0.0157455
883.797	0.0157256
883.875	0.0156667
883.953	0.0155556
884.031	0.0156701
884.109	0.0155785
884.187	0.0154660
884.265	0.0154465
884.343	0.0153532
884.422	0.0152885
884.500	0.0151891
884.578	0.0151830
884.656	0.0151074
884.734	0.0151370
884.812	0.0152663
884.890	0.0151965
884.968	0.0152997
885.047	0.0153439
885.125	0.0153210
885.203	0.0152367
885.281	0.0152021
885.359	0.0153546
885.437	0.0153996
885.515	0.0156985
885.593	0.0155569
885.672	0.0155387
885.750	0.0157365
885.828	0.0156940
885.906	0.0157923
885.984	0.0156620
886.062	0.0157710
886.140	0.0158855
886.218	0.0159338
886.297	0.0158910
886.375	0.0157922
886.453	0.0159037
886.531	0.0159155
886.609	0.0156744
886.687	0.0158710
886.765	0.0159686
886.843	0.0157757
886.922	0.0157467
887.000	0.0157360
887.078	0.0158443
887.156	0.0156661
887.234	0.0156306
887.312	0.0157272
887.390	0.0158337
887.468	0.0157258
887.547	0.0157546
887.625	0.0157743
887.703	0.0157736
887.781	0.0158006
887.859	0.0156850
887.937	0.0157142
888.015	0.0158632
888.093	0.0157030
888.172	0.0158494
888.250	0.0159456
888.328	0.0157011
888.406	0.0159597
888.484	0.0158842
888.562	0.0158769
888.640	0.0158805
888.718	0.0159361
888.797	0.0159039
888.875	0.0160150
888.953	0.0157632
889.031	0.0156916
889.109	0.0156964
889.187	0.0157940
889.265	0.0157434
889.343	0.0157048
889.422	0.0156432
889.500	0.0155387
889.578	0.0154603
889.656	0.0156205
889.734	0.0155814
889.812	0.0154424
889.890	0.0153649
889.968	0.0155669
890.047	0.0154005
890.125	0.0153503
890.203	0.0152706
890.281	0.0153030
890.359	0.0154693
890.437	0.0154642
890.515	0.0154624
890.593	0.0155039
890.672	0.0154446
890.750	0.0155376
890.828	0.0154981
890.906	0.0154699
890.984	0.0155619
891.062	0.0156145
891.140	0.0154759
891.218	0.0155727
891.297	0.0155446
891.375	0.0156117
891.453	0.0157667
891.531	0.0157758
891.609	0.0157038
891.687	0.0158463
891.765	0.0156602
891.843	0.0156150
891.922	0.0157299
892.000	0.0157118
892.078	0.0158064
892.156	0.0157505
892.234	0.0156961
892.312	0.0156704
892.390	0.0156516
892.468	0.0156966
892.547	0.0157220
892.625	0.0156123
892.703	0.0155813
892.781	0.0156800
892.859	0.0156852
892.937	0.0155619
893.015	0.0155186
893.093	0.0156323
893.172	0.0156849
893.250	0.0156063
893.328	0.0155826
893.406	0.0155166
893.484	0.0156136
893.562	0.0157050
893.640	0.0156958
893.718	0.0157442
893.797	0.0156176
893.875	0.0157257
893.953	0.0157443
894.031	0.0158390
894.109	0.0157435
894.187	0.0157812
894.265	0.0157237
894.343	0.0158089
894.422	0.0159137
894.500	0.0159187
894.578	0.0159122
894.656	0.0159207
894.734	0.0160249
894.812	0.0158915
894.890	0.0158043
894.968	0.0159126
895.047	0.0158093
895.125	0.0156752
895.203	0.0157259
895.281	0.0157337
895.359	0.0156642
895.437	0.0156575
895.515	0.0155666
895.593	0.0154331
895.672	0.0155967
895.750	0.0155200
895.828	0.0156031
895.906	0.0156154
895.984	0.0155138
896.062	0.0155706
896.140	0.0154310
896.218	0.0156139
896.297	0.0156686
896.375	0.0155969
896.453	0.0154507
896.531	0.0154095
896.609	0.0154305
896.687	0.0155520
896.765	0.0155680
896.843	0.0156760
896.922	0.0155122
897.000	0.0154683
897.078	0.0155244
897.156	0.0154147
897.234	0.0155058
897.312	0.0157362
897.390	0.0156178
897.468	0.0154698
897.547	0.0156277
897.625	0.0156013
897.703	0.0154153
897.781	0.0156818
897.859	0.0156363
897.937	0.0156352
898.015	0.0156441
898.093	0.0156767
898.172	0.0155855
898.250	0.0156454
898.328	0.0156335
898.406	0.0157693
898.484	0.0156804
898.562	0.0155409
898.640	0.0155277
898.718	0.0156556
898.797	0.0156381
898.875	0.0158182
898.953	0.0156478
899.031	0.0156073
899.109	0.0156734
899.187	0.0157583
899.265	0.0158188
899.343	0.0157845
899.422	0.0157528
899.500	0.0157592
899.578	0.0159055
899.656	0.0157739
899.734	0.0157887
899.812	0.0159430
899.890	0.0159962
899.968	0.0157747
900.047	0.0158303
900.125	0.0157601
900.203	0.0158497
900.281	0.0156814
900.359	0.0158272
900.437	0.0157283
900.515	0.0157290
900.593	0.0157392
900.672	0.0156413
900.750	0.0154543
900.828	0.0156863
900.906	0.0156162
900.984	0.0154488
901.062	0.0155220
901.140	0.0154621
901.218	0.0154736
901.297	0.0155678
901.375	0.0155567
901.453	0.0156096
901.531	0.0156071
901.609	0.0156293
901.687	0.0156625
901.765	0.0156561
901.843	0.0156174
901.922	0.0155760
902.000	0.0157116
902.078	0.0155285
902.156	0.0156276
902.234	0.0155537
902.312	0.0155553
902.390	0.0156618
902.468	0.0156330
902.547	0.0157201
902.625	0.0156881
902.703	0.0156210
902.781	0.0156601
902.859	0.0158764
902.937	0.0158260
903.015	0.0157646
903.093	0.0158051
903.172	0.0159144
903.250	0.0158609
903.328	0.0157867
903.406	0.0158917
903.484	0.0158444
903.562	0.0159218
903.640	0.0158587
903.718	0.0159474
903.797	0.0157862
903.875	0.0158622
903.953	0.0157970
904.031	0.0158182
904.109	0.0158120
904.187	0.0157398
904.265	0.0157903
904.343	0.0156734
904.422	0.0156857
904.500	0.0157166
904.578	0.0156560
904.656	0.0156884
904.734	0.0157555
904.812	0.0157523
904.890	0.0157037
904.968	0.0157162
905.047	0.0158482
905.125	0.0155370
905.203	0.0156766
905.281	0.0157087
905.359	0.0155940
905.437	0.0156760
905.515	0.0157375
905.593	0.0156604
905.672	0.0156746
905.750	0.0156088
905.828	0.0157233
905.906	0.0156631
905.984	0.0157134
906.062	0.0155156
906.140	0.0155173
906.218	0.0155734
906.297	0.0154578
906.375	0.0153437
906.453	0.0154628
906.531	0.0153735
906.609	0.0154880
906.687	0.0153307
906.765	0.0153462
906.843	0.0156030
906.922	0.0153817
907.000	0.0153174
907.078	0.0154520
907.156	0.0154140
907.234	0.0155830
907.312	0.0155080
907.390	0.0155998
907.468	0.0156931
907.547	0.0157970
907.625	0.0157686
907.703	0.0158041
907.781	0.0157758
907.859	0.0158800
907.937	0.0160068
908.015	0.0160643
908.093	0.0160051
908.172	0.0160197
908.250	0.0159915
908.328	0.0161411
908.406	0.0162010
908.484	0.0160897
908.562	0.0161482
908.640	0.0160815
908.718	0.0161571
908.797	0.0160917
908.875	0.0161040
908.953	0.0160214
909.031	0.0159208
909.109	0.0161694
909.187	0.0160174
909.265	0.0158989
909.343	0.0157809
909.422	0.0159156
909.500	0.0159781
909.578	0.0156241
909.656	0.0157838
909.734	0.0157900
909.812	0.0157321
909.890	0.0157197
909.968	0.0155038
910.047	0.0156933
910.125	0.0157677
910.203	0.0156068
910.281	0.0157765
910.359	0.0154737
910.437	0.0156562
910.515	0.0156599
910.593	0.0155653
910.672	0.0155997
910.750	0.0154598
910.828	0.0156215
910.906	0.0155252
910.984	0.0155559
911.062	0.0154337
911.140	0.0154074
911.218	0.0154080
911.297	0.0155120
911.375	0.0153069
911.453	0.0153215
911.531	0.0152555
911.609	0.0154092
911.687	0.0154324
911.765	0.0153553
911.843	0.0153765
911.922	0.0153469
912.000	0.0154153
912.078	0.0154405
912.156	0.0153345
912.234	0.0154198
912.312	0.0154238
912.390	0.0153320
912.468	0.0155289
912.547	0.0154119
912.625	0.0154965
912.703	0.0155025
912.781	0.0156464
912.859	0.0157290
912.937	0.0157911
913.015	0.0158569
913.093	0.0159423
913.172	0.0158542
913.250	0.0159047
913.328	0.0159881
913.406	0.0160445
913.484	0.0160888
913.562	0.0162221
913.640	0.0163070
913.718	0.0162038
913.797	0.0162253
913.875	0.0161881
913.953	0.0162154
914.031	0.0163235
914.109	0.0163798
914.187	0.0163425
914.265	0.0162533
914.343	0.0161819
914.422	0.0161836
914.500	0.0160624
914.578	0.0160605
914.656	0.0160799
914.734	0.0159494
914.812	0.0158456
914.890	0.0158158
914.968	0.0157549
915.047	0.0157130
915.125	0.0157533
915.203	0.0156286
915.281	0.0156773
915.359	0.0155696
915.437	0.0156792
915.515	0.0156123
915.593	0.0155676
915.672	0.0155460
915.750	0.0156040
915.828	0.0152854
915.906	0.0154701
915.984	0.0153986
916.062	0.0152922
916.140	0.0154210
916.218	0.0153553
916.297	0.0152036
916.375	0.0151881
916.453	0.0154284
916.531	0.0151723
916.609	0.0152996
916.687	0.0153239
916.765	0.0153130
916.843	0.0153760
916.922	0.0152551
917.000	0.0153374
917.078	0.0153365
917.156	0.0152808
917.234	0.0153248
917.312	0.0153275
917.390	0.0152806
917.468	0.0152769
917.547	0.0154504
917.625	0.0153510
917.703	0.0154193
917.781	0.0153266
917.859	0.0153394
917.937	0.0154966
918.015	0.0154620
918.093	0.0155052
918.172	0.0156213
918.250	0.0156337
918.328	0.0155789
918.406	0.0156205
918.484	0.0158382
918.562	0.0157928
918.640	0.0158110
918.718	0.0158665
918.797	0.0159778
918.875	0.0159116
918.953	0.0159726
919.031	0.0159117
919.109	0.0158973
919.187	0.0159924
919.265	0.0161915
919.343	0.0160892
919.422	0.0160730
919.500	0.0161198
919.578	0.0161047
919.656	0.0161179
919.734	0.0161670
919.812	0.0161053
919.890	0.0160325
