06/13/2022	14:52:54	Ver.	4.1	UNKNOWN
Optical Delay	599.968395	Delta X		0.078125	Sweeps	1	Scan Rate	0/0
Coordinates	Axis 1	NaN	Axis 2	NaN	Axis 3	NaN	Axis 4	NaN	Axis 5	NaN	Axis 6	0.000000
TX Power	0.000000	RX Power	0.000000

599.968	0.0157050
600.047	0.0158985
600.125	0.0158265
600.203	0.0158725
600.281	0.0158643
600.359	0.0159698
600.437	0.0159416
600.515	0.0158917
600.593	0.0157787
600.672	0.0158373
600.750	0.0158938
600.828	0.0158614
600.906	0.0158080
600.984	0.0158910
601.062	0.0158620
601.140	0.0159042
601.218	0.0156834
601.297	0.0158185
601.375	0.0158094
601.453	0.0157073
601.531	0.0158454
601.609	0.0158233
601.687	0.0158810
601.765	0.0156105
601.843	0.0158630
601.922	0.0157043
602.000	0.0155471
602.078	0.0158688
602.156	0.0157510
602.234	0.0158913
602.312	0.0157938
602.390	0.0156773
602.468	0.0157751
602.547	0.0158356
602.625	0.0159119
602.703	0.0157050
602.781	0.0156917
602.859	0.0157802
602.937	0.0159538
603.015	0.0157834
603.093	0.0156207
603.172	0.0157129
603.250	0.0158613
603.328	0.0158297
603.406	0.0156719
603.484	0.0157629
603.562	0.0157799
603.640	0.0157222
603.718	0.0158352
603.797	0.0156683
603.875	0.0156567
603.953	0.0158223
604.031	0.0157677
604.109	0.0157928
604.187	0.0156000
604.265	0.0157769
604.343	0.0157501
604.422	0.0157989
604.500	0.0156909
604.578	0.0156976
604.656	0.0156962
604.734	0.0157684
604.812	0.0156281
604.890	0.0158083
604.968	0.0157712
605.047	0.0156927
605.125	0.0157700
605.203	0.0158099
605.281	0.0156271
605.359	0.0158333
605.437	0.0157591
605.515	0.0156058
605.593	0.0157216
605.672	0.0158141
605.750	0.0157375
605.828	0.0157376
605.906	0.0156209
605.984	0.0158109
606.062	0.0157472
606.140	0.0156977
606.218	0.0157145
606.297	0.0157133
606.375	0.0157395
606.453	0.0157414
606.531	0.0158443
606.609	0.0157002
606.687	0.0157327
606.765	0.0156519
606.843	0.0157635
606.922	0.0157484
607.000	0.0157288
607.078	0.0156768
607.156	0.0158468
607.234	0.0157305
607.312	0.0157462
607.390	0.0156102
607.468	0.0157194
607.547	0.0157752
607.625	0.0157121
607.703	0.0157783
607.781	0.0156688
607.859	0.0157378
607.937	0.0157971
608.015	0.0158131
608.093	0.0157013
608.172	0.0158061
608.250	0.0158202
608.328	0.0157944
608.406	0.0157004
608.484	0.0156937
608.562	0.0155856
608.640	0.0156562
608.718	0.0157827
608.797	0.0156586
608.875	0.0157333
608.953	0.0156504
609.031	0.0156240
609.109	0.0157319
609.187	0.0156889
609.265	0.0156019
609.343	0.0156553
609.422	0.0156956
609.500	0.0157427
609.578	0.0156602
609.656	0.0157809
609.734	0.0157004
609.812	0.0154978
609.890	0.0155878
609.968	0.0156292
610.047	0.0155959
610.125	0.0156523
610.203	0.0155649
610.281	0.0155427
610.359	0.0157188
610.437	0.0157780
610.515	0.0155499
610.593	0.0156860
610.672	0.0156029
610.750	0.0155971
610.828	0.0156116
610.906	0.0155804
610.984	0.0155783
611.062	0.0156422
611.140	0.0155116
611.218	0.0156065
611.297	0.0155521
611.375	0.0155341
611.453	0.0155383
611.531	0.0155283
611.609	0.0155499
611.687	0.0154798
611.765	0.0156573
611.843	0.0155956
611.922	0.0155976
612.000	0.0156121
612.078	0.0154497
612.156	0.0154430
612.234	0.0155200
612.312	0.0154874
612.390	0.0154453
612.468	0.0155605
612.547	0.0156703
612.625	0.0155145
612.703	0.0155148
612.781	0.0154961
612.859	0.0154789
612.937	0.0156284
613.015	0.0156371
613.093	0.0155518
613.172	0.0154434
613.250	0.0154519
613.328	0.0156559
613.406	0.0156262
613.484	0.0154887
613.562	0.0154087
613.640	0.0155081
613.718	0.0155347
613.797	0.0154393
613.875	0.0155006
613.953	0.0155171
614.031	0.0153956
614.109	0.0155252
614.187	0.0156005
614.265	0.0156484
614.343	0.0155384
614.422	0.0154332
614.500	0.0154602
614.578	0.0155469
614.656	0.0154273
614.734	0.0155056
614.812	0.0154688
614.890	0.0154422
614.968	0.0156374
615.047	0.0155469
615.125	0.0155020
615.203	0.0155468
615.281	0.0155425
615.359	0.0154214
615.437	0.0155639
615.515	0.0154996
615.593	0.0155063
615.672	0.0155558
615.750	0.0155890
615.828	0.0155475
615.906	0.0156436
615.984	0.0155236
616.062	0.0155772
616.140	0.0156159
616.218	0.0156071
616.297	0.0156121
616.375	0.0155677
616.453	0.0154896
616.531	0.0155081
616.609	0.0154138
616.687	0.0153513
616.765	0.0154700
616.843	0.0153757
616.922	0.0154868
617.000	0.0156416
617.078	0.0154983
617.156	0.0154637
617.234	0.0154358
617.312	0.0154910
617.390	0.0155080
617.468	0.0154829
617.547	0.0154609
617.625	0.0154583
617.703	0.0154957
617.781	0.0156046
617.859	0.0156345
617.937	0.0153960
618.015	0.0154727
618.093	0.0154806
618.172	0.0156200
618.250	0.0155459
618.328	0.0155017
618.406	0.0155478
618.484	0.0154791
618.562	0.0155415
618.640	0.0156014
618.718	0.0156063
618.797	0.0155562
618.875	0.0155784
618.953	0.0156084
619.031	0.0155560
619.109	0.0155927
619.187	0.0156835
619.265	0.0155151
619.343	0.0155605
619.422	0.0156075
619.500	0.0156329
619.578	0.0155820
619.656	0.0156621
619.734	0.0157097
619.812	0.0157308
619.890	0.0156852
619.968	0.0157485
620.047	0.0157014
620.125	0.0157307
620.203	0.0156012
620.281	0.0155874
620.359	0.0155814
620.437	0.0156798
620.515	0.0156305
620.593	0.0157626
620.672	0.0156690
620.750	0.0157912
620.828	0.0156485
620.906	0.0156465
620.984	0.0156529
621.062	0.0157240
621.140	0.0155440
621.218	0.0157494
621.297	0.0155862
621.375	0.0156774
621.453	0.0156768
621.531	0.0157137
621.609	0.0157109
621.687	0.0155847
621.765	0.0156789
621.843	0.0155734
621.922	0.0156573
622.000	0.0155520
622.078	0.0157128
622.156	0.0157304
622.234	0.0156858
622.312	0.0157410
622.390	0.0157716
622.468	0.0157210
622.547	0.0156133
622.625	0.0157632
622.703	0.0157433
622.781	0.0158579
622.859	0.0158002
622.937	0.0157047
623.015	0.0156631
623.093	0.0156611
623.172	0.0156990
623.250	0.0157640
623.328	0.0156141
623.406	0.0157012
623.484	0.0156486
623.562	0.0156934
623.640	0.0157306
623.718	0.0157005
623.797	0.0157531
623.875	0.0158372
623.953	0.0155707
624.031	0.0156693
624.109	0.0157893
624.187	0.0155791
624.265	0.0156564
624.343	0.0155781
624.422	0.0158218
624.500	0.0157800
624.578	0.0156931
624.656	0.0156049
624.734	0.0155867
624.812	0.0157609
624.890	0.0157328
624.968	0.0155943
625.047	0.0156026
625.125	0.0156796
625.203	0.0155948
625.281	0.0157622
625.359	0.0156858
625.437	0.0157099
625.515	0.0156450
625.593	0.0157083
625.672	0.0157721
625.750	0.0157386
625.828	0.0157358
625.906	0.0156636
625.984	0.0156997
626.062	0.0156522
626.140	0.0156419
626.218	0.0157681
626.297	0.0157545
626.375	0.0157394
626.453	0.0158865
626.531	0.0156889
626.609	0.0157286
626.687	0.0157138
626.765	0.0157646
626.843	0.0156799
626.922	0.0158130
627.000	0.0158584
627.078	0.0156977
627.156	0.0156177
627.234	0.0157896
627.312	0.0158000
627.390	0.0157477
627.468	0.0157054
627.547	0.0158062
627.625	0.0156430
627.703	0.0156309
627.781	0.0157023
627.859	0.0156412
627.937	0.0157488
628.015	0.0157483
628.093	0.0156525
628.172	0.0156789
628.250	0.0157172
628.328	0.0157812
628.406	0.0157799
628.484	0.0157597
628.562	0.0157686
628.640	0.0158908
628.718	0.0158773
628.797	0.0157343
628.875	0.0157211
628.953	0.0157987
629.031	0.0159042
629.109	0.0158526
629.187	0.0159044
629.265	0.0157273
629.343	0.0157084
629.422	0.0157220
629.500	0.0158646
629.578	0.0158201
629.656	0.0157156
629.734	0.0157925
629.812	0.0155592
629.890	0.0157227
629.968	0.0156482
630.047	0.0157024
630.125	0.0155997
630.203	0.0156910
630.281	0.0156543
630.359	0.0156693
630.437	0.0157388
630.515	0.0156799
630.593	0.0157675
630.672	0.0154608
630.750	0.0157294
630.828	0.0156705
630.906	0.0156324
630.984	0.0156364
631.062	0.0157700
631.140	0.0156039
631.218	0.0155977
631.297	0.0156911
631.375	0.0157006
631.453	0.0155972
631.531	0.0157467
631.609	0.0157085
631.687	0.0155014
631.765	0.0155175
631.843	0.0155708
631.922	0.0157587
632.000	0.0155450
632.078	0.0155714
632.156	0.0156363
632.234	0.0157149
632.312	0.0155430
632.390	0.0156741
632.468	0.0156041
632.547	0.0155180
632.625	0.0157059
632.703	0.0157095
632.781	0.0156717
632.859	0.0156034
632.937	0.0157265
633.015	0.0155084
633.093	0.0155928
633.172	0.0156055
633.250	0.0155608
633.328	0.0155895
633.406	0.0155702
633.484	0.0155615
633.562	0.0156235
633.640	0.0156264
633.718	0.0157261
633.797	0.0155882
633.875	0.0156151
633.953	0.0156480
634.031	0.0156256
634.109	0.0156152
634.187	0.0156936
634.265	0.0155614
634.343	0.0155311
634.422	0.0156883
634.500	0.0157348
634.578	0.0156001
634.656	0.0156539
634.734	0.0156530
634.812	0.0155640
634.890	0.0157399
634.968	0.0156258
635.047	0.0156530
635.125	0.0157791
635.203	0.0156016
635.281	0.0155879
635.359	0.0157545
635.437	0.0156361
635.515	0.0157701
635.593	0.0154628
635.672	0.0155373
635.750	0.0156867
635.828	0.0156572
635.906	0.0156688
635.984	0.0156014
636.062	0.0156207
636.140	0.0155392
636.218	0.0157169
636.297	0.0157616
636.375	0.0156445
636.453	0.0157074
636.531	0.0156749
636.609	0.0155503
636.687	0.0154866
636.765	0.0157377
636.843	0.0155970
636.922	0.0156148
637.000	0.0156953
637.078	0.0155753
637.156	0.0156541
637.234	0.0155147
637.312	0.0156232
637.390	0.0156802
637.468	0.0155217
637.547	0.0154770
637.625	0.0157014
637.703	0.0157208
637.781	0.0155631
637.859	0.0155971
637.937	0.0155289
638.015	0.0155917
638.093	0.0156828
638.172	0.0155933
638.250	0.0155755
638.328	0.0155304
638.406	0.0155798
638.484	0.0155787
638.562	0.0155847
638.640	0.0155542
638.718	0.0155402
638.797	0.0155017
638.875	0.0155921
638.953	0.0155154
639.031	0.0156343
639.109	0.0155735
639.187	0.0157008
639.265	0.0154318
639.343	0.0156120
639.422	0.0156988
639.500	0.0156070
639.578	0.0156373
639.656	0.0156031
639.734	0.0156422
639.812	0.0157120
639.890	0.0155674
639.968	0.0154889
640.047	0.0156083
640.125	0.0157176
640.203	0.0156068
640.281	0.0156113
640.359	0.0156406
640.437	0.0155971
640.515	0.0155843
640.593	0.0156543
640.672	0.0156561
640.750	0.0156901
640.828	0.0156645
640.906	0.0155250
640.984	0.0157190
641.062	0.0156861
641.140	0.0157275
641.218	0.0155415
641.297	0.0155859
641.375	0.0155840
641.453	0.0155318
641.531	0.0156354
641.609	0.0155404
641.687	0.0155889
641.765	0.0156470
641.843	0.0156939
641.922	0.0156394
642.000	0.0155908
642.078	0.0157289
642.156	0.0157493
642.234	0.0154926
642.312	0.0157391
642.390	0.0157274
642.468	0.0156593
642.547	0.0156231
642.625	0.0157436
642.703	0.0156460
642.781	0.0156979
642.859	0.0157107
642.937	0.0157130
643.015	0.0156579
643.093	0.0157880
643.172	0.0158369
643.250	0.0157406
643.328	0.0158614
643.406	0.0158327
643.484	0.0157294
643.562	0.0155804
643.640	0.0155541
643.718	0.0157121
643.797	0.0157532
643.875	0.0156765
643.953	0.0157580
644.031	0.0157346
644.109	0.0156252
644.187	0.0155408
644.265	0.0156284
644.343	0.0157032
644.422	0.0157178
644.500	0.0156004
644.578	0.0156210
644.656	0.0155979
644.734	0.0155741
644.812	0.0155453
644.890	0.0156403
644.968	0.0155911
645.047	0.0155840
645.125	0.0155630
645.203	0.0156947
645.281	0.0157259
645.359	0.0156757
645.437	0.0157258
645.515	0.0155833
645.593	0.0154581
645.672	0.0157326
645.750	0.0156779
645.828	0.0155735
645.906	0.0156955
645.984	0.0157041
646.062	0.0157815
646.140	0.0156589
646.218	0.0157153
646.297	0.0156590
646.375	0.0156641
646.453	0.0156055
646.531	0.0156169
646.609	0.0157429
646.687	0.0156973
646.765	0.0156652
646.843	0.0156188
646.922	0.0157604
647.000	0.0157635
647.078	0.0156448
647.156	0.0156384
647.234	0.0155527
647.312	0.0156425
647.390	0.0158318
647.468	0.0156203
647.547	0.0155764
647.625	0.0156657
647.703	0.0156130
647.781	0.0156621
647.859	0.0156706
647.937	0.0156540
648.015	0.0156358
648.093	0.0156129
648.172	0.0157830
648.250	0.0157687
648.328	0.0157661
648.406	0.0158016
648.484	0.0157449
648.562	0.0156092
648.640	0.0156835
648.718	0.0157308
648.797	0.0158446
648.875	0.0157283
648.953	0.0157590
649.031	0.0157690
649.109	0.0158057
649.187	0.0158186
649.265	0.0158456
649.343	0.0158089
649.422	0.0157187
649.500	0.0157879
649.578	0.0157151
649.656	0.0156269
649.734	0.0157739
649.812	0.0157911
649.890	0.0156803
649.968	0.0157983
650.047	0.0157764
650.125	0.0158031
650.203	0.0156552
650.281	0.0157114
650.359	0.0156773
650.437	0.0158813
650.515	0.0158377
650.593	0.0156849
650.672	0.0156614
650.750	0.0156564
650.828	0.0156434
650.906	0.0156797
650.984	0.0157249
651.062	0.0157384
651.140	0.0157136
651.218	0.0158489
651.297	0.0157088
651.375	0.0156041
651.453	0.0157597
651.531	0.0157066
651.609	0.0156025
651.687	0.0156525
651.765	0.0157164
651.843	0.0156675
651.922	0.0156615
652.000	0.0155317
652.078	0.0157701
652.156	0.0156187
652.234	0.0155001
652.312	0.0157718
652.390	0.0156171
652.468	0.0156976
652.547	0.0155770
652.625	0.0156551
652.703	0.0155510
652.781	0.0155501
652.859	0.0156937
652.937	0.0157214
653.015	0.0156990
653.093	0.0155241
653.172	0.0156539
653.250	0.0156332
653.328	0.0155889
653.406	0.0156503
653.484	0.0157307
653.562	0.0155365
653.640	0.0156470
653.718	0.0156032
653.797	0.0155533
653.875	0.0156512
653.953	0.0155383
654.031	0.0155920
654.109	0.0155615
654.187	0.0155436
654.265	0.0155795
654.343	0.0156447
654.422	0.0157036
654.500	0.0156818
654.578	0.0156953
654.656	0.0156829
654.734	0.0155002
654.812	0.0157294
654.890	0.0156607
654.968	0.0156252
655.047	0.0156885
655.125	0.0156112
655.203	0.0157243
655.281	0.0157458
655.359	0.0156035
655.437	0.0157111
655.515	0.0157190
655.593	0.0156061
655.672	0.0155199
655.750	0.0156618
655.828	0.0157302
655.906	0.0156030
655.984	0.0157527
656.062	0.0154739
656.140	0.0155311
656.218	0.0156791
656.297	0.0157240
656.375	0.0156858
656.453	0.0155787
656.531	0.0156401
656.609	0.0156557
656.687	0.0156062
656.765	0.0156365
656.843	0.0154939
656.922	0.0156008
657.000	0.0156059
657.078	0.0156488
657.156	0.0154715
657.234	0.0155735
657.312	0.0156457
657.390	0.0155931
657.468	0.0155784
657.547	0.0155628
657.625	0.0155568
657.703	0.0155904
657.781	0.0155690
657.859	0.0157347
657.937	0.0156034
658.015	0.0156461
658.093	0.0156490
658.172	0.0156904
658.250	0.0156971
658.328	0.0154845
658.406	0.0156969
658.484	0.0156731
658.562	0.0156301
658.640	0.0155610
658.718	0.0156381
658.797	0.0156672
658.875	0.0156962
658.953	0.0156389
659.031	0.0155425
659.109	0.0155405
659.187	0.0155135
659.265	0.0156304
659.343	0.0156592
659.422	0.0155472
659.500	0.0156618
659.578	0.0155702
659.656	0.0157095
659.734	0.0155941
659.812	0.0156213
659.890	0.0155643
659.968	0.0156469
660.047	0.0156669
660.125	0.0155302
660.203	0.0155071
660.281	0.0155959
660.359	0.0157858
660.437	0.0155997
660.515	0.0156469
660.593	0.0155965
660.672	0.0156861
660.750	0.0155844
660.828	0.0156368
660.906	0.0156057
660.984	0.0156341
661.062	0.0156890
661.140	0.0156541
661.218	0.0157133
661.297	0.0157055
661.375	0.0156153
661.453	0.0157037
661.531	0.0154814
661.609	0.0156407
661.687	0.0156971
661.765	0.0156214
661.843	0.0156984
661.922	0.0156814
662.000	0.0156759
662.078	0.0159153
662.156	0.0157672
662.234	0.0156200
662.312	0.0156040
662.390	0.0157084
662.468	0.0158736
662.547	0.0157825
662.625	0.0157975
662.703	0.0157049
662.781	0.0157193
662.859	0.0157706
662.937	0.0157766
663.015	0.0157424
663.093	0.0157147
663.172	0.0157287
663.250	0.0157553
663.328	0.0157626
663.406	0.0158175
663.484	0.0157355
663.562	0.0157874
663.640	0.0156677
663.718	0.0156816
663.797	0.0156142
663.875	0.0157747
663.953	0.0157509
664.031	0.0156260
664.109	0.0156712
664.187	0.0156496
664.265	0.0156770
664.343	0.0157914
664.422	0.0156453
664.500	0.0155584
664.578	0.0155562
664.656	0.0157410
664.734	0.0156903
664.812	0.0155199
664.890	0.0155590
664.968	0.0157133
665.047	0.0157364
665.125	0.0155634
665.203	0.0155266
665.281	0.0157437
665.359	0.0156423
665.437	0.0156715
665.515	0.0156679
665.593	0.0157496
665.672	0.0158371
665.750	0.0157462
665.828	0.0156514
665.906	0.0155762
665.984	0.0156078
666.062	0.0156794
666.140	0.0156615
666.218	0.0156178
666.297	0.0156647
666.375	0.0156910
666.453	0.0157226
666.531	0.0156396
666.609	0.0156604
666.687	0.0155621
666.765	0.0155941
666.843	0.0156670
666.922	0.0156824
667.000	0.0157602
667.078	0.0156870
667.156	0.0156320
667.234	0.0156918
667.312	0.0156417
667.390	0.0157043
667.468	0.0156637
667.547	0.0157122
667.625	0.0157075
667.703	0.0156262
667.781	0.0156084
667.859	0.0157269
667.937	0.0157381
668.015	0.0157098
668.093	0.0156187
668.172	0.0157466
668.250	0.0156263
668.328	0.0155823
668.406	0.0156590
668.484	0.0156863
668.562	0.0157026
668.640	0.0156834
668.718	0.0155272
668.797	0.0156132
668.875	0.0155852
668.953	0.0156590
669.031	0.0156783
669.109	0.0156908
669.187	0.0156512
669.265	0.0155544
669.343	0.0155402
669.422	0.0156754
669.500	0.0157408
669.578	0.0155392
669.656	0.0156068
669.734	0.0156592
669.812	0.0156038
669.890	0.0156419
669.968	0.0155769
670.047	0.0155750
670.125	0.0156956
670.203	0.0155675
670.281	0.0157328
670.359	0.0154942
670.437	0.0155676
670.515	0.0157784
670.593	0.0156528
670.672	0.0156196
670.750	0.0156020
670.828	0.0156443
670.906	0.0157174
670.984	0.0156693
671.062	0.0155695
671.140	0.0156219
671.218	0.0155722
671.297	0.0156107
671.375	0.0155715
671.453	0.0157753
671.531	0.0155474
671.609	0.0156525
671.687	0.0154964
671.765	0.0156696
671.843	0.0156886
671.922	0.0155019
672.000	0.0156622
672.078	0.0156435
672.156	0.0154635
672.234	0.0155504
672.312	0.0157108
672.390	0.0156442
672.468	0.0155294
672.547	0.0155970
672.625	0.0155790
672.703	0.0156481
672.781	0.0155116
672.859	0.0156007
672.937	0.0156342
673.015	0.0156642
673.093	0.0154874
673.172	0.0157011
673.250	0.0155853
673.328	0.0153565
673.406	0.0155787
673.484	0.0158074
673.562	0.0156474
673.640	0.0154625
673.718	0.0155877
673.797	0.0155898
673.875	0.0156189
673.953	0.0157180
674.031	0.0154900
674.109	0.0155817
674.187	0.0156299
674.265	0.0156286
674.343	0.0155904
674.422	0.0156184
674.500	0.0155814
674.578	0.0155700
674.656	0.0156267
674.734	0.0155730
674.812	0.0156108
674.890	0.0155546
674.968	0.0156528
675.047	0.0156190
675.125	0.0155006
675.203	0.0156372
675.281	0.0155553
675.359	0.0155885
675.437	0.0155957
675.515	0.0156986
675.593	0.0155341
675.672	0.0155195
675.750	0.0156458
675.828	0.0154977
675.906	0.0155424
675.984	0.0155558
676.062	0.0155684
676.140	0.0156746
676.218	0.0156900
676.297	0.0156410
676.375	0.0156006
676.453	0.0157058
676.531	0.0156414
676.609	0.0156219
676.687	0.0156828
676.765	0.0156979
676.843	0.0157293
676.922	0.0157198
677.000	0.0155730
677.078	0.0154062
677.156	0.0155575
677.234	0.0156509
677.312	0.0154916
677.390	0.0156715
677.468	0.0155319
677.547	0.0156393
677.625	0.0156007
677.703	0.0157700
677.781	0.0156509
677.859	0.0155479
677.937	0.0156205
678.015	0.0156563
678.093	0.0156802
678.172	0.0156313
678.250	0.0156527
678.328	0.0156937
678.406	0.0157222
678.484	0.0157123
678.562	0.0155764
678.640	0.0156369
678.718	0.0155754
678.797	0.0155385
678.875	0.0156606
678.953	0.0157153
679.031	0.0157872
679.109	0.0155856
679.187	0.0156973
679.265	0.0155863
679.343	0.0155976
679.422	0.0156294
679.500	0.0156035
679.578	0.0157674
679.656	0.0156165
679.734	0.0155875
679.812	0.0155656
679.890	0.0157174
679.968	0.0157400
680.047	0.0157073
680.125	0.0156841
680.203	0.0155892
680.281	0.0157617
680.359	0.0156882
680.437	0.0155390
680.515	0.0156384
680.593	0.0156835
680.672	0.0156356
680.750	0.0157223
680.828	0.0156856
680.906	0.0157128
680.984	0.0155429
681.062	0.0155794
681.140	0.0156745
681.218	0.0156628
681.297	0.0156927
681.375	0.0157236
681.453	0.0156203
681.531	0.0155553
681.609	0.0155035
681.687	0.0156688
681.765	0.0155804
681.843	0.0156660
681.922	0.0155814
682.000	0.0156832
682.078	0.0157408
682.156	0.0156862
682.234	0.0155936
682.312	0.0156254
682.390	0.0157626
682.468	0.0156042
682.547	0.0155457
682.625	0.0156320
682.703	0.0157670
682.781	0.0157301
682.859	0.0155792
682.937	0.0157269
683.015	0.0158006
683.093	0.0156721
683.172	0.0157748
683.250	0.0155871
683.328	0.0157227
683.406	0.0156779
683.484	0.0157713
683.562	0.0156197
683.640	0.0156398
683.718	0.0156557
683.797	0.0155507
683.875	0.0156992
683.953	0.0157292
684.031	0.0158005
684.109	0.0156182
684.187	0.0157393
684.265	0.0156159
684.343	0.0157677
684.422	0.0157374
684.500	0.0156289
684.578	0.0155546
684.656	0.0155685
684.734	0.0157622
684.812	0.0156677
684.890	0.0156240
684.968	0.0156699
685.047	0.0155241
685.125	0.0156538
685.203	0.0158064
685.281	0.0155737
685.359	0.0156287
685.437	0.0155899
685.515	0.0155352
685.593	0.0155789
685.672	0.0156914
685.750	0.0155850
685.828	0.0156628
685.906	0.0157362
685.984	0.0157034
686.062	0.0155930
686.140	0.0155230
686.218	0.0156573
686.297	0.0156984
686.375	0.0156788
686.453	0.0156049
686.531	0.0157201
686.609	0.0158317
686.687	0.0156780
686.765	0.0156404
686.843	0.0156709
686.922	0.0155712
687.000	0.0157605
687.078	0.0157780
687.156	0.0156114
687.234	0.0157635
687.312	0.0157973
687.390	0.0155994
687.468	0.0156649
687.547	0.0156014
687.625	0.0155757
687.703	0.0158131
687.781	0.0156085
687.859	0.0156911
687.937	0.0157813
688.015	0.0157655
688.093	0.0156729
688.172	0.0158849
688.250	0.0157329
688.328	0.0157119
688.406	0.0156134
688.484	0.0155294
688.562	0.0157281
688.640	0.0157511
688.718	0.0156864
688.797	0.0156917
688.875	0.0156126
688.953	0.0157491
689.031	0.0157098
689.109	0.0154758
689.187	0.0155840
689.265	0.0156710
689.343	0.0157076
689.422	0.0156400
689.500	0.0155723
689.578	0.0155534
689.656	0.0157470
689.734	0.0156467
689.812	0.0155627
689.890	0.0157791
689.968	0.0157793
690.047	0.0155867
690.125	0.0156327
690.203	0.0155943
690.281	0.0155167
690.359	0.0156126
690.437	0.0157716
690.515	0.0155862
690.593	0.0157468
690.672	0.0155477
690.750	0.0155894
690.828	0.0157494
690.906	0.0155833
690.984	0.0156302
691.062	0.0156081
691.140	0.0155892
691.218	0.0156296
691.297	0.0155997
691.375	0.0157091
691.453	0.0156835
691.531	0.0155852
691.609	0.0156124
691.687	0.0156966
691.765	0.0155389
691.843	0.0154700
691.922	0.0155470
692.000	0.0157069
692.078	0.0157308
692.156	0.0155671
692.234	0.0155682
692.312	0.0155553
692.390	0.0156863
692.468	0.0155592
692.547	0.0155710
692.625	0.0156988
692.703	0.0155731
692.781	0.0155310
692.859	0.0155704
692.937	0.0157473
693.015	0.0154060
693.093	0.0154149
693.172	0.0157198
693.250	0.0157014
693.328	0.0155676
693.406	0.0156042
693.484	0.0154296
693.562	0.0156424
693.640	0.0156053
693.718	0.0155692
693.797	0.0156033
693.875	0.0155439
693.953	0.0154152
694.031	0.0157133
694.109	0.0156210
694.187	0.0155322
694.265	0.0155254
694.343	0.0155879
694.422	0.0155099
694.500	0.0155457
694.578	0.0156017
694.656	0.0156164
694.734	0.0157091
694.812	0.0155261
694.890	0.0155363
694.968	0.0155843
695.047	0.0155798
695.125	0.0156168
695.203	0.0157081
695.281	0.0156924
695.359	0.0156365
695.437	0.0156268
695.515	0.0156194
695.593	0.0156386
695.672	0.0157127
695.750	0.0157096
695.828	0.0155453
695.906	0.0155815
695.984	0.0155296
696.062	0.0156413
696.140	0.0156393
696.218	0.0156741
696.297	0.0157238
696.375	0.0155598
696.453	0.0155981
696.531	0.0157091
696.609	0.0156265
696.687	0.0155901
696.765	0.0155917
696.843	0.0155431
696.922	0.0155356
697.000	0.0157322
697.078	0.0157150
697.156	0.0156214
697.234	0.0155073
697.312	0.0155611
697.390	0.0156947
697.468	0.0157298
697.547	0.0156722
697.625	0.0156858
697.703	0.0156990
697.781	0.0158189
697.859	0.0156017
697.937	0.0157215
698.015	0.0158267
698.093	0.0156535
698.172	0.0157780
698.250	0.0157239
698.328	0.0156221
698.406	0.0157143
698.484	0.0157136
698.562	0.0156477
698.640	0.0155705
698.718	0.0155221
698.797	0.0158097
698.875	0.0155182
698.953	0.0156220
699.031	0.0157962
699.109	0.0156678
699.187	0.0155322
699.265	0.0157139
699.343	0.0156413
699.422	0.0156692
699.500	0.0155467
699.578	0.0156664
699.656	0.0156586
699.734	0.0155585
699.812	0.0157585
699.890	0.0157403
699.968	0.0156607
700.047	0.0156725
700.125	0.0156267
700.203	0.0155370
700.281	0.0157031
700.359	0.0156263
700.437	0.0155482
700.515	0.0154973
700.593	0.0157121
700.672	0.0157378
700.750	0.0156040
700.828	0.0156847
700.906	0.0155603
700.984	0.0155884
701.062	0.0157520
701.140	0.0155981
701.218	0.0156606
701.297	0.0156514
701.375	0.0155823
701.453	0.0156288
701.531	0.0156839
701.609	0.0156906
701.687	0.0157043
701.765	0.0158012
701.843	0.0156644
701.922	0.0156782
702.000	0.0155347
702.078	0.0157023
702.156	0.0157317
702.234	0.0156747
702.312	0.0155354
702.390	0.0157926
702.468	0.0157844
702.547	0.0157256
702.625	0.0157776
702.703	0.0158047
702.781	0.0156218
702.859	0.0156561
702.937	0.0156223
703.015	0.0155392
703.093	0.0155518
703.172	0.0157102
703.250	0.0155523
703.328	0.0156494
703.406	0.0156467
703.484	0.0157067
703.562	0.0156709
703.640	0.0155009
703.718	0.0156286
703.797	0.0156971
703.875	0.0156613
703.953	0.0156322
704.031	0.0157396
704.109	0.0158186
704.187	0.0157132
704.265	0.0157438
704.343	0.0157554
704.422	0.0156215
704.500	0.0157107
704.578	0.0156635
704.656	0.0155553
704.734	0.0156828
704.812	0.0156757
704.890	0.0155297
704.968	0.0156731
705.047	0.0156063
705.125	0.0156597
705.203	0.0155594
705.281	0.0155849
705.359	0.0157230
705.437	0.0155807
705.515	0.0156971
705.593	0.0157848
705.672	0.0156583
705.750	0.0156522
705.828	0.0157357
705.906	0.0156978
705.984	0.0156734
706.062	0.0157818
706.140	0.0155614
706.218	0.0156735
706.297	0.0157721
706.375	0.0154749
706.453	0.0156057
706.531	0.0157561
706.609	0.0157030
706.687	0.0156705
706.765	0.0155689
706.843	0.0156166
706.922	0.0157906
707.000	0.0157938
707.078	0.0156652
707.156	0.0156388
707.234	0.0157090
707.312	0.0156394
707.390	0.0156814
707.468	0.0157070
707.547	0.0155972
707.625	0.0156719
707.703	0.0156310
707.781	0.0156987
707.859	0.0156182
707.937	0.0155997
708.015	0.0156551
708.093	0.0155752
708.172	0.0157318
708.250	0.0155930
708.328	0.0156034
708.406	0.0156468
708.484	0.0156740
708.562	0.0157000
708.640	0.0156014
708.718	0.0156122
708.797	0.0155785
708.875	0.0156692
708.953	0.0157635
709.031	0.0156680
709.109	0.0156248
709.187	0.0155891
709.265	0.0155457
709.343	0.0157397
709.422	0.0156031
709.500	0.0154957
709.578	0.0155740
709.656	0.0156698
709.734	0.0156432
709.812	0.0155431
709.890	0.0156747
709.968	0.0156638
710.047	0.0155995
710.125	0.0155898
710.203	0.0156553
710.281	0.0156622
710.359	0.0155992
710.437	0.0155267
710.515	0.0157752
710.593	0.0156658
710.672	0.0156701
710.750	0.0156714
710.828	0.0155285
710.906	0.0155920
710.984	0.0154971
711.062	0.0155662
711.140	0.0155616
711.218	0.0155602
711.297	0.0155212
711.375	0.0157983
711.453	0.0156543
711.531	0.0155524
711.609	0.0156140
711.687	0.0156858
711.765	0.0156681
711.843	0.0155431
711.922	0.0154538
712.000	0.0155872
712.078	0.0156969
712.156	0.0156466
712.234	0.0155573
712.312	0.0157516
712.390	0.0157191
712.468	0.0156618
712.547	0.0155647
712.625	0.0156160
712.703	0.0157560
712.781	0.0156670
712.859	0.0157535
712.937	0.0156383
713.015	0.0155226
713.093	0.0156165
713.172	0.0156101
713.250	0.0157032
713.328	0.0156477
713.406	0.0155669
713.484	0.0156483
713.562	0.0156808
713.640	0.0156386
713.718	0.0155250
713.797	0.0156091
713.875	0.0156295
713.953	0.0155368
714.031	0.0156453
714.109	0.0156778
714.187	0.0156817
714.265	0.0156044
714.343	0.0156208
714.422	0.0156231
714.500	0.0156656
714.578	0.0155940
714.656	0.0156151
714.734	0.0155576
714.812	0.0155922
714.890	0.0156002
714.968	0.0156084
715.047	0.0155193
715.125	0.0155367
715.203	0.0154928
715.281	0.0154688
715.359	0.0156577
715.437	0.0154852
715.515	0.0153668
715.593	0.0155503
715.672	0.0155807
715.750	0.0155579
715.828	0.0154920
715.906	0.0153056
715.984	0.0153275
716.062	0.0155033
716.140	0.0155525
716.218	0.0155421
716.297	0.0155447
716.375	0.0154723
716.453	0.0155996
716.531	0.0155148
716.609	0.0156631
716.687	0.0155651
716.765	0.0154254
716.843	0.0156427
716.922	0.0155132
717.000	0.0156080
717.078	0.0156581
717.156	0.0156615
717.234	0.0157057
717.312	0.0157534
717.390	0.0157009
717.468	0.0156947
717.547	0.0156223
717.625	0.0156923
717.703	0.0157193
717.781	0.0156743
717.859	0.0157586
717.937	0.0158116
718.015	0.0156883
718.093	0.0156572
718.172	0.0156589
718.250	0.0158173
718.328	0.0157857
718.406	0.0157079
718.484	0.0155311
718.562	0.0156245
718.640	0.0157819
718.718	0.0156010
718.797	0.0156176
718.875	0.0155750
718.953	0.0155502
719.031	0.0156052
719.109	0.0155891
719.187	0.0156289
719.265	0.0155555
719.343	0.0155666
719.422	0.0155482
719.500	0.0156477
719.578	0.0156751
719.656	0.0155795
719.734	0.0155355
719.812	0.0156379
719.890	0.0155583
719.968	0.0155450
720.047	0.0155756
720.125	0.0155035
720.203	0.0154430
720.281	0.0154128
720.359	0.0156527
720.437	0.0156207
720.515	0.0155521
720.593	0.0156062
720.672	0.0156669
720.750	0.0155819
720.828	0.0156274
720.906	0.0156413
720.984	0.0157254
721.062	0.0157122
721.140	0.0157323
721.218	0.0157164
721.297	0.0155997
721.375	0.0155537
721.453	0.0156636
721.531	0.0155843
721.609	0.0156728
721.687	0.0156658
721.765	0.0157968
721.843	0.0157060
721.922	0.0155906
722.000	0.0156332
722.078	0.0155992
722.156	0.0154888
722.234	0.0155938
722.312	0.0156348
722.390	0.0155753
722.468	0.0157364
722.547	0.0155831
722.625	0.0156474
722.703	0.0155910
722.781	0.0157437
722.859	0.0157313
722.937	0.0156374
723.015	0.0157316
723.093	0.0158483
723.172	0.0156248
723.250	0.0156651
723.328	0.0156317
723.406	0.0156835
723.484	0.0156491
723.562	0.0156092
723.640	0.0156457
723.718	0.0156789
723.797	0.0157089
723.875	0.0156720
723.953	0.0156539
724.031	0.0157674
724.109	0.0156194
724.187	0.0158017
724.265	0.0157477
724.343	0.0156673
724.422	0.0156490
724.500	0.0158324
724.578	0.0156677
724.656	0.0157947
724.734	0.0157301
724.812	0.0156853
724.890	0.0158252
724.968	0.0157090
725.047	0.0156311
725.125	0.0156018
725.203	0.0158000
725.281	0.0156075
725.359	0.0156329
725.437	0.0156660
725.515	0.0155459
725.593	0.0155581
725.672	0.0155940
725.750	0.0155154
725.828	0.0155280
725.906	0.0157182
725.984	0.0157569
726.062	0.0158221
726.140	0.0157329
726.218	0.0157306
726.297	0.0156635
726.375	0.0155502
726.453	0.0156488
726.531	0.0156712
726.609	0.0157500
726.687	0.0156482
726.765	0.0155517
726.843	0.0155863
726.922	0.0156282
727.000	0.0156051
727.078	0.0155776
727.156	0.0154497
727.234	0.0157021
727.312	0.0155709
727.390	0.0155888
727.468	0.0156438
727.547	0.0155677
727.625	0.0154911
727.703	0.0155503
727.781	0.0156689
727.859	0.0157234
727.937	0.0156213
728.015	0.0157786
728.093	0.0156824
728.172	0.0156883
728.250	0.0156324
728.328	0.0157476
728.406	0.0158273
728.484	0.0158307
728.562	0.0157273
728.640	0.0157752
728.718	0.0158513
728.797	0.0157398
728.875	0.0156799
728.953	0.0156313
729.031	0.0157143
729.109	0.0157641
729.187	0.0157710
729.265	0.0158184
729.343	0.0156474
729.422	0.0157448
729.500	0.0157447
729.578	0.0157867
729.656	0.0156883
729.734	0.0156997
729.812	0.0159126
729.890	0.0157735
729.968	0.0156405
730.047	0.0157021
730.125	0.0157166
730.203	0.0156721
730.281	0.0156117
730.359	0.0156130
730.437	0.0155820
730.515	0.0155398
730.593	0.0155833
730.672	0.0155633
730.750	0.0154546
730.828	0.0156200
730.906	0.0155733
730.984	0.0155767
731.062	0.0155074
731.140	0.0155020
731.218	0.0156049
731.297	0.0156440
731.375	0.0157244
731.453	0.0154927
731.531	0.0155630
731.609	0.0154871
731.687	0.0156604
731.765	0.0156090
731.843	0.0156370
731.922	0.0155656
732.000	0.0154791
732.078	0.0155674
732.156	0.0155624
732.234	0.0155409
732.312	0.0155293
732.390	0.0156485
732.468	0.0155036
732.547	0.0155520
732.625	0.0155384
732.703	0.0155556
732.781	0.0156231
732.859	0.0156821
732.937	0.0156799
733.015	0.0156415
733.093	0.0155407
733.172	0.0155453
733.250	0.0155402
733.328	0.0156898
733.406	0.0156826
733.484	0.0154043
733.562	0.0155264
733.640	0.0154176
733.718	0.0154942
733.797	0.0154242
733.875	0.0155716
733.953	0.0154894
734.031	0.0156290
734.109	0.0155251
734.187	0.0155392
734.265	0.0154151
734.343	0.0155844
734.422	0.0155264
734.500	0.0154859
734.578	0.0154877
734.656	0.0155737
734.734	0.0156113
734.812	0.0155834
734.890	0.0155157
734.968	0.0156261
735.047	0.0155757
735.125	0.0154324
735.203	0.0155149
735.281	0.0155428
735.359	0.0155316
735.437	0.0155798
735.515	0.0154970
735.593	0.0156906
735.672	0.0157175
735.750	0.0156250
735.828	0.0156233
735.906	0.0155263
735.984	0.0156620
736.062	0.0156468
736.140	0.0156467
736.218	0.0156361
736.297	0.0156631
736.375	0.0157086
736.453	0.0156204
736.531	0.0155640
736.609	0.0154745
736.687	0.0156071
736.765	0.0155702
736.843	0.0155093
736.922	0.0156024
737.000	0.0155167
737.078	0.0156123
737.156	0.0156049
737.234	0.0155431
737.312	0.0156312
737.390	0.0155688
737.468	0.0157029
737.547	0.0155614
737.625	0.0154962
737.703	0.0157613
737.781	0.0156902
737.859	0.0156185
737.937	0.0156622
738.015	0.0156493
738.093	0.0154653
738.172	0.0155168
738.250	0.0155125
738.328	0.0155556
738.406	0.0155891
738.484	0.0154398
738.562	0.0154866
738.640	0.0156903
738.718	0.0155805
738.797	0.0154863
738.875	0.0157124
738.953	0.0155214
739.031	0.0156225
739.109	0.0157042
739.187	0.0155911
739.265	0.0156216
739.343	0.0156013
739.422	0.0155380
739.500	0.0156779
739.578	0.0156221
739.656	0.0156665
739.734	0.0156599
739.812	0.0157196
739.890	0.0156598
739.968	0.0155157
740.047	0.0157676
740.125	0.0154707
740.203	0.0155099
740.281	0.0155874
740.359	0.0154990
740.437	0.0155041
740.515	0.0155957
740.593	0.0155462
740.672	0.0155156
740.750	0.0156422
740.828	0.0155676
740.906	0.0156498
740.984	0.0156026
741.062	0.0158339
741.140	0.0156884
741.218	0.0156393
741.297	0.0157809
741.375	0.0157105
741.453	0.0156119
741.531	0.0157446
741.609	0.0155934
741.687	0.0156129
741.765	0.0155267
741.843	0.0155227
741.922	0.0156455
742.000	0.0157345
742.078	0.0156526
742.156	0.0155788
742.234	0.0156657
742.312	0.0156770
742.390	0.0156502
742.468	0.0156712
742.547	0.0157433
742.625	0.0157864
742.703	0.0157055
742.781	0.0155968
742.859	0.0156735
742.937	0.0157736
743.015	0.0158139
743.093	0.0157736
743.172	0.0158328
743.250	0.0156543
743.328	0.0157438
743.406	0.0156561
743.484	0.0156179
743.562	0.0156814
743.640	0.0156861
743.718	0.0157394
743.797	0.0156749
743.875	0.0156902
743.953	0.0155522
744.031	0.0156614
744.109	0.0155389
744.187	0.0157349
744.265	0.0155962
744.343	0.0156049
744.422	0.0157166
744.500	0.0158367
744.578	0.0157865
744.656	0.0157645
744.734	0.0157991
744.812	0.0155463
744.890	0.0158752
744.968	0.0158633
745.047	0.0157302
745.125	0.0157655
745.203	0.0157140
745.281	0.0158014
745.359	0.0157162
745.437	0.0156651
745.515	0.0155564
745.593	0.0156224
745.672	0.0156087
745.750	0.0155766
745.828	0.0155405
745.906	0.0156445
745.984	0.0154976
746.062	0.0154720
746.140	0.0156828
746.218	0.0156670
746.297	0.0155647
746.375	0.0156255
746.453	0.0156769
746.531	0.0156153
746.609	0.0156658
746.687	0.0156602
746.765	0.0157584
746.843	0.0156698
746.922	0.0156015
747.000	0.0158210
747.078	0.0158247
747.156	0.0156507
747.234	0.0157159
747.312	0.0157174
747.390	0.0155604
747.468	0.0155223
747.547	0.0157069
747.625	0.0156583
747.703	0.0155244
747.781	0.0158749
747.859	0.0157575
747.937	0.0157089
748.015	0.0157092
748.093	0.0157545
748.172	0.0157029
748.250	0.0157688
748.328	0.0156632
748.406	0.0156165
748.484	0.0156381
748.562	0.0155415
748.640	0.0156387
748.718	0.0154670
748.797	0.0154600
748.875	0.0156464
748.953	0.0155772
749.031	0.0154066
749.109	0.0156194
749.187	0.0155093
749.265	0.0156573
749.343	0.0155388
749.422	0.0155059
749.500	0.0156271
749.578	0.0156528
749.656	0.0156343
749.734	0.0155068
749.812	0.0154649
749.890	0.0155484
749.968	0.0155852
750.047	0.0155482
750.125	0.0155818
750.203	0.0156570
750.281	0.0155883
750.359	0.0155415
750.437	0.0156459
750.515	0.0156362
750.593	0.0156965
750.672	0.0156814
750.750	0.0156697
750.828	0.0157468
750.906	0.0156615
750.984	0.0156151
751.062	0.0155901
751.140	0.0157407
751.218	0.0157374
751.297	0.0156840
751.375	0.0155633
751.453	0.0156709
751.531	0.0157510
751.609	0.0156707
751.687	0.0157071
751.765	0.0155929
751.843	0.0156272
751.922	0.0155332
752.000	0.0154040
752.078	0.0156393
752.156	0.0155179
752.234	0.0155157
752.312	0.0153928
752.390	0.0156090
752.468	0.0156467
752.547	0.0157139
752.625	0.0157063
752.703	0.0156319
752.781	0.0155744
752.859	0.0158388
752.937	0.0158334
753.015	0.0157904
753.093	0.0156673
753.172	0.0159408
753.250	0.0157394
753.328	0.0156639
753.406	0.0156978
753.484	0.0155232
753.562	0.0155241
753.640	0.0154554
753.718	0.0156142
753.797	0.0154752
753.875	0.0154206
753.953	0.0157325
754.031	0.0155521
754.109	0.0155482
754.187	0.0155002
754.265	0.0155939
754.343	0.0158056
754.422	0.0156762
754.500	0.0157536
754.578	0.0158108
754.656	0.0157096
754.734	0.0156091
754.812	0.0156646
754.890	0.0157050
754.968	0.0158078
755.047	0.0156397
755.125	0.0157298
755.203	0.0156088
755.281	0.0156058
755.359	0.0156862
755.437	0.0154881
755.515	0.0155682
755.593	0.0155552
755.672	0.0155791
755.750	0.0155348
755.828	0.0156123
755.906	0.0153825
755.984	0.0155415
756.062	0.0155575
756.140	0.0154235
756.218	0.0154505
756.297	0.0155345
756.375	0.0155677
756.453	0.0155576
756.531	0.0156337
756.609	0.0157425
756.687	0.0155927
756.765	0.0156384
756.843	0.0155903
756.922	0.0157600
757.000	0.0156399
757.078	0.0156205
757.156	0.0157671
757.234	0.0157005
757.312	0.0157572
757.390	0.0158095
757.468	0.0158064
757.547	0.0157838
757.625	0.0156257
757.703	0.0158401
757.781	0.0156326
757.859	0.0156610
757.937	0.0155594
758.015	0.0156530
758.093	0.0156743
758.172	0.0156434
758.250	0.0156509
758.328	0.0156448
758.406	0.0157355
758.484	0.0156982
758.562	0.0156229
758.640	0.0156797
758.718	0.0156939
758.797	0.0156630
758.875	0.0158051
758.953	0.0157492
759.031	0.0156628
759.109	0.0156017
759.187	0.0156631
759.265	0.0155757
759.343	0.0156971
759.422	0.0156932
759.500	0.0154813
759.578	0.0156280
759.656	0.0157648
759.734	0.0157168
759.812	0.0158880
759.890	0.0159418
759.968	0.0158739
760.047	0.0160736
760.125	0.0161360
760.203	0.0161234
760.281	0.0161480
760.359	0.0161588
760.437	0.0161370
760.515	0.0159924
760.593	0.0160194
760.672	0.0159525
760.750	0.0158279
760.828	0.0156928
760.906	0.0156416
760.984	0.0156445
761.062	0.0154258
761.140	0.0155006
761.218	0.0154194
761.297	0.0154088
761.375	0.0153538
761.453	0.0153702
761.531	0.0153916
761.609	0.0153452
761.687	0.0155512
761.765	0.0153422
761.843	0.0154994
761.922	0.0155637
762.000	0.0156358
762.078	0.0156452
762.156	0.0157381
762.234	0.0156313
762.312	0.0156523
762.390	0.0155983
762.468	0.0154473
762.547	0.0155635
762.625	0.0154537
762.703	0.0154025
762.781	0.0155453
762.859	0.0155113
762.937	0.0155679
763.015	0.0155991
763.093	0.0157705
763.172	0.0155526
763.250	0.0157043
763.328	0.0160358
763.406	0.0158754
763.484	0.0159536
763.562	0.0161046
763.640	0.0160545
763.718	0.0159497
763.797	0.0160411
763.875	0.0158905
763.953	0.0160141
764.031	0.0159595
764.109	0.0158220
764.187	0.0158939
764.265	0.0158665
764.343	0.0157253
764.422	0.0159162
764.500	0.0157166
764.578	0.0157903
764.656	0.0158123
764.734	0.0158360
764.812	0.0157641
764.890	0.0158102
764.968	0.0159010
765.047	0.0157909
765.125	0.0158322
765.203	0.0158530
765.281	0.0156052
765.359	0.0155295
765.437	0.0156648
765.515	0.0154436
765.593	0.0154413
765.672	0.0154047
765.750	0.0152308
765.828	0.0150663
765.906	0.0149705
765.984	0.0149432
766.062	0.0150327
766.140	0.0149303
766.218	0.0148846
766.297	0.0150012
766.375	0.0148979
766.453	0.0150446
766.531	0.0150952
766.609	0.0153570
766.687	0.0154523
766.765	0.0156283
766.843	0.0157642
766.922	0.0157716
767.000	0.0158910
767.078	0.0163243
767.156	0.0164664
767.234	0.0163988
767.312	0.0165440
767.390	0.0165901
767.468	0.0167013
767.547	0.0167622
767.625	0.0164810
767.703	0.0165363
767.781	0.0164851
767.859	0.0162565
767.937	0.0161192
768.015	0.0160552
768.093	0.0157961
768.172	0.0158339
768.250	0.0155934
768.328	0.0155008
768.406	0.0154814
768.484	0.0155015
768.562	0.0153166
768.640	0.0153187
768.718	0.0154031
768.797	0.0153073
768.875	0.0154977
768.953	0.0153134
769.031	0.0154133
769.109	0.0153240
769.187	0.0152972
769.265	0.0152793
769.343	0.0151084
769.422	0.0150399
769.500	0.0150929
769.578	0.0151085
769.656	0.0151691
769.734	0.0149674
769.812	0.0150171
769.890	0.0151398
769.968	0.0151705
770.047	0.0152061
770.125	0.0152838
770.203	0.0156181
770.281	0.0157446
770.359	0.0157341
770.437	0.0160189
770.515	0.0162381
770.593	0.0162859
770.672	0.0166466
770.750	0.0165988
770.828	0.0166471
770.906	0.0167219
770.984	0.0168072
771.062	0.0167924
771.140	0.0167348
771.218	0.0167120
771.297	0.0164846
771.375	0.0165361
771.453	0.0164274
771.531	0.0163351
771.609	0.0161290
771.687	0.0160380
771.765	0.0157565
771.843	0.0156691
771.922	0.0154719
772.000	0.0151995
772.078	0.0149223
772.156	0.0148654
772.234	0.0146047
772.312	0.0144659
772.390	0.0143745
772.468	0.0141322
772.547	0.0141289
772.625	0.0139663
772.703	0.0140063
772.781	0.0139911
772.859	0.0140178
772.937	0.0139056
773.015	0.0141535
773.093	0.0142959
773.172	0.0143528
773.250	0.0144608
773.328	0.0148827
773.406	0.0148997
773.484	0.0151350
773.562	0.0154333
773.640	0.0156898
773.718	0.0157941
773.797	0.0159708
773.875	0.0161302
773.953	0.0163319
774.031	0.0166711
774.109	0.0165747
774.187	0.0167597
774.265	0.0171288
774.343	0.0171266
774.422	0.0171649
774.500	0.0172488
774.578	0.0173570
774.656	0.0172546
774.734	0.0172708
774.812	0.0170531
774.890	0.0170749
774.968	0.0169107
775.047	0.0166525
775.125	0.0165877
775.203	0.0163712
775.281	0.0160269
775.359	0.0158640
775.437	0.0157813
775.515	0.0154055
775.593	0.0151717
775.672	0.0147579
775.750	0.0147171
775.828	0.0144241
775.906	0.0144026
775.984	0.0143068
776.062	0.0142113
776.140	0.0141920
776.218	0.0144107
776.297	0.0143237
776.375	0.0143910
776.453	0.0143978
776.531	0.0147133
776.609	0.0146325
776.687	0.0147479
776.765	0.0148797
776.843	0.0151780
776.922	0.0150152
777.000	0.0152349
777.078	0.0152782
777.156	0.0155118
777.234	0.0155917
777.312	0.0157487
777.390	0.0156363
777.468	0.0158289
777.547	0.0160322
777.625	0.0159782
777.703	0.0160342
777.781	0.0161651
777.859	0.0163423
777.937	0.0160143
778.015	0.0161917
778.093	0.0162513
778.172	0.0162608
778.250	0.0161315
778.328	0.0161166
778.406	0.0161154
778.484	0.0160774
778.562	0.0158976
778.640	0.0159303
778.718	0.0159666
778.797	0.0157501
778.875	0.0157469
778.953	0.0158569
779.031	0.0158256
779.109	0.0157343
779.187	0.0157253
779.265	0.0155979
779.343	0.0155674
779.422	0.0156281
779.500	0.0154539
779.578	0.0153967
779.656	0.0152388
779.734	0.0152258
779.812	0.0150720
779.890	0.0152590
779.968	0.0151968
780.047	0.0151999
780.125	0.0152978
780.203	0.0151558
780.281	0.0152324
780.359	0.0153771
780.437	0.0154107
780.515	0.0155226
780.593	0.0154785
780.672	0.0157111
780.750	0.0157510
780.828	0.0157573
780.906	0.0159124
780.984	0.0160043
781.062	0.0160794
781.140	0.0160671
781.218	0.0161607
781.297	0.0162873
781.375	0.0163467
781.453	0.0163551
781.531	0.0162818
781.609	0.0162664
781.687	0.0163354
781.765	0.0161570
781.843	0.0161629
781.922	0.0161758
782.000	0.0158556
782.078	0.0157766
782.156	0.0155264
782.234	0.0155936
782.312	0.0154733
782.390	0.0153902
782.468	0.0152764
782.547	0.0150671
782.625	0.0149544
782.703	0.0150612
782.781	0.0150895
782.859	0.0149200
782.937	0.0149893
783.015	0.0151263
783.093	0.0151297
783.172	0.0151841
783.250	0.0151789
783.328	0.0151206
783.406	0.0151263
783.484	0.0152446
783.562	0.0152292
783.640	0.0153001
783.718	0.0152418
783.797	0.0154793
783.875	0.0153703
783.953	0.0154299
784.031	0.0154016
784.109	0.0152108
784.187	0.0153751
784.265	0.0154358
784.343	0.0154240
784.422	0.0155312
784.500	0.0156461
784.578	0.0156137
784.656	0.0159238
784.734	0.0159747
784.812	0.0161234
784.890	0.0161002
784.968	0.0163593
785.047	0.0164168
785.125	0.0162975
785.203	0.0163745
785.281	0.0163829
785.359	0.0162695
785.437	0.0159942
785.515	0.0161496
785.593	0.0159123
785.672	0.0159151
785.750	0.0159093
785.828	0.0157214
785.906	0.0154465
785.984	0.0155967
786.062	0.0155155
786.140	0.0154995
786.218	0.0154631
786.297	0.0157945
786.375	0.0157562
786.453	0.0158043
786.531	0.0156892
786.609	0.0158508
786.687	0.0159187
786.765	0.0158802
786.843	0.0158796
786.922	0.0159737
787.000	0.0156779
787.078	0.0156384
787.156	0.0157706
787.234	0.0156092
787.312	0.0155202
787.390	0.0155437
787.468	0.0152489
787.547	0.0152607
787.625	0.0153318
787.703	0.0152504
787.781	0.0153963
787.859	0.0152633
787.937	0.0151746
788.015	0.0153119
788.093	0.0153633
788.172	0.0152991
788.250	0.0154404
788.328	0.0155199
788.406	0.0154124
788.484	0.0155139
788.562	0.0154863
788.640	0.0156045
788.718	0.0154912
788.797	0.0157128
788.875	0.0154713
788.953	0.0155290
789.031	0.0155516
789.109	0.0156613
789.187	0.0154394
789.265	0.0154798
789.343	0.0155766
789.422	0.0154739
789.500	0.0154014
789.578	0.0154951
789.656	0.0154929
789.734	0.0154996
789.812	0.0156152
789.890	0.0155679
789.968	0.0155826
790.047	0.0155003
790.125	0.0154862
790.203	0.0154000
790.281	0.0155767
790.359	0.0154498
790.437	0.0154811
790.515	0.0154865
790.593	0.0156073
790.672	0.0157017
790.750	0.0155634
790.828	0.0157326
790.906	0.0157676
790.984	0.0158648
791.062	0.0157881
791.140	0.0158800
791.218	0.0159749
791.297	0.0160319
791.375	0.0161892
791.453	0.0161546
791.531	0.0162864
791.609	0.0165191
791.687	0.0165500
791.765	0.0165337
791.843	0.0166396
791.922	0.0165848
792.000	0.0166608
792.078	0.0167715
792.156	0.0167079
792.234	0.0166312
792.312	0.0165386
792.390	0.0164841
792.468	0.0164536
792.547	0.0163107
792.625	0.0161476
792.703	0.0157858
792.781	0.0155084
792.859	0.0155378
792.937	0.0153266
793.015	0.0150539
793.093	0.0148019
793.172	0.0146999
793.250	0.0148874
793.328	0.0147932
793.406	0.0146558
793.484	0.0146862
793.562	0.0148438
793.640	0.0148786
793.718	0.0149854
793.797	0.0150522
793.875	0.0151165
793.953	0.0150520
794.031	0.0150253
794.109	0.0150521
794.187	0.0149525
794.265	0.0148920
794.343	0.0150102
794.422	0.0150983
794.500	0.0150753
794.578	0.0149850
794.656	0.0150375
794.734	0.0149255
794.812	0.0151363
794.890	0.0152599
794.968	0.0153646
795.047	0.0153847
795.125	0.0155190
795.203	0.0155597
795.281	0.0154394
795.359	0.0154951
795.437	0.0155297
795.515	0.0155421
795.593	0.0155489
795.672	0.0154341
795.750	0.0154247
795.828	0.0155807
795.906	0.0156615
795.984	0.0155525
796.062	0.0154929
796.140	0.0155279
796.218	0.0157452
796.297	0.0158379
796.375	0.0160142
796.453	0.0160244
796.531	0.0162360
796.609	0.0165149
796.687	0.0165151
796.765	0.0164437
796.843	0.0166127
796.922	0.0164603
797.000	0.0164532
797.078	0.0163144
797.156	0.0164568
797.234	0.0162646
797.312	0.0160626
797.390	0.0159179
797.468	0.0157706
797.547	0.0158867
797.625	0.0158019
797.703	0.0157481
797.781	0.0156551
797.859	0.0156356
797.937	0.0156428
798.015	0.0157561
798.093	0.0159094
798.172	0.0159848
798.250	0.0160754
798.328	0.0162034
798.406	0.0161452
798.484	0.0164050
798.562	0.0165244
798.640	0.0163087
798.718	0.0164838
798.797	0.0162359
798.875	0.0161829
798.953	0.0160058
799.031	0.0158414
799.109	0.0157378
799.187	0.0153914
799.265	0.0152582
799.343	0.0151120
799.422	0.0149114
799.500	0.0146589
799.578	0.0146420
799.656	0.0145112
799.734	0.0144138
799.812	0.0142329
799.890	0.0142842
799.968	0.0143203
800.047	0.0142959
800.125	0.0144164
800.203	0.0144347
800.281	0.0144427
800.359	0.0145822
800.437	0.0146835
800.515	0.0147356
800.593	0.0147459
800.672	0.0148887
800.750	0.0151260
800.828	0.0152920
800.906	0.0153490
800.984	0.0156548
801.062	0.0157240
801.140	0.0157198
801.218	0.0159716
801.297	0.0161416
801.375	0.0161053
801.453	0.0162511
801.531	0.0162513
801.609	0.0162984
801.687	0.0162151
801.765	0.0163037
801.843	0.0163937
801.922	0.0163723
802.000	0.0161809
802.078	0.0161081
802.156	0.0160528
802.234	0.0161003
802.312	0.0160252
802.390	0.0158137
802.468	0.0156696
802.547	0.0158689
802.625	0.0156631
802.703	0.0156357
802.781	0.0155883
802.859	0.0155285
802.937	0.0156092
803.015	0.0157349
803.093	0.0158236
803.172	0.0157628
803.250	0.0159270
803.328	0.0158696
803.406	0.0159849
803.484	0.0161317
803.562	0.0160489
803.640	0.0161297
803.718	0.0160827
803.797	0.0160432
803.875	0.0159260
803.953	0.0159467
804.031	0.0160500
804.109	0.0158369
804.187	0.0156913
804.265	0.0156889
804.343	0.0156358
804.422	0.0155245
804.500	0.0155279
804.578	0.0152742
804.656	0.0151602
804.734	0.0151354
804.812	0.0151307
804.890	0.0152282
804.968	0.0151189
805.047	0.0151429
805.125	0.0150789
805.203	0.0151068
805.281	0.0150739
805.359	0.0149703
805.437	0.0151092
805.515	0.0150470
805.593	0.0150054
805.672	0.0150594
805.750	0.0150511
805.828	0.0151621
805.906	0.0150701
805.984	0.0151288
806.062	0.0151311
806.140	0.0153202
806.218	0.0154530
806.297	0.0153274
806.375	0.0155309
806.453	0.0155491
806.531	0.0155569
806.609	0.0156703
806.687	0.0158363
806.765	0.0158848
806.843	0.0159254
806.922	0.0160241
807.000	0.0157391
807.078	0.0157876
807.156	0.0159194
807.234	0.0158289
807.312	0.0157330
807.390	0.0156219
807.468	0.0155868
807.547	0.0155661
807.625	0.0155698
807.703	0.0156547
807.781	0.0155720
807.859	0.0153946
807.937	0.0155231
808.015	0.0155984
808.093	0.0156042
808.172	0.0155340
808.250	0.0156094
808.328	0.0155454
808.406	0.0156118
808.484	0.0156266
808.562	0.0155748
808.640	0.0156560
808.718	0.0156353
808.797	0.0155952
808.875	0.0157104
808.953	0.0157635
809.031	0.0156360
809.109	0.0157117
809.187	0.0157672
809.265	0.0157923
809.343	0.0159219
809.422	0.0158520
809.500	0.0160165
809.578	0.0160625
809.656	0.0160333
809.734	0.0161052
809.812	0.0160517
809.890	0.0161076
809.968	0.0160909
810.047	0.0161253
810.125	0.0160765
810.203	0.0160967
810.281	0.0159678
810.359	0.0158720
810.437	0.0158388
810.515	0.0158558
810.593	0.0158547
810.672	0.0157613
810.750	0.0155123
810.828	0.0155345
810.906	0.0155589
810.984	0.0154593
811.062	0.0153188
811.140	0.0154046
811.218	0.0152799
811.297	0.0153954
811.375	0.0152692
811.453	0.0153201
811.531	0.0153994
811.609	0.0153346
811.687	0.0153384
811.765	0.0152872
811.843	0.0155306
811.922	0.0152379
812.000	0.0153180
812.078	0.0152167
812.156	0.0151347
812.234	0.0152106
812.312	0.0150005
812.390	0.0150597
812.468	0.0149990
812.547	0.0151101
812.625	0.0150842
812.703	0.0150870
812.781	0.0151231
812.859	0.0150538
812.937	0.0150253
813.015	0.0151086
813.093	0.0151329
813.172	0.0152271
813.250	0.0153048
813.328	0.0152249
813.406	0.0154277
813.484	0.0153799
813.562	0.0152599
813.640	0.0154263
813.718	0.0154723
813.797	0.0155746
813.875	0.0156147
813.953	0.0156897
814.031	0.0155960
814.109	0.0156856
814.187	0.0157330
814.265	0.0157958
814.343	0.0157996
814.422	0.0158899
814.500	0.0158882
814.578	0.0160963
814.656	0.0160574
814.734	0.0159152
814.812	0.0161298
814.890	0.0161521
814.968	0.0160797
815.047	0.0162067
815.125	0.0161875
815.203	0.0162463
815.281	0.0162881
815.359	0.0162469
815.437	0.0163958
815.515	0.0163377
815.593	0.0163193
815.672	0.0163098
815.750	0.0163972
815.828	0.0164425
815.906	0.0163373
815.984	0.0162077
816.062	0.0162373
816.140	0.0160773
816.218	0.0161133
816.297	0.0161185
816.375	0.0161428
816.453	0.0159415
816.531	0.0158196
816.609	0.0159850
816.687	0.0158842
816.765	0.0158249
816.843	0.0156500
816.922	0.0155247
817.000	0.0154244
817.078	0.0153902
817.156	0.0152210
817.234	0.0150831
817.312	0.0150165
817.390	0.0148848
817.468	0.0148597
817.547	0.0148942
817.625	0.0147236
817.703	0.0148445
817.781	0.0147847
817.859	0.0147516
817.937	0.0147688
818.015	0.0147929
818.093	0.0149100
818.172	0.0149399
818.250	0.0149684
818.328	0.0150080
818.406	0.0150395
818.484	0.0151267
818.562	0.0153381
818.640	0.0152133
818.718	0.0151839
818.797	0.0152628
818.875	0.0155225
818.953	0.0153655
819.031	0.0154552
819.109	0.0153713
819.187	0.0154314
819.265	0.0154715
819.343	0.0154198
819.422	0.0155358
819.500	0.0157763
819.578	0.0156817
819.656	0.0159129
819.734	0.0159153
819.812	0.0160046
819.890	0.0161984
819.968	0.0161959
820.047	0.0162025
820.125	0.0163409
820.203	0.0164502
820.281	0.0165600
820.359	0.0164140
820.437	0.0165408
820.515	0.0165054
820.593	0.0164927
820.672	0.0164346
820.750	0.0164592
820.828	0.0164417
820.906	0.0163776
820.984	0.0163636
821.062	0.0162860
821.140	0.0161877
821.218	0.0161505
821.297	0.0161731
821.375	0.0162280
821.453	0.0160998
821.531	0.0158823
821.609	0.0158620
821.687	0.0159247
821.765	0.0156671
821.843	0.0157139
821.922	0.0156700
822.000	0.0156462
822.078	0.0156664
822.156	0.0155138
822.234	0.0154441
822.312	0.0155038
822.390	0.0154077
822.468	0.0154015
822.547	0.0153283
822.625	0.0153478
822.703	0.0153633
822.781	0.0153574
822.859	0.0153371
822.937	0.0153693
823.015	0.0152333
823.093	0.0153071
823.172	0.0152921
823.250	0.0153235
823.328	0.0154132
823.406	0.0154166
823.484	0.0153944
823.562	0.0153541
823.640	0.0153889
823.718	0.0155418
823.797	0.0153605
823.875	0.0154216
823.953	0.0155967
824.031	0.0155338
824.109	0.0154426
824.187	0.0155397
824.265	0.0154229
824.343	0.0155743
824.422	0.0155110
824.500	0.0154875
824.578	0.0153931
824.656	0.0155074
824.734	0.0156541
824.812	0.0154990
824.890	0.0156243
824.968	0.0156927
825.047	0.0156248
825.125	0.0155862
825.203	0.0157687
825.281	0.0156375
825.359	0.0158313
825.437	0.0158923
825.515	0.0159084
825.593	0.0157790
825.672	0.0159528
825.750	0.0159033
825.828	0.0157767
825.906	0.0157533
825.984	0.0156942
826.062	0.0158373
826.140	0.0157639
826.218	0.0156674
826.297	0.0156631
826.375	0.0155713
826.453	0.0156037
826.531	0.0155576
826.609	0.0156765
826.687	0.0155320
826.765	0.0156530
826.843	0.0158624
826.922	0.0157859
827.000	0.0156526
827.078	0.0158504
827.156	0.0158256
827.234	0.0157939
827.312	0.0159078
827.390	0.0158891
827.468	0.0158560
827.547	0.0158617
827.625	0.0159239
827.703	0.0157901
827.781	0.0156727
827.859	0.0155874
827.937	0.0156777
828.015	0.0157887
828.093	0.0154221
828.172	0.0155563
828.250	0.0154798
828.328	0.0156014
828.406	0.0155286
828.484	0.0156429
828.562	0.0155384
828.640	0.0153445
828.718	0.0157181
828.797	0.0156065
828.875	0.0155080
828.953	0.0154550
829.031	0.0154890
829.109	0.0153356
829.187	0.0153518
829.265	0.0152740
829.343	0.0151688
829.422	0.0154689
829.500	0.0152312
829.578	0.0149371
829.656	0.0150281
829.734	0.0151728
829.812	0.0151582
829.890	0.0149934
829.968	0.0151491
830.047	0.0152000
830.125	0.0151881
830.203	0.0153080
830.281	0.0151670
830.359	0.0152019
830.437	0.0154267
830.515	0.0152904
830.593	0.0153143
830.672	0.0153178
830.750	0.0155301
830.828	0.0154338
830.906	0.0154281
830.984	0.0154736
831.062	0.0155292
831.140	0.0155409
831.218	0.0155649
831.297	0.0156568
831.375	0.0156065
831.453	0.0157761
831.531	0.0157258
831.609	0.0159048
831.687	0.0157956
831.765	0.0155992
831.843	0.0157833
831.922	0.0157841
832.000	0.0159055
832.078	0.0157430
832.156	0.0157400
832.234	0.0158238
832.312	0.0158585
832.390	0.0158611
832.468	0.0158556
832.547	0.0157022
832.625	0.0157530
832.703	0.0157674
832.781	0.0157990
832.859	0.0158052
832.937	0.0156276
833.015	0.0157209
833.093	0.0155476
833.172	0.0156656
833.250	0.0157703
833.328	0.0158582
833.406	0.0157877
833.484	0.0158167
833.562	0.0156902
833.640	0.0158359
833.718	0.0158026
833.797	0.0157100
833.875	0.0159143
833.953	0.0157389
834.031	0.0158019
834.109	0.0158366
834.187	0.0157071
834.265	0.0155779
834.343	0.0156019
834.422	0.0155148
834.500	0.0156567
834.578	0.0155512
834.656	0.0155805
834.734	0.0155090
834.812	0.0153368
834.890	0.0155342
834.968	0.0154945
835.047	0.0153558
835.125	0.0153024
835.203	0.0153033
835.281	0.0152016
835.359	0.0153604
835.437	0.0153629
835.515	0.0153445
835.593	0.0152460
835.672	0.0153400
835.750	0.0153526
835.828	0.0153532
835.906	0.0152648
835.984	0.0152686
836.062	0.0154995
836.140	0.0153104
836.218	0.0153625
836.297	0.0153275
836.375	0.0154339
836.453	0.0154942
836.531	0.0153598
836.609	0.0153439
836.687	0.0154544
836.765	0.0153091
836.843	0.0155396
836.922	0.0155638
837.000	0.0155906
837.078	0.0157249
837.156	0.0157330
837.234	0.0159512
837.312	0.0158364
837.390	0.0158619
837.468	0.0160216
837.547	0.0160093
837.625	0.0160232
837.703	0.0160892
837.781	0.0160864
837.859	0.0159577
837.937	0.0159892
838.015	0.0159484
838.093	0.0156992
838.172	0.0157317
838.250	0.0157467
838.328	0.0156943
838.406	0.0156202
838.484	0.0155830
838.562	0.0155038
838.640	0.0154425
838.718	0.0154988
838.797	0.0154380
838.875	0.0154727
838.953	0.0153838
839.031	0.0154878
839.109	0.0154578
839.187	0.0154654
839.265	0.0155671
839.343	0.0154306
839.422	0.0154298
839.500	0.0155984
839.578	0.0157513
839.656	0.0158594
839.734	0.0157438
839.812	0.0160048
839.890	0.0159253
839.968	0.0159981
840.047	0.0160596
840.125	0.0160238
840.203	0.0160081
840.281	0.0162144
840.359	0.0159087
840.437	0.0158654
840.515	0.0159644
840.593	0.0159514
840.672	0.0158409
840.750	0.0158726
840.828	0.0158945
840.906	0.0158087
840.984	0.0158024
841.062	0.0159387
841.140	0.0159585
841.218	0.0157919
841.297	0.0157925
841.375	0.0157259
841.453	0.0158030
841.531	0.0158189
841.609	0.0156440
841.687	0.0158346
841.765	0.0156408
841.843	0.0156499
841.922	0.0156754
842.000	0.0157349
842.078	0.0156399
842.156	0.0154786
842.234	0.0154382
842.312	0.0154578
842.390	0.0156469
842.468	0.0154746
842.547	0.0154752
842.625	0.0156184
842.703	0.0155640
842.781	0.0155508
842.859	0.0156504
842.937	0.0157285
843.015	0.0156171
843.093	0.0156271
843.172	0.0156083
843.250	0.0156775
843.328	0.0157510
843.406	0.0157381
843.484	0.0157195
843.562	0.0157008
843.640	0.0156668
843.718	0.0158712
843.797	0.0157266
843.875	0.0156478
843.953	0.0156236
844.031	0.0156130
844.109	0.0156200
844.187	0.0155844
844.265	0.0156115
844.343	0.0156533
844.422	0.0154461
844.500	0.0154647
844.578	0.0154944
844.656	0.0155231
844.734	0.0156304
844.812	0.0156254
844.890	0.0155985
844.968	0.0156541
845.047	0.0156138
845.125	0.0155056
845.203	0.0156327
845.281	0.0156621
845.359	0.0156028
845.437	0.0156676
845.515	0.0157491
845.593	0.0157230
845.672	0.0157069
845.750	0.0158750
845.828	0.0158245
845.906	0.0157180
845.984	0.0158936
846.062	0.0158183
846.140	0.0157312
846.218	0.0157747
846.297	0.0158730
846.375	0.0159013
846.453	0.0156645
846.531	0.0157949
846.609	0.0157628
846.687	0.0157144
846.765	0.0156791
846.843	0.0157183
846.922	0.0156926
847.000	0.0157403
847.078	0.0156772
847.156	0.0156971
847.234	0.0157560
847.312	0.0156561
847.390	0.0157584
847.468	0.0157183
847.547	0.0156493
847.625	0.0156416
847.703	0.0156028
847.781	0.0155499
847.859	0.0156496
847.937	0.0156174
848.015	0.0156203
848.093	0.0156289
848.172	0.0155914
848.250	0.0156404
848.328	0.0154894
848.406	0.0155954
848.484	0.0155876
848.562	0.0155961
848.640	0.0155865
848.718	0.0155185
848.797	0.0156402
848.875	0.0156403
848.953	0.0155579
849.031	0.0154971
849.109	0.0155930
849.187	0.0156139
849.265	0.0153932
849.343	0.0155967
849.422	0.0155968
849.500	0.0154214
849.578	0.0154183
849.656	0.0155791
849.734	0.0155016
849.812	0.0155418
849.890	0.0153349
849.968	0.0155502
850.047	0.0155505
850.125	0.0155223
850.203	0.0154839
850.281	0.0156116
850.359	0.0156290
850.437	0.0156195
850.515	0.0156403
850.593	0.0156064
850.672	0.0155978
850.750	0.0155215
850.828	0.0156356
850.906	0.0156395
850.984	0.0156734
851.062	0.0156506
851.140	0.0155172
851.218	0.0156358
851.297	0.0155974
851.375	0.0156013
851.453	0.0156786
851.531	0.0156237
851.609	0.0155174
851.687	0.0155644
851.765	0.0156916
851.843	0.0157383
851.922	0.0157312
852.000	0.0155297
852.078	0.0157537
852.156	0.0157462
852.234	0.0156281
852.312	0.0156221
852.390	0.0157615
852.468	0.0157895
852.547	0.0158138
852.625	0.0157417
852.703	0.0156162
852.781	0.0156815
852.859	0.0156867
852.937	0.0156110
853.015	0.0156534
853.093	0.0155696
853.172	0.0156287
853.250	0.0156465
853.328	0.0157085
853.406	0.0155730
853.484	0.0154819
853.562	0.0156451
853.640	0.0155312
853.718	0.0155163
853.797	0.0156098
853.875	0.0157326
853.953	0.0155022
854.031	0.0155025
854.109	0.0155829
854.187	0.0156111
854.265	0.0157185
854.343	0.0155257
854.422	0.0155850
854.500	0.0156452
854.578	0.0155404
854.656	0.0156792
854.734	0.0155441
854.812	0.0154462
854.890	0.0155289
854.968	0.0154882
855.047	0.0154883
855.125	0.0155427
855.203	0.0154408
855.281	0.0154859
855.359	0.0154860
855.437	0.0155446
855.515	0.0155428
855.593	0.0155735
855.672	0.0155375
855.750	0.0155836
855.828	0.0155755
855.906	0.0156460
855.984	0.0156721
856.062	0.0156030
856.140	0.0156812
856.218	0.0157864
856.297	0.0158128
856.375	0.0157555
856.453	0.0158945
856.531	0.0157198
856.609	0.0156500
856.687	0.0156645
856.765	0.0157155
856.843	0.0158208
856.922	0.0155917
857.000	0.0154173
857.078	0.0155244
857.156	0.0156408
857.234	0.0155534
857.312	0.0155401
857.390	0.0154812
857.468	0.0154842
857.547	0.0156219
857.625	0.0155667
857.703	0.0156045
857.781	0.0155559
857.859	0.0155343
857.937	0.0154631
858.015	0.0157327
858.093	0.0155644
858.172	0.0155888
858.250	0.0155540
858.328	0.0157674
858.406	0.0157828
858.484	0.0158331
858.562	0.0156855
858.640	0.0156455
858.718	0.0157223
858.797	0.0156993
858.875	0.0157579
858.953	0.0157407
859.031	0.0156804
859.109	0.0157053
859.187	0.0156986
859.265	0.0155601
859.343	0.0154977
859.422	0.0155709
859.500	0.0154744
859.578	0.0156258
859.656	0.0157278
859.734	0.0155681
859.812	0.0156843
859.890	0.0156630
859.968	0.0156265
860.047	0.0155824
860.125	0.0158049
860.203	0.0158383
860.281	0.0158292
860.359	0.0158067
860.437	0.0157138
860.515	0.0158432
860.593	0.0157020
860.672	0.0157072
860.750	0.0157757
860.828	0.0159660
860.906	0.0158698
860.984	0.0156083
861.062	0.0156270
861.140	0.0155353
861.218	0.0156252
861.297	0.0155133
861.375	0.0156566
861.453	0.0157024
861.531	0.0154300
861.609	0.0154646
861.687	0.0155893
861.765	0.0156532
861.843	0.0155376
861.922	0.0155947
862.000	0.0155967
862.078	0.0156886
862.156	0.0155972
862.234	0.0154139
862.312	0.0156270
862.390	0.0155849
862.468	0.0155893
862.547	0.0155251
862.625	0.0155096
862.703	0.0155280
862.781	0.0156607
862.859	0.0155015
862.937	0.0155840
863.015	0.0156634
863.093	0.0156316
863.172	0.0157191
863.250	0.0157405
863.328	0.0157423
863.406	0.0157333
863.484	0.0157281
863.562	0.0158513
863.640	0.0158444
863.718	0.0158233
863.797	0.0158858
863.875	0.0158937
863.953	0.0158018
864.031	0.0159395
864.109	0.0159074
864.187	0.0157675
864.265	0.0159079
864.343	0.0158654
864.422	0.0158788
864.500	0.0158467
864.578	0.0157912
864.656	0.0157713
864.734	0.0157399
864.812	0.0156738
864.890	0.0155846
864.968	0.0155929
865.047	0.0157612
865.125	0.0156190
865.203	0.0156673
865.281	0.0155778
865.359	0.0156142
865.437	0.0154813
865.515	0.0154302
865.593	0.0154424
865.672	0.0155037
865.750	0.0156052
865.828	0.0156129
865.906	0.0154467
865.984	0.0153893
866.062	0.0154710
866.140	0.0155764
866.218	0.0155831
866.297	0.0155726
866.375	0.0155946
866.453	0.0156765
866.531	0.0158363
866.609	0.0158245
866.687	0.0158211
866.765	0.0158148
866.843	0.0158813
866.922	0.0158120
867.000	0.0158877
867.078	0.0158832
867.156	0.0157911
867.234	0.0157023
867.312	0.0157694
867.390	0.0155805
867.468	0.0156870
867.547	0.0155518
867.625	0.0155204
867.703	0.0156494
867.781	0.0156604
867.859	0.0155894
867.937	0.0155529
868.015	0.0156717
868.093	0.0156228
868.172	0.0155331
868.250	0.0157583
868.328	0.0156595
868.406	0.0158224
868.484	0.0158002
868.562	0.0157095
868.640	0.0156068
868.718	0.0158006
868.797	0.0156664
868.875	0.0155280
868.953	0.0156686
869.031	0.0157648
869.109	0.0154887
869.187	0.0154942
869.265	0.0155771
869.343	0.0155486
869.422	0.0154115
869.500	0.0154279
869.578	0.0154986
869.656	0.0154347
869.734	0.0155814
869.812	0.0155226
869.890	0.0154086
869.968	0.0155687
870.047	0.0153436
870.125	0.0153648
870.203	0.0153678
870.281	0.0154413
870.359	0.0153542
870.437	0.0153724
870.515	0.0156797
870.593	0.0154299
870.672	0.0154598
870.750	0.0155953
870.828	0.0156201
870.906	0.0154891
870.984	0.0155595
871.062	0.0156156
871.140	0.0156027
871.218	0.0157011
871.297	0.0157458
871.375	0.0157401
871.453	0.0156403
871.531	0.0156864
871.609	0.0158244
871.687	0.0159029
871.765	0.0156729
871.843	0.0157420
871.922	0.0158428
872.000	0.0159034
872.078	0.0157616
872.156	0.0158709
872.234	0.0157837
872.312	0.0156810
872.390	0.0156429
872.468	0.0157882
872.547	0.0154395
872.625	0.0156070
872.703	0.0155932
872.781	0.0155149
872.859	0.0154845
872.937	0.0155714
873.015	0.0155092
873.093	0.0153335
873.172	0.0154189
873.250	0.0155807
873.328	0.0154889
873.406	0.0154313
873.484	0.0155280
873.562	0.0154926
873.640	0.0154549
873.718	0.0153417
873.797	0.0154473
873.875	0.0153683
873.953	0.0154652
874.031	0.0154500
874.109	0.0154552
874.187	0.0155263
874.265	0.0155457
874.343	0.0153968
874.422	0.0155775
874.500	0.0156036
874.578	0.0155487
874.656	0.0155179
874.734	0.0156299
874.812	0.0154903
874.890	0.0156973
874.968	0.0156342
875.047	0.0157203
875.125	0.0157474
875.203	0.0156055
875.281	0.0157411
875.359	0.0156097
875.437	0.0156055
875.515	0.0155200
875.593	0.0156346
875.672	0.0156020
875.750	0.0154160
875.828	0.0155434
875.906	0.0154291
875.984	0.0154350
876.062	0.0155032
876.140	0.0153215
876.218	0.0153689
876.297	0.0153291
876.375	0.0153251
876.453	0.0153345
876.531	0.0153111
876.609	0.0152056
876.687	0.0152763
876.765	0.0153556
876.843	0.0154430
876.922	0.0153371
877.000	0.0154467
877.078	0.0154121
877.156	0.0153510
877.234	0.0153504
877.312	0.0155064
877.390	0.0154392
877.468	0.0154704
877.547	0.0155625
877.625	0.0155207
877.703	0.0155418
877.781	0.0156161
877.859	0.0156499
877.937	0.0157200
878.015	0.0157238
878.093	0.0156930
878.172	0.0157369
878.250	0.0156280
878.328	0.0156600
878.406	0.0157220
878.484	0.0156034
878.562	0.0156921
878.640	0.0156930
878.718	0.0157381
878.797	0.0158071
878.875	0.0156696
878.953	0.0157883
879.031	0.0157253
879.109	0.0156973
879.187	0.0155958
879.265	0.0155041
879.343	0.0156857
879.422	0.0155769
879.500	0.0154673
879.578	0.0156037
879.656	0.0156138
879.734	0.0157390
879.812	0.0156686
879.890	0.0157658
879.968	0.0156590
880.047	0.0155549
880.125	0.0156452
880.203	0.0155087
880.281	0.0155023
880.359	0.0154145
880.437	0.0155269
880.515	0.0155599
880.593	0.0154839
880.672	0.0154599
880.750	0.0154694
880.828	0.0154807
880.906	0.0156805
880.984	0.0154800
881.062	0.0154149
881.140	0.0155882
881.218	0.0157596
881.297	0.0155471
881.375	0.0156252
881.453	0.0157217
881.531	0.0156798
881.609	0.0157024
881.687	0.0156177
881.765	0.0157584
881.843	0.0157193
881.922	0.0156335
882.000	0.0156729
882.078	0.0156263
882.156	0.0156567
882.234	0.0155752
882.312	0.0156065
882.390	0.0157301
882.468	0.0157943
882.547	0.0155612
882.625	0.0155296
882.703	0.0156345
882.781	0.0156525
882.859	0.0156561
882.937	0.0157132
883.015	0.0157472
883.093	0.0157217
883.172	0.0157603
883.250	0.0158936
883.328	0.0158567
883.406	0.0157776
883.484	0.0159185
883.562	0.0157852
883.640	0.0158823
883.718	0.0157175
883.797	0.0157853
883.875	0.0157030
883.953	0.0158235
884.031	0.0159379
884.109	0.0158421
884.187	0.0158115
884.265	0.0157647
884.343	0.0156165
884.422	0.0157604
884.500	0.0156246
884.578	0.0156903
884.656	0.0158498
884.734	0.0157683
884.812	0.0158515
884.890	0.0157432
884.968	0.0157809
885.047	0.0158894
885.125	0.0159159
885.203	0.0157980
885.281	0.0158853
885.359	0.0158688
885.437	0.0158323
885.515	0.0157457
885.593	0.0158491
885.672	0.0157887
885.750	0.0157150
885.828	0.0158295
885.906	0.0158514
885.984	0.0157009
886.062	0.0155717
886.140	0.0157303
886.218	0.0155793
886.297	0.0156209
886.375	0.0155262
886.453	0.0156490
886.531	0.0156976
886.609	0.0156481
886.687	0.0154933
886.765	0.0154948
886.843	0.0156535
886.922	0.0155825
887.000	0.0156351
887.078	0.0156703
887.156	0.0156364
887.234	0.0156662
887.312	0.0158387
887.390	0.0156390
887.468	0.0157766
887.547	0.0156802
887.625	0.0158273
887.703	0.0157957
887.781	0.0157977
887.859	0.0156702
887.937	0.0156664
888.015	0.0156950
888.093	0.0158020
888.172	0.0157955
888.250	0.0155698
888.328	0.0155685
888.406	0.0157924
888.484	0.0156939
888.562	0.0156937
888.640	0.0156959
888.718	0.0158100
888.797	0.0156107
888.875	0.0156950
888.953	0.0156939
889.031	0.0156296
889.109	0.0159093
889.187	0.0160552
889.265	0.0158368
889.343	0.0158759
889.422	0.0159606
889.500	0.0159837
889.578	0.0159264
889.656	0.0159445
889.734	0.0159027
889.812	0.0159302
889.890	0.0159640
889.968	0.0158623
890.047	0.0157471
890.125	0.0158741
890.203	0.0157444
890.281	0.0157751
890.359	0.0156508
890.437	0.0157727
890.515	0.0156712
890.593	0.0155569
890.672	0.0156857
890.750	0.0156796
890.828	0.0155772
890.906	0.0155744
890.984	0.0156554
891.062	0.0155852
891.140	0.0155791
891.218	0.0155581
891.297	0.0156493
891.375	0.0157149
891.453	0.0155801
891.531	0.0156314
891.609	0.0155479
891.687	0.0156190
891.765	0.0157719
891.843	0.0156483
891.922	0.0156927
892.000	0.0155148
892.078	0.0155020
892.156	0.0157215
892.234	0.0154722
892.312	0.0155545
892.390	0.0156330
892.468	0.0154613
892.547	0.0153728
892.625	0.0154529
892.703	0.0154277
892.781	0.0153905
892.859	0.0152638
892.937	0.0154176
893.015	0.0154619
893.093	0.0153069
893.172	0.0153745
893.250	0.0152861
893.328	0.0153537
893.406	0.0155616
893.484	0.0153612
893.562	0.0153704
893.640	0.0154128
893.718	0.0155019
893.797	0.0156557
893.875	0.0154105
893.953	0.0153915
894.031	0.0155215
894.109	0.0153704
894.187	0.0154121
894.265	0.0153607
894.343	0.0153590
894.422	0.0153046
894.500	0.0153905
894.578	0.0154450
894.656	0.0154045
894.734	0.0153683
894.812	0.0153926
894.890	0.0154092
894.968	0.0155094
895.047	0.0154832
895.125	0.0156390
895.203	0.0156779
895.281	0.0155919
895.359	0.0156495
895.437	0.0157333
895.515	0.0157028
895.593	0.0158283
895.672	0.0158430
895.750	0.0157903
895.828	0.0155942
895.906	0.0157716
895.984	0.0158145
896.062	0.0157565
896.140	0.0158141
896.218	0.0157678
896.297	0.0157436
896.375	0.0156831
896.453	0.0157223
896.531	0.0156219
896.609	0.0156416
896.687	0.0156833
896.765	0.0157178
896.843	0.0155799
896.922	0.0156519
897.000	0.0155739
897.078	0.0158479
897.156	0.0155956
897.234	0.0156464
897.312	0.0157350
897.390	0.0156826
897.468	0.0157007
897.547	0.0156650
897.625	0.0155984
897.703	0.0157307
897.781	0.0155862
897.859	0.0157461
897.937	0.0156548
898.015	0.0157301
898.093	0.0156732
898.172	0.0155579
898.250	0.0155228
898.328	0.0153845
898.406	0.0155470
898.484	0.0153865
898.562	0.0153574
898.640	0.0153262
898.718	0.0153435
898.797	0.0153066
898.875	0.0153748
898.953	0.0154111
899.031	0.0153845
899.109	0.0153937
899.187	0.0152971
899.265	0.0153193
899.343	0.0153689
899.422	0.0154505
899.500	0.0153114
899.578	0.0153960
899.656	0.0154456
899.734	0.0153158
899.812	0.0155533
899.890	0.0154775
899.968	0.0154625
900.047	0.0155408
900.125	0.0155568
900.203	0.0154922
900.281	0.0155852
900.359	0.0155302
900.437	0.0154139
900.515	0.0155493
900.593	0.0155150
900.672	0.0154295
900.750	0.0156179
900.828	0.0156250
900.906	0.0154488
900.984	0.0156368
901.062	0.0155987
901.140	0.0155016
901.218	0.0155119
901.297	0.0154945
901.375	0.0154425
901.453	0.0155455
901.531	0.0154795
901.609	0.0155701
901.687	0.0153946
901.765	0.0153804
901.843	0.0155461
901.922	0.0155670
902.000	0.0156760
902.078	0.0155978
902.156	0.0155264
902.234	0.0156143
902.312	0.0157002
902.390	0.0156281
902.468	0.0157396
902.547	0.0156815
902.625	0.0156588
902.703	0.0158128
902.781	0.0158453
902.859	0.0156788
902.937	0.0157584
903.015	0.0157231
903.093	0.0157187
903.172	0.0157673
903.250	0.0158326
903.328	0.0156889
903.406	0.0157184
903.484	0.0158131
903.562	0.0157274
903.640	0.0156696
903.718	0.0157419
903.797	0.0156237
903.875	0.0156764
903.953	0.0156487
904.031	0.0157795
904.109	0.0157391
904.187	0.0154782
904.265	0.0154531
904.343	0.0154258
904.422	0.0156113
904.500	0.0156097
904.578	0.0155139
904.656	0.0155124
904.734	0.0155286
904.812	0.0155233
904.890	0.0153546
904.968	0.0154328
905.047	0.0152846
905.125	0.0153796
905.203	0.0154736
905.281	0.0154877
905.359	0.0154671
905.437	0.0154509
905.515	0.0153400
905.593	0.0153340
905.672	0.0153465
905.750	0.0154279
905.828	0.0154461
905.906	0.0156185
905.984	0.0156306
906.062	0.0154726
906.140	0.0155571
906.218	0.0155524
906.297	0.0156664
906.375	0.0156392
906.453	0.0156747
906.531	0.0156779
906.609	0.0156611
906.687	0.0157435
906.765	0.0156738
906.843	0.0156348
906.922	0.0157188
907.000	0.0158252
907.078	0.0157903
907.156	0.0158201
907.234	0.0157003
907.312	0.0157120
907.390	0.0157397
907.468	0.0158660
907.547	0.0157484
907.625	0.0156338
907.703	0.0156821
907.781	0.0157710
907.859	0.0157534
907.937	0.0156393
908.015	0.0157964
908.093	0.0158362
908.172	0.0157826
908.250	0.0156454
908.328	0.0157916
908.406	0.0158863
908.484	0.0157840
908.562	0.0156772
908.640	0.0157552
908.718	0.0158536
908.797	0.0159061
908.875	0.0157770
908.953	0.0157827
909.031	0.0157970
909.109	0.0157822
909.187	0.0157684
909.265	0.0158094
909.343	0.0158531
909.422	0.0157340
909.500	0.0158363
909.578	0.0159403
909.656	0.0158109
909.734	0.0158516
909.812	0.0157381
909.890	0.0158128
909.968	0.0158873
910.047	0.0157515
910.125	0.0158657
910.203	0.0156873
910.281	0.0155564
910.359	0.0157732
910.437	0.0155713
910.515	0.0156099
910.593	0.0156902
910.672	0.0155999
910.750	0.0156679
910.828	0.0156748
910.906	0.0156618
910.984	0.0156487
911.062	0.0156808
911.140	0.0155890
911.218	0.0155412
911.297	0.0155272
911.375	0.0156775
911.453	0.0156383
911.531	0.0156877
911.609	0.0156499
911.687	0.0155811
911.765	0.0156413
911.843	0.0157367
911.922	0.0157474
912.000	0.0157780
912.078	0.0156909
912.156	0.0156851
912.234	0.0157560
912.312	0.0157352
912.390	0.0157730
912.468	0.0156936
912.547	0.0158443
912.625	0.0158755
912.703	0.0159052
912.781	0.0158304
912.859	0.0157781
912.937	0.0158176
913.015	0.0158323
913.093	0.0157014
913.172	0.0157113
913.250	0.0158487
913.328	0.0159251
913.406	0.0157845
913.484	0.0156950
913.562	0.0156743
913.640	0.0157229
913.718	0.0157048
913.797	0.0156265
913.875	0.0157571
913.953	0.0157293
914.031	0.0157240
914.109	0.0156239
914.187	0.0156300
914.265	0.0155642
914.343	0.0156269
914.422	0.0156477
914.500	0.0156602
914.578	0.0155929
914.656	0.0155325
914.734	0.0156063
914.812	0.0155610
914.890	0.0156836
914.968	0.0156711
915.047	0.0155875
915.125	0.0156963
915.203	0.0156239
915.281	0.0156148
915.359	0.0156789
915.437	0.0156521
915.515	0.0156210
915.593	0.0156016
915.672	0.0157572
915.750	0.0157368
915.828	0.0155682
915.906	0.0158371
915.984	0.0158378
916.062	0.0157019
916.140	0.0158913
916.218	0.0157603
916.297	0.0158507
916.375	0.0157793
916.453	0.0159757
916.531	0.0159090
916.609	0.0158867
916.687	0.0157780
916.765	0.0158347
916.843	0.0158097
916.922	0.0157800
917.000	0.0157849
917.078	0.0157642
917.156	0.0156844
917.234	0.0158514
917.312	0.0157700
917.390	0.0158035
917.468	0.0155948
917.547	0.0154168
917.625	0.0155718
917.703	0.0156635
917.781	0.0156849
917.859	0.0155598
917.937	0.0156664
918.015	0.0155873
918.093	0.0155727
918.172	0.0155389
918.250	0.0157319
918.328	0.0156227
918.406	0.0155336
918.484	0.0157684
918.562	0.0156021
918.640	0.0155760
918.718	0.0156064
918.797	0.0156806
918.875	0.0155997
918.953	0.0156420
919.031	0.0156186
919.109	0.0156461
919.187	0.0156390
919.265	0.0156728
919.343	0.0156113
919.422	0.0156551
919.500	0.0156578
919.578	0.0156667
919.656	0.0156026
919.734	0.0157600
919.812	0.0156760
919.890	0.0157052
