06/13/2022	14:57:34	Ver.	4.1	UNKNOWN
Optical Delay	599.968395	Delta X		0.078125	Sweeps	1	Scan Rate	0/0
Coordinates	Axis 1	NaN	Axis 2	NaN	Axis 3	NaN	Axis 4	NaN	Axis 5	NaN	Axis 6	0.000000
TX Power	0.000000	RX Power	0.000000

599.968	0.0157830
600.047	0.0157709
600.125	0.0158488
600.203	0.0157876
600.281	0.0158156
600.359	0.0156975
600.437	0.0158780
600.515	0.0157638
600.593	0.0157761
600.672	0.0156332
600.750	0.0158420
600.828	0.0157993
600.906	0.0158440
600.984	0.0158419
601.062	0.0156731
601.140	0.0156554
601.218	0.0157614
601.297	0.0158414
601.375	0.0158681
601.453	0.0158068
601.531	0.0157173
601.609	0.0157018
601.687	0.0158423
601.765	0.0159058
601.843	0.0158472
601.922	0.0157777
602.000	0.0158040
602.078	0.0156982
602.156	0.0157042
602.234	0.0158251
602.312	0.0156812
602.390	0.0157009
602.468	0.0156999
602.547	0.0157367
602.625	0.0157330
602.703	0.0157822
602.781	0.0158616
602.859	0.0158475
602.937	0.0158721
603.015	0.0157798
603.093	0.0156931
603.172	0.0157391
603.250	0.0156555
603.328	0.0157373
603.406	0.0157626
603.484	0.0157929
603.562	0.0157587
603.640	0.0158797
603.718	0.0157205
603.797	0.0157275
603.875	0.0158536
603.953	0.0158604
604.031	0.0158967
604.109	0.0157470
604.187	0.0157855
604.265	0.0156662
604.343	0.0158418
604.422	0.0158221
604.500	0.0157057
604.578	0.0158542
604.656	0.0157926
604.734	0.0157632
604.812	0.0157612
604.890	0.0158131
604.968	0.0158296
605.047	0.0157789
605.125	0.0158470
605.203	0.0158799
605.281	0.0157967
605.359	0.0158115
605.437	0.0157742
605.515	0.0157470
605.593	0.0158174
605.672	0.0157967
605.750	0.0158865
605.828	0.0158217
605.906	0.0157809
605.984	0.0156919
606.062	0.0158360
606.140	0.0158035
606.218	0.0156235
606.297	0.0157950
606.375	0.0157668
606.453	0.0157475
606.531	0.0157941
606.609	0.0157124
606.687	0.0157137
606.765	0.0157880
606.843	0.0158635
606.922	0.0157528
607.000	0.0158034
607.078	0.0158260
607.156	0.0158816
607.234	0.0157796
607.312	0.0158437
607.390	0.0157866
607.468	0.0158221
607.547	0.0158047
607.625	0.0158547
607.703	0.0159000
607.781	0.0158051
607.859	0.0157849
607.937	0.0157574
608.015	0.0158018
608.093	0.0158114
608.172	0.0157160
608.250	0.0157967
608.328	0.0159728
608.406	0.0159051
608.484	0.0158904
608.562	0.0158591
608.640	0.0157789
608.718	0.0157796
608.797	0.0157647
608.875	0.0159410
608.953	0.0158219
609.031	0.0158372
609.109	0.0157640
609.187	0.0157977
609.265	0.0157628
609.343	0.0158351
609.422	0.0158168
609.500	0.0157561
609.578	0.0156773
609.656	0.0158190
609.734	0.0158003
609.812	0.0157395
609.890	0.0158881
609.968	0.0158420
610.047	0.0155876
610.125	0.0156130
610.203	0.0157979
610.281	0.0158222
610.359	0.0158338
610.437	0.0158981
610.515	0.0158488
610.593	0.0157942
610.672	0.0158632
610.750	0.0156886
610.828	0.0156525
610.906	0.0156902
610.984	0.0157713
611.062	0.0157580
611.140	0.0157722
611.218	0.0157973
611.297	0.0156595
611.375	0.0157841
611.453	0.0157646
611.531	0.0157699
611.609	0.0158508
611.687	0.0158134
611.765	0.0159093
611.843	0.0156185
611.922	0.0156364
612.000	0.0158533
612.078	0.0158445
612.156	0.0158583
612.234	0.0158511
612.312	0.0156955
612.390	0.0158115
612.468	0.0158452
612.547	0.0156931
612.625	0.0157442
612.703	0.0158752
612.781	0.0158638
612.859	0.0158247
612.937	0.0158598
613.015	0.0157325
613.093	0.0158489
613.172	0.0158083
613.250	0.0158382
613.328	0.0157790
613.406	0.0158055
613.484	0.0158432
613.562	0.0157291
613.640	0.0158749
613.718	0.0157552
613.797	0.0158568
613.875	0.0158315
613.953	0.0158631
614.031	0.0157732
614.109	0.0157949
614.187	0.0157621
614.265	0.0157865
614.343	0.0157565
614.422	0.0157740
614.500	0.0157375
614.578	0.0156273
614.656	0.0157001
614.734	0.0159364
614.812	0.0157937
614.890	0.0156302
614.968	0.0157597
615.047	0.0158542
615.125	0.0158017
615.203	0.0157999
615.281	0.0157703
615.359	0.0158523
615.437	0.0157455
615.515	0.0158198
615.593	0.0158342
615.672	0.0157973
615.750	0.0157458
615.828	0.0157582
615.906	0.0157939
615.984	0.0157877
616.062	0.0157929
616.140	0.0157893
616.218	0.0157776
616.297	0.0157578
616.375	0.0158079
616.453	0.0155819
616.531	0.0157839
616.609	0.0158705
616.687	0.0159261
616.765	0.0159318
616.843	0.0158062
616.922	0.0157874
617.000	0.0159038
617.078	0.0157922
617.156	0.0157887
617.234	0.0158699
617.312	0.0157628
617.390	0.0157478
617.468	0.0158922
617.547	0.0158961
617.625	0.0156443
617.703	0.0158676
617.781	0.0158562
617.859	0.0156182
617.937	0.0159148
618.015	0.0158630
618.093	0.0158870
618.172	0.0158840
618.250	0.0157504
618.328	0.0157974
618.406	0.0158097
618.484	0.0158572
618.562	0.0157568
618.640	0.0157876
618.718	0.0157052
618.797	0.0156779
618.875	0.0157227
618.953	0.0157592
619.031	0.0157648
619.109	0.0158786
619.187	0.0157109
619.265	0.0157731
619.343	0.0158902
619.422	0.0156585
619.500	0.0158592
619.578	0.0157852
619.656	0.0157354
619.734	0.0157997
619.812	0.0158908
619.890	0.0159491
619.968	0.0158234
620.047	0.0158247
620.125	0.0156343
620.203	0.0156845
620.281	0.0157156
620.359	0.0156823
620.437	0.0156229
620.515	0.0156605
620.593	0.0157027
620.672	0.0157281
620.750	0.0157358
620.828	0.0157705
620.906	0.0157605
620.984	0.0157211
621.062	0.0156519
621.140	0.0157668
621.218	0.0156860
621.297	0.0157417
621.375	0.0157482
621.453	0.0157451
621.531	0.0157475
621.609	0.0158024
621.687	0.0156965
621.765	0.0157993
621.843	0.0156403
621.922	0.0157065
622.000	0.0157391
622.078	0.0158289
622.156	0.0156053
622.234	0.0155510
622.312	0.0157176
622.390	0.0157879
622.468	0.0157490
622.547	0.0156849
622.625	0.0157009
622.703	0.0157700
622.781	0.0157339
622.859	0.0156850
622.937	0.0159438
623.015	0.0157732
623.093	0.0157817
623.172	0.0157682
623.250	0.0156839
623.328	0.0156683
623.406	0.0157782
623.484	0.0158375
623.562	0.0157037
623.640	0.0155939
623.718	0.0158553
623.797	0.0157937
623.875	0.0157535
623.953	0.0156448
624.031	0.0157294
624.109	0.0157288
624.187	0.0156530
624.265	0.0157326
624.343	0.0158392
624.422	0.0157437
624.500	0.0158514
624.578	0.0158185
624.656	0.0156222
624.734	0.0158253
624.812	0.0157269
624.890	0.0157104
624.968	0.0156598
625.047	0.0155962
625.125	0.0157136
625.203	0.0156981
625.281	0.0158572
625.359	0.0158569
625.437	0.0157883
625.515	0.0158171
625.593	0.0157857
625.672	0.0156848
625.750	0.0157126
625.828	0.0157756
625.906	0.0156831
625.984	0.0156763
626.062	0.0158132
626.140	0.0157225
626.218	0.0156873
626.297	0.0157175
626.375	0.0156027
626.453	0.0158035
626.531	0.0158410
626.609	0.0156544
626.687	0.0157225
626.765	0.0157384
626.843	0.0157643
626.922	0.0158143
627.000	0.0157072
627.078	0.0157134
627.156	0.0157101
627.234	0.0158576
627.312	0.0158128
627.390	0.0158093
627.468	0.0158450
627.547	0.0157148
627.625	0.0157581
627.703	0.0156556
627.781	0.0157486
627.859	0.0157673
627.937	0.0156831
628.015	0.0157639
628.093	0.0157062
628.172	0.0158177
628.250	0.0157152
628.328	0.0157916
628.406	0.0156461
628.484	0.0157303
628.562	0.0155856
628.640	0.0156634
628.718	0.0157157
628.797	0.0157597
628.875	0.0157051
628.953	0.0156008
629.031	0.0157085
629.109	0.0157028
629.187	0.0157540
629.265	0.0157569
629.343	0.0157913
629.422	0.0157673
629.500	0.0156731
629.578	0.0157527
629.656	0.0156705
629.734	0.0157950
629.812	0.0157639
629.890	0.0156977
629.968	0.0157114
630.047	0.0156846
630.125	0.0157894
630.203	0.0155465
630.281	0.0157664
630.359	0.0157207
630.437	0.0156274
630.515	0.0156475
630.593	0.0156902
630.672	0.0156393
630.750	0.0158234
630.828	0.0155651
630.906	0.0157571
630.984	0.0157693
631.062	0.0156318
631.140	0.0156503
631.218	0.0157753
631.297	0.0156467
631.375	0.0158038
631.453	0.0158154
631.531	0.0157655
631.609	0.0156860
631.687	0.0156293
631.765	0.0158783
631.843	0.0156705
631.922	0.0156023
632.000	0.0157267
632.078	0.0158395
632.156	0.0159156
632.234	0.0157616
632.312	0.0157389
632.390	0.0157295
632.468	0.0157579
632.547	0.0158091
632.625	0.0157913
632.703	0.0157373
632.781	0.0157239
632.859	0.0158949
632.937	0.0158043
633.015	0.0157598
633.093	0.0157312
633.172	0.0157845
633.250	0.0157102
633.328	0.0156224
633.406	0.0157780
633.484	0.0158694
633.562	0.0158301
633.640	0.0156997
633.718	0.0156934
633.797	0.0157513
633.875	0.0159131
633.953	0.0156490
634.031	0.0157933
634.109	0.0156680
634.187	0.0157833
634.265	0.0157727
634.343	0.0157911
634.422	0.0156561
634.500	0.0158041
634.578	0.0158865
634.656	0.0157587
634.734	0.0156662
634.812	0.0157747
634.890	0.0158084
634.968	0.0158717
635.047	0.0158249
635.125	0.0156432
635.203	0.0158137
635.281	0.0158713
635.359	0.0157899
635.437	0.0158175
635.515	0.0156404
635.593	0.0158012
635.672	0.0157511
635.750	0.0155695
635.828	0.0158916
635.906	0.0158025
635.984	0.0157382
636.062	0.0157810
636.140	0.0158112
636.218	0.0157138
636.297	0.0158141
636.375	0.0156883
636.453	0.0157985
636.531	0.0157864
636.609	0.0157348
636.687	0.0157434
636.765	0.0157993
636.843	0.0158496
636.922	0.0157967
637.000	0.0157183
637.078	0.0157705
637.156	0.0158663
637.234	0.0158121
637.312	0.0157241
637.390	0.0157161
637.468	0.0158312
637.547	0.0158089
637.625	0.0158045
637.703	0.0156814
637.781	0.0156940
637.859	0.0157930
637.937	0.0157923
638.015	0.0158002
638.093	0.0157923
638.172	0.0157690
638.250	0.0158102
638.328	0.0157904
638.406	0.0158069
638.484	0.0157843
638.562	0.0157114
638.640	0.0157247
638.718	0.0157407
638.797	0.0157774
638.875	0.0157291
638.953	0.0157098
639.031	0.0157828
639.109	0.0157833
639.187	0.0157326
639.265	0.0156863
639.343	0.0157746
639.422	0.0157281
639.500	0.0156749
639.578	0.0157391
639.656	0.0156900
639.734	0.0156001
639.812	0.0157491
639.890	0.0157310
639.968	0.0157460
640.047	0.0158547
640.125	0.0157481
640.203	0.0156828
640.281	0.0156756
640.359	0.0157492
640.437	0.0158298
640.515	0.0156391
640.593	0.0156898
640.672	0.0157178
640.750	0.0157005
640.828	0.0157143
640.906	0.0157752
640.984	0.0157449
641.062	0.0157159
641.140	0.0155848
641.218	0.0158035
641.297	0.0157834
641.375	0.0157971
641.453	0.0156840
641.531	0.0158591
641.609	0.0157347
641.687	0.0158165
641.765	0.0158521
641.843	0.0157127
641.922	0.0157272
642.000	0.0156997
642.078	0.0158874
642.156	0.0157875
642.234	0.0157176
642.312	0.0158775
642.390	0.0157413
642.468	0.0157904
642.547	0.0158910
642.625	0.0156676
642.703	0.0157924
642.781	0.0158062
642.859	0.0157170
642.937	0.0157941
643.015	0.0158331
643.093	0.0158125
643.172	0.0157240
643.250	0.0158400
643.328	0.0158253
643.406	0.0156713
643.484	0.0157173
643.562	0.0159589
643.640	0.0157381
643.718	0.0157580
643.797	0.0157944
643.875	0.0156015
643.953	0.0157616
644.031	0.0157448
644.109	0.0157417
644.187	0.0157899
644.265	0.0158554
644.343	0.0157147
644.422	0.0158111
644.500	0.0158440
644.578	0.0157035
644.656	0.0157221
644.734	0.0157065
644.812	0.0157276
644.890	0.0157816
644.968	0.0157433
645.047	0.0157878
645.125	0.0157038
645.203	0.0157641
645.281	0.0156350
645.359	0.0156498
645.437	0.0156624
645.515	0.0157531
645.593	0.0157339
645.672	0.0157042
645.750	0.0159066
645.828	0.0158018
645.906	0.0157290
645.984	0.0157455
646.062	0.0157423
646.140	0.0157203
646.218	0.0157020
646.297	0.0157344
646.375	0.0156679
646.453	0.0157567
646.531	0.0157281
646.609	0.0156796
646.687	0.0157307
646.765	0.0158724
646.843	0.0158228
646.922	0.0157082
647.000	0.0155933
647.078	0.0156161
647.156	0.0158295
647.234	0.0157600
647.312	0.0158271
647.390	0.0157452
647.468	0.0156710
647.547	0.0157528
647.625	0.0157983
647.703	0.0157623
647.781	0.0158254
647.859	0.0157805
647.937	0.0158527
648.015	0.0158817
648.093	0.0157489
648.172	0.0157006
648.250	0.0157048
648.328	0.0158049
648.406	0.0157123
648.484	0.0156186
648.562	0.0156808
648.640	0.0157669
648.718	0.0157695
648.797	0.0157466
648.875	0.0157137
648.953	0.0157176
649.031	0.0156981
649.109	0.0157318
649.187	0.0155965
649.265	0.0157090
649.343	0.0158463
649.422	0.0157658
649.500	0.0157325
649.578	0.0157599
649.656	0.0158156
649.734	0.0157176
649.812	0.0156982
649.890	0.0157684
649.968	0.0156799
650.047	0.0157468
650.125	0.0158527
650.203	0.0158500
650.281	0.0156989
650.359	0.0156895
650.437	0.0157981
650.515	0.0156379
650.593	0.0157872
650.672	0.0158029
650.750	0.0159092
650.828	0.0157876
650.906	0.0156646
650.984	0.0157289
651.062	0.0157371
651.140	0.0158160
651.218	0.0158514
651.297	0.0157727
651.375	0.0159252
651.453	0.0159384
651.531	0.0156764
651.609	0.0157430
651.687	0.0157944
651.765	0.0158558
651.843	0.0158160
651.922	0.0157520
652.000	0.0157699
652.078	0.0158015
652.156	0.0157919
652.234	0.0158837
652.312	0.0157960
652.390	0.0158498
652.468	0.0158020
652.547	0.0157519
652.625	0.0157103
652.703	0.0156461
652.781	0.0156071
652.859	0.0157345
652.937	0.0158131
653.015	0.0158598
653.093	0.0156162
653.172	0.0158418
653.250	0.0157761
653.328	0.0157247
653.406	0.0157185
653.484	0.0158095
653.562	0.0157760
653.640	0.0157296
653.718	0.0156853
653.797	0.0155798
653.875	0.0156536
653.953	0.0157719
654.031	0.0156382
654.109	0.0158050
654.187	0.0157104
654.265	0.0157821
654.343	0.0156759
654.422	0.0157571
654.500	0.0157519
654.578	0.0158107
654.656	0.0157170
654.734	0.0157438
654.812	0.0157314
654.890	0.0155469
654.968	0.0157707
655.047	0.0158367
655.125	0.0158076
655.203	0.0157433
655.281	0.0156902
655.359	0.0158601
655.437	0.0158260
655.515	0.0156963
655.593	0.0157875
655.672	0.0157278
655.750	0.0158669
655.828	0.0156776
655.906	0.0157780
655.984	0.0156547
656.062	0.0158399
656.140	0.0158746
656.218	0.0157046
656.297	0.0157114
656.375	0.0157640
656.453	0.0155798
656.531	0.0156987
656.609	0.0158085
656.687	0.0156637
656.765	0.0156522
656.843	0.0157296
656.922	0.0157428
657.000	0.0157023
657.078	0.0155556
657.156	0.0157204
657.234	0.0156219
657.312	0.0155569
657.390	0.0157785
657.468	0.0155353
657.547	0.0156161
657.625	0.0156705
657.703	0.0156953
657.781	0.0158165
657.859	0.0157823
657.937	0.0157761
658.015	0.0156084
658.093	0.0157219
658.172	0.0157928
658.250	0.0157050
658.328	0.0157580
658.406	0.0156715
658.484	0.0156927
658.562	0.0156918
658.640	0.0157259
658.718	0.0157238
658.797	0.0157475
658.875	0.0157125
658.953	0.0156342
659.031	0.0157944
659.109	0.0158696
659.187	0.0157439
659.265	0.0158475
659.343	0.0157913
659.422	0.0158858
659.500	0.0157991
659.578	0.0157362
659.656	0.0158485
659.734	0.0157291
659.812	0.0158678
659.890	0.0157103
659.968	0.0157047
660.047	0.0157031
660.125	0.0158684
660.203	0.0158073
660.281	0.0157687
660.359	0.0157186
660.437	0.0158982
660.515	0.0157299
660.593	0.0156950
660.672	0.0158831
660.750	0.0157733
660.828	0.0158008
660.906	0.0159696
660.984	0.0157174
661.062	0.0158382
661.140	0.0157423
661.218	0.0156218
661.297	0.0157835
661.375	0.0158339
661.453	0.0157002
661.531	0.0157511
661.609	0.0158555
661.687	0.0157694
661.765	0.0157608
661.843	0.0157030
661.922	0.0157198
662.000	0.0157453
662.078	0.0158208
662.156	0.0157834
662.234	0.0158342
662.312	0.0157630
662.390	0.0157150
662.468	0.0157520
662.547	0.0158504
662.625	0.0157429
662.703	0.0157602
662.781	0.0156796
662.859	0.0158045
662.937	0.0156757
663.015	0.0159656
663.093	0.0158015
663.172	0.0158321
663.250	0.0158613
663.328	0.0159117
663.406	0.0157527
663.484	0.0156311
663.562	0.0157394
663.640	0.0156937
663.718	0.0157578
663.797	0.0159686
663.875	0.0157189
663.953	0.0157117
664.031	0.0158659
664.109	0.0158054
664.187	0.0158619
664.265	0.0157954
664.343	0.0158742
664.422	0.0158498
664.500	0.0157586
664.578	0.0158018
664.656	0.0157535
664.734	0.0157896
664.812	0.0157422
664.890	0.0156441
664.968	0.0158113
665.047	0.0158075
665.125	0.0157871
665.203	0.0158678
665.281	0.0157395
665.359	0.0158072
665.437	0.0157722
665.515	0.0157183
665.593	0.0157684
665.672	0.0156370
665.750	0.0158544
665.828	0.0158041
665.906	0.0158375
665.984	0.0159146
666.062	0.0157767
666.140	0.0156966
666.218	0.0157800
666.297	0.0157249
666.375	0.0158283
666.453	0.0156971
666.531	0.0157319
666.609	0.0158006
666.687	0.0157266
666.765	0.0157410
666.843	0.0158111
666.922	0.0157114
667.000	0.0157827
667.078	0.0157795
667.156	0.0157990
667.234	0.0157602
667.312	0.0158572
667.390	0.0158431
667.468	0.0158538
667.547	0.0157641
667.625	0.0156901
667.703	0.0158199
667.781	0.0158018
667.859	0.0158567
667.937	0.0159769
668.015	0.0157988
668.093	0.0158409
668.172	0.0158781
668.250	0.0157056
668.328	0.0158723
668.406	0.0156936
668.484	0.0157023
668.562	0.0157584
668.640	0.0157388
668.718	0.0157716
668.797	0.0158220
668.875	0.0158227
668.953	0.0159126
669.031	0.0157751
669.109	0.0157001
669.187	0.0158312
669.265	0.0158843
669.343	0.0158034
669.422	0.0158000
669.500	0.0158010
669.578	0.0158746
669.656	0.0158338
669.734	0.0158165
669.812	0.0158545
669.890	0.0157277
669.968	0.0158176
670.047	0.0158894
670.125	0.0158398
670.203	0.0158243
670.281	0.0158162
670.359	0.0158379
670.437	0.0158640
670.515	0.0158805
670.593	0.0157941
670.672	0.0157358
670.750	0.0158544
670.828	0.0159303
670.906	0.0157520
670.984	0.0158572
671.062	0.0158212
671.140	0.0157705
671.218	0.0157856
671.297	0.0159100
671.375	0.0157500
671.453	0.0158022
671.531	0.0157734
671.609	0.0159071
671.687	0.0157478
671.765	0.0155743
671.843	0.0157642
671.922	0.0158141
672.000	0.0156380
672.078	0.0157220
672.156	0.0156543
672.234	0.0159034
672.312	0.0157497
672.390	0.0157266
672.468	0.0158443
672.547	0.0157114
672.625	0.0157370
672.703	0.0156777
672.781	0.0157825
672.859	0.0156812
672.937	0.0155997
673.015	0.0157061
673.093	0.0157521
673.172	0.0156281
673.250	0.0157610
673.328	0.0156316
673.406	0.0156992
673.484	0.0158079
673.562	0.0157962
673.640	0.0157147
673.718	0.0157255
673.797	0.0157735
673.875	0.0157905
673.953	0.0157915
674.031	0.0156711
674.109	0.0158308
674.187	0.0157556
674.265	0.0157669
674.343	0.0157893
674.422	0.0159013
674.500	0.0157045
674.578	0.0157634
674.656	0.0157461
674.734	0.0158034
674.812	0.0157298
674.890	0.0157900
674.968	0.0157258
675.047	0.0158086
675.125	0.0157366
675.203	0.0157922
675.281	0.0157339
675.359	0.0157944
675.437	0.0158086
675.515	0.0158494
675.593	0.0158768
675.672	0.0157630
675.750	0.0157175
675.828	0.0158733
675.906	0.0157648
675.984	0.0156880
676.062	0.0157899
676.140	0.0157247
676.218	0.0157552
676.297	0.0157955
676.375	0.0157880
676.453	0.0157408
676.531	0.0159276
676.609	0.0158263
676.687	0.0158115
676.765	0.0157538
676.843	0.0157660
676.922	0.0158701
677.000	0.0157930
677.078	0.0157343
677.156	0.0157984
677.234	0.0158121
677.312	0.0156655
677.390	0.0158582
677.468	0.0158594
677.547	0.0158077
677.625	0.0156612
677.703	0.0157590
677.781	0.0157851
677.859	0.0157101
677.937	0.0158064
678.015	0.0157627
678.093	0.0158318
678.172	0.0157925
678.250	0.0158126
678.328	0.0158029
678.406	0.0157336
678.484	0.0158400
678.562	0.0158122
678.640	0.0157682
678.718	0.0157008
678.797	0.0157497
678.875	0.0157670
678.953	0.0156316
679.031	0.0156788
679.109	0.0157230
679.187	0.0158950
679.265	0.0158909
679.343	0.0157192
679.422	0.0157927
679.500	0.0157756
679.578	0.0157025
679.656	0.0157484
679.734	0.0158978
679.812	0.0157185
679.890	0.0157375
679.968	0.0158315
680.047	0.0157073
680.125	0.0158885
680.203	0.0158110
680.281	0.0157142
680.359	0.0157658
680.437	0.0158170
680.515	0.0158414
680.593	0.0157936
680.672	0.0157951
680.750	0.0158775
680.828	0.0157294
680.906	0.0157835
680.984	0.0158762
681.062	0.0156973
681.140	0.0157491
681.218	0.0158292
681.297	0.0158289
681.375	0.0156821
681.453	0.0156736
681.531	0.0158608
681.609	0.0158762
681.687	0.0157307
681.765	0.0157448
681.843	0.0157941
681.922	0.0159269
682.000	0.0157818
682.078	0.0157290
682.156	0.0158079
682.234	0.0157243
682.312	0.0157609
682.390	0.0158148
682.468	0.0157667
682.547	0.0156982
682.625	0.0157371
682.703	0.0158640
682.781	0.0158418
682.859	0.0158194
682.937	0.0157598
683.015	0.0158718
683.093	0.0159312
683.172	0.0159982
683.250	0.0159512
683.328	0.0157584
683.406	0.0159158
683.484	0.0159013
683.562	0.0158543
683.640	0.0160035
683.718	0.0159412
683.797	0.0159853
683.875	0.0158634
683.953	0.0157275
684.031	0.0157892
684.109	0.0160152
684.187	0.0159150
684.265	0.0158173
684.343	0.0158661
684.422	0.0160271
684.500	0.0158157
684.578	0.0159154
684.656	0.0158543
684.734	0.0158697
684.812	0.0159370
684.890	0.0160098
684.968	0.0159684
685.047	0.0160047
685.125	0.0157849
685.203	0.0159140
685.281	0.0159428
685.359	0.0157176
685.437	0.0159019
685.515	0.0158731
685.593	0.0158883
685.672	0.0158718
685.750	0.0158949
685.828	0.0158582
685.906	0.0158264
685.984	0.0158911
686.062	0.0159021
686.140	0.0158737
686.218	0.0160543
686.297	0.0157941
686.375	0.0158553
686.453	0.0158624
686.531	0.0158617
686.609	0.0157671
686.687	0.0158866
686.765	0.0159029
686.843	0.0158459
686.922	0.0158947
687.000	0.0158151
687.078	0.0157024
687.156	0.0157964
687.234	0.0158759
687.312	0.0158504
687.390	0.0158442
687.468	0.0156631
687.547	0.0159406
687.625	0.0156937
687.703	0.0158134
687.781	0.0159460
687.859	0.0157532
687.937	0.0157252
688.015	0.0159788
688.093	0.0157741
688.172	0.0158195
688.250	0.0159265
688.328	0.0157079
688.406	0.0158194
688.484	0.0157207
688.562	0.0157852
688.640	0.0159103
688.718	0.0158875
688.797	0.0159382
688.875	0.0159651
688.953	0.0157546
689.031	0.0157430
689.109	0.0158298
689.187	0.0158733
689.265	0.0158556
689.343	0.0158176
689.422	0.0158219
689.500	0.0158675
689.578	0.0157940
689.656	0.0158399
689.734	0.0158952
689.812	0.0159109
689.890	0.0157799
689.968	0.0158225
690.047	0.0157092
690.125	0.0158240
690.203	0.0157085
690.281	0.0158326
690.359	0.0157822
690.437	0.0159586
690.515	0.0157880
690.593	0.0157420
690.672	0.0157845
690.750	0.0157681
690.828	0.0158626
690.906	0.0157676
690.984	0.0157776
691.062	0.0157927
691.140	0.0157031
691.218	0.0157436
691.297	0.0158389
691.375	0.0158265
691.453	0.0157848
691.531	0.0158297
691.609	0.0157766
691.687	0.0158998
691.765	0.0157900
691.843	0.0158303
691.922	0.0158862
692.000	0.0157365
692.078	0.0157766
692.156	0.0157520
692.234	0.0157516
692.312	0.0157882
692.390	0.0157587
692.468	0.0158246
692.547	0.0157159
692.625	0.0156099
692.703	0.0157364
692.781	0.0158421
692.859	0.0158233
692.937	0.0158762
693.015	0.0158257
693.093	0.0158484
693.172	0.0157774
693.250	0.0157176
693.328	0.0157545
693.406	0.0157784
693.484	0.0158230
693.562	0.0157731
693.640	0.0157059
693.718	0.0157187
693.797	0.0157547
693.875	0.0158779
693.953	0.0158366
694.031	0.0157557
694.109	0.0159416
694.187	0.0158150
694.265	0.0157713
694.343	0.0158749
694.422	0.0157738
694.500	0.0157866
694.578	0.0158147
694.656	0.0158224
694.734	0.0157416
694.812	0.0157298
694.890	0.0158999
694.968	0.0157322
695.047	0.0157205
695.125	0.0157575
695.203	0.0157466
695.281	0.0156993
695.359	0.0158780
695.437	0.0157388
695.515	0.0156576
695.593	0.0158034
695.672	0.0158995
695.750	0.0157832
695.828	0.0157680
695.906	0.0157286
695.984	0.0159283
696.062	0.0158022
696.140	0.0157901
696.218	0.0156699
696.297	0.0158942
696.375	0.0157813
696.453	0.0156963
696.531	0.0157768
696.609	0.0158135
696.687	0.0157417
696.765	0.0157887
696.843	0.0158537
696.922	0.0156565
697.000	0.0156940
697.078	0.0157845
697.156	0.0157355
697.234	0.0158170
697.312	0.0157352
697.390	0.0157784
697.468	0.0156580
697.547	0.0157442
697.625	0.0158807
697.703	0.0158198
697.781	0.0159016
697.859	0.0157422
697.937	0.0157639
698.015	0.0157836
698.093	0.0157787
698.172	0.0159034
698.250	0.0158223
698.328	0.0158575
698.406	0.0158204
698.484	0.0157979
698.562	0.0157308
698.640	0.0157666
698.718	0.0157507
698.797	0.0157107
698.875	0.0157241
698.953	0.0156815
699.031	0.0157563
699.109	0.0158663
699.187	0.0155996
699.265	0.0157455
699.343	0.0156773
699.422	0.0157576
699.500	0.0156590
699.578	0.0157468
699.656	0.0156196
699.734	0.0156213
699.812	0.0158146
699.890	0.0157159
699.968	0.0157195
700.047	0.0156490
700.125	0.0157909
700.203	0.0157243
700.281	0.0156870
700.359	0.0156787
700.437	0.0158083
700.515	0.0158151
700.593	0.0157662
700.672	0.0157555
700.750	0.0158254
700.828	0.0157704
700.906	0.0158891
700.984	0.0157754
701.062	0.0156692
701.140	0.0157815
701.218	0.0158412
701.297	0.0157034
701.375	0.0158204
701.453	0.0157623
701.531	0.0158622
701.609	0.0157249
701.687	0.0159067
701.765	0.0157854
701.843	0.0157152
701.922	0.0156667
702.000	0.0157246
702.078	0.0157252
702.156	0.0159477
702.234	0.0157647
702.312	0.0158413
702.390	0.0158840
702.468	0.0157211
702.547	0.0157024
702.625	0.0157346
702.703	0.0157022
702.781	0.0159420
702.859	0.0158778
702.937	0.0156279
703.015	0.0157081
703.093	0.0158223
703.172	0.0158025
703.250	0.0156476
703.328	0.0158004
703.406	0.0158177
703.484	0.0158124
703.562	0.0157982
703.640	0.0156537
703.718	0.0157724
703.797	0.0158764
703.875	0.0158516
703.953	0.0158402
704.031	0.0158298
704.109	0.0157092
704.187	0.0158147
704.265	0.0157778
704.343	0.0156370
704.422	0.0158125
704.500	0.0158995
704.578	0.0157506
704.656	0.0158075
704.734	0.0158316
704.812	0.0157630
704.890	0.0158020
704.968	0.0159179
705.047	0.0158315
705.125	0.0156525
705.203	0.0158568
705.281	0.0158377
705.359	0.0157607
705.437	0.0158463
705.515	0.0158169
705.593	0.0157638
705.672	0.0157279
705.750	0.0159361
705.828	0.0158180
705.906	0.0157325
705.984	0.0158241
706.062	0.0158843
706.140	0.0156400
706.218	0.0156169
706.297	0.0158028
706.375	0.0157914
706.453	0.0158037
706.531	0.0157563
706.609	0.0158155
706.687	0.0158942
706.765	0.0158590
706.843	0.0158319
706.922	0.0158385
707.000	0.0158836
707.078	0.0158253
707.156	0.0156363
707.234	0.0158605
707.312	0.0158259
707.390	0.0157975
707.468	0.0158245
707.547	0.0158895
707.625	0.0158392
707.703	0.0157973
707.781	0.0158838
707.859	0.0156860
707.937	0.0157893
708.015	0.0156879
708.093	0.0158103
708.172	0.0158156
708.250	0.0157828
708.328	0.0158340
708.406	0.0156914
708.484	0.0157628
708.562	0.0157436
708.640	0.0157411
708.718	0.0157741
708.797	0.0157425
708.875	0.0157705
708.953	0.0158003
709.031	0.0158354
709.109	0.0158479
709.187	0.0157540
709.265	0.0156150
709.343	0.0157746
709.422	0.0158218
709.500	0.0157154
709.578	0.0158133
709.656	0.0158133
709.734	0.0158231
709.812	0.0156747
709.890	0.0157465
709.968	0.0158436
710.047	0.0158207
710.125	0.0157441
710.203	0.0158501
710.281	0.0157776
710.359	0.0157001
710.437	0.0157953
710.515	0.0158832
710.593	0.0158173
710.672	0.0157781
710.750	0.0157402
710.828	0.0156913
710.906	0.0157574
710.984	0.0158878
711.062	0.0156242
711.140	0.0156949
711.218	0.0157149
711.297	0.0156935
711.375	0.0157940
711.453	0.0157938
711.531	0.0157047
711.609	0.0156992
711.687	0.0157569
711.765	0.0156963
711.843	0.0157119
711.922	0.0157990
712.000	0.0156596
712.078	0.0156916
712.156	0.0156738
712.234	0.0158028
712.312	0.0157139
712.390	0.0156902
712.468	0.0158302
712.547	0.0157700
712.625	0.0156696
712.703	0.0157942
712.781	0.0158585
712.859	0.0157710
712.937	0.0157251
713.015	0.0156992
713.093	0.0156793
713.172	0.0157535
713.250	0.0156812
713.328	0.0157524
713.406	0.0156913
713.484	0.0156468
713.562	0.0155307
713.640	0.0157874
713.718	0.0158070
713.797	0.0156042
713.875	0.0156878
713.953	0.0158872
714.031	0.0157980
714.109	0.0156425
714.187	0.0156985
714.265	0.0158235
714.343	0.0156476
714.422	0.0157218
714.500	0.0157787
714.578	0.0157761
714.656	0.0158459
714.734	0.0156267
714.812	0.0157371
714.890	0.0158169
714.968	0.0157552
715.047	0.0157196
715.125	0.0157438
715.203	0.0156179
715.281	0.0156729
715.359	0.0156973
715.437	0.0157466
715.515	0.0155949
715.593	0.0157463
715.672	0.0158764
715.750	0.0157663
715.828	0.0156682
715.906	0.0156146
715.984	0.0155531
716.062	0.0157586
716.140	0.0157737
716.218	0.0156449
716.297	0.0156441
716.375	0.0156348
716.453	0.0157637
716.531	0.0157964
716.609	0.0157049
716.687	0.0157540
716.765	0.0157892
716.843	0.0157043
716.922	0.0157001
717.000	0.0157737
717.078	0.0158058
717.156	0.0157095
717.234	0.0157941
717.312	0.0158575
717.390	0.0159009
717.468	0.0158482
717.547	0.0157169
717.625	0.0157896
717.703	0.0158983
717.781	0.0158472
717.859	0.0157445
717.937	0.0158657
718.015	0.0157854
718.093	0.0157982
718.172	0.0158346
718.250	0.0158407
718.328	0.0158343
718.406	0.0159074
718.484	0.0158396
718.562	0.0158146
718.640	0.0157665
718.718	0.0159826
718.797	0.0158161
718.875	0.0157442
718.953	0.0157050
719.031	0.0158264
719.109	0.0157559
719.187	0.0158126
719.265	0.0157019
719.343	0.0157903
719.422	0.0157362
719.500	0.0157374
719.578	0.0158543
719.656	0.0157394
719.734	0.0160345
719.812	0.0159798
719.890	0.0156881
719.968	0.0157944
720.047	0.0156302
720.125	0.0157766
720.203	0.0158404
720.281	0.0157265
720.359	0.0157041
720.437	0.0157117
720.515	0.0156685
720.593	0.0157256
720.672	0.0157710
720.750	0.0156870
720.828	0.0156174
720.906	0.0157614
720.984	0.0158270
721.062	0.0157898
721.140	0.0157231
721.218	0.0158506
721.297	0.0157391
721.375	0.0158721
721.453	0.0156615
721.531	0.0158497
721.609	0.0157497
721.687	0.0158961
721.765	0.0156597
721.843	0.0156965
721.922	0.0156769
722.000	0.0158356
722.078	0.0157283
722.156	0.0158183
722.234	0.0158451
722.312	0.0159029
722.390	0.0157584
722.468	0.0157539
722.547	0.0157932
722.625	0.0157920
722.703	0.0158349
722.781	0.0158521
722.859	0.0158907
722.937	0.0158431
723.015	0.0157313
723.093	0.0156998
723.172	0.0158366
723.250	0.0158006
723.328	0.0157253
723.406	0.0157632
723.484	0.0158087
723.562	0.0157559
723.640	0.0157566
723.718	0.0158004
723.797	0.0158286
723.875	0.0159480
723.953	0.0157642
724.031	0.0157764
724.109	0.0157522
724.187	0.0158947
724.265	0.0158035
724.343	0.0157890
724.422	0.0156716
724.500	0.0156634
724.578	0.0160544
724.656	0.0158512
724.734	0.0158315
724.812	0.0159124
724.890	0.0158807
724.968	0.0157344
725.047	0.0159222
725.125	0.0157716
725.203	0.0157444
725.281	0.0158999
725.359	0.0157992
725.437	0.0156563
725.515	0.0157917
725.593	0.0157375
725.672	0.0157069
725.750	0.0159130
725.828	0.0157011
725.906	0.0158152
725.984	0.0158636
726.062	0.0156715
726.140	0.0156702
726.218	0.0159737
726.297	0.0157787
726.375	0.0157932
726.453	0.0157721
726.531	0.0158350
726.609	0.0158688
726.687	0.0157863
726.765	0.0157179
726.843	0.0157250
726.922	0.0156870
727.000	0.0157115
727.078	0.0157125
727.156	0.0158057
727.234	0.0157550
727.312	0.0157436
727.390	0.0157391
727.468	0.0157999
727.547	0.0158611
727.625	0.0157619
727.703	0.0157922
727.781	0.0159466
727.859	0.0158240
727.937	0.0158904
728.015	0.0158360
728.093	0.0159042
728.172	0.0157585
728.250	0.0158364
728.328	0.0158136
728.406	0.0157390
728.484	0.0157173
728.562	0.0156606
728.640	0.0158838
728.718	0.0156544
728.797	0.0156534
728.875	0.0155377
728.953	0.0155790
729.031	0.0156445
729.109	0.0157011
729.187	0.0157798
729.265	0.0156790
729.343	0.0156714
729.422	0.0157858
729.500	0.0157587
729.578	0.0157365
729.656	0.0157453
729.734	0.0156814
729.812	0.0156613
729.890	0.0158681
729.968	0.0158368
730.047	0.0156510
730.125	0.0157772
730.203	0.0156790
730.281	0.0157076
730.359	0.0156806
730.437	0.0156391
730.515	0.0157262
730.593	0.0156258
730.672	0.0155868
730.750	0.0155904
730.828	0.0157938
730.906	0.0157045
730.984	0.0155932
731.062	0.0157515
731.140	0.0157784
731.218	0.0156247
731.297	0.0156772
731.375	0.0157751
731.453	0.0158647
731.531	0.0157771
731.609	0.0156559
731.687	0.0157486
731.765	0.0156893
731.843	0.0157377
731.922	0.0156935
732.000	0.0158166
732.078	0.0158145
732.156	0.0156465
732.234	0.0157500
732.312	0.0157272
732.390	0.0156054
732.468	0.0157174
732.547	0.0156442
732.625	0.0157224
732.703	0.0156462
732.781	0.0155909
732.859	0.0155962
732.937	0.0157980
733.015	0.0157188
733.093	0.0156580
733.172	0.0157694
733.250	0.0157690
733.328	0.0158079
733.406	0.0156714
733.484	0.0157370
733.562	0.0156995
733.640	0.0159079
733.718	0.0158241
733.797	0.0155212
733.875	0.0157787
733.953	0.0157726
734.031	0.0156008
734.109	0.0157263
734.187	0.0157902
734.265	0.0157188
734.343	0.0156463
734.422	0.0156878
734.500	0.0156660
734.578	0.0157494
734.656	0.0157755
734.734	0.0156851
734.812	0.0157545
734.890	0.0157282
734.968	0.0157990
735.047	0.0158112
735.125	0.0157266
735.203	0.0158311
735.281	0.0157748
735.359	0.0157610
735.437	0.0157771
735.515	0.0157065
735.593	0.0157761
735.672	0.0158230
735.750	0.0156750
735.828	0.0158090
735.906	0.0157932
735.984	0.0157390
736.062	0.0157610
736.140	0.0157100
736.218	0.0157886
736.297	0.0158060
736.375	0.0158869
736.453	0.0157992
736.531	0.0156502
736.609	0.0157604
736.687	0.0157107
736.765	0.0156850
736.843	0.0158416
736.922	0.0157230
737.000	0.0157713
737.078	0.0156705
737.156	0.0156792
737.234	0.0157847
737.312	0.0155897
737.390	0.0154743
737.468	0.0157366
737.547	0.0155917
737.625	0.0157554
737.703	0.0157101
737.781	0.0157376
737.859	0.0157641
737.937	0.0157138
738.015	0.0157503
738.093	0.0157594
738.172	0.0158752
738.250	0.0157848
738.328	0.0157096
738.406	0.0157008
738.484	0.0157749
738.562	0.0156873
738.640	0.0157764
738.718	0.0158126
738.797	0.0157718
738.875	0.0156810
738.953	0.0157400
739.031	0.0156200
739.109	0.0157577
739.187	0.0157182
739.265	0.0155952
739.343	0.0156691
739.422	0.0157613
739.500	0.0158266
739.578	0.0157969
739.656	0.0157403
739.734	0.0157831
739.812	0.0159132
739.890	0.0157716
739.968	0.0157630
740.047	0.0157512
740.125	0.0158825
740.203	0.0157648
740.281	0.0156995
740.359	0.0156686
740.437	0.0157688
740.515	0.0158293
740.593	0.0157091
740.672	0.0156624
740.750	0.0157722
740.828	0.0158423
740.906	0.0155798
740.984	0.0157621
741.062	0.0158360
741.140	0.0158102
741.218	0.0157046
741.297	0.0158100
741.375	0.0159131
741.453	0.0157954
741.531	0.0158024
741.609	0.0158458
741.687	0.0158355
741.765	0.0157942
741.843	0.0157999
741.922	0.0157248
742.000	0.0158023
742.078	0.0158504
742.156	0.0158461
742.234	0.0157500
742.312	0.0158464
742.390	0.0159137
742.468	0.0157842
742.547	0.0157826
742.625	0.0158958
742.703	0.0159140
742.781	0.0157763
742.859	0.0158710
742.937	0.0158311
743.015	0.0158060
743.093	0.0157586
743.172	0.0157518
743.250	0.0160715
743.328	0.0159074
743.406	0.0157928
743.484	0.0158386
743.562	0.0159214
743.640	0.0158222
743.718	0.0158025
743.797	0.0158704
743.875	0.0158329
743.953	0.0157909
744.031	0.0159058
744.109	0.0158083
744.187	0.0157197
744.265	0.0159087
744.343	0.0158003
744.422	0.0157027
744.500	0.0158941
744.578	0.0159073
744.656	0.0157986
744.734	0.0159314
744.812	0.0158165
744.890	0.0158183
744.968	0.0159032
745.047	0.0158264
745.125	0.0158121
745.203	0.0159382
745.281	0.0157306
745.359	0.0159497
745.437	0.0158123
745.515	0.0157720
745.593	0.0158270
745.672	0.0159454
745.750	0.0158083
745.828	0.0158510
745.906	0.0158498
745.984	0.0159271
746.062	0.0159882
746.140	0.0159397
746.218	0.0157610
746.297	0.0157887
746.375	0.0158168
746.453	0.0158672
746.531	0.0158535
746.609	0.0157740
746.687	0.0157980
746.765	0.0158363
746.843	0.0157362
746.922	0.0157801
747.000	0.0158150
747.078	0.0156835
747.156	0.0157980
747.234	0.0158062
747.312	0.0157863
747.390	0.0158603
747.468	0.0158894
747.547	0.0157501
747.625	0.0157988
747.703	0.0159140
747.781	0.0157613
747.859	0.0157766
747.937	0.0159013
748.015	0.0158199
748.093	0.0157561
748.172	0.0158382
748.250	0.0158373
748.328	0.0156766
748.406	0.0156734
748.484	0.0159291
748.562	0.0159249
748.640	0.0157162
748.718	0.0158350
748.797	0.0159401
748.875	0.0158357
748.953	0.0158801
749.031	0.0158475
749.109	0.0158934
749.187	0.0159162
749.265	0.0160149
749.343	0.0158866
749.422	0.0159113
749.500	0.0159018
749.578	0.0159173
749.656	0.0159318
749.734	0.0158497
749.812	0.0157719
749.890	0.0158047
749.968	0.0158043
750.047	0.0157603
750.125	0.0157023
750.203	0.0157310
750.281	0.0157710
750.359	0.0158767
750.437	0.0157380
750.515	0.0157837
750.593	0.0157654
750.672	0.0157780
750.750	0.0157827
750.828	0.0157346
750.906	0.0157193
750.984	0.0157557
751.062	0.0156742
751.140	0.0156960
751.218	0.0157694
751.297	0.0158248
751.375	0.0157435
751.453	0.0158057
751.531	0.0158903
751.609	0.0157059
751.687	0.0158126
751.765	0.0157553
751.843	0.0157492
751.922	0.0157764
752.000	0.0157872
752.078	0.0156902
752.156	0.0156551
752.234	0.0156499
752.312	0.0156930
752.390	0.0155605
752.468	0.0157488
752.547	0.0157211
752.625	0.0156059
752.703	0.0156661
752.781	0.0155122
752.859	0.0156923
752.937	0.0157177
753.015	0.0156291
753.093	0.0155843
753.172	0.0157009
753.250	0.0155672
753.328	0.0157754
753.406	0.0157862
753.484	0.0157787
753.562	0.0158758
753.640	0.0158476
753.718	0.0157823
753.797	0.0158827
753.875	0.0155728
753.953	0.0156003
754.031	0.0155677
754.109	0.0156557
754.187	0.0156253
754.265	0.0157153
754.343	0.0155220
754.422	0.0154179
754.500	0.0154642
754.578	0.0155935
754.656	0.0157228
754.734	0.0155189
754.812	0.0156277
754.890	0.0155669
754.968	0.0157372
755.047	0.0156370
755.125	0.0156456
755.203	0.0156245
755.281	0.0155777
755.359	0.0156113
755.437	0.0156337
755.515	0.0156310
755.593	0.0157802
755.672	0.0157819
755.750	0.0158248
755.828	0.0158375
755.906	0.0158170
755.984	0.0157547
756.062	0.0156470
756.140	0.0159160
756.218	0.0160317
756.297	0.0158447
756.375	0.0157802
756.453	0.0158514
756.531	0.0158266
756.609	0.0159059
756.687	0.0158446
756.765	0.0158170
756.843	0.0158817
756.922	0.0157816
757.000	0.0157878
757.078	0.0157310
757.156	0.0157115
757.234	0.0156291
757.312	0.0157348
757.390	0.0156546
757.468	0.0156538
757.547	0.0155608
757.625	0.0157122
757.703	0.0156552
757.781	0.0156050
757.859	0.0157607
757.937	0.0158003
758.015	0.0156312
758.093	0.0157009
758.172	0.0157360
758.250	0.0156393
758.328	0.0158311
758.406	0.0156742
758.484	0.0157067
758.562	0.0157143
758.640	0.0158502
758.718	0.0157465
758.797	0.0157935
758.875	0.0158103
758.953	0.0156926
759.031	0.0158665
759.109	0.0158997
759.187	0.0158562
759.265	0.0158975
759.343	0.0159296
759.422	0.0158823
759.500	0.0158904
759.578	0.0159133
759.656	0.0159928
759.734	0.0158135
759.812	0.0156435
759.890	0.0157801
759.968	0.0156615
760.047	0.0155878
760.125	0.0155953
760.203	0.0156680
760.281	0.0155276
760.359	0.0158121
760.437	0.0156448
760.515	0.0156526
760.593	0.0157258
760.672	0.0156808
760.750	0.0157046
760.828	0.0157758
760.906	0.0155740
760.984	0.0156483
761.062	0.0157446
761.140	0.0156993
761.218	0.0155991
761.297	0.0157292
761.375	0.0157756
761.453	0.0157917
761.531	0.0158951
761.609	0.0158325
761.687	0.0158337
761.765	0.0158916
761.843	0.0158847
761.922	0.0159472
762.000	0.0160024
762.078	0.0160651
762.156	0.0160017
762.234	0.0158537
762.312	0.0160347
762.390	0.0158977
762.468	0.0160251
762.547	0.0159449
762.625	0.0160188
762.703	0.0159542
762.781	0.0160100
762.859	0.0160187
762.937	0.0159183
763.015	0.0157829
763.093	0.0157815
763.172	0.0157104
763.250	0.0156129
763.328	0.0155442
763.406	0.0155439
763.484	0.0154984
763.562	0.0154884
763.640	0.0155323
763.718	0.0155786
763.797	0.0155829
763.875	0.0157175
763.953	0.0157139
764.031	0.0156617
764.109	0.0156052
764.187	0.0158138
764.265	0.0157783
764.343	0.0158395
764.422	0.0158994
764.500	0.0157815
764.578	0.0156692
764.656	0.0158179
764.734	0.0157359
764.812	0.0155401
764.890	0.0156754
764.968	0.0157376
765.047	0.0156393
765.125	0.0156989
765.203	0.0157137
765.281	0.0157826
765.359	0.0157500
765.437	0.0158064
765.515	0.0157439
765.593	0.0158141
765.672	0.0157444
765.750	0.0158334
765.828	0.0159224
765.906	0.0160215
765.984	0.0160035
766.062	0.0159624
766.140	0.0157806
766.218	0.0161662
766.297	0.0160395
766.375	0.0160682
766.453	0.0160577
766.531	0.0160847
766.609	0.0160789
766.687	0.0160528
766.765	0.0159228
766.843	0.0159072
766.922	0.0157764
767.000	0.0158134
767.078	0.0155968
767.156	0.0153841
767.234	0.0155088
767.312	0.0154758
767.390	0.0155916
767.468	0.0155516
767.547	0.0156942
767.625	0.0155849
767.703	0.0156104
767.781	0.0156932
767.859	0.0158203
767.937	0.0159592
768.015	0.0158761
768.093	0.0158006
768.172	0.0158283
768.250	0.0158817
768.328	0.0157416
768.406	0.0157295
768.484	0.0158680
768.562	0.0158698
768.640	0.0158981
768.718	0.0159145
768.797	0.0155923
768.875	0.0158342
768.953	0.0155735
769.031	0.0155838
769.109	0.0155396
769.187	0.0154955
769.265	0.0154464
769.343	0.0154412
769.422	0.0155975
769.500	0.0155471
769.578	0.0154722
769.656	0.0155729
769.734	0.0157060
769.812	0.0157014
769.890	0.0157891
769.968	0.0159430
770.047	0.0159100
770.125	0.0159782
770.203	0.0158458
770.281	0.0160139
770.359	0.0159873
770.437	0.0159505
770.515	0.0160086
770.593	0.0160233
770.672	0.0159608
770.750	0.0159839
770.828	0.0159683
770.906	0.0160522
770.984	0.0161716
771.062	0.0161540
771.140	0.0161147
771.218	0.0159787
771.297	0.0160181
771.375	0.0160453
771.453	0.0159867
771.531	0.0159029
771.609	0.0159956
771.687	0.0161556
771.765	0.0159970
771.843	0.0159790
771.922	0.0159453
772.000	0.0161068
772.078	0.0160197
772.156	0.0160824
772.234	0.0160933
772.312	0.0158385
772.390	0.0158652
772.468	0.0157642
772.547	0.0157693
772.625	0.0157302
772.703	0.0155296
772.781	0.0154493
772.859	0.0153787
772.937	0.0152540
773.015	0.0152972
773.093	0.0153544
773.172	0.0153020
773.250	0.0152744
773.328	0.0153116
773.406	0.0152814
773.484	0.0152807
773.562	0.0153703
773.640	0.0152844
773.718	0.0154419
773.797	0.0154974
773.875	0.0155042
773.953	0.0154886
774.031	0.0156319
774.109	0.0155743
774.187	0.0156319
774.265	0.0158015
774.343	0.0156274
774.422	0.0157642
774.500	0.0157391
774.578	0.0158714
774.656	0.0159332
774.734	0.0159348
774.812	0.0161472
774.890	0.0160880
774.968	0.0161256
775.047	0.0162653
775.125	0.0163403
775.203	0.0162379
775.281	0.0164381
775.359	0.0164244
775.437	0.0163010
775.515	0.0163712
775.593	0.0163276
775.672	0.0162733
775.750	0.0161320
775.828	0.0161221
775.906	0.0158932
775.984	0.0158850
776.062	0.0158426
776.140	0.0159109
776.218	0.0157827
776.297	0.0156670
776.375	0.0155420
776.453	0.0156689
776.531	0.0157197
776.609	0.0157996
776.687	0.0156412
776.765	0.0156642
776.843	0.0158020
776.922	0.0155975
777.000	0.0156999
777.078	0.0156236
777.156	0.0155665
777.234	0.0156603
777.312	0.0156043
777.390	0.0154811
777.468	0.0154202
777.547	0.0155317
777.625	0.0154295
777.703	0.0153699
777.781	0.0153928
777.859	0.0154575
777.937	0.0152798
778.015	0.0154394
778.093	0.0154339
778.172	0.0155750
778.250	0.0154122
778.328	0.0155769
778.406	0.0155321
778.484	0.0155067
778.562	0.0155802
778.640	0.0156492
778.718	0.0154980
778.797	0.0157645
778.875	0.0157251
778.953	0.0156416
779.031	0.0156886
779.109	0.0157182
779.187	0.0157813
779.265	0.0157900
779.343	0.0157482
779.422	0.0158218
779.500	0.0159031
779.578	0.0159823
779.656	0.0159502
779.734	0.0160691
779.812	0.0159538
779.890	0.0160313
779.968	0.0162646
780.047	0.0161979
780.125	0.0163039
780.203	0.0162312
780.281	0.0163385
780.359	0.0164103
780.437	0.0163078
780.515	0.0164130
780.593	0.0163792
780.672	0.0163842
780.750	0.0163181
780.828	0.0162401
780.906	0.0162196
780.984	0.0159319
781.062	0.0158546
781.140	0.0158809
781.218	0.0155724
781.297	0.0154858
781.375	0.0152658
781.453	0.0150726
781.531	0.0149921
781.609	0.0149944
781.687	0.0149740
781.765	0.0148305
781.843	0.0147518
781.922	0.0146699
782.000	0.0148135
782.078	0.0147311
782.156	0.0148495
782.234	0.0149687
782.312	0.0150247
782.390	0.0151418
782.468	0.0152122
782.547	0.0153020
782.625	0.0155065
782.703	0.0157176
782.781	0.0158569
782.859	0.0157724
782.937	0.0159694
783.015	0.0160204
783.093	0.0161998
783.172	0.0160673
783.250	0.0162225
783.328	0.0163687
783.406	0.0164185
783.484	0.0164283
783.562	0.0164168
783.640	0.0165147
783.718	0.0164355
783.797	0.0165369
783.875	0.0164758
783.953	0.0164286
784.031	0.0165812
784.109	0.0165318
784.187	0.0164147
784.265	0.0166258
784.343	0.0164161
784.422	0.0164391
784.500	0.0163949
784.578	0.0164091
784.656	0.0162675
784.734	0.0160133
784.812	0.0159017
784.890	0.0158102
784.968	0.0157137
785.047	0.0154412
785.125	0.0153502
785.203	0.0153449
785.281	0.0151112
785.359	0.0150481
785.437	0.0150768
785.515	0.0151295
785.593	0.0152113
785.672	0.0151506
785.750	0.0150574
785.828	0.0152921
785.906	0.0152502
785.984	0.0153487
786.062	0.0152841
786.140	0.0152824
786.218	0.0153116
786.297	0.0155280
786.375	0.0154790
786.453	0.0153599
786.531	0.0153876
786.609	0.0154328
786.687	0.0155308
786.765	0.0153074
786.843	0.0153923
786.922	0.0154734
787.000	0.0154894
787.078	0.0153925
787.156	0.0153842
787.234	0.0156139
787.312	0.0155135
787.390	0.0155405
787.468	0.0157581
787.547	0.0159128
787.625	0.0158945
787.703	0.0159534
787.781	0.0160951
787.859	0.0161817
787.937	0.0165021
788.015	0.0164350
788.093	0.0164317
788.172	0.0165633
788.250	0.0166682
788.328	0.0166609
788.406	0.0168504
788.484	0.0166969
788.562	0.0165776
788.640	0.0164702
788.718	0.0166727
788.797	0.0165405
788.875	0.0164931
788.953	0.0165199
789.031	0.0163097
789.109	0.0164194
789.187	0.0163158
789.265	0.0160985
789.343	0.0161256
789.422	0.0159212
789.500	0.0159153
789.578	0.0157687
789.656	0.0157192
789.734	0.0156625
789.812	0.0154687
789.890	0.0153602
789.968	0.0151767
790.047	0.0152065
790.125	0.0152841
790.203	0.0150401
790.281	0.0150449
790.359	0.0149621
790.437	0.0149960
790.515	0.0150975
790.593	0.0150249
790.672	0.0149739
790.750	0.0150417
790.828	0.0151084
790.906	0.0151326
790.984	0.0150658
791.062	0.0151389
791.140	0.0151977
791.218	0.0151894
791.297	0.0151604
791.375	0.0154330
791.453	0.0154469
791.531	0.0155047
791.609	0.0155278
791.687	0.0157192
791.765	0.0159633
791.843	0.0160405
791.922	0.0161027
792.000	0.0162148
792.078	0.0163773
792.156	0.0165217
792.234	0.0166523
792.312	0.0166076
792.390	0.0167662
792.468	0.0167717
792.547	0.0168810
792.625	0.0169719
792.703	0.0168694
792.781	0.0166248
792.859	0.0165919
792.937	0.0165571
793.015	0.0165363
793.093	0.0163872
793.172	0.0163039
793.250	0.0162473
793.328	0.0161105
793.406	0.0160265
793.484	0.0159101
793.562	0.0158491
793.640	0.0156075
793.718	0.0155246
793.797	0.0154079
793.875	0.0153898
793.953	0.0154822
794.031	0.0155560
794.109	0.0153471
794.187	0.0151881
794.265	0.0153466
794.343	0.0153658
794.422	0.0151915
794.500	0.0153020
794.578	0.0153455
794.656	0.0153175
794.734	0.0152203
794.812	0.0150848
794.890	0.0152802
794.968	0.0154355
795.047	0.0152814
795.125	0.0153299
795.203	0.0155611
795.281	0.0155933
795.359	0.0155613
795.437	0.0156286
795.515	0.0157794
795.593	0.0157588
795.672	0.0158640
795.750	0.0159929
795.828	0.0158544
795.906	0.0157983
795.984	0.0159473
796.062	0.0159500
796.140	0.0160501
796.218	0.0159813
796.297	0.0160473
796.375	0.0161310
796.453	0.0159853
796.531	0.0159899
796.609	0.0161826
796.687	0.0161202
796.765	0.0160975
796.843	0.0160191
796.922	0.0160945
797.000	0.0161745
797.078	0.0161759
797.156	0.0160689
797.234	0.0161273
797.312	0.0161687
797.390	0.0161611
797.468	0.0162214
797.547	0.0160068
797.625	0.0158736
797.703	0.0158865
797.781	0.0159233
797.859	0.0157819
797.937	0.0157880
798.015	0.0155982
798.093	0.0154772
798.172	0.0154916
798.250	0.0155379
798.328	0.0153362
798.406	0.0152678
798.484	0.0153580
798.562	0.0153629
798.640	0.0153734
798.718	0.0152183
798.797	0.0152535
798.875	0.0152843
798.953	0.0151628
799.031	0.0153157
799.109	0.0152796
799.187	0.0151711
799.265	0.0153546
799.343	0.0153387
799.422	0.0153788
799.500	0.0153989
799.578	0.0154356
799.656	0.0155492
799.734	0.0155617
799.812	0.0155966
799.890	0.0156902
799.968	0.0158218
800.047	0.0158530
800.125	0.0158807
800.203	0.0158696
800.281	0.0160472
800.359	0.0159522
800.437	0.0160481
800.515	0.0162866
800.593	0.0161966
800.672	0.0161171
800.750	0.0161423
800.828	0.0162894
800.906	0.0162614
800.984	0.0162298
801.062	0.0161584
801.140	0.0160801
801.218	0.0162881
801.297	0.0161996
801.375	0.0160389
801.453	0.0159228
801.531	0.0160428
801.609	0.0159264
801.687	0.0159532
801.765	0.0159293
801.843	0.0158066
801.922	0.0156687
802.000	0.0156974
802.078	0.0156384
802.156	0.0155711
802.234	0.0153687
802.312	0.0155743
802.390	0.0156350
802.468	0.0155416
802.547	0.0154652
802.625	0.0155379
802.703	0.0155873
802.781	0.0156403
802.859	0.0156807
802.937	0.0156172
803.015	0.0155869
803.093	0.0155214
803.172	0.0155616
803.250	0.0153462
803.328	0.0154156
803.406	0.0154541
803.484	0.0153956
803.562	0.0152164
803.640	0.0151450
803.718	0.0150869
803.797	0.0151316
803.875	0.0150286
803.953	0.0150733
804.031	0.0152244
804.109	0.0152496
804.187	0.0152594
804.265	0.0152540
804.343	0.0153272
804.422	0.0156216
804.500	0.0157205
804.578	0.0158603
804.656	0.0159528
804.734	0.0160135
804.812	0.0162289
804.890	0.0162543
804.968	0.0163389
805.047	0.0165577
805.125	0.0164277
805.203	0.0164132
805.281	0.0164705
805.359	0.0166727
805.437	0.0164619
805.515	0.0164100
805.593	0.0165396
805.672	0.0164619
805.750	0.0163509
805.828	0.0161048
805.906	0.0162302
805.984	0.0160518
806.062	0.0158538
806.140	0.0158440
806.218	0.0157047
806.297	0.0156346
806.375	0.0156392
806.453	0.0154412
806.531	0.0155269
806.609	0.0155633
806.687	0.0154916
806.765	0.0153798
806.843	0.0154433
806.922	0.0154002
807.000	0.0153725
807.078	0.0154187
807.156	0.0154034
807.234	0.0154572
807.312	0.0155626
807.390	0.0157150
807.468	0.0157353
807.547	0.0158102
807.625	0.0159262
807.703	0.0158432
807.781	0.0160973
807.859	0.0161206
807.937	0.0161221
808.015	0.0162332
808.093	0.0162730
808.172	0.0162244
808.250	0.0163489
808.328	0.0162130
808.406	0.0162247
808.484	0.0161547
808.562	0.0163857
808.640	0.0160774
808.718	0.0159420
808.797	0.0158333
808.875	0.0158678
808.953	0.0157407
809.031	0.0156875
809.109	0.0155397
809.187	0.0153225
809.265	0.0152299
809.343	0.0152144
809.422	0.0153333
809.500	0.0150618
809.578	0.0150714
809.656	0.0150187
809.734	0.0150795
809.812	0.0149807
809.890	0.0149906
809.968	0.0152166
810.047	0.0152219
810.125	0.0153036
810.203	0.0155505
810.281	0.0154682
810.359	0.0155911
810.437	0.0158087
810.515	0.0158472
810.593	0.0156911
810.672	0.0159042
810.750	0.0159312
810.828	0.0161006
810.906	0.0161347
810.984	0.0161339
811.062	0.0161646
811.140	0.0161975
811.218	0.0162343
811.297	0.0163911
811.375	0.0162730
811.453	0.0165137
811.531	0.0163963
811.609	0.0163494
811.687	0.0163094
811.765	0.0162477
811.843	0.0164769
811.922	0.0163039
812.000	0.0162543
812.078	0.0161884
812.156	0.0161769
812.234	0.0159621
812.312	0.0159529
812.390	0.0157887
812.468	0.0155880
812.547	0.0158265
812.625	0.0155554
812.703	0.0155022
812.781	0.0155785
812.859	0.0155174
812.937	0.0154169
813.015	0.0153548
813.093	0.0156046
813.172	0.0156998
813.250	0.0156497
813.328	0.0157820
813.406	0.0159262
813.484	0.0158489
813.562	0.0160168
813.640	0.0161572
813.718	0.0161302
813.797	0.0161818
813.875	0.0161938
813.953	0.0161706
814.031	0.0161892
814.109	0.0161740
814.187	0.0161819
814.265	0.0159743
814.343	0.0160868
814.422	0.0159207
814.500	0.0158425
814.578	0.0158855
814.656	0.0154483
814.734	0.0155987
814.812	0.0153713
814.890	0.0153567
814.968	0.0154069
815.047	0.0152934
815.125	0.0151474
815.203	0.0152957
815.281	0.0152769
815.359	0.0152489
815.437	0.0152018
815.515	0.0152394
815.593	0.0153995
815.672	0.0154832
815.750	0.0154425
815.828	0.0155040
815.906	0.0154260
815.984	0.0156451
816.062	0.0158362
816.140	0.0158883
816.218	0.0159204
816.297	0.0160674
816.375	0.0159637
816.453	0.0160885
816.531	0.0161351
816.609	0.0162337
816.687	0.0161282
816.765	0.0162320
816.843	0.0162081
816.922	0.0162050
817.000	0.0162836
817.078	0.0162081
817.156	0.0163501
817.234	0.0163112
817.312	0.0161524
817.390	0.0162151
817.468	0.0161127
817.547	0.0159700
817.625	0.0161892
817.703	0.0161507
817.781	0.0159423
817.859	0.0159164
817.937	0.0159940
818.015	0.0158336
818.093	0.0158694
818.172	0.0158310
818.250	0.0156506
818.328	0.0156174
818.406	0.0155476
818.484	0.0155880
818.562	0.0154485
818.640	0.0153606
818.718	0.0154231
818.797	0.0155262
818.875	0.0156346
818.953	0.0155814
819.031	0.0155972
819.109	0.0155450
819.187	0.0155749
819.265	0.0157322
819.343	0.0156826
819.422	0.0158186
819.500	0.0157389
819.578	0.0156403
819.656	0.0158259
819.734	0.0159052
819.812	0.0161603
819.890	0.0160257
819.968	0.0159355
820.047	0.0160252
820.125	0.0160453
820.203	0.0160014
820.281	0.0160101
820.359	0.0160050
820.437	0.0159331
820.515	0.0158658
820.593	0.0157390
820.672	0.0158111
820.750	0.0156329
820.828	0.0155908
820.906	0.0155801
820.984	0.0155732
821.062	0.0153980
821.140	0.0154981
821.218	0.0153993
821.297	0.0152657
821.375	0.0153259
821.453	0.0154415
821.531	0.0154268
821.609	0.0153969
821.687	0.0155049
821.765	0.0154956
821.843	0.0155172
821.922	0.0155795
822.000	0.0156834
822.078	0.0156557
822.156	0.0158843
822.234	0.0159264
822.312	0.0159374
822.390	0.0159415
822.468	0.0159766
822.547	0.0160575
822.625	0.0159442
822.703	0.0159534
822.781	0.0160323
822.859	0.0158455
822.937	0.0158521
823.015	0.0157574
823.093	0.0156361
823.172	0.0157599
823.250	0.0155935
823.328	0.0154939
823.406	0.0156326
823.484	0.0155238
823.562	0.0152157
823.640	0.0152744
823.718	0.0153999
823.797	0.0153680
823.875	0.0153015
823.953	0.0153671
824.031	0.0154694
824.109	0.0155409
824.187	0.0155036
824.265	0.0155145
824.343	0.0156236
824.422	0.0156612
824.500	0.0157913
824.578	0.0159422
824.656	0.0160304
824.734	0.0159568
824.812	0.0160478
824.890	0.0162120
824.968	0.0159473
825.047	0.0161312
825.125	0.0160776
825.203	0.0161823
825.281	0.0162066
825.359	0.0161858
825.437	0.0161691
825.515	0.0161047
825.593	0.0162101
825.672	0.0160963
825.750	0.0161805
825.828	0.0161569
825.906	0.0161210
825.984	0.0159367
826.062	0.0159613
826.140	0.0159084
826.218	0.0158727
826.297	0.0158746
826.375	0.0156218
826.453	0.0156770
826.531	0.0156531
826.609	0.0155721
826.687	0.0154589
826.765	0.0154829
826.843	0.0152814
826.922	0.0153044
827.000	0.0151411
827.078	0.0151314
827.156	0.0152374
827.234	0.0150779
827.312	0.0151724
827.390	0.0152704
827.468	0.0153188
827.547	0.0152346
827.625	0.0153910
827.703	0.0155149
827.781	0.0155985
827.859	0.0155453
827.937	0.0156991
828.015	0.0158234
828.093	0.0158812
828.172	0.0159677
828.250	0.0158718
828.328	0.0159134
828.406	0.0159663
828.484	0.0159835
828.562	0.0160708
828.640	0.0160900
828.718	0.0159708
828.797	0.0159056
828.875	0.0159441
828.953	0.0158481
829.031	0.0156707
829.109	0.0157825
829.187	0.0157624
829.265	0.0156061
829.343	0.0153548
829.422	0.0156502
829.500	0.0155533
829.578	0.0155369
829.656	0.0154493
829.734	0.0155099
829.812	0.0156062
829.890	0.0154278
829.968	0.0155225
830.047	0.0157502
830.125	0.0155414
830.203	0.0156532
830.281	0.0157487
830.359	0.0158430
830.437	0.0159385
830.515	0.0157555
830.593	0.0159020
830.672	0.0159356
830.750	0.0157861
830.828	0.0159068
830.906	0.0157825
830.984	0.0158527
831.062	0.0159966
831.140	0.0158981
831.218	0.0160466
831.297	0.0159405
831.375	0.0158686
831.453	0.0160803
831.531	0.0158904
831.609	0.0160201
831.687	0.0160130
831.765	0.0159409
831.843	0.0158863
831.922	0.0159039
832.000	0.0158393
832.078	0.0158179
832.156	0.0159494
832.234	0.0158759
832.312	0.0158295
832.390	0.0158272
832.468	0.0157057
832.547	0.0157831
832.625	0.0157288
832.703	0.0156690
832.781	0.0157099
832.859	0.0154908
832.937	0.0155318
833.015	0.0156284
833.093	0.0154867
833.172	0.0156338
833.250	0.0154609
833.328	0.0154970
833.406	0.0153533
833.484	0.0154766
833.562	0.0154045
833.640	0.0155500
833.718	0.0155740
833.797	0.0156309
833.875	0.0156486
833.953	0.0156398
834.031	0.0157429
834.109	0.0156660
834.187	0.0156810
834.265	0.0157594
834.343	0.0158350
834.422	0.0157307
834.500	0.0156411
834.578	0.0156546
834.656	0.0156193
834.734	0.0156714
834.812	0.0156994
834.890	0.0156731
834.968	0.0156367
835.047	0.0156247
835.125	0.0156860
835.203	0.0157656
835.281	0.0157016
835.359	0.0157864
835.437	0.0158062
835.515	0.0158228
835.593	0.0157723
835.672	0.0158202
835.750	0.0159644
835.828	0.0158749
835.906	0.0160265
835.984	0.0160366
836.062	0.0160558
836.140	0.0162148
836.218	0.0161288
836.297	0.0160876
836.375	0.0162899
836.453	0.0161020
836.531	0.0160280
836.609	0.0160186
836.687	0.0160073
836.765	0.0159863
836.843	0.0157973
836.922	0.0157980
837.000	0.0157636
837.078	0.0158102
837.156	0.0158418
837.234	0.0158868
837.312	0.0158009
837.390	0.0157079
837.468	0.0158918
837.547	0.0155729
837.625	0.0156362
837.703	0.0159768
837.781	0.0158546
837.859	0.0158532
837.937	0.0158326
838.015	0.0158157
838.093	0.0159042
838.172	0.0157053
838.250	0.0157605
838.328	0.0158237
838.406	0.0156928
838.484	0.0158171
838.562	0.0158182
838.640	0.0158981
838.718	0.0157873
838.797	0.0157006
838.875	0.0158056
838.953	0.0156956
839.031	0.0157027
839.109	0.0157442
839.187	0.0157030
839.265	0.0155891
839.343	0.0155644
839.422	0.0154697
839.500	0.0155815
839.578	0.0155930
839.656	0.0154929
839.734	0.0155524
839.812	0.0154868
839.890	0.0155417
839.968	0.0153873
840.047	0.0155582
840.125	0.0157693
840.203	0.0155758
840.281	0.0155541
840.359	0.0157225
840.437	0.0156347
840.515	0.0157665
840.593	0.0156693
840.672	0.0159061
840.750	0.0159307
840.828	0.0159396
840.906	0.0160532
840.984	0.0160674
841.062	0.0162951
841.140	0.0161396
841.218	0.0161906
841.297	0.0162446
841.375	0.0161543
841.453	0.0161365
841.531	0.0161704
841.609	0.0160223
841.687	0.0160154
841.765	0.0161036
841.843	0.0158795
841.922	0.0159011
842.000	0.0157658
842.078	0.0157025
842.156	0.0157722
842.234	0.0157849
842.312	0.0155280
842.390	0.0156719
842.468	0.0156797
842.547	0.0156073
842.625	0.0155529
842.703	0.0156276
842.781	0.0156380
842.859	0.0156921
842.937	0.0157528
843.015	0.0157428
843.093	0.0158726
843.172	0.0158074
843.250	0.0160184
843.328	0.0159236
843.406	0.0159966
843.484	0.0160452
843.562	0.0161865
843.640	0.0160688
843.718	0.0160684
843.797	0.0160226
843.875	0.0160633
843.953	0.0160944
844.031	0.0160894
844.109	0.0157696
844.187	0.0159344
844.265	0.0159934
844.343	0.0158044
844.422	0.0158931
844.500	0.0158884
844.578	0.0159006
844.656	0.0158656
844.734	0.0158294
844.812	0.0157677
844.890	0.0156988
844.968	0.0157806
845.047	0.0157350
845.125	0.0157491
845.203	0.0157880
845.281	0.0158639
845.359	0.0157199
845.437	0.0159181
845.515	0.0155964
845.593	0.0157076
845.672	0.0156815
845.750	0.0157180
845.828	0.0156527
845.906	0.0158665
845.984	0.0158802
846.062	0.0157570
846.140	0.0157636
846.218	0.0156496
846.297	0.0157323
846.375	0.0158595
846.453	0.0158093
846.531	0.0158447
846.609	0.0159291
846.687	0.0158441
846.765	0.0156961
846.843	0.0158205
846.922	0.0156936
847.000	0.0156435
847.078	0.0157592
847.156	0.0156290
847.234	0.0156913
847.312	0.0158787
847.390	0.0158180
847.468	0.0158099
847.547	0.0158625
847.625	0.0156721
847.703	0.0157355
847.781	0.0157794
847.859	0.0158245
847.937	0.0158350
848.015	0.0159966
848.093	0.0159624
848.172	0.0159176
848.250	0.0159229
848.328	0.0160114
848.406	0.0159557
848.484	0.0159696
848.562	0.0159072
848.640	0.0160857
848.718	0.0158672
848.797	0.0158316
848.875	0.0159682
848.953	0.0158755
849.031	0.0159122
849.109	0.0161121
849.187	0.0160175
849.265	0.0158456
849.343	0.0160121
849.422	0.0158643
849.500	0.0159090
849.578	0.0158493
849.656	0.0157304
849.734	0.0157059
849.812	0.0157072
849.890	0.0157701
849.968	0.0157599
850.047	0.0157897
850.125	0.0156064
850.203	0.0157633
850.281	0.0157883
850.359	0.0156997
850.437	0.0157081
850.515	0.0158315
850.593	0.0158833
850.672	0.0158485
850.750	0.0158765
850.828	0.0157702
850.906	0.0157391
850.984	0.0158823
851.062	0.0158123
851.140	0.0157393
851.218	0.0158742
851.297	0.0158358
851.375	0.0157682
851.453	0.0158893
851.531	0.0158911
851.609	0.0157323
851.687	0.0157095
851.765	0.0157919
851.843	0.0157235
851.922	0.0157125
852.000	0.0156752
852.078	0.0156337
852.156	0.0156264
852.234	0.0156201
852.312	0.0156580
852.390	0.0155717
852.468	0.0156467
852.547	0.0158138
852.625	0.0155450
852.703	0.0156555
852.781	0.0156698
852.859	0.0157130
852.937	0.0155795
853.015	0.0156563
853.093	0.0156152
853.172	0.0157468
853.250	0.0157016
853.328	0.0158039
853.406	0.0158314
853.484	0.0158722
853.562	0.0158098
853.640	0.0157353
853.718	0.0158353
853.797	0.0159077
853.875	0.0158145
853.953	0.0157916
854.031	0.0157928
854.109	0.0159431
854.187	0.0158342
854.265	0.0156149
854.343	0.0155272
854.422	0.0156326
854.500	0.0156709
854.578	0.0156348
854.656	0.0155714
854.734	0.0155303
854.812	0.0157102
854.890	0.0156409
854.968	0.0156242
855.047	0.0155665
855.125	0.0155409
855.203	0.0155497
855.281	0.0156607
855.359	0.0156709
855.437	0.0157471
855.515	0.0155815
855.593	0.0156422
855.672	0.0157092
855.750	0.0156226
855.828	0.0156180
855.906	0.0155029
855.984	0.0156762
856.062	0.0156824
856.140	0.0157079
856.218	0.0157561
856.297	0.0157856
856.375	0.0157465
856.453	0.0156338
856.531	0.0157988
856.609	0.0160483
856.687	0.0158853
856.765	0.0159364
856.843	0.0159141
856.922	0.0158201
857.000	0.0157549
857.078	0.0159133
857.156	0.0158725
857.234	0.0158878
857.312	0.0158035
857.390	0.0158947
857.468	0.0158282
857.547	0.0158103
857.625	0.0158047
857.703	0.0158298
857.781	0.0157273
857.859	0.0157084
857.937	0.0156078
858.015	0.0156465
858.093	0.0155178
858.172	0.0156635
858.250	0.0155963
858.328	0.0155722
858.406	0.0155766
858.484	0.0155454
858.562	0.0155357
858.640	0.0155504
858.718	0.0156271
858.797	0.0156673
858.875	0.0157358
858.953	0.0156319
859.031	0.0156909
859.109	0.0157631
859.187	0.0157414
859.265	0.0157181
859.343	0.0158144
859.422	0.0158131
859.500	0.0157032
859.578	0.0156866
859.656	0.0157999
859.734	0.0158002
859.812	0.0156884
859.890	0.0156478
859.968	0.0157275
860.047	0.0156615
860.125	0.0157396
860.203	0.0158053
860.281	0.0158351
860.359	0.0159089
860.437	0.0157414
860.515	0.0157146
860.593	0.0158791
860.672	0.0157503
860.750	0.0157842
860.828	0.0158678
860.906	0.0159532
860.984	0.0158509
861.062	0.0159332
861.140	0.0159543
861.218	0.0159267
861.297	0.0158355
861.375	0.0157713
861.453	0.0159280
861.531	0.0159631
861.609	0.0158540
861.687	0.0157687
861.765	0.0159119
861.843	0.0157872
861.922	0.0158662
862.000	0.0157417
862.078	0.0158707
862.156	0.0159494
862.234	0.0159781
862.312	0.0158241
862.390	0.0157663
862.468	0.0158449
862.547	0.0158709
862.625	0.0158939
862.703	0.0159681
862.781	0.0158899
862.859	0.0159448
862.937	0.0161111
863.015	0.0160382
863.093	0.0159414
863.172	0.0159606
863.250	0.0159319
863.328	0.0159119
863.406	0.0158652
863.484	0.0157874
863.562	0.0159320
863.640	0.0158333
863.718	0.0158942
863.797	0.0157658
863.875	0.0157001
863.953	0.0156511
864.031	0.0156505
864.109	0.0156239
864.187	0.0156366
864.265	0.0156973
864.343	0.0156075
864.422	0.0156085
864.500	0.0156385
864.578	0.0157226
864.656	0.0156737
864.734	0.0155733
864.812	0.0157802
864.890	0.0157375
864.968	0.0156251
865.047	0.0157224
865.125	0.0157397
865.203	0.0159317
865.281	0.0158955
865.359	0.0158243
865.437	0.0158744
865.515	0.0158775
865.593	0.0157570
865.672	0.0158354
865.750	0.0158161
865.828	0.0159478
865.906	0.0157256
865.984	0.0158686
866.062	0.0158779
866.140	0.0158316
866.218	0.0158105
866.297	0.0158643
866.375	0.0156866
866.453	0.0156937
866.531	0.0158078
866.609	0.0156765
866.687	0.0157151
866.765	0.0157757
866.843	0.0157512
866.922	0.0157225
867.000	0.0157462
867.078	0.0158330
867.156	0.0158997
867.234	0.0158228
867.312	0.0158957
867.390	0.0159532
867.468	0.0160470
867.547	0.0160445
867.625	0.0159803
867.703	0.0159837
867.781	0.0160017
867.859	0.0160085
867.937	0.0161213
868.015	0.0160010
868.093	0.0159827
868.172	0.0160333
868.250	0.0159918
868.328	0.0160615
868.406	0.0160262
868.484	0.0159701
868.562	0.0158768
868.640	0.0158427
868.718	0.0159077
868.797	0.0159284
868.875	0.0159958
868.953	0.0159131
869.031	0.0159003
869.109	0.0158881
869.187	0.0159480
869.265	0.0158139
869.343	0.0157568
869.422	0.0156629
869.500	0.0158527
869.578	0.0157997
869.656	0.0157810
869.734	0.0158727
869.812	0.0157360
869.890	0.0156551
869.968	0.0156381
870.047	0.0156908
870.125	0.0156870
870.203	0.0156750
870.281	0.0157298
870.359	0.0156546
870.437	0.0156760
870.515	0.0156621
870.593	0.0157424
870.672	0.0157736
870.750	0.0157217
870.828	0.0156908
870.906	0.0157394
870.984	0.0157751
871.062	0.0157864
871.140	0.0158107
871.218	0.0157176
871.297	0.0158120
871.375	0.0159171
871.453	0.0158387
871.531	0.0158646
871.609	0.0158362
871.687	0.0158398
871.765	0.0157588
871.843	0.0158707
871.922	0.0158125
872.000	0.0158450
872.078	0.0158011
872.156	0.0158656
872.234	0.0158319
872.312	0.0159825
872.390	0.0158387
872.468	0.0158524
872.547	0.0158188
872.625	0.0159280
872.703	0.0158750
872.781	0.0159914
872.859	0.0157898
872.937	0.0156940
873.015	0.0159489
873.093	0.0158939
873.172	0.0158353
873.250	0.0159492
873.328	0.0158291
873.406	0.0158872
873.484	0.0158451
873.562	0.0158557
873.640	0.0159068
873.718	0.0159418
873.797	0.0159321
873.875	0.0157352
873.953	0.0158913
874.031	0.0160354
874.109	0.0158906
874.187	0.0158958
874.265	0.0158957
874.343	0.0158647
874.422	0.0158154
874.500	0.0159045
874.578	0.0158797
874.656	0.0158946
874.734	0.0158501
874.812	0.0157877
874.890	0.0159282
874.968	0.0158268
875.047	0.0158302
875.125	0.0158484
875.203	0.0157915
875.281	0.0157738
875.359	0.0157685
875.437	0.0156541
875.515	0.0157072
875.593	0.0157400
875.672	0.0157185
875.750	0.0157455
875.828	0.0158167
875.906	0.0157582
875.984	0.0157573
876.062	0.0158163
876.140	0.0158678
876.218	0.0158514
876.297	0.0158672
876.375	0.0157887
876.453	0.0158570
876.531	0.0158477
876.609	0.0159007
876.687	0.0159059
876.765	0.0157448
876.843	0.0158820
876.922	0.0158520
877.000	0.0157787
877.078	0.0158934
877.156	0.0158234
877.234	0.0157639
877.312	0.0158340
877.390	0.0157504
877.468	0.0156123
877.547	0.0155964
877.625	0.0158446
877.703	0.0156187
877.781	0.0156384
877.859	0.0157840
877.937	0.0157639
878.015	0.0157111
878.093	0.0157721
878.172	0.0157988
878.250	0.0157153
878.328	0.0157042
878.406	0.0157930
878.484	0.0157868
878.562	0.0156944
878.640	0.0155847
878.718	0.0155742
878.797	0.0156681
878.875	0.0156516
878.953	0.0156747
879.031	0.0155602
879.109	0.0154591
879.187	0.0155562
879.265	0.0157295
879.343	0.0156037
879.422	0.0154536
879.500	0.0155605
879.578	0.0154930
879.656	0.0156963
879.734	0.0155925
879.812	0.0156248
879.890	0.0157439
879.968	0.0157368
880.047	0.0156416
880.125	0.0156541
880.203	0.0156934
880.281	0.0157227
880.359	0.0158130
880.437	0.0157130
880.515	0.0157217
880.593	0.0157915
880.672	0.0158368
880.750	0.0156752
880.828	0.0156635
880.906	0.0157941
880.984	0.0158260
881.062	0.0156081
881.140	0.0156222
881.218	0.0158824
881.297	0.0157762
881.375	0.0156491
881.453	0.0157291
881.531	0.0158290
881.609	0.0156386
881.687	0.0155894
881.765	0.0157568
881.843	0.0155705
881.922	0.0156510
882.000	0.0156812
882.078	0.0156561
882.156	0.0157135
882.234	0.0156256
882.312	0.0155849
882.390	0.0156122
882.468	0.0155783
882.547	0.0157555
882.625	0.0156447
882.703	0.0155979
882.781	0.0156008
882.859	0.0156918
882.937	0.0154878
883.015	0.0155037
883.093	0.0156348
883.172	0.0156068
883.250	0.0156662
883.328	0.0156133
883.406	0.0156091
883.484	0.0155862
883.562	0.0156557
883.640	0.0156485
883.718	0.0158035
883.797	0.0157278
883.875	0.0157150
883.953	0.0157229
884.031	0.0158313
884.109	0.0158022
884.187	0.0157751
884.265	0.0157238
884.343	0.0157903
884.422	0.0156279
884.500	0.0156680
884.578	0.0156306
884.656	0.0158045
884.734	0.0157608
884.812	0.0157431
884.890	0.0158880
884.968	0.0157450
885.047	0.0159905
885.125	0.0158045
885.203	0.0158956
885.281	0.0158733
885.359	0.0158399
885.437	0.0158654
885.515	0.0157695
885.593	0.0158672
885.672	0.0158462
885.750	0.0156974
885.828	0.0156858
885.906	0.0157475
885.984	0.0157852
886.062	0.0155569
886.140	0.0157184
886.218	0.0156364
886.297	0.0156135
886.375	0.0154990
886.453	0.0154964
886.531	0.0155588
886.609	0.0156854
886.687	0.0154870
886.765	0.0155428
886.843	0.0157401
886.922	0.0155942
887.000	0.0154275
887.078	0.0156208
887.156	0.0156712
887.234	0.0156321
887.312	0.0157840
887.390	0.0157469
887.468	0.0157836
887.547	0.0158638
887.625	0.0157302
887.703	0.0158514
887.781	0.0158543
887.859	0.0157450
887.937	0.0158819
888.015	0.0157123
888.093	0.0159126
888.172	0.0158751
888.250	0.0158472
888.328	0.0159458
888.406	0.0159222
888.484	0.0159753
888.562	0.0158746
888.640	0.0160110
888.718	0.0158788
888.797	0.0158623
888.875	0.0157894
888.953	0.0158682
889.031	0.0160075
889.109	0.0158808
889.187	0.0159164
889.265	0.0157693
889.343	0.0158418
889.422	0.0157523
889.500	0.0158977
889.578	0.0158256
889.656	0.0158305
889.734	0.0157488
889.812	0.0158066
889.890	0.0159541
889.968	0.0158047
890.047	0.0158645
890.125	0.0158792
890.203	0.0157256
890.281	0.0157599
890.359	0.0158893
890.437	0.0159547
890.515	0.0158733
890.593	0.0158627
890.672	0.0157893
890.750	0.0158385
890.828	0.0156409
890.906	0.0157146
890.984	0.0158038
891.062	0.0159370
891.140	0.0158128
891.218	0.0156568
891.297	0.0156216
891.375	0.0157828
891.453	0.0157389
891.531	0.0156744
891.609	0.0157993
891.687	0.0157406
891.765	0.0157288
891.843	0.0158774
891.922	0.0157073
892.000	0.0158044
892.078	0.0158262
892.156	0.0157230
892.234	0.0158070
892.312	0.0157481
892.390	0.0158738
892.468	0.0158513
892.547	0.0157202
892.625	0.0158591
892.703	0.0159391
892.781	0.0157229
892.859	0.0158652
892.937	0.0158101
893.015	0.0157580
893.093	0.0157314
893.172	0.0158715
893.250	0.0158457
893.328	0.0158215
893.406	0.0158724
893.484	0.0158389
893.562	0.0159457
893.640	0.0159014
893.718	0.0161349
893.797	0.0159177
893.875	0.0160007
893.953	0.0159217
894.031	0.0160625
894.109	0.0159679
894.187	0.0159848
894.265	0.0161460
894.343	0.0159618
894.422	0.0159916
894.500	0.0159503
894.578	0.0158523
894.656	0.0158232
894.734	0.0157778
894.812	0.0157392
894.890	0.0158609
894.968	0.0157537
895.047	0.0158031
895.125	0.0157767
895.203	0.0158188
895.281	0.0156986
895.359	0.0157693
895.437	0.0157323
895.515	0.0156292
895.593	0.0157301
895.672	0.0157171
895.750	0.0158202
895.828	0.0157899
895.906	0.0157018
895.984	0.0157719
896.062	0.0157539
896.140	0.0157667
896.218	0.0157926
896.297	0.0158349
896.375	0.0157693
896.453	0.0157745
896.531	0.0158994
896.609	0.0158666
896.687	0.0157824
896.765	0.0158048
896.843	0.0157440
896.922	0.0156872
897.000	0.0159003
897.078	0.0158400
897.156	0.0157508
897.234	0.0158618
897.312	0.0158055
897.390	0.0158948
897.468	0.0159331
897.547	0.0157543
897.625	0.0157577
897.703	0.0158746
897.781	0.0158311
897.859	0.0159282
897.937	0.0157982
898.015	0.0159065
898.093	0.0160010
898.172	0.0158663
898.250	0.0158173
898.328	0.0157211
898.406	0.0157874
898.484	0.0157901
898.562	0.0158067
898.640	0.0158517
898.718	0.0158810
898.797	0.0157298
898.875	0.0156673
898.953	0.0159047
899.031	0.0158603
899.109	0.0159028
899.187	0.0157878
899.265	0.0157428
899.343	0.0157479
899.422	0.0157623
899.500	0.0158450
899.578	0.0156814
899.656	0.0157845
899.734	0.0156695
899.812	0.0157480
899.890	0.0158026
899.968	0.0156773
900.047	0.0158391
900.125	0.0156573
900.203	0.0157656
900.281	0.0156368
900.359	0.0156204
900.437	0.0157244
900.515	0.0156950
900.593	0.0157506
900.672	0.0156975
900.750	0.0158070
900.828	0.0157172
900.906	0.0157505
900.984	0.0156747
901.062	0.0155904
901.140	0.0158060
901.218	0.0157932
901.297	0.0157071
901.375	0.0158290
901.453	0.0157240
901.531	0.0157342
901.609	0.0155626
901.687	0.0158070
901.765	0.0158411
901.843	0.0158336
901.922	0.0157323
902.000	0.0157887
902.078	0.0158392
902.156	0.0158091
902.234	0.0158960
902.312	0.0157880
902.390	0.0158425
902.468	0.0160088
902.547	0.0158463
902.625	0.0158068
902.703	0.0157826
902.781	0.0156437
902.859	0.0156420
902.937	0.0156181
903.015	0.0156522
903.093	0.0157316
903.172	0.0156383
903.250	0.0157465
903.328	0.0157476
903.406	0.0155460
903.484	0.0156948
903.562	0.0157291
903.640	0.0156126
903.718	0.0154837
903.797	0.0156432
903.875	0.0156417
903.953	0.0156535
904.031	0.0155587
904.109	0.0157055
904.187	0.0156394
904.265	0.0156142
904.343	0.0155450
904.422	0.0156055
904.500	0.0155869
904.578	0.0157332
904.656	0.0156879
904.734	0.0156450
904.812	0.0157291
904.890	0.0157708
904.968	0.0159265
905.047	0.0157869
905.125	0.0158665
905.203	0.0158629
905.281	0.0158801
905.359	0.0158551
905.437	0.0158753
905.515	0.0159560
905.593	0.0158286
905.672	0.0159173
905.750	0.0158794
905.828	0.0157492
905.906	0.0157664
905.984	0.0156956
906.062	0.0156948
906.140	0.0156934
906.218	0.0156250
906.297	0.0155894
906.375	0.0157562
906.453	0.0156915
906.531	0.0157038
906.609	0.0156319
906.687	0.0155610
906.765	0.0157127
906.843	0.0156095
906.922	0.0156908
907.000	0.0158996
907.078	0.0156550
907.156	0.0156428
907.234	0.0157708
907.312	0.0155419
907.390	0.0157210
907.468	0.0158218
907.547	0.0156973
907.625	0.0155786
907.703	0.0156724
907.781	0.0156930
907.859	0.0157477
907.937	0.0158794
908.015	0.0158407
908.093	0.0157182
908.172	0.0157133
908.250	0.0157478
908.328	0.0157304
908.406	0.0158554
908.484	0.0158329
908.562	0.0158414
908.640	0.0157743
908.718	0.0157449
908.797	0.0158022
908.875	0.0158689
908.953	0.0157452
909.031	0.0157563
909.109	0.0157137
909.187	0.0157507
909.265	0.0157018
909.343	0.0157003
909.422	0.0156193
909.500	0.0155666
909.578	0.0155144
909.656	0.0157555
909.734	0.0157818
909.812	0.0157697
909.890	0.0157654
909.968	0.0157727
910.047	0.0157072
910.125	0.0156984
910.203	0.0157224
910.281	0.0157775
910.359	0.0157528
910.437	0.0159168
910.515	0.0158857
910.593	0.0157060
910.672	0.0156893
910.750	0.0157817
910.828	0.0156529
910.906	0.0157638
910.984	0.0157144
911.062	0.0156451
911.140	0.0155419
911.218	0.0156009
911.297	0.0157575
911.375	0.0155856
911.453	0.0155503
911.531	0.0156910
911.609	0.0156017
911.687	0.0156741
911.765	0.0157340
911.843	0.0157688
911.922	0.0157407
912.000	0.0157835
912.078	0.0157478
912.156	0.0159245
912.234	0.0159578
912.312	0.0158635
912.390	0.0157491
912.468	0.0157765
912.547	0.0158055
912.625	0.0158923
912.703	0.0158681
912.781	0.0157999
912.859	0.0158468
912.937	0.0157287
913.015	0.0158469
913.093	0.0158549
913.172	0.0158006
913.250	0.0156490
913.328	0.0158682
913.406	0.0159119
913.484	0.0158986
913.562	0.0158372
913.640	0.0158147
913.718	0.0157195
913.797	0.0157516
913.875	0.0157784
913.953	0.0156680
914.031	0.0156965
914.109	0.0156065
914.187	0.0158333
914.265	0.0157536
914.343	0.0156834
914.422	0.0157217
914.500	0.0158033
914.578	0.0157633
914.656	0.0158325
914.734	0.0157238
914.812	0.0155714
914.890	0.0156731
914.968	0.0156664
915.047	0.0155681
915.125	0.0156910
915.203	0.0156821
915.281	0.0157107
915.359	0.0155790
915.437	0.0157951
915.515	0.0157426
915.593	0.0156239
915.672	0.0156384
915.750	0.0156783
915.828	0.0155703
915.906	0.0156691
915.984	0.0156021
916.062	0.0156378
916.140	0.0157678
916.218	0.0157700
916.297	0.0157969
916.375	0.0157441
916.453	0.0157809
916.531	0.0158677
916.609	0.0159737
916.687	0.0158540
916.765	0.0158632
916.843	0.0158332
916.922	0.0158633
917.000	0.0158936
917.078	0.0159944
917.156	0.0156901
917.234	0.0159412
917.312	0.0160384
917.390	0.0160060
917.468	0.0158813
917.547	0.0158052
917.625	0.0159350
917.703	0.0157600
917.781	0.0157873
917.859	0.0158226
917.937	0.0158263
918.015	0.0159824
918.093	0.0159155
918.172	0.0158444
918.250	0.0158261
918.328	0.0157891
918.406	0.0157204
918.484	0.0159402
918.562	0.0158250
918.640	0.0158205
918.718	0.0159254
918.797	0.0159489
918.875	0.0158701
918.953	0.0158108
919.031	0.0157990
919.109	0.0160175
919.187	0.0158581
919.265	0.0157973
919.343	0.0157632
919.422	0.0157271
919.500	0.0159276
919.578	0.0158549
919.656	0.0157840
919.734	0.0158482
919.812	0.0156512
919.890	0.0157829
