05/08/2022	19:31:09	Ver.	4.1	UNKNOWN
Optical Delay	649.989667	Delta X		0.078125	Sweeps	1	Scan Rate	0/0
Coordinates	Axis 1	NaN	Axis 2	NaN	Axis 3	NaN	Axis 4	NaN	Axis 5	NaN	Axis 6	0.000000
TX Power	0.000000	RX Power	0.000000

649.990	0.0147849
650.068	0.0149174
650.146	0.0147680
650.224	0.0147211
650.302	0.0148830
650.380	0.0148139
650.458	0.0147930
650.537	0.0147888
650.615	0.0146842
650.693	0.0146861
650.771	0.0147446
650.849	0.0148087
650.927	0.0148705
651.005	0.0147595
651.083	0.0147587
651.162	0.0147522
651.240	0.0148259
651.318	0.0148547
651.396	0.0146458
651.474	0.0147936
651.552	0.0147496
651.630	0.0147758
651.708	0.0147427
651.787	0.0148726
651.865	0.0148449
651.943	0.0147861
652.021	0.0147057
652.099	0.0147960
652.177	0.0147836
652.255	0.0147196
652.333	0.0149689
652.412	0.0147858
652.490	0.0149156
652.568	0.0147300
652.646	0.0146675
652.724	0.0147890
652.802	0.0147784
652.880	0.0147688
652.958	0.0146646
653.037	0.0147989
653.115	0.0149267
653.193	0.0147540
653.271	0.0148584
653.349	0.0147737
653.427	0.0147057
653.505	0.0147345
653.583	0.0147237
653.662	0.0147409
653.740	0.0149355
653.818	0.0146959
653.896	0.0147447
653.974	0.0147601
654.052	0.0147791
654.130	0.0146784
654.208	0.0146261
654.287	0.0148441
654.365	0.0148597
654.443	0.0148746
654.521	0.0148496
654.599	0.0146664
654.677	0.0148928
654.755	0.0146534
654.833	0.0147629
654.912	0.0147055
654.990	0.0148411
655.068	0.0148367
655.146	0.0147712
655.224	0.0148415
655.302	0.0148602
655.380	0.0148226
655.458	0.0147374
655.537	0.0148791
655.615	0.0148993
655.693	0.0147647
655.771	0.0147584
655.849	0.0148908
655.927	0.0147884
656.005	0.0147151
656.083	0.0148254
656.162	0.0147410
656.240	0.0147580
656.318	0.0147929
656.396	0.0148851
656.474	0.0148689
656.552	0.0147811
656.630	0.0147369
656.708	0.0148504
656.787	0.0146680
656.865	0.0148618
656.943	0.0147485
657.021	0.0148250
657.099	0.0149042
657.177	0.0147821
657.255	0.0147787
657.333	0.0149175
657.412	0.0146606
657.490	0.0147955
657.568	0.0148473
657.646	0.0147723
657.724	0.0147409
657.802	0.0148203
657.880	0.0147087
657.958	0.0147951
658.037	0.0147649
658.115	0.0148127
658.193	0.0147440
658.271	0.0146828
658.349	0.0148521
658.427	0.0148506
658.505	0.0149267
658.583	0.0149000
658.662	0.0148811
658.740	0.0148028
658.818	0.0148492
658.896	0.0148544
658.974	0.0148281
659.052	0.0146378
659.130	0.0148358
659.208	0.0148933
659.287	0.0149119
659.365	0.0148136
659.443	0.0148191
659.521	0.0148503
659.599	0.0147122
659.677	0.0146885
659.755	0.0147969
659.833	0.0147432
659.912	0.0148190
659.990	0.0148672
660.068	0.0148502
660.146	0.0148083
660.224	0.0147861
660.302	0.0148265
660.380	0.0147887
660.458	0.0148125
660.537	0.0147770
660.615	0.0147686
660.693	0.0146453
660.771	0.0147333
660.849	0.0147816
660.927	0.0146805
661.005	0.0147736
661.083	0.0148376
661.162	0.0148008
661.240	0.0147408
661.318	0.0148090
661.396	0.0147432
661.474	0.0147726
661.552	0.0147477
661.630	0.0147895
661.708	0.0148035
661.787	0.0148064
661.865	0.0147068
661.943	0.0146422
662.021	0.0147161
662.099	0.0147813
662.177	0.0147650
662.255	0.0147656
662.333	0.0148579
662.412	0.0148034
662.490	0.0146589
662.568	0.0145869
662.646	0.0148752
662.724	0.0147664
662.802	0.0148675
662.880	0.0147312
662.958	0.0147283
663.037	0.0147704
663.115	0.0147417
663.193	0.0147002
663.271	0.0148045
663.349	0.0146741
663.427	0.0147420
663.505	0.0148122
663.583	0.0146807
663.662	0.0145851
663.740	0.0146967
663.818	0.0148763
663.896	0.0148110
663.974	0.0148061
664.052	0.0148724
664.130	0.0149121
664.208	0.0147495
664.287	0.0147996
664.365	0.0148885
664.443	0.0147626
664.521	0.0148624
664.599	0.0147319
664.677	0.0148790
664.755	0.0147350
664.833	0.0147919
664.912	0.0148665
664.990	0.0147663
665.068	0.0147832
665.146	0.0148492
665.224	0.0149699
665.302	0.0147685
665.380	0.0147719
665.458	0.0147771
665.537	0.0148447
665.615	0.0148412
665.693	0.0148467
665.771	0.0148405
665.849	0.0147484
665.927	0.0148984
666.005	0.0147790
666.083	0.0148561
666.162	0.0147984
666.240	0.0147030
666.318	0.0148590
666.396	0.0147618
666.474	0.0147599
666.552	0.0147412
666.630	0.0148474
666.708	0.0148674
666.787	0.0147639
666.865	0.0148268
666.943	0.0148502
667.021	0.0148976
667.099	0.0149034
667.177	0.0148893
667.255	0.0148189
667.333	0.0147572
667.412	0.0149297
667.490	0.0148561
667.568	0.0148821
667.646	0.0148184
667.724	0.0147626
667.802	0.0147245
667.880	0.0146455
667.958	0.0148017
668.037	0.0147825
668.115	0.0147643
668.193	0.0148851
668.271	0.0149240
668.349	0.0146764
668.427	0.0146897
668.505	0.0146437
668.583	0.0148110
668.662	0.0147787
668.740	0.0146242
668.818	0.0147053
668.896	0.0147289
668.974	0.0147218
669.052	0.0146626
669.130	0.0146014
669.208	0.0146405
669.287	0.0145479
669.365	0.0148047
669.443	0.0147742
669.521	0.0145595
669.599	0.0146361
669.677	0.0147826
669.755	0.0145651
669.833	0.0146819
669.912	0.0146190
669.990	0.0145453
670.068	0.0145701
670.146	0.0145617
670.224	0.0145383
670.302	0.0146107
670.380	0.0145106
670.458	0.0146781
670.537	0.0145667
670.615	0.0146492
670.693	0.0145636
670.771	0.0144712
670.849	0.0146047
670.927	0.0145009
671.005	0.0144698
671.083	0.0145245
671.162	0.0145274
671.240	0.0144966
671.318	0.0145528
671.396	0.0146161
671.474	0.0146565
671.552	0.0145107
671.630	0.0145876
671.708	0.0145991
671.787	0.0145841
671.865	0.0144924
671.943	0.0145300
672.021	0.0145363
672.099	0.0146292
672.177	0.0145439
672.255	0.0144339
672.333	0.0145437
672.412	0.0144788
672.490	0.0144817
672.568	0.0145795
672.646	0.0145122
672.724	0.0145170
672.802	0.0144827
672.880	0.0144366
672.958	0.0145921
673.037	0.0146379
673.115	0.0145027
673.193	0.0145574
673.271	0.0145570
673.349	0.0146246
673.427	0.0144610
673.505	0.0145270
673.583	0.0144760
673.662	0.0144136
673.740	0.0146368
673.818	0.0146432
673.896	0.0145423
673.974	0.0147413
674.052	0.0147755
674.130	0.0146483
674.208	0.0146327
674.287	0.0148074
674.365	0.0149046
674.443	0.0147966
674.521	0.0146623
674.599	0.0146952
674.677	0.0147937
674.755	0.0149471
674.833	0.0148337
674.912	0.0148595
674.990	0.0148103
675.068	0.0148891
675.146	0.0147829
675.224	0.0147456
675.302	0.0149873
675.380	0.0149893
675.458	0.0148652
675.537	0.0149788
675.615	0.0149538
675.693	0.0148168
675.771	0.0149615
675.849	0.0149612
675.927	0.0148801
676.005	0.0149274
676.083	0.0149849
676.162	0.0148686
676.240	0.0150323
676.318	0.0150871
676.396	0.0149645
676.474	0.0148255
676.552	0.0148444
676.630	0.0149044
676.708	0.0148087
676.787	0.0149655
676.865	0.0150445
676.943	0.0149795
677.021	0.0149509
677.099	0.0150160
677.177	0.0150878
677.255	0.0149545
677.333	0.0150188
677.412	0.0151293
677.490	0.0149335
677.568	0.0149106
677.646	0.0148703
677.724	0.0150041
677.802	0.0149213
677.880	0.0150011
677.958	0.0148885
678.037	0.0151185
678.115	0.0149762
678.193	0.0149277
678.271	0.0149472
678.349	0.0150391
678.427	0.0150473
678.505	0.0150422
678.583	0.0149015
678.662	0.0148798
678.740	0.0149872
678.818	0.0149525
678.896	0.0147266
678.974	0.0149427
679.052	0.0150410
679.130	0.0150432
679.208	0.0149480
679.287	0.0149010
679.365	0.0149998
679.443	0.0150177
679.521	0.0149683
679.599	0.0150025
679.677	0.0149847
679.755	0.0149157
679.833	0.0149776
679.912	0.0148880
679.990	0.0149130
680.068	0.0148415
680.146	0.0148562
680.224	0.0148055
680.302	0.0147822
680.380	0.0148694
680.458	0.0149669
680.537	0.0147536
680.615	0.0147464
680.693	0.0148827
680.771	0.0146651
680.849	0.0148418
680.927	0.0147752
681.005	0.0147187
681.083	0.0147646
681.162	0.0146476
681.240	0.0146683
681.318	0.0147736
681.396	0.0147174
681.474	0.0146387
681.552	0.0146578
681.630	0.0147409
681.708	0.0146227
681.787	0.0147813
681.865	0.0146943
681.943	0.0146153
682.021	0.0146729
682.099	0.0146528
682.177	0.0146478
682.255	0.0147871
682.333	0.0147025
682.412	0.0147524
682.490	0.0147459
682.568	0.0148399
682.646	0.0146043
682.724	0.0145820
682.802	0.0146661
682.880	0.0145635
682.958	0.0146917
683.037	0.0146168
683.115	0.0146613
683.193	0.0147427
683.271	0.0148005
683.349	0.0146883
683.427	0.0146998
683.505	0.0147553
683.583	0.0147308
683.662	0.0146730
683.740	0.0148051
683.818	0.0146309
683.896	0.0146317
683.974	0.0147025
684.052	0.0147222
684.130	0.0147079
684.208	0.0145423
684.287	0.0146807
684.365	0.0147637
684.443	0.0146476
684.521	0.0147902
684.599	0.0147592
684.677	0.0146390
684.755	0.0146570
684.833	0.0146568
684.912	0.0148112
684.990	0.0147684
685.068	0.0146954
685.146	0.0146789
685.224	0.0145937
685.302	0.0146055
685.380	0.0147557
685.458	0.0147378
685.537	0.0147042
685.615	0.0146886
685.693	0.0147628
685.771	0.0148453
685.849	0.0147157
685.927	0.0147710
686.005	0.0146102
686.083	0.0147701
686.162	0.0146381
686.240	0.0147011
686.318	0.0149206
686.396	0.0147545
686.474	0.0146900
686.552	0.0147522
686.630	0.0147127
686.708	0.0148045
686.787	0.0147673
686.865	0.0147144
686.943	0.0145724
687.021	0.0147414
687.099	0.0146906
687.177	0.0147318
687.255	0.0147010
687.333	0.0146581
687.412	0.0147779
687.490	0.0147089
687.568	0.0145740
687.646	0.0147369
687.724	0.0147394
687.802	0.0147107
687.880	0.0147175
687.958	0.0148117
688.037	0.0148560
688.115	0.0147066
688.193	0.0147813
688.271	0.0147929
688.349	0.0148175
688.427	0.0148676
688.505	0.0147972
688.583	0.0147633
688.662	0.0147467
688.740	0.0146478
688.818	0.0146466
688.896	0.0147477
688.974	0.0148953
689.052	0.0146684
689.130	0.0147531
689.208	0.0147796
689.287	0.0147171
689.365	0.0148106
689.443	0.0148381
689.521	0.0149699
689.599	0.0149427
689.677	0.0148114
689.755	0.0147250
689.833	0.0150185
689.912	0.0148762
689.990	0.0147883
690.068	0.0147807
690.146	0.0147993
690.224	0.0147919
690.302	0.0146423
690.380	0.0148774
690.458	0.0147874
690.537	0.0145754
690.615	0.0147023
690.693	0.0146018
690.771	0.0146761
690.849	0.0146211
690.927	0.0147668
691.005	0.0146691
691.083	0.0148781
691.162	0.0148018
691.240	0.0147870
691.318	0.0148524
691.396	0.0150119
691.474	0.0149551
691.552	0.0149638
691.630	0.0148550
691.708	0.0148367
691.787	0.0149454
691.865	0.0148901
691.943	0.0149331
692.021	0.0150439
692.099	0.0148214
692.177	0.0149156
692.255	0.0147524
692.333	0.0146996
692.412	0.0146964
692.490	0.0145744
692.568	0.0145781
692.646	0.0147039
692.724	0.0145151
692.802	0.0144672
692.880	0.0144108
692.958	0.0146848
693.037	0.0145907
693.115	0.0145131
693.193	0.0145943
693.271	0.0147186
693.349	0.0146059
693.427	0.0148843
693.505	0.0147728
693.583	0.0148696
693.662	0.0148926
693.740	0.0149751
693.818	0.0150789
693.896	0.0148602
693.974	0.0148383
694.052	0.0146633
694.130	0.0147272
694.208	0.0147891
694.287	0.0147246
694.365	0.0146001
694.443	0.0146169
694.521	0.0146194
694.599	0.0147075
694.677	0.0147792
694.755	0.0147280
694.833	0.0147649
694.912	0.0147104
694.990	0.0146163
695.068	0.0147833
695.146	0.0148627
695.224	0.0148027
695.302	0.0148987
695.380	0.0149903
695.458	0.0148986
695.537	0.0148801
695.615	0.0148014
695.693	0.0148645
695.771	0.0147602
695.849	0.0145590
695.927	0.0146772
696.005	0.0147544
696.083	0.0146313
696.162	0.0145744
696.240	0.0145302
696.318	0.0146055
696.396	0.0146718
696.474	0.0145518
696.552	0.0146222
696.630	0.0146175
696.708	0.0148294
696.787	0.0147922
696.865	0.0147522
696.943	0.0147647
697.021	0.0146999
697.099	0.0148328
697.177	0.0149522
697.255	0.0149380
697.333	0.0149201
697.412	0.0149284
697.490	0.0147240
697.568	0.0145969
697.646	0.0145491
697.724	0.0147430
697.802	0.0145135
697.880	0.0144050
697.958	0.0145658
698.037	0.0143008
698.115	0.0142094
698.193	0.0142915
698.271	0.0143592
698.349	0.0143605
698.427	0.0142944
698.505	0.0143050
698.583	0.0142518
698.662	0.0143844
698.740	0.0144693
698.818	0.0145924
698.896	0.0145099
698.974	0.0144791
699.052	0.0145658
699.130	0.0147928
699.208	0.0147443
699.287	0.0148009
699.365	0.0147320
699.443	0.0146858
699.521	0.0148528
699.599	0.0147588
699.677	0.0149228
699.755	0.0148867
699.833	0.0149446
699.912	0.0151526
699.990	0.0149175
700.068	0.0150235
700.146	0.0151257
700.224	0.0150909
700.302	0.0150478
700.380	0.0151355
700.458	0.0150658
700.537	0.0150517
700.615	0.0152286
700.693	0.0151204
700.771	0.0151031
700.849	0.0150076
700.927	0.0148744
701.005	0.0148098
701.083	0.0150011
701.162	0.0147849
701.240	0.0148505
701.318	0.0147190
701.396	0.0145498
701.474	0.0146512
701.552	0.0145028
701.630	0.0145573
701.708	0.0145242
701.787	0.0146164
701.865	0.0143874
701.943	0.0144073
702.021	0.0144855
702.099	0.0145931
702.177	0.0144412
702.255	0.0144439
702.333	0.0146825
702.412	0.0145178
702.490	0.0144877
702.568	0.0146395
702.646	0.0147433
702.724	0.0145915
702.802	0.0147522
702.880	0.0147800
702.958	0.0148271
703.037	0.0147859
703.115	0.0148149
703.193	0.0148991
703.271	0.0150262
703.349	0.0149687
703.427	0.0148507
703.505	0.0149641
703.583	0.0149722
703.662	0.0151397
703.740	0.0150834
703.818	0.0149974
703.896	0.0151331
703.974	0.0151242
704.052	0.0152981
704.130	0.0154096
704.208	0.0153625
704.287	0.0152608
704.365	0.0153155
704.443	0.0153324
704.521	0.0153914
704.599	0.0152841
704.677	0.0153957
704.755	0.0153960
704.833	0.0152975
704.912	0.0152054
704.990	0.0152216
705.068	0.0151834
705.146	0.0150244
705.224	0.0150256
705.302	0.0151437
705.380	0.0148557
705.458	0.0148901
705.537	0.0149216
705.615	0.0147939
705.693	0.0148676
705.771	0.0148022
705.849	0.0147131
705.927	0.0147475
706.005	0.0147482
706.083	0.0146632
706.162	0.0146127
706.240	0.0146507
706.318	0.0146159
706.396	0.0146616
706.474	0.0146404
706.552	0.0146049
706.630	0.0144903
706.708	0.0145025
706.787	0.0143684
706.865	0.0145341
706.943	0.0143607
707.021	0.0144158
707.099	0.0143483
707.177	0.0145226
707.255	0.0143343
707.333	0.0145112
707.412	0.0145267
707.490	0.0144331
707.568	0.0144888
707.646	0.0146827
707.724	0.0145692
707.802	0.0145767
707.880	0.0147434
707.958	0.0147139
708.037	0.0147191
708.115	0.0148751
708.193	0.0148917
708.271	0.0149203
708.349	0.0148450
708.427	0.0148124
708.505	0.0149487
708.583	0.0149355
708.662	0.0148882
708.740	0.0149796
708.818	0.0150047
708.896	0.0149746
708.974	0.0149113
709.052	0.0148309
709.130	0.0148631
709.208	0.0148252
709.287	0.0148779
709.365	0.0148161
709.443	0.0147562
709.521	0.0146410
709.599	0.0147167
709.677	0.0147662
709.755	0.0147638
709.833	0.0146115
709.912	0.0146360
709.990	0.0146940
710.068	0.0146971
710.146	0.0146576
710.224	0.0145747
710.302	0.0146484
710.380	0.0146590
710.458	0.0147569
710.537	0.0146735
710.615	0.0147003
710.693	0.0146949
710.771	0.0147121
710.849	0.0147839
710.927	0.0146909
711.005	0.0147205
711.083	0.0149039
711.162	0.0147047
711.240	0.0146908
711.318	0.0148482
711.396	0.0148101
711.474	0.0149042
711.552	0.0148566
711.630	0.0147831
711.708	0.0148081
711.787	0.0148289
711.865	0.0148587
711.943	0.0148529
712.021	0.0148395
712.099	0.0147992
712.177	0.0148387
712.255	0.0149328
712.333	0.0148038
712.412	0.0147522
712.490	0.0148243
712.568	0.0148393
712.646	0.0149478
712.724	0.0146638
712.802	0.0148290
712.880	0.0147206
712.958	0.0146787
713.037	0.0146782
713.115	0.0147424
713.193	0.0147922
713.271	0.0147499
713.349	0.0147839
713.427	0.0147707
713.505	0.0146304
713.583	0.0147726
713.662	0.0147131
713.740	0.0147934
713.818	0.0146690
713.896	0.0147859
713.974	0.0148302
714.052	0.0147682
714.130	0.0146844
714.208	0.0147900
714.287	0.0149581
714.365	0.0148793
714.443	0.0148586
714.521	0.0147742
714.599	0.0149172
714.677	0.0148669
714.755	0.0149531
714.833	0.0149082
714.912	0.0148509
714.990	0.0148171
715.068	0.0147186
715.146	0.0148401
715.224	0.0147106
715.302	0.0147965
715.380	0.0147437
715.458	0.0147559
715.537	0.0146427
715.615	0.0147206
715.693	0.0146695
715.771	0.0146845
715.849	0.0147293
715.927	0.0147331
716.005	0.0146506
716.083	0.0147182
716.162	0.0147006
716.240	0.0146658
716.318	0.0147912
716.396	0.0148145
716.474	0.0147647
716.552	0.0147640
716.630	0.0147073
716.708	0.0147707
716.787	0.0147922
716.865	0.0147392
716.943	0.0148522
717.021	0.0147772
717.099	0.0147251
717.177	0.0147939
717.255	0.0147367
717.333	0.0148026
717.412	0.0147314
717.490	0.0146596
717.568	0.0145241
717.646	0.0146551
717.724	0.0148603
717.802	0.0146799
717.880	0.0147485
717.958	0.0147946
718.037	0.0146492
718.115	0.0146289
718.193	0.0146399
718.271	0.0146972
718.349	0.0146185
718.427	0.0146139
718.505	0.0148139
718.583	0.0147636
718.662	0.0147405
718.740	0.0147847
718.818	0.0147203
718.896	0.0149495
718.974	0.0149117
719.052	0.0148582
719.130	0.0148718
719.208	0.0148207
719.287	0.0148547
719.365	0.0146706
719.443	0.0147878
719.521	0.0147745
719.599	0.0147363
719.677	0.0148359
719.755	0.0148199
719.833	0.0149336
719.912	0.0148804
719.990	0.0146970
720.068	0.0146327
720.146	0.0146342
720.224	0.0147607
720.302	0.0146721
720.380	0.0146343
720.458	0.0145432
720.537	0.0146806
720.615	0.0147507
720.693	0.0147346
720.771	0.0146554
720.849	0.0145612
720.927	0.0144965
721.005	0.0147121
721.083	0.0146659
721.162	0.0147466
721.240	0.0146409
721.318	0.0146661
721.396	0.0146532
721.474	0.0145541
721.552	0.0146132
721.630	0.0147450
721.708	0.0147079
721.787	0.0147469
721.865	0.0145564
721.943	0.0145377
722.021	0.0146313
722.099	0.0147134
722.177	0.0145576
722.255	0.0147820
722.333	0.0147707
722.412	0.0147792
722.490	0.0146062
722.568	0.0145911
722.646	0.0148666
722.724	0.0147325
722.802	0.0146766
722.880	0.0147947
722.958	0.0148051
723.037	0.0146347
723.115	0.0146320
723.193	0.0146617
723.271	0.0147961
723.349	0.0146897
723.427	0.0147230
723.505	0.0146822
723.583	0.0147965
723.662	0.0147674
723.740	0.0147930
723.818	0.0147477
723.896	0.0146312
723.974	0.0145711
724.052	0.0147060
724.130	0.0147498
724.208	0.0147805
724.287	0.0148485
724.365	0.0147935
724.443	0.0146320
724.521	0.0147009
724.599	0.0147004
724.677	0.0148808
724.755	0.0148257
724.833	0.0147193
724.912	0.0148370
724.990	0.0149009
725.068	0.0148428
725.146	0.0148108
725.224	0.0148498
725.302	0.0149001
725.380	0.0147749
725.458	0.0146249
725.537	0.0147275
725.615	0.0147578
725.693	0.0147963
725.771	0.0148693
725.849	0.0146442
725.927	0.0148373
726.005	0.0148056
726.083	0.0146361
726.162	0.0145885
726.240	0.0145726
726.318	0.0148014
726.396	0.0147713
726.474	0.0148001
726.552	0.0147844
726.630	0.0147292
726.708	0.0147271
726.787	0.0148055
726.865	0.0148687
726.943	0.0146967
727.021	0.0147330
727.099	0.0147759
727.177	0.0147760
727.255	0.0147398
727.333	0.0147486
727.412	0.0147730
727.490	0.0148991
727.568	0.0148003
727.646	0.0149668
727.724	0.0148839
727.802	0.0147128
727.880	0.0148572
727.958	0.0148534
728.037	0.0149113
728.115	0.0149489
728.193	0.0148741
728.271	0.0148925
728.349	0.0149126
728.427	0.0148152
728.505	0.0147729
728.583	0.0147620
728.662	0.0149578
728.740	0.0148869
728.818	0.0148978
728.896	0.0147824
728.974	0.0147234
729.052	0.0148831
729.130	0.0147832
729.208	0.0148452
729.287	0.0147923
729.365	0.0146606
729.443	0.0146303
729.521	0.0148419
729.599	0.0147459
729.677	0.0147285
729.755	0.0148067
729.833	0.0148456
729.912	0.0147913
729.990	0.0148763
730.068	0.0147482
730.146	0.0147446
730.224	0.0147433
730.302	0.0149182
730.380	0.0148421
730.458	0.0147959
730.537	0.0146404
730.615	0.0147693
730.693	0.0148010
730.771	0.0148461
730.849	0.0148486
730.927	0.0147451
731.005	0.0147582
731.083	0.0147819
731.162	0.0146644
731.240	0.0147301
731.318	0.0148186
731.396	0.0147281
731.474	0.0147524
731.552	0.0146689
731.630	0.0146754
731.708	0.0147380
731.787	0.0147498
731.865	0.0147446
731.943	0.0146754
732.021	0.0147386
732.099	0.0148175
732.177	0.0148774
732.255	0.0146303
732.333	0.0146353
732.412	0.0148018
732.490	0.0147205
732.568	0.0146403
732.646	0.0146058
732.724	0.0146228
732.802	0.0148215
732.880	0.0146615
732.958	0.0145672
733.037	0.0146478
733.115	0.0147328
733.193	0.0148065
733.271	0.0146886
733.349	0.0147883
733.427	0.0148070
733.505	0.0146865
733.583	0.0146800
733.662	0.0146585
733.740	0.0147742
733.818	0.0145753
733.896	0.0147071
733.974	0.0147960
734.052	0.0146639
734.130	0.0146119
734.208	0.0147836
734.287	0.0148196
734.365	0.0148309
734.443	0.0147296
734.521	0.0147422
734.599	0.0147332
734.677	0.0148088
734.755	0.0148700
734.833	0.0148204
734.912	0.0148479
734.990	0.0147993
735.068	0.0148151
735.146	0.0148809
735.224	0.0146833
735.302	0.0147643
735.380	0.0149203
735.458	0.0149767
735.537	0.0146868
735.615	0.0147144
735.693	0.0147650
735.771	0.0147457
735.849	0.0148825
735.927	0.0148253
736.005	0.0148759
736.083	0.0148092
736.162	0.0147359
736.240	0.0147948
736.318	0.0146152
736.396	0.0146928
736.474	0.0148233
736.552	0.0147637
736.630	0.0147822
736.708	0.0147289
736.787	0.0147311
736.865	0.0148363
736.943	0.0147930
737.021	0.0147073
737.099	0.0147679
737.177	0.0146672
737.255	0.0147392
737.333	0.0148904
737.412	0.0147231
737.490	0.0146764
737.568	0.0148608
737.646	0.0147376
737.724	0.0147662
737.802	0.0147030
737.880	0.0147351
737.958	0.0147504
738.037	0.0146952
738.115	0.0146124
738.193	0.0147315
738.271	0.0147920
738.349	0.0147324
738.427	0.0147492
738.505	0.0146163
738.583	0.0146339
738.662	0.0146365
738.740	0.0146331
738.818	0.0146439
738.896	0.0145921
738.974	0.0146042
739.052	0.0146414
739.130	0.0145060
739.208	0.0147801
739.287	0.0145795
739.365	0.0146791
739.443	0.0147953
739.521	0.0146760
739.599	0.0147065
739.677	0.0147195
739.755	0.0148758
739.833	0.0146695
739.912	0.0148291
739.990	0.0146901
740.068	0.0147346
740.146	0.0147793
740.224	0.0146776
740.302	0.0148686
740.380	0.0148472
740.458	0.0147637
740.537	0.0146847
740.615	0.0148521
740.693	0.0148021
740.771	0.0147412
740.849	0.0149210
740.927	0.0146954
741.005	0.0146668
741.083	0.0148925
741.162	0.0147169
741.240	0.0147871
741.318	0.0148986
741.396	0.0149532
741.474	0.0149179
741.552	0.0147086
741.630	0.0146880
741.708	0.0147189
741.787	0.0146960
741.865	0.0148483
741.943	0.0147381
742.021	0.0147130
742.099	0.0149197
742.177	0.0147576
742.255	0.0146634
742.333	0.0147085
742.412	0.0148067
742.490	0.0148469
742.568	0.0148970
742.646	0.0148671
742.724	0.0147673
742.802	0.0147042
742.880	0.0149837
742.958	0.0148135
743.037	0.0148360
743.115	0.0148786
743.193	0.0148132
743.271	0.0148211
743.349	0.0147812
743.427	0.0148097
743.505	0.0147522
743.583	0.0147517
743.662	0.0148262
743.740	0.0148682
743.818	0.0148798
743.896	0.0147981
743.974	0.0148664
744.052	0.0150159
744.130	0.0147419
744.208	0.0147958
744.287	0.0147753
744.365	0.0148600
744.443	0.0147898
744.521	0.0147635
744.599	0.0147069
744.677	0.0145672
744.755	0.0147386
744.833	0.0146975
744.912	0.0145940
744.990	0.0147559
745.068	0.0146369
745.146	0.0147604
745.224	0.0148582
745.302	0.0147375
745.380	0.0146537
745.458	0.0147662
745.537	0.0148534
745.615	0.0148531
745.693	0.0148660
745.771	0.0147583
745.849	0.0147694
745.927	0.0148186
746.005	0.0147255
746.083	0.0149130
746.162	0.0149320
746.240	0.0146595
746.318	0.0146439
746.396	0.0147684
746.474	0.0147202
746.552	0.0148469
746.630	0.0148051
746.708	0.0148669
746.787	0.0147840
746.865	0.0147748
746.943	0.0148045
747.021	0.0148055
747.099	0.0147490
747.177	0.0146621
747.255	0.0148125
747.333	0.0147388
747.412	0.0147473
747.490	0.0147973
747.568	0.0150133
747.646	0.0147817
747.724	0.0148454
747.802	0.0148854
747.880	0.0149304
747.958	0.0149552
748.037	0.0150047
748.115	0.0149301
748.193	0.0149966
748.271	0.0148743
748.349	0.0149757
748.427	0.0148847
748.505	0.0148979
748.583	0.0148548
748.662	0.0147497
748.740	0.0148201
748.818	0.0147467
748.896	0.0148004
748.974	0.0147655
749.052	0.0147347
749.130	0.0147227
749.208	0.0145421
749.287	0.0146228
749.365	0.0146834
749.443	0.0146825
749.521	0.0145627
749.599	0.0147607
749.677	0.0146054
749.755	0.0146194
749.833	0.0147000
749.912	0.0147467
749.990	0.0146696
750.068	0.0147490
750.146	0.0148344
750.224	0.0148642
750.302	0.0148463
750.380	0.0146460
750.458	0.0148837
750.537	0.0150049
750.615	0.0147177
750.693	0.0147975
750.771	0.0148483
750.849	0.0148493
750.927	0.0148538
751.005	0.0148848
751.083	0.0149155
751.162	0.0147360
751.240	0.0149237
751.318	0.0150082
751.396	0.0149055
751.474	0.0147260
751.552	0.0148797
751.630	0.0147673
751.708	0.0147693
751.787	0.0148455
751.865	0.0148446
751.943	0.0148361
752.021	0.0148541
752.099	0.0148512
752.177	0.0147083
752.255	0.0148393
752.333	0.0147231
752.412	0.0146895
752.490	0.0148894
752.568	0.0148014
752.646	0.0148333
752.724	0.0148015
752.802	0.0147931
752.880	0.0148767
752.958	0.0147268
753.037	0.0147666
753.115	0.0149343
753.193	0.0147433
753.271	0.0148196
753.349	0.0147536
753.427	0.0146664
753.505	0.0148332
753.583	0.0148123
753.662	0.0148318
753.740	0.0147988
753.818	0.0147484
753.896	0.0148527
753.974	0.0148411
754.052	0.0148858
754.130	0.0146983
754.208	0.0148792
754.287	0.0148066
754.365	0.0148640
754.443	0.0147680
754.521	0.0148870
754.599	0.0147305
754.677	0.0146844
754.755	0.0149069
754.833	0.0147165
754.912	0.0147787
754.990	0.0147437
755.068	0.0146844
755.146	0.0147748
755.224	0.0148262
755.302	0.0148219
755.380	0.0146787
755.458	0.0147391
755.537	0.0147276
755.615	0.0148877
755.693	0.0148083
755.771	0.0147672
755.849	0.0146800
755.927	0.0146591
756.005	0.0148359
756.083	0.0146571
756.162	0.0148437
756.240	0.0147961
756.318	0.0147471
756.396	0.0147165
756.474	0.0147353
756.552	0.0145953
756.630	0.0146552
756.708	0.0148765
756.787	0.0145943
756.865	0.0148335
756.943	0.0148484
757.021	0.0146982
757.099	0.0147295
757.177	0.0145524
757.255	0.0148112
757.333	0.0147669
757.412	0.0147488
757.490	0.0148325
757.568	0.0148495
757.646	0.0147585
757.724	0.0149397
757.802	0.0149113
757.880	0.0148653
757.958	0.0147544
758.037	0.0149382
758.115	0.0147349
758.193	0.0147700
758.271	0.0148454
758.349	0.0149022
758.427	0.0148120
758.505	0.0147668
758.583	0.0148077
758.662	0.0148614
758.740	0.0147050
758.818	0.0148914
758.896	0.0148568
758.974	0.0148178
759.052	0.0148003
759.130	0.0148219
759.208	0.0147305
759.287	0.0147264
759.365	0.0148460
759.443	0.0144924
759.521	0.0146054
759.599	0.0146771
759.677	0.0148289
759.755	0.0147195
759.833	0.0148077
759.912	0.0146298
759.990	0.0147002
760.068	0.0146764
760.146	0.0148210
760.224	0.0146515
760.302	0.0146692
760.380	0.0146497
760.458	0.0144980
760.537	0.0147698
760.615	0.0147334
760.693	0.0147724
760.771	0.0147274
760.849	0.0147810
760.927	0.0148827
761.005	0.0146831
761.083	0.0147122
761.162	0.0146721
761.240	0.0147123
761.318	0.0147956
761.396	0.0147894
761.474	0.0147599
761.552	0.0146123
761.630	0.0147418
761.708	0.0146907
761.787	0.0147454
761.865	0.0147343
761.943	0.0148580
762.021	0.0148046
762.099	0.0148217
762.177	0.0146794
762.255	0.0145964
762.333	0.0147860
762.412	0.0148362
762.490	0.0147057
762.568	0.0146774
762.646	0.0147360
762.724	0.0147324
762.802	0.0146539
762.880	0.0148296
762.958	0.0148223
763.037	0.0149215
763.115	0.0149107
763.193	0.0146877
763.271	0.0147349
763.349	0.0149164
763.427	0.0148786
763.505	0.0148478
763.583	0.0148837
763.662	0.0147667
763.740	0.0149002
763.818	0.0148163
763.896	0.0148389
763.974	0.0148605
764.052	0.0146931
764.130	0.0145861
764.208	0.0146928
764.287	0.0146555
764.365	0.0147343
764.443	0.0147636
764.521	0.0147787
764.599	0.0147885
764.677	0.0147472
764.755	0.0147790
764.833	0.0148037
764.912	0.0148348
764.990	0.0148051
765.068	0.0148885
765.146	0.0147390
765.224	0.0148071
765.302	0.0146721
765.380	0.0147078
765.458	0.0148859
765.537	0.0148521
765.615	0.0147521
765.693	0.0146870
765.771	0.0147504
765.849	0.0147767
765.927	0.0147556
766.005	0.0146797
766.083	0.0148254
766.162	0.0148201
766.240	0.0147925
766.318	0.0146667
766.396	0.0146552
766.474	0.0146120
766.552	0.0146727
766.630	0.0146639
766.708	0.0146830
766.787	0.0147667
766.865	0.0145584
766.943	0.0146004
767.021	0.0147592
767.099	0.0147802
767.177	0.0146803
767.255	0.0146188
767.333	0.0147630
767.412	0.0146910
767.490	0.0147282
767.568	0.0147026
767.646	0.0146572
767.724	0.0147220
767.802	0.0146688
767.880	0.0147289
767.958	0.0148857
768.037	0.0147259
768.115	0.0147346
768.193	0.0147920
768.271	0.0147478
768.349	0.0147675
768.427	0.0147129
768.505	0.0147013
768.583	0.0146559
768.662	0.0147891
768.740	0.0147310
768.818	0.0147780
768.896	0.0147184
768.974	0.0147070
769.052	0.0149025
769.130	0.0147545
769.208	0.0147290
769.287	0.0146871
769.365	0.0147913
769.443	0.0146942
769.521	0.0148540
769.599	0.0148464
769.677	0.0148155
769.755	0.0148046
769.833	0.0148577
769.912	0.0148122
769.990	0.0148884
770.068	0.0147902
770.146	0.0147829
770.224	0.0148531
770.302	0.0149128
770.380	0.0147581
770.458	0.0146937
770.537	0.0147288
770.615	0.0147706
770.693	0.0147797
770.771	0.0147327
770.849	0.0147477
770.927	0.0149265
771.005	0.0148343
771.083	0.0148126
771.162	0.0148473
771.240	0.0148927
771.318	0.0148113
771.396	0.0149500
771.474	0.0148608
771.552	0.0148653
771.630	0.0149061
771.708	0.0148494
771.787	0.0147569
771.865	0.0148479
771.943	0.0148392
772.021	0.0149333
772.099	0.0148177
772.177	0.0147936
772.255	0.0149059
772.333	0.0149912
772.412	0.0147737
772.490	0.0147996
772.568	0.0147023
772.646	0.0146857
772.724	0.0146874
772.802	0.0149268
772.880	0.0148690
772.958	0.0147472
773.037	0.0147932
773.115	0.0148344
773.193	0.0148125
773.271	0.0148048
773.349	0.0148302
773.427	0.0148376
773.505	0.0148376
773.583	0.0148447
773.662	0.0148248
773.740	0.0147869
773.818	0.0149750
773.896	0.0148679
773.974	0.0148071
774.052	0.0148888
774.130	0.0149156
774.208	0.0148895
774.287	0.0148159
774.365	0.0148724
774.443	0.0148614
774.521	0.0147578
774.599	0.0147975
774.677	0.0148767
774.755	0.0149397
774.833	0.0148470
774.912	0.0147545
774.990	0.0148035
775.068	0.0147310
775.146	0.0147363
775.224	0.0148180
775.302	0.0147967
775.380	0.0147639
775.458	0.0146828
775.537	0.0148101
775.615	0.0147766
775.693	0.0147229
775.771	0.0146761
775.849	0.0146840
775.927	0.0146658
776.005	0.0148005
776.083	0.0147817
776.162	0.0147614
776.240	0.0147957
776.318	0.0148643
776.396	0.0148129
776.474	0.0148842
776.552	0.0147406
776.630	0.0147076
776.708	0.0147291
776.787	0.0148259
776.865	0.0147742
776.943	0.0147424
777.021	0.0148436
777.099	0.0147073
777.177	0.0147899
777.255	0.0149119
777.333	0.0149197
777.412	0.0148795
777.490	0.0147208
777.568	0.0146947
777.646	0.0148029
777.724	0.0149204
777.802	0.0148372
777.880	0.0146877
777.958	0.0148951
778.037	0.0148727
778.115	0.0148787
778.193	0.0148662
778.271	0.0148172
778.349	0.0149397
778.427	0.0148376
778.505	0.0147597
778.583	0.0148512
778.662	0.0148666
778.740	0.0148719
778.818	0.0150183
778.896	0.0148333
778.974	0.0147461
779.052	0.0148737
779.130	0.0149146
779.208	0.0148259
779.287	0.0147195
779.365	0.0146947
779.443	0.0147514
779.521	0.0148201
779.599	0.0147878
779.677	0.0147917
779.755	0.0148152
779.833	0.0149105
779.912	0.0147915
779.990	0.0147028
780.068	0.0148180
780.146	0.0148191
780.224	0.0148082
780.302	0.0148521
780.380	0.0147263
780.458	0.0147453
780.537	0.0147253
780.615	0.0147363
780.693	0.0146539
780.771	0.0150208
780.849	0.0148224
780.927	0.0147816
781.005	0.0147829
781.083	0.0148656
781.162	0.0147717
781.240	0.0148651
781.318	0.0147221
781.396	0.0146881
781.474	0.0148241
781.552	0.0146935
781.630	0.0146902
781.708	0.0148368
781.787	0.0148655
781.865	0.0147863
781.943	0.0146976
782.021	0.0147620
782.099	0.0149476
782.177	0.0147488
782.255	0.0147947
782.333	0.0148335
782.412	0.0147245
782.490	0.0149306
782.568	0.0149014
782.646	0.0148336
782.724	0.0147730
782.802	0.0147369
782.880	0.0148020
782.958	0.0146136
783.037	0.0145428
783.115	0.0147570
783.193	0.0148831
783.271	0.0148518
783.349	0.0147897
783.427	0.0147594
783.505	0.0146258
783.583	0.0147221
783.662	0.0148256
783.740	0.0148088
783.818	0.0148045
783.896	0.0147168
783.974	0.0146754
784.052	0.0146856
784.130	0.0147826
784.208	0.0147706
784.287	0.0147476
784.365	0.0149666
784.443	0.0148527
784.521	0.0146416
784.599	0.0146529
784.677	0.0148975
784.755	0.0147924
784.833	0.0147687
784.912	0.0148921
784.990	0.0149026
785.068	0.0149055
785.146	0.0148467
785.224	0.0148813
785.302	0.0148008
785.380	0.0147883
785.458	0.0148183
785.537	0.0147999
785.615	0.0149439
785.693	0.0149250
785.771	0.0147590
785.849	0.0146770
785.927	0.0148219
786.005	0.0147023
786.083	0.0147412
786.162	0.0145827
786.240	0.0147546
786.318	0.0148736
786.396	0.0147215
786.474	0.0146832
786.552	0.0147726
786.630	0.0146767
786.708	0.0147585
786.787	0.0147527
786.865	0.0146954
786.943	0.0146291
787.021	0.0146938
787.099	0.0147511
787.177	0.0147854
787.255	0.0148125
787.333	0.0147333
787.412	0.0148026
787.490	0.0147135
787.568	0.0146525
787.646	0.0147045
787.724	0.0148132
787.802	0.0147359
787.880	0.0147729
787.958	0.0147565
788.037	0.0148391
788.115	0.0147773
788.193	0.0146432
788.271	0.0147366
788.349	0.0146726
788.427	0.0147428
788.505	0.0147807
788.583	0.0146651
788.662	0.0146979
788.740	0.0146411
788.818	0.0148181
788.896	0.0146011
788.974	0.0147289
789.052	0.0146395
789.130	0.0146440
789.208	0.0147181
789.287	0.0147402
789.365	0.0147564
789.443	0.0148317
789.521	0.0147422
789.599	0.0147392
789.677	0.0147436
789.755	0.0146375
789.833	0.0146382
789.912	0.0146933
789.990	0.0148683
790.068	0.0147054
790.146	0.0148354
790.224	0.0146190
790.302	0.0145644
790.380	0.0147639
790.458	0.0147852
790.537	0.0147224
790.615	0.0146542
790.693	0.0148338
790.771	0.0147904
790.849	0.0146425
790.927	0.0147733
791.005	0.0146947
791.083	0.0147020
791.162	0.0147740
791.240	0.0146604
791.318	0.0146766
791.396	0.0147044
791.474	0.0147823
791.552	0.0147382
791.630	0.0147204
791.708	0.0147792
791.787	0.0146590
791.865	0.0145267
791.943	0.0146065
792.021	0.0145722
792.099	0.0145284
792.177	0.0145708
792.255	0.0145619
792.333	0.0146541
792.412	0.0145972
792.490	0.0146998
792.568	0.0146014
792.646	0.0146943
792.724	0.0145931
792.802	0.0146642
792.880	0.0147467
792.958	0.0146886
793.037	0.0147112
793.115	0.0145609
793.193	0.0147595
793.271	0.0146040
793.349	0.0148195
793.427	0.0148357
793.505	0.0145092
793.583	0.0146307
793.662	0.0147980
793.740	0.0148720
793.818	0.0147288
793.896	0.0148142
793.974	0.0149406
794.052	0.0146468
794.130	0.0148106
794.208	0.0148576
794.287	0.0148412
794.365	0.0147845
794.443	0.0148694
794.521	0.0147813
794.599	0.0145808
794.677	0.0147422
794.755	0.0147009
794.833	0.0146945
794.912	0.0147305
794.990	0.0147309
795.068	0.0146455
795.146	0.0146413
795.224	0.0146402
795.302	0.0147364
795.380	0.0147349
795.458	0.0146131
795.537	0.0148165
795.615	0.0148263
795.693	0.0147374
795.771	0.0147369
795.849	0.0147943
795.927	0.0147701
796.005	0.0148449
796.083	0.0148243
796.162	0.0149217
796.240	0.0147536
796.318	0.0148356
796.396	0.0149697
796.474	0.0148103
796.552	0.0148438
796.630	0.0149175
796.708	0.0148630
796.787	0.0150159
796.865	0.0148293
796.943	0.0148605
797.021	0.0149715
797.099	0.0147382
797.177	0.0147723
797.255	0.0146933
797.333	0.0147920
797.412	0.0148228
797.490	0.0148167
797.568	0.0148070
797.646	0.0148519
797.724	0.0147852
797.802	0.0147249
797.880	0.0147816
797.958	0.0147077
798.037	0.0147947
798.115	0.0148007
798.193	0.0149077
798.271	0.0147493
798.349	0.0148049
798.427	0.0147572
798.505	0.0147633
798.583	0.0147938
798.662	0.0147771
798.740	0.0147143
798.818	0.0147594
798.896	0.0147026
798.974	0.0147739
799.052	0.0148198
799.130	0.0147688
799.208	0.0147001
799.287	0.0146470
799.365	0.0149576
799.443	0.0147123
799.521	0.0148519
799.599	0.0148960
799.677	0.0147709
799.755	0.0148945
799.833	0.0149420
799.912	0.0148283
799.990	0.0148511
800.068	0.0149278
800.146	0.0149445
800.224	0.0148625
800.302	0.0147539
800.380	0.0148656
800.458	0.0149270
800.537	0.0149576
800.615	0.0149110
800.693	0.0148193
800.771	0.0149908
800.849	0.0148483
800.927	0.0148115
801.005	0.0147804
801.083	0.0148796
801.162	0.0149217
801.240	0.0147329
801.318	0.0147147
801.396	0.0147830
801.474	0.0146877
801.552	0.0146854
801.630	0.0146819
801.708	0.0146910
801.787	0.0146724
801.865	0.0145456
801.943	0.0146581
802.021	0.0146308
802.099	0.0146476
802.177	0.0148371
802.255	0.0145432
802.333	0.0146675
802.412	0.0146818
802.490	0.0147398
802.568	0.0146590
802.646	0.0147961
802.724	0.0147806
802.802	0.0147131
802.880	0.0146895
802.958	0.0148029
803.037	0.0147484
803.115	0.0146996
803.193	0.0147066
803.271	0.0149538
803.349	0.0149359
803.427	0.0147858
803.505	0.0147394
803.583	0.0148571
803.662	0.0149223
803.740	0.0147526
803.818	0.0147444
803.896	0.0147194
803.974	0.0148294
804.052	0.0147885
804.130	0.0146217
804.208	0.0148281
804.287	0.0149490
804.365	0.0148422
804.443	0.0148472
804.521	0.0146467
804.599	0.0147686
804.677	0.0147723
804.755	0.0148293
804.833	0.0148347
804.912	0.0148400
804.990	0.0147977
805.068	0.0148552
805.146	0.0149715
805.224	0.0147534
805.302	0.0148531
805.380	0.0147676
805.458	0.0148308
805.537	0.0147332
805.615	0.0147172
805.693	0.0146792
805.771	0.0147046
805.849	0.0147172
805.927	0.0147156
806.005	0.0149001
806.083	0.0148000
806.162	0.0147124
806.240	0.0146941
806.318	0.0146535
806.396	0.0147140
806.474	0.0147205
806.552	0.0146453
806.630	0.0147195
806.708	0.0147269
806.787	0.0146555
806.865	0.0147285
806.943	0.0146886
807.021	0.0147932
807.099	0.0147255
807.177	0.0147078
807.255	0.0146624
807.333	0.0147787
807.412	0.0148066
807.490	0.0148040
807.568	0.0148235
807.646	0.0148952
807.724	0.0148191
807.802	0.0147047
807.880	0.0146379
807.958	0.0147327
808.037	0.0147955
808.115	0.0146131
808.193	0.0147384
808.271	0.0146140
808.349	0.0147738
808.427	0.0148398
808.505	0.0146436
808.583	0.0148419
808.662	0.0148304
808.740	0.0147501
808.818	0.0147153
808.896	0.0148302
808.974	0.0146536
809.052	0.0147127
809.130	0.0147972
809.208	0.0148155
809.287	0.0146799
809.365	0.0147512
809.443	0.0147425
809.521	0.0146791
809.599	0.0146533
809.677	0.0147967
809.755	0.0145992
809.833	0.0145866
809.912	0.0147098
809.990	0.0145918
810.068	0.0147124
810.146	0.0147863
810.224	0.0146637
810.302	0.0145863
810.380	0.0145856
810.458	0.0147989
810.537	0.0147244
810.615	0.0147346
810.693	0.0148051
810.771	0.0148398
810.849	0.0146227
810.927	0.0148515
811.005	0.0148475
811.083	0.0147744
811.162	0.0148251
811.240	0.0148959
811.318	0.0147259
811.396	0.0147167
811.474	0.0148193
811.552	0.0147405
811.630	0.0146574
811.708	0.0149461
811.787	0.0149209
811.865	0.0148198
811.943	0.0147707
812.021	0.0148009
812.099	0.0145360
812.177	0.0145870
812.255	0.0147211
812.333	0.0146983
812.412	0.0146967
812.490	0.0146583
812.568	0.0147384
812.646	0.0148854
812.724	0.0147375
812.802	0.0147047
812.880	0.0146083
812.958	0.0147566
813.037	0.0149176
813.115	0.0147620
813.193	0.0148386
813.271	0.0148505
813.349	0.0147762
813.427	0.0148113
813.505	0.0148266
813.583	0.0147541
813.662	0.0147841
813.740	0.0147675
813.818	0.0146519
813.896	0.0148502
813.974	0.0146870
814.052	0.0146916
814.130	0.0146532
814.208	0.0145580
814.287	0.0146062
814.365	0.0145317
814.443	0.0146574
814.521	0.0145431
814.599	0.0145493
814.677	0.0144209
814.755	0.0144077
814.833	0.0144334
814.912	0.0145245
814.990	0.0145019
815.068	0.0144695
815.146	0.0145294
815.224	0.0145639
815.302	0.0145484
815.380	0.0145880
815.458	0.0147015
815.537	0.0147792
815.615	0.0147209
815.693	0.0146320
815.771	0.0145866
815.849	0.0146606
815.927	0.0147742
816.005	0.0147198
816.083	0.0148026
816.162	0.0148084
816.240	0.0147488
816.318	0.0149022
816.396	0.0150188
816.474	0.0149868
816.552	0.0148067
816.630	0.0148647
816.708	0.0148317
816.787	0.0148846
816.865	0.0148380
816.943	0.0148953
817.021	0.0147523
817.099	0.0148923
817.177	0.0148779
817.255	0.0146606
817.333	0.0147881
817.412	0.0146978
817.490	0.0147772
817.568	0.0145869
817.646	0.0146089
817.724	0.0145673
817.802	0.0145931
817.880	0.0145100
817.958	0.0145786
818.037	0.0146442
818.115	0.0147205
818.193	0.0145712
818.271	0.0146560
818.349	0.0146071
818.427	0.0145393
818.505	0.0146426
818.583	0.0145885
818.662	0.0147581
818.740	0.0146712
818.818	0.0148221
818.896	0.0147646
818.974	0.0147037
819.052	0.0147958
819.130	0.0146520
819.208	0.0146230
819.287	0.0148580
819.365	0.0147921
819.443	0.0148172
819.521	0.0148278
819.599	0.0148633
819.677	0.0146671
819.755	0.0148291
819.833	0.0148112
819.912	0.0149369
819.990	0.0147522
820.068	0.0147677
820.146	0.0148652
820.224	0.0146792
820.302	0.0148431
820.380	0.0148708
820.458	0.0147276
820.537	0.0147897
820.615	0.0149203
820.693	0.0147573
820.771	0.0147377
820.849	0.0148509
820.927	0.0147034
821.005	0.0148956
821.083	0.0149418
821.162	0.0149256
821.240	0.0149009
821.318	0.0146996
821.396	0.0147854
821.474	0.0148053
821.552	0.0147191
821.630	0.0147726
821.708	0.0147839
821.787	0.0148241
821.865	0.0147671
821.943	0.0146219
822.021	0.0147683
822.099	0.0146902
822.177	0.0147716
822.255	0.0146718
822.333	0.0146618
822.412	0.0146398
822.490	0.0147461
822.568	0.0147208
822.646	0.0146082
822.724	0.0147018
822.802	0.0146656
822.880	0.0146848
822.958	0.0146292
823.037	0.0148830
823.115	0.0148447
823.193	0.0148811
823.271	0.0148656
823.349	0.0148013
823.427	0.0148781
823.505	0.0148261
823.583	0.0148203
823.662	0.0146356
823.740	0.0147858
823.818	0.0148780
823.896	0.0149098
823.974	0.0147682
824.052	0.0147253
824.130	0.0147387
824.208	0.0147786
824.287	0.0147977
824.365	0.0147576
824.443	0.0148010
824.521	0.0148437
824.599	0.0148491
824.677	0.0147194
824.755	0.0147322
824.833	0.0147950
824.912	0.0147217
824.990	0.0146484
825.068	0.0146855
825.146	0.0146047
825.224	0.0145743
825.302	0.0148000
825.380	0.0146983
825.458	0.0147310
825.537	0.0147042
825.615	0.0146145
825.693	0.0146882
825.771	0.0148226
825.849	0.0147805
825.927	0.0147428
826.005	0.0147988
826.083	0.0148194
826.162	0.0147952
826.240	0.0144920
826.318	0.0146685
826.396	0.0147758
826.474	0.0147719
826.552	0.0147462
826.630	0.0146901
826.708	0.0147150
826.787	0.0147923
826.865	0.0146385
826.943	0.0146829
827.021	0.0145615
827.099	0.0146227
827.177	0.0146869
827.255	0.0146645
827.333	0.0146088
827.412	0.0145792
827.490	0.0146239
827.568	0.0145079
827.646	0.0146416
827.724	0.0146867
827.802	0.0147997
827.880	0.0146442
827.958	0.0146466
828.037	0.0145590
828.115	0.0147993
828.193	0.0146680
828.271	0.0147042
828.349	0.0147292
828.427	0.0147974
828.505	0.0146987
828.583	0.0148455
828.662	0.0147367
828.740	0.0147569
828.818	0.0148310
828.896	0.0148843
828.974	0.0149806
829.052	0.0148689
829.130	0.0150172
829.208	0.0149503
829.287	0.0149678
829.365	0.0148270
829.443	0.0150050
829.521	0.0149787
829.599	0.0150928
829.677	0.0148118
829.755	0.0148842
829.833	0.0150738
829.912	0.0148177
829.990	0.0148639
830.068	0.0149030
830.146	0.0146876
830.224	0.0147214
830.302	0.0147118
830.380	0.0147333
830.458	0.0147425
830.537	0.0147193
830.615	0.0147566
830.693	0.0147569
830.771	0.0146861
830.849	0.0145941
830.927	0.0146117
831.005	0.0146101
831.083	0.0145190
831.162	0.0146188
831.240	0.0146062
831.318	0.0145753
831.396	0.0145540
831.474	0.0145467
831.552	0.0146439
831.630	0.0146059
831.708	0.0145112
831.787	0.0145322
831.865	0.0146201
831.943	0.0145293
832.021	0.0145969
832.099	0.0146757
832.177	0.0146324
832.255	0.0146175
832.333	0.0147162
832.412	0.0148884
832.490	0.0147169
832.568	0.0148057
832.646	0.0148048
832.724	0.0148367
832.802	0.0148740
832.880	0.0148489
832.958	0.0147736
833.037	0.0148990
833.115	0.0148681
833.193	0.0150219
833.271	0.0148761
833.349	0.0148756
833.427	0.0149294
833.505	0.0149480
833.583	0.0148087
833.662	0.0148438
833.740	0.0148409
833.818	0.0148326
833.896	0.0148194
833.974	0.0147994
834.052	0.0147816
834.130	0.0149434
834.208	0.0148086
834.287	0.0146412
834.365	0.0146262
834.443	0.0147495
834.521	0.0145823
834.599	0.0146474
834.677	0.0146614
834.755	0.0147261
834.833	0.0146103
834.912	0.0146544
834.990	0.0146489
835.068	0.0146597
835.146	0.0145666
835.224	0.0145811
835.302	0.0145837
835.380	0.0143911
835.458	0.0145992
835.537	0.0146288
835.615	0.0144435
835.693	0.0145652
835.771	0.0146543
835.849	0.0147510
835.927	0.0145059
836.005	0.0146632
836.083	0.0147076
836.162	0.0146594
836.240	0.0148325
836.318	0.0147241
836.396	0.0146871
836.474	0.0148834
836.552	0.0148102
836.630	0.0148759
836.708	0.0147205
836.787	0.0148045
836.865	0.0148298
836.943	0.0148896
837.021	0.0149080
837.099	0.0147869
837.177	0.0149007
837.255	0.0150386
837.333	0.0150616
837.412	0.0150381
837.490	0.0150285
837.568	0.0150639
837.646	0.0151596
837.724	0.0149227
837.802	0.0150012
837.880	0.0149705
837.958	0.0149421
838.037	0.0149347
838.115	0.0149362
838.193	0.0148871
838.271	0.0148371
838.349	0.0148259
838.427	0.0148370
838.505	0.0148521
838.583	0.0149025
838.662	0.0148292
838.740	0.0148675
838.818	0.0147442
838.896	0.0148802
838.974	0.0150030
839.052	0.0149143
839.130	0.0148278
839.208	0.0148521
839.287	0.0148589
839.365	0.0146975
839.443	0.0148003
839.521	0.0149462
839.599	0.0146816
839.677	0.0147082
839.755	0.0147425
839.833	0.0147076
839.912	0.0144872
839.990	0.0147082
840.068	0.0146616
840.146	0.0146593
840.224	0.0145200
840.302	0.0144830
840.380	0.0146566
840.458	0.0145228
840.537	0.0145008
840.615	0.0145451
840.693	0.0145693
840.771	0.0145026
840.849	0.0146751
840.927	0.0145694
841.005	0.0146513
841.083	0.0147292
841.162	0.0146204
841.240	0.0147420
841.318	0.0148003
841.396	0.0147448
841.474	0.0147860
841.552	0.0149461
841.630	0.0148242
841.708	0.0148657
841.787	0.0149489
841.865	0.0148111
841.943	0.0148080
842.021	0.0148397
842.099	0.0149633
842.177	0.0148807
842.255	0.0148819
842.333	0.0148957
842.412	0.0149641
842.490	0.0148746
842.568	0.0148685
842.646	0.0147881
842.724	0.0147726
842.802	0.0147882
842.880	0.0148369
842.958	0.0147287
843.037	0.0148528
843.115	0.0150014
843.193	0.0147960
843.271	0.0147421
843.349	0.0147453
843.427	0.0147663
843.505	0.0147948
843.583	0.0147613
843.662	0.0146645
843.740	0.0145264
843.818	0.0146526
843.896	0.0148210
843.974	0.0148511
844.052	0.0147440
844.130	0.0147372
844.208	0.0146836
844.287	0.0147906
844.365	0.0148004
844.443	0.0146046
844.521	0.0148426
844.599	0.0146907
844.677	0.0147197
844.755	0.0147092
844.833	0.0147018
844.912	0.0147188
844.990	0.0146510
845.068	0.0146954
845.146	0.0146680
845.224	0.0146909
845.302	0.0146503
845.380	0.0145442
845.458	0.0144317
845.537	0.0145112
845.615	0.0145249
845.693	0.0145990
845.771	0.0145009
845.849	0.0144367
845.927	0.0146525
846.005	0.0146230
846.083	0.0146481
846.162	0.0146052
846.240	0.0146879
846.318	0.0147652
846.396	0.0146757
846.474	0.0148429
846.552	0.0148515
846.630	0.0148187
846.708	0.0147552
846.787	0.0148535
846.865	0.0150014
846.943	0.0149323
847.021	0.0147927
847.099	0.0149986
847.177	0.0149764
847.255	0.0149764
847.333	0.0149027
847.412	0.0149123
847.490	0.0148788
847.568	0.0149894
847.646	0.0150592
847.724	0.0149721
847.802	0.0149564
847.880	0.0150581
847.958	0.0150884
848.037	0.0151704
848.115	0.0150861
848.193	0.0149623
848.271	0.0148787
848.349	0.0149103
848.427	0.0147617
848.505	0.0148856
848.583	0.0147756
848.662	0.0146318
848.740	0.0148747
848.818	0.0148250
848.896	0.0147966
848.974	0.0147538
849.052	0.0145542
849.130	0.0146998
849.208	0.0145930
849.287	0.0146316
849.365	0.0146365
849.443	0.0146854
849.521	0.0146182
849.599	0.0146487
849.677	0.0145519
849.755	0.0147591
849.833	0.0147176
849.912	0.0146843
849.990	0.0147987
850.068	0.0149455
850.146	0.0147723
850.224	0.0147468
850.302	0.0147507
850.380	0.0147618
850.458	0.0147485
850.537	0.0147715
850.615	0.0145980
850.693	0.0148849
850.771	0.0147514
850.849	0.0146033
850.927	0.0147602
851.005	0.0146436
851.083	0.0146133
851.162	0.0146607
851.240	0.0147229
851.318	0.0147478
851.396	0.0146673
851.474	0.0147981
851.552	0.0146884
851.630	0.0147907
851.708	0.0149669
851.787	0.0148215
851.865	0.0149586
851.943	0.0148164
852.021	0.0148673
852.099	0.0148802
852.177	0.0147346
852.255	0.0149754
852.333	0.0151020
852.412	0.0148930
852.490	0.0148779
852.568	0.0148190
852.646	0.0149596
852.724	0.0149141
852.802	0.0148236
852.880	0.0149334
852.958	0.0147617
853.037	0.0148522
853.115	0.0146708
853.193	0.0146494
853.271	0.0146012
853.349	0.0147585
853.427	0.0147030
853.505	0.0147546
853.583	0.0147006
853.662	0.0145983
853.740	0.0146242
853.818	0.0147152
853.896	0.0147385
853.974	0.0147467
854.052	0.0146592
854.130	0.0145729
854.208	0.0147495
854.287	0.0148544
854.365	0.0147358
854.443	0.0147607
854.521	0.0146797
854.599	0.0146932
854.677	0.0147948
854.755	0.0147621
854.833	0.0148678
854.912	0.0149350
854.990	0.0147861
855.068	0.0149170
855.146	0.0149063
855.224	0.0149023
855.302	0.0148949
855.380	0.0148945
855.458	0.0147617
855.537	0.0149114
855.615	0.0149325
855.693	0.0149173
855.771	0.0150373
855.849	0.0149798
855.927	0.0150159
856.005	0.0149855
856.083	0.0149561
856.162	0.0149543
856.240	0.0148508
856.318	0.0148891
856.396	0.0149093
856.474	0.0148283
856.552	0.0148901
856.630	0.0149243
856.708	0.0148286
856.787	0.0147376
856.865	0.0147894
856.943	0.0146862
857.021	0.0148427
857.099	0.0146368
857.177	0.0147534
857.255	0.0146902
857.333	0.0146370
857.412	0.0147565
857.490	0.0147978
857.568	0.0148241
857.646	0.0149059
857.724	0.0146445
857.802	0.0145953
857.880	0.0148027
857.958	0.0148154
858.037	0.0147211
858.115	0.0147509
858.193	0.0148827
858.271	0.0147781
858.349	0.0147935
858.427	0.0148405
858.505	0.0149023
858.583	0.0146748
858.662	0.0147302
858.740	0.0148626
858.818	0.0148641
858.896	0.0148804
858.974	0.0148578
859.052	0.0147945
859.130	0.0147237
859.208	0.0148779
859.287	0.0147386
859.365	0.0146896
859.443	0.0147906
859.521	0.0148162
859.599	0.0147916
859.677	0.0148680
859.755	0.0147894
859.833	0.0147266
859.912	0.0148966
859.990	0.0146945
860.068	0.0146449
860.146	0.0146403
860.224	0.0147990
860.302	0.0148492
860.380	0.0148458
860.458	0.0146764
860.537	0.0147207
860.615	0.0147716
860.693	0.0147601
860.771	0.0147234
860.849	0.0148186
860.927	0.0148506
861.005	0.0147404
861.083	0.0147942
861.162	0.0148300
861.240	0.0146983
861.318	0.0147630
861.396	0.0148295
861.474	0.0147585
861.552	0.0147701
861.630	0.0147823
861.708	0.0148314
861.787	0.0148393
861.865	0.0148502
861.943	0.0146677
862.021	0.0147403
862.099	0.0148663
862.177	0.0146411
862.255	0.0145998
862.333	0.0146545
862.412	0.0147002
862.490	0.0148476
862.568	0.0145545
862.646	0.0146565
862.724	0.0146671
862.802	0.0144563
862.880	0.0145410
862.958	0.0146568
863.037	0.0146973
863.115	0.0148257
863.193	0.0147078
863.271	0.0146809
863.349	0.0147810
863.427	0.0148235
863.505	0.0148747
863.583	0.0147955
863.662	0.0148293
863.740	0.0148621
863.818	0.0148620
863.896	0.0147926
863.974	0.0148304
864.052	0.0148479
864.130	0.0147646
864.208	0.0148487
864.287	0.0147774
864.365	0.0147777
864.443	0.0147662
864.521	0.0147488
864.599	0.0149067
864.677	0.0147248
864.755	0.0145576
864.833	0.0147426
864.912	0.0147115
864.990	0.0148563
865.068	0.0147132
865.146	0.0148449
865.224	0.0147652
865.302	0.0146717
865.380	0.0146019
865.458	0.0145834
865.537	0.0146324
865.615	0.0147003
865.693	0.0145576
865.771	0.0146009
865.849	0.0146235
865.927	0.0146198
866.005	0.0147381
866.083	0.0147871
866.162	0.0146701
866.240	0.0145468
866.318	0.0147552
866.396	0.0147511
866.474	0.0147253
866.552	0.0146460
866.630	0.0147237
866.708	0.0145887
866.787	0.0147894
866.865	0.0146976
866.943	0.0146483
867.021	0.0146802
867.099	0.0147983
867.177	0.0147795
867.255	0.0148439
867.333	0.0147798
867.412	0.0146650
867.490	0.0145985
867.568	0.0145710
867.646	0.0146478
867.724	0.0147650
867.802	0.0145032
867.880	0.0146192
867.958	0.0147794
868.037	0.0146672
868.115	0.0147052
868.193	0.0147421
868.271	0.0146627
868.349	0.0147166
868.427	0.0147028
868.505	0.0146838
868.583	0.0148067
868.662	0.0149186
868.740	0.0147451
868.818	0.0147327
868.896	0.0147447
868.974	0.0147215
869.052	0.0147801
869.130	0.0148869
869.208	0.0147930
869.287	0.0149109
869.365	0.0147743
869.443	0.0147656
869.521	0.0148058
869.599	0.0149344
869.677	0.0147388
869.755	0.0148207
869.833	0.0147054
869.912	0.0147165
869.990	0.0147099
870.068	0.0147706
870.146	0.0146590
870.224	0.0146787
870.302	0.0147097
870.380	0.0146727
870.458	0.0147115
870.537	0.0145821
870.615	0.0147101
870.693	0.0146452
870.771	0.0146485
870.849	0.0147184
870.927	0.0146357
871.005	0.0145591
871.083	0.0145962
871.162	0.0145155
871.240	0.0146004
871.318	0.0144750
871.396	0.0146241
871.474	0.0146463
871.552	0.0145809
871.630	0.0146497
871.708	0.0147031
871.787	0.0147679
871.865	0.0146668
871.943	0.0146595
872.021	0.0147350
872.099	0.0148328
872.177	0.0148264
872.255	0.0147905
872.333	0.0148203
872.412	0.0148884
872.490	0.0149806
872.568	0.0148598
872.646	0.0149236
872.724	0.0149085
872.802	0.0148740
872.880	0.0149475
872.958	0.0150591
873.037	0.0149134
873.115	0.0148577
873.193	0.0150058
873.271	0.0149486
873.349	0.0149269
873.427	0.0147360
873.505	0.0148922
873.583	0.0149604
873.662	0.0148639
873.740	0.0149157
873.818	0.0147799
873.896	0.0149984
873.974	0.0148335
874.052	0.0148573
874.130	0.0147066
874.208	0.0148974
874.287	0.0146449
874.365	0.0148027
874.443	0.0147582
874.521	0.0147953
874.599	0.0147491
874.677	0.0148405
874.755	0.0148914
874.833	0.0148211
874.912	0.0148418
874.990	0.0148610
875.068	0.0148980
875.146	0.0148840
875.224	0.0149106
875.302	0.0148312
875.380	0.0148389
875.458	0.0149072
875.537	0.0148325
875.615	0.0147957
875.693	0.0147487
875.771	0.0147030
875.849	0.0147906
875.927	0.0147104
876.005	0.0146341
876.083	0.0146602
876.162	0.0146279
876.240	0.0146799
876.318	0.0147777
876.396	0.0147088
876.474	0.0146973
876.552	0.0147088
876.630	0.0147816
876.708	0.0147543
876.787	0.0148172
876.865	0.0148041
876.943	0.0147800
877.021	0.0147955
877.099	0.0149084
877.177	0.0149146
877.255	0.0148382
877.333	0.0149366
877.412	0.0148574
877.490	0.0148474
877.568	0.0148198
877.646	0.0148337
877.724	0.0148018
877.802	0.0148618
877.880	0.0148066
877.958	0.0146814
878.037	0.0147176
878.115	0.0147087
878.193	0.0148740
878.271	0.0147237
878.349	0.0146816
878.427	0.0147498
878.505	0.0146606
878.583	0.0148367
878.662	0.0148399
878.740	0.0147388
878.818	0.0147223
878.896	0.0145784
878.974	0.0147181
879.052	0.0146548
879.130	0.0147340
879.208	0.0147178
879.287	0.0147597
879.365	0.0147907
879.443	0.0147475
879.521	0.0146835
879.599	0.0145937
879.677	0.0145648
879.755	0.0146468
879.833	0.0147040
879.912	0.0145551
879.990	0.0147401
880.068	0.0146702
880.146	0.0147901
880.224	0.0148085
880.302	0.0147647
880.380	0.0146973
880.458	0.0149313
880.537	0.0148669
880.615	0.0148796
880.693	0.0146377
880.771	0.0148203
880.849	0.0148139
880.927	0.0148806
881.005	0.0147856
881.083	0.0148575
881.162	0.0147849
881.240	0.0148362
881.318	0.0149583
881.396	0.0147855
881.474	0.0148305
881.552	0.0149149
881.630	0.0148497
881.708	0.0147950
881.787	0.0148100
881.865	0.0147379
881.943	0.0148952
882.021	0.0148357
882.099	0.0147478
882.177	0.0147104
882.255	0.0147895
882.333	0.0148417
882.412	0.0146664
882.490	0.0146866
882.568	0.0148214
882.646	0.0148907
882.724	0.0148185
882.802	0.0145868
882.880	0.0147393
882.958	0.0148027
883.037	0.0146679
883.115	0.0147861
883.193	0.0147141
883.271	0.0147388
883.349	0.0146252
883.427	0.0146542
883.505	0.0147063
883.583	0.0147371
883.662	0.0148022
883.740	0.0148294
883.818	0.0148225
883.896	0.0147427
883.974	0.0146679
884.052	0.0147789
884.130	0.0148008
884.208	0.0148129
884.287	0.0148441
884.365	0.0147260
884.443	0.0147218
884.521	0.0146387
884.599	0.0146033
884.677	0.0146602
884.755	0.0145927
884.833	0.0145342
884.912	0.0146050
884.990	0.0146809
885.068	0.0146367
885.146	0.0147030
885.224	0.0145323
885.302	0.0145477
885.380	0.0145562
885.458	0.0146065
885.537	0.0146482
885.615	0.0147881
885.693	0.0148011
885.771	0.0146967
885.849	0.0147886
885.927	0.0148712
886.005	0.0148988
886.083	0.0149976
886.162	0.0148777
886.240	0.0150165
886.318	0.0149595
886.396	0.0148585
886.474	0.0148043
886.552	0.0149079
886.630	0.0148370
886.708	0.0148302
886.787	0.0148905
886.865	0.0148703
886.943	0.0148143
887.021	0.0148300
887.099	0.0146465
887.177	0.0148154
887.255	0.0147360
887.333	0.0146785
887.412	0.0147388
887.490	0.0146363
887.568	0.0146133
887.646	0.0146752
887.724	0.0146349
887.802	0.0147879
887.880	0.0145228
887.958	0.0146170
888.037	0.0146383
888.115	0.0146684
888.193	0.0147365
888.271	0.0145721
888.349	0.0147133
888.427	0.0146801
888.505	0.0145505
888.583	0.0147134
888.662	0.0147227
888.740	0.0148340
888.818	0.0146861
888.896	0.0146245
888.974	0.0146452
889.052	0.0146026
889.130	0.0147745
889.208	0.0148573
889.287	0.0148573
889.365	0.0147758
889.443	0.0148644
889.521	0.0147423
889.599	0.0149519
889.677	0.0149538
889.755	0.0146968
889.833	0.0148086
889.912	0.0148569
889.990	0.0148737
890.068	0.0149188
890.146	0.0148113
890.224	0.0146231
890.302	0.0148867
890.380	0.0148262
890.458	0.0148591
890.537	0.0146986
890.615	0.0147481
890.693	0.0148159
890.771	0.0148191
890.849	0.0147999
890.927	0.0147898
891.005	0.0147900
891.083	0.0147747
891.162	0.0148387
891.240	0.0148849
891.318	0.0149023
891.396	0.0149083
891.474	0.0148312
891.552	0.0149722
891.630	0.0147890
891.708	0.0148569
891.787	0.0147594
891.865	0.0147020
891.943	0.0149453
892.021	0.0147424
892.099	0.0148286
892.177	0.0147361
892.255	0.0148689
892.333	0.0147940
892.412	0.0147086
892.490	0.0148219
892.568	0.0148141
892.646	0.0149177
892.724	0.0146899
892.802	0.0147475
892.880	0.0148676
892.958	0.0148775
893.037	0.0148553
893.115	0.0147257
893.193	0.0146865
893.271	0.0147352
893.349	0.0146642
893.427	0.0146738
893.505	0.0147241
893.583	0.0146365
893.662	0.0147723
893.740	0.0147083
893.818	0.0146558
893.896	0.0146129
893.974	0.0145705
894.052	0.0146830
894.130	0.0146735
894.208	0.0146386
894.287	0.0145277
894.365	0.0146993
894.443	0.0148059
894.521	0.0145394
894.599	0.0146866
894.677	0.0146198
894.755	0.0145195
894.833	0.0146716
894.912	0.0147875
894.990	0.0146963
895.068	0.0146852
895.146	0.0145084
895.224	0.0145859
895.302	0.0147494
895.380	0.0146848
895.458	0.0145873
895.537	0.0146582
895.615	0.0146597
895.693	0.0148353
895.771	0.0146877
895.849	0.0146521
895.927	0.0148333
896.005	0.0148722
896.083	0.0147237
896.162	0.0148107
896.240	0.0147220
896.318	0.0148238
896.396	0.0148012
896.474	0.0147604
896.552	0.0148263
896.630	0.0147158
896.708	0.0146142
896.787	0.0146744
896.865	0.0148031
896.943	0.0146518
897.021	0.0146730
897.099	0.0147292
897.177	0.0147452
897.255	0.0146777
897.333	0.0147155
897.412	0.0148419
897.490	0.0147793
897.568	0.0147082
897.646	0.0148380
897.724	0.0147221
897.802	0.0147388
897.880	0.0149076
897.958	0.0148566
898.037	0.0148039
898.115	0.0147663
898.193	0.0147948
898.271	0.0148002
898.349	0.0148134
898.427	0.0147573
898.505	0.0147584
898.583	0.0147428
898.662	0.0146133
898.740	0.0146163
898.818	0.0147009
898.896	0.0147073
898.974	0.0147003
899.052	0.0145928
899.130	0.0146442
899.208	0.0146242
899.287	0.0146186
899.365	0.0146659
899.443	0.0145913
899.521	0.0146820
899.599	0.0147583
899.677	0.0147582
899.755	0.0147290
899.833	0.0147284
899.912	0.0147340
899.990	0.0147884
900.068	0.0147179
900.146	0.0148052
900.224	0.0147115
900.302	0.0147999
900.380	0.0147013
900.458	0.0148069
900.537	0.0147099
900.615	0.0147781
900.693	0.0147642
900.771	0.0147541
900.849	0.0149209
900.927	0.0148170
901.005	0.0146389
901.083	0.0146877
901.162	0.0147694
901.240	0.0147942
901.318	0.0147377
901.396	0.0148321
901.474	0.0147564
901.552	0.0147726
901.630	0.0147514
901.708	0.0147068
901.787	0.0147079
901.865	0.0148545
901.943	0.0146637
902.021	0.0146102
902.099	0.0146338
902.177	0.0146771
902.255	0.0146139
902.333	0.0147198
902.412	0.0148152
902.490	0.0146257
902.568	0.0145884
902.646	0.0147035
902.724	0.0146861
902.802	0.0147021
902.880	0.0146776
902.958	0.0147213
903.037	0.0147202
903.115	0.0146899
903.193	0.0146378
903.271	0.0146328
903.349	0.0146407
903.427	0.0148969
903.505	0.0147968
903.583	0.0146481
903.662	0.0146651
903.740	0.0147585
903.818	0.0146635
903.896	0.0145206
903.974	0.0146899
904.052	0.0145042
904.130	0.0145846
904.208	0.0145715
904.287	0.0146326
904.365	0.0145361
904.443	0.0145907
904.521	0.0146775
904.599	0.0145684
904.677	0.0145670
904.755	0.0146341
904.833	0.0145916
904.912	0.0147060
904.990	0.0146027
905.068	0.0146965
905.146	0.0147923
905.224	0.0146123
905.302	0.0147025
905.380	0.0147588
905.458	0.0147549
905.537	0.0147692
905.615	0.0147562
905.693	0.0148236
905.771	0.0147691
905.849	0.0147254
905.927	0.0147504
906.005	0.0146910
906.083	0.0147974
906.162	0.0146390
906.240	0.0147416
906.318	0.0149538
906.396	0.0148323
906.474	0.0147202
906.552	0.0147581
906.630	0.0148051
906.708	0.0149228
906.787	0.0147777
906.865	0.0148949
906.943	0.0147639
907.021	0.0147559
907.099	0.0146046
907.177	0.0147607
907.255	0.0148428
907.333	0.0147701
907.412	0.0147303
907.490	0.0146262
907.568	0.0147823
907.646	0.0148022
907.724	0.0147188
907.802	0.0146175
907.880	0.0147541
907.958	0.0146745
908.037	0.0146585
908.115	0.0146577
908.193	0.0146365
908.271	0.0146419
908.349	0.0144383
908.427	0.0145811
908.505	0.0146078
908.583	0.0145753
908.662	0.0147898
908.740	0.0146515
908.818	0.0145908
908.896	0.0147343
908.974	0.0146419
909.052	0.0146234
909.130	0.0146790
909.208	0.0147999
909.287	0.0146158
909.365	0.0147648
909.443	0.0147619
909.521	0.0146890
909.599	0.0147925
909.677	0.0147833
909.755	0.0147625
909.833	0.0147106
909.912	0.0147609
909.990	0.0148130
910.068	0.0146809
910.146	0.0146974
910.224	0.0148163
910.302	0.0148382
910.380	0.0147362
910.458	0.0147407
910.537	0.0147321
910.615	0.0146828
910.693	0.0148267
910.771	0.0147214
910.849	0.0147469
910.927	0.0147387
911.005	0.0146852
911.083	0.0147044
911.162	0.0147378
911.240	0.0146732
911.318	0.0147725
911.396	0.0147844
911.474	0.0148537
911.552	0.0149001
911.630	0.0148494
911.708	0.0147472
911.787	0.0146120
911.865	0.0146623
911.943	0.0148277
912.021	0.0147614
912.099	0.0147542
912.177	0.0147253
912.255	0.0148828
912.333	0.0149068
912.412	0.0147884
912.490	0.0149073
912.568	0.0149590
912.646	0.0147449
912.724	0.0149406
912.802	0.0148829
912.880	0.0149458
912.958	0.0148508
913.037	0.0149606
913.115	0.0150630
913.193	0.0150722
913.271	0.0149327
913.349	0.0148757
913.427	0.0149196
913.505	0.0149625
913.583	0.0149678
913.662	0.0150297
913.740	0.0149367
913.818	0.0148501
913.896	0.0148865
913.974	0.0149677
914.052	0.0148309
914.130	0.0147724
914.208	0.0149278
914.287	0.0148466
914.365	0.0147343
914.443	0.0148331
914.521	0.0148316
914.599	0.0148012
914.677	0.0149352
914.755	0.0147659
914.833	0.0146804
914.912	0.0147029
914.990	0.0146872
915.068	0.0147133
915.146	0.0148032
915.224	0.0147900
915.302	0.0146186
915.380	0.0147255
915.458	0.0148416
915.537	0.0148326
915.615	0.0148480
915.693	0.0148397
915.771	0.0148064
915.849	0.0148171
915.927	0.0147904
916.005	0.0147856
916.083	0.0149055
916.162	0.0149198
916.240	0.0149317
916.318	0.0147980
916.396	0.0147033
916.474	0.0148239
916.552	0.0148936
916.630	0.0148380
916.708	0.0149170
916.787	0.0148518
916.865	0.0149090
916.943	0.0148940
917.021	0.0147977
917.099	0.0150208
917.177	0.0148833
917.255	0.0149056
917.333	0.0149615
917.412	0.0148872
917.490	0.0147216
917.568	0.0147092
917.646	0.0148219
917.724	0.0148196
917.802	0.0149159
917.880	0.0149008
917.958	0.0149263
918.037	0.0149310
918.115	0.0148167
918.193	0.0147069
918.271	0.0146885
918.349	0.0146357
918.427	0.0145539
918.505	0.0146823
918.583	0.0147567
918.662	0.0148470
918.740	0.0146299
918.818	0.0145840
918.896	0.0144910
918.974	0.0145997
919.052	0.0145322
919.130	0.0146394
919.208	0.0145798
919.287	0.0145906
919.365	0.0146616
919.443	0.0145776
919.521	0.0145035
919.599	0.0145935
919.677	0.0145862
919.755	0.0147075
919.833	0.0144497
919.912	0.0145939
919.990	0.0147311
920.068	0.0146891
920.146	0.0145518
920.224	0.0147777
920.302	0.0147055
920.380	0.0146730
920.458	0.0146722
920.537	0.0146678
920.615	0.0147758
920.693	0.0146456
920.771	0.0147536
920.849	0.0147772
920.927	0.0147206
921.005	0.0147468
921.083	0.0147724
921.162	0.0147150
921.240	0.0146363
921.318	0.0147257
921.396	0.0146991
921.474	0.0147301
921.552	0.0147704
921.630	0.0147056
921.708	0.0145156
921.787	0.0145741
921.865	0.0147952
921.943	0.0147037
922.021	0.0146281
922.099	0.0144260
922.177	0.0144839
922.255	0.0145193
922.333	0.0146078
922.412	0.0146073
922.490	0.0144083
922.568	0.0145834
922.646	0.0146534
922.724	0.0146538
922.802	0.0145495
922.880	0.0145677
922.958	0.0145696
923.037	0.0144965
923.115	0.0145293
923.193	0.0145564
923.271	0.0145908
923.349	0.0146700
923.427	0.0146677
923.505	0.0144798
923.583	0.0145451
923.662	0.0145075
923.740	0.0146761
923.818	0.0146920
923.896	0.0146030
923.974	0.0146717
924.052	0.0147398
924.130	0.0147063
924.208	0.0149219
924.287	0.0147446
924.365	0.0148119
924.443	0.0147979
924.521	0.0146934
924.599	0.0147531
924.677	0.0148582
924.755	0.0147694
924.833	0.0147232
924.912	0.0148026
924.990	0.0148074
925.068	0.0148006
925.146	0.0148382
925.224	0.0146220
925.302	0.0147321
925.380	0.0147023
925.458	0.0146386
925.537	0.0148035
925.615	0.0148277
925.693	0.0147536
925.771	0.0147422
925.849	0.0146995
925.927	0.0146959
926.005	0.0147583
926.083	0.0147771
926.162	0.0147165
926.240	0.0147718
926.318	0.0146467
926.396	0.0146075
926.474	0.0147170
926.552	0.0148723
926.630	0.0147123
926.708	0.0146915
926.787	0.0147809
926.865	0.0147753
926.943	0.0147546
927.021	0.0147265
927.099	0.0147309
927.177	0.0147299
927.255	0.0147036
927.333	0.0147190
927.412	0.0147705
927.490	0.0147948
927.568	0.0147723
927.646	0.0147150
927.724	0.0148267
927.802	0.0147137
927.880	0.0147747
927.958	0.0147848
928.037	0.0147823
928.115	0.0147484
928.193	0.0146512
928.271	0.0147502
928.349	0.0146555
928.427	0.0146597
928.505	0.0147082
928.583	0.0147353
928.662	0.0147848
928.740	0.0146559
928.818	0.0148735
928.896	0.0147280
928.974	0.0147007
929.052	0.0147508
929.130	0.0148436
929.208	0.0148727
929.287	0.0148598
929.365	0.0147982
929.443	0.0148380
929.521	0.0147198
929.599	0.0149120
929.677	0.0148523
929.755	0.0148591
929.833	0.0149387
929.912	0.0148617
929.990	0.0148193
930.068	0.0148527
930.146	0.0149672
930.224	0.0148215
930.302	0.0148450
930.380	0.0148322
930.458	0.0148899
930.537	0.0147308
930.615	0.0148080
930.693	0.0147483
930.771	0.0148246
930.849	0.0148326
930.927	0.0147293
931.005	0.0146062
931.083	0.0147715
931.162	0.0150063
931.240	0.0147174
931.318	0.0147186
931.396	0.0147724
931.474	0.0147324
931.552	0.0146976
931.630	0.0146778
931.708	0.0146949
931.787	0.0148535
931.865	0.0148038
931.943	0.0147692
932.021	0.0146835
932.099	0.0146510
932.177	0.0146546
932.255	0.0147400
932.333	0.0146014
932.412	0.0146133
932.490	0.0146833
932.568	0.0147673
932.646	0.0146925
932.724	0.0147546
932.802	0.0146758
932.880	0.0147095
932.958	0.0146275
933.037	0.0148714
933.115	0.0146799
933.193	0.0146207
933.271	0.0147615
933.349	0.0147668
933.427	0.0147560
933.505	0.0148005
933.583	0.0149210
933.662	0.0148607
933.740	0.0147983
933.818	0.0149099
933.896	0.0148628
933.974	0.0149515
934.052	0.0147876
934.130	0.0148599
934.208	0.0147883
934.287	0.0149086
934.365	0.0146650
934.443	0.0148860
934.521	0.0148573
934.599	0.0146872
934.677	0.0147243
934.755	0.0147210
934.833	0.0147826
934.912	0.0148290
934.990	0.0146654
935.068	0.0146720
935.146	0.0147455
935.224	0.0148026
935.302	0.0148154
935.380	0.0148184
935.458	0.0147965
935.537	0.0148704
935.615	0.0148389
935.693	0.0149294
935.771	0.0148254
935.849	0.0148512
935.927	0.0149220
936.005	0.0150550
936.083	0.0148754
936.162	0.0147154
936.240	0.0149482
936.318	0.0147108
936.396	0.0147614
936.474	0.0150664
936.552	0.0147515
936.630	0.0148545
936.708	0.0147224
936.787	0.0148122
936.865	0.0148896
936.943	0.0148178
937.021	0.0148417
937.099	0.0148792
937.177	0.0147461
937.255	0.0149039
937.333	0.0149326
937.412	0.0149187
937.490	0.0149313
937.568	0.0148936
937.646	0.0147510
937.724	0.0147898
937.802	0.0150329
937.880	0.0149609
937.958	0.0148225
938.037	0.0149075
938.115	0.0148768
938.193	0.0148727
938.271	0.0149609
938.349	0.0148127
938.427	0.0148259
938.505	0.0149154
938.583	0.0148327
938.662	0.0147596
938.740	0.0148784
938.818	0.0147767
938.896	0.0148509
938.974	0.0148734
939.052	0.0149043
939.130	0.0147719
939.208	0.0147041
939.287	0.0148912
939.365	0.0148228
939.443	0.0148650
939.521	0.0148676
939.599	0.0150555
939.677	0.0147682
939.755	0.0147301
939.833	0.0149189
939.912	0.0148167
939.990	0.0149226
940.068	0.0148985
940.146	0.0147373
940.224	0.0147776
940.302	0.0148837
940.380	0.0148048
940.458	0.0147368
940.537	0.0147725
940.615	0.0147247
940.693	0.0148008
940.771	0.0148606
940.849	0.0149043
940.927	0.0146587
941.005	0.0147337
941.083	0.0147908
941.162	0.0146996
941.240	0.0147841
941.318	0.0147562
941.396	0.0148688
941.474	0.0147985
941.552	0.0146425
941.630	0.0148569
941.708	0.0147918
941.787	0.0147926
941.865	0.0148145
941.943	0.0146778
942.021	0.0148991
942.099	0.0148016
942.177	0.0147205
942.255	0.0147868
942.333	0.0147877
942.412	0.0147155
942.490	0.0148560
942.568	0.0146883
942.646	0.0147498
942.724	0.0148689
942.802	0.0147105
942.880	0.0147046
942.958	0.0147488
943.037	0.0148585
943.115	0.0147340
943.193	0.0147652
943.271	0.0148498
943.349	0.0146310
943.427	0.0146860
943.505	0.0147878
943.583	0.0147871
943.662	0.0147171
943.740	0.0148479
943.818	0.0147414
943.896	0.0146491
943.974	0.0147163
944.052	0.0146651
944.130	0.0148025
944.208	0.0148138
944.287	0.0147163
944.365	0.0146809
944.443	0.0147858
944.521	0.0146220
944.599	0.0145227
944.677	0.0147380
944.755	0.0147454
944.833	0.0146655
944.912	0.0145638
944.990	0.0146791
945.068	0.0147830
945.146	0.0147615
945.224	0.0147050
945.302	0.0146931
945.380	0.0148170
945.458	0.0145511
945.537	0.0146931
945.615	0.0147560
945.693	0.0146649
945.771	0.0147694
945.849	0.0148481
945.927	0.0147667
946.005	0.0146671
946.083	0.0146797
946.162	0.0147758
946.240	0.0147550
946.318	0.0148009
946.396	0.0147371
946.474	0.0148720
946.552	0.0147841
946.630	0.0148804
946.708	0.0148875
946.787	0.0149936
946.865	0.0148989
946.943	0.0148249
947.021	0.0147890
947.099	0.0148447
947.177	0.0147372
947.255	0.0147673
947.333	0.0148085
947.412	0.0148561
947.490	0.0146942
947.568	0.0147664
947.646	0.0147574
947.724	0.0148835
947.802	0.0148279
947.880	0.0148370
947.958	0.0149328
948.037	0.0148225
948.115	0.0148099
948.193	0.0148086
948.271	0.0147721
948.349	0.0148163
948.427	0.0148352
948.505	0.0148942
948.583	0.0148574
948.662	0.0147449
948.740	0.0147077
948.818	0.0146748
948.896	0.0147710
948.974	0.0148595
949.052	0.0146610
949.130	0.0148252
949.208	0.0147803
949.287	0.0147980
949.365	0.0147176
949.443	0.0147147
949.521	0.0148553
949.599	0.0147459
949.677	0.0147901
949.755	0.0148863
949.833	0.0147336
949.912	0.0147392
949.990	0.0149206
950.068	0.0147209
950.146	0.0148373
950.224	0.0148396
950.302	0.0148613
950.380	0.0148255
950.458	0.0148408
950.537	0.0148952
950.615	0.0147926
950.693	0.0148541
950.771	0.0147357
950.849	0.0148128
950.927	0.0148249
951.005	0.0147292
951.083	0.0147897
951.162	0.0147572
951.240	0.0148738
951.318	0.0147489
951.396	0.0147157
951.474	0.0147719
951.552	0.0146799
951.630	0.0147964
951.708	0.0147312
951.787	0.0147566
951.865	0.0147780
951.943	0.0147774
952.021	0.0148751
952.099	0.0147726
952.177	0.0147601
952.255	0.0147097
952.333	0.0147906
952.412	0.0147689
952.490	0.0146439
952.568	0.0147331
952.646	0.0146262
952.724	0.0147211
952.802	0.0148068
952.880	0.0147263
952.958	0.0146269
953.037	0.0146500
953.115	0.0146900
953.193	0.0146284
953.271	0.0145905
953.349	0.0147023
953.427	0.0147591
953.505	0.0147362
953.583	0.0146617
953.662	0.0145984
953.740	0.0145155
953.818	0.0147279
953.896	0.0146790
953.974	0.0147112
954.052	0.0146989
954.130	0.0149113
954.208	0.0148315
954.287	0.0147890
954.365	0.0147810
954.443	0.0148467
954.521	0.0148219
954.599	0.0147886
954.677	0.0146736
954.755	0.0149435
954.833	0.0149674
954.912	0.0149320
954.990	0.0147408
955.068	0.0147699
955.146	0.0148586
955.224	0.0147457
955.302	0.0148930
955.380	0.0146650
955.458	0.0147143
955.537	0.0148284
955.615	0.0147226
955.693	0.0147574
955.771	0.0148180
955.849	0.0148191
955.927	0.0147528
956.005	0.0147361
956.083	0.0148076
956.162	0.0147807
956.240	0.0147118
956.318	0.0147000
956.396	0.0147409
956.474	0.0148447
956.552	0.0147549
956.630	0.0147712
956.708	0.0147182
956.787	0.0147922
956.865	0.0148586
956.943	0.0147930
957.021	0.0147526
957.099	0.0148077
957.177	0.0147576
957.255	0.0148141
957.333	0.0148647
957.412	0.0147517
957.490	0.0148634
957.568	0.0147933
957.646	0.0148783
957.724	0.0148009
957.802	0.0148524
957.880	0.0149225
957.958	0.0148119
958.037	0.0148307
958.115	0.0147636
958.193	0.0148365
958.271	0.0150034
958.349	0.0150121
958.427	0.0149561
958.505	0.0148948
958.583	0.0148251
958.662	0.0148207
958.740	0.0148454
958.818	0.0147720
958.896	0.0148394
958.974	0.0150039
959.052	0.0147939
959.130	0.0147739
959.208	0.0148565
959.287	0.0149518
959.365	0.0148624
959.443	0.0148641
959.521	0.0148957
959.599	0.0148581
959.677	0.0147688
959.755	0.0149555
959.833	0.0149752
959.912	0.0149218
959.990	0.0150714
960.068	0.0149132
960.146	0.0148107
960.224	0.0146810
960.302	0.0147679
960.380	0.0147027
960.458	0.0145342
960.537	0.0145853
960.615	0.0146558
960.693	0.0148109
960.771	0.0148846
960.849	0.0148280
960.927	0.0150639
961.005	0.0151299
961.083	0.0151616
961.162	0.0151319
961.240	0.0150857
961.318	0.0150201
961.396	0.0149442
961.474	0.0149165
961.552	0.0146744
961.630	0.0146504
961.708	0.0145239
961.787	0.0144476
961.865	0.0145638
961.943	0.0144210
962.021	0.0144937
962.099	0.0145766
962.177	0.0147016
962.255	0.0148510
962.333	0.0150001
962.412	0.0151263
962.490	0.0151318
962.568	0.0151649
962.646	0.0152291
962.724	0.0152694
962.802	0.0152635
962.880	0.0150544
962.958	0.0152053
963.037	0.0148904
963.115	0.0146946
963.193	0.0146616
963.271	0.0144256
963.349	0.0144181
963.427	0.0143444
963.505	0.0141270
963.583	0.0142988
963.662	0.0142961
963.740	0.0142065
963.818	0.0145486
963.896	0.0145749
963.974	0.0148232
964.052	0.0150175
964.130	0.0152382
964.208	0.0152190
964.287	0.0152981
964.365	0.0154066
964.443	0.0154482
964.521	0.0152839
964.599	0.0152886
964.677	0.0149791
964.755	0.0147943
964.833	0.0147679
964.912	0.0146159
964.990	0.0144296
965.068	0.0144025
965.146	0.0143265
965.224	0.0141729
965.302	0.0141765
965.380	0.0142789
965.458	0.0143931
965.537	0.0143235
965.615	0.0145183
965.693	0.0147275
965.771	0.0148089
965.849	0.0149835
965.927	0.0149039
966.005	0.0149348
966.083	0.0151261
966.162	0.0151615
966.240	0.0151006
966.318	0.0151125
966.396	0.0151326
966.474	0.0151015
966.552	0.0150715
966.630	0.0148954
966.708	0.0149216
966.787	0.0148599
966.865	0.0147222
966.943	0.0146944
967.021	0.0145689
967.099	0.0146121
967.177	0.0145545
967.255	0.0145008
967.333	0.0144818
967.412	0.0145345
967.490	0.0146205
967.568	0.0146352
967.646	0.0145794
967.724	0.0147044
967.802	0.0146706
967.880	0.0147260
967.958	0.0148014
968.037	0.0148537
968.115	0.0147948
968.193	0.0148604
968.271	0.0149115
968.349	0.0149419
968.427	0.0148241
968.505	0.0150089
968.583	0.0151704
968.662	0.0148646
968.740	0.0147652
968.818	0.0149371
968.896	0.0149313
968.974	0.0146860
969.052	0.0147398
969.130	0.0146410
969.208	0.0145337
969.287	0.0146411
969.365	0.0147846
969.443	0.0145973
969.521	0.0145032
969.599	0.0146792
969.677	0.0145966
969.755	0.0146199
969.833	0.0145932
969.912	0.0145558
