05/08/2022	19:55:51	Ver.	4.1	UNKNOWN
Optical Delay	649.989667	Delta X		0.078125	Sweeps	1	Scan Rate	0/0
Coordinates	Axis 1	NaN	Axis 2	NaN	Axis 3	NaN	Axis 4	NaN	Axis 5	NaN	Axis 6	0.000000
TX Power	0.000000	RX Power	0.000000

649.990	0.0131585
650.068	0.0131179
650.146	0.0131524
650.224	0.0130743
650.302	0.0133022
650.380	0.0131273
650.458	0.0130492
650.537	0.0130322
650.615	0.0131940
650.693	0.0131408
650.771	0.0130630
650.849	0.0130818
650.927	0.0131249
651.005	0.0130228
651.083	0.0130746
651.162	0.0131398
651.240	0.0130076
651.318	0.0130453
651.396	0.0130015
651.474	0.0131079
651.552	0.0130308
651.630	0.0131122
651.708	0.0129858
651.787	0.0132016
651.865	0.0130795
651.943	0.0130766
652.021	0.0131075
652.099	0.0131866
652.177	0.0131927
652.255	0.0130984
652.333	0.0130401
652.412	0.0130887
652.490	0.0131618
652.568	0.0131841
652.646	0.0131281
652.724	0.0131056
652.802	0.0131818
652.880	0.0132143
652.958	0.0131763
653.037	0.0131414
653.115	0.0131745
653.193	0.0131390
653.271	0.0131334
653.349	0.0131693
653.427	0.0130516
653.505	0.0132194
653.583	0.0131815
653.662	0.0132040
653.740	0.0131213
653.818	0.0131337
653.896	0.0132174
653.974	0.0132447
654.052	0.0132073
654.130	0.0131210
654.208	0.0130434
654.287	0.0132077
654.365	0.0131895
654.443	0.0131829
654.521	0.0131525
654.599	0.0129601
654.677	0.0131441
654.755	0.0130915
654.833	0.0131873
654.912	0.0130089
654.990	0.0130349
655.068	0.0130720
655.146	0.0131139
655.224	0.0132067
655.302	0.0131603
655.380	0.0133012
655.458	0.0132729
655.537	0.0131364
655.615	0.0131575
655.693	0.0131540
655.771	0.0133123
655.849	0.0132621
655.927	0.0130875
656.005	0.0132185
656.083	0.0134544
656.162	0.0133813
656.240	0.0131496
656.318	0.0133164
656.396	0.0133289
656.474	0.0132977
656.552	0.0132240
656.630	0.0132685
656.708	0.0131004
656.787	0.0131036
656.865	0.0129643
656.943	0.0130030
657.021	0.0128221
657.099	0.0129424
657.177	0.0130009
657.255	0.0129423
657.333	0.0127760
657.412	0.0128044
657.490	0.0129555
657.568	0.0129244
657.646	0.0129388
657.724	0.0129932
657.802	0.0131953
657.880	0.0131250
657.958	0.0131270
658.037	0.0131488
658.115	0.0132925
658.193	0.0132773
658.271	0.0134186
658.349	0.0137764
658.427	0.0136897
658.505	0.0136160
658.583	0.0135320
658.662	0.0136983
658.740	0.0136144
658.818	0.0135941
658.896	0.0137000
658.974	0.0135828
659.052	0.0134811
659.130	0.0133733
659.208	0.0132980
659.287	0.0131182
659.365	0.0131490
659.443	0.0129699
659.521	0.0129469
659.599	0.0128093
659.677	0.0125942
659.755	0.0125783
659.833	0.0124120
659.912	0.0123233
659.990	0.0123270
660.068	0.0122724
660.146	0.0121252
660.224	0.0120502
660.302	0.0121454
660.380	0.0122133
660.458	0.0123972
660.537	0.0124554
660.615	0.0127765
660.693	0.0128745
660.771	0.0132968
660.849	0.0136671
660.927	0.0139989
661.005	0.0141491
661.083	0.0144055
661.162	0.0146667
661.240	0.0148071
661.318	0.0148353
661.396	0.0148460
661.474	0.0147636
661.552	0.0147072
661.630	0.0145742
661.708	0.0143059
661.787	0.0142191
661.865	0.0139297
661.943	0.0137196
662.021	0.0133806
662.099	0.0133109
662.177	0.0129637
662.255	0.0127866
662.333	0.0125599
662.412	0.0122009
662.490	0.0121053
662.568	0.0118393
662.646	0.0116271
662.724	0.0112780
662.802	0.0110897
662.880	0.0109993
662.958	0.0108598
663.037	0.0107831
663.115	0.0108279
663.193	0.0110265
663.271	0.0110539
663.349	0.0115388
663.427	0.0117805
663.505	0.0120635
663.583	0.0126903
663.662	0.0130382
663.740	0.0136298
663.818	0.0141186
663.896	0.0144614
663.974	0.0149075
664.052	0.0152504
664.130	0.0155547
664.208	0.0157481
664.287	0.0160659
664.365	0.0162772
664.443	0.0163366
664.521	0.0164072
664.599	0.0162272
664.677	0.0160960
664.755	0.0160602
664.833	0.0156242
664.912	0.0152042
664.990	0.0147080
665.068	0.0141473
665.146	0.0134778
665.224	0.0129948
665.302	0.0122200
665.380	0.0115643
665.458	0.0108872
665.537	0.0102371
665.615	0.0100822
665.693	0.00951485
665.771	0.00958641
665.849	0.00947357
665.927	0.00943382
666.005	0.00963425
666.083	0.0100123
666.162	0.0103917
666.240	0.0108305
666.318	0.0112718
666.396	0.0117853
666.474	0.0120221
666.552	0.0127314
666.630	0.0131400
666.708	0.0136284
666.787	0.0140523
666.865	0.0144887
666.943	0.0147684
667.021	0.0153088
667.099	0.0154738
667.177	0.0156175
667.255	0.0155620
667.333	0.0157413
667.412	0.0157121
667.490	0.0157379
667.568	0.0154720
667.646	0.0150863
667.724	0.0149239
667.802	0.0144744
667.880	0.0141295
667.958	0.0139464
668.037	0.0136959
668.115	0.0134821
668.193	0.0134286
668.271	0.0131761
668.349	0.0129273
668.427	0.0128551
668.505	0.0127927
668.583	0.0126173
668.662	0.0126397
668.740	0.0123436
668.818	0.0121977
668.896	0.0120611
668.974	0.0118774
669.052	0.0119387
669.130	0.0118578
669.208	0.0119614
669.287	0.0118192
669.365	0.0120548
669.443	0.0121326
669.521	0.0122734
669.599	0.0123304
669.677	0.0125254
669.755	0.0127475
669.833	0.0128313
669.912	0.0131078
669.990	0.0130935
670.068	0.0131898
670.146	0.0133800
670.224	0.0132036
670.302	0.0131584
670.380	0.0131713
670.458	0.0132800
670.537	0.0133402
670.615	0.0132156
670.693	0.0133781
670.771	0.0134471
670.849	0.0135658
670.927	0.0136555
671.005	0.0134534
671.083	0.0135703
671.162	0.0134518
671.240	0.0133266
671.318	0.0133103
671.396	0.0131659
671.474	0.0131329
671.552	0.0127843
671.630	0.0126265
671.708	0.0125652
671.787	0.0126167
671.865	0.0128213
671.943	0.0127785
672.021	0.0130691
672.099	0.0132137
672.177	0.0133571
672.255	0.0137102
672.333	0.0138979
672.412	0.0141682
672.490	0.0140939
672.568	0.0142445
672.646	0.0143909
672.724	0.0142850
672.802	0.0142134
672.880	0.0142692
672.958	0.0141679
673.037	0.0138406
673.115	0.0135355
673.193	0.0134812
673.271	0.0132272
673.349	0.0130732
673.427	0.0128448
673.505	0.0126328
673.583	0.0126148
673.662	0.0124510
673.740	0.0124141
673.818	0.0123528
673.896	0.0121693
673.974	0.0121182
674.052	0.0122835
674.130	0.0123343
674.208	0.0122416
674.287	0.0122192
674.365	0.0124448
674.443	0.0123763
674.521	0.0124594
674.599	0.0125975
674.677	0.0126374
674.755	0.0129581
674.833	0.0131834
674.912	0.0132964
674.990	0.0135962
675.068	0.0137330
675.146	0.0138162
675.224	0.0141135
675.302	0.0144071
675.380	0.0142790
675.458	0.0143748
675.537	0.0143472
675.615	0.0142981
675.693	0.0140002
675.771	0.0139203
675.849	0.0138103
675.927	0.0132793
676.005	0.0130017
676.083	0.0125113
676.162	0.0123030
676.240	0.0117580
676.318	0.0114568
676.396	0.0113564
676.474	0.0112397
676.552	0.0111845
676.630	0.0111557
676.708	0.0112093
676.787	0.0114351
676.865	0.0117961
676.943	0.0120420
677.021	0.0124532
677.099	0.0128712
677.177	0.0132818
677.255	0.0137537
677.333	0.0142049
677.412	0.0147060
677.490	0.0150367
677.568	0.0154079
677.646	0.0154775
677.724	0.0156233
677.802	0.0158301
677.880	0.0159110
677.958	0.0158713
678.037	0.0156998
678.115	0.0154992
678.193	0.0154431
678.271	0.0151996
678.349	0.0149476
678.427	0.0148575
678.505	0.0145531
678.583	0.0142943
678.662	0.0141109
678.740	0.0137968
678.818	0.0134514
678.896	0.0130654
678.974	0.0125889
679.052	0.0122169
679.130	0.0117481
679.208	0.0113862
679.287	0.0108087
679.365	0.0104417
679.443	0.0102222
679.521	0.00989517
679.599	0.00955353
679.677	0.00939369
679.755	0.00949501
679.833	0.00964806
679.912	0.00978683
679.990	0.00988144
680.068	0.0102970
680.146	0.0107782
680.224	0.0112872
680.302	0.0118116
680.380	0.0122296
680.458	0.0127637
680.537	0.0132493
680.615	0.0138290
680.693	0.0141246
680.771	0.0144096
680.849	0.0146937
680.927	0.0149010
681.005	0.0151702
681.083	0.0153600
681.162	0.0153957
681.240	0.0155230
681.318	0.0157219
681.396	0.0158169
681.474	0.0157802
681.552	0.0157795
681.630	0.0158296
681.708	0.0157964
681.787	0.0156799
681.865	0.0155617
681.943	0.0153967
682.021	0.0152007
682.099	0.0150596
682.177	0.0148226
682.255	0.0145481
682.333	0.0139188
682.412	0.0137064
682.490	0.0132018
682.568	0.0127837
682.646	0.0124165
682.724	0.0120750
682.802	0.0117799
682.880	0.0114204
682.958	0.0111751
683.037	0.0109572
683.115	0.0108633
683.193	0.0109307
683.271	0.0110784
683.349	0.0111418
683.427	0.0114909
683.505	0.0118195
683.583	0.0120432
683.662	0.0125708
683.740	0.0129202
683.818	0.0133601
683.896	0.0137558
683.974	0.0141554
684.052	0.0144048
684.130	0.0146077
684.208	0.0145591
684.287	0.0144598
684.365	0.0143432
684.443	0.0141633
684.521	0.0137891
684.599	0.0133214
684.677	0.0129807
684.755	0.0125008
684.833	0.0121578
684.912	0.0119820
684.990	0.0115304
685.068	0.0115018
685.146	0.0113720
685.224	0.0112537
685.302	0.0114297
685.380	0.0116132
685.458	0.0116171
685.537	0.0119254
685.615	0.0121246
685.693	0.0124200
685.771	0.0126801
685.849	0.0129089
685.927	0.0131423
686.005	0.0134025
686.083	0.0135955
686.162	0.0138448
686.240	0.0138534
686.318	0.0140022
686.396	0.0140974
686.474	0.0141935
686.552	0.0142779
686.630	0.0142776
686.708	0.0143421
686.787	0.0144012
686.865	0.0145543
686.943	0.0145019
687.021	0.0144257
687.099	0.0145668
687.177	0.0147176
687.255	0.0147883
687.333	0.0147960
687.412	0.0147498
687.490	0.0148002
687.568	0.0147833
687.646	0.0145184
687.724	0.0144720
687.802	0.0143777
687.880	0.0141152
687.958	0.0139554
688.037	0.0134969
688.115	0.0132787
688.193	0.0130937
688.271	0.0127547
688.349	0.0124902
688.427	0.0122189
688.505	0.0120505
688.583	0.0119135
688.662	0.0116453
688.740	0.0116537
688.818	0.0116116
688.896	0.0115132
688.974	0.0116334
689.052	0.0118995
689.130	0.0118975
689.208	0.0120668
689.287	0.0124053
689.365	0.0125267
689.443	0.0125374
689.521	0.0125732
689.599	0.0126103
689.677	0.0123991
689.755	0.0122586
689.833	0.0122684
689.912	0.0120666
689.990	0.0119536
690.068	0.0118880
690.146	0.0118306
690.224	0.0121209
690.302	0.0122038
690.380	0.0123460
690.458	0.0127280
690.537	0.0132022
690.615	0.0134873
690.693	0.0138596
690.771	0.0140989
690.849	0.0145015
690.927	0.0145833
691.005	0.0145899
691.083	0.0147021
691.162	0.0145913
691.240	0.0144117
691.318	0.0139999
691.396	0.0139490
691.474	0.0136263
691.552	0.0134006
691.630	0.0131485
691.708	0.0131718
691.787	0.0129575
691.865	0.0127335
691.943	0.0128902
692.021	0.0129659
692.099	0.0130306
692.177	0.0131385
692.255	0.0132230
692.333	0.0130608
692.412	0.0131491
692.490	0.0133558
692.568	0.0134415
692.646	0.0133564
692.724	0.0135183
692.802	0.0135877
692.880	0.0137178
692.958	0.0140092
693.037	0.0139391
693.115	0.0140780
693.193	0.0142098
693.271	0.0142253
693.349	0.0144302
693.427	0.0144321
693.505	0.0143641
693.583	0.0142038
693.662	0.0141016
693.740	0.0138510
693.818	0.0136276
693.896	0.0133530
693.974	0.0131569
694.052	0.0130365
694.130	0.0128041
694.208	0.0125398
694.287	0.0124117
694.365	0.0122115
694.443	0.0121677
694.521	0.0121658
694.599	0.0119003
694.677	0.0119673
694.755	0.0120681
694.833	0.0120023
694.912	0.0121162
694.990	0.0122590
695.068	0.0122501
695.146	0.0122650
695.224	0.0123399
695.302	0.0124355
695.380	0.0127278
695.458	0.0128439
695.537	0.0130619
695.615	0.0132650
695.693	0.0136440
695.771	0.0135977
695.849	0.0136994
695.927	0.0136666
696.005	0.0136271
696.083	0.0135050
696.162	0.0135684
696.240	0.0133224
696.318	0.0130003
696.396	0.0125591
696.474	0.0123512
696.552	0.0122465
696.630	0.0120171
696.708	0.0119991
696.787	0.0119087
696.865	0.0118255
696.943	0.0118851
697.021	0.0119309
697.099	0.0118344
697.177	0.0119501
697.255	0.0121406
697.333	0.0121064
697.412	0.0122456
697.490	0.0124296
697.568	0.0122957
697.646	0.0125410
697.724	0.0127809
697.802	0.0130492
697.880	0.0133662
697.958	0.0136155
698.037	0.0137767
698.115	0.0139913
698.193	0.0144371
698.271	0.0147153
698.349	0.0147806
698.427	0.0150646
698.505	0.0152145
698.583	0.0151027
698.662	0.0152272
698.740	0.0152422
698.818	0.0152232
698.896	0.0152887
698.974	0.0152632
699.052	0.0151933
699.130	0.0151002
699.208	0.0150938
699.287	0.0149004
699.365	0.0149212
699.443	0.0149240
699.521	0.0149384
699.599	0.0147882
699.677	0.0144859
699.755	0.0144799
699.833	0.0142213
699.912	0.0138385
699.990	0.0135764
700.068	0.0130971
700.146	0.0123840
700.224	0.0119402
700.302	0.0112850
700.380	0.0108439
700.458	0.0103799
700.537	0.0100897
700.615	0.00985313
700.693	0.00967033
700.771	0.00965996
700.849	0.00970795
700.927	0.00976234
701.005	0.0101605
701.083	0.0105128
701.162	0.0108212
701.240	0.0111602
701.318	0.0116124
701.396	0.0120377
701.474	0.0122706
701.552	0.0125014
701.630	0.0127027
701.708	0.0129542
701.787	0.0130494
701.865	0.0130387
701.943	0.0131564
702.021	0.0131207
702.099	0.0132348
702.177	0.0133538
702.255	0.0133327
702.333	0.0134096
702.412	0.0135851
702.490	0.0136917
702.568	0.0138504
702.646	0.0140565
702.724	0.0141643
702.802	0.0141722
702.880	0.0143400
702.958	0.0144760
703.037	0.0145532
703.115	0.0146404
703.193	0.0147160
703.271	0.0145390
703.349	0.0145851
703.427	0.0145105
703.505	0.0143435
703.583	0.0141991
703.662	0.0139373
703.740	0.0136888
703.818	0.0135960
703.896	0.0135384
703.974	0.0134020
704.052	0.0134134
704.130	0.0133610
704.208	0.0134869
704.287	0.0138173
704.365	0.0139291
704.443	0.0143166
704.521	0.0144849
704.599	0.0147783
704.677	0.0150985
704.755	0.0151876
704.833	0.0153859
704.912	0.0153755
704.990	0.0153363
705.068	0.0151699
705.146	0.0149368
705.224	0.0146416
705.302	0.0141280
705.380	0.0137405
705.458	0.0133570
705.537	0.0130086
705.615	0.0125540
705.693	0.0121413
705.771	0.0118703
705.849	0.0115427
705.927	0.0114195
706.005	0.0110776
706.083	0.0108537
706.162	0.0106619
706.240	0.0107561
706.318	0.0105901
706.396	0.0105121
706.474	0.0106902
706.552	0.0106898
706.630	0.0106915
706.708	0.0107136
706.787	0.0108729
706.865	0.0108432
706.943	0.0112937
707.021	0.0113339
707.099	0.0114043
707.177	0.0115796
707.255	0.0117574
707.333	0.0117478
707.412	0.0119083
707.490	0.0120773
707.568	0.0121886
707.646	0.0123264
707.724	0.0124639
707.802	0.0129008
707.880	0.0131293
707.958	0.0133723
708.037	0.0137980
708.115	0.0142317
708.193	0.0146333
708.271	0.0149595
708.349	0.0154030
708.427	0.0155421
708.505	0.0159075
708.583	0.0161462
708.662	0.0162923
708.740	0.0160783
708.818	0.0162724
708.896	0.0161828
708.974	0.0161073
709.052	0.0160291
709.130	0.0158592
709.208	0.0155663
709.287	0.0152428
709.365	0.0148529
709.443	0.0146373
709.521	0.0142123
709.599	0.0138377
709.677	0.0133739
709.755	0.0130900
709.833	0.0128644
709.912	0.0124660
709.990	0.0121146
710.068	0.0121456
710.146	0.0118325
710.224	0.0116847
710.302	0.0118639
710.380	0.0118721
710.458	0.0119779
710.537	0.0121944
710.615	0.0122220
710.693	0.0124215
710.771	0.0123575
710.849	0.0127300
710.927	0.0126415
711.005	0.0128581
711.083	0.0128268
711.162	0.0127338
711.240	0.0129037
711.318	0.0128853
711.396	0.0128479
711.474	0.0128392
711.552	0.0128114
711.630	0.0129048
711.708	0.0127726
711.787	0.0127862
711.865	0.0127975
711.943	0.0126743
712.021	0.0127148
712.099	0.0126365
712.177	0.0124837
712.255	0.0124877
712.333	0.0125357
712.412	0.0123787
712.490	0.0124903
712.568	0.0124142
712.646	0.0123534
712.724	0.0125305
712.802	0.0126218
712.880	0.0126882
712.958	0.0127880
713.037	0.0129926
713.115	0.0130505
713.193	0.0133648
713.271	0.0132642
713.349	0.0132458
713.427	0.0133956
713.505	0.0133807
713.583	0.0132056
713.662	0.0133294
713.740	0.0132291
713.818	0.0130530
713.896	0.0130249
713.974	0.0131194
714.052	0.0129631
714.130	0.0131458
714.208	0.0131174
714.287	0.0130676
714.365	0.0131392
714.443	0.0132552
714.521	0.0134193
714.599	0.0133469
714.677	0.0133270
714.755	0.0134842
714.833	0.0136129
714.912	0.0136459
714.990	0.0135304
715.068	0.0137322
715.146	0.0137594
715.224	0.0138654
715.302	0.0138393
715.380	0.0138008
715.458	0.0139584
715.537	0.0139370
715.615	0.0138728
715.693	0.0139555
715.771	0.0138217
715.849	0.0137933
715.927	0.0137006
716.005	0.0135572
716.083	0.0135141
716.162	0.0134663
716.240	0.0133770
716.318	0.0134151
716.396	0.0132751
716.474	0.0130978
716.552	0.0131158
716.630	0.0130073
716.708	0.0130977
716.787	0.0131028
716.865	0.0129717
716.943	0.0130905
717.021	0.0129745
717.099	0.0128298
717.177	0.0129916
717.255	0.0129137
717.333	0.0128620
717.412	0.0126447
717.490	0.0124129
717.568	0.0124787
717.646	0.0126628
717.724	0.0124372
717.802	0.0122646
717.880	0.0123988
717.958	0.0123345
718.037	0.0123309
718.115	0.0122758
718.193	0.0123357
718.271	0.0123955
718.349	0.0125142
718.427	0.0125570
718.505	0.0126303
718.583	0.0127783
718.662	0.0128712
718.740	0.0127220
718.818	0.0128191
718.896	0.0129584
718.974	0.0129445
719.052	0.0130027
719.130	0.0128912
719.208	0.0129010
719.287	0.0129804
719.365	0.0128155
719.443	0.0127612
719.521	0.0126636
719.599	0.0126797
719.677	0.0125549
719.755	0.0125813
719.833	0.0125661
719.912	0.0126399
719.990	0.0126781
720.068	0.0128248
720.146	0.0129649
720.224	0.0132090
720.302	0.0133762
720.380	0.0136478
720.458	0.0138178
720.537	0.0141297
720.615	0.0142461
720.693	0.0142421
720.771	0.0144301
720.849	0.0146096
720.927	0.0146699
721.005	0.0148482
721.083	0.0146671
721.162	0.0145428
721.240	0.0144727
721.318	0.0143979
721.396	0.0141708
721.474	0.0140955
721.552	0.0139970
721.630	0.0137490
721.708	0.0136295
721.787	0.0134943
721.865	0.0133657
721.943	0.0130848
722.021	0.0130072
722.099	0.0129188
722.177	0.0128119
722.255	0.0125930
722.333	0.0125554
722.412	0.0123564
722.490	0.0122708
722.568	0.0122533
722.646	0.0122227
722.724	0.0121054
722.802	0.0120137
722.880	0.0121433
722.958	0.0121745
723.037	0.0121820
723.115	0.0123041
723.193	0.0122634
723.271	0.0122912
723.349	0.0124397
723.427	0.0123081
723.505	0.0125203
723.583	0.0126847
723.662	0.0128404
723.740	0.0129711
723.818	0.0131532
723.896	0.0134042
723.974	0.0136578
724.052	0.0139552
724.130	0.0140503
724.208	0.0142622
724.287	0.0144520
724.365	0.0146561
724.443	0.0145632
724.521	0.0143766
724.599	0.0146028
724.677	0.0142879
724.755	0.0142816
724.833	0.0139146
724.912	0.0136983
724.990	0.0133667
725.068	0.0131808
725.146	0.0129346
725.224	0.0125813
725.302	0.0122904
725.380	0.0118989
725.458	0.0118827
725.537	0.0118639
725.615	0.0118858
725.693	0.0117796
725.771	0.0118991
725.849	0.0119753
725.927	0.0120307
726.005	0.0123588
726.083	0.0124140
726.162	0.0125191
726.240	0.0128690
726.318	0.0129745
726.396	0.0131668
726.474	0.0132680
726.552	0.0132293
726.630	0.0133672
726.708	0.0132663
726.787	0.0132508
726.865	0.0134117
726.943	0.0133367
727.021	0.0133782
727.099	0.0133040
727.177	0.0133519
727.255	0.0133385
727.333	0.0133467
727.412	0.0133858
727.490	0.0134835
727.568	0.0137627
727.646	0.0138625
727.724	0.0140421
727.802	0.0141792
727.880	0.0142638
727.958	0.0143375
728.037	0.0144439
728.115	0.0144708
728.193	0.0142556
728.271	0.0142432
728.349	0.0141949
728.427	0.0140744
728.505	0.0138351
728.583	0.0137022
728.662	0.0134963
728.740	0.0131847
728.818	0.0131303
728.896	0.0129288
728.974	0.0128716
729.052	0.0128487
729.130	0.0125787
729.208	0.0125021
729.287	0.0122255
729.365	0.0122491
729.443	0.0121552
729.521	0.0121511
729.599	0.0118867
729.677	0.0118713
729.755	0.0119850
729.833	0.0118677
729.912	0.0119586
729.990	0.0121200
730.068	0.0121759
730.146	0.0121922
730.224	0.0124107
730.302	0.0123812
730.380	0.0126534
730.458	0.0130017
730.537	0.0129605
730.615	0.0132193
730.693	0.0134576
730.771	0.0135767
730.849	0.0136815
730.927	0.0137613
731.005	0.0139439
731.083	0.0140530
731.162	0.0142603
731.240	0.0143912
731.318	0.0142588
731.396	0.0143372
731.474	0.0141968
731.552	0.0141145
731.630	0.0139912
731.708	0.0137846
731.787	0.0136054
731.865	0.0134740
731.943	0.0133321
732.021	0.0131547
732.099	0.0130299
732.177	0.0128815
732.255	0.0125790
732.333	0.0124923
732.412	0.0124442
732.490	0.0123450
732.568	0.0123370
732.646	0.0121230
732.724	0.0121467
732.802	0.0121485
732.880	0.0123106
732.958	0.0122401
733.037	0.0123052
733.115	0.0124408
733.193	0.0123655
733.271	0.0125636
733.349	0.0126682
733.427	0.0127559
733.505	0.0129688
733.583	0.0130421
733.662	0.0131504
733.740	0.0134204
733.818	0.0136393
733.896	0.0136794
733.974	0.0137846
734.052	0.0138768
734.130	0.0140157
734.208	0.0139123
734.287	0.0138582
734.365	0.0138322
734.443	0.0137440
734.521	0.0134885
734.599	0.0134278
734.677	0.0136299
734.755	0.0134133
734.833	0.0132083
734.912	0.0133011
734.990	0.0133820
735.068	0.0135880
735.146	0.0134452
735.224	0.0136366
735.302	0.0137311
735.380	0.0136325
735.458	0.0135011
735.537	0.0135258
735.615	0.0135508
735.693	0.0134810
735.771	0.0132470
735.849	0.0130490
735.927	0.0129979
736.005	0.0126030
736.083	0.0124237
736.162	0.0123166
736.240	0.0122998
736.318	0.0123135
736.396	0.0122308
736.474	0.0122067
736.552	0.0122969
736.630	0.0125844
736.708	0.0125497
736.787	0.0126402
736.865	0.0129355
736.943	0.0130956
737.021	0.0131685
737.099	0.0131564
737.177	0.0134364
737.255	0.0135515
737.333	0.0135691
737.412	0.0136137
737.490	0.0137591
737.568	0.0136983
737.646	0.0137352
737.724	0.0134864
737.802	0.0136448
737.880	0.0135035
737.958	0.0134971
738.037	0.0135723
738.115	0.0132898
738.193	0.0132951
738.271	0.0132774
738.349	0.0131181
738.427	0.0130392
738.505	0.0130406
738.583	0.0130836
738.662	0.0129710
738.740	0.0131233
738.818	0.0131476
738.896	0.0131284
738.974	0.0130699
739.052	0.0130540
739.130	0.0129418
739.208	0.0129779
739.287	0.0129229
739.365	0.0129420
739.443	0.0127921
739.521	0.0128053
739.599	0.0128400
739.677	0.0128167
739.755	0.0128629
739.833	0.0130235
739.912	0.0130092
739.990	0.0130544
740.068	0.0131614
740.146	0.0132375
740.224	0.0133206
740.302	0.0133788
740.380	0.0134633
740.458	0.0134732
740.537	0.0135373
740.615	0.0135263
740.693	0.0135959
740.771	0.0134871
740.849	0.0134275
740.927	0.0133775
741.005	0.0132693
741.083	0.0132461
741.162	0.0134708
741.240	0.0134865
741.318	0.0134461
741.396	0.0135226
741.474	0.0135761
741.552	0.0137002
741.630	0.0137779
741.708	0.0138062
741.787	0.0136075
741.865	0.0135609
741.943	0.0134384
742.021	0.0136223
742.099	0.0133153
742.177	0.0130360
742.255	0.0130573
742.333	0.0128513
742.412	0.0125141
742.490	0.0125368
742.568	0.0124775
742.646	0.0124420
742.724	0.0124174
742.802	0.0124355
742.880	0.0124304
742.958	0.0124267
743.037	0.0123232
743.115	0.0125031
743.193	0.0127654
743.271	0.0127074
743.349	0.0127959
743.427	0.0130177
743.505	0.0130442
743.583	0.0132597
743.662	0.0133426
743.740	0.0133998
743.818	0.0135555
743.896	0.0136469
743.974	0.0136788
744.052	0.0138518
744.130	0.0138996
744.208	0.0140501
744.287	0.0139346
744.365	0.0139459
744.443	0.0139718
744.521	0.0138496
744.599	0.0138992
744.677	0.0136556
744.755	0.0136475
744.833	0.0134792
744.912	0.0133936
744.990	0.0132841
745.068	0.0133364
745.146	0.0130686
745.224	0.0130700
745.302	0.0128722
745.380	0.0129006
745.458	0.0128858
745.537	0.0127226
745.615	0.0128008
745.693	0.0128860
745.771	0.0127483
745.849	0.0127088
745.927	0.0127016
746.005	0.0128092
746.083	0.0128687
746.162	0.0129295
746.240	0.0128523
746.318	0.0128181
746.396	0.0130685
746.474	0.0130912
746.552	0.0129723
746.630	0.0132075
746.708	0.0132045
746.787	0.0132857
746.865	0.0131323
746.943	0.0132619
747.021	0.0132079
747.099	0.0132033
747.177	0.0132857
747.255	0.0130987
747.333	0.0131974
747.412	0.0131674
747.490	0.0129575
747.568	0.0128812
747.646	0.0130449
747.724	0.0130080
747.802	0.0129501
747.880	0.0129476
747.958	0.0128996
748.037	0.0129230
748.115	0.0129717
748.193	0.0129392
748.271	0.0130254
748.349	0.0131567
748.427	0.0132677
748.505	0.0133352
748.583	0.0134420
748.662	0.0137371
748.740	0.0138923
748.818	0.0137693
748.896	0.0138036
748.974	0.0139103
749.052	0.0139158
749.130	0.0138962
749.208	0.0137732
749.287	0.0137019
749.365	0.0135272
749.443	0.0133112
749.521	0.0132417
749.599	0.0130338
749.677	0.0129333
749.755	0.0129227
749.833	0.0127820
749.912	0.0127048
749.990	0.0129311
750.068	0.0128813
750.146	0.0129173
750.224	0.0130353
750.302	0.0130474
750.380	0.0132848
750.458	0.0133813
750.537	0.0133318
750.615	0.0132681
750.693	0.0133028
750.771	0.0132786
750.849	0.0134356
750.927	0.0133184
751.005	0.0133544
751.083	0.0133745
751.162	0.0134653
751.240	0.0135526
751.318	0.0135640
751.396	0.0133035
751.474	0.0135303
751.552	0.0135612
751.630	0.0135942
751.708	0.0134280
751.787	0.0135593
751.865	0.0133837
751.943	0.0132774
752.021	0.0134088
752.099	0.0133732
752.177	0.0133495
752.255	0.0130624
752.333	0.0131207
752.412	0.0130222
752.490	0.0129866
752.568	0.0130724
752.646	0.0127930
752.724	0.0126697
752.802	0.0128199
752.880	0.0127258
752.958	0.0127032
753.037	0.0127654
753.115	0.0127130
753.193	0.0125270
753.271	0.0127056
753.349	0.0127960
753.427	0.0125885
753.505	0.0128448
753.583	0.0127184
753.662	0.0128911
753.740	0.0129070
753.818	0.0128763
753.896	0.0131282
753.974	0.0130698
754.052	0.0129999
754.130	0.0131411
754.208	0.0132553
754.287	0.0131589
754.365	0.0131694
754.443	0.0133009
754.521	0.0133674
754.599	0.0133989
754.677	0.0134456
754.755	0.0135554
754.833	0.0134361
754.912	0.0133968
754.990	0.0135926
755.068	0.0136432
755.146	0.0136553
755.224	0.0137384
755.302	0.0136292
755.380	0.0136911
755.458	0.0136835
755.537	0.0137164
755.615	0.0138057
755.693	0.0137000
755.771	0.0135049
755.849	0.0134486
755.927	0.0134319
756.005	0.0134026
756.083	0.0135121
756.162	0.0134332
756.240	0.0133226
756.318	0.0132461
756.396	0.0131303
756.474	0.0129617
756.552	0.0128102
756.630	0.0130253
756.708	0.0130202
756.787	0.0128072
756.865	0.0126872
756.943	0.0126701
757.021	0.0126748
757.099	0.0126730
757.177	0.0127012
757.255	0.0126893
757.333	0.0126841
757.412	0.0126950
757.490	0.0128290
757.568	0.0130435
757.646	0.0131110
757.724	0.0130791
757.802	0.0132010
757.880	0.0131630
757.958	0.0133356
758.037	0.0133248
758.115	0.0133176
758.193	0.0133202
758.271	0.0133430
758.349	0.0132105
758.427	0.0131712
758.505	0.0130572
758.583	0.0130347
758.662	0.0129404
758.740	0.0129780
758.818	0.0129104
758.896	0.0128407
758.974	0.0127171
759.052	0.0128290
759.130	0.0129361
759.208	0.0128857
759.287	0.0130361
759.365	0.0130698
759.443	0.0130962
759.521	0.0129830
759.599	0.0131115
759.677	0.0132038
759.755	0.0131712
759.833	0.0132237
759.912	0.0132203
759.990	0.0132027
760.068	0.0131898
760.146	0.0132357
760.224	0.0130520
760.302	0.0131188
760.380	0.0132248
760.458	0.0131026
760.537	0.0132505
760.615	0.0131735
760.693	0.0132030
760.771	0.0132806
760.849	0.0132520
760.927	0.0134460
761.005	0.0133772
761.083	0.0133254
761.162	0.0132735
761.240	0.0133507
761.318	0.0133730
761.396	0.0133213
761.474	0.0133375
761.552	0.0133771
761.630	0.0134070
761.708	0.0133787
761.787	0.0133822
761.865	0.0134142
761.943	0.0135745
762.021	0.0134418
762.099	0.0134495
762.177	0.0135818
762.255	0.0136103
762.333	0.0134603
762.412	0.0134930
762.490	0.0135612
762.568	0.0133430
762.646	0.0133282
762.724	0.0133526
762.802	0.0132510
762.880	0.0131513
762.958	0.0130946
763.037	0.0131881
763.115	0.0131599
763.193	0.0131174
763.271	0.0130398
763.349	0.0131978
763.427	0.0132550
763.505	0.0132361
763.583	0.0131106
763.662	0.0131104
763.740	0.0131136
763.818	0.0131596
763.896	0.0130371
763.974	0.0130441
764.052	0.0130264
764.130	0.0130318
764.208	0.0131227
764.287	0.0130299
764.365	0.0129611
764.443	0.0131406
764.521	0.0131590
764.599	0.0130332
764.677	0.0132447
764.755	0.0132438
764.833	0.0131427
764.912	0.0131815
764.990	0.0132926
765.068	0.0134248
765.146	0.0132764
765.224	0.0133379
765.302	0.0132977
765.380	0.0133086
765.458	0.0131687
765.537	0.0131564
765.615	0.0132030
765.693	0.0130149
765.771	0.0129623
765.849	0.0129502
765.927	0.0129661
766.005	0.0128900
766.083	0.0129571
766.162	0.0129095
766.240	0.0128635
766.318	0.0128088
766.396	0.0128915
766.474	0.0128286
766.552	0.0130148
766.630	0.0130473
766.708	0.0130880
766.787	0.0130919
766.865	0.0129892
766.943	0.0131741
767.021	0.0130827
767.099	0.0131541
767.177	0.0131762
767.255	0.0130222
767.333	0.0132032
767.412	0.0131321
767.490	0.0132330
767.568	0.0133004
767.646	0.0132935
767.724	0.0132335
767.802	0.0134537
767.880	0.0132700
767.958	0.0133642
768.037	0.0133998
768.115	0.0133760
768.193	0.0133653
768.271	0.0134329
768.349	0.0134098
768.427	0.0135271
768.505	0.0134296
768.583	0.0134358
768.662	0.0134704
768.740	0.0133469
768.818	0.0133943
768.896	0.0133495
768.974	0.0133642
769.052	0.0133904
769.130	0.0132574
769.208	0.0133061
769.287	0.0134144
769.365	0.0133082
769.443	0.0132919
769.521	0.0133050
769.599	0.0133080
769.677	0.0132494
769.755	0.0131114
769.833	0.0131818
769.912	0.0129871
769.990	0.0130693
770.068	0.0130082
770.146	0.0129479
770.224	0.0128755
770.302	0.0128469
770.380	0.0128665
770.458	0.0129431
770.537	0.0129124
770.615	0.0127126
770.693	0.0128788
770.771	0.0130323
770.849	0.0129578
770.927	0.0130158
771.005	0.0129908
771.083	0.0132371
771.162	0.0133559
771.240	0.0133119
771.318	0.0132525
771.396	0.0135776
771.474	0.0134486
771.552	0.0134075
771.630	0.0134541
771.708	0.0134725
771.787	0.0133770
771.865	0.0132774
771.943	0.0133540
772.021	0.0133841
772.099	0.0133164
772.177	0.0131666
772.255	0.0131923
772.333	0.0131202
772.412	0.0130436
772.490	0.0129627
772.568	0.0129731
772.646	0.0130611
772.724	0.0129632
772.802	0.0127979
772.880	0.0129086
772.958	0.0127431
773.037	0.0128577
773.115	0.0128655
773.193	0.0128915
773.271	0.0127296
773.349	0.0130065
773.427	0.0129541
773.505	0.0129437
773.583	0.0130776
773.662	0.0130490
773.740	0.0129362
773.818	0.0129919
773.896	0.0130370
773.974	0.0131883
774.052	0.0130286
774.130	0.0129759
774.208	0.0131395
774.287	0.0132518
774.365	0.0131339
774.443	0.0131983
774.521	0.0131741
774.599	0.0131164
774.677	0.0132924
774.755	0.0132221
774.833	0.0132684
774.912	0.0132403
774.990	0.0133599
775.068	0.0134653
775.146	0.0133238
775.224	0.0132652
775.302	0.0134081
775.380	0.0133738
775.458	0.0135028
775.537	0.0132363
775.615	0.0133478
775.693	0.0134081
775.771	0.0132919
775.849	0.0133612
775.927	0.0132571
776.005	0.0134087
776.083	0.0132780
776.162	0.0132493
776.240	0.0131747
776.318	0.0133300
776.396	0.0132907
776.474	0.0132938
776.552	0.0133325
776.630	0.0132077
776.708	0.0132240
776.787	0.0133713
776.865	0.0132055
776.943	0.0132139
777.021	0.0133591
777.099	0.0133314
777.177	0.0130615
777.255	0.0131979
777.333	0.0130482
777.412	0.0130990
777.490	0.0129709
777.568	0.0131020
777.646	0.0131385
777.724	0.0131438
777.802	0.0130303
777.880	0.0132900
777.958	0.0129904
778.037	0.0130279
778.115	0.0130814
778.193	0.0131705
778.271	0.0129851
778.349	0.0132132
778.427	0.0133428
778.505	0.0133260
778.583	0.0131885
778.662	0.0132044
778.740	0.0131199
778.818	0.0132537
778.896	0.0132303
778.974	0.0134036
779.052	0.0132702
779.130	0.0132755
779.208	0.0132254
779.287	0.0133871
779.365	0.0133712
779.443	0.0134161
779.521	0.0133368
779.599	0.0132192
779.677	0.0133121
779.755	0.0132934
779.833	0.0132774
779.912	0.0133323
779.990	0.0132137
780.068	0.0131416
780.146	0.0131772
780.224	0.0132014
780.302	0.0131912
780.380	0.0130042
780.458	0.0131482
780.537	0.0131283
780.615	0.0129175
780.693	0.0129834
780.771	0.0129485
780.849	0.0128809
780.927	0.0129056
781.005	0.0128994
781.083	0.0128300
781.162	0.0127148
781.240	0.0128220
781.318	0.0128027
781.396	0.0129040
781.474	0.0128816
781.552	0.0128811
781.630	0.0128705
781.708	0.0129674
781.787	0.0131367
781.865	0.0130270
781.943	0.0130918
782.021	0.0132366
782.099	0.0132610
782.177	0.0131599
782.255	0.0134209
782.333	0.0135343
782.412	0.0133172
782.490	0.0134570
782.568	0.0134104
782.646	0.0134662
782.724	0.0135999
782.802	0.0134753
782.880	0.0134892
782.958	0.0135186
783.037	0.0135606
783.115	0.0134534
783.193	0.0135101
783.271	0.0134478
783.349	0.0134631
783.427	0.0133518
783.505	0.0132581
783.583	0.0131863
783.662	0.0133208
783.740	0.0130647
783.818	0.0131010
783.896	0.0131284
783.974	0.0130802
784.052	0.0130000
784.130	0.0130414
784.208	0.0128721
784.287	0.0129800
784.365	0.0130283
784.443	0.0130554
784.521	0.0129732
784.599	0.0130711
784.677	0.0131776
784.755	0.0130357
784.833	0.0131195
784.912	0.0131564
784.990	0.0131081
785.068	0.0131564
785.146	0.0130869
785.224	0.0131312
785.302	0.0130558
785.380	0.0129787
785.458	0.0130537
785.537	0.0128615
785.615	0.0130599
785.693	0.0129002
785.771	0.0129781
785.849	0.0129990
785.927	0.0130840
786.005	0.0130939
786.083	0.0131146
786.162	0.0131075
786.240	0.0132076
786.318	0.0132722
786.396	0.0130848
786.474	0.0131114
786.552	0.0131957
786.630	0.0130254
786.708	0.0131561
786.787	0.0130037
786.865	0.0131534
786.943	0.0130336
787.021	0.0131510
787.099	0.0132574
787.177	0.0132136
787.255	0.0131577
787.333	0.0133143
787.412	0.0133257
787.490	0.0134472
787.568	0.0134538
787.646	0.0131957
787.724	0.0132066
787.802	0.0132808
787.880	0.0133062
787.958	0.0131879
788.037	0.0131587
788.115	0.0132041
788.193	0.0131624
788.271	0.0130085
788.349	0.0130708
788.427	0.0129006
788.505	0.0128492
788.583	0.0129058
788.662	0.0128136
788.740	0.0128552
788.818	0.0128314
788.896	0.0129452
788.974	0.0128679
789.052	0.0130019
789.130	0.0128943
789.208	0.0129746
789.287	0.0129848
789.365	0.0130311
789.443	0.0130527
789.521	0.0129082
789.599	0.0130582
789.677	0.0131952
789.755	0.0130485
789.833	0.0130838
789.912	0.0130073
789.990	0.0130641
790.068	0.0130728
790.146	0.0133344
790.224	0.0132359
790.302	0.0133344
790.380	0.0132247
790.458	0.0135165
790.537	0.0134040
790.615	0.0133766
790.693	0.0133444
790.771	0.0134017
790.849	0.0135160
790.927	0.0134058
791.005	0.0133488
791.083	0.0133216
791.162	0.0133616
791.240	0.0134624
791.318	0.0135042
791.396	0.0133029
791.474	0.0132285
791.552	0.0132674
791.630	0.0133073
791.708	0.0130672
791.787	0.0131766
791.865	0.0131424
791.943	0.0129964
792.021	0.0129375
792.099	0.0129353
792.177	0.0129588
792.255	0.0129393
792.333	0.0130082
792.412	0.0128836
792.490	0.0129519
792.568	0.0130814
792.646	0.0132265
792.724	0.0130096
792.802	0.0130271
792.880	0.0131850
792.958	0.0131025
793.037	0.0131762
793.115	0.0132439
793.193	0.0132918
793.271	0.0131625
793.349	0.0132393
793.427	0.0132493
793.505	0.0132472
793.583	0.0132246
793.662	0.0131496
793.740	0.0131673
793.818	0.0131618
793.896	0.0132962
793.974	0.0129977
794.052	0.0130551
794.130	0.0130856
794.208	0.0131306
794.287	0.0130589
794.365	0.0130211
794.443	0.0129951
794.521	0.0128194
794.599	0.0129879
794.677	0.0129017
794.755	0.0130446
794.833	0.0130585
794.912	0.0129070
794.990	0.0128794
795.068	0.0130336
795.146	0.0129808
795.224	0.0130510
795.302	0.0130807
795.380	0.0131182
795.458	0.0131081
795.537	0.0132066
795.615	0.0135665
795.693	0.0135280
795.771	0.0134111
795.849	0.0137403
795.927	0.0136077
796.005	0.0135202
796.083	0.0135450
796.162	0.0135673
796.240	0.0135478
796.318	0.0137411
796.396	0.0136110
796.474	0.0136076
796.552	0.0135641
796.630	0.0135336
796.708	0.0134764
796.787	0.0134840
796.865	0.0134476
796.943	0.0134274
797.021	0.0133221
797.099	0.0131982
797.177	0.0132240
797.255	0.0132722
797.333	0.0131451
797.412	0.0130260
797.490	0.0131120
797.568	0.0129775
797.646	0.0129366
797.724	0.0129694
797.802	0.0129549
797.880	0.0129679
797.958	0.0128529
798.037	0.0129747
798.115	0.0127536
798.193	0.0128600
798.271	0.0129673
798.349	0.0130522
798.427	0.0129816
798.505	0.0130717
798.583	0.0128268
798.662	0.0130293
798.740	0.0131231
798.818	0.0130772
798.896	0.0129921
798.974	0.0130447
799.052	0.0130203
799.130	0.0131715
799.208	0.0131655
799.287	0.0131396
799.365	0.0131139
799.443	0.0130809
799.521	0.0132593
799.599	0.0134221
799.677	0.0133350
799.755	0.0131915
799.833	0.0133790
799.912	0.0134000
799.990	0.0133128
800.068	0.0133216
800.146	0.0133673
800.224	0.0134000
800.302	0.0132834
800.380	0.0133955
800.458	0.0133369
800.537	0.0133752
800.615	0.0134011
800.693	0.0134398
800.771	0.0134688
800.849	0.0134836
800.927	0.0135206
801.005	0.0134581
801.083	0.0134570
801.162	0.0134475
801.240	0.0135830
801.318	0.0135542
801.396	0.0133215
801.474	0.0133298
801.552	0.0132304
801.630	0.0131881
801.708	0.0132130
801.787	0.0131411
801.865	0.0131766
801.943	0.0131099
802.021	0.0132099
802.099	0.0130759
802.177	0.0129601
802.255	0.0132780
802.333	0.0132534
802.412	0.0132395
802.490	0.0131944
802.568	0.0131509
802.646	0.0130605
802.724	0.0131183
802.802	0.0130867
802.880	0.0130823
802.958	0.0131219
803.037	0.0130790
803.115	0.0131378
803.193	0.0131312
803.271	0.0131454
803.349	0.0131715
803.427	0.0130929
803.505	0.0131669
803.583	0.0131993
803.662	0.0132402
803.740	0.0132043
803.818	0.0132213
803.896	0.0131891
803.974	0.0132356
804.052	0.0132332
804.130	0.0131080
804.208	0.0130962
804.287	0.0129974
804.365	0.0132161
804.443	0.0131999
804.521	0.0131725
804.599	0.0132097
804.677	0.0131681
804.755	0.0131729
804.833	0.0131171
804.912	0.0131681
804.990	0.0132206
805.068	0.0132142
805.146	0.0132632
805.224	0.0133253
805.302	0.0134496
805.380	0.0133672
805.458	0.0132503
805.537	0.0133300
805.615	0.0132024
805.693	0.0132787
805.771	0.0132153
805.849	0.0131468
805.927	0.0132434
806.005	0.0130411
806.083	0.0132217
806.162	0.0131730
806.240	0.0132185
806.318	0.0132599
806.396	0.0132615
806.474	0.0131674
806.552	0.0132854
806.630	0.0133302
806.708	0.0133308
806.787	0.0132980
806.865	0.0133562
806.943	0.0133312
807.021	0.0133617
807.099	0.0132415
807.177	0.0133546
807.255	0.0132442
807.333	0.0133406
807.412	0.0131905
807.490	0.0130285
807.568	0.0131509
807.646	0.0132841
807.724	0.0130487
807.802	0.0130766
807.880	0.0130733
807.958	0.0130973
808.037	0.0129819
808.115	0.0129883
808.193	0.0130901
808.271	0.0129393
808.349	0.0128820
808.427	0.0129424
808.505	0.0129659
808.583	0.0128180
808.662	0.0128488
808.740	0.0128792
808.818	0.0127930
808.896	0.0128812
808.974	0.0128849
809.052	0.0128005
809.130	0.0126912
809.208	0.0128397
809.287	0.0129127
809.365	0.0129885
809.443	0.0128571
809.521	0.0129861
809.599	0.0128775
809.677	0.0129974
809.755	0.0130129
809.833	0.0130638
809.912	0.0131691
809.990	0.0130856
810.068	0.0132050
810.146	0.0132994
810.224	0.0132283
810.302	0.0132507
810.380	0.0130514
810.458	0.0132433
810.537	0.0131340
810.615	0.0131174
810.693	0.0130346
810.771	0.0129937
810.849	0.0130972
810.927	0.0130571
811.005	0.0131372
811.083	0.0130174
811.162	0.0130325
811.240	0.0130202
811.318	0.0130915
811.396	0.0130441
811.474	0.0130475
811.552	0.0129722
811.630	0.0132286
811.708	0.0134452
811.787	0.0131689
811.865	0.0132494
811.943	0.0133578
812.021	0.0133124
812.099	0.0132121
812.177	0.0136020
812.255	0.0134931
812.333	0.0134067
812.412	0.0134000
812.490	0.0135075
812.568	0.0133670
812.646	0.0134235
812.724	0.0134059
812.802	0.0135557
812.880	0.0135910
812.958	0.0134326
813.037	0.0133847
813.115	0.0133178
813.193	0.0133568
813.271	0.0133139
813.349	0.0133100
813.427	0.0131659
813.505	0.0132220
813.583	0.0131938
813.662	0.0131622
813.740	0.0131034
813.818	0.0131361
813.896	0.0130433
813.974	0.0131274
814.052	0.0130251
814.130	0.0129415
814.208	0.0129079
814.287	0.0130891
814.365	0.0129577
814.443	0.0131984
814.521	0.0130832
814.599	0.0130465
814.677	0.0131308
814.755	0.0130760
814.833	0.0129753
814.912	0.0130347
814.990	0.0130090
815.068	0.0130975
815.146	0.0131410
815.224	0.0129823
815.302	0.0129147
815.380	0.0130161
815.458	0.0130151
815.537	0.0130753
815.615	0.0130158
815.693	0.0129158
815.771	0.0129788
815.849	0.0128477
815.927	0.0130052
816.005	0.0129759
816.083	0.0130434
816.162	0.0130138
816.240	0.0131534
816.318	0.0132771
816.396	0.0132214
816.474	0.0131960
816.552	0.0131288
816.630	0.0131138
816.708	0.0130386
816.787	0.0131433
816.865	0.0131903
816.943	0.0131347
817.021	0.0130878
817.099	0.0132413
817.177	0.0132209
817.255	0.0131823
817.333	0.0133098
817.412	0.0133363
817.490	0.0133688
817.568	0.0135166
817.646	0.0134351
817.724	0.0134812
817.802	0.0134820
817.880	0.0136314
817.958	0.0134184
818.037	0.0134333
818.115	0.0136684
818.193	0.0135300
818.271	0.0134689
818.349	0.0133224
818.427	0.0135062
818.505	0.0136208
818.583	0.0134231
818.662	0.0133999
818.740	0.0133929
818.818	0.0134497
818.896	0.0134091
818.974	0.0133067
819.052	0.0132604
819.130	0.0132985
819.208	0.0130949
819.287	0.0131398
819.365	0.0131661
819.443	0.0128905
819.521	0.0130330
819.599	0.0130800
819.677	0.0130112
819.755	0.0131530
819.833	0.0131690
819.912	0.0131388
819.990	0.0131494
820.068	0.0130854
820.146	0.0130140
820.224	0.0131143
820.302	0.0132590
820.380	0.0132791
820.458	0.0132076
820.537	0.0132990
820.615	0.0133167
820.693	0.0133291
820.771	0.0132815
820.849	0.0132333
820.927	0.0132049
821.005	0.0132352
821.083	0.0133136
821.162	0.0132418
821.240	0.0132371
821.318	0.0133091
821.396	0.0133339
821.474	0.0133527
821.552	0.0132490
821.630	0.0132919
821.708	0.0132194
821.787	0.0131927
821.865	0.0131680
821.943	0.0131020
822.021	0.0131039
822.099	0.0131129
822.177	0.0131046
822.255	0.0130319
822.333	0.0130315
822.412	0.0128988
822.490	0.0130305
822.568	0.0130308
822.646	0.0130979
822.724	0.0131219
822.802	0.0130656
822.880	0.0130867
822.958	0.0130287
823.037	0.0130445
823.115	0.0130420
823.193	0.0130505
823.271	0.0131060
823.349	0.0132011
823.427	0.0131003
823.505	0.0132257
823.583	0.0131673
823.662	0.0132722
823.740	0.0132880
823.818	0.0132886
823.896	0.0135279
823.974	0.0134823
824.052	0.0134324
824.130	0.0134812
824.208	0.0134113
824.287	0.0134724
824.365	0.0136301
824.443	0.0136090
824.521	0.0134538
824.599	0.0133350
824.677	0.0133368
824.755	0.0133119
824.833	0.0132166
824.912	0.0132973
824.990	0.0133685
825.068	0.0132664
825.146	0.0132339
825.224	0.0131983
825.302	0.0133634
825.380	0.0133535
825.458	0.0132682
825.537	0.0132764
825.615	0.0132652
825.693	0.0134422
825.771	0.0133533
825.849	0.0133851
825.927	0.0132396
826.005	0.0132242
826.083	0.0131609
826.162	0.0130846
826.240	0.0131446
826.318	0.0131737
826.396	0.0129427
826.474	0.0131219
826.552	0.0130302
826.630	0.0130293
826.708	0.0129944
826.787	0.0128927
826.865	0.0129890
826.943	0.0129371
827.021	0.0128692
827.099	0.0128626
827.177	0.0129657
827.255	0.0130569
827.333	0.0130984
827.412	0.0130466
827.490	0.0129433
827.568	0.0131333
827.646	0.0131647
827.724	0.0132288
827.802	0.0132556
827.880	0.0132664
827.958	0.0133370
828.037	0.0132430
828.115	0.0132919
828.193	0.0133279
828.271	0.0132067
828.349	0.0132531
828.427	0.0132838
828.505	0.0133099
828.583	0.0133472
828.662	0.0132362
828.740	0.0130453
828.818	0.0131016
828.896	0.0131806
828.974	0.0132045
829.052	0.0132354
829.130	0.0131144
829.208	0.0131589
829.287	0.0132699
829.365	0.0131340
829.443	0.0131477
829.521	0.0131597
829.599	0.0132756
829.677	0.0131221
829.755	0.0131039
829.833	0.0131728
829.912	0.0131186
829.990	0.0132056
830.068	0.0132021
830.146	0.0130946
830.224	0.0130108
830.302	0.0131345
830.380	0.0131463
830.458	0.0131554
830.537	0.0130688
830.615	0.0132169
830.693	0.0132075
830.771	0.0131094
830.849	0.0132083
830.927	0.0131784
831.005	0.0130859
831.083	0.0132098
831.162	0.0130354
831.240	0.0132209
831.318	0.0131825
831.396	0.0131493
831.474	0.0131242
831.552	0.0133189
831.630	0.0132151
831.708	0.0131291
831.787	0.0131876
831.865	0.0132708
831.943	0.0134373
832.021	0.0132787
832.099	0.0133106
832.177	0.0132977
832.255	0.0133346
832.333	0.0132025
832.412	0.0131676
832.490	0.0131133
832.568	0.0129933
832.646	0.0130186
832.724	0.0131595
832.802	0.0130529
832.880	0.0131025
832.958	0.0129886
833.037	0.0130009
833.115	0.0130185
833.193	0.0131784
833.271	0.0130661
833.349	0.0130872
833.427	0.0131590
833.505	0.0128962
833.583	0.0130347
833.662	0.0130851
833.740	0.0130490
833.818	0.0130386
833.896	0.0130022
833.974	0.0129971
834.052	0.0130636
834.130	0.0129819
834.208	0.0131633
834.287	0.0131724
834.365	0.0132925
834.443	0.0131401
834.521	0.0132809
834.599	0.0133303
834.677	0.0131898
834.755	0.0132528
834.833	0.0133521
834.912	0.0132931
834.990	0.0132831
835.068	0.0133947
835.146	0.0133629
835.224	0.0131749
835.302	0.0132787
835.380	0.0132994
835.458	0.0132349
835.537	0.0130611
835.615	0.0132788
835.693	0.0132394
835.771	0.0133510
835.849	0.0132777
835.927	0.0132475
836.005	0.0132505
836.083	0.0133026
836.162	0.0132697
836.240	0.0132300
836.318	0.0132426
836.396	0.0133407
836.474	0.0132780
836.552	0.0133172
836.630	0.0133556
836.708	0.0132453
836.787	0.0133931
836.865	0.0133850
836.943	0.0131930
837.021	0.0133575
837.099	0.0134657
837.177	0.0133588
837.255	0.0131423
837.333	0.0132605
837.412	0.0133053
837.490	0.0132022
837.568	0.0131017
837.646	0.0132041
837.724	0.0130537
837.802	0.0129482
837.880	0.0132316
837.958	0.0130584
838.037	0.0131888
838.115	0.0131310
838.193	0.0130503
838.271	0.0130689
838.349	0.0130406
838.427	0.0130475
838.505	0.0130367
838.583	0.0132492
838.662	0.0131231
838.740	0.0132596
838.818	0.0132030
838.896	0.0131958
838.974	0.0132746
839.052	0.0133363
839.130	0.0132879
839.208	0.0133181
839.287	0.0132990
839.365	0.0133244
839.443	0.0133452
839.521	0.0132791
839.599	0.0133678
839.677	0.0133987
839.755	0.0133038
839.833	0.0133256
839.912	0.0132724
839.990	0.0133183
840.068	0.0134032
840.146	0.0133383
840.224	0.0132713
840.302	0.0132307
840.380	0.0132757
840.458	0.0132883
840.537	0.0133105
840.615	0.0132458
840.693	0.0134338
840.771	0.0132673
840.849	0.0133013
840.927	0.0133207
841.005	0.0133659
841.083	0.0133423
841.162	0.0134135
841.240	0.0133001
841.318	0.0133036
841.396	0.0132444
841.474	0.0132571
841.552	0.0133517
841.630	0.0131431
841.708	0.0131572
841.787	0.0132321
841.865	0.0131384
841.943	0.0131838
842.021	0.0130988
842.099	0.0131681
842.177	0.0131775
842.255	0.0132694
842.333	0.0132987
842.412	0.0132618
842.490	0.0131485
842.568	0.0132436
842.646	0.0133218
842.724	0.0132597
842.802	0.0133136
842.880	0.0134223
842.958	0.0134800
843.037	0.0133724
843.115	0.0134303
843.193	0.0132808
843.271	0.0133033
843.349	0.0132263
843.427	0.0133198
843.505	0.0132831
843.583	0.0131240
843.662	0.0132639
843.740	0.0132439
843.818	0.0132354
843.896	0.0131851
843.974	0.0132143
844.052	0.0132622
844.130	0.0132164
844.208	0.0131963
844.287	0.0131264
844.365	0.0131383
844.443	0.0131715
844.521	0.0130438
844.599	0.0131003
844.677	0.0131285
844.755	0.0131601
844.833	0.0132200
844.912	0.0130546
844.990	0.0131068
845.068	0.0130001
845.146	0.0131084
845.224	0.0131974
845.302	0.0134056
845.380	0.0133367
845.458	0.0132708
845.537	0.0131670
845.615	0.0132055
845.693	0.0133190
845.771	0.0132034
845.849	0.0133795
845.927	0.0134678
846.005	0.0133385
846.083	0.0132810
846.162	0.0134541
846.240	0.0133332
846.318	0.0134093
846.396	0.0133841
846.474	0.0132908
846.552	0.0131905
846.630	0.0132741
846.708	0.0134560
846.787	0.0131001
846.865	0.0132401
846.943	0.0132867
847.021	0.0132516
847.099	0.0131870
847.177	0.0132066
847.255	0.0132369
847.333	0.0131628
847.412	0.0131560
847.490	0.0130894
847.568	0.0131676
847.646	0.0130611
847.724	0.0132050
847.802	0.0133022
847.880	0.0134039
847.958	0.0132878
848.037	0.0132278
848.115	0.0133047
848.193	0.0132468
848.271	0.0133049
848.349	0.0133338
848.427	0.0133658
848.505	0.0132539
848.583	0.0132172
848.662	0.0131728
848.740	0.0132821
848.818	0.0132516
848.896	0.0132676
848.974	0.0131419
849.052	0.0130720
849.130	0.0131261
849.208	0.0131516
849.287	0.0130743
849.365	0.0132407
849.443	0.0131013
849.521	0.0130687
849.599	0.0131449
849.677	0.0131367
849.755	0.0130788
849.833	0.0131180
849.912	0.0129327
849.990	0.0130760
850.068	0.0131006
850.146	0.0130467
850.224	0.0129799
850.302	0.0130408
850.380	0.0131631
850.458	0.0131854
850.537	0.0131081
850.615	0.0131039
850.693	0.0129994
850.771	0.0130644
850.849	0.0130551
850.927	0.0130230
851.005	0.0131080
851.083	0.0130321
851.162	0.0131806
851.240	0.0131971
851.318	0.0131228
851.396	0.0131161
851.474	0.0132087
851.552	0.0132409
851.630	0.0131732
851.708	0.0132999
851.787	0.0132346
851.865	0.0132233
851.943	0.0131141
852.021	0.0132288
852.099	0.0132137
852.177	0.0132099
852.255	0.0132048
852.333	0.0131841
852.412	0.0133267
852.490	0.0131888
852.568	0.0131595
852.646	0.0132030
852.724	0.0130338
852.802	0.0134225
852.880	0.0133088
852.958	0.0133501
853.037	0.0131615
853.115	0.0132251
853.193	0.0132321
853.271	0.0132317
853.349	0.0131938
853.427	0.0132597
853.505	0.0132057
853.583	0.0130745
853.662	0.0129362
853.740	0.0131229
853.818	0.0132137
853.896	0.0129981
853.974	0.0131089
854.052	0.0131486
854.130	0.0131322
854.208	0.0130943
854.287	0.0130927
854.365	0.0131173
854.443	0.0130383
854.521	0.0130659
854.599	0.0131516
854.677	0.0130641
854.755	0.0129536
854.833	0.0129232
854.912	0.0129462
854.990	0.0131216
855.068	0.0130639
855.146	0.0130584
855.224	0.0131248
855.302	0.0131253
855.380	0.0131956
855.458	0.0131489
855.537	0.0132065
855.615	0.0131342
855.693	0.0131239
855.771	0.0133416
855.849	0.0134161
855.927	0.0133147
856.005	0.0132436
856.083	0.0131731
856.162	0.0131386
856.240	0.0131837
856.318	0.0133621
856.396	0.0131883
856.474	0.0131969
856.552	0.0131730
856.630	0.0132261
856.708	0.0130289
856.787	0.0131704
856.865	0.0130937
856.943	0.0130854
857.021	0.0129339
857.099	0.0129658
857.177	0.0129946
857.255	0.0128714
857.333	0.0129027
857.412	0.0128829
857.490	0.0129436
857.568	0.0128995
857.646	0.0128679
857.724	0.0128924
857.802	0.0129524
857.880	0.0130999
857.958	0.0131271
858.037	0.0131758
858.115	0.0132323
858.193	0.0132569
858.271	0.0133040
858.349	0.0132333
858.427	0.0133768
858.505	0.0135088
858.583	0.0133267
858.662	0.0134355
858.740	0.0133936
858.818	0.0134350
858.896	0.0134502
858.974	0.0133965
859.052	0.0132874
859.130	0.0133905
859.208	0.0132550
859.287	0.0133089
859.365	0.0133069
859.443	0.0131616
859.521	0.0132094
859.599	0.0130827
859.677	0.0130708
859.755	0.0129765
859.833	0.0129993
859.912	0.0130421
859.990	0.0129237
860.068	0.0127772
860.146	0.0130039
860.224	0.0128954
860.302	0.0128611
860.380	0.0129151
860.458	0.0129201
860.537	0.0130685
860.615	0.0131009
860.693	0.0131705
860.771	0.0132723
860.849	0.0131602
860.927	0.0131857
861.005	0.0133259
861.083	0.0133441
861.162	0.0133105
861.240	0.0135014
861.318	0.0134135
861.396	0.0135500
861.474	0.0134319
861.552	0.0134512
861.630	0.0134982
861.708	0.0135780
861.787	0.0134700
861.865	0.0134688
861.943	0.0135690
862.021	0.0133147
862.099	0.0133382
862.177	0.0132819
862.255	0.0134796
862.333	0.0133521
862.412	0.0133319
862.490	0.0132683
862.568	0.0132537
862.646	0.0133793
862.724	0.0132712
862.802	0.0133272
862.880	0.0131939
862.958	0.0132384
863.037	0.0131948
863.115	0.0131304
863.193	0.0131866
863.271	0.0132726
863.349	0.0131330
863.427	0.0133496
863.505	0.0133481
863.583	0.0131716
863.662	0.0131837
863.740	0.0133930
863.818	0.0132933
863.896	0.0132428
863.974	0.0133642
864.052	0.0132137
864.130	0.0131905
864.208	0.0132573
864.287	0.0132834
864.365	0.0133505
864.443	0.0132568
864.521	0.0131742
864.599	0.0131209
864.677	0.0131487
864.755	0.0131825
864.833	0.0131387
864.912	0.0131522
864.990	0.0132429
865.068	0.0132553
865.146	0.0132825
865.224	0.0131251
865.302	0.0131755
865.380	0.0132722
865.458	0.0134673
865.537	0.0132300
865.615	0.0133426
865.693	0.0132817
865.771	0.0133952
865.849	0.0134113
865.927	0.0133848
866.005	0.0134827
866.083	0.0134927
866.162	0.0134696
866.240	0.0134830
866.318	0.0132461
866.396	0.0134985
866.474	0.0133588
866.552	0.0132617
866.630	0.0132800
866.708	0.0132056
866.787	0.0132531
866.865	0.0132997
866.943	0.0131806
867.021	0.0132185
867.099	0.0131240
867.177	0.0132971
867.255	0.0132027
867.333	0.0130778
867.412	0.0130998
867.490	0.0131252
867.568	0.0130094
867.646	0.0131010
867.724	0.0129232
867.802	0.0130341
867.880	0.0131509
867.958	0.0129211
868.037	0.0130632
868.115	0.0131012
868.193	0.0129935
868.271	0.0128899
868.349	0.0128854
868.427	0.0130259
868.505	0.0130938
868.583	0.0131335
868.662	0.0132103
868.740	0.0132568
868.818	0.0133260
868.896	0.0133633
868.974	0.0136652
869.052	0.0134732
869.130	0.0136469
869.208	0.0136594
869.287	0.0135865
869.365	0.0136608
869.443	0.0137284
869.521	0.0136316
869.599	0.0136841
869.677	0.0136112
869.755	0.0137361
869.833	0.0136153
869.912	0.0133188
869.990	0.0132935
870.068	0.0133559
870.146	0.0133576
870.224	0.0131570
870.302	0.0131484
870.380	0.0131843
870.458	0.0129699
870.537	0.0127608
870.615	0.0128333
870.693	0.0127237
870.771	0.0126781
870.849	0.0127852
870.927	0.0126258
871.005	0.0127198
871.083	0.0125323
871.162	0.0126546
871.240	0.0125868
871.318	0.0126043
871.396	0.0127654
871.474	0.0127790
871.552	0.0126069
871.630	0.0128365
871.708	0.0128210
871.787	0.0128677
871.865	0.0128918
871.943	0.0130717
872.021	0.0129765
872.099	0.0129902
872.177	0.0131783
872.255	0.0131178
872.333	0.0132392
872.412	0.0131673
872.490	0.0132937
872.568	0.0131478
872.646	0.0130498
872.724	0.0131772
872.802	0.0131322
872.880	0.0131602
872.958	0.0130918
873.037	0.0132510
873.115	0.0133084
873.193	0.0132135
873.271	0.0132824
873.349	0.0133234
873.427	0.0132281
873.505	0.0132310
873.583	0.0132465
873.662	0.0131602
873.740	0.0131944
873.818	0.0133590
873.896	0.0132188
873.974	0.0130881
874.052	0.0131038
874.130	0.0131698
874.208	0.0131512
874.287	0.0130832
874.365	0.0130671
874.443	0.0131372
874.521	0.0131602
874.599	0.0129893
874.677	0.0130957
874.755	0.0131697
874.833	0.0128857
874.912	0.0130775
874.990	0.0132220
875.068	0.0131009
875.146	0.0131073
875.224	0.0131936
875.302	0.0131250
875.380	0.0131306
875.458	0.0131143
875.537	0.0131141
875.615	0.0131171
875.693	0.0133849
875.771	0.0131820
875.849	0.0131975
875.927	0.0132680
876.005	0.0132270
876.083	0.0131672
876.162	0.0132912
876.240	0.0131272
876.318	0.0132124
876.396	0.0131271
876.474	0.0130904
876.552	0.0131382
876.630	0.0130070
876.708	0.0129711
876.787	0.0130538
876.865	0.0131279
876.943	0.0129533
877.021	0.0130420
877.099	0.0131277
877.177	0.0131622
877.255	0.0131042
877.333	0.0131058
877.412	0.0131904
877.490	0.0131895
877.568	0.0132274
877.646	0.0132289
877.724	0.0133391
877.802	0.0132275
877.880	0.0132530
877.958	0.0132339
878.037	0.0131644
878.115	0.0132626
878.193	0.0132124
878.271	0.0132346
878.349	0.0133549
878.427	0.0132764
878.505	0.0131275
878.583	0.0130499
878.662	0.0130711
878.740	0.0130856
878.818	0.0130758
878.896	0.0129824
878.974	0.0130159
879.052	0.0129334
879.130	0.0129096
879.208	0.0130121
879.287	0.0130527
879.365	0.0129713
879.443	0.0129925
879.521	0.0130808
879.599	0.0130611
879.677	0.0132447
879.755	0.0131908
879.833	0.0131161
879.912	0.0131339
879.990	0.0132249
880.068	0.0131445
880.146	0.0130370
880.224	0.0132458
880.302	0.0131709
880.380	0.0132607
880.458	0.0131340
880.537	0.0130434
880.615	0.0131892
880.693	0.0131911
880.771	0.0131490
880.849	0.0132441
880.927	0.0132166
881.005	0.0131272
881.083	0.0131562
881.162	0.0132101
881.240	0.0132574
881.318	0.0133464
881.396	0.0132616
881.474	0.0132257
881.552	0.0132501
881.630	0.0131778
881.708	0.0132262
881.787	0.0131323
881.865	0.0131281
881.943	0.0131211
882.021	0.0131435
882.099	0.0131715
882.177	0.0132239
882.255	0.0132383
882.333	0.0132401
882.412	0.0132919
882.490	0.0132583
882.568	0.0133169
882.646	0.0133073
882.724	0.0132944
882.802	0.0133372
882.880	0.0132512
882.958	0.0131123
883.037	0.0132279
883.115	0.0131007
883.193	0.0131194
883.271	0.0131522
883.349	0.0132600
883.427	0.0129140
883.505	0.0130253
883.583	0.0130456
883.662	0.0128651
883.740	0.0129465
883.818	0.0130150
883.896	0.0129581
883.974	0.0130261
884.052	0.0131265
884.130	0.0131664
884.208	0.0130596
884.287	0.0130491
884.365	0.0130838
884.443	0.0130817
884.521	0.0131075
884.599	0.0131979
884.677	0.0131290
884.755	0.0131339
884.833	0.0131640
884.912	0.0131878
884.990	0.0133944
885.068	0.0131258
885.146	0.0130798
885.224	0.0132108
885.302	0.0133514
885.380	0.0130876
885.458	0.0132491
885.537	0.0131930
885.615	0.0131993
885.693	0.0133376
885.771	0.0132263
885.849	0.0131252
885.927	0.0132613
886.005	0.0132268
886.083	0.0133488
886.162	0.0131863
886.240	0.0131786
886.318	0.0132716
886.396	0.0132529
886.474	0.0131477
886.552	0.0133122
886.630	0.0131921
886.708	0.0132293
886.787	0.0131647
886.865	0.0131037
886.943	0.0131194
887.021	0.0132825
887.099	0.0131148
887.177	0.0130703
887.255	0.0131696
887.333	0.0130851
887.412	0.0130908
887.490	0.0132523
887.568	0.0132346
887.646	0.0132391
887.724	0.0132953
887.802	0.0133752
887.880	0.0131225
887.958	0.0132748
888.037	0.0131543
888.115	0.0131224
888.193	0.0132130
888.271	0.0130431
888.349	0.0130576
888.427	0.0131252
888.505	0.0131063
888.583	0.0130054
888.662	0.0131985
888.740	0.0130286
888.818	0.0132352
888.896	0.0131883
888.974	0.0130510
889.052	0.0131619
889.130	0.0131915
889.208	0.0131069
889.287	0.0132589
889.365	0.0131135
889.443	0.0132047
889.521	0.0131233
889.599	0.0132539
889.677	0.0132711
889.755	0.0133491
889.833	0.0133363
889.912	0.0132885
889.990	0.0134361
890.068	0.0134590
890.146	0.0133073
890.224	0.0133968
890.302	0.0134426
890.380	0.0134031
890.458	0.0134171
890.537	0.0134337
890.615	0.0133927
890.693	0.0133938
890.771	0.0132752
890.849	0.0133448
890.927	0.0133140
891.005	0.0132260
891.083	0.0132582
891.162	0.0132484
891.240	0.0131898
891.318	0.0132423
891.396	0.0131076
891.474	0.0130093
891.552	0.0130517
891.630	0.0129482
891.708	0.0129603
891.787	0.0129280
891.865	0.0129984
891.943	0.0128182
892.021	0.0128054
892.099	0.0129009
892.177	0.0128427
892.255	0.0128252
892.333	0.0127834
892.412	0.0128139
892.490	0.0129497
892.568	0.0129056
892.646	0.0129411
892.724	0.0128986
892.802	0.0129881
892.880	0.0129092
892.958	0.0129809
893.037	0.0130973
893.115	0.0132806
893.193	0.0131632
893.271	0.0133350
893.349	0.0133473
893.427	0.0132693
893.505	0.0134467
893.583	0.0133916
893.662	0.0134161
893.740	0.0133351
893.818	0.0133068
893.896	0.0133884
893.974	0.0133531
894.052	0.0133373
894.130	0.0133617
894.208	0.0133356
894.287	0.0133884
894.365	0.0133249
894.443	0.0132673
894.521	0.0132890
894.599	0.0132851
894.677	0.0132594
894.755	0.0131943
894.833	0.0131852
894.912	0.0130528
894.990	0.0133014
895.068	0.0132643
895.146	0.0131335
895.224	0.0131613
895.302	0.0129790
895.380	0.0131522
895.458	0.0130188
895.537	0.0130179
895.615	0.0131159
895.693	0.0130936
895.771	0.0131805
895.849	0.0131557
895.927	0.0131004
896.005	0.0132816
896.083	0.0130092
896.162	0.0131171
896.240	0.0131773
896.318	0.0130064
896.396	0.0131710
896.474	0.0132289
896.552	0.0132928
896.630	0.0131943
896.708	0.0132566
896.787	0.0131789
896.865	0.0131670
896.943	0.0131485
897.021	0.0130977
897.099	0.0132305
897.177	0.0131596
897.255	0.0131420
897.333	0.0131042
897.412	0.0130997
897.490	0.0130059
897.568	0.0129472
897.646	0.0131184
897.724	0.0130785
897.802	0.0130334
897.880	0.0129723
897.958	0.0130244
898.037	0.0129985
898.115	0.0129617
898.193	0.0129635
898.271	0.0128481
898.349	0.0130010
898.427	0.0129357
898.505	0.0129335
898.583	0.0129374
898.662	0.0130196
898.740	0.0128497
898.818	0.0130544
898.896	0.0130039
898.974	0.0129431
899.052	0.0130752
899.130	0.0131927
899.208	0.0131982
899.287	0.0132915
899.365	0.0132657
899.443	0.0132983
899.521	0.0133274
899.599	0.0133649
899.677	0.0133680
899.755	0.0134632
899.833	0.0133772
899.912	0.0133547
899.990	0.0135277
900.068	0.0135352
900.146	0.0136152
900.224	0.0135957
900.302	0.0134701
900.380	0.0135210
900.458	0.0134839
900.537	0.0134723
900.615	0.0134876
900.693	0.0134420
900.771	0.0134163
900.849	0.0134079
900.927	0.0133559
901.005	0.0132381
901.083	0.0131037
901.162	0.0132854
901.240	0.0131962
901.318	0.0130103
901.396	0.0130627
901.474	0.0130388
901.552	0.0129922
901.630	0.0128553
901.708	0.0130356
901.787	0.0129478
901.865	0.0128363
901.943	0.0128449
902.021	0.0127767
902.099	0.0129195
902.177	0.0129387
902.255	0.0128303
902.333	0.0127308
902.412	0.0128548
902.490	0.0129527
902.568	0.0129987
902.646	0.0129105
902.724	0.0129102
902.802	0.0130540
902.880	0.0130080
902.958	0.0130794
903.037	0.0130662
903.115	0.0129790
903.193	0.0131160
903.271	0.0130005
903.349	0.0132874
903.427	0.0132549
903.505	0.0132005
903.583	0.0132590
903.662	0.0131794
903.740	0.0132345
903.818	0.0132105
903.896	0.0132996
903.974	0.0132530
904.052	0.0132872
904.130	0.0131149
904.208	0.0132277
904.287	0.0132510
904.365	0.0132217
904.443	0.0134357
904.521	0.0133944
904.599	0.0133319
904.677	0.0133897
904.755	0.0133887
904.833	0.0133277
904.912	0.0134445
904.990	0.0133128
905.068	0.0132207
905.146	0.0133701
905.224	0.0135381
905.302	0.0133299
905.380	0.0132719
905.458	0.0133064
905.537	0.0133347
905.615	0.0133247
905.693	0.0132707
905.771	0.0132083
905.849	0.0132576
905.927	0.0131380
906.005	0.0132816
906.083	0.0132798
906.162	0.0132811
906.240	0.0132156
906.318	0.0130647
906.396	0.0131886
906.474	0.0132864
906.552	0.0131493
906.630	0.0132040
906.708	0.0130818
906.787	0.0131052
906.865	0.0131236
906.943	0.0131950
907.021	0.0130405
907.099	0.0131281
907.177	0.0131787
907.255	0.0132475
907.333	0.0133067
907.412	0.0131770
907.490	0.0131493
907.568	0.0131876
907.646	0.0132607
907.724	0.0132633
907.802	0.0130024
907.880	0.0132726
907.958	0.0131990
908.037	0.0130888
908.115	0.0131320
908.193	0.0131387
908.271	0.0131032
908.349	0.0130410
908.427	0.0130195
908.505	0.0131719
908.583	0.0131508
908.662	0.0130259
908.740	0.0131741
908.818	0.0130418
908.896	0.0130920
908.974	0.0130489
909.052	0.0128648
909.130	0.0129610
909.208	0.0131342
909.287	0.0131081
909.365	0.0129841
909.443	0.0129430
909.521	0.0129122
909.599	0.0131361
909.677	0.0131902
909.755	0.0129726
909.833	0.0129744
909.912	0.0130453
909.990	0.0130724
910.068	0.0130716
910.146	0.0130965
910.224	0.0130961
910.302	0.0131560
910.380	0.0130338
910.458	0.0129289
910.537	0.0130865
910.615	0.0130949
910.693	0.0131010
910.771	0.0132085
910.849	0.0132980
910.927	0.0131005
911.005	0.0131666
911.083	0.0132161
911.162	0.0133244
911.240	0.0132156
911.318	0.0131866
911.396	0.0132631
911.474	0.0130655
911.552	0.0131503
911.630	0.0132079
911.708	0.0132904
911.787	0.0132790
911.865	0.0133585
911.943	0.0133804
912.021	0.0133232
912.099	0.0133382
912.177	0.0135154
912.255	0.0133904
912.333	0.0133002
912.412	0.0133424
912.490	0.0132745
912.568	0.0132491
912.646	0.0132815
912.724	0.0132427
912.802	0.0131681
912.880	0.0132493
912.958	0.0132094
913.037	0.0131306
913.115	0.0130209
913.193	0.0130320
913.271	0.0129895
913.349	0.0130839
913.427	0.0131646
913.505	0.0130230
913.583	0.0129761
913.662	0.0130599
913.740	0.0130195
913.818	0.0129102
913.896	0.0129236
913.974	0.0129963
914.052	0.0129092
914.130	0.0128719
914.208	0.0129353
914.287	0.0129153
914.365	0.0129803
914.443	0.0130155
914.521	0.0130476
914.599	0.0130559
914.677	0.0130132
914.755	0.0131385
914.833	0.0131949
914.912	0.0131741
914.990	0.0132671
915.068	0.0132976
915.146	0.0132567
915.224	0.0131924
915.302	0.0133409
915.380	0.0133361
915.458	0.0132411
915.537	0.0135176
915.615	0.0133544
915.693	0.0133865
915.771	0.0133688
915.849	0.0133675
915.927	0.0133866
916.005	0.0133039
916.083	0.0134982
916.162	0.0135699
916.240	0.0134510
916.318	0.0134695
916.396	0.0134229
916.474	0.0134139
916.552	0.0132903
916.630	0.0133387
916.708	0.0135005
916.787	0.0134127
916.865	0.0132668
916.943	0.0132868
917.021	0.0133270
917.099	0.0133125
917.177	0.0133292
917.255	0.0134679
917.333	0.0131460
917.412	0.0131002
917.490	0.0132983
917.568	0.0132691
917.646	0.0130859
917.724	0.0132644
917.802	0.0132595
917.880	0.0132546
917.958	0.0132986
918.037	0.0132703
918.115	0.0132338
918.193	0.0132791
918.271	0.0132709
918.349	0.0131735
918.427	0.0131383
918.505	0.0131366
918.583	0.0131330
918.662	0.0130734
918.740	0.0131800
918.818	0.0132328
918.896	0.0131036
918.974	0.0132727
919.052	0.0131296
919.130	0.0131033
919.208	0.0132020
919.287	0.0130799
919.365	0.0129458
919.443	0.0131441
919.521	0.0131570
919.599	0.0130824
919.677	0.0131757
919.755	0.0131491
919.833	0.0130199
919.912	0.0130823
919.990	0.0130482
920.068	0.0131372
920.146	0.0132273
920.224	0.0130857
920.302	0.0131522
920.380	0.0131306
920.458	0.0131654
920.537	0.0131330
920.615	0.0130027
920.693	0.0130695
920.771	0.0131076
920.849	0.0131361
920.927	0.0131418
921.005	0.0130776
921.083	0.0132992
921.162	0.0129819
921.240	0.0129451
921.318	0.0131757
921.396	0.0131804
921.474	0.0131184
921.552	0.0130925
921.630	0.0133036
921.708	0.0132520
921.787	0.0132001
921.865	0.0131465
921.943	0.0133245
922.021	0.0134751
922.099	0.0133076
922.177	0.0134345
922.255	0.0133466
922.333	0.0134805
922.412	0.0135571
922.490	0.0136275
922.568	0.0135538
922.646	0.0134486
922.724	0.0134772
922.802	0.0136445
922.880	0.0135476
922.958	0.0135360
923.037	0.0136058
923.115	0.0134283
923.193	0.0134415
923.271	0.0132885
923.349	0.0133823
923.427	0.0134009
923.505	0.0133240
923.583	0.0132085
923.662	0.0131811
923.740	0.0132251
923.818	0.0131115
923.896	0.0129508
923.974	0.0130225
924.052	0.0130753
924.130	0.0131550
924.208	0.0131355
924.287	0.0130988
924.365	0.0131524
924.443	0.0130643
924.521	0.0132381
924.599	0.0131953
924.677	0.0131232
924.755	0.0130911
924.833	0.0132502
924.912	0.0132454
924.990	0.0131193
925.068	0.0132037
925.146	0.0130441
925.224	0.0130869
925.302	0.0132389
925.380	0.0130154
925.458	0.0132835
925.537	0.0131112
925.615	0.0131348
925.693	0.0131538
925.771	0.0131950
925.849	0.0131521
925.927	0.0130878
926.005	0.0132751
926.083	0.0131642
926.162	0.0131712
926.240	0.0131113
926.318	0.0132400
926.396	0.0132549
926.474	0.0130096
926.552	0.0130369
926.630	0.0130607
926.708	0.0130212
926.787	0.0131397
926.865	0.0130889
926.943	0.0131219
927.021	0.0130738
927.099	0.0131812
927.177	0.0132540
927.255	0.0132537
927.333	0.0132316
927.412	0.0130786
927.490	0.0132110
927.568	0.0134322
927.646	0.0132778
927.724	0.0134216
927.802	0.0133660
927.880	0.0133671
927.958	0.0133211
928.037	0.0134661
928.115	0.0134796
928.193	0.0135036
928.271	0.0134683
928.349	0.0135676
928.427	0.0133908
928.505	0.0133607
928.583	0.0134657
928.662	0.0135072
928.740	0.0134399
928.818	0.0133749
928.896	0.0134339
928.974	0.0133758
929.052	0.0134769
929.130	0.0134806
929.208	0.0132873
929.287	0.0132275
929.365	0.0131876
929.443	0.0132278
929.521	0.0132166
929.599	0.0132858
929.677	0.0132679
929.755	0.0130962
929.833	0.0131686
929.912	0.0130897
929.990	0.0131142
930.068	0.0130940
930.146	0.0131362
930.224	0.0130031
930.302	0.0131744
930.380	0.0130511
930.458	0.0131570
930.537	0.0131678
930.615	0.0131261
930.693	0.0130124
930.771	0.0132083
930.849	0.0132545
930.927	0.0133121
931.005	0.0132228
931.083	0.0131339
931.162	0.0131526
931.240	0.0131397
931.318	0.0132407
931.396	0.0131429
931.474	0.0131712
931.552	0.0132919
931.630	0.0132604
931.708	0.0130875
931.787	0.0131285
931.865	0.0132930
931.943	0.0132216
932.021	0.0132859
932.099	0.0131435
932.177	0.0131268
932.255	0.0132366
932.333	0.0131922
932.412	0.0132370
932.490	0.0130289
932.568	0.0132619
932.646	0.0130910
932.724	0.0131287
932.802	0.0130804
932.880	0.0131398
932.958	0.0132391
933.037	0.0131465
933.115	0.0131410
933.193	0.0132478
933.271	0.0132780
933.349	0.0131988
933.427	0.0132912
933.505	0.0134283
933.583	0.0133699
933.662	0.0132326
933.740	0.0132690
933.818	0.0132693
933.896	0.0132288
933.974	0.0132715
934.052	0.0133093
934.130	0.0132523
934.208	0.0132236
934.287	0.0131847
934.365	0.0130379
934.443	0.0132259
934.521	0.0131922
934.599	0.0131565
934.677	0.0130698
934.755	0.0130239
934.833	0.0130640
934.912	0.0131731
934.990	0.0131739
935.068	0.0131723
935.146	0.0133363
935.224	0.0131999
935.302	0.0130936
935.380	0.0131585
935.458	0.0131463
935.537	0.0131026
935.615	0.0132027
935.693	0.0131054
935.771	0.0131885
935.849	0.0131966
935.927	0.0131538
936.005	0.0131513
936.083	0.0131544
936.162	0.0130583
936.240	0.0131786
936.318	0.0132082
936.396	0.0131302
936.474	0.0129244
936.552	0.0130952
936.630	0.0131406
936.708	0.0132055
936.787	0.0132104
936.865	0.0131554
936.943	0.0132023
937.021	0.0133099
937.099	0.0131812
937.177	0.0132345
937.255	0.0131030
937.333	0.0131510
937.412	0.0131564
937.490	0.0130918
937.568	0.0130947
937.646	0.0132249
937.724	0.0130908
937.802	0.0130880
937.880	0.0131295
937.958	0.0131171
938.037	0.0130798
938.115	0.0130731
938.193	0.0131380
938.271	0.0131671
938.349	0.0130453
938.427	0.0131199
938.505	0.0131103
938.583	0.0130772
938.662	0.0130752
938.740	0.0129910
938.818	0.0132082
938.896	0.0131633
938.974	0.0131285
939.052	0.0131543
939.130	0.0130453
939.208	0.0131352
939.287	0.0130838
939.365	0.0130790
939.443	0.0131344
939.521	0.0131039
939.599	0.0131032
939.677	0.0132874
939.755	0.0132849
939.833	0.0132699
939.912	0.0132674
939.990	0.0132765
940.068	0.0133721
940.146	0.0133502
940.224	0.0134049
940.302	0.0134117
940.380	0.0132356
940.458	0.0134208
940.537	0.0134317
940.615	0.0134679
940.693	0.0134411
940.771	0.0134103
940.849	0.0134380
940.927	0.0135056
941.005	0.0133819
941.083	0.0133145
941.162	0.0132733
941.240	0.0133630
941.318	0.0132810
941.396	0.0132626
941.474	0.0132062
941.552	0.0132243
941.630	0.0133646
941.708	0.0132848
941.787	0.0132473
941.865	0.0131377
941.943	0.0131779
942.021	0.0133289
942.099	0.0132216
942.177	0.0131428
942.255	0.0132649
942.333	0.0132001
942.412	0.0131431
942.490	0.0131063
942.568	0.0132220
942.646	0.0132082
942.724	0.0130795
942.802	0.0131408
942.880	0.0131214
942.958	0.0132529
943.037	0.0132298
943.115	0.0134212
943.193	0.0132221
943.271	0.0132230
943.349	0.0133433
943.427	0.0132297
943.505	0.0133440
943.583	0.0132774
943.662	0.0133485
943.740	0.0133261
943.818	0.0133035
943.896	0.0132004
943.974	0.0132381
944.052	0.0131577
944.130	0.0132645
944.208	0.0133425
944.287	0.0132527
944.365	0.0132118
944.443	0.0133433
944.521	0.0132041
944.599	0.0132958
944.677	0.0133266
944.755	0.0131214
944.833	0.0130522
944.912	0.0131766
944.990	0.0131404
945.068	0.0131938
945.146	0.0133162
945.224	0.0131403
945.302	0.0131397
945.380	0.0132004
945.458	0.0132294
945.537	0.0131577
945.615	0.0131914
945.693	0.0132483
945.771	0.0132817
945.849	0.0132808
945.927	0.0132233
946.005	0.0132880
946.083	0.0131260
946.162	0.0131083
946.240	0.0132175
946.318	0.0131406
946.396	0.0133225
946.474	0.0133026
946.552	0.0132272
946.630	0.0133251
946.708	0.0132817
946.787	0.0132166
946.865	0.0133038
946.943	0.0132434
947.021	0.0132383
947.099	0.0133865
947.177	0.0133783
947.255	0.0132278
947.333	0.0134043
947.412	0.0134759
947.490	0.0134173
947.568	0.0133309
947.646	0.0134600
947.724	0.0134081
947.802	0.0132166
947.880	0.0133080
947.958	0.0134144
948.037	0.0132137
948.115	0.0132496
948.193	0.0132283
948.271	0.0133079
948.349	0.0132375
948.427	0.0131681
948.505	0.0132555
948.583	0.0131570
948.662	0.0132380
948.740	0.0132659
948.818	0.0131993
948.896	0.0132567
948.974	0.0132748
949.052	0.0131049
949.130	0.0131697
949.208	0.0130816
949.287	0.0132095
949.365	0.0132971
949.443	0.0133022
949.521	0.0130906
949.599	0.0131844
949.677	0.0132107
949.755	0.0133727
949.833	0.0131282
949.912	0.0130772
949.990	0.0130263
950.068	0.0131596
950.146	0.0131488
950.224	0.0130431
950.302	0.0130802
950.380	0.0129284
950.458	0.0131129
950.537	0.0130351
950.615	0.0129877
950.693	0.0129957
950.771	0.0130328
950.849	0.0131219
950.927	0.0131371
951.005	0.0129886
951.083	0.0130332
951.162	0.0132018
951.240	0.0132094
951.318	0.0131382
951.396	0.0132236
951.474	0.0131605
951.552	0.0131244
951.630	0.0131304
951.708	0.0131196
951.787	0.0132899
951.865	0.0133164
951.943	0.0131902
952.021	0.0131731
952.099	0.0131779
952.177	0.0132497
952.255	0.0130573
952.333	0.0132201
952.412	0.0132940
952.490	0.0131880
952.568	0.0132181
952.646	0.0132056
952.724	0.0131754
952.802	0.0132283
952.880	0.0133479
952.958	0.0131232
953.037	0.0131664
953.115	0.0132214
953.193	0.0132484
953.271	0.0131763
953.349	0.0130967
953.427	0.0132648
953.505	0.0130971
953.583	0.0131376
953.662	0.0131138
953.740	0.0131492
953.818	0.0129872
953.896	0.0131105
953.974	0.0129913
954.052	0.0130206
954.130	0.0129478
954.208	0.0132226
954.287	0.0130688
954.365	0.0130331
954.443	0.0130100
954.521	0.0130043
954.599	0.0131046
954.677	0.0131529
954.755	0.0131830
954.833	0.0131131
954.912	0.0131384
954.990	0.0131077
955.068	0.0130288
955.146	0.0130832
955.224	0.0131501
955.302	0.0130441
955.380	0.0130962
955.458	0.0131483
955.537	0.0130875
955.615	0.0129514
955.693	0.0130498
955.771	0.0131372
955.849	0.0130024
955.927	0.0131480
956.005	0.0132021
956.083	0.0131100
956.162	0.0130362
956.240	0.0131205
956.318	0.0131873
956.396	0.0132951
956.474	0.0131588
956.552	0.0132642
956.630	0.0135007
956.708	0.0132262
956.787	0.0131717
956.865	0.0131936
956.943	0.0133672
957.021	0.0131586
957.099	0.0132217
957.177	0.0133511
957.255	0.0133346
957.333	0.0131413
957.412	0.0131895
957.490	0.0131430
957.568	0.0131152
957.646	0.0130107
957.724	0.0131242
957.802	0.0131763
957.880	0.0131197
957.958	0.0130779
958.037	0.0130190
958.115	0.0131640
958.193	0.0131280
958.271	0.0130533
958.349	0.0129396
958.427	0.0130337
958.505	0.0131907
958.583	0.0130856
958.662	0.0129667
958.740	0.0129774
958.818	0.0129965
958.896	0.0131490
958.974	0.0131088
959.052	0.0130856
959.130	0.0130206
959.208	0.0132001
959.287	0.0131830
959.365	0.0132981
959.443	0.0132226
959.521	0.0132813
959.599	0.0131583
959.677	0.0133473
959.755	0.0132658
959.833	0.0132124
959.912	0.0132996
959.990	0.0132056
960.068	0.0131455
960.146	0.0132227
960.224	0.0130736
960.302	0.0131171
960.380	0.0131282
960.458	0.0131688
960.537	0.0131570
960.615	0.0131443
960.693	0.0130161
960.771	0.0130153
960.849	0.0131026
960.927	0.0129938
961.005	0.0130154
961.083	0.0130446
961.162	0.0131025
961.240	0.0130148
961.318	0.0129498
961.396	0.0130452
961.474	0.0132124
961.552	0.0130373
961.630	0.0130610
961.708	0.0132786
961.787	0.0131929
961.865	0.0131526
961.943	0.0132407
962.021	0.0133159
962.099	0.0131563
962.177	0.0131338
962.255	0.0133545
962.333	0.0132199
962.412	0.0132605
962.490	0.0132813
962.568	0.0133265
962.646	0.0133269
962.724	0.0133650
962.802	0.0133711
962.880	0.0132552
962.958	0.0134767
963.037	0.0134587
963.115	0.0134053
963.193	0.0133464
963.271	0.0132864
963.349	0.0132323
963.427	0.0132559
963.505	0.0132268
963.583	0.0134504
963.662	0.0131779
963.740	0.0131780
963.818	0.0131182
963.896	0.0130463
963.974	0.0130138
964.052	0.0130422
964.130	0.0131171
964.208	0.0131117
964.287	0.0130150
964.365	0.0130676
964.443	0.0131022
964.521	0.0130289
964.599	0.0128331
964.677	0.0131995
964.755	0.0131718
964.833	0.0130286
964.912	0.0131617
964.990	0.0131815
965.068	0.0133298
965.146	0.0133282
965.224	0.0133630
965.302	0.0134605
965.380	0.0133681
965.458	0.0133201
965.537	0.0133170
965.615	0.0134400
965.693	0.0133159
965.771	0.0132124
965.849	0.0132137
965.927	0.0132804
966.005	0.0133177
966.083	0.0133289
966.162	0.0132191
966.240	0.0130886
966.318	0.0131659
966.396	0.0131618
966.474	0.0131341
966.552	0.0131128
966.630	0.0130240
966.708	0.0130608
966.787	0.0129463
966.865	0.0130850
966.943	0.0130946
967.021	0.0130725
967.099	0.0129848
967.177	0.0130123
967.255	0.0130717
967.333	0.0130142
967.412	0.0129781
967.490	0.0129556
967.568	0.0131089
967.646	0.0130311
967.724	0.0133071
967.802	0.0131187
967.880	0.0131461
967.958	0.0130901
968.037	0.0132154
968.115	0.0132005
968.193	0.0131549
968.271	0.0132363
968.349	0.0131815
968.427	0.0131989
968.505	0.0132987
968.583	0.0132065
968.662	0.0131898
968.740	0.0132171
968.818	0.0131446
968.896	0.0131892
968.974	0.0132253
969.052	0.0131759
969.130	0.0130658
969.208	0.0132597
969.287	0.0130524
969.365	0.0131940
969.443	0.0134167
969.521	0.0132400
969.599	0.0132153
969.677	0.0134104
969.755	0.0133224
969.833	0.0133424
969.912	0.0133173
