05/08/2022	19:32:44	Ver.	4.1	UNKNOWN
Optical Delay	649.996338	Delta X		0.078125	Sweeps	1	Scan Rate	0/0
Coordinates	Axis 1	NaN	Axis 2	NaN	Axis 3	NaN	Axis 4	NaN	Axis 5	NaN	Axis 6	0.000000
TX Power	0.000000	RX Power	0.000000

649.996	0.0141513
650.074	0.0141176
650.153	0.0141129
650.231	0.0142007
650.309	0.0142374
650.387	0.0141074
650.465	0.0141015
650.543	0.0142426
650.621	0.0140269
650.699	0.0142432
650.778	0.0142350
650.856	0.0141010
650.934	0.0140442
651.012	0.0140437
651.090	0.0142344
651.168	0.0142010
651.246	0.0141553
651.324	0.0141951
651.403	0.0141447
651.481	0.0141993
651.559	0.0142136
651.637	0.0140690
651.715	0.0141792
651.793	0.0142091
651.871	0.0141904
651.949	0.0142192
652.028	0.0141109
652.106	0.0141409
652.184	0.0142873
652.262	0.0142293
652.340	0.0142307
652.418	0.0140237
652.496	0.0140656
652.574	0.0142683
652.653	0.0142017
652.731	0.0141562
652.809	0.0140628
652.887	0.0141314
652.965	0.0141570
653.043	0.0141102
653.121	0.0139484
653.199	0.0141320
653.278	0.0141602
653.356	0.0140797
653.434	0.0140101
653.512	0.0140762
653.590	0.0141704
653.668	0.0141038
653.746	0.0141541
653.824	0.0141195
653.903	0.0142319
653.981	0.0141733
654.059	0.0140583
654.137	0.0141822
654.215	0.0140894
654.293	0.0140820
654.371	0.0142053
654.449	0.0141273
654.528	0.0140594
654.606	0.0140989
654.684	0.0140682
654.762	0.0142002
654.840	0.0141061
654.918	0.0140833
654.996	0.0141275
655.074	0.0140276
655.153	0.0140533
655.231	0.0141879
655.309	0.0141338
655.387	0.0141457
655.465	0.0141930
655.543	0.0141154
655.621	0.0140942
655.699	0.0141908
655.778	0.0140545
655.856	0.0140613
655.934	0.0140458
656.012	0.0141225
656.090	0.0141055
656.168	0.0141635
656.246	0.0141555
656.324	0.0140424
656.403	0.0142641
656.481	0.0140371
656.559	0.0140692
656.637	0.0140944
656.715	0.0140544
656.793	0.0140549
656.871	0.0140988
656.949	0.0141789
657.028	0.0140365
657.106	0.0140641
657.184	0.0140468
657.262	0.0140775
657.340	0.0141490
657.418	0.0142326
657.496	0.0140654
657.574	0.0140219
657.653	0.0140692
657.731	0.0141389
657.809	0.0141929
657.887	0.0142124
657.965	0.0141311
658.043	0.0141317
658.121	0.0140721
658.199	0.0141447
658.278	0.0141285
658.356	0.0140055
658.434	0.0141052
658.512	0.0141322
658.590	0.0140651
658.668	0.0142477
658.746	0.0140808
658.824	0.0141662
658.903	0.0141866
658.981	0.0141088
659.059	0.0140192
659.137	0.0141650
659.215	0.0140898
659.293	0.0141723
659.371	0.0141396
659.449	0.0141626
659.528	0.0140624
659.606	0.0141940
659.684	0.0140456
659.762	0.0141766
659.840	0.0142216
659.918	0.0140777
659.996	0.0141489
660.074	0.0140770
660.153	0.0141480
660.231	0.0140791
660.309	0.0140541
660.387	0.0141519
660.465	0.0140652
660.543	0.0141397
660.621	0.0143791
660.699	0.0141093
660.778	0.0141491
660.856	0.0142290
660.934	0.0143227
661.012	0.0141519
661.090	0.0140570
661.168	0.0142664
661.246	0.0141558
661.324	0.0141322
661.403	0.0140810
661.481	0.0141523
661.559	0.0141101
661.637	0.0140277
661.715	0.0139902
661.793	0.0141199
661.871	0.0141560
661.949	0.0142989
662.028	0.0141293
662.106	0.0141937
662.184	0.0140615
662.262	0.0141173
662.340	0.0141154
662.418	0.0140193
662.496	0.0142162
662.574	0.0141365
662.653	0.0140807
662.731	0.0140567
662.809	0.0141708
662.887	0.0141000
662.965	0.0141544
663.043	0.0141376
663.121	0.0142287
663.199	0.0140387
663.278	0.0141609
663.356	0.0141240
663.434	0.0141720
663.512	0.0141426
663.590	0.0141513
663.668	0.0142219
663.746	0.0141864
663.824	0.0141486
663.903	0.0141656
663.981	0.0141048
664.059	0.0140247
664.137	0.0140187
664.215	0.0140454
664.293	0.0141797
664.371	0.0141321
664.449	0.0141085
664.528	0.0142850
664.606	0.0141107
664.684	0.0140558
664.762	0.0141766
664.840	0.0141890
664.918	0.0140294
664.996	0.0141693
665.074	0.0142336
665.153	0.0141685
665.231	0.0142710
665.309	0.0142254
665.387	0.0142715
665.465	0.0141957
665.543	0.0141550
665.621	0.0141245
665.699	0.0142674
665.778	0.0141314
665.856	0.0141752
665.934	0.0142718
666.012	0.0141891
666.090	0.0140385
666.168	0.0140811
666.246	0.0142065
666.324	0.0141911
666.403	0.0141694
666.481	0.0141395
666.559	0.0139907
666.637	0.0141529
666.715	0.0140404
666.793	0.0141538
666.871	0.0142455
666.949	0.0142456
667.028	0.0140497
667.106	0.0140364
667.184	0.0141869
667.262	0.0140940
667.340	0.0140299
667.418	0.0141376
667.496	0.0142623
667.574	0.0142551
667.653	0.0140475
667.731	0.0139912
667.809	0.0142207
667.887	0.0142865
667.965	0.0140265
668.043	0.0141244
668.121	0.0142027
668.199	0.0141097
668.278	0.0142158
668.356	0.0142731
668.434	0.0140761
668.512	0.0140032
668.590	0.0141254
668.668	0.0140878
668.746	0.0141113
668.824	0.0140832
668.903	0.0141234
668.981	0.0141022
669.059	0.0140582
669.137	0.0139806
669.215	0.0141571
669.293	0.0142715
669.371	0.0141076
669.449	0.0140424
669.528	0.0140517
669.606	0.0141756
669.684	0.0141158
669.762	0.0140585
669.840	0.0141486
669.918	0.0141975
669.996	0.0140756
670.074	0.0141283
670.153	0.0142172
670.231	0.0141514
670.309	0.0140798
670.387	0.0141505
670.465	0.0140193
670.543	0.0141987
670.621	0.0140304
670.699	0.0140133
670.778	0.0139413
670.856	0.0140753
670.934	0.0141752
671.012	0.0141084
671.090	0.0140359
671.168	0.0140493
671.246	0.0140412
671.324	0.0139293
671.403	0.0139298
671.481	0.0139845
671.559	0.0139024
671.637	0.0140623
671.715	0.0139189
671.793	0.0140053
671.871	0.0139698
671.949	0.0138334
672.028	0.0138686
672.106	0.0138718
672.184	0.0139747
672.262	0.0140703
672.340	0.0137981
672.418	0.0139914
672.496	0.0140411
672.574	0.0139587
672.653	0.0139515
672.731	0.0139993
672.809	0.0138945
672.887	0.0141031
672.965	0.0140826
673.043	0.0140563
673.121	0.0139742
673.199	0.0139842
673.278	0.0139934
673.356	0.0140681
673.434	0.0139310
673.512	0.0140470
673.590	0.0139701
673.668	0.0140702
673.746	0.0140293
673.824	0.0139277
673.903	0.0140147
673.981	0.0140610
674.059	0.0140001
674.137	0.0141752
674.215	0.0140164
674.293	0.0141697
674.371	0.0140031
674.449	0.0139516
674.528	0.0139848
674.606	0.0142392
674.684	0.0140443
674.762	0.0138980
674.840	0.0140894
674.918	0.0140598
674.996	0.0140417
675.074	0.0140221
675.153	0.0141335
675.231	0.0141526
675.309	0.0142304
675.387	0.0140397
675.465	0.0141308
675.543	0.0141471
675.621	0.0140501
675.699	0.0140380
675.778	0.0140645
675.856	0.0140453
675.934	0.0141678
676.012	0.0140582
676.090	0.0141138
676.168	0.0140434
676.246	0.0141812
676.324	0.0142194
676.403	0.0142194
676.481	0.0141702
676.559	0.0140807
676.637	0.0143478
676.715	0.0142271
676.793	0.0142438
676.871	0.0141625
676.949	0.0141510
677.028	0.0141591
677.106	0.0143613
677.184	0.0142706
677.262	0.0143056
677.340	0.0142567
677.418	0.0144539
677.496	0.0142549
677.574	0.0143393
677.653	0.0142745
677.731	0.0143787
677.809	0.0143005
677.887	0.0141237
677.965	0.0143743
678.043	0.0144271
678.121	0.0142059
678.199	0.0143546
678.278	0.0144036
678.356	0.0143603
678.434	0.0144546
678.512	0.0143051
678.590	0.0143404
678.668	0.0143036
678.746	0.0144109
678.824	0.0143114
678.903	0.0142800
678.981	0.0143741
679.059	0.0143591
679.137	0.0142827
679.215	0.0142680
679.293	0.0143787
679.371	0.0144347
679.449	0.0143221
679.528	0.0143350
679.606	0.0144249
679.684	0.0143580
679.762	0.0142679
679.840	0.0141353
679.918	0.0142766
679.996	0.0143060
680.074	0.0143044
680.153	0.0143423
680.231	0.0143886
680.309	0.0145042
680.387	0.0143348
680.465	0.0142325
680.543	0.0142929
680.621	0.0143243
680.699	0.0142955
680.778	0.0142493
680.856	0.0143360
680.934	0.0142332
681.012	0.0143468
681.090	0.0142484
681.168	0.0143973
681.246	0.0141782
681.324	0.0142508
681.403	0.0142507
681.481	0.0142670
681.559	0.0142720
681.637	0.0141982
681.715	0.0143413
681.793	0.0143269
681.871	0.0142658
681.949	0.0142899
682.028	0.0141354
682.106	0.0142295
682.184	0.0142587
682.262	0.0140728
682.340	0.0142116
682.418	0.0143533
682.496	0.0142137
682.574	0.0142104
682.653	0.0140686
682.731	0.0141713
682.809	0.0142323
682.887	0.0143249
682.965	0.0141632
683.043	0.0142036
683.121	0.0142545
683.199	0.0142886
683.278	0.0141317
683.356	0.0141257
683.434	0.0141302
683.512	0.0140541
683.590	0.0141578
683.668	0.0139719
683.746	0.0140443
683.824	0.0142031
683.903	0.0141646
683.981	0.0139703
684.059	0.0139896
684.137	0.0140355
684.215	0.0141857
684.293	0.0141132
684.371	0.0139386
684.449	0.0141372
684.528	0.0141134
684.606	0.0141821
684.684	0.0142284
684.762	0.0142354
684.840	0.0142562
684.918	0.0140802
684.996	0.0140539
685.074	0.0140990
685.153	0.0139317
685.231	0.0138607
685.309	0.0138354
685.387	0.0139562
685.465	0.0139425
685.543	0.0139029
685.621	0.0140367
685.699	0.0141190
685.778	0.0141460
685.856	0.0142654
685.934	0.0143121
686.012	0.0143645
686.090	0.0143307
686.168	0.0142224
686.246	0.0143114
686.324	0.0142595
686.403	0.0141703
686.481	0.0141392
686.559	0.0141705
686.637	0.0140511
686.715	0.0140813
686.793	0.0139932
686.871	0.0139618
686.949	0.0138828
687.028	0.0139069
687.106	0.0139397
687.184	0.0141061
687.262	0.0140744
687.340	0.0140007
687.418	0.0140983
687.496	0.0142582
687.574	0.0142139
687.653	0.0142888
687.731	0.0142973
687.809	0.0143461
687.887	0.0143217
687.965	0.0141447
688.043	0.0142791
688.121	0.0142425
688.199	0.0142409
688.278	0.0141302
688.356	0.0139696
688.434	0.0142145
688.512	0.0140880
688.590	0.0140700
688.668	0.0141180
688.746	0.0142053
688.824	0.0142233
688.903	0.0142091
688.981	0.0143844
689.059	0.0144077
689.137	0.0143526
689.215	0.0144366
689.293	0.0143329
689.371	0.0142312
689.449	0.0141666
689.528	0.0141429
689.606	0.0139671
689.684	0.0139364
689.762	0.0139606
689.840	0.0140190
689.918	0.0138601
689.996	0.0137388
690.074	0.0137063
690.153	0.0136185
690.231	0.0136259
690.309	0.0136692
690.387	0.0137799
690.465	0.0138183
690.543	0.0139262
690.621	0.0138674
690.699	0.0141150
690.778	0.0141019
690.856	0.0143739
690.934	0.0145071
691.012	0.0144408
691.090	0.0144396
691.168	0.0146682
691.246	0.0146783
691.324	0.0144573
691.403	0.0146474
691.481	0.0146867
691.559	0.0146503
691.637	0.0145570
691.715	0.0144662
691.793	0.0143225
691.871	0.0142016
691.949	0.0141518
692.028	0.0140507
692.106	0.0139150
692.184	0.0138024
692.262	0.0137568
692.340	0.0137531
692.418	0.0137866
692.496	0.0137867
692.574	0.0135258
692.653	0.0137705
692.731	0.0137109
692.809	0.0138952
692.887	0.0138779
692.965	0.0137419
693.043	0.0139523
693.121	0.0139375
693.199	0.0138051
693.278	0.0139467
693.356	0.0138701
693.434	0.0139401
693.512	0.0137612
693.590	0.0138855
693.668	0.0138628
693.746	0.0139820
693.824	0.0139611
693.903	0.0140230
693.981	0.0142799
694.059	0.0143288
694.137	0.0143062
694.215	0.0144375
694.293	0.0146155
694.371	0.0147182
694.449	0.0148231
694.528	0.0149158
694.606	0.0150397
694.684	0.0148422
694.762	0.0146158
694.840	0.0146969
694.918	0.0145510
694.996	0.0145054
695.074	0.0144010
695.153	0.0142338
695.231	0.0141251
695.309	0.0141059
695.387	0.0139069
695.465	0.0138264
695.543	0.0136773
695.621	0.0136586
695.699	0.0135358
695.778	0.0134100
695.856	0.0133244
695.934	0.0134296
696.012	0.0133129
696.090	0.0134177
696.168	0.0134595
696.246	0.0135001
696.324	0.0135057
696.403	0.0135779
696.481	0.0137929
696.559	0.0138101
696.637	0.0138559
696.715	0.0139413
696.793	0.0140993
696.871	0.0141670
696.949	0.0141940
697.028	0.0142313
697.106	0.0142389
697.184	0.0142965
697.262	0.0144086
697.340	0.0142612
697.418	0.0142876
697.496	0.0143728
697.574	0.0143722
697.653	0.0143267
697.731	0.0144781
697.809	0.0145408
697.887	0.0146352
697.965	0.0147166
698.043	0.0146377
698.121	0.0147454
698.199	0.0146384
698.278	0.0147411
698.356	0.0146670
698.434	0.0145686
698.512	0.0146167
698.590	0.0143966
698.668	0.0143002
698.746	0.0141684
698.824	0.0141417
698.903	0.0140025
698.981	0.0138421
699.059	0.0138135
699.137	0.0137393
699.215	0.0134417
699.293	0.0135390
699.371	0.0133362
699.449	0.0132475
699.528	0.0132356
699.606	0.0133073
699.684	0.0134485
699.762	0.0133624
699.840	0.0133604
699.918	0.0134951
699.996	0.0136034
700.074	0.0135500
700.153	0.0136163
700.231	0.0138399
700.309	0.0138035
700.387	0.0137351
700.465	0.0137814
700.543	0.0140393
700.621	0.0141262
700.699	0.0142124
700.778	0.0142047
700.856	0.0142144
700.934	0.0142780
701.012	0.0142248
701.090	0.0144360
701.168	0.0143351
701.246	0.0144019
701.324	0.0142575
701.403	0.0142896
701.481	0.0142551
701.559	0.0143639
701.637	0.0143082
701.715	0.0142591
701.793	0.0142305
701.871	0.0142267
701.949	0.0143534
702.028	0.0144756
702.106	0.0145047
702.184	0.0146013
702.262	0.0145131
702.340	0.0145284
702.418	0.0144679
702.496	0.0144317
702.574	0.0144874
702.653	0.0145932
702.731	0.0145055
702.809	0.0144115
702.887	0.0141769
702.965	0.0142806
703.043	0.0141867
703.121	0.0139743
703.199	0.0138351
703.278	0.0139254
703.356	0.0138956
703.434	0.0138512
703.512	0.0138175
703.590	0.0138968
703.668	0.0138925
703.746	0.0138564
703.824	0.0137123
703.903	0.0137014
703.981	0.0136850
704.059	0.0136469
704.137	0.0136546
704.215	0.0136750
704.293	0.0134924
704.371	0.0137372
704.449	0.0136462
704.528	0.0136470
704.606	0.0137381
704.684	0.0139218
704.762	0.0140061
704.840	0.0140614
704.918	0.0140172
704.996	0.0142281
705.074	0.0144095
705.153	0.0144746
705.231	0.0145277
705.309	0.0145790
705.387	0.0147276
705.465	0.0148291
705.543	0.0149014
705.621	0.0148051
705.699	0.0148198
705.778	0.0149237
705.856	0.0149969
705.934	0.0148963
706.012	0.0148853
706.090	0.0150351
706.168	0.0149684
706.246	0.0148775
706.324	0.0148852
706.403	0.0148997
706.481	0.0147691
706.559	0.0147137
706.637	0.0145600
706.715	0.0145513
706.793	0.0144062
706.871	0.0144759
706.949	0.0144466
707.028	0.0142962
707.106	0.0141624
707.184	0.0142262
707.262	0.0140733
707.340	0.0139151
707.418	0.0139551
707.496	0.0138475
707.574	0.0136534
707.653	0.0136744
707.731	0.0137071
707.809	0.0136699
707.887	0.0136893
707.965	0.0137216
708.043	0.0136818
708.121	0.0137646
708.199	0.0138231
708.278	0.0138615
708.356	0.0138963
708.434	0.0137936
708.512	0.0139480
708.590	0.0140301
708.668	0.0140427
708.746	0.0139275
708.824	0.0140334
708.903	0.0140002
708.981	0.0142003
709.059	0.0141925
709.137	0.0142976
709.215	0.0143903
709.293	0.0143682
709.371	0.0144259
709.449	0.0145072
709.528	0.0143213
709.606	0.0143654
709.684	0.0143462
709.762	0.0143009
709.840	0.0143244
709.918	0.0142580
709.996	0.0142830
710.074	0.0144431
710.153	0.0142427
710.231	0.0141811
710.309	0.0140261
710.387	0.0143016
710.465	0.0141783
710.543	0.0141603
710.621	0.0141383
710.699	0.0140218
710.778	0.0139905
710.856	0.0140520
710.934	0.0141259
711.012	0.0140775
711.090	0.0141283
711.168	0.0140772
711.246	0.0140030
711.324	0.0138116
711.403	0.0140726
711.481	0.0141007
711.559	0.0141463
711.637	0.0139332
711.715	0.0140588
711.793	0.0139863
711.871	0.0140843
711.949	0.0140950
712.028	0.0142583
712.106	0.0143686
712.184	0.0142029
712.262	0.0141785
712.340	0.0142658
712.418	0.0141952
712.496	0.0140876
712.574	0.0141665
712.653	0.0140079
712.731	0.0139749
712.809	0.0140974
712.887	0.0140551
712.965	0.0139185
713.043	0.0139591
713.121	0.0139977
713.199	0.0138694
713.278	0.0138113
713.356	0.0139796
713.434	0.0138067
713.512	0.0139404
713.590	0.0139259
713.668	0.0140025
713.746	0.0141148
713.824	0.0139775
713.903	0.0140656
713.981	0.0141822
714.059	0.0142226
714.137	0.0142103
714.215	0.0141217
714.293	0.0142494
714.371	0.0142330
714.449	0.0142529
714.528	0.0141364
714.606	0.0142252
714.684	0.0142381
714.762	0.0142565
714.840	0.0140289
714.918	0.0141947
714.996	0.0142186
715.074	0.0139722
715.153	0.0140535
715.231	0.0140667
715.309	0.0140420
715.387	0.0139692
715.465	0.0139559
715.543	0.0139898
715.621	0.0139672
715.699	0.0139526
715.778	0.0140051
715.856	0.0139491
715.934	0.0140851
716.012	0.0141544
716.090	0.0140662
716.168	0.0142188
716.246	0.0142394
716.324	0.0142533
716.403	0.0141865
716.481	0.0143758
716.559	0.0144202
716.637	0.0143826
716.715	0.0142764
716.793	0.0144459
716.871	0.0145276
716.949	0.0145263
717.028	0.0144504
717.106	0.0143389
717.184	0.0143271
717.262	0.0142425
717.340	0.0141834
717.418	0.0142843
717.496	0.0144077
717.574	0.0141934
717.653	0.0140562
717.731	0.0140630
717.809	0.0140617
717.887	0.0140278
717.965	0.0140040
718.043	0.0140105
718.121	0.0139812
718.199	0.0139442
718.278	0.0138580
718.356	0.0139505
718.434	0.0138918
718.512	0.0139212
718.590	0.0139664
718.668	0.0139874
718.746	0.0140159
718.824	0.0139162
718.903	0.0139621
718.981	0.0139342
719.059	0.0140376
719.137	0.0140160
719.215	0.0140205
719.293	0.0140672
719.371	0.0141595
719.449	0.0141897
719.528	0.0141498
719.606	0.0142912
719.684	0.0143613
719.762	0.0142632
719.840	0.0142652
719.918	0.0143330
719.996	0.0144511
720.074	0.0143703
720.153	0.0144587
720.231	0.0142841
720.309	0.0143794
720.387	0.0143802
720.465	0.0143822
720.543	0.0143944
720.621	0.0142339
720.699	0.0142456
720.778	0.0143385
720.856	0.0142770
720.934	0.0142024
721.012	0.0141422
721.090	0.0141864
721.168	0.0140766
721.246	0.0141291
721.324	0.0142445
721.403	0.0140572
721.481	0.0141020
721.559	0.0139694
721.637	0.0139925
721.715	0.0139439
721.793	0.0141022
721.871	0.0138790
721.949	0.0138792
722.028	0.0140688
722.106	0.0140928
722.184	0.0140339
722.262	0.0140253
722.340	0.0140112
722.418	0.0142230
722.496	0.0142312
722.574	0.0140552
722.653	0.0139983
722.731	0.0142349
722.809	0.0141803
722.887	0.0141026
722.965	0.0140577
723.043	0.0141301
723.121	0.0141151
723.199	0.0139646
723.278	0.0138972
723.356	0.0140993
723.434	0.0139375
723.512	0.0138866
723.590	0.0139065
723.668	0.0138621
723.746	0.0137991
723.824	0.0136303
723.903	0.0138218
723.981	0.0137981
724.059	0.0137433
724.137	0.0138472
724.215	0.0138158
724.293	0.0137415
724.371	0.0138208
724.449	0.0139017
724.528	0.0138127
724.606	0.0138083
724.684	0.0137849
724.762	0.0138967
724.840	0.0139362
724.918	0.0140404
724.996	0.0139657
725.074	0.0139252
725.153	0.0139384
725.231	0.0139022
725.309	0.0139449
725.387	0.0140021
725.465	0.0139761
725.543	0.0141454
725.621	0.0140224
725.699	0.0140508
725.778	0.0140448
725.856	0.0142551
725.934	0.0140462
726.012	0.0141657
726.090	0.0139709
726.168	0.0140136
726.246	0.0140920
726.324	0.0139676
726.403	0.0141389
726.481	0.0141210
726.559	0.0140720
726.637	0.0141124
726.715	0.0139946
726.793	0.0139824
726.871	0.0141351
726.949	0.0141142
727.028	0.0141634
727.106	0.0140767
727.184	0.0141907
727.262	0.0141103
727.340	0.0142699
727.418	0.0141388
727.496	0.0141773
727.574	0.0141221
727.653	0.0142040
727.731	0.0141594
727.809	0.0142159
727.887	0.0141547
727.965	0.0142820
728.043	0.0143069
728.121	0.0143407
728.199	0.0143631
728.278	0.0143060
728.356	0.0143317
728.434	0.0142803
728.512	0.0141825
728.590	0.0142639
728.668	0.0141539
728.746	0.0141280
728.824	0.0142252
728.903	0.0142375
728.981	0.0141397
729.059	0.0141573
729.137	0.0141341
729.215	0.0140919
729.293	0.0140637
729.371	0.0141209
729.449	0.0141605
729.528	0.0142525
729.606	0.0141932
729.684	0.0141846
729.762	0.0140195
729.840	0.0142831
729.918	0.0142046
729.996	0.0140989
730.074	0.0141310
730.153	0.0140295
730.231	0.0141456
730.309	0.0140913
730.387	0.0141199
730.465	0.0141823
730.543	0.0141557
730.621	0.0142876
730.699	0.0142657
730.778	0.0142141
730.856	0.0140974
730.934	0.0139649
731.012	0.0141638
731.090	0.0142216
731.168	0.0139910
731.246	0.0140232
731.324	0.0140405
731.403	0.0142504
731.481	0.0141405
731.559	0.0142755
731.637	0.0142396
731.715	0.0142498
731.793	0.0142311
731.871	0.0142370
731.949	0.0141695
732.028	0.0142080
732.106	0.0142333
732.184	0.0142074
732.262	0.0142123
732.340	0.0142394
732.418	0.0143097
732.496	0.0143221
732.574	0.0143899
732.653	0.0142165
732.731	0.0141545
732.809	0.0142899
732.887	0.0141785
732.965	0.0142908
733.043	0.0142878
733.121	0.0142348
733.199	0.0142270
733.278	0.0142412
733.356	0.0142838
733.434	0.0142471
733.512	0.0142940
733.590	0.0141734
733.668	0.0141666
733.746	0.0142165
733.824	0.0142967
733.903	0.0140993
733.981	0.0140660
734.059	0.0140724
734.137	0.0141829
734.215	0.0142621
734.293	0.0141982
734.371	0.0142180
734.449	0.0141620
734.528	0.0141679
734.606	0.0142127
734.684	0.0142138
734.762	0.0141519
734.840	0.0140856
734.918	0.0142117
734.996	0.0141068
735.074	0.0141513
735.153	0.0141250
735.231	0.0141428
735.309	0.0141597
735.387	0.0141884
735.465	0.0141055
735.543	0.0142265
735.621	0.0140548
735.699	0.0140469
735.778	0.0140769
735.856	0.0140472
735.934	0.0141280
736.012	0.0140450
736.090	0.0139895
736.168	0.0138899
736.246	0.0138063
736.324	0.0137935
736.403	0.0138551
736.481	0.0139001
736.559	0.0137215
736.637	0.0138634
736.715	0.0139518
736.793	0.0140723
736.871	0.0140253
736.949	0.0139726
737.028	0.0140171
737.106	0.0140928
737.184	0.0139947
737.262	0.0140401
737.340	0.0141492
737.418	0.0141526
737.496	0.0140916
737.574	0.0143304
737.653	0.0141999
737.731	0.0143189
737.809	0.0142635
737.887	0.0142985
737.965	0.0141532
738.043	0.0143156
738.121	0.0143185
738.199	0.0142390
738.278	0.0141588
738.356	0.0142196
738.434	0.0142520
738.512	0.0142677
738.590	0.0142881
738.668	0.0142874
738.746	0.0143265
738.824	0.0143791
738.903	0.0141927
738.981	0.0142741
739.059	0.0143003
739.137	0.0143699
739.215	0.0142363
739.293	0.0142773
739.371	0.0142203
739.449	0.0142332
739.528	0.0143539
739.606	0.0142696
739.684	0.0141270
739.762	0.0142667
739.840	0.0141641
739.918	0.0141719
739.996	0.0142284
740.074	0.0140829
740.153	0.0140697
740.231	0.0141010
740.309	0.0140456
740.387	0.0140119
740.465	0.0142768
740.543	0.0141455
740.621	0.0140840
740.699	0.0139886
740.778	0.0140568
740.856	0.0140947
740.934	0.0141605
741.012	0.0140781
741.090	0.0140891
741.168	0.0141343
741.246	0.0140672
741.324	0.0140739
741.403	0.0141460
741.481	0.0141093
741.559	0.0142589
741.637	0.0141546
741.715	0.0142211
741.793	0.0143246
741.871	0.0140997
741.949	0.0141058
742.028	0.0141673
742.106	0.0141100
742.184	0.0141982
742.262	0.0143923
742.340	0.0141571
742.418	0.0141369
742.496	0.0141006
742.574	0.0142522
742.653	0.0141796
742.731	0.0141090
742.809	0.0141789
742.887	0.0141607
742.965	0.0143082
743.043	0.0142789
743.121	0.0141579
743.199	0.0141099
743.278	0.0142334
743.356	0.0141220
743.434	0.0142179
743.512	0.0142228
743.590	0.0143405
743.668	0.0142272
743.746	0.0141841
743.824	0.0141344
743.903	0.0141979
743.981	0.0141665
744.059	0.0141870
744.137	0.0140966
744.215	0.0139989
744.293	0.0141152
744.371	0.0141326
744.449	0.0141233
744.528	0.0141698
744.606	0.0140987
744.684	0.0141586
744.762	0.0142017
744.840	0.0142493
744.918	0.0142735
744.996	0.0142344
745.074	0.0143759
745.153	0.0142863
745.231	0.0143115
745.309	0.0145287
745.387	0.0145002
745.465	0.0144757
745.543	0.0144788
745.621	0.0145172
745.699	0.0145019
745.778	0.0143936
745.856	0.0143994
745.934	0.0144350
746.012	0.0144527
746.090	0.0142522
746.168	0.0141518
746.246	0.0142297
746.324	0.0141090
746.403	0.0140153
746.481	0.0139840
746.559	0.0140055
746.637	0.0139600
746.715	0.0138554
746.793	0.0139362
746.871	0.0137108
746.949	0.0138386
747.028	0.0137999
747.106	0.0138749
747.184	0.0138068
747.262	0.0139133
747.340	0.0139890
747.418	0.0138757
747.496	0.0138930
747.574	0.0140634
747.653	0.0141032
747.731	0.0141019
747.809	0.0140202
747.887	0.0140823
747.965	0.0142879
748.043	0.0141068
748.121	0.0141665
748.199	0.0140570
748.278	0.0140749
748.356	0.0141558
748.434	0.0142104
748.512	0.0140774
748.590	0.0142243
748.668	0.0141083
748.746	0.0140397
748.824	0.0141371
748.903	0.0141340
748.981	0.0142376
749.059	0.0142007
749.137	0.0141850
749.215	0.0140939
749.293	0.0140989
749.371	0.0141727
749.449	0.0141967
749.528	0.0141756
749.606	0.0142956
749.684	0.0142296
749.762	0.0142500
749.840	0.0143139
749.918	0.0140855
749.996	0.0142056
750.074	0.0143146
750.153	0.0140840
750.231	0.0141510
750.309	0.0141608
750.387	0.0141583
750.465	0.0141750
750.543	0.0142261
750.621	0.0142042
750.699	0.0141566
750.778	0.0141825
750.856	0.0140912
750.934	0.0141635
751.012	0.0143251
751.090	0.0143770
751.168	0.0143407
751.246	0.0142870
751.324	0.0143613
751.403	0.0142520
751.481	0.0141911
751.559	0.0142387
751.637	0.0141429
751.715	0.0141747
751.793	0.0142860
751.871	0.0141530
751.949	0.0140894
752.028	0.0141391
752.106	0.0140457
752.184	0.0141634
752.262	0.0140930
752.340	0.0139895
752.418	0.0140857
752.496	0.0139105
752.574	0.0139085
752.653	0.0139533
752.731	0.0139715
752.809	0.0139147
752.887	0.0140291
752.965	0.0141107
753.043	0.0141042
753.121	0.0140160
753.199	0.0140208
753.278	0.0139388
753.356	0.0140455
753.434	0.0141530
753.512	0.0142248
753.590	0.0140135
753.668	0.0141294
753.746	0.0141940
753.824	0.0140737
753.903	0.0140168
753.981	0.0140070
754.059	0.0140652
754.137	0.0141541
754.215	0.0137903
754.293	0.0139565
754.371	0.0139972
754.449	0.0140623
754.528	0.0140778
754.606	0.0141638
754.684	0.0142510
754.762	0.0140744
754.840	0.0141167
754.918	0.0142366
754.996	0.0141506
755.074	0.0141119
755.153	0.0142638
755.231	0.0140839
755.309	0.0141662
755.387	0.0143121
755.465	0.0141599
755.543	0.0142133
755.621	0.0142680
755.699	0.0143180
755.778	0.0142150
755.856	0.0142916
755.934	0.0142584
756.012	0.0143900
756.090	0.0143063
756.168	0.0141981
756.246	0.0142136
756.324	0.0142876
756.403	0.0142200
756.481	0.0143288
756.559	0.0143480
756.637	0.0142606
756.715	0.0141986
756.793	0.0140497
756.871	0.0142192
756.949	0.0142887
757.028	0.0140804
757.106	0.0139895
757.184	0.0141094
757.262	0.0141193
757.340	0.0140875
757.418	0.0139747
757.496	0.0141080
757.574	0.0140388
757.653	0.0141768
757.731	0.0141234
757.809	0.0140900
757.887	0.0141145
757.965	0.0141640
758.043	0.0140286
758.121	0.0140801
758.199	0.0141199
758.278	0.0140871
758.356	0.0140965
758.434	0.0141167
758.512	0.0142691
758.590	0.0141772
758.668	0.0141072
758.746	0.0139972
758.824	0.0140777
758.903	0.0141303
758.981	0.0140777
759.059	0.0140168
759.137	0.0141206
759.215	0.0141307
759.293	0.0139786
759.371	0.0139375
759.449	0.0139422
759.528	0.0141182
759.606	0.0140314
759.684	0.0139858
759.762	0.0139344
759.840	0.0140144
759.918	0.0140350
759.996	0.0141010
760.074	0.0139230
760.153	0.0139336
760.231	0.0140050
760.309	0.0141184
760.387	0.0141780
760.465	0.0141380
760.543	0.0141604
760.621	0.0142260
760.699	0.0141356
760.778	0.0141709
760.856	0.0142821
760.934	0.0142705
761.012	0.0142666
761.090	0.0141406
761.168	0.0142099
761.246	0.0142601
761.324	0.0144015
761.403	0.0142525
761.481	0.0140907
761.559	0.0141719
761.637	0.0141126
761.715	0.0140522
761.793	0.0138832
761.871	0.0141874
761.949	0.0142017
762.028	0.0139881
762.106	0.0140894
762.184	0.0140959
762.262	0.0139718
762.340	0.0140561
762.418	0.0139671
762.496	0.0140171
762.574	0.0142062
762.653	0.0140983
762.731	0.0140923
762.809	0.0140589
762.887	0.0140872
762.965	0.0141364
763.043	0.0142372
763.121	0.0140827
763.199	0.0143029
763.278	0.0141023
763.356	0.0141432
763.434	0.0142103
763.512	0.0141946
763.590	0.0141707
763.668	0.0140862
763.746	0.0141763
763.824	0.0141888
763.903	0.0142773
763.981	0.0141753
764.059	0.0142609
764.137	0.0141923
764.215	0.0142345
764.293	0.0142802
764.371	0.0142215
764.449	0.0141608
764.528	0.0142735
764.606	0.0142573
764.684	0.0142946
764.762	0.0143061
764.840	0.0143681
764.918	0.0143811
764.996	0.0143325
765.074	0.0143346
765.153	0.0144662
765.231	0.0143790
765.309	0.0144264
765.387	0.0143858
765.465	0.0144078
765.543	0.0144678
765.621	0.0142317
765.699	0.0142987
765.778	0.0141510
765.856	0.0140749
765.934	0.0141550
766.012	0.0141471
766.090	0.0140714
766.168	0.0139340
766.246	0.0139481
766.324	0.0140190
766.403	0.0139286
766.481	0.0139802
766.559	0.0139200
766.637	0.0139124
766.715	0.0139574
766.793	0.0138580
766.871	0.0139594
766.949	0.0139799
767.028	0.0141231
767.106	0.0140653
767.184	0.0140392
767.262	0.0141980
767.340	0.0142464
767.418	0.0141840
767.496	0.0140975
767.574	0.0143222
767.653	0.0143848
767.731	0.0142290
767.809	0.0143652
767.887	0.0143257
767.965	0.0141306
768.043	0.0141219
768.121	0.0141497
768.199	0.0141624
768.278	0.0142605
768.356	0.0141437
768.434	0.0141744
768.512	0.0141516
768.590	0.0140880
768.668	0.0140980
768.746	0.0142056
768.824	0.0140893
768.903	0.0140139
768.981	0.0140370
769.059	0.0141621
769.137	0.0141469
769.215	0.0141358
769.293	0.0141389
769.371	0.0141011
769.449	0.0140690
769.528	0.0141309
769.606	0.0141135
769.684	0.0139552
769.762	0.0139349
769.840	0.0140824
769.918	0.0141564
769.996	0.0140598
770.074	0.0139787
770.153	0.0140093
770.231	0.0141043
770.309	0.0140892
770.387	0.0140753
770.465	0.0140893
770.543	0.0140297
770.621	0.0139426
770.699	0.0141604
770.778	0.0141153
770.856	0.0141530
770.934	0.0141396
771.012	0.0141331
771.090	0.0142056
771.168	0.0142556
771.246	0.0142234
771.324	0.0142699
771.403	0.0142530
771.481	0.0142955
771.559	0.0142178
771.637	0.0141543
771.715	0.0141639
771.793	0.0143291
771.871	0.0140639
771.949	0.0139591
772.028	0.0140648
772.106	0.0141739
772.184	0.0141882
772.262	0.0141009
772.340	0.0139594
772.418	0.0140210
772.496	0.0139790
772.574	0.0140499
772.653	0.0140351
772.731	0.0140344
772.809	0.0141032
772.887	0.0140593
772.965	0.0141258
773.043	0.0138976
773.121	0.0140723
773.199	0.0142732
773.278	0.0141343
773.356	0.0142749
773.434	0.0143651
773.512	0.0143422
773.590	0.0144657
773.668	0.0144198
773.746	0.0144403
773.824	0.0144738
773.903	0.0144065
773.981	0.0144597
774.059	0.0144424
774.137	0.0144835
774.215	0.0144086
774.293	0.0143691
774.371	0.0144143
774.449	0.0145625
774.528	0.0143542
774.606	0.0141853
774.684	0.0143097
774.762	0.0143616
774.840	0.0143250
774.918	0.0141691
774.996	0.0141338
775.074	0.0142381
775.153	0.0141875
775.231	0.0140833
775.309	0.0142205
775.387	0.0142194
775.465	0.0142530
775.543	0.0141664
775.621	0.0141314
775.699	0.0142514
775.778	0.0140899
775.856	0.0141929
775.934	0.0140742
776.012	0.0140473
776.090	0.0142468
776.168	0.0143187
776.246	0.0142098
776.324	0.0141706
776.403	0.0142110
776.481	0.0142677
776.559	0.0143345
776.637	0.0142162
776.715	0.0141130
776.793	0.0144032
776.871	0.0142643
776.949	0.0142117
777.028	0.0141738
777.106	0.0142540
777.184	0.0141177
777.262	0.0142287
777.340	0.0140955
777.418	0.0141003
777.496	0.0141052
777.574	0.0141491
777.653	0.0141347
777.731	0.0140371
777.809	0.0141554
777.887	0.0141795
777.965	0.0141088
778.043	0.0140067
778.121	0.0140818
778.199	0.0143226
778.278	0.0141904
778.356	0.0141776
778.434	0.0140739
778.512	0.0140960
778.590	0.0141978
778.668	0.0141929
778.746	0.0142699
778.824	0.0142033
778.903	0.0141240
778.981	0.0141477
779.059	0.0142225
779.137	0.0142358
779.215	0.0141621
779.293	0.0141575
779.371	0.0142288
779.449	0.0142867
779.528	0.0143735
779.606	0.0141965
779.684	0.0141971
779.762	0.0142145
779.840	0.0142377
779.918	0.0142548
779.996	0.0141640
780.074	0.0142284
780.153	0.0142599
780.231	0.0140977
780.309	0.0140946
780.387	0.0141717
780.465	0.0141270
780.543	0.0141833
780.621	0.0140018
780.699	0.0139332
780.778	0.0141477
780.856	0.0140371
780.934	0.0139296
781.012	0.0140768
781.090	0.0139288
781.168	0.0140051
781.246	0.0141257
781.324	0.0139824
781.403	0.0140067
781.481	0.0139211
781.559	0.0140310
781.637	0.0140108
781.715	0.0139576
781.793	0.0140607
781.871	0.0141225
781.949	0.0141923
782.028	0.0142734
782.106	0.0140981
782.184	0.0141238
782.262	0.0142297
782.340	0.0141910
782.418	0.0142792
782.496	0.0142917
782.574	0.0143108
782.653	0.0142962
782.731	0.0142455
782.809	0.0143333
782.887	0.0143462
782.965	0.0142337
783.043	0.0141355
783.121	0.0142224
783.199	0.0142600
783.278	0.0142615
783.356	0.0141335
783.434	0.0142447
783.512	0.0142871
783.590	0.0141477
783.668	0.0141003
783.746	0.0141809
783.824	0.0142166
783.903	0.0141546
783.981	0.0141774
784.059	0.0141711
784.137	0.0140736
784.215	0.0141746
784.293	0.0140900
784.371	0.0142366
784.449	0.0141179
784.528	0.0141327
784.606	0.0141703
784.684	0.0142062
784.762	0.0142288
784.840	0.0141918
784.918	0.0140582
784.996	0.0141266
785.074	0.0141324
785.153	0.0140440
785.231	0.0141598
785.309	0.0142767
785.387	0.0141606
785.465	0.0141148
785.543	0.0141113
785.621	0.0141570
785.699	0.0141092
785.778	0.0140550
785.856	0.0141667
785.934	0.0140274
786.012	0.0140161
786.090	0.0141930
786.168	0.0141524
786.246	0.0141291
786.324	0.0140079
786.403	0.0139333
786.481	0.0139722
786.559	0.0139808
786.637	0.0140853
786.715	0.0140907
786.793	0.0140748
786.871	0.0141155
786.949	0.0141412
787.028	0.0140009
787.106	0.0141281
787.184	0.0140897
787.262	0.0139478
787.340	0.0141553
787.418	0.0142021
787.496	0.0142657
787.574	0.0141797
787.653	0.0141367
787.731	0.0142348
787.809	0.0142528
787.887	0.0141933
787.965	0.0142773
788.043	0.0142551
788.121	0.0141791
788.199	0.0143308
788.278	0.0141775
788.356	0.0143429
788.434	0.0142756
788.512	0.0142789
788.590	0.0141671
788.668	0.0140568
788.746	0.0140598
788.824	0.0140457
788.903	0.0140153
788.981	0.0139082
789.059	0.0140205
789.137	0.0140702
789.215	0.0139828
789.293	0.0139300
789.371	0.0139072
789.449	0.0138914
789.528	0.0139116
789.606	0.0138584
789.684	0.0139100
789.762	0.0139689
789.840	0.0140128
789.918	0.0140778
789.996	0.0140341
790.074	0.0140031
790.153	0.0138992
790.231	0.0138902
790.309	0.0140247
790.387	0.0141597
790.465	0.0140231
790.543	0.0140747
790.621	0.0139322
790.699	0.0140393
790.778	0.0141138
790.856	0.0141739
790.934	0.0141132
791.012	0.0142016
791.090	0.0142088
791.168	0.0141214
791.246	0.0142010
791.324	0.0141667
791.403	0.0142965
791.481	0.0141273
791.559	0.0142159
791.637	0.0141526
791.715	0.0140437
791.793	0.0140627
791.871	0.0141490
791.949	0.0141875
792.028	0.0139473
792.106	0.0141093
792.184	0.0140399
792.262	0.0139595
792.340	0.0139890
792.418	0.0140385
792.496	0.0139288
792.574	0.0138181
792.653	0.0140460
792.731	0.0139948
792.809	0.0139340
792.887	0.0139626
792.965	0.0139943
793.043	0.0139865
793.121	0.0140604
793.199	0.0141442
793.278	0.0141709
793.356	0.0141243
793.434	0.0140795
793.512	0.0140794
793.590	0.0141185
793.668	0.0142101
793.746	0.0141219
793.824	0.0141724
793.903	0.0141621
793.981	0.0141684
794.059	0.0142508
794.137	0.0141843
794.215	0.0142166
794.293	0.0141692
794.371	0.0141997
794.449	0.0142243
794.528	0.0142007
794.606	0.0141728
794.684	0.0141800
794.762	0.0141702
794.840	0.0141218
794.918	0.0141761
794.996	0.0141515
795.074	0.0141049
795.153	0.0141560
795.231	0.0141780
795.309	0.0142220
795.387	0.0140852
795.465	0.0140594
795.543	0.0140012
795.621	0.0142555
795.699	0.0140053
795.778	0.0141534
795.856	0.0140318
795.934	0.0141161
796.012	0.0142413
796.090	0.0140338
796.168	0.0140448
796.246	0.0141161
796.324	0.0139526
796.403	0.0141628
796.481	0.0141376
796.559	0.0140789
796.637	0.0141520
796.715	0.0140977
796.793	0.0141676
796.871	0.0141514
796.949	0.0140269
797.028	0.0140807
797.106	0.0141385
797.184	0.0141161
797.262	0.0141553
797.340	0.0140649
797.418	0.0142235
797.496	0.0141735
797.574	0.0141859
797.653	0.0141729
797.731	0.0142655
797.809	0.0142491
797.887	0.0142538
797.965	0.0143021
798.043	0.0143462
798.121	0.0142848
798.199	0.0141911
798.278	0.0143298
798.356	0.0143167
798.434	0.0141690
798.512	0.0143380
798.590	0.0142987
798.668	0.0142339
798.746	0.0143105
798.824	0.0140437
798.903	0.0140864
798.981	0.0140990
799.059	0.0142793
799.137	0.0140335
799.215	0.0141418
799.293	0.0140292
799.371	0.0139986
799.449	0.0139156
799.528	0.0140295
799.606	0.0140446
799.684	0.0138846
799.762	0.0139146
799.840	0.0139064
799.918	0.0138991
799.996	0.0140391
800.074	0.0139381
800.153	0.0139256
800.231	0.0140049
800.309	0.0140018
800.387	0.0139736
800.465	0.0140238
800.543	0.0140935
800.621	0.0140431
800.699	0.0140299
800.778	0.0140493
800.856	0.0140997
800.934	0.0141743
801.012	0.0141099
801.090	0.0141670
801.168	0.0141877
801.246	0.0143654
801.324	0.0143345
801.403	0.0143365
801.481	0.0142190
801.559	0.0142391
801.637	0.0142937
801.715	0.0144466
801.793	0.0143345
801.871	0.0142461
801.949	0.0143470
802.028	0.0142862
802.106	0.0143159
802.184	0.0142544
802.262	0.0143587
802.340	0.0143716
802.418	0.0143228
802.496	0.0143679
802.574	0.0142896
802.653	0.0142699
802.731	0.0143390
802.809	0.0143653
802.887	0.0143135
802.965	0.0142804
803.043	0.0143339
803.121	0.0143944
803.199	0.0143419
803.278	0.0142481
803.356	0.0142047
803.434	0.0141720
803.512	0.0140775
803.590	0.0142119
803.668	0.0141121
803.746	0.0141428
803.824	0.0141287
803.903	0.0142612
803.981	0.0140139
804.059	0.0139470
804.137	0.0139524
804.215	0.0139799
804.293	0.0140114
804.371	0.0140411
804.449	0.0138900
804.528	0.0139580
804.606	0.0139941
804.684	0.0140247
804.762	0.0141161
804.840	0.0139986
804.918	0.0141011
804.996	0.0140604
805.074	0.0140018
805.153	0.0140491
805.231	0.0141206
805.309	0.0142166
805.387	0.0141339
805.465	0.0140604
805.543	0.0140627
805.621	0.0140329
805.699	0.0141712
805.778	0.0141386
805.856	0.0140290
805.934	0.0140245
806.012	0.0140942
806.090	0.0141075
806.168	0.0141163
806.246	0.0140425
806.324	0.0140562
806.403	0.0140160
806.481	0.0141084
806.559	0.0140946
806.637	0.0141791
806.715	0.0140935
806.793	0.0140948
806.871	0.0141989
806.949	0.0141333
807.028	0.0141833
807.106	0.0142539
807.184	0.0140878
807.262	0.0142403
807.340	0.0141158
807.418	0.0142030
807.496	0.0143244
807.574	0.0142371
807.653	0.0140910
807.731	0.0142061
807.809	0.0142371
807.887	0.0140259
807.965	0.0139770
808.043	0.0140890
808.121	0.0141817
808.199	0.0141457
808.278	0.0140784
808.356	0.0141111
808.434	0.0141124
808.512	0.0142400
808.590	0.0141778
808.668	0.0140710
808.746	0.0140385
808.824	0.0141519
808.903	0.0141221
808.981	0.0141030
809.059	0.0140637
809.137	0.0142392
809.215	0.0142604
809.293	0.0140710
809.371	0.0142507
809.449	0.0142860
809.528	0.0143216
809.606	0.0141715
809.684	0.0142570
809.762	0.0142346
809.840	0.0143119
809.918	0.0142696
809.996	0.0142496
810.074	0.0143243
810.153	0.0141862
810.231	0.0141214
810.309	0.0140625
810.387	0.0142635
810.465	0.0141226
810.543	0.0139835
810.621	0.0140543
810.699	0.0140001
810.778	0.0139838
810.856	0.0139736
810.934	0.0139864
811.012	0.0138004
811.090	0.0140238
811.168	0.0139575
811.246	0.0140791
811.324	0.0139433
811.403	0.0139944
811.481	0.0139986
811.559	0.0138731
811.637	0.0139236
811.715	0.0141129
811.793	0.0141676
811.871	0.0139481
811.949	0.0140524
812.028	0.0141138
812.106	0.0141296
812.184	0.0139928
812.262	0.0141621
812.340	0.0140944
812.418	0.0142587
812.496	0.0142043
812.574	0.0142316
812.653	0.0142284
812.731	0.0141106
812.809	0.0142496
812.887	0.0142635
812.965	0.0142000
813.043	0.0142165
813.121	0.0142388
813.199	0.0143002
813.278	0.0142183
813.356	0.0142049
813.434	0.0141832
813.512	0.0142150
813.590	0.0142113
813.668	0.0143136
813.746	0.0141869
813.824	0.0141724
813.903	0.0141759
813.981	0.0141670
814.059	0.0141267
814.137	0.0139131
814.215	0.0139613
814.293	0.0140662
814.371	0.0140370
814.449	0.0140405
814.528	0.0140041
814.606	0.0141094
814.684	0.0139104
814.762	0.0138602
814.840	0.0140939
814.918	0.0140315
814.996	0.0140399
815.074	0.0141151
815.153	0.0139881
815.231	0.0139665
815.309	0.0139902
815.387	0.0139204
815.465	0.0139973
815.543	0.0140290
815.621	0.0139742
815.699	0.0140784
815.778	0.0139995
815.856	0.0140801
815.934	0.0141386
816.012	0.0140402
816.090	0.0140020
816.168	0.0141904
816.246	0.0142867
816.324	0.0141927
816.403	0.0141739
816.481	0.0142784
816.559	0.0143669
816.637	0.0141295
816.715	0.0141903
816.793	0.0141778
816.871	0.0144100
816.949	0.0143664
817.028	0.0142674
817.106	0.0142543
817.184	0.0142273
817.262	0.0142345
817.340	0.0142024
817.418	0.0144276
817.496	0.0143197
817.574	0.0142104
817.653	0.0142117
817.731	0.0143090
817.809	0.0141840
817.887	0.0141045
817.965	0.0142525
818.043	0.0142418
818.121	0.0141467
818.199	0.0139993
818.278	0.0141697
818.356	0.0140720
818.434	0.0141833
818.512	0.0140961
818.590	0.0140335
818.668	0.0140588
818.746	0.0139951
818.824	0.0139893
818.903	0.0139707
818.981	0.0139885
819.059	0.0140989
819.137	0.0139052
819.215	0.0140088
819.293	0.0139735
819.371	0.0139351
819.449	0.0139533
819.528	0.0139938
819.606	0.0141267
819.684	0.0141319
819.762	0.0142728
819.840	0.0142492
819.918	0.0141417
819.996	0.0141721
820.074	0.0141510
820.153	0.0141959
820.231	0.0142603
820.309	0.0140497
820.387	0.0141141
820.465	0.0140734
820.543	0.0141740
820.621	0.0142624
820.699	0.0141643
820.778	0.0141004
820.856	0.0142749
820.934	0.0140122
821.012	0.0141270
821.090	0.0141611
821.168	0.0142257
821.246	0.0142573
821.324	0.0142043
821.403	0.0142504
821.481	0.0142034
821.559	0.0142337
821.637	0.0141383
821.715	0.0141762
821.793	0.0141368
821.871	0.0142572
821.949	0.0142411
822.028	0.0142425
822.106	0.0142683
822.184	0.0142307
822.262	0.0141943
822.340	0.0141074
822.418	0.0141618
822.496	0.0142121
822.574	0.0139923
822.653	0.0139778
822.731	0.0139584
822.809	0.0140072
822.887	0.0137943
822.965	0.0139777
823.043	0.0137775
823.121	0.0136472
823.199	0.0137778
823.278	0.0139246
823.356	0.0139524
823.434	0.0137758
823.512	0.0139249
823.590	0.0137646
823.668	0.0137357
823.746	0.0138461
823.824	0.0138848
823.903	0.0138316
823.981	0.0138960
824.059	0.0139344
824.137	0.0138919
824.215	0.0138698
824.293	0.0140955
824.371	0.0142237
824.449	0.0141486
824.528	0.0142977
824.606	0.0142390
824.684	0.0142285
824.762	0.0142384
824.840	0.0143287
824.918	0.0144380
824.996	0.0144005
825.074	0.0144237
825.153	0.0142987
825.231	0.0143594
825.309	0.0143038
825.387	0.0142886
825.465	0.0144469
825.543	0.0144394
825.621	0.0142481
825.699	0.0143375
825.778	0.0144045
825.856	0.0142457
825.934	0.0142435
826.012	0.0142088
826.090	0.0142996
826.168	0.0143126
826.246	0.0142091
826.324	0.0142173
826.403	0.0142310
826.481	0.0141684
826.559	0.0140868
826.637	0.0140836
826.715	0.0141125
826.793	0.0141762
826.871	0.0139679
826.949	0.0139479
827.028	0.0139980
827.106	0.0140328
827.184	0.0140393
827.262	0.0139573
827.340	0.0138925
827.418	0.0138895
827.496	0.0136782
827.574	0.0140047
827.653	0.0137806
827.731	0.0137167
827.809	0.0138158
827.887	0.0138032
827.965	0.0137942
828.043	0.0136774
828.121	0.0137509
828.199	0.0137998
828.278	0.0136530
828.356	0.0137441
828.434	0.0138461
828.512	0.0137846
828.590	0.0138787
828.668	0.0140241
828.746	0.0138752
828.824	0.0139157
828.903	0.0141208
828.981	0.0140797
829.059	0.0140038
829.137	0.0141994
829.215	0.0142244
829.293	0.0141409
829.371	0.0142304
829.449	0.0142997
829.528	0.0141897
829.606	0.0143510
829.684	0.0144282
829.762	0.0143696
829.840	0.0143102
829.918	0.0143235
829.996	0.0144209
830.074	0.0141469
830.153	0.0144127
830.231	0.0144490
830.309	0.0144212
830.387	0.0143936
830.465	0.0143214
830.543	0.0143328
830.621	0.0143687
830.699	0.0143745
830.778	0.0142663
830.856	0.0142744
830.934	0.0141367
831.012	0.0141085
831.090	0.0141882
831.168	0.0141803
831.246	0.0140686
831.324	0.0139624
831.403	0.0140313
831.481	0.0141030
831.559	0.0141112
831.637	0.0140643
831.715	0.0138003
831.793	0.0138180
831.871	0.0139285
831.949	0.0138012
832.028	0.0139378
832.106	0.0139477
832.184	0.0139167
832.262	0.0137585
832.340	0.0139398
832.418	0.0138049
832.496	0.0138995
832.574	0.0138845
832.653	0.0138929
832.731	0.0138712
832.809	0.0138279
832.887	0.0138684
832.965	0.0138913
833.043	0.0139814
833.121	0.0141554
833.199	0.0140929
833.278	0.0138781
833.356	0.0140759
833.434	0.0141451
833.512	0.0141862
833.590	0.0142551
833.668	0.0142889
833.746	0.0143910
833.824	0.0143128
833.903	0.0143303
833.981	0.0144875
834.059	0.0143858
834.137	0.0144529
834.215	0.0145170
834.293	0.0144592
834.371	0.0144755
834.449	0.0144812
834.528	0.0144996
834.606	0.0144431
834.684	0.0144476
834.762	0.0144715
834.840	0.0145149
834.918	0.0144787
834.996	0.0145007
835.074	0.0144987
835.153	0.0144959
835.231	0.0144838
835.309	0.0144361
835.387	0.0143968
835.465	0.0144339
835.543	0.0145581
835.621	0.0144062
835.699	0.0141537
835.778	0.0141497
835.856	0.0143061
835.934	0.0140970
836.012	0.0140530
836.090	0.0139790
836.168	0.0139381
836.246	0.0138654
836.324	0.0138183
836.403	0.0138887
836.481	0.0137395
836.559	0.0137566
836.637	0.0137045
836.715	0.0137537
836.793	0.0136568
836.871	0.0137634
836.949	0.0136987
837.028	0.0137980
837.106	0.0138190
837.184	0.0137454
837.262	0.0137057
837.340	0.0139697
837.418	0.0138939
837.496	0.0139703
837.574	0.0138883
837.653	0.0139256
837.731	0.0141217
837.809	0.0141360
837.887	0.0141008
837.965	0.0140983
838.043	0.0140160
838.121	0.0140612
838.199	0.0141672
838.278	0.0141125
838.356	0.0141719
838.434	0.0141695
838.512	0.0142395
838.590	0.0142814
838.668	0.0141241
838.746	0.0142213
838.824	0.0143538
838.903	0.0143896
838.981	0.0143384
839.059	0.0142376
839.137	0.0142238
839.215	0.0143600
839.293	0.0142149
839.371	0.0143980
839.449	0.0143192
839.528	0.0144131
839.606	0.0143676
839.684	0.0143184
839.762	0.0142637
839.840	0.0142932
839.918	0.0141994
839.996	0.0143813
840.074	0.0144163
840.153	0.0144228
840.231	0.0142995
840.309	0.0143227
840.387	0.0142690
840.465	0.0142504
840.543	0.0142191
840.621	0.0143743
840.699	0.0142449
840.778	0.0141740
840.856	0.0142242
840.934	0.0142825
841.012	0.0144594
841.090	0.0141001
841.168	0.0142082
841.246	0.0142521
841.324	0.0142136
841.403	0.0141285
841.481	0.0141349
841.559	0.0140981
841.637	0.0140644
841.715	0.0141862
841.793	0.0140312
841.871	0.0139731
841.949	0.0140694
842.028	0.0140755
842.106	0.0140811
842.184	0.0140175
842.262	0.0141042
842.340	0.0139547
842.418	0.0139950
842.496	0.0140099
842.574	0.0141083
842.653	0.0141981
842.731	0.0141306
842.809	0.0142867
842.887	0.0141643
842.965	0.0140967
843.043	0.0142545
843.121	0.0142754
843.199	0.0141228
843.278	0.0142310
843.356	0.0143105
843.434	0.0143552
843.512	0.0142046
843.590	0.0142070
843.668	0.0143616
843.746	0.0142454
843.824	0.0142522
843.903	0.0143107
843.981	0.0143443
844.059	0.0143110
844.137	0.0141749
844.215	0.0144687
844.293	0.0144096
844.371	0.0143219
844.449	0.0144154
844.528	0.0144427
844.606	0.0143003
844.684	0.0142461
844.762	0.0143587
844.840	0.0142963
844.918	0.0143000
844.996	0.0142976
845.074	0.0142435
845.153	0.0143273
845.231	0.0142723
845.309	0.0141966
845.387	0.0141371
845.465	0.0141422
845.543	0.0142286
845.621	0.0141897
845.699	0.0141739
845.778	0.0141904
845.856	0.0141653
845.934	0.0142931
846.012	0.0141264
846.090	0.0142557
846.168	0.0143227
846.246	0.0141801
846.324	0.0140905
846.403	0.0141734
846.481	0.0141502
846.559	0.0141188
846.637	0.0139801
846.715	0.0141205
846.793	0.0140125
846.871	0.0139959
846.949	0.0140231
847.028	0.0138680
847.106	0.0138478
847.184	0.0138503
847.262	0.0139944
847.340	0.0139478
847.418	0.0139521
847.496	0.0139977
847.574	0.0139712
847.653	0.0140342
847.731	0.0139485
847.809	0.0139447
847.887	0.0140137
847.965	0.0140432
848.043	0.0140878
848.121	0.0140527
848.199	0.0142252
848.278	0.0142210
848.356	0.0141702
848.434	0.0142574
848.512	0.0143240
848.590	0.0143600
848.668	0.0143148
848.746	0.0142180
848.824	0.0143952
848.903	0.0144189
848.981	0.0142911
849.059	0.0142791
849.137	0.0144023
849.215	0.0142087
849.293	0.0143271
849.371	0.0143471
849.449	0.0141838
849.528	0.0142225
849.606	0.0141650
849.684	0.0142673
849.762	0.0142689
849.840	0.0142745
849.918	0.0141888
849.996	0.0141035
850.074	0.0140430
850.153	0.0142501
850.231	0.0141543
850.309	0.0140521
850.387	0.0140538
850.465	0.0140067
850.543	0.0142122
850.621	0.0141389
850.699	0.0140199
850.778	0.0140923
850.856	0.0140702
850.934	0.0140990
851.012	0.0140649
851.090	0.0140932
851.168	0.0140303
851.246	0.0140414
851.324	0.0140724
851.403	0.0140405
851.481	0.0140196
851.559	0.0140682
851.637	0.0140626
851.715	0.0140401
851.793	0.0141299
851.871	0.0140005
851.949	0.0141212
852.028	0.0140894
852.106	0.0142509
852.184	0.0142098
852.262	0.0142767
852.340	0.0144274
852.418	0.0142790
852.496	0.0143467
852.574	0.0142592
852.653	0.0141183
852.731	0.0143215
852.809	0.0143697
852.887	0.0142916
852.965	0.0142004
853.043	0.0142403
853.121	0.0142342
853.199	0.0140498
853.278	0.0141754
853.356	0.0142962
853.434	0.0142021
853.512	0.0140471
853.590	0.0141949
853.668	0.0142561
853.746	0.0142518
853.824	0.0142081
853.903	0.0141945
853.981	0.0143291
854.059	0.0142950
854.137	0.0143120
854.215	0.0143689
854.293	0.0142177
854.371	0.0143373
854.449	0.0142448
854.528	0.0142716
854.606	0.0142346
854.684	0.0142990
854.762	0.0141270
854.840	0.0141600
854.918	0.0143088
854.996	0.0142935
855.074	0.0141857
855.153	0.0141905
855.231	0.0142678
855.309	0.0140372
855.387	0.0139638
855.465	0.0141362
855.543	0.0140084
855.621	0.0140363
855.699	0.0141146
855.778	0.0141851
855.856	0.0140556
855.934	0.0140820
856.012	0.0140652
856.090	0.0141427
856.168	0.0142331
856.246	0.0141146
856.324	0.0142020
856.403	0.0140343
856.481	0.0142236
856.559	0.0143170
856.637	0.0141975
856.715	0.0141154
856.793	0.0140776
856.871	0.0142238
856.949	0.0142085
857.028	0.0142267
857.106	0.0141692
857.184	0.0141608
857.262	0.0141397
857.340	0.0144191
857.418	0.0142863
857.496	0.0142696
857.574	0.0142513
857.653	0.0143204
857.731	0.0141862
857.809	0.0142834
857.887	0.0142223
857.965	0.0142525
858.043	0.0141967
858.121	0.0143327
858.199	0.0141905
858.278	0.0142339
858.356	0.0139545
858.434	0.0141496
858.512	0.0140797
858.590	0.0141077
858.668	0.0141370
858.746	0.0139822
858.824	0.0141801
858.903	0.0139968
858.981	0.0138813
859.059	0.0140461
859.137	0.0138705
859.215	0.0139945
859.293	0.0141309
859.371	0.0140932
859.449	0.0142320
859.528	0.0141732
859.606	0.0140770
859.684	0.0142390
859.762	0.0140572
859.840	0.0141489
859.918	0.0141925
859.996	0.0141760
860.074	0.0141824
860.153	0.0140824
860.231	0.0140819
860.309	0.0140371
860.387	0.0142067
860.465	0.0141753
860.543	0.0140447
860.621	0.0141353
860.699	0.0141393
860.778	0.0141354
860.856	0.0140643
860.934	0.0140890
861.012	0.0141415
861.090	0.0140659
861.168	0.0142653
861.246	0.0141417
861.324	0.0140798
861.403	0.0141152
861.481	0.0141911
861.559	0.0140210
861.637	0.0141600
861.715	0.0141734
861.793	0.0142246
861.871	0.0140966
861.949	0.0141382
862.028	0.0140002
862.106	0.0140983
862.184	0.0142625
862.262	0.0141735
862.340	0.0141167
862.418	0.0140860
862.496	0.0140917
862.574	0.0141034
862.653	0.0140728
862.731	0.0140708
862.809	0.0141499
862.887	0.0140730
862.965	0.0139571
863.043	0.0139532
863.121	0.0140130
863.199	0.0140499
863.278	0.0141362
863.356	0.0141698
863.434	0.0141644
863.512	0.0142696
863.590	0.0140401
863.668	0.0140233
863.746	0.0141679
863.824	0.0141164
863.903	0.0141057
863.981	0.0141757
864.059	0.0141035
864.137	0.0141551
864.215	0.0143633
864.293	0.0142016
864.371	0.0141473
864.449	0.0142490
864.528	0.0142288
864.606	0.0142500
864.684	0.0142039
864.762	0.0141544
864.840	0.0143153
864.918	0.0143961
864.996	0.0143714
865.074	0.0142217
865.153	0.0144832
865.231	0.0143349
865.309	0.0143789
865.387	0.0144790
865.465	0.0145009
865.543	0.0143638
865.621	0.0144349
865.699	0.0143632
865.778	0.0142996
865.856	0.0142918
865.934	0.0141341
866.012	0.0142702
866.090	0.0140289
866.168	0.0141737
866.246	0.0140628
866.324	0.0141097
866.403	0.0141920
866.481	0.0141103
866.559	0.0139318
866.637	0.0139654
866.715	0.0140665
866.793	0.0140673
866.871	0.0140692
866.949	0.0139723
867.028	0.0139585
867.106	0.0140850
867.184	0.0139685
867.262	0.0139072
867.340	0.0139178
867.418	0.0139983
867.496	0.0139990
867.574	0.0139722
867.653	0.0137579
867.731	0.0140820
867.809	0.0140007
867.887	0.0138937
867.965	0.0138167
868.043	0.0139330
868.121	0.0138457
868.199	0.0139472
868.278	0.0140519
868.356	0.0140267
868.434	0.0140591
868.512	0.0139425
868.590	0.0140283
868.668	0.0140868
868.746	0.0141609
868.824	0.0140482
868.903	0.0142239
868.981	0.0141206
869.059	0.0140491
869.137	0.0141019
869.215	0.0141891
869.293	0.0141458
869.371	0.0140443
869.449	0.0141833
869.528	0.0140157
869.606	0.0140816
869.684	0.0140951
869.762	0.0141267
869.840	0.0141306
869.918	0.0142155
869.996	0.0142258
870.074	0.0141669
870.153	0.0141842
870.231	0.0142385
870.309	0.0143434
870.387	0.0141736
870.465	0.0143308
870.543	0.0144244
870.621	0.0143636
870.699	0.0141982
870.778	0.0143464
870.856	0.0143263
870.934	0.0144096
871.012	0.0142200
871.090	0.0141636
871.168	0.0143301
871.246	0.0142159
871.324	0.0141420
871.403	0.0141930
871.481	0.0141161
871.559	0.0142332
871.637	0.0140954
871.715	0.0140737
871.793	0.0140943
871.871	0.0139739
871.949	0.0140750
872.028	0.0141129
872.106	0.0142022
872.184	0.0141461
872.262	0.0141161
872.340	0.0140712
872.418	0.0142206
872.496	0.0141373
872.574	0.0141391
872.653	0.0141218
872.731	0.0142361
872.809	0.0141164
872.887	0.0142496
872.965	0.0141675
873.043	0.0141550
873.121	0.0142793
873.199	0.0142450
873.278	0.0142383
873.356	0.0142483
873.434	0.0142865
873.512	0.0143351
873.590	0.0143192
873.668	0.0142294
873.746	0.0143030
873.824	0.0142083
873.903	0.0140672
873.981	0.0141256
874.059	0.0142072
874.137	0.0142451
874.215	0.0141879
874.293	0.0142311
874.371	0.0141428
874.449	0.0141034
874.528	0.0141512
874.606	0.0141413
874.684	0.0141296
874.762	0.0141371
874.840	0.0142240
874.918	0.0142368
874.996	0.0142303
875.074	0.0142142
875.153	0.0141483
875.231	0.0140094
875.309	0.0141414
875.387	0.0141348
875.465	0.0141602
875.543	0.0142958
875.621	0.0141515
875.699	0.0140592
875.778	0.0142104
875.856	0.0141578
875.934	0.0142079
876.012	0.0140251
876.090	0.0142063
876.168	0.0141269
876.246	0.0142467
876.324	0.0141381
876.403	0.0141384
876.481	0.0140913
876.559	0.0141527
876.637	0.0142809
876.715	0.0141362
876.793	0.0141329
876.871	0.0142359
876.949	0.0141505
877.028	0.0140149
877.106	0.0140323
877.184	0.0141223
877.262	0.0141075
877.340	0.0140523
877.418	0.0139907
877.496	0.0140529
877.574	0.0139960
877.653	0.0140107
877.731	0.0141263
877.809	0.0140813
877.887	0.0141669
877.965	0.0141496
878.043	0.0139415
878.121	0.0140001
878.199	0.0141943
878.278	0.0141970
878.356	0.0141901
878.434	0.0141647
878.512	0.0140813
878.590	0.0140497
878.668	0.0140970
878.746	0.0141219
878.824	0.0142030
878.903	0.0140453
878.981	0.0140805
879.059	0.0141843
879.137	0.0141349
879.215	0.0141972
879.293	0.0142096
879.371	0.0141727
879.449	0.0139307
879.528	0.0141041
879.606	0.0140819
879.684	0.0141634
879.762	0.0140211
879.840	0.0141124
879.918	0.0140619
879.996	0.0140432
880.074	0.0141214
880.153	0.0140957
880.231	0.0140467
880.309	0.0140755
880.387	0.0140159
880.465	0.0140271
880.543	0.0140460
880.621	0.0140219
880.699	0.0139978
880.778	0.0139586
880.856	0.0139875
880.934	0.0141071
881.012	0.0140562
881.090	0.0140128
881.168	0.0139214
881.246	0.0139217
881.324	0.0140308
881.403	0.0139798
881.481	0.0139809
881.559	0.0140155
881.637	0.0139423
881.715	0.0139411
881.793	0.0139333
881.871	0.0141529
881.949	0.0140781
882.028	0.0140483
882.106	0.0140665
882.184	0.0141225
882.262	0.0141496
882.340	0.0141684
882.418	0.0142052
882.496	0.0141369
882.574	0.0142547
882.653	0.0141071
882.731	0.0141093
882.809	0.0141897
882.887	0.0143242
882.965	0.0141369
883.043	0.0141664
883.121	0.0141015
883.199	0.0142975
883.278	0.0141568
883.356	0.0141669
883.434	0.0140231
883.512	0.0139600
883.590	0.0141151
883.668	0.0141026
883.746	0.0140382
883.824	0.0139874
883.903	0.0140199
883.981	0.0140491
884.059	0.0138436
884.137	0.0139410
884.215	0.0140534
884.293	0.0137738
884.371	0.0138670
884.449	0.0139039
884.528	0.0139510
884.606	0.0140350
884.684	0.0140382
884.762	0.0139525
884.840	0.0139954
884.918	0.0140665
884.996	0.0140664
885.074	0.0140714
885.153	0.0139977
885.231	0.0140956
885.309	0.0139843
885.387	0.0140375
885.465	0.0139542
885.543	0.0140120
885.621	0.0140741
885.699	0.0140124
885.778	0.0139230
885.856	0.0139211
885.934	0.0139249
886.012	0.0140253
886.090	0.0139255
886.168	0.0139767
886.246	0.0140611
886.324	0.0140047
886.403	0.0139671
886.481	0.0139458
886.559	0.0139423
886.637	0.0141301
886.715	0.0139694
886.793	0.0140944
886.871	0.0139739
886.949	0.0140436
887.028	0.0141351
887.106	0.0139960
887.184	0.0138831
887.262	0.0140910
887.340	0.0142181
887.418	0.0140923
887.496	0.0139553
887.574	0.0141133
887.653	0.0141412
887.731	0.0141041
887.809	0.0141345
887.887	0.0140761
887.965	0.0140995
888.043	0.0142699
888.121	0.0140673
888.199	0.0139466
888.278	0.0142340
888.356	0.0140665
888.434	0.0140647
888.512	0.0140615
888.590	0.0142419
888.668	0.0141756
888.746	0.0141270
888.824	0.0140827
888.903	0.0140868
888.981	0.0142648
889.059	0.0142120
889.137	0.0140292
889.215	0.0141764
889.293	0.0142959
889.371	0.0140666
889.449	0.0141436
889.528	0.0140168
889.606	0.0142168
889.684	0.0142606
889.762	0.0140786
889.840	0.0142550
889.918	0.0142516
889.996	0.0143314
890.074	0.0142973
890.153	0.0141393
890.231	0.0142914
890.309	0.0141886
890.387	0.0142165
890.465	0.0142111
890.543	0.0142482
890.621	0.0140878
890.699	0.0140288
890.778	0.0141348
890.856	0.0139732
890.934	0.0139302
891.012	0.0138621
891.090	0.0139619
891.168	0.0140918
891.246	0.0138605
891.324	0.0138988
891.403	0.0139985
891.481	0.0140088
891.559	0.0140493
891.637	0.0139365
891.715	0.0139971
891.793	0.0140305
891.871	0.0140630
891.949	0.0142134
892.028	0.0142060
892.106	0.0142518
892.184	0.0141756
892.262	0.0140668
892.340	0.0141423
892.418	0.0142647
892.496	0.0142585
892.574	0.0141456
892.653	0.0142905
892.731	0.0141843
892.809	0.0142200
892.887	0.0142210
892.965	0.0141655
893.043	0.0142002
893.121	0.0142461
893.199	0.0142496
893.278	0.0141682
893.356	0.0142824
893.434	0.0141858
893.512	0.0142938
893.590	0.0143327
893.668	0.0143658
893.746	0.0142775
893.824	0.0142895
893.903	0.0143185
893.981	0.0141584
894.059	0.0142443
894.137	0.0143147
894.215	0.0141573
894.293	0.0141512
894.371	0.0139793
894.449	0.0140431
894.528	0.0140631
894.606	0.0140302
894.684	0.0139294
894.762	0.0138852
894.840	0.0139614
894.918	0.0139342
894.996	0.0141389
895.074	0.0141351
895.153	0.0139980
895.231	0.0139110
895.309	0.0139693
895.387	0.0138720
895.465	0.0140347
895.543	0.0139975
895.621	0.0138474
895.699	0.0139465
895.778	0.0139187
895.856	0.0141109
895.934	0.0140044
896.012	0.0140586
896.090	0.0139836
896.168	0.0140132
896.246	0.0140762
896.324	0.0140742
896.403	0.0140916
896.481	0.0142596
896.559	0.0142670
896.637	0.0142908
896.715	0.0142130
896.793	0.0142354
896.871	0.0143862
896.949	0.0143596
897.028	0.0143284
897.106	0.0141453
897.184	0.0143488
897.262	0.0142077
897.340	0.0141184
897.418	0.0141587
897.496	0.0140498
897.574	0.0141139
897.653	0.0140995
897.731	0.0141756
897.809	0.0141679
897.887	0.0141777
897.965	0.0142772
898.043	0.0143060
898.121	0.0142101
898.199	0.0143194
898.278	0.0143977
898.356	0.0142704
898.434	0.0142088
898.512	0.0143320
898.590	0.0142091
898.668	0.0140588
898.746	0.0140884
898.824	0.0140848
898.903	0.0141341
898.981	0.0140120
899.059	0.0138492
899.137	0.0140625
899.215	0.0141169
899.293	0.0140000
899.371	0.0139682
899.449	0.0139030
899.528	0.0139188
899.606	0.0139498
899.684	0.0139562
899.762	0.0140425
899.840	0.0139992
899.918	0.0140195
899.996	0.0141074
900.074	0.0139968
900.153	0.0141171
900.231	0.0141030
900.309	0.0140668
900.387	0.0140385
900.465	0.0139919
900.543	0.0139476
900.621	0.0140344
900.699	0.0139655
900.778	0.0138886
900.856	0.0139928
900.934	0.0140579
901.012	0.0140424
901.090	0.0140949
901.168	0.0141727
901.246	0.0140057
901.324	0.0141100
901.403	0.0140249
901.481	0.0140117
901.559	0.0140687
901.637	0.0140005
901.715	0.0139846
901.793	0.0139768
901.871	0.0140813
901.949	0.0141428
902.028	0.0141006
902.106	0.0141179
902.184	0.0141541
902.262	0.0140093
902.340	0.0140945
902.418	0.0142506
902.496	0.0141982
902.574	0.0141344
902.653	0.0141772
902.731	0.0140537
902.809	0.0140885
902.887	0.0140834
902.965	0.0141148
903.043	0.0140442
903.121	0.0139708
903.199	0.0140132
903.278	0.0140518
903.356	0.0141642
903.434	0.0140395
903.512	0.0139924
903.590	0.0139909
903.668	0.0138718
903.746	0.0138943
903.824	0.0140260
903.903	0.0138754
903.981	0.0138728
904.059	0.0139911
904.137	0.0139497
904.215	0.0140062
904.293	0.0140124
904.371	0.0140865
904.449	0.0138538
904.528	0.0141167
904.606	0.0139157
904.684	0.0139988
904.762	0.0141332
904.840	0.0140329
904.918	0.0139779
904.996	0.0139355
905.074	0.0140057
905.153	0.0140060
905.231	0.0140761
905.309	0.0139444
905.387	0.0139091
905.465	0.0139700
905.543	0.0139134
905.621	0.0140375
905.699	0.0138634
905.778	0.0140484
905.856	0.0139371
905.934	0.0139165
906.012	0.0140795
906.090	0.0139896
906.168	0.0139445
906.246	0.0139655
906.324	0.0140098
906.403	0.0141577
906.481	0.0139731
906.559	0.0138956
906.637	0.0140292
906.715	0.0140449
906.793	0.0141959
906.871	0.0139576
906.949	0.0140369
907.028	0.0140858
907.106	0.0139736
907.184	0.0141012
907.262	0.0141569
907.340	0.0140035
907.418	0.0140466
907.496	0.0140289
907.574	0.0142278
907.653	0.0142136
907.731	0.0140729
907.809	0.0140771
907.887	0.0140784
907.965	0.0141161
908.043	0.0140784
908.121	0.0141953
908.199	0.0140514
908.278	0.0139371
908.356	0.0139459
908.434	0.0140376
908.512	0.0141599
908.590	0.0140247
908.668	0.0140163
908.746	0.0140606
908.824	0.0138944
908.903	0.0139845
908.981	0.0139200
909.059	0.0138998
909.137	0.0140089
909.215	0.0140237
909.293	0.0139561
909.371	0.0140121
909.449	0.0140652
909.528	0.0140990
909.606	0.0139180
909.684	0.0140031
909.762	0.0139130
909.840	0.0141760
909.918	0.0141763
909.996	0.0141803
910.074	0.0142027
910.153	0.0143157
910.231	0.0144312
910.309	0.0142722
910.387	0.0142440
910.465	0.0142564
910.543	0.0143169
910.621	0.0144366
910.699	0.0143750
910.778	0.0144221
910.856	0.0142731
910.934	0.0143163
911.012	0.0141833
911.090	0.0142201
911.168	0.0142556
911.246	0.0141074
911.324	0.0142153
911.403	0.0142487
911.481	0.0141130
911.559	0.0140636
911.637	0.0140508
911.715	0.0139983
911.793	0.0140768
911.871	0.0140833
911.949	0.0140740
912.028	0.0140769
912.106	0.0139882
912.184	0.0139933
912.262	0.0141678
912.340	0.0140839
912.418	0.0142107
912.496	0.0142926
912.574	0.0142892
912.653	0.0141927
912.731	0.0142854
912.809	0.0140722
912.887	0.0143041
912.965	0.0143018
913.043	0.0142962
913.121	0.0141045
913.199	0.0142281
913.278	0.0142928
913.356	0.0142593
913.434	0.0142211
913.512	0.0142341
913.590	0.0141692
913.668	0.0143074
913.746	0.0141125
913.824	0.0142133
913.903	0.0142470
913.981	0.0143025
914.059	0.0142141
914.137	0.0141595
914.215	0.0141160
914.293	0.0142462
914.371	0.0142204
914.449	0.0142560
914.528	0.0140396
914.606	0.0141848
914.684	0.0141087
914.762	0.0141870
914.840	0.0143444
914.918	0.0141894
914.996	0.0140472
915.074	0.0142030
915.153	0.0141832
915.231	0.0142269
915.309	0.0141858
915.387	0.0141024
915.465	0.0141206
915.543	0.0142383
915.621	0.0142108
915.699	0.0141191
915.778	0.0142194
915.856	0.0143029
915.934	0.0142019
916.012	0.0142329
916.090	0.0142999
916.168	0.0141440
916.246	0.0141348
916.324	0.0142621
916.403	0.0141548
916.481	0.0140887
916.559	0.0141296
916.637	0.0142162
916.715	0.0141811
916.793	0.0141554
916.871	0.0141800
916.949	0.0142731
917.028	0.0141865
917.106	0.0141606
917.184	0.0140662
917.262	0.0140872
917.340	0.0143228
917.418	0.0142966
917.496	0.0141968
917.574	0.0141914
917.653	0.0142841
917.731	0.0141934
917.809	0.0140989
917.887	0.0142693
917.965	0.0141895
918.043	0.0141338
918.121	0.0140904
918.199	0.0141208
918.278	0.0141327
918.356	0.0141691
918.434	0.0141779
918.512	0.0141496
918.590	0.0140489
918.668	0.0141414
918.746	0.0140299
918.824	0.0140734
918.903	0.0140747
918.981	0.0140884
919.059	0.0141077
919.137	0.0139950
919.215	0.0141382
919.293	0.0140321
919.371	0.0141621
919.449	0.0141822
919.528	0.0143019
919.606	0.0142106
919.684	0.0141339
919.762	0.0141539
919.840	0.0140128
919.918	0.0140275
919.996	0.0141316
920.074	0.0142296
920.153	0.0141631
920.231	0.0139960
920.309	0.0139339
920.387	0.0139710
920.465	0.0141264
920.543	0.0140705
920.621	0.0139895
920.699	0.0140002
920.778	0.0138917
920.856	0.0139059
920.934	0.0140549
921.012	0.0141231
921.090	0.0140027
921.168	0.0141467
921.246	0.0139909
921.324	0.0141393
921.403	0.0141258
921.481	0.0140701
921.559	0.0141750
921.637	0.0140395
921.715	0.0141192
921.793	0.0142047
921.871	0.0142118
921.949	0.0141110
922.028	0.0141395
922.106	0.0142075
922.184	0.0141376
922.262	0.0140597
922.340	0.0142240
922.418	0.0139710
922.496	0.0140448
922.574	0.0138421
922.653	0.0140642
922.731	0.0141422
922.809	0.0140637
922.887	0.0138874
922.965	0.0140708
923.043	0.0141215
923.121	0.0138706
923.199	0.0140234
923.278	0.0141457
923.356	0.0139570
923.434	0.0140669
923.512	0.0141820
923.590	0.0139879
923.668	0.0140128
923.746	0.0140950
923.824	0.0141638
923.903	0.0141068
923.981	0.0139642
924.059	0.0139368
924.137	0.0140134
924.215	0.0140704
924.293	0.0140609
924.371	0.0140058
924.449	0.0139070
924.528	0.0139180
924.606	0.0140245
924.684	0.0140623
924.762	0.0139885
924.840	0.0140526
924.918	0.0139849
924.996	0.0140553
925.074	0.0139631
925.153	0.0140797
925.231	0.0140532
925.309	0.0139636
925.387	0.0139886
925.465	0.0139816
925.543	0.0140353
925.621	0.0141310
925.699	0.0140939
925.778	0.0139285
925.856	0.0140042
925.934	0.0141953
926.012	0.0140548
926.090	0.0140448
926.168	0.0141531
926.246	0.0139548
926.324	0.0141444
926.403	0.0140534
926.481	0.0139426
926.559	0.0140843
926.637	0.0140119
926.715	0.0140876
926.793	0.0142255
926.871	0.0140919
926.949	0.0141005
927.028	0.0140511
927.106	0.0139632
927.184	0.0140312
927.262	0.0141161
927.340	0.0141859
927.418	0.0139670
927.496	0.0139565
927.574	0.0141563
927.653	0.0141301
927.731	0.0140990
927.809	0.0140817
927.887	0.0140854
927.965	0.0141759
928.043	0.0141021
928.121	0.0140775
928.199	0.0141693
928.278	0.0140994
928.356	0.0140786
928.434	0.0140674
928.512	0.0141710
928.590	0.0141231
928.668	0.0141251
928.746	0.0141853
928.824	0.0141396
928.903	0.0141915
928.981	0.0141910
929.059	0.0140751
929.137	0.0141184
929.215	0.0140998
929.293	0.0140582
929.371	0.0142265
929.449	0.0142841
929.528	0.0142286
929.606	0.0141473
929.684	0.0140701
929.762	0.0141112
929.840	0.0142094
929.918	0.0142017
929.996	0.0141270
930.074	0.0142050
930.153	0.0142565
930.231	0.0140983
930.309	0.0141982
930.387	0.0142021
930.465	0.0142008
930.543	0.0142369
930.621	0.0140790
930.699	0.0140802
930.778	0.0142796
930.856	0.0143138
930.934	0.0142026
931.012	0.0141243
931.090	0.0141496
931.168	0.0140493
931.246	0.0141227
931.324	0.0141009
931.403	0.0143169
931.481	0.0141419
931.559	0.0142107
931.637	0.0141844
931.715	0.0142236
931.793	0.0141518
931.871	0.0141618
931.949	0.0143159
932.028	0.0141609
932.106	0.0140018
932.184	0.0142269
932.262	0.0142146
932.340	0.0141717
932.418	0.0140418
932.496	0.0141419
932.574	0.0141515
932.653	0.0140353
932.731	0.0140990
932.809	0.0141371
932.887	0.0141499
932.965	0.0142507
933.043	0.0142037
933.121	0.0141365
933.199	0.0141336
933.278	0.0142556
933.356	0.0143105
933.434	0.0141634
933.512	0.0142731
933.590	0.0143698
933.668	0.0143455
933.746	0.0142334
933.824	0.0142204
933.903	0.0140820
933.981	0.0141954
934.059	0.0142244
934.137	0.0141627
934.215	0.0140894
934.293	0.0143652
934.371	0.0141844
934.449	0.0141692
934.528	0.0141539
934.606	0.0140602
934.684	0.0140240
934.762	0.0141901
934.840	0.0140983
934.918	0.0141740
934.996	0.0140792
935.074	0.0141667
935.153	0.0140985
935.231	0.0140449
935.309	0.0142833
935.387	0.0142114
935.465	0.0140607
935.543	0.0141068
935.621	0.0140835
935.699	0.0141858
935.778	0.0141744
935.856	0.0141594
935.934	0.0142198
936.012	0.0141529
936.090	0.0143232
936.168	0.0141393
936.246	0.0142542
936.324	0.0141877
936.403	0.0141896
936.481	0.0141281
936.559	0.0141881
936.637	0.0143124
936.715	0.0142949
936.793	0.0143941
936.871	0.0141943
936.949	0.0142275
937.028	0.0142136
937.106	0.0141344
937.184	0.0141974
937.262	0.0141943
937.340	0.0142514
937.418	0.0143218
937.496	0.0140829
937.574	0.0142368
937.653	0.0142291
937.731	0.0143009
937.809	0.0141566
937.887	0.0140002
937.965	0.0140724
938.043	0.0141154
938.121	0.0141680
938.199	0.0141910
938.278	0.0141562
938.356	0.0140219
938.434	0.0141982
938.512	0.0140781
938.590	0.0142195
938.668	0.0142932
938.746	0.0142292
938.824	0.0142162
938.903	0.0141669
938.981	0.0142291
939.059	0.0142754
939.137	0.0142024
939.215	0.0143555
939.293	0.0141441
939.371	0.0141225
939.449	0.0143306
939.528	0.0141542
939.606	0.0142310
939.684	0.0142301
939.762	0.0142047
939.840	0.0141904
939.918	0.0140491
939.996	0.0142767
940.074	0.0143581
940.153	0.0142612
940.231	0.0142114
940.309	0.0141910
940.387	0.0143291
940.465	0.0143043
940.543	0.0141756
940.621	0.0141194
940.699	0.0143128
940.778	0.0142279
940.856	0.0141979
940.934	0.0143250
941.012	0.0142925
941.090	0.0143730
941.168	0.0144260
941.246	0.0141621
941.324	0.0141705
941.403	0.0142986
941.481	0.0142316
941.559	0.0142645
941.637	0.0142709
941.715	0.0141462
941.793	0.0142123
941.871	0.0142039
941.949	0.0143089
942.028	0.0142454
942.106	0.0142882
942.184	0.0142654
942.262	0.0140488
942.340	0.0141029
942.418	0.0141502
942.496	0.0142374
942.574	0.0141516
942.653	0.0141241
942.731	0.0141429
942.809	0.0141380
942.887	0.0141281
942.965	0.0141072
943.043	0.0141004
943.121	0.0140658
943.199	0.0140902
943.278	0.0140119
943.356	0.0140462
943.434	0.0141521
943.512	0.0141985
943.590	0.0141007
943.668	0.0140875
943.746	0.0140527
943.824	0.0141121
943.903	0.0141700
943.981	0.0141072
944.059	0.0141308
944.137	0.0142400
944.215	0.0141021
944.293	0.0142702
944.371	0.0143249
944.449	0.0142111
944.528	0.0141544
944.606	0.0142860
944.684	0.0142436
944.762	0.0142174
944.840	0.0142665
944.918	0.0142701
944.996	0.0142151
945.074	0.0142056
945.153	0.0140673
945.231	0.0141553
945.309	0.0142606
945.387	0.0142391
945.465	0.0141650
945.543	0.0143412
945.621	0.0141515
945.699	0.0142818
945.778	0.0140736
945.856	0.0142274
945.934	0.0142442
946.012	0.0142219
946.090	0.0141110
946.168	0.0141745
946.246	0.0142478
946.324	0.0140290
946.403	0.0141851
946.481	0.0142200
946.559	0.0141518
946.637	0.0140952
946.715	0.0142591
946.793	0.0142223
946.871	0.0140955
946.949	0.0141299
947.028	0.0142282
947.106	0.0141973
947.184	0.0139645
947.262	0.0140715
947.340	0.0141658
947.418	0.0142693
947.496	0.0141435
947.574	0.0140882
947.653	0.0141075
947.731	0.0141786
947.809	0.0141972
947.887	0.0141148
947.965	0.0142140
948.043	0.0141609
948.121	0.0141776
948.199	0.0142093
948.278	0.0140414
948.356	0.0140945
948.434	0.0140482
948.512	0.0141485
948.590	0.0141277
948.668	0.0140027
948.746	0.0141901
948.824	0.0141531
948.903	0.0140100
948.981	0.0139861
949.059	0.0142982
949.137	0.0141909
949.215	0.0142659
949.293	0.0141128
949.371	0.0141665
949.449	0.0141656
949.528	0.0139763
949.606	0.0142043
949.684	0.0141936
949.762	0.0141966
949.840	0.0139488
949.918	0.0140845
949.996	0.0141879
950.074	0.0140642
950.153	0.0141093
950.231	0.0141183
950.309	0.0141233
950.387	0.0140079
950.465	0.0140461
950.543	0.0141608
950.621	0.0140659
950.699	0.0140174
950.778	0.0140160
950.856	0.0141238
950.934	0.0141047
951.012	0.0140775
951.090	0.0141525
951.168	0.0141785
951.246	0.0140266
951.324	0.0140675
951.403	0.0140363
951.481	0.0140730
951.559	0.0141523
951.637	0.0143744
951.715	0.0141501
951.793	0.0141775
951.871	0.0142612
951.949	0.0142007
952.028	0.0140417
952.106	0.0141153
952.184	0.0141429
952.262	0.0142194
952.340	0.0140257
952.418	0.0141788
952.496	0.0142185
952.574	0.0142326
952.653	0.0142965
952.731	0.0141160
952.809	0.0141973
952.887	0.0142188
952.965	0.0140917
953.043	0.0140826
953.121	0.0141695
953.199	0.0142323
953.278	0.0141151
953.356	0.0141273
953.434	0.0141262
953.512	0.0142042
953.590	0.0140939
953.668	0.0142512
953.746	0.0141326
953.824	0.0140167
953.903	0.0142098
953.981	0.0141828
954.059	0.0140331
954.137	0.0142048
954.215	0.0142066
954.293	0.0141964
954.371	0.0141894
954.449	0.0141083
954.528	0.0141457
954.606	0.0141882
954.684	0.0141882
954.762	0.0140974
954.840	0.0142397
954.918	0.0142191
954.996	0.0141100
955.074	0.0139445
955.153	0.0141528
955.231	0.0141582
955.309	0.0138878
955.387	0.0141035
955.465	0.0143405
955.543	0.0142578
955.621	0.0141744
955.699	0.0142418
955.778	0.0142300
955.856	0.0142769
955.934	0.0140846
956.012	0.0140641
956.090	0.0139892
956.168	0.0140993
956.246	0.0140398
956.324	0.0140285
956.403	0.0139899
956.481	0.0140244
956.559	0.0142361
956.637	0.0141419
956.715	0.0142523
956.793	0.0141647
956.871	0.0143363
956.949	0.0144427
957.028	0.0143838
957.106	0.0141805
957.184	0.0141035
957.262	0.0141306
957.340	0.0140788
957.418	0.0140588
957.496	0.0140028
957.574	0.0137891
957.653	0.0141255
957.731	0.0139463
957.809	0.0138976
957.887	0.0139739
957.965	0.0141140
958.043	0.0140832
958.121	0.0141876
958.199	0.0141960
958.278	0.0142888
958.356	0.0144474
958.434	0.0143294
958.512	0.0143241
958.590	0.0142885
958.668	0.0142290
958.746	0.0142127
958.824	0.0143079
958.903	0.0142117
958.981	0.0141321
959.059	0.0143190
959.137	0.0142046
959.215	0.0141701
959.293	0.0140835
959.371	0.0140987
959.449	0.0139384
959.528	0.0139335
959.606	0.0139462
959.684	0.0138919
959.762	0.0139243
959.840	0.0141261
959.918	0.0139832
959.996	0.0142549
960.074	0.0142922
960.153	0.0143312
960.231	0.0144295
960.309	0.0144952
960.387	0.0144706
960.465	0.0143909
960.543	0.0143043
960.621	0.0143129
960.699	0.0142727
960.778	0.0141978
960.856	0.0140836
960.934	0.0140736
961.012	0.0139901
961.090	0.0139596
961.168	0.0139024
961.246	0.0138131
961.324	0.0138538
961.403	0.0140199
961.481	0.0138879
961.559	0.0139700
961.637	0.0140171
961.715	0.0140463
961.793	0.0141340
961.871	0.0143097
961.949	0.0143091
962.028	0.0143964
962.106	0.0145354
962.184	0.0145844
962.262	0.0145419
962.340	0.0145786
962.418	0.0145438
962.496	0.0143645
962.574	0.0144038
962.653	0.0145104
962.731	0.0140902
962.809	0.0142801
962.887	0.0139980
962.965	0.0139043
963.043	0.0139811
963.121	0.0138710
963.199	0.0139905
963.278	0.0138932
963.356	0.0138345
963.434	0.0140433
963.512	0.0140822
963.590	0.0139587
963.668	0.0140839
963.746	0.0139648
963.824	0.0140357
963.903	0.0140987
963.981	0.0142457
964.059	0.0141623
964.137	0.0143336
964.215	0.0143664
964.293	0.0143292
964.371	0.0142175
964.449	0.0143455
964.528	0.0143307
964.606	0.0141859
964.684	0.0141842
964.762	0.0142469
964.840	0.0141446
964.918	0.0140289
964.996	0.0139869
965.074	0.0140561
965.153	0.0139264
965.231	0.0138272
965.309	0.0139007
965.387	0.0138636
965.465	0.0139822
965.543	0.0138285
965.621	0.0139754
965.699	0.0139625
965.778	0.0138679
965.856	0.0137978
965.934	0.0139298
966.012	0.0139635
966.090	0.0139538
966.168	0.0140667
966.246	0.0141808
966.324	0.0141299
966.403	0.0141378
966.481	0.0140839
966.559	0.0142577
966.637	0.0140865
966.715	0.0143105
966.793	0.0143131
966.871	0.0142092
966.949	0.0143391
967.028	0.0143443
967.106	0.0142313
967.184	0.0140780
967.262	0.0140449
967.340	0.0139845
967.418	0.0139986
967.496	0.0140648
967.574	0.0139920
967.653	0.0139730
967.731	0.0139279
967.809	0.0138839
967.887	0.0140520
967.965	0.0141167
968.043	0.0140293
968.121	0.0141611
968.199	0.0140589
968.278	0.0140707
968.356	0.0141518
968.434	0.0141624
968.512	0.0141338
968.590	0.0142226
968.668	0.0142034
968.746	0.0141129
968.824	0.0142484
968.903	0.0142876
968.981	0.0141875
969.059	0.0141011
969.137	0.0141131
969.215	0.0142585
969.293	0.0141491
969.371	0.0141291
969.449	0.0140028
969.528	0.0141187
969.606	0.0141093
969.684	0.0141969
969.762	0.0141903
969.840	0.0142680
969.918	0.0142715
