05/14/2022	19:09:09	Ver.	4.1	UNKNOWN
Optical Delay	650.016352	Delta X		0.078125	Sweeps	1	Scan Rate	0/0
Coordinates	Axis 1	NaN	Axis 2	NaN	Axis 3	NaN	Axis 4	NaN	Axis 5	NaN	Axis 6	0.000000
TX Power	0.000000	RX Power	0.000000

650.016	0.0145113
650.094	0.0146080
650.173	0.0146563
650.251	0.0146629
650.329	0.0146017
650.407	0.0144440
650.485	0.0144530
650.563	0.0145517
650.641	0.0145886
650.719	0.0145408
650.798	0.0145573
650.876	0.0145823
650.954	0.0144651
651.032	0.0145953
651.110	0.0145922
651.188	0.0145730
651.266	0.0145032
651.344	0.0145629
651.423	0.0145360
651.501	0.0145526
651.579	0.0146029
651.657	0.0145521
651.735	0.0145087
651.813	0.0145170
651.891	0.0145739
651.969	0.0145669
652.048	0.0146774
652.126	0.0146037
652.204	0.0144927
652.282	0.0145622
652.360	0.0146044
652.438	0.0145861
652.516	0.0145744
652.594	0.0146142
652.673	0.0145299
652.751	0.0147247
652.829	0.0144949
652.907	0.0144804
652.985	0.0146135
653.063	0.0146947
653.141	0.0144383
653.219	0.0145446
653.298	0.0146204
653.376	0.0145216
653.454	0.0144521
653.532	0.0145559
653.610	0.0146500
653.688	0.0146325
653.766	0.0145515
653.844	0.0146244
653.923	0.0145876
654.001	0.0146668
654.079	0.0146591
654.157	0.0146605
654.235	0.0144814
654.313	0.0146184
654.391	0.0146296
654.469	0.0146236
654.548	0.0145439
654.626	0.0144180
654.704	0.0145308
654.782	0.0145888
654.860	0.0144479
654.938	0.0145592
655.016	0.0145764
655.094	0.0145108
655.173	0.0145976
655.251	0.0145013
655.329	0.0145612
655.407	0.0145354
655.485	0.0145771
655.563	0.0146573
655.641	0.0146669
655.719	0.0147533
655.798	0.0144676
655.876	0.0145982
655.954	0.0144898
656.032	0.0145297
656.110	0.0145294
656.188	0.0146695
656.266	0.0146941
656.344	0.0145926
656.423	0.0145691
656.501	0.0145541
656.579	0.0144901
656.657	0.0145640
656.735	0.0144644
656.813	0.0144566
656.891	0.0146472
656.969	0.0146326
657.048	0.0144816
657.126	0.0145726
657.204	0.0145762
657.282	0.0143722
657.360	0.0146066
657.438	0.0145530
657.516	0.0145541
657.594	0.0146127
657.673	0.0145474
657.751	0.0144939
657.829	0.0146185
657.907	0.0146143
657.985	0.0145992
658.063	0.0144901
658.141	0.0144405
658.219	0.0145719
658.298	0.0143655
658.376	0.0145542
658.454	0.0145287
658.532	0.0145721
658.610	0.0145931
658.688	0.0145918
658.766	0.0145776
658.844	0.0145790
658.923	0.0143862
659.001	0.0146655
659.079	0.0144830
659.157	0.0145951
659.235	0.0146381
659.313	0.0144310
659.391	0.0145579
659.469	0.0145180
659.548	0.0146352
659.626	0.0145132
659.704	0.0144927
659.782	0.0145650
659.860	0.0146996
659.938	0.0145658
660.016	0.0145663
660.094	0.0145621
660.173	0.0146422
660.251	0.0145065
660.329	0.0145719
660.407	0.0145096
660.485	0.0145812
660.563	0.0146019
660.641	0.0146267
660.719	0.0145433
660.798	0.0146254
660.876	0.0145641
660.954	0.0144827
661.032	0.0145564
661.110	0.0145415
661.188	0.0146083
661.266	0.0146745
661.344	0.0145378
661.423	0.0144819
661.501	0.0145965
661.579	0.0145792
661.657	0.0145692
661.735	0.0145621
661.813	0.0144923
661.891	0.0145872
661.969	0.0145413
662.048	0.0146449
662.126	0.0146301
662.204	0.0144745
662.282	0.0144530
662.360	0.0145962
662.438	0.0146976
662.516	0.0145889
662.594	0.0145647
662.673	0.0145513
662.751	0.0145084
662.829	0.0145518
662.907	0.0145802
662.985	0.0144578
663.063	0.0146242
663.141	0.0145104
663.219	0.0144386
663.298	0.0144852
663.376	0.0144937
663.454	0.0146642
663.532	0.0145721
663.610	0.0146284
663.688	0.0146519
663.766	0.0147111
663.844	0.0146600
663.923	0.0146341
664.001	0.0146923
664.079	0.0145573
664.157	0.0146006
664.235	0.0145509
664.313	0.0146283
664.391	0.0145359
664.469	0.0144839
664.548	0.0145657
664.626	0.0145820
664.704	0.0144832
664.782	0.0146194
664.860	0.0146757
664.938	0.0146120
665.016	0.0145157
665.094	0.0145892
665.173	0.0146060
665.251	0.0145153
665.329	0.0145103
665.407	0.0146655
665.485	0.0145631
665.563	0.0146570
665.641	0.0145124
665.719	0.0146107
665.798	0.0146961
665.876	0.0145717
665.954	0.0145763
666.032	0.0145010
666.110	0.0145566
666.188	0.0146124
666.266	0.0146453
666.344	0.0147253
666.423	0.0146053
666.501	0.0145422
666.579	0.0145448
666.657	0.0144815
666.735	0.0145695
666.813	0.0146820
666.891	0.0146838
666.969	0.0146236
667.048	0.0145747
667.126	0.0144749
667.204	0.0144881
667.282	0.0145826
667.360	0.0145736
667.438	0.0145617
667.516	0.0146462
667.594	0.0145022
667.673	0.0145383
667.751	0.0146294
667.829	0.0145367
667.907	0.0145699
667.985	0.0145441
668.063	0.0146429
668.141	0.0145718
668.219	0.0145542
668.298	0.0144510
668.376	0.0145905
668.454	0.0147059
668.532	0.0145664
668.610	0.0145308
668.688	0.0145701
668.766	0.0145518
668.844	0.0144545
668.923	0.0145383
669.001	0.0145326
669.079	0.0145820
669.157	0.0145087
669.235	0.0144976
669.313	0.0144212
669.391	0.0143865
669.469	0.0143806
669.548	0.0144996
669.626	0.0144923
669.704	0.0145117
669.782	0.0146353
669.860	0.0146333
669.938	0.0144731
670.016	0.0145468
670.094	0.0143866
670.173	0.0144714
670.251	0.0145394
670.329	0.0144627
670.407	0.0145257
670.485	0.0145689
670.563	0.0146458
670.641	0.0144543
670.719	0.0143878
670.798	0.0143947
670.876	0.0145371
670.954	0.0144796
671.032	0.0142838
671.110	0.0145435
671.188	0.0143089
671.266	0.0143044
671.344	0.0145634
671.423	0.0144278
671.501	0.0144028
671.579	0.0144829
671.657	0.0145556
671.735	0.0144323
671.813	0.0144696
671.891	0.0144595
671.969	0.0145799
672.048	0.0144082
672.126	0.0144753
672.204	0.0145120
672.282	0.0145486
672.360	0.0145392
672.438	0.0143432
672.516	0.0145468
672.594	0.0144312
672.673	0.0142740
672.751	0.0145214
672.829	0.0145432
672.907	0.0144616
672.985	0.0143993
673.063	0.0144266
673.141	0.0144621
673.219	0.0144943
673.298	0.0144117
673.376	0.0144863
673.454	0.0145251
673.532	0.0144753
673.610	0.0144301
673.688	0.0144809
673.766	0.0144894
673.844	0.0146248
673.923	0.0145778
674.001	0.0145637
674.079	0.0144951
674.157	0.0144865
674.235	0.0144563
674.313	0.0146174
674.391	0.0145304
674.469	0.0144521
674.548	0.0145010
674.626	0.0145058
674.704	0.0143769
674.782	0.0145872
674.860	0.0144999
674.938	0.0144661
675.016	0.0145562
675.094	0.0145499
675.173	0.0144917
675.251	0.0145277
675.329	0.0145966
675.407	0.0147133
675.485	0.0146291
675.563	0.0144460
675.641	0.0146070
675.719	0.0146632
675.798	0.0146056
675.876	0.0145236
675.954	0.0147520
676.032	0.0146867
676.110	0.0145594
676.188	0.0145899
676.266	0.0147687
676.344	0.0147302
676.423	0.0145520
676.501	0.0145292
676.579	0.0146361
676.657	0.0146970
676.735	0.0146282
676.813	0.0146371
676.891	0.0148290
676.969	0.0147773
677.048	0.0147093
677.126	0.0146974
677.204	0.0146725
677.282	0.0147035
677.360	0.0148087
677.438	0.0146096
677.516	0.0146719
677.594	0.0146838
677.673	0.0145909
677.751	0.0146123
677.829	0.0147160
677.907	0.0147128
677.985	0.0147702
678.063	0.0145618
678.141	0.0147430
678.219	0.0147929
678.298	0.0147601
678.376	0.0146384
678.454	0.0146475
678.532	0.0146566
678.610	0.0147839
678.688	0.0146786
678.766	0.0147261
678.844	0.0145906
678.923	0.0146034
679.001	0.0146481
679.079	0.0147581
679.157	0.0145586
679.235	0.0146813
679.313	0.0147754
679.391	0.0146240
679.469	0.0145133
679.548	0.0145515
679.626	0.0147221
679.704	0.0147207
679.782	0.0145427
679.860	0.0147088
679.938	0.0146117
680.016	0.0147697
680.094	0.0146471
680.173	0.0145998
680.251	0.0145892
680.329	0.0146370
680.407	0.0146125
680.485	0.0144453
680.563	0.0146268
680.641	0.0145404
680.719	0.0145048
680.798	0.0145150
680.876	0.0145164
680.954	0.0145744
681.032	0.0147197
681.110	0.0145854
681.188	0.0144898
681.266	0.0144824
681.344	0.0144913
681.423	0.0145416
681.501	0.0146926
681.579	0.0145839
681.657	0.0145938
681.735	0.0144668
681.813	0.0144886
681.891	0.0145035
681.969	0.0144982
682.048	0.0145270
682.126	0.0144631
682.204	0.0144817
682.282	0.0144040
682.360	0.0144666
682.438	0.0145045
682.516	0.0144971
682.594	0.0144337
682.673	0.0144131
682.751	0.0145773
682.829	0.0144670
682.907	0.0144822
682.985	0.0143413
683.063	0.0144929
683.141	0.0145680
683.219	0.0143350
683.298	0.0143600
683.376	0.0144202
683.454	0.0144310
683.532	0.0144965
683.610	0.0144985
683.688	0.0145401
683.766	0.0144201
683.844	0.0144318
683.923	0.0145591
684.001	0.0144571
684.079	0.0145377
684.157	0.0145570
684.235	0.0144955
684.313	0.0146848
684.391	0.0145559
684.469	0.0144934
684.548	0.0145734
684.626	0.0146590
684.704	0.0146319
684.782	0.0145888
684.860	0.0144264
684.938	0.0144424
685.016	0.0145100
685.094	0.0146051
685.173	0.0145227
685.251	0.0145850
685.329	0.0145367
685.407	0.0145748
685.485	0.0145530
685.563	0.0145152
685.641	0.0144798
685.719	0.0145202
685.798	0.0145782
685.876	0.0145180
685.954	0.0145107
686.032	0.0143625
686.110	0.0145161
686.188	0.0145255
686.266	0.0145131
686.344	0.0145147
686.423	0.0144781
686.501	0.0144400
686.579	0.0145169
686.657	0.0145301
686.735	0.0144852
686.813	0.0145667
686.891	0.0145215
686.969	0.0146102
687.048	0.0144692
687.126	0.0144676
687.204	0.0145266
687.282	0.0145118
687.360	0.0146034
687.438	0.0145934
687.516	0.0145374
687.594	0.0144833
687.673	0.0145851
687.751	0.0147565
687.829	0.0145572
687.907	0.0145370
687.985	0.0146831
688.063	0.0146210
688.141	0.0146143
688.219	0.0145550
688.298	0.0145909
688.376	0.0145795
688.454	0.0145737
688.532	0.0146996
688.610	0.0145410
688.688	0.0145486
688.766	0.0146774
688.844	0.0146102
688.923	0.0143810
689.001	0.0145358
689.079	0.0145839
689.157	0.0144276
689.235	0.0144735
689.313	0.0144707
689.391	0.0144218
689.469	0.0145408
689.548	0.0146693
689.626	0.0147395
689.704	0.0151244
689.782	0.0152322
689.860	0.0154134
689.938	0.0156108
690.016	0.0154516
690.094	0.0153249
690.173	0.0149396
690.251	0.0144642
690.329	0.0140515
690.407	0.0135189
690.485	0.0131109
690.563	0.0128352
690.641	0.0128322
690.719	0.0128111
690.798	0.0128806
690.876	0.0136174
690.954	0.0141154
691.032	0.0149181
691.110	0.0157588
691.188	0.0162409
691.266	0.0168795
691.344	0.0170570
691.423	0.0172990
691.501	0.0173023
691.579	0.0169350
691.657	0.0164179
691.735	0.0156322
691.813	0.0147847
691.891	0.0138163
691.969	0.0131325
692.048	0.0124477
692.126	0.0117081
692.204	0.0113073
692.282	0.0111351
692.360	0.0111397
692.438	0.0114451
692.516	0.0118414
692.594	0.0123793
692.673	0.0130074
692.751	0.0138076
692.829	0.0145130
692.907	0.0154831
692.985	0.0162472
693.063	0.0166884
693.141	0.0173099
693.219	0.0178160
693.298	0.0177225
693.376	0.0179096
693.454	0.0176723
693.532	0.0175214
693.610	0.0171960
693.688	0.0166816
693.766	0.0161695
693.844	0.0157470
693.923	0.0152100
694.001	0.0144086
694.079	0.0139743
694.157	0.0134946
694.235	0.0127499
694.313	0.0124503
694.391	0.0120797
694.469	0.0118419
694.548	0.0116297
694.626	0.0117068
694.704	0.0116346
694.782	0.0116649
694.860	0.0117163
694.938	0.0121764
695.016	0.0124194
695.094	0.0126942
695.173	0.0131953
695.251	0.0135482
695.329	0.0141959
695.407	0.0146451
695.485	0.0151137
695.563	0.0156500
695.641	0.0161166
695.719	0.0164599
695.798	0.0169492
695.876	0.0173750
695.954	0.0176128
696.032	0.0177511
696.110	0.0179004
696.188	0.0179536
696.266	0.0177683
696.344	0.0177029
696.423	0.0174200
696.501	0.0169505
696.579	0.0165059
696.657	0.0159845
696.735	0.0154190
696.813	0.0147899
696.891	0.0141553
696.969	0.0136723
697.048	0.0128477
697.126	0.0124393
697.204	0.0119087
697.282	0.0115022
697.360	0.0113638
697.438	0.0110710
697.516	0.0110009
697.594	0.0110983
697.673	0.0112712
697.751	0.0115881
697.829	0.0115449
697.907	0.0120742
697.985	0.0126026
698.063	0.0129874
698.141	0.0133665
698.219	0.0138863
698.298	0.0145528
698.376	0.0149316
698.454	0.0153134
698.532	0.0158215
698.610	0.0160060
698.688	0.0163380
698.766	0.0165900
698.844	0.0168552
698.923	0.0171120
699.001	0.0171294
699.079	0.0170752
699.157	0.0171206
699.235	0.0170958
699.313	0.0170043
699.391	0.0168808
699.469	0.0166805
699.548	0.0164870
699.626	0.0162840
699.704	0.0159782
699.782	0.0156819
699.860	0.0153455
699.938	0.0151635
700.016	0.0148370
700.094	0.0144058
700.173	0.0141676
700.251	0.0138058
700.329	0.0135541
700.407	0.0133656
700.485	0.0130439
700.563	0.0127640
700.641	0.0127114
700.719	0.0126711
700.798	0.0124353
700.876	0.0124946
700.954	0.0124776
701.032	0.0123809
701.110	0.0124344
701.188	0.0124966
701.266	0.0126335
701.344	0.0127869
701.423	0.0128403
701.501	0.0129440
701.579	0.0132616
701.657	0.0134077
701.735	0.0135914
701.813	0.0140150
701.891	0.0143644
701.969	0.0146815
702.048	0.0150737
702.126	0.0152467
702.204	0.0155674
702.282	0.0158291
702.360	0.0160989
702.438	0.0164018
702.516	0.0165102
702.594	0.0166356
702.673	0.0166789
702.751	0.0167016
702.829	0.0167043
702.907	0.0167293
702.985	0.0165677
703.063	0.0165792
703.141	0.0164065
703.219	0.0163445
703.298	0.0161988
703.376	0.0159673
703.454	0.0157494
703.532	0.0156108
703.610	0.0154184
703.688	0.0152644
703.766	0.0151234
703.844	0.0147875
703.923	0.0146758
704.001	0.0143944
704.079	0.0142538
704.157	0.0141850
704.235	0.0138628
704.313	0.0137962
704.391	0.0137484
704.469	0.0134485
704.548	0.0132466
704.626	0.0133053
704.704	0.0131489
704.782	0.0131560
704.860	0.0131561
704.938	0.0130552
705.016	0.0130747
705.094	0.0130985
705.173	0.0130246
705.251	0.0132439
705.329	0.0131329
705.407	0.0130591
705.485	0.0131711
705.563	0.0132099
705.641	0.0132468
705.719	0.0134264
705.798	0.0133222
705.876	0.0135694
705.954	0.0139987
706.032	0.0141251
706.110	0.0143694
706.188	0.0147280
706.266	0.0150717
706.344	0.0153797
706.423	0.0156621
706.501	0.0160657
706.579	0.0162032
706.657	0.0164407
706.735	0.0166047
706.813	0.0166158
706.891	0.0166552
706.969	0.0167040
707.048	0.0165789
707.126	0.0163256
707.204	0.0160596
707.282	0.0158891
707.360	0.0156670
707.438	0.0154024
707.516	0.0151028
707.594	0.0149741
707.673	0.0148700
707.751	0.0146892
707.829	0.0146101
707.907	0.0144672
707.985	0.0143414
708.063	0.0143383
708.141	0.0142833
708.219	0.0141184
708.298	0.0141219
708.376	0.0139730
708.454	0.0140757
708.532	0.0139619
708.610	0.0138628
708.688	0.0138707
708.766	0.0138988
708.844	0.0137378
708.923	0.0136920
709.001	0.0137389
709.079	0.0137618
709.157	0.0137170
709.235	0.0137306
709.313	0.0137314
709.391	0.0135915
709.469	0.0137622
709.548	0.0136093
709.626	0.0136768
709.704	0.0137123
709.782	0.0137168
709.860	0.0138026
709.938	0.0138670
710.016	0.0139474
710.094	0.0139785
710.173	0.0140903
710.251	0.0140995
710.329	0.0142132
710.407	0.0143121
710.485	0.0143412
710.563	0.0144768
710.641	0.0146142
710.719	0.0146245
710.798	0.0148193
710.876	0.0148641
710.954	0.0148119
711.032	0.0150087
711.110	0.0152345
711.188	0.0151345
711.266	0.0152049
711.344	0.0151535
711.423	0.0154447
711.501	0.0154280
711.579	0.0153784
711.657	0.0155363
711.735	0.0154932
711.813	0.0155334
711.891	0.0154984
711.969	0.0155432
712.048	0.0156689
712.126	0.0155666
712.204	0.0155064
712.282	0.0152904
712.360	0.0152907
712.438	0.0151283
712.516	0.0150716
712.594	0.0148735
712.673	0.0148756
712.751	0.0146585
712.829	0.0146053
712.907	0.0144813
712.985	0.0144808
713.063	0.0144914
713.141	0.0146297
713.219	0.0144978
713.298	0.0143670
713.376	0.0143363
713.454	0.0144088
713.532	0.0144283
713.610	0.0142481
713.688	0.0141496
713.766	0.0142405
713.844	0.0141615
713.923	0.0140015
714.001	0.0138721
714.079	0.0139092
714.157	0.0138966
714.235	0.0136814
714.313	0.0136763
714.391	0.0135464
714.469	0.0137163
714.548	0.0136254
714.626	0.0137591
714.704	0.0137448
714.782	0.0139031
714.860	0.0140285
714.938	0.0139700
715.016	0.0141066
715.094	0.0141326
715.173	0.0142951
715.251	0.0145872
715.329	0.0147053
715.407	0.0147170
715.485	0.0149565
715.563	0.0149329
715.641	0.0150359
715.719	0.0152039
715.798	0.0153503
715.876	0.0154313
715.954	0.0153747
716.032	0.0155870
716.110	0.0155547
716.188	0.0154381
716.266	0.0154632
716.344	0.0154203
716.423	0.0154181
716.501	0.0153423
716.579	0.0152719
716.657	0.0152513
716.735	0.0150869
716.813	0.0152996
716.891	0.0151846
716.969	0.0152621
717.048	0.0151308
717.126	0.0150570
717.204	0.0150485
717.282	0.0149580
717.360	0.0149509
717.438	0.0148209
717.516	0.0147740
717.594	0.0146314
717.673	0.0144386
717.751	0.0144118
717.829	0.0142007
717.907	0.0139690
717.985	0.0139724
718.063	0.0139651
718.141	0.0137424
718.219	0.0138175
718.298	0.0138881
718.376	0.0138747
718.454	0.0138499
718.532	0.0138849
718.610	0.0140344
718.688	0.0141199
718.766	0.0141151
718.844	0.0142871
718.923	0.0143970
719.001	0.0144000
719.079	0.0143499
719.157	0.0143328
719.235	0.0143134
719.313	0.0144935
719.391	0.0143747
719.469	0.0144321
719.548	0.0142788
719.626	0.0143908
719.704	0.0145352
719.782	0.0144316
719.860	0.0144102
719.938	0.0144202
720.016	0.0145099
720.094	0.0144640
720.173	0.0143721
720.251	0.0146300
720.329	0.0147031
720.407	0.0146624
720.485	0.0146864
720.563	0.0147797
720.641	0.0145920
720.719	0.0146659
720.798	0.0146896
720.876	0.0147418
720.954	0.0146895
721.032	0.0147733
721.110	0.0148160
721.188	0.0147237
721.266	0.0146236
721.344	0.0148548
721.423	0.0146783
721.501	0.0146938
721.579	0.0145528
721.657	0.0145863
721.735	0.0146500
721.813	0.0147078
721.891	0.0145914
721.969	0.0144511
722.048	0.0145319
722.126	0.0146585
722.204	0.0145733
722.282	0.0144703
722.360	0.0145369
722.438	0.0145596
722.516	0.0146242
722.594	0.0146708
722.673	0.0149296
722.751	0.0147614
722.829	0.0147784
722.907	0.0148617
722.985	0.0148132
723.063	0.0146043
723.141	0.0146224
723.219	0.0145685
723.298	0.0145545
723.376	0.0144574
723.454	0.0143483
723.532	0.0143839
723.610	0.0143510
723.688	0.0141454
723.766	0.0141888
723.844	0.0141002
723.923	0.0141119
724.001	0.0139877
724.079	0.0140209
724.157	0.0141473
724.235	0.0141673
724.313	0.0141749
724.391	0.0143030
724.469	0.0142816
724.548	0.0142629
724.626	0.0143968
724.704	0.0144141
724.782	0.0144320
724.860	0.0145332
724.938	0.0144401
725.016	0.0145032
725.094	0.0144032
725.173	0.0143955
725.251	0.0145451
725.329	0.0144582
725.407	0.0143617
725.485	0.0143835
725.563	0.0144103
725.641	0.0145117
725.719	0.0146558
725.798	0.0148111
725.876	0.0147261
725.954	0.0147298
726.032	0.0148145
726.110	0.0148502
726.188	0.0149773
726.266	0.0150224
726.344	0.0151199
726.423	0.0150861
726.501	0.0150877
726.579	0.0151879
726.657	0.0149638
726.735	0.0149467
726.813	0.0147443
726.891	0.0147122
726.969	0.0145918
727.048	0.0144587
727.126	0.0145103
727.204	0.0144173
727.282	0.0142732
727.360	0.0142193
727.438	0.0142204
727.516	0.0142860
727.594	0.0143665
727.673	0.0143550
727.751	0.0144342
727.829	0.0145370
727.907	0.0146762
727.985	0.0148672
728.063	0.0147911
728.141	0.0148572
728.219	0.0148940
728.298	0.0150698
728.376	0.0150119
728.454	0.0149902
728.532	0.0150380
728.610	0.0149125
728.688	0.0150261
728.766	0.0146959
728.844	0.0148270
728.923	0.0147652
729.001	0.0146888
729.079	0.0144978
729.157	0.0144603
729.235	0.0145172
729.313	0.0145351
729.391	0.0144787
729.469	0.0145118
729.548	0.0143748
729.626	0.0143992
729.704	0.0142982
729.782	0.0145442
729.860	0.0144698
729.938	0.0144562
730.016	0.0144604
730.094	0.0144937
730.173	0.0143715
730.251	0.0144831
730.329	0.0143765
730.407	0.0144376
730.485	0.0143842
730.563	0.0144537
730.641	0.0144671
730.719	0.0145138
730.798	0.0145248
730.876	0.0145136
730.954	0.0145644
731.032	0.0144374
731.110	0.0145590
731.188	0.0145247
731.266	0.0145437
731.344	0.0144919
731.423	0.0145240
731.501	0.0146015
731.579	0.0144325
731.657	0.0145267
731.735	0.0146138
731.813	0.0146030
731.891	0.0147671
731.969	0.0147664
732.048	0.0147047
732.126	0.0146313
732.204	0.0147078
732.282	0.0146312
732.360	0.0147013
732.438	0.0146065
732.516	0.0144835
732.594	0.0144453
732.673	0.0143398
732.751	0.0143124
732.829	0.0144336
732.907	0.0143487
732.985	0.0143246
733.063	0.0143398
733.141	0.0144367
733.219	0.0144736
733.298	0.0145527
733.376	0.0145074
733.454	0.0145899
733.532	0.0147189
733.610	0.0147639
733.688	0.0146780
733.766	0.0148418
733.844	0.0147997
733.923	0.0149432
734.001	0.0148859
734.079	0.0147836
734.157	0.0148932
734.235	0.0148736
734.313	0.0147806
734.391	0.0149169
734.469	0.0147688
734.548	0.0148618
734.626	0.0146886
734.704	0.0146239
734.782	0.0146541
734.860	0.0146666
734.938	0.0145752
735.016	0.0145000
735.094	0.0144078
735.173	0.0143817
735.251	0.0144857
735.329	0.0143803
735.407	0.0142217
735.485	0.0141837
735.563	0.0142558
735.641	0.0141143
735.719	0.0141968
735.798	0.0139512
735.876	0.0141454
735.954	0.0141889
736.032	0.0141452
736.110	0.0141025
736.188	0.0139718
736.266	0.0141617
736.344	0.0141575
736.423	0.0142261
736.501	0.0142506
736.579	0.0143837
736.657	0.0144114
736.735	0.0144939
736.813	0.0146075
736.891	0.0148941
736.969	0.0147250
737.048	0.0150115
737.126	0.0150138
737.204	0.0149967
737.282	0.0150357
737.360	0.0152130
737.438	0.0150411
737.516	0.0151144
737.594	0.0151177
737.673	0.0150029
737.751	0.0149813
737.829	0.0147790
737.907	0.0149117
737.985	0.0149112
738.063	0.0147665
738.141	0.0146629
738.219	0.0146522
738.298	0.0146854
738.376	0.0145613
738.454	0.0145126
738.532	0.0146140
738.610	0.0144376
738.688	0.0144862
738.766	0.0144140
738.844	0.0143629
738.923	0.0144414
739.001	0.0145308
739.079	0.0145772
739.157	0.0144333
739.235	0.0143307
739.313	0.0146119
739.391	0.0146677
739.469	0.0146387
739.548	0.0145068
739.626	0.0145090
739.704	0.0145525
739.782	0.0147822
739.860	0.0147617
739.938	0.0146874
740.016	0.0148173
740.094	0.0147951
740.173	0.0147725
740.251	0.0147341
740.329	0.0149310
740.407	0.0147008
740.485	0.0145885
740.563	0.0147430
740.641	0.0146049
740.719	0.0146788
740.798	0.0145024
740.876	0.0144368
740.954	0.0143173
741.032	0.0143445
741.110	0.0142204
741.188	0.0142027
741.266	0.0141319
741.344	0.0141374
741.423	0.0140932
741.501	0.0141272
741.579	0.0142464
741.657	0.0144553
741.735	0.0142597
741.813	0.0143209
741.891	0.0145071
741.969	0.0145893
742.048	0.0148364
742.126	0.0149258
742.204	0.0149433
742.282	0.0151453
742.360	0.0151331
742.438	0.0150690
742.516	0.0151962
742.594	0.0153239
742.673	0.0152316
742.751	0.0153063
742.829	0.0152357
742.907	0.0151083
742.985	0.0150282
743.063	0.0149063
743.141	0.0149573
743.219	0.0146288
743.298	0.0147505
743.376	0.0145712
743.454	0.0146070
743.532	0.0144641
743.610	0.0145262
743.688	0.0144264
743.766	0.0143811
743.844	0.0144801
743.923	0.0143354
744.001	0.0143348
744.079	0.0142787
744.157	0.0143155
744.235	0.0143449
744.313	0.0145120
744.391	0.0144170
744.469	0.0144447
744.548	0.0143546
744.626	0.0143660
744.704	0.0143584
744.782	0.0144028
744.860	0.0144481
744.938	0.0144577
745.016	0.0144756
745.094	0.0145208
745.173	0.0144480
745.251	0.0145757
745.329	0.0147346
745.407	0.0146682
745.485	0.0146588
745.563	0.0146648
745.641	0.0148205
745.719	0.0146825
745.798	0.0145468
745.876	0.0147594
745.954	0.0146093
746.032	0.0146762
746.110	0.0146396
746.188	0.0145618
746.266	0.0146761
746.344	0.0147878
746.423	0.0145861
746.501	0.0144726
746.579	0.0145248
746.657	0.0144394
746.735	0.0144205
746.813	0.0144072
746.891	0.0144043
746.969	0.0144080
747.048	0.0141690
747.126	0.0142451
747.204	0.0141937
747.282	0.0141769
747.360	0.0143202
747.438	0.0143450
747.516	0.0143282
747.594	0.0144247
747.673	0.0144452
747.751	0.0146479
747.829	0.0145106
747.907	0.0146398
747.985	0.0147227
748.063	0.0147835
748.141	0.0148839
748.219	0.0148018
748.298	0.0149062
748.376	0.0148015
748.454	0.0149590
748.532	0.0149224
748.610	0.0151100
748.688	0.0150574
748.766	0.0149380
748.844	0.0148907
748.923	0.0150050
749.001	0.0149687
749.079	0.0147820
749.157	0.0148811
749.235	0.0148303
749.313	0.0147868
749.391	0.0147059
749.469	0.0147126
749.548	0.0146534
749.626	0.0145295
749.704	0.0144759
749.782	0.0145015
749.860	0.0144780
749.938	0.0144336
750.016	0.0143942
750.094	0.0143118
750.173	0.0141951
750.251	0.0142588
750.329	0.0141958
750.407	0.0143217
750.485	0.0141407
750.563	0.0142182
750.641	0.0143081
750.719	0.0142790
750.798	0.0142747
750.876	0.0141881
750.954	0.0143476
751.032	0.0144862
751.110	0.0144439
751.188	0.0144832
751.266	0.0144046
751.344	0.0145831
751.423	0.0145471
751.501	0.0145713
751.579	0.0146159
751.657	0.0145573
751.735	0.0145470
751.813	0.0145852
751.891	0.0145986
751.969	0.0144872
752.048	0.0143761
752.126	0.0142809
752.204	0.0142442
752.282	0.0141518
752.360	0.0141720
752.438	0.0142123
752.516	0.0143020
752.594	0.0142089
752.673	0.0142305
752.751	0.0144653
752.829	0.0144921
752.907	0.0145240
752.985	0.0145626
753.063	0.0146427
753.141	0.0147901
753.219	0.0147972
753.298	0.0150164
753.376	0.0149187
753.454	0.0149503
753.532	0.0152249
753.610	0.0151536
753.688	0.0151559
753.766	0.0150763
753.844	0.0151881
753.923	0.0152269
754.001	0.0151806
754.079	0.0152493
754.157	0.0151297
754.235	0.0150307
754.313	0.0151595
754.391	0.0150625
754.469	0.0148991
754.548	0.0150375
754.626	0.0151039
754.704	0.0149792
754.782	0.0148466
754.860	0.0148636
754.938	0.0148700
755.016	0.0148487
755.094	0.0146027
755.173	0.0145736
755.251	0.0146261
755.329	0.0145637
755.407	0.0145728
755.485	0.0143901
755.563	0.0143879
755.641	0.0144028
755.719	0.0143497
755.798	0.0143388
755.876	0.0143769
755.954	0.0141393
756.032	0.0141663
756.110	0.0142383
756.188	0.0142504
756.266	0.0142414
756.344	0.0141534
756.423	0.0141515
756.501	0.0142686
756.579	0.0144659
756.657	0.0144157
756.735	0.0142185
756.813	0.0143618
756.891	0.0143954
756.969	0.0143693
757.048	0.0144591
757.126	0.0145130
757.204	0.0143977
757.282	0.0144179
757.360	0.0143578
757.438	0.0144300
757.516	0.0143758
757.594	0.0144368
757.673	0.0144249
757.751	0.0143674
757.829	0.0143304
757.907	0.0143189
757.985	0.0143192
758.063	0.0143093
758.141	0.0142832
758.219	0.0144108
758.298	0.0144875
758.376	0.0143324
758.454	0.0145148
758.532	0.0145535
758.610	0.0147608
758.688	0.0147913
758.766	0.0147367
758.844	0.0146983
758.923	0.0148438
759.001	0.0147742
759.079	0.0147646
759.157	0.0149376
759.235	0.0149767
759.313	0.0148582
759.391	0.0149839
759.469	0.0151000
759.548	0.0151829
759.626	0.0150817
759.704	0.0151729
759.782	0.0150896
759.860	0.0151501
759.938	0.0149557
760.016	0.0150349
760.094	0.0148398
760.173	0.0148451
760.251	0.0147735
760.329	0.0147623
760.407	0.0146177
760.485	0.0145649
760.563	0.0143571
760.641	0.0143938
760.719	0.0143288
760.798	0.0141090
760.876	0.0138825
760.954	0.0140084
761.032	0.0140263
761.110	0.0139640
761.188	0.0139532
761.266	0.0139603
761.344	0.0139455
761.423	0.0139195
761.501	0.0141872
761.579	0.0142033
761.657	0.0141795
761.735	0.0143433
761.813	0.0144373
761.891	0.0144101
761.969	0.0145105
762.048	0.0148064
762.126	0.0147938
762.204	0.0149584
762.282	0.0149930
762.360	0.0149625
762.438	0.0151470
762.516	0.0149123
762.594	0.0149838
762.673	0.0149393
762.751	0.0148128
762.829	0.0147964
762.907	0.0148844
762.985	0.0148464
763.063	0.0147742
763.141	0.0146416
763.219	0.0145347
763.298	0.0143683
763.376	0.0143740
763.454	0.0142501
763.532	0.0143586
763.610	0.0143518
763.688	0.0142771
763.766	0.0142506
763.844	0.0141531
763.923	0.0142207
764.001	0.0143382
764.079	0.0143887
764.157	0.0143414
764.235	0.0143944
764.313	0.0145545
764.391	0.0144935
764.469	0.0144371
764.548	0.0145576
764.626	0.0146246
764.704	0.0148488
764.782	0.0149347
764.860	0.0150996
764.938	0.0150969
765.016	0.0150223
765.094	0.0151050
765.173	0.0151712
765.251	0.0152116
765.329	0.0151805
765.407	0.0151914
765.485	0.0151991
765.563	0.0151470
765.641	0.0151430
765.719	0.0150922
765.798	0.0149418
765.876	0.0148882
765.954	0.0147477
766.032	0.0147420
766.110	0.0146193
766.188	0.0144982
766.266	0.0144415
766.344	0.0143050
766.423	0.0141719
766.501	0.0142931
766.579	0.0140849
766.657	0.0138759
766.735	0.0138293
766.813	0.0140775
766.891	0.0139733
766.969	0.0138657
767.048	0.0139527
767.126	0.0139715
767.204	0.0140331
767.282	0.0140491
767.360	0.0141585
767.438	0.0140433
767.516	0.0142542
767.594	0.0142958
767.673	0.0144764
767.751	0.0144053
767.829	0.0145872
767.907	0.0146894
767.985	0.0148090
768.063	0.0146030
768.141	0.0147898
768.219	0.0147067
768.298	0.0149094
768.376	0.0149517
768.454	0.0149474
768.532	0.0150513
768.610	0.0151399
768.688	0.0150432
768.766	0.0150491
768.844	0.0151870
768.923	0.0153211
769.001	0.0151173
769.079	0.0150418
769.157	0.0151794
769.235	0.0153038
769.313	0.0150787
769.391	0.0149410
769.469	0.0149430
769.548	0.0149397
769.626	0.0150368
769.704	0.0146970
769.782	0.0146552
769.860	0.0147765
769.938	0.0146569
770.016	0.0146620
770.094	0.0144637
770.173	0.0144214
770.251	0.0142862
770.329	0.0142827
770.407	0.0142152
770.485	0.0142397
770.563	0.0140977
770.641	0.0140918
770.719	0.0140957
770.798	0.0140237
770.876	0.0141002
770.954	0.0140150
771.032	0.0138860
771.110	0.0139156
771.188	0.0139823
771.266	0.0139979
771.344	0.0140476
771.423	0.0137996
771.501	0.0138110
771.579	0.0141543
771.657	0.0141636
771.735	0.0142633
771.813	0.0142044
771.891	0.0142281
771.969	0.0143259
772.048	0.0144228
772.126	0.0144672
772.204	0.0146713
772.282	0.0146846
772.360	0.0145366
772.438	0.0147725
772.516	0.0148370
772.594	0.0149391
772.673	0.0149924
772.751	0.0151138
772.829	0.0150504
772.907	0.0149990
772.985	0.0151675
773.063	0.0152322
773.141	0.0150267
773.219	0.0149868
773.298	0.0151678
773.376	0.0151204
773.454	0.0150191
773.532	0.0149680
773.610	0.0148300
773.688	0.0149823
773.766	0.0149583
773.844	0.0148960
773.923	0.0148312
774.001	0.0146924
774.079	0.0145265
774.157	0.0147765
774.235	0.0145855
774.313	0.0145365
774.391	0.0146978
774.469	0.0146881
774.548	0.0147702
774.626	0.0145784
774.704	0.0145024
774.782	0.0146411
774.860	0.0147721
774.938	0.0146708
775.016	0.0149315
775.094	0.0147744
775.173	0.0147813
775.251	0.0147365
775.329	0.0147932
775.407	0.0148888
775.485	0.0147116
775.563	0.0146887
775.641	0.0147688
775.719	0.0148317
775.798	0.0147095
775.876	0.0146368
775.954	0.0146601
776.032	0.0144295
776.110	0.0143228
776.188	0.0144219
776.266	0.0142314
776.344	0.0142880
776.423	0.0141811
776.501	0.0142352
776.579	0.0142379
776.657	0.0142115
776.735	0.0143322
776.813	0.0142529
776.891	0.0142021
776.969	0.0140753
777.048	0.0142476
777.126	0.0142432
777.204	0.0144180
777.282	0.0143404
777.360	0.0143900
777.438	0.0144370
777.516	0.0145137
777.594	0.0146142
777.673	0.0145211
777.751	0.0145863
777.829	0.0147510
777.907	0.0146880
777.985	0.0146307
778.063	0.0148165
778.141	0.0149014
778.219	0.0148782
778.298	0.0147584
778.376	0.0148035
778.454	0.0149064
778.532	0.0148247
778.610	0.0148101
778.688	0.0148131
778.766	0.0146731
778.844	0.0148157
778.923	0.0147770
779.001	0.0147253
779.079	0.0147660
779.157	0.0146320
779.235	0.0146820
779.313	0.0147807
779.391	0.0148142
779.469	0.0146403
779.548	0.0147060
779.626	0.0146901
779.704	0.0145358
779.782	0.0146270
779.860	0.0147320
779.938	0.0146655
780.016	0.0147314
780.094	0.0146410
780.173	0.0146320
780.251	0.0145666
780.329	0.0144125
780.407	0.0146741
780.485	0.0144982
780.563	0.0144279
780.641	0.0144840
780.719	0.0144005
780.798	0.0144093
780.876	0.0144307
780.954	0.0144958
781.032	0.0144151
781.110	0.0144801
781.188	0.0143417
781.266	0.0145109
781.344	0.0146365
781.423	0.0145932
781.501	0.0146355
781.579	0.0146883
781.657	0.0146416
781.735	0.0145747
781.813	0.0145665
781.891	0.0146288
781.969	0.0147154
782.048	0.0146045
782.126	0.0147608
782.204	0.0147740
782.282	0.0148096
782.360	0.0146486
782.438	0.0146770
782.516	0.0145110
782.594	0.0145574
782.673	0.0145551
782.751	0.0146337
782.829	0.0145201
782.907	0.0145034
782.985	0.0145397
783.063	0.0143257
783.141	0.0142148
783.219	0.0143268
783.298	0.0144055
783.376	0.0143497
783.454	0.0142460
783.532	0.0142713
783.610	0.0143685
783.688	0.0143943
783.766	0.0144717
783.844	0.0143042
783.923	0.0144064
784.001	0.0143713
784.079	0.0144139
784.157	0.0144332
784.235	0.0144890
784.313	0.0145016
784.391	0.0143676
784.469	0.0144308
784.548	0.0144898
784.626	0.0143382
784.704	0.0144495
784.782	0.0144589
784.860	0.0144173
784.938	0.0145348
785.016	0.0145288
785.094	0.0145313
785.173	0.0144712
785.251	0.0145228
785.329	0.0146716
785.407	0.0146851
785.485	0.0146603
785.563	0.0145941
785.641	0.0147050
785.719	0.0148288
785.798	0.0150430
785.876	0.0148595
785.954	0.0147214
786.032	0.0149295
786.110	0.0149432
786.188	0.0150330
786.266	0.0150495
786.344	0.0149989
786.423	0.0148649
786.501	0.0149023
786.579	0.0148201
786.657	0.0147700
786.735	0.0146672
786.813	0.0147459
786.891	0.0146284
786.969	0.0146117
787.048	0.0146400
787.126	0.0145135
787.204	0.0145054
787.282	0.0144927
787.360	0.0144430
787.438	0.0145583
787.516	0.0144511
787.594	0.0145815
787.673	0.0145913
787.751	0.0144572
787.829	0.0146024
787.907	0.0144006
787.985	0.0144628
788.063	0.0145290
788.141	0.0143681
788.219	0.0143506
788.298	0.0144033
788.376	0.0143452
788.454	0.0143996
788.532	0.0143359
788.610	0.0144277
788.688	0.0143980
788.766	0.0144617
788.844	0.0145363
788.923	0.0144836
789.001	0.0144692
789.079	0.0146532
789.157	0.0145571
789.235	0.0144904
789.313	0.0144690
789.391	0.0145219
789.469	0.0145542
789.548	0.0145285
789.626	0.0146741
789.704	0.0145818
789.782	0.0147473
789.860	0.0147840
789.938	0.0147782
790.016	0.0149290
790.094	0.0147574
790.173	0.0146964
790.251	0.0145823
790.329	0.0146646
790.407	0.0145654
790.485	0.0145175
790.563	0.0144301
790.641	0.0144477
790.719	0.0144295
790.798	0.0143476
790.876	0.0140894
790.954	0.0141402
791.032	0.0140958
791.110	0.0140520
791.188	0.0140434
791.266	0.0141623
791.344	0.0140865
791.423	0.0141780
791.501	0.0141445
791.579	0.0141923
791.657	0.0142834
791.735	0.0142942
791.813	0.0144247
791.891	0.0145653
791.969	0.0145737
792.048	0.0146298
792.126	0.0147475
792.204	0.0147569
792.282	0.0149724
792.360	0.0150076
792.438	0.0150513
792.516	0.0151319
792.594	0.0150907
792.673	0.0150341
792.751	0.0150733
792.829	0.0149128
792.907	0.0150079
792.985	0.0148738
793.063	0.0148615
793.141	0.0147939
793.219	0.0146080
793.298	0.0145902
793.376	0.0146458
793.454	0.0145866
793.532	0.0143135
793.610	0.0144493
793.688	0.0142889
793.766	0.0142679
793.844	0.0143598
793.923	0.0142682
794.001	0.0143752
794.079	0.0143366
794.157	0.0141934
794.235	0.0141908
794.313	0.0143615
794.391	0.0142641
794.469	0.0142692
794.548	0.0143545
794.626	0.0143172
794.704	0.0144667
794.782	0.0146094
794.860	0.0145226
794.938	0.0145146
795.016	0.0145638
795.094	0.0145370
795.173	0.0147469
795.251	0.0146323
795.329	0.0147875
795.407	0.0147571
795.485	0.0147351
795.563	0.0146636
795.641	0.0147297
795.719	0.0148797
795.798	0.0148177
795.876	0.0148522
795.954	0.0149018
796.032	0.0148170
796.110	0.0148466
796.188	0.0148692
796.266	0.0148186
796.344	0.0148575
796.423	0.0147917
796.501	0.0147781
796.579	0.0147248
796.657	0.0148412
796.735	0.0147458
796.813	0.0144365
796.891	0.0144521
796.969	0.0143781
797.048	0.0143009
797.126	0.0141830
797.204	0.0140965
797.282	0.0140816
797.360	0.0139442
797.438	0.0139034
797.516	0.0138834
797.594	0.0138302
797.673	0.0137402
797.751	0.0139626
797.829	0.0140028
797.907	0.0139996
797.985	0.0139060
798.063	0.0140528
798.141	0.0140269
798.219	0.0141830
798.298	0.0144217
798.376	0.0145614
798.454	0.0145249
798.532	0.0146519
798.610	0.0147729
798.688	0.0148283
798.766	0.0150311
798.844	0.0149601
798.923	0.0150594
799.001	0.0150874
799.079	0.0151540
799.157	0.0151563
799.235	0.0152820
799.313	0.0152158
799.391	0.0151971
799.469	0.0152201
799.548	0.0151582
799.626	0.0150102
799.704	0.0153139
799.782	0.0151505
799.860	0.0151150
799.938	0.0150046
800.016	0.0149239
800.094	0.0150101
800.173	0.0149973
800.251	0.0149276
800.329	0.0148165
800.407	0.0147427
800.485	0.0147085
800.563	0.0145522
800.641	0.0146042
800.719	0.0144324
800.798	0.0143475
800.876	0.0143159
800.954	0.0142857
801.032	0.0141012
801.110	0.0142393
801.188	0.0141594
801.266	0.0141784
801.344	0.0140578
801.423	0.0139832
801.501	0.0140646
801.579	0.0141228
801.657	0.0141006
801.735	0.0141618
801.813	0.0141028
801.891	0.0141570
801.969	0.0143044
802.048	0.0142957
802.126	0.0143753
802.204	0.0146612
802.282	0.0145816
802.360	0.0145566
802.438	0.0145079
802.516	0.0145531
802.594	0.0147199
802.673	0.0146320
802.751	0.0146938
802.829	0.0146790
802.907	0.0147113
802.985	0.0146710
803.063	0.0146327
803.141	0.0146596
803.219	0.0145819
803.298	0.0145587
803.376	0.0145090
803.454	0.0145281
803.532	0.0144633
803.610	0.0146074
803.688	0.0144824
803.766	0.0144458
803.844	0.0144029
803.923	0.0144205
804.001	0.0145034
804.079	0.0144798
804.157	0.0143926
804.235	0.0143732
804.313	0.0144791
804.391	0.0144278
804.469	0.0144832
804.548	0.0146483
804.626	0.0145984
804.704	0.0147301
804.782	0.0148562
804.860	0.0147066
804.938	0.0148160
805.016	0.0149249
805.094	0.0147926
805.173	0.0148560
805.251	0.0148438
805.329	0.0147466
805.407	0.0148620
805.485	0.0147918
805.563	0.0148293
805.641	0.0147272
805.719	0.0148044
805.798	0.0147028
805.876	0.0145061
805.954	0.0145332
806.032	0.0145484
806.110	0.0145710
806.188	0.0145670
806.266	0.0145953
806.344	0.0145348
806.423	0.0145476
806.501	0.0144695
806.579	0.0143634
806.657	0.0142886
806.735	0.0142601
806.813	0.0143578
806.891	0.0143486
806.969	0.0143207
807.048	0.0143378
807.126	0.0142342
807.204	0.0143246
807.282	0.0143593
807.360	0.0142308
807.438	0.0142934
807.516	0.0143227
807.594	0.0145372
807.673	0.0144810
807.751	0.0144827
807.829	0.0144339
807.907	0.0144641
807.985	0.0148156
808.063	0.0147466
808.141	0.0149380
808.219	0.0149566
808.298	0.0148850
808.376	0.0149551
808.454	0.0149285
808.532	0.0147884
808.610	0.0148505
808.688	0.0147382
808.766	0.0147437
808.844	0.0148389
808.923	0.0147826
809.001	0.0147398
809.079	0.0147322
809.157	0.0146590
809.235	0.0146697
809.313	0.0146249
809.391	0.0146423
809.469	0.0145634
809.548	0.0145525
809.626	0.0145572
809.704	0.0145027
809.782	0.0144292
809.860	0.0144809
809.938	0.0144520
810.016	0.0141896
810.094	0.0143462
810.173	0.0143533
810.251	0.0144822
810.329	0.0143311
810.407	0.0143209
810.485	0.0143182
810.563	0.0144250
810.641	0.0143700
810.719	0.0143179
810.798	0.0144300
810.876	0.0143896
810.954	0.0143605
811.032	0.0143607
811.110	0.0144595
811.188	0.0144854
811.266	0.0145027
811.344	0.0145708
811.423	0.0147057
811.501	0.0145499
811.579	0.0145792
811.657	0.0144505
811.735	0.0148314
811.813	0.0147595
811.891	0.0146345
811.969	0.0146204
812.048	0.0147518
812.126	0.0146851
812.204	0.0145691
812.282	0.0147118
812.360	0.0146384
812.438	0.0145833
812.516	0.0147174
812.594	0.0146838
812.673	0.0147022
812.751	0.0148182
812.829	0.0148752
812.907	0.0147385
812.985	0.0146201
813.063	0.0147658
813.141	0.0147674
813.219	0.0148072
813.298	0.0148602
813.376	0.0148591
813.454	0.0147978
813.532	0.0147130
813.610	0.0147508
813.688	0.0149186
813.766	0.0147691
813.844	0.0149239
813.923	0.0147722
814.001	0.0147790
814.079	0.0146948
814.157	0.0147698
814.235	0.0146618
814.313	0.0146296
814.391	0.0147527
814.469	0.0146291
814.548	0.0145341
814.626	0.0145186
814.704	0.0144001
814.782	0.0145695
814.860	0.0143705
814.938	0.0144186
815.016	0.0142475
815.094	0.0141447
815.173	0.0141583
815.251	0.0141208
815.329	0.0140569
815.407	0.0141548
815.485	0.0139363
815.563	0.0138874
815.641	0.0140059
815.719	0.0139042
815.798	0.0140133
815.876	0.0141845
815.954	0.0140852
816.032	0.0141876
816.110	0.0144010
816.188	0.0143535
816.266	0.0143716
816.344	0.0144413
816.423	0.0145433
816.501	0.0144944
816.579	0.0145174
816.657	0.0146651
816.735	0.0144817
816.813	0.0147534
816.891	0.0147819
816.969	0.0146680
817.048	0.0147588
817.126	0.0147502
817.204	0.0148035
817.282	0.0147847
817.360	0.0148952
817.438	0.0148974
817.516	0.0149087
817.594	0.0148724
817.673	0.0148068
817.751	0.0149943
817.829	0.0149182
817.907	0.0150220
817.985	0.0150652
818.063	0.0149992
818.141	0.0149789
818.219	0.0150540
818.298	0.0150808
818.376	0.0150428
818.454	0.0148941
818.532	0.0147452
818.610	0.0146861
818.688	0.0147977
818.766	0.0147011
818.844	0.0147605
818.923	0.0146329
819.001	0.0145354
819.079	0.0145270
819.157	0.0145637
819.235	0.0145477
819.313	0.0144345
819.391	0.0143148
819.469	0.0143993
819.548	0.0143005
819.626	0.0143256
819.704	0.0143932
819.782	0.0143432
819.860	0.0141722
819.938	0.0141861
820.016	0.0142641
820.094	0.0141785
820.173	0.0141371
820.251	0.0142264
820.329	0.0141702
820.407	0.0141190
820.485	0.0141602
820.563	0.0141180
820.641	0.0141566
820.719	0.0142056
820.798	0.0141666
820.876	0.0142161
820.954	0.0142664
821.032	0.0142332
821.110	0.0142770
821.188	0.0142905
821.266	0.0143413
821.344	0.0145350
821.423	0.0144410
821.501	0.0144807
821.579	0.0145117
821.657	0.0147970
821.735	0.0146799
821.813	0.0146650
821.891	0.0147822
821.969	0.0148474
822.048	0.0147543
822.126	0.0147648
822.204	0.0149084
822.282	0.0148634
822.360	0.0149439
822.438	0.0149221
822.516	0.0148278
822.594	0.0148709
822.673	0.0148517
822.751	0.0151167
822.829	0.0150122
822.907	0.0148831
822.985	0.0148471
823.063	0.0150598
823.141	0.0148891
823.219	0.0149534
823.298	0.0148321
823.376	0.0148820
823.454	0.0149290
823.532	0.0148129
823.610	0.0148225
823.688	0.0147696
823.766	0.0147839
823.844	0.0146823
823.923	0.0146202
824.001	0.0144920
824.079	0.0145708
824.157	0.0143594
824.235	0.0143729
824.313	0.0143146
824.391	0.0143192
824.469	0.0142194
824.548	0.0142190
824.626	0.0142676
824.704	0.0143015
824.782	0.0142071
824.860	0.0141953
824.938	0.0141901
825.016	0.0140929
825.094	0.0140818
825.173	0.0142435
825.251	0.0140578
825.329	0.0140725
825.407	0.0142532
825.485	0.0142042
825.563	0.0141219
825.641	0.0142682
825.719	0.0143413
825.798	0.0143504
825.876	0.0142223
825.954	0.0143104
826.032	0.0143473
826.110	0.0142442
826.188	0.0143859
826.266	0.0143740
826.344	0.0143050
826.423	0.0144736
826.501	0.0145244
826.579	0.0145453
826.657	0.0145681
826.735	0.0145245
826.813	0.0144965
826.891	0.0147906
826.969	0.0147435
827.048	0.0148296
827.126	0.0149005
827.204	0.0147903
827.282	0.0148466
827.360	0.0149216
827.438	0.0149684
827.516	0.0150121
827.594	0.0150203
827.673	0.0150662
827.751	0.0153184
827.829	0.0151181
827.907	0.0152215
827.985	0.0151363
828.063	0.0151691
828.141	0.0151668
828.219	0.0150111
828.298	0.0151101
828.376	0.0151625
828.454	0.0151814
828.532	0.0150620
828.610	0.0148992
828.688	0.0147666
828.766	0.0148192
828.844	0.0148508
828.923	0.0148274
829.001	0.0146214
829.079	0.0144856
829.157	0.0145180
829.235	0.0145824
829.313	0.0141887
829.391	0.0142713
829.469	0.0141898
829.548	0.0139758
829.626	0.0141149
829.704	0.0140103
829.782	0.0139893
829.860	0.0137977
829.938	0.0138702
830.016	0.0138464
830.094	0.0138081
830.173	0.0138570
830.251	0.0138792
830.329	0.0139574
830.407	0.0138696
830.485	0.0138975
830.563	0.0139195
830.641	0.0140389
830.719	0.0140358
830.798	0.0142689
830.876	0.0142682
830.954	0.0143079
831.032	0.0142799
831.110	0.0143878
831.188	0.0144404
831.266	0.0144929
831.344	0.0146274
831.423	0.0147223
831.501	0.0147108
831.579	0.0148693
831.657	0.0148994
831.735	0.0148541
831.813	0.0148373
831.891	0.0148795
831.969	0.0148921
832.048	0.0150160
832.126	0.0149038
832.204	0.0149395
832.282	0.0152185
832.360	0.0150395
832.438	0.0149391
832.516	0.0150735
832.594	0.0152646
832.673	0.0151960
832.751	0.0152526
832.829	0.0150879
832.907	0.0150105
832.985	0.0151781
833.063	0.0151806
833.141	0.0151429
833.219	0.0151045
833.298	0.0149027
833.376	0.0151144
833.454	0.0149162
833.532	0.0148560
833.610	0.0148508
833.688	0.0147729
833.766	0.0146190
833.844	0.0145966
833.923	0.0144811
834.001	0.0144079
834.079	0.0143277
834.157	0.0141853
834.235	0.0141275
834.313	0.0142229
834.391	0.0140245
834.469	0.0140141
834.548	0.0140215
834.626	0.0139185
834.704	0.0140414
834.782	0.0139163
834.860	0.0139157
834.938	0.0139394
835.016	0.0139166
835.094	0.0138931
835.173	0.0141371
835.251	0.0139851
835.329	0.0139649
835.407	0.0141444
835.485	0.0143619
835.563	0.0141191
835.641	0.0142915
835.719	0.0143094
835.798	0.0143352
835.876	0.0144810
835.954	0.0144564
836.032	0.0144840
836.110	0.0145278
836.188	0.0145132
836.266	0.0147145
836.344	0.0147294
836.423	0.0146452
836.501	0.0148607
836.579	0.0149265
836.657	0.0148500
836.735	0.0149463
836.813	0.0151053
836.891	0.0149332
836.969	0.0151050
837.048	0.0149100
837.126	0.0149255
837.204	0.0149490
837.282	0.0149701
837.360	0.0150803
837.438	0.0149898
837.516	0.0149326
837.594	0.0148398
837.673	0.0149174
837.751	0.0149518
837.829	0.0148436
837.907	0.0148952
837.985	0.0148029
838.063	0.0148274
838.141	0.0148248
838.219	0.0147453
838.298	0.0146590
838.376	0.0145879
838.454	0.0147765
838.532	0.0146420
838.610	0.0146564
838.688	0.0144395
838.766	0.0146434
838.844	0.0145797
838.923	0.0143864
839.001	0.0145417
839.079	0.0144076
839.157	0.0146303
839.235	0.0145210
839.313	0.0144586
839.391	0.0143215
839.469	0.0144604
839.548	0.0144460
839.626	0.0144816
839.704	0.0143069
839.782	0.0142728
839.860	0.0144889
839.938	0.0143589
840.016	0.0145013
840.094	0.0143578
840.173	0.0145094
840.251	0.0145857
840.329	0.0145463
840.407	0.0146283
840.485	0.0146558
840.563	0.0147501
840.641	0.0147072
840.719	0.0146832
840.798	0.0147278
840.876	0.0145979
840.954	0.0148690
841.032	0.0147583
841.110	0.0147192
841.188	0.0148457
841.266	0.0147167
841.344	0.0147652
841.423	0.0147534
841.501	0.0147088
841.579	0.0146156
841.657	0.0146304
841.735	0.0144926
841.813	0.0146190
841.891	0.0146021
841.969	0.0145715
842.048	0.0145389
842.126	0.0145589
842.204	0.0144550
842.282	0.0143626
842.360	0.0145143
842.438	0.0145850
842.516	0.0144505
842.594	0.0145741
842.673	0.0145141
842.751	0.0144769
842.829	0.0144287
842.907	0.0145126
842.985	0.0145074
843.063	0.0143757
843.141	0.0145483
843.219	0.0145181
843.298	0.0144821
843.376	0.0144665
843.454	0.0144498
843.532	0.0145388
843.610	0.0144854
843.688	0.0143951
843.766	0.0146071
843.844	0.0146471
843.923	0.0144759
844.001	0.0146030
844.079	0.0146405
844.157	0.0144321
844.235	0.0146744
844.313	0.0145518
844.391	0.0147701
844.469	0.0147428
844.548	0.0146421
844.626	0.0146828
844.704	0.0147118
844.782	0.0147029
844.860	0.0147254
844.938	0.0146783
845.016	0.0148289
845.094	0.0146936
845.173	0.0148378
845.251	0.0147576
845.329	0.0147162
845.407	0.0147748
845.485	0.0147848
845.563	0.0147984
845.641	0.0147995
845.719	0.0147988
845.798	0.0147614
845.876	0.0149109
845.954	0.0147610
846.032	0.0147427
846.110	0.0147978
846.188	0.0146609
846.266	0.0148544
846.344	0.0147984
846.423	0.0147005
846.501	0.0147583
846.579	0.0147366
846.657	0.0147202
846.735	0.0146893
846.813	0.0145785
846.891	0.0143762
846.969	0.0144370
847.048	0.0144013
847.126	0.0144071
847.204	0.0144956
847.282	0.0144159
847.360	0.0143710
847.438	0.0143291
847.516	0.0142786
847.594	0.0142708
847.673	0.0142999
847.751	0.0143806
847.829	0.0143132
847.907	0.0142704
847.985	0.0142233
848.063	0.0141734
848.141	0.0142710
848.219	0.0142605
848.298	0.0142966
848.376	0.0142467
848.454	0.0143951
848.532	0.0144446
848.610	0.0144739
848.688	0.0144127
848.766	0.0144694
848.844	0.0145843
848.923	0.0145067
849.001	0.0145072
849.079	0.0145802
849.157	0.0146526
849.235	0.0145191
849.313	0.0145920
849.391	0.0147282
849.469	0.0146363
849.548	0.0147803
849.626	0.0147253
849.704	0.0145722
849.782	0.0147342
849.860	0.0148888
849.938	0.0146284
850.016	0.0145845
850.094	0.0147457
850.173	0.0148068
850.251	0.0147201
850.329	0.0147039
850.407	0.0147603
850.485	0.0145164
850.563	0.0146080
850.641	0.0147723
850.719	0.0145897
850.798	0.0144975
850.876	0.0145022
850.954	0.0145314
851.032	0.0144121
851.110	0.0145572
851.188	0.0146121
851.266	0.0145514
851.344	0.0143645
851.423	0.0145088
851.501	0.0144198
851.579	0.0144574
851.657	0.0144647
851.735	0.0145184
851.813	0.0148220
851.891	0.0144642
851.969	0.0145121
852.048	0.0147464
852.126	0.0147035
852.204	0.0146225
852.282	0.0147143
852.360	0.0148350
852.438	0.0146342
852.516	0.0147715
852.594	0.0148190
852.673	0.0147808
852.751	0.0148367
852.829	0.0147936
852.907	0.0147601
852.985	0.0146153
853.063	0.0146869
853.141	0.0147629
853.219	0.0148742
853.298	0.0145949
853.376	0.0146030
853.454	0.0145411
853.532	0.0145764
853.610	0.0146107
853.688	0.0145345
853.766	0.0145300
853.844	0.0144421
853.923	0.0144247
854.001	0.0143387
854.079	0.0143909
854.157	0.0144098
854.235	0.0143103
854.313	0.0143868
854.391	0.0142493
854.469	0.0142420
854.548	0.0143372
854.626	0.0143236
854.704	0.0144459
854.782	0.0142671
854.860	0.0143817
854.938	0.0143507
855.016	0.0142484
855.094	0.0143785
855.173	0.0143097
855.251	0.0143609
855.329	0.0144279
855.407	0.0144588
855.485	0.0143805
855.563	0.0144656
855.641	0.0144289
855.719	0.0145667
855.798	0.0145346
855.876	0.0146957
855.954	0.0146129
856.032	0.0145921
856.110	0.0146688
856.188	0.0146439
856.266	0.0146744
856.344	0.0147460
856.423	0.0147539
856.501	0.0147856
856.579	0.0148416
856.657	0.0149762
856.735	0.0148310
856.813	0.0148219
856.891	0.0147666
856.969	0.0148571
857.048	0.0148801
857.126	0.0149799
857.204	0.0149580
857.282	0.0150422
857.360	0.0149784
857.438	0.0150199
857.516	0.0149927
857.594	0.0149210
857.673	0.0149783
857.751	0.0150626
857.829	0.0149753
857.907	0.0149067
857.985	0.0149340
858.063	0.0149474
858.141	0.0150155
858.219	0.0149365
858.298	0.0147982
858.376	0.0149009
858.454	0.0148951
858.532	0.0148141
858.610	0.0147647
858.688	0.0147564
858.766	0.0147346
858.844	0.0147877
858.923	0.0147572
859.001	0.0146779
859.079	0.0146062
859.157	0.0146111
859.235	0.0144627
859.313	0.0144346
859.391	0.0146043
859.469	0.0145402
859.548	0.0144541
859.626	0.0142920
859.704	0.0142941
859.782	0.0142604
859.860	0.0142194
859.938	0.0141235
860.016	0.0139643
860.094	0.0141262
860.173	0.0141656
860.251	0.0141153
860.329	0.0140574
860.407	0.0140571
860.485	0.0140343
860.563	0.0139552
860.641	0.0140430
860.719	0.0139824
860.798	0.0140964
860.876	0.0142086
860.954	0.0141940
861.032	0.0143505
861.110	0.0143111
861.188	0.0144481
861.266	0.0144346
861.344	0.0144275
861.423	0.0146298
861.501	0.0145872
861.579	0.0147358
861.657	0.0146542
861.735	0.0146976
861.813	0.0148442
861.891	0.0148894
861.969	0.0150114
862.048	0.0149113
862.126	0.0149241
862.204	0.0148418
862.282	0.0149323
862.360	0.0149995
862.438	0.0150819
862.516	0.0149501
862.594	0.0148202
862.673	0.0149407
862.751	0.0149863
862.829	0.0149545
862.907	0.0150039
862.985	0.0148361
863.063	0.0149380
863.141	0.0150061
863.219	0.0149108
863.298	0.0149778
863.376	0.0148633
863.454	0.0148362
863.532	0.0149939
863.610	0.0150527
863.688	0.0148602
863.766	0.0148237
863.844	0.0149287
863.923	0.0147935
864.001	0.0148355
864.079	0.0148168
864.157	0.0146822
864.235	0.0146194
864.313	0.0147817
864.391	0.0147059
864.469	0.0146883
864.548	0.0145107
864.626	0.0145038
864.704	0.0145387
864.782	0.0145118
864.860	0.0143319
864.938	0.0144185
865.016	0.0144183
865.094	0.0145158
865.173	0.0144574
865.251	0.0143361
865.329	0.0143840
865.407	0.0143874
865.485	0.0143056
865.563	0.0143867
865.641	0.0143324
865.719	0.0143764
865.798	0.0145396
865.876	0.0143529
865.954	0.0143804
866.032	0.0143244
866.110	0.0146064
866.188	0.0142979
866.266	0.0144595
866.344	0.0145486
866.423	0.0144444
866.501	0.0144201
866.579	0.0144329
866.657	0.0144472
866.735	0.0145424
866.813	0.0146889
866.891	0.0146054
866.969	0.0145473
867.048	0.0145967
867.126	0.0144331
867.204	0.0145095
867.282	0.0143893
867.360	0.0144823
867.438	0.0143322
867.516	0.0144991
867.594	0.0145085
867.673	0.0145982
867.751	0.0145522
867.829	0.0144478
867.907	0.0144920
867.985	0.0145302
868.063	0.0145438
868.141	0.0145615
868.219	0.0145683
868.298	0.0146571
868.376	0.0146629
868.454	0.0147006
868.532	0.0148302
868.610	0.0147316
868.688	0.0147901
868.766	0.0148793
868.844	0.0148475
868.923	0.0146972
869.001	0.0147690
869.079	0.0148699
869.157	0.0147563
869.235	0.0147523
869.313	0.0148273
869.391	0.0147319
869.469	0.0147562
869.548	0.0147572
869.626	0.0148255
869.704	0.0148007
869.782	0.0147273
869.860	0.0148415
869.938	0.0147463
870.016	0.0146934
870.094	0.0146601
870.173	0.0146521
870.251	0.0146326
870.329	0.0145179
870.407	0.0145695
870.485	0.0146877
870.563	0.0144413
870.641	0.0145451
870.719	0.0147374
870.798	0.0146645
870.876	0.0146273
870.954	0.0146441
871.032	0.0146050
871.110	0.0146385
871.188	0.0146452
871.266	0.0147221
871.344	0.0145472
871.423	0.0146519
871.501	0.0146583
871.579	0.0147194
871.657	0.0146760
871.735	0.0145300
871.813	0.0145948
871.891	0.0146375
871.969	0.0145182
872.048	0.0145340
872.126	0.0144534
872.204	0.0145004
872.282	0.0146335
872.360	0.0144712
872.438	0.0146062
872.516	0.0144667
872.594	0.0145179
872.673	0.0144591
872.751	0.0144347
872.829	0.0144587
872.907	0.0143816
872.985	0.0143528
873.063	0.0143659
873.141	0.0143383
873.219	0.0143590
873.298	0.0143685
873.376	0.0143694
873.454	0.0143459
873.532	0.0143550
873.610	0.0142961
873.688	0.0143885
873.766	0.0142884
873.844	0.0144147
873.923	0.0143572
874.001	0.0142036
874.079	0.0143179
874.157	0.0144173
874.235	0.0145151
874.313	0.0145960
874.391	0.0144173
874.469	0.0145684
874.548	0.0146397
874.626	0.0145736
874.704	0.0145651
874.782	0.0146833
874.860	0.0147546
874.938	0.0146245
875.016	0.0146532
875.094	0.0147610
875.173	0.0147268
875.251	0.0146896
875.329	0.0147466
875.407	0.0147302
875.485	0.0147913
875.563	0.0148829
875.641	0.0148684
875.719	0.0149378
875.798	0.0149346
875.876	0.0148573
875.954	0.0149449
876.032	0.0148609
876.110	0.0148786
876.188	0.0148984
876.266	0.0149587
876.344	0.0149441
876.423	0.0147988
876.501	0.0148218
876.579	0.0147516
876.657	0.0147848
876.735	0.0147747
876.813	0.0147875
876.891	0.0147366
876.969	0.0146001
877.048	0.0146915
877.126	0.0146614
877.204	0.0145963
877.282	0.0147256
877.360	0.0146693
877.438	0.0146776
877.516	0.0145577
877.594	0.0145914
877.673	0.0144646
877.751	0.0144685
877.829	0.0143860
877.907	0.0144157
877.985	0.0143817
878.063	0.0144512
878.141	0.0144199
878.219	0.0143521
878.298	0.0143917
878.376	0.0144770
878.454	0.0143182
878.532	0.0143140
878.610	0.0144413
878.688	0.0143069
878.766	0.0143839
878.844	0.0144328
878.923	0.0143278
879.001	0.0142517
879.079	0.0143399
879.157	0.0144047
879.235	0.0144610
879.313	0.0142896
879.391	0.0143661
879.469	0.0143419
879.548	0.0143887
879.626	0.0143512
879.704	0.0142664
879.782	0.0143585
879.860	0.0142758
879.938	0.0142967
880.016	0.0143615
880.094	0.0144226
880.173	0.0143140
880.251	0.0143610
880.329	0.0144630
880.407	0.0144543
880.485	0.0144325
880.563	0.0144835
880.641	0.0144796
880.719	0.0144762
880.798	0.0146847
880.876	0.0147382
880.954	0.0146401
881.032	0.0146552
881.110	0.0146239
881.188	0.0147673
881.266	0.0147562
881.344	0.0148922
881.423	0.0147140
881.501	0.0147224
881.579	0.0148255
881.657	0.0147726
881.735	0.0147643
881.813	0.0148664
881.891	0.0148466
881.969	0.0146874
882.048	0.0146262
882.126	0.0145611
882.204	0.0145996
882.282	0.0146078
882.360	0.0146362
882.438	0.0148058
882.516	0.0147046
882.594	0.0146949
882.673	0.0148772
882.751	0.0149120
882.829	0.0149356
882.907	0.0148994
882.985	0.0150973
883.063	0.0150144
883.141	0.0149389
883.219	0.0149600
883.298	0.0149364
883.376	0.0147398
883.454	0.0146021
883.532	0.0143884
883.610	0.0142078
883.688	0.0143085
883.766	0.0141369
883.844	0.0139816
883.923	0.0139702
884.001	0.0138192
884.079	0.0139340
884.157	0.0140209
884.235	0.0141183
884.313	0.0140559
884.391	0.0141425
884.469	0.0143282
884.548	0.0142440
884.626	0.0142812
884.704	0.0144643
884.782	0.0144622
884.860	0.0145879
884.938	0.0146868
885.016	0.0146908
885.094	0.0146473
885.173	0.0146495
885.251	0.0147138
885.329	0.0147256
885.407	0.0147443
885.485	0.0146842
885.563	0.0145441
885.641	0.0146461
885.719	0.0144963
885.798	0.0144256
885.876	0.0144149
885.954	0.0144551
886.032	0.0145210
886.110	0.0144369
886.188	0.0145003
886.266	0.0145210
886.344	0.0145807
886.423	0.0145818
886.501	0.0144441
886.579	0.0145811
886.657	0.0145522
886.735	0.0148182
886.813	0.0146877
886.891	0.0146480
886.969	0.0146468
887.048	0.0148142
887.126	0.0147533
887.204	0.0147105
887.282	0.0146296
887.360	0.0145923
887.438	0.0146628
887.516	0.0147099
887.594	0.0147678
887.673	0.0146823
887.751	0.0145724
887.829	0.0147546
887.907	0.0147319
887.985	0.0144849
888.063	0.0144998
888.141	0.0143715
888.219	0.0143974
888.298	0.0143864
888.376	0.0143671
888.454	0.0143111
888.532	0.0142143
888.610	0.0142049
888.688	0.0142058
888.766	0.0143859
888.844	0.0142255
888.923	0.0142451
889.001	0.0143142
889.079	0.0144204
889.157	0.0143178
889.235	0.0142678
889.313	0.0143098
889.391	0.0145480
889.469	0.0145236
889.548	0.0145003
889.626	0.0145422
889.704	0.0144777
889.782	0.0145579
889.860	0.0147661
889.938	0.0147403
890.016	0.0148246
890.094	0.0148394
890.173	0.0149541
890.251	0.0149304
890.329	0.0149401
890.407	0.0147993
890.485	0.0147620
890.563	0.0149162
890.641	0.0149875
890.719	0.0148678
890.798	0.0147675
890.876	0.0147913
890.954	0.0148838
891.032	0.0147369
891.110	0.0145390
891.188	0.0143972
891.266	0.0144061
891.344	0.0143865
891.423	0.0145875
891.501	0.0145116
891.579	0.0142846
891.657	0.0142777
891.735	0.0143488
891.813	0.0143970
891.891	0.0143661
891.969	0.0143784
892.048	0.0142837
892.126	0.0142854
892.204	0.0144537
892.282	0.0144862
892.360	0.0144163
892.438	0.0145564
892.516	0.0145958
892.594	0.0146228
892.673	0.0145787
892.751	0.0145362
892.829	0.0147377
892.907	0.0147601
892.985	0.0148014
893.063	0.0147234
893.141	0.0147916
893.219	0.0148380
893.298	0.0147899
893.376	0.0146898
893.454	0.0149152
893.532	0.0147536
893.610	0.0148114
893.688	0.0147547
893.766	0.0147426
893.844	0.0146012
893.923	0.0147266
894.001	0.0146965
894.079	0.0145990
894.157	0.0146503
894.235	0.0145782
894.313	0.0145637
894.391	0.0145000
894.469	0.0145213
894.548	0.0145415
894.626	0.0143532
894.704	0.0145048
894.782	0.0143312
894.860	0.0143060
894.938	0.0143764
895.016	0.0143589
895.094	0.0143109
895.173	0.0144248
895.251	0.0143744
895.329	0.0142347
895.407	0.0143388
895.485	0.0143781
895.563	0.0143919
895.641	0.0144537
895.719	0.0144096
895.798	0.0145045
895.876	0.0145914
895.954	0.0145980
896.032	0.0146016
896.110	0.0146317
896.188	0.0145634
896.266	0.0145576
896.344	0.0147853
896.423	0.0148146
896.501	0.0147795
896.579	0.0148090
896.657	0.0147691
896.735	0.0147476
896.813	0.0148244
896.891	0.0147022
896.969	0.0147869
897.048	0.0148106
897.126	0.0147475
897.204	0.0147192
897.282	0.0146943
897.360	0.0147459
897.438	0.0148494
897.516	0.0148543
897.594	0.0147752
897.673	0.0147785
897.751	0.0146725
897.829	0.0147246
897.907	0.0148070
897.985	0.0147814
898.063	0.0147820
898.141	0.0148487
898.219	0.0147615
898.298	0.0148183
898.376	0.0147060
898.454	0.0146661
898.532	0.0146156
898.610	0.0147003
898.688	0.0146155
898.766	0.0144775
898.844	0.0143873
898.923	0.0142976
899.001	0.0143221
899.079	0.0142875
899.157	0.0143081
899.235	0.0141206
899.313	0.0140297
899.391	0.0142735
899.469	0.0142376
899.548	0.0141620
899.626	0.0143230
899.704	0.0143401
899.782	0.0144888
899.860	0.0143659
899.938	0.0144017
900.016	0.0144630
900.094	0.0146240
900.173	0.0144576
900.251	0.0142320
900.329	0.0143768
900.407	0.0143953
900.485	0.0143743
900.563	0.0143038
900.641	0.0143203
900.719	0.0143540
900.798	0.0143804
900.876	0.0143903
900.954	0.0143834
901.032	0.0143732
901.110	0.0146664
901.188	0.0145755
901.266	0.0146282
901.344	0.0146743
901.423	0.0146001
901.501	0.0147170
901.579	0.0148090
901.657	0.0146326
901.735	0.0146935
901.813	0.0147379
901.891	0.0145551
901.969	0.0145293
902.048	0.0144938
902.126	0.0146049
902.204	0.0145380
902.282	0.0145627
902.360	0.0146683
902.438	0.0144801
902.516	0.0144967
902.594	0.0145782
902.673	0.0145181
902.751	0.0147391
902.829	0.0147669
902.907	0.0146053
902.985	0.0146510
903.063	0.0147028
903.141	0.0148711
903.219	0.0146725
903.298	0.0146389
903.376	0.0149751
903.454	0.0148017
903.532	0.0148350
903.610	0.0146809
903.688	0.0147336
903.766	0.0145667
903.844	0.0146125
903.923	0.0145434
904.001	0.0145354
904.079	0.0143798
904.157	0.0143559
904.235	0.0143112
904.313	0.0142311
904.391	0.0141978
904.469	0.0142222
904.548	0.0141450
904.626	0.0141600
904.704	0.0142639
904.782	0.0142462
904.860	0.0143481
904.938	0.0141560
905.016	0.0142654
905.094	0.0142535
905.173	0.0141637
905.251	0.0141048
905.329	0.0144209
905.407	0.0144562
905.485	0.0143484
905.563	0.0143440
905.641	0.0143774
905.719	0.0144206
905.798	0.0145125
905.876	0.0145280
905.954	0.0144136
906.032	0.0144363
906.110	0.0144284
906.188	0.0145811
906.266	0.0144352
906.344	0.0143967
906.423	0.0145051
906.501	0.0145866
906.579	0.0144943
906.657	0.0145309
906.735	0.0147939
906.813	0.0146594
906.891	0.0146452
906.969	0.0147147
907.048	0.0148380
907.126	0.0146828
907.204	0.0146665
907.282	0.0147974
907.360	0.0147942
907.438	0.0148297
907.516	0.0148212
907.594	0.0148134
907.673	0.0147236
907.751	0.0147266
907.829	0.0146880
907.907	0.0146609
907.985	0.0145367
908.063	0.0145634
908.141	0.0145276
908.219	0.0144938
908.298	0.0144415
908.376	0.0143018
908.454	0.0143194
908.532	0.0143388
908.610	0.0142817
908.688	0.0143675
908.766	0.0145274
908.844	0.0144299
908.923	0.0144529
909.001	0.0144975
909.079	0.0145988
909.157	0.0145985
909.235	0.0146529
909.313	0.0147427
909.391	0.0146841
909.469	0.0148075
909.548	0.0148738
909.626	0.0148901
909.704	0.0147843
909.782	0.0148656
909.860	0.0147485
909.938	0.0147920
910.016	0.0147491
910.094	0.0145632
910.173	0.0147283
910.251	0.0146355
910.329	0.0144080
910.407	0.0144231
910.485	0.0145058
910.563	0.0143986
910.641	0.0144986
910.719	0.0144210
910.798	0.0143406
910.876	0.0143372
910.954	0.0143919
911.032	0.0143750
911.110	0.0142849
911.188	0.0144846
911.266	0.0144296
911.344	0.0143539
911.423	0.0144501
911.501	0.0145568
911.579	0.0146149
911.657	0.0145570
911.735	0.0146469
911.813	0.0146550
911.891	0.0146512
911.969	0.0147323
912.048	0.0148387
912.126	0.0148032
912.204	0.0148959
912.282	0.0146991
912.360	0.0146812
912.438	0.0146205
912.516	0.0147805
912.594	0.0147976
912.673	0.0146513
912.751	0.0145858
912.829	0.0144624
912.907	0.0144657
912.985	0.0143780
913.063	0.0144267
913.141	0.0143132
913.219	0.0142505
913.298	0.0142056
913.376	0.0144845
913.454	0.0142891
913.532	0.0144185
913.610	0.0145174
913.688	0.0145014
913.766	0.0144846
913.844	0.0145393
913.923	0.0145732
914.001	0.0145676
914.079	0.0147404
914.157	0.0147201
914.235	0.0146928
914.313	0.0148091
914.391	0.0147886
914.469	0.0148072
914.548	0.0149942
914.626	0.0148013
914.704	0.0147809
914.782	0.0148911
914.860	0.0147116
914.938	0.0147186
915.016	0.0148238
915.094	0.0148283
915.173	0.0147124
915.251	0.0148268
915.329	0.0146671
915.407	0.0145728
915.485	0.0146066
915.563	0.0145238
915.641	0.0144215
915.719	0.0144900
915.798	0.0145291
915.876	0.0144308
915.954	0.0143332
916.032	0.0143378
916.110	0.0143560
916.188	0.0143287
916.266	0.0143482
916.344	0.0144334
916.423	0.0143892
916.501	0.0144612
916.579	0.0144450
916.657	0.0144824
916.735	0.0145174
916.813	0.0144643
916.891	0.0145264
916.969	0.0145911
917.048	0.0145639
917.126	0.0144968
917.204	0.0146585
917.282	0.0146337
917.360	0.0146602
917.438	0.0145135
917.516	0.0147141
917.594	0.0148260
917.673	0.0146748
917.751	0.0146146
917.829	0.0146264
917.907	0.0146818
917.985	0.0146844
918.063	0.0147365
918.141	0.0146970
918.219	0.0145763
918.298	0.0147266
918.376	0.0144784
918.454	0.0145677
918.532	0.0145451
918.610	0.0143433
918.688	0.0145834
918.766	0.0146460
918.844	0.0145028
918.923	0.0144530
919.001	0.0144037
919.079	0.0144949
919.157	0.0143929
919.235	0.0144189
919.313	0.0146697
919.391	0.0146172
919.469	0.0145358
919.548	0.0146387
919.626	0.0146553
919.704	0.0146711
919.782	0.0147102
919.860	0.0146024
919.938	0.0147057
920.016	0.0146945
920.094	0.0147762
920.173	0.0148616
920.251	0.0148396
920.329	0.0147434
920.407	0.0147568
920.485	0.0148676
920.563	0.0147116
920.641	0.0147699
920.719	0.0148345
920.798	0.0146955
920.876	0.0145007
920.954	0.0143589
921.032	0.0143811
921.110	0.0143706
921.188	0.0144726
921.266	0.0143936
921.344	0.0143150
921.423	0.0142962
921.501	0.0142932
921.579	0.0144675
921.657	0.0143487
921.735	0.0144006
921.813	0.0144036
921.891	0.0143382
921.969	0.0142888
922.048	0.0144191
922.126	0.0145126
922.204	0.0145112
922.282	0.0144505
922.360	0.0146253
922.438	0.0145359
922.516	0.0146379
922.594	0.0146227
922.673	0.0146458
922.751	0.0146138
922.829	0.0148131
922.907	0.0146656
922.985	0.0147340
923.063	0.0147821
923.141	0.0147552
923.219	0.0147527
923.298	0.0147038
923.376	0.0147237
923.454	0.0147564
923.532	0.0147489
923.610	0.0148591
923.688	0.0145451
923.766	0.0148074
923.844	0.0146761
923.923	0.0146331
924.001	0.0145624
924.079	0.0146166
924.157	0.0146114
924.235	0.0147045
924.313	0.0146375
924.391	0.0147316
924.469	0.0145364
924.548	0.0145658
924.626	0.0146049
924.704	0.0145474
924.782	0.0145142
924.860	0.0144077
924.938	0.0145821
925.016	0.0144947
925.094	0.0144286
925.173	0.0145561
925.251	0.0145028
925.329	0.0142870
925.407	0.0143883
925.485	0.0144116
925.563	0.0144554
925.641	0.0144271
925.719	0.0143625
925.798	0.0144143
925.876	0.0144118
925.954	0.0143585
926.032	0.0143577
926.110	0.0144090
926.188	0.0144680
926.266	0.0143987
926.344	0.0143584
926.423	0.0143250
926.501	0.0142896
926.579	0.0143919
926.657	0.0145251
926.735	0.0145415
926.813	0.0146448
926.891	0.0146158
926.969	0.0146249
927.048	0.0145912
927.126	0.0146576
927.204	0.0145975
927.282	0.0146683
927.360	0.0148621
927.438	0.0147688
927.516	0.0148095
927.594	0.0147276
927.673	0.0148393
927.751	0.0147552
927.829	0.0146587
927.907	0.0147495
927.985	0.0148545
928.063	0.0147352
928.141	0.0147213
928.219	0.0146323
928.298	0.0147138
928.376	0.0146727
928.454	0.0146173
928.532	0.0146935
928.610	0.0145104
928.688	0.0144674
928.766	0.0144650
928.844	0.0144846
928.923	0.0145753
929.001	0.0146253
929.079	0.0145765
929.157	0.0145220
929.235	0.0145390
929.313	0.0144717
929.391	0.0145295
929.469	0.0144449
929.548	0.0144788
929.626	0.0144231
929.704	0.0144564
929.782	0.0143572
929.860	0.0144958
929.938	0.0145081
930.016	0.0144903
930.094	0.0144682
930.173	0.0144350
930.251	0.0144907
930.329	0.0144691
930.407	0.0144450
930.485	0.0145148
930.563	0.0144529
930.641	0.0146041
930.719	0.0145569
930.798	0.0144958
930.876	0.0144555
930.954	0.0145896
931.032	0.0146922
931.110	0.0146323
931.188	0.0145306
931.266	0.0146391
931.344	0.0146091
931.423	0.0146436
931.501	0.0145647
931.579	0.0146646
931.657	0.0146938
931.735	0.0146024
931.813	0.0146290
931.891	0.0145840
931.969	0.0147465
932.048	0.0145553
932.126	0.0146445
932.204	0.0147044
932.282	0.0145518
932.360	0.0146907
932.438	0.0146497
932.516	0.0144476
932.594	0.0146687
932.673	0.0145710
932.751	0.0146443
932.829	0.0146288
932.907	0.0145040
932.985	0.0145460
933.063	0.0144934
933.141	0.0144702
933.219	0.0143958
933.298	0.0145422
933.376	0.0143978
933.454	0.0144873
933.532	0.0142766
933.610	0.0142847
933.688	0.0144179
933.766	0.0144888
933.844	0.0145826
933.923	0.0144393
934.001	0.0145729
934.079	0.0144827
934.157	0.0145148
934.235	0.0145884
934.313	0.0148421
934.391	0.0145984
934.469	0.0148170
934.548	0.0148640
934.626	0.0147919
934.704	0.0147256
934.782	0.0147325
934.860	0.0147852
934.938	0.0148937
935.016	0.0147462
935.094	0.0146851
935.173	0.0146235
935.251	0.0145380
935.329	0.0145237
935.407	0.0145468
935.485	0.0145634
935.563	0.0146323
935.641	0.0144892
935.719	0.0145773
935.798	0.0144707
935.876	0.0145744
935.954	0.0144936
936.032	0.0144437
936.110	0.0145425
936.188	0.0145146
936.266	0.0145592
936.344	0.0145071
936.423	0.0144265
936.501	0.0144853
936.579	0.0145480
936.657	0.0144121
936.735	0.0146106
936.813	0.0145570
936.891	0.0145286
936.969	0.0146018
937.048	0.0146114
937.126	0.0145485
937.204	0.0146632
937.282	0.0145549
937.360	0.0148515
937.438	0.0148676
937.516	0.0147746
937.594	0.0147791
937.673	0.0148839
937.751	0.0149095
937.829	0.0148474
937.907	0.0148219
937.985	0.0146246
938.063	0.0146516
938.141	0.0148093
938.219	0.0148909
938.298	0.0146152
938.376	0.0146019
938.454	0.0146176
938.532	0.0146083
938.610	0.0145913
938.688	0.0146411
938.766	0.0146747
938.844	0.0145176
938.923	0.0145157
939.001	0.0145125
939.079	0.0144209
939.157	0.0145461
939.235	0.0145834
939.313	0.0145455
939.391	0.0146401
939.469	0.0144660
939.548	0.0144717
939.626	0.0145956
939.704	0.0144659
939.782	0.0145821
939.860	0.0145262
939.938	0.0144631
940.016	0.0145363
940.094	0.0146056
940.173	0.0144137
940.251	0.0145071
940.329	0.0145375
940.407	0.0145586
940.485	0.0144898
940.563	0.0146492
940.641	0.0145463
940.719	0.0145959
940.798	0.0146130
940.876	0.0147109
940.954	0.0145987
941.032	0.0145940
941.110	0.0146563
941.188	0.0146760
941.266	0.0147495
941.344	0.0146348
941.423	0.0145634
941.501	0.0146088
941.579	0.0145247
941.657	0.0146353
941.735	0.0146372
941.813	0.0146059
941.891	0.0144951
941.969	0.0145063
942.048	0.0145946
942.126	0.0146487
942.204	0.0146934
942.282	0.0146787
942.360	0.0146551
942.438	0.0145506
942.516	0.0145830
942.594	0.0146518
942.673	0.0146935
942.751	0.0147852
942.829	0.0147862
942.907	0.0147458
942.985	0.0147439
943.063	0.0147271
943.141	0.0146207
943.219	0.0147556
943.298	0.0146310
943.376	0.0146890
943.454	0.0146571
943.532	0.0145206
943.610	0.0146488
943.688	0.0146112
943.766	0.0144210
943.844	0.0145793
943.923	0.0145094
944.001	0.0147343
944.079	0.0144994
944.157	0.0144421
944.235	0.0144741
944.313	0.0145191
944.391	0.0145438
944.469	0.0144521
944.548	0.0144932
944.626	0.0144408
944.704	0.0146024
944.782	0.0146711
944.860	0.0146136
944.938	0.0146103
945.016	0.0145151
945.094	0.0146442
945.173	0.0146336
945.251	0.0146189
945.329	0.0148056
945.407	0.0145664
945.485	0.0145936
945.563	0.0145979
945.641	0.0146612
945.719	0.0147432
945.798	0.0147680
945.876	0.0146247
945.954	0.0146744
946.032	0.0146272
946.110	0.0146210
946.188	0.0148445
946.266	0.0147680
946.344	0.0148061
946.423	0.0146909
946.501	0.0146220
946.579	0.0145914
946.657	0.0146703
946.735	0.0147413
946.813	0.0145625
946.891	0.0147485
946.969	0.0146647
947.048	0.0145780
947.126	0.0146907
947.204	0.0146304
947.282	0.0146013
947.360	0.0146909
947.438	0.0145509
947.516	0.0144295
947.594	0.0145625
947.673	0.0145098
947.751	0.0145794
947.829	0.0144868
947.907	0.0144785
947.985	0.0145466
948.063	0.0144955
948.141	0.0144189
948.219	0.0145010
948.298	0.0144048
948.376	0.0144683
948.454	0.0145383
948.532	0.0145596
948.610	0.0145471
948.688	0.0145901
948.766	0.0145345
948.844	0.0144704
948.923	0.0146392
949.001	0.0147060
949.079	0.0146879
949.157	0.0145704
949.235	0.0146699
949.313	0.0146706
949.391	0.0146967
949.469	0.0147641
949.548	0.0146893
949.626	0.0147191
949.704	0.0146951
949.782	0.0146911
949.860	0.0146088
949.938	0.0146412
950.016	0.0146671
950.094	0.0147610
950.173	0.0147773
950.251	0.0145506
950.329	0.0146526
950.407	0.0146381
950.485	0.0148325
950.563	0.0147167
950.641	0.0145795
950.719	0.0146374
950.798	0.0145056
950.876	0.0145691
950.954	0.0146210
951.032	0.0146167
951.110	0.0145965
951.188	0.0145596
951.266	0.0146455
951.344	0.0146141
951.423	0.0145259
951.501	0.0146124
951.579	0.0145178
951.657	0.0145222
951.735	0.0145549
951.813	0.0144383
951.891	0.0144608
951.969	0.0145877
952.048	0.0145670
952.126	0.0142783
952.204	0.0144575
952.282	0.0143972
952.360	0.0143075
952.438	0.0145750
952.516	0.0145667
952.594	0.0143869
952.673	0.0144798
952.751	0.0145723
952.829	0.0145852
952.907	0.0146280
952.985	0.0146384
953.063	0.0146015
953.141	0.0147628
953.219	0.0147485
953.298	0.0146762
953.376	0.0146953
953.454	0.0148751
953.532	0.0145821
953.610	0.0146027
953.688	0.0148444
953.766	0.0145797
953.844	0.0146599
953.923	0.0146429
954.001	0.0147026
954.079	0.0146616
954.157	0.0145859
954.235	0.0146788
954.313	0.0147135
954.391	0.0146135
954.469	0.0145776
954.548	0.0146644
954.626	0.0145450
954.704	0.0146693
954.782	0.0145596
954.860	0.0145927
954.938	0.0145869
955.016	0.0145495
955.094	0.0145879
955.173	0.0146084
955.251	0.0145797
955.329	0.0144926
955.407	0.0146561
955.485	0.0145409
955.563	0.0145319
955.641	0.0147430
955.719	0.0145354
955.798	0.0145382
955.876	0.0146312
955.954	0.0146193
956.032	0.0146315
956.110	0.0146078
956.188	0.0145620
956.266	0.0146729
956.344	0.0145810
956.423	0.0144236
956.501	0.0146026
956.579	0.0146809
956.657	0.0145124
956.735	0.0144167
956.813	0.0145618
956.891	0.0144894
956.969	0.0145380
957.048	0.0145592
957.126	0.0145215
957.204	0.0144869
957.282	0.0145511
957.360	0.0144651
957.438	0.0145553
957.516	0.0146307
957.594	0.0145866
957.673	0.0146146
957.751	0.0145050
957.829	0.0145965
957.907	0.0145321
957.985	0.0144881
958.063	0.0145566
958.141	0.0144493
958.219	0.0145497
958.298	0.0146831
958.376	0.0146516
958.454	0.0145997
958.532	0.0146006
958.610	0.0146156
958.688	0.0145961
958.766	0.0146764
958.844	0.0146783
958.923	0.0147042
959.001	0.0146325
959.079	0.0146133
959.157	0.0146533
959.235	0.0147067
959.313	0.0147874
959.391	0.0147591
959.469	0.0146947
959.548	0.0147124
959.626	0.0146306
959.704	0.0147962
959.782	0.0147971
959.860	0.0147988
959.938	0.0148257
960.016	0.0147906
960.094	0.0146513
960.173	0.0146105
960.251	0.0146477
960.329	0.0148714
960.407	0.0147089
960.485	0.0147411
960.563	0.0147065
960.641	0.0145465
960.719	0.0145287
960.798	0.0145324
960.876	0.0146078
960.954	0.0145193
961.032	0.0143796
961.110	0.0144293
961.188	0.0144914
961.266	0.0145291
961.344	0.0144988
961.423	0.0145415
961.501	0.0144574
961.579	0.0146504
961.657	0.0146830
961.735	0.0146685
961.813	0.0146556
961.891	0.0146372
961.969	0.0145749
962.048	0.0145219
962.126	0.0143678
962.204	0.0143358
962.282	0.0144656
962.360	0.0142719
962.438	0.0144396
962.516	0.0144398
962.594	0.0144088
962.673	0.0143848
962.751	0.0144385
962.829	0.0146877
962.907	0.0147597
962.985	0.0148384
963.063	0.0146449
963.141	0.0147760
963.219	0.0147923
963.298	0.0147134
963.376	0.0146903
963.454	0.0147224
963.532	0.0146696
963.610	0.0144585
963.688	0.0145676
963.766	0.0145164
963.844	0.0144080
963.923	0.0145185
964.001	0.0145451
964.079	0.0144263
964.157	0.0145551
964.235	0.0145666
964.313	0.0146268
964.391	0.0147153
964.469	0.0148082
964.548	0.0148649
964.626	0.0149693
964.704	0.0149217
964.782	0.0148206
964.860	0.0149561
964.938	0.0148270
965.016	0.0147359
965.094	0.0146601
965.173	0.0145647
965.251	0.0144327
965.329	0.0144064
965.407	0.0142697
965.485	0.0142371
965.563	0.0142397
965.641	0.0142873
965.719	0.0143622
965.798	0.0144102
965.876	0.0145002
965.954	0.0144215
966.032	0.0146219
966.110	0.0146943
966.188	0.0146991
966.266	0.0148819
966.344	0.0150005
966.423	0.0149797
966.501	0.0150588
966.579	0.0150038
966.657	0.0148730
966.735	0.0149448
966.813	0.0148425
966.891	0.0146282
966.969	0.0145706
967.048	0.0144897
967.126	0.0144257
967.204	0.0143510
967.282	0.0142485
967.360	0.0141280
967.438	0.0142110
967.516	0.0142640
967.594	0.0141984
967.673	0.0142339
967.751	0.0143750
967.829	0.0142999
967.907	0.0144640
967.985	0.0144657
968.063	0.0146062
968.141	0.0146117
968.219	0.0146975
968.298	0.0147375
968.376	0.0146326
968.454	0.0146655
968.532	0.0147137
968.610	0.0148486
968.688	0.0146919
968.766	0.0147148
968.844	0.0149036
968.923	0.0147867
969.001	0.0146202
969.079	0.0145567
969.157	0.0147044
969.235	0.0145341
969.313	0.0146458
969.391	0.0146178
969.469	0.0144621
969.548	0.0146136
969.626	0.0143243
969.704	0.0144126
969.782	0.0144973
969.860	0.0144044
969.938	0.0144485
