05/14/2022	19:39:36	Ver.	4.1	UNKNOWN
Optical Delay	650.009681	Delta X		0.078125	Sweeps	1	Scan Rate	0/0
Coordinates	Axis 1	NaN	Axis 2	NaN	Axis 3	NaN	Axis 4	NaN	Axis 5	NaN	Axis 6	0.000000
TX Power	0.000000	RX Power	0.000000

650.010	0.0139940
650.088	0.0140620
650.166	0.0141389
650.244	0.0139532
650.322	0.0139449
650.400	0.0140008
650.478	0.0139060
650.557	0.0140855
650.635	0.0140364
650.713	0.0140424
650.791	0.0140958
650.869	0.0140311
650.947	0.0141523
651.025	0.0141371
651.103	0.0139623
651.182	0.0141166
651.260	0.0142270
651.338	0.0142387
651.416	0.0143127
651.494	0.0141815
651.572	0.0140578
651.650	0.0141734
651.728	0.0141077
651.807	0.0143172
651.885	0.0140903
651.963	0.0140710
652.041	0.0141788
652.119	0.0141911
652.197	0.0142569
652.275	0.0141449
652.353	0.0140279
652.432	0.0141151
652.510	0.0142763
652.588	0.0141125
652.666	0.0140050
652.744	0.0140644
652.822	0.0140964
652.900	0.0140359
652.978	0.0139547
653.057	0.0141203
653.135	0.0140672
653.213	0.0140665
653.291	0.0139686
653.369	0.0140247
653.447	0.0140342
653.525	0.0140010
653.603	0.0140376
653.682	0.0139169
653.760	0.0138174
653.838	0.0137153
653.916	0.0136794
653.994	0.0135331
654.072	0.0137344
654.150	0.0136784
654.228	0.0137244
654.307	0.0137627
654.385	0.0137345
654.463	0.0137393
654.541	0.0139221
654.619	0.0139695
654.697	0.0139958
654.775	0.0140584
654.853	0.0140857
654.932	0.0140984
655.010	0.0142223
655.088	0.0142270
655.166	0.0141908
655.244	0.0141553
655.322	0.0140513
655.400	0.0139044
655.478	0.0140403
655.557	0.0140706
655.635	0.0139445
655.713	0.0138754
655.791	0.0138727
655.869	0.0138416
655.947	0.0137301
656.025	0.0137768
656.103	0.0137393
656.182	0.0137395
656.260	0.0138065
656.338	0.0138053
656.416	0.0137359
656.494	0.0136700
656.572	0.0138203
656.650	0.0138020
656.728	0.0138285
656.807	0.0139317
656.885	0.0140572
656.963	0.0139258
657.041	0.0137921
657.119	0.0140263
657.197	0.0141744
657.275	0.0140959
657.353	0.0139302
657.432	0.0139851
657.510	0.0141052
657.588	0.0140137
657.666	0.0139504
657.744	0.0139822
657.822	0.0139343
657.900	0.0138920
657.978	0.0137251
658.057	0.0137894
658.135	0.0136493
658.213	0.0136419
658.291	0.0135596
658.369	0.0135254
658.447	0.0133535
658.525	0.0133752
658.603	0.0133965
658.682	0.0132203
658.760	0.0132888
658.838	0.0134525
658.916	0.0133766
658.994	0.0136484
659.072	0.0137141
659.150	0.0137404
659.228	0.0137827
659.307	0.0138806
659.385	0.0141019
659.463	0.0143518
659.541	0.0143873
659.619	0.0143810
659.697	0.0143884
659.775	0.0144537
659.853	0.0145429
659.932	0.0147643
660.010	0.0145333
660.088	0.0145477
660.166	0.0145635
660.244	0.0143344
660.322	0.0144569
660.400	0.0143340
660.478	0.0141090
660.557	0.0141251
660.635	0.0140513
660.713	0.0138701
660.791	0.0138472
660.869	0.0136384
660.947	0.0134986
661.025	0.0133481
661.103	0.0132538
661.182	0.0130617
661.260	0.0129491
661.338	0.0128524
661.416	0.0128321
661.494	0.0128177
661.572	0.0127601
661.650	0.0127005
661.728	0.0127351
661.807	0.0127407
661.885	0.0128587
661.963	0.0130729
662.041	0.0131230
662.119	0.0134492
662.197	0.0135669
662.275	0.0138641
662.353	0.0139124
662.432	0.0141466
662.510	0.0142977
662.588	0.0145510
662.666	0.0147320
662.744	0.0149543
662.822	0.0149895
662.900	0.0151301
662.978	0.0153677
663.057	0.0154792
663.135	0.0152779
663.213	0.0153758
663.291	0.0155372
663.369	0.0155225
663.447	0.0155079
663.525	0.0153912
663.603	0.0154229
663.682	0.0152790
663.760	0.0152644
663.838	0.0151144
663.916	0.0149054
663.994	0.0147741
664.072	0.0147861
664.150	0.0146072
664.228	0.0143725
664.307	0.0142280
664.385	0.0139544
664.463	0.0137504
664.541	0.0135374
664.619	0.0132455
664.697	0.0129622
664.775	0.0128304
664.853	0.0124258
664.932	0.0122310
665.010	0.0121620
665.088	0.0118102
665.166	0.0115675
665.244	0.0115811
665.322	0.0115485
665.400	0.0114412
665.478	0.0115637
665.557	0.0115228
665.635	0.0115842
665.713	0.0117560
665.791	0.0119683
665.869	0.0121056
665.947	0.0124287
666.025	0.0129302
666.103	0.0131487
666.182	0.0136752
666.260	0.0140389
666.338	0.0145153
666.416	0.0151128
666.494	0.0157212
666.572	0.0160618
666.650	0.0164142
666.728	0.0168698
666.807	0.0172565
666.885	0.0175758
666.963	0.0177577
667.041	0.0180042
667.119	0.0180927
667.197	0.0179449
667.275	0.0179533
667.353	0.0176125
667.432	0.0172868
667.510	0.0171301
667.588	0.0168072
667.666	0.0165057
667.744	0.0160289
667.822	0.0155202
667.900	0.0149934
667.978	0.0144873
668.057	0.0139661
668.135	0.0132569
668.213	0.0128098
668.291	0.0123872
668.369	0.0117203
668.447	0.0110830
668.525	0.0106025
668.603	0.0101351
668.682	0.00984299
668.760	0.00953987
668.838	0.00930481
668.916	0.00931412
668.994	0.00919182
669.072	0.00939163
669.150	0.00957138
669.228	0.00977882
669.307	0.00998558
669.385	0.0104297
669.463	0.0107541
669.541	0.0113104
669.619	0.0117133
669.697	0.0121825
669.775	0.0126382
669.853	0.0132514
669.932	0.0135371
670.010	0.0140564
670.088	0.0145104
670.166	0.0149736
670.244	0.0152821
670.322	0.0157727
670.400	0.0159980
670.478	0.0164373
670.557	0.0168280
670.635	0.0171748
670.713	0.0173952
670.791	0.0174977
670.869	0.0177364
670.947	0.0179724
671.025	0.0179607
671.103	0.0180652
671.182	0.0181154
671.260	0.0179096
671.338	0.0178493
671.416	0.0177921
671.494	0.0172617
671.572	0.0171036
671.650	0.0167968
671.728	0.0165499
671.807	0.0161076
671.885	0.0156800
671.963	0.0153448
672.041	0.0148768
672.119	0.0143616
672.197	0.0138728
672.275	0.0133895
672.353	0.0129918
672.432	0.0124883
672.510	0.0119429
672.588	0.0114359
672.666	0.0110763
672.744	0.0105918
672.822	0.0101229
672.900	0.00982765
672.978	0.00949043
673.057	0.00935402
673.135	0.00916496
673.213	0.00905533
673.291	0.00897675
673.369	0.00921486
673.447	0.00932846
673.525	0.00954559
673.603	0.00984306
673.682	0.0102444
673.760	0.0107970
673.838	0.0112313
673.916	0.0117274
673.994	0.0122612
674.072	0.0128537
674.150	0.0134064
674.228	0.0141487
674.307	0.0145138
674.385	0.0152334
674.463	0.0156373
674.541	0.0163957
674.619	0.0168044
674.697	0.0172083
674.775	0.0175073
674.853	0.0179604
674.932	0.0181459
675.010	0.0183762
675.088	0.0184201
675.166	0.0185254
675.244	0.0186752
675.322	0.0184839
675.400	0.0184735
675.478	0.0181393
675.557	0.0178006
675.635	0.0173819
675.713	0.0172646
675.791	0.0167298
675.869	0.0163242
675.947	0.0158451
676.025	0.0154639
676.103	0.0153026
676.182	0.0147363
676.260	0.0142442
676.338	0.0138933
676.416	0.0134074
676.494	0.0129761
676.572	0.0126492
676.650	0.0121253
676.728	0.0117354
676.807	0.0114601
676.885	0.0111033
676.963	0.0109104
677.041	0.0106970
677.119	0.0105418
677.197	0.0104576
677.275	0.0104929
677.353	0.0105894
677.432	0.0108682
677.510	0.0108868
677.588	0.0112625
677.666	0.0114355
677.744	0.0118146
677.822	0.0119135
677.900	0.0121652
677.978	0.0125368
678.057	0.0128225
678.135	0.0129765
678.213	0.0130708
678.291	0.0133045
678.369	0.0137180
678.447	0.0137988
678.525	0.0140301
678.603	0.0142525
678.682	0.0143195
678.760	0.0146164
678.838	0.0147986
678.916	0.0148280
678.994	0.0150625
679.072	0.0150567
679.150	0.0151897
679.228	0.0151039
679.307	0.0151321
679.385	0.0150347
679.463	0.0150916
679.541	0.0149948
679.619	0.0149780
679.697	0.0147182
679.775	0.0147020
679.853	0.0148270
679.932	0.0144397
680.010	0.0145475
680.088	0.0143528
680.166	0.0144485
680.244	0.0142414
680.322	0.0142276
680.400	0.0142545
680.478	0.0142432
680.557	0.0142319
680.635	0.0142560
680.713	0.0143401
680.791	0.0143252
680.869	0.0143977
680.947	0.0142396
681.025	0.0142561
681.103	0.0142059
681.182	0.0142548
681.260	0.0143146
681.338	0.0141419
681.416	0.0141732
681.494	0.0141164
681.572	0.0142710
681.650	0.0140949
681.728	0.0141348
681.807	0.0141296
681.885	0.0141778
681.963	0.0141715
682.041	0.0142278
682.119	0.0142133
682.197	0.0141104
682.275	0.0139076
682.353	0.0137990
682.432	0.0138181
682.510	0.0136817
682.588	0.0134681
682.666	0.0135749
682.744	0.0134798
682.822	0.0134043
682.900	0.0134734
682.978	0.0133707
683.057	0.0133572
683.135	0.0133523
683.213	0.0132129
683.291	0.0132630
683.369	0.0132842
683.447	0.0132230
683.525	0.0129952
683.603	0.0128682
683.682	0.0127898
683.760	0.0126633
683.838	0.0126031
683.916	0.0125386
683.994	0.0123398
684.072	0.0123275
684.150	0.0122730
684.228	0.0121937
684.307	0.0123415
684.385	0.0124606
684.463	0.0125612
684.541	0.0128307
684.619	0.0129085
684.697	0.0130431
684.775	0.0133373
684.853	0.0134046
684.932	0.0136879
685.010	0.0139776
685.088	0.0140350
685.166	0.0143324
685.244	0.0146460
685.322	0.0148091
685.400	0.0149394
685.478	0.0151655
685.557	0.0154661
685.635	0.0156910
685.713	0.0157130
685.791	0.0158490
685.869	0.0161362
685.947	0.0162490
686.025	0.0163409
686.103	0.0164246
686.182	0.0165107
686.260	0.0164120
686.338	0.0164428
686.416	0.0165380
686.494	0.0163359
686.572	0.0162080
686.650	0.0161357
686.728	0.0159610
686.807	0.0156564
686.885	0.0154028
686.963	0.0152721
687.041	0.0150603
687.119	0.0149100
687.197	0.0147382
687.275	0.0145361
687.353	0.0140817
687.432	0.0140469
687.510	0.0137329
687.588	0.0136023
687.666	0.0132383
687.744	0.0131091
687.822	0.0128014
687.900	0.0125632
687.978	0.0124388
688.057	0.0120824
688.135	0.0118451
688.213	0.0117553
688.291	0.0115489
688.369	0.0114075
688.447	0.0110917
688.525	0.0110328
688.603	0.0110852
688.682	0.0109907
688.760	0.0108805
688.838	0.0107903
688.916	0.0109296
688.994	0.0110856
689.072	0.0111371
689.150	0.0113540
689.228	0.0116510
689.307	0.0117342
689.385	0.0119756
689.463	0.0122730
689.541	0.0126015
689.619	0.0128957
689.697	0.0132364
689.775	0.0134096
689.853	0.0138662
689.932	0.0140836
690.010	0.0144203
690.088	0.0148664
690.166	0.0152673
690.244	0.0155355
690.322	0.0158313
690.400	0.0162062
690.478	0.0162877
690.557	0.0165756
690.635	0.0167219
690.713	0.0169746
690.791	0.0169181
690.869	0.0170840
690.947	0.0170525
691.025	0.0170258
691.103	0.0169126
691.182	0.0167258
691.260	0.0165477
691.338	0.0163808
691.416	0.0159634
691.494	0.0158698
691.572	0.0155711
691.650	0.0151677
691.728	0.0149706
691.807	0.0145787
691.885	0.0142469
691.963	0.0140274
692.041	0.0138167
692.119	0.0134428
692.197	0.0131264
692.275	0.0128850
692.353	0.0126657
692.432	0.0125426
692.510	0.0123629
692.588	0.0121870
692.666	0.0121136
692.744	0.0119541
692.822	0.0119975
692.900	0.0121064
692.978	0.0118614
693.057	0.0120564
693.135	0.0121143
693.213	0.0121072
693.291	0.0122511
693.369	0.0123985
693.447	0.0123611
693.525	0.0124327
693.603	0.0127155
693.682	0.0129752
693.760	0.0129987
693.838	0.0133410
693.916	0.0135541
693.994	0.0138037
694.072	0.0140300
694.150	0.0141457
694.228	0.0144818
694.307	0.0146548
694.385	0.0146728
694.463	0.0147984
694.541	0.0149345
694.619	0.0149302
694.697	0.0148408
694.775	0.0147314
694.853	0.0146263
694.932	0.0146832
695.010	0.0144254
695.088	0.0142199
695.166	0.0140273
695.244	0.0138123
695.322	0.0136616
695.400	0.0135619
695.478	0.0133921
695.557	0.0133053
695.635	0.0132635
695.713	0.0131792
695.791	0.0131232
695.869	0.0130972
695.947	0.0131795
696.025	0.0132833
696.103	0.0132471
696.182	0.0131876
696.260	0.0134776
696.338	0.0135426
696.416	0.0136015
696.494	0.0137679
696.572	0.0139564
696.650	0.0142328
696.728	0.0142219
696.807	0.0143346
696.885	0.0144511
696.963	0.0145519
697.041	0.0147398
697.119	0.0147816
697.197	0.0149236
697.275	0.0150749
697.353	0.0152296
697.432	0.0151971
697.510	0.0152814
697.588	0.0152502
697.666	0.0154097
697.744	0.0154117
697.822	0.0152666
697.900	0.0151183
697.978	0.0151480
698.057	0.0149289
698.135	0.0148891
698.213	0.0146526
698.291	0.0144563
698.369	0.0142953
698.447	0.0140352
698.525	0.0137910
698.603	0.0136708
698.682	0.0134319
698.760	0.0131878
698.838	0.0129336
698.916	0.0128070
698.994	0.0127149
699.072	0.0127690
699.150	0.0126878
699.228	0.0125762
699.307	0.0126268
699.385	0.0126762
699.463	0.0126328
699.541	0.0129355
699.619	0.0131854
699.697	0.0131039
699.775	0.0132740
699.853	0.0133401
699.932	0.0134118
700.010	0.0133917
700.088	0.0134319
700.166	0.0134041
700.244	0.0133916
700.322	0.0134424
700.400	0.0135645
700.478	0.0133947
700.557	0.0133583
700.635	0.0133768
700.713	0.0134739
700.791	0.0135016
700.869	0.0134776
700.947	0.0134180
701.025	0.0135786
701.103	0.0137439
701.182	0.0138263
701.260	0.0140730
701.338	0.0143121
701.416	0.0143098
701.494	0.0143546
701.572	0.0145988
701.650	0.0145959
701.728	0.0147354
701.807	0.0149097
701.885	0.0150945
701.963	0.0151106
702.041	0.0152079
702.119	0.0152456
702.197	0.0154823
702.275	0.0154384
702.353	0.0153753
702.432	0.0152415
702.510	0.0152940
702.588	0.0152018
702.666	0.0151324
702.744	0.0149528
702.822	0.0148349
702.900	0.0146547
702.978	0.0144613
703.057	0.0142242
703.135	0.0140736
703.213	0.0137979
703.291	0.0135127
703.369	0.0133472
703.447	0.0131557
703.525	0.0131667
703.603	0.0129239
703.682	0.0127707
703.760	0.0126837
703.838	0.0125394
703.916	0.0126664
703.994	0.0126313
704.072	0.0126347
704.150	0.0126376
704.228	0.0126884
704.307	0.0129328
704.385	0.0130664
704.463	0.0132867
704.541	0.0135835
704.619	0.0137849
704.697	0.0140826
704.775	0.0141794
704.853	0.0144759
704.932	0.0146795
705.010	0.0151323
705.088	0.0150804
705.166	0.0151025
705.244	0.0152459
705.322	0.0152957
705.400	0.0153169
705.478	0.0152502
705.557	0.0153036
705.635	0.0150829
705.713	0.0151353
705.791	0.0147423
705.869	0.0147224
705.947	0.0145139
706.025	0.0143736
706.103	0.0141531
706.182	0.0138796
706.260	0.0138020
706.338	0.0135680
706.416	0.0134979
706.494	0.0132472
706.572	0.0131818
706.650	0.0129812
706.728	0.0127597
706.807	0.0127133
706.885	0.0125359
706.963	0.0123694
707.041	0.0124249
707.119	0.0125080
707.197	0.0123930
707.275	0.0122449
707.353	0.0124143
707.432	0.0124416
707.510	0.0126138
707.588	0.0126453
707.666	0.0129441
707.744	0.0131760
707.822	0.0132845
707.900	0.0134233
707.978	0.0136224
708.057	0.0138686
708.135	0.0140690
708.213	0.0143410
708.291	0.0145464
708.369	0.0146696
708.447	0.0149438
708.525	0.0150385
708.603	0.0151557
708.682	0.0151442
708.760	0.0151574
708.838	0.0153048
708.916	0.0155112
708.994	0.0153088
709.072	0.0154544
709.150	0.0154773
709.228	0.0153995
709.307	0.0152597
709.385	0.0152922
709.463	0.0150446
709.541	0.0150610
709.619	0.0148851
709.697	0.0148453
709.775	0.0146185
709.853	0.0144690
709.932	0.0142715
710.010	0.0142191
710.088	0.0141012
710.166	0.0140700
710.244	0.0136644
710.322	0.0136646
710.400	0.0136197
710.478	0.0134254
710.557	0.0134283
710.635	0.0130979
710.713	0.0130299
710.791	0.0130833
710.869	0.0128259
710.947	0.0128736
711.025	0.0128339
711.103	0.0126177
711.182	0.0125863
711.260	0.0126711
711.338	0.0125247
711.416	0.0126652
711.494	0.0125317
711.572	0.0127796
711.650	0.0127342
711.728	0.0129602
711.807	0.0130410
711.885	0.0132371
711.963	0.0133278
712.041	0.0134563
712.119	0.0136751
712.197	0.0138287
712.275	0.0138625
712.353	0.0140385
712.432	0.0141204
712.510	0.0142896
712.588	0.0142181
712.666	0.0145067
712.744	0.0145772
712.822	0.0146788
712.900	0.0147929
712.978	0.0147653
713.057	0.0149039
713.135	0.0148613
713.213	0.0150556
713.291	0.0150137
713.369	0.0150051
713.447	0.0149190
713.525	0.0150414
713.603	0.0149662
713.682	0.0150845
713.760	0.0148344
713.838	0.0149165
713.916	0.0147526
713.994	0.0146617
714.072	0.0146997
714.150	0.0145602
714.228	0.0144292
714.307	0.0145615
714.385	0.0142873
714.463	0.0140647
714.541	0.0140587
714.619	0.0140008
714.697	0.0138405
714.775	0.0138338
714.853	0.0138165
714.932	0.0134993
715.010	0.0135276
715.088	0.0135403
715.166	0.0135888
715.244	0.0135707
715.322	0.0134492
715.400	0.0133804
715.478	0.0133614
715.557	0.0133039
715.635	0.0130977
715.713	0.0132176
715.791	0.0131521
715.869	0.0131319
715.947	0.0131377
716.025	0.0131229
716.103	0.0133450
716.182	0.0132656
716.260	0.0133978
716.338	0.0134033
716.416	0.0135646
716.494	0.0136985
716.572	0.0137860
716.650	0.0137612
716.728	0.0137876
716.807	0.0138889
716.885	0.0141668
716.963	0.0141319
717.041	0.0142802
717.119	0.0142902
717.197	0.0142858
717.275	0.0142763
717.353	0.0145645
717.432	0.0144753
717.510	0.0145686
717.588	0.0145398
717.666	0.0146947
717.744	0.0146253
717.822	0.0145535
717.900	0.0146893
717.978	0.0147646
718.057	0.0147285
718.135	0.0147045
718.213	0.0147276
718.291	0.0147097
718.369	0.0146745
718.447	0.0146022
718.525	0.0145782
718.603	0.0145427
718.682	0.0144065
718.760	0.0143809
718.838	0.0144003
718.916	0.0143494
718.994	0.0141895
719.072	0.0140803
719.150	0.0140488
719.228	0.0139137
719.307	0.0136623
719.385	0.0136784
719.463	0.0136771
719.541	0.0134225
719.619	0.0134277
719.697	0.0135966
719.775	0.0134025
719.853	0.0132725
719.932	0.0134943
720.010	0.0134874
720.088	0.0135310
720.166	0.0134899
720.244	0.0134589
720.322	0.0134028
720.400	0.0134303
720.478	0.0132224
720.557	0.0134254
720.635	0.0135204
720.713	0.0133383
720.791	0.0134370
720.869	0.0134868
720.947	0.0134129
721.025	0.0135941
721.103	0.0136305
721.182	0.0136486
721.260	0.0137447
721.338	0.0138752
721.416	0.0136580
721.494	0.0137960
721.572	0.0140018
721.650	0.0141388
721.728	0.0141670
721.807	0.0141232
721.885	0.0142728
721.963	0.0143863
722.041	0.0142888
722.119	0.0145473
722.197	0.0143680
722.275	0.0144942
722.353	0.0144720
722.432	0.0145330
722.510	0.0145960
722.588	0.0144101
722.666	0.0145087
722.744	0.0145294
722.822	0.0144595
722.900	0.0143863
722.978	0.0142823
723.057	0.0142316
723.135	0.0142028
723.213	0.0142905
723.291	0.0141341
723.369	0.0141959
723.447	0.0140887
723.525	0.0141878
723.603	0.0141228
723.682	0.0140788
723.760	0.0139274
723.838	0.0139528
723.916	0.0138499
723.994	0.0140487
724.072	0.0140979
724.150	0.0140921
724.228	0.0139500
724.307	0.0139986
724.385	0.0138910
724.463	0.0138256
724.541	0.0137564
724.619	0.0137569
724.697	0.0138122
724.775	0.0137382
724.853	0.0136478
724.932	0.0138080
725.010	0.0135897
725.088	0.0136195
725.166	0.0136593
725.244	0.0136903
725.322	0.0136979
725.400	0.0138410
725.478	0.0139088
725.557	0.0139058
725.635	0.0140972
725.713	0.0141779
725.791	0.0142357
725.869	0.0142490
725.947	0.0143088
726.025	0.0143519
726.103	0.0143260
726.182	0.0143206
726.260	0.0143747
726.338	0.0144461
726.416	0.0142836
726.494	0.0143118
726.572	0.0142796
726.650	0.0141931
726.728	0.0142200
726.807	0.0143407
726.885	0.0141631
726.963	0.0141422
727.041	0.0140974
727.119	0.0139674
727.197	0.0138588
727.275	0.0140389
727.353	0.0140294
727.432	0.0139500
727.510	0.0138422
727.588	0.0140262
727.666	0.0138920
727.744	0.0137933
727.822	0.0140430
727.900	0.0139359
727.978	0.0138266
728.057	0.0139988
728.135	0.0140049
728.213	0.0140353
728.291	0.0140337
728.369	0.0141892
728.447	0.0142189
728.525	0.0143424
728.603	0.0143440
728.682	0.0144434
728.760	0.0144270
728.838	0.0144462
728.916	0.0144464
728.994	0.0144913
729.072	0.0145188
729.150	0.0144627
729.228	0.0144604
729.307	0.0142432
729.385	0.0144467
729.463	0.0142797
729.541	0.0140292
729.619	0.0140137
729.697	0.0139035
729.775	0.0137766
729.853	0.0135781
729.932	0.0136903
730.010	0.0134944
730.088	0.0133981
730.166	0.0133107
730.244	0.0131393
730.322	0.0129653
730.400	0.0128743
730.478	0.0131224
730.557	0.0130896
730.635	0.0129813
730.713	0.0131490
730.791	0.0130065
730.869	0.0130585
730.947	0.0131334
731.025	0.0131439
731.103	0.0132378
731.182	0.0133908
731.260	0.0134058
731.338	0.0136216
731.416	0.0137780
731.494	0.0137402
731.572	0.0138313
731.650	0.0139354
731.728	0.0140581
731.807	0.0140495
731.885	0.0141199
731.963	0.0141905
732.041	0.0142590
732.119	0.0143005
732.197	0.0143690
732.275	0.0145721
732.353	0.0143910
732.432	0.0145455
732.510	0.0146616
732.588	0.0147273
732.666	0.0147443
732.744	0.0149181
732.822	0.0149676
732.900	0.0148190
732.978	0.0148779
733.057	0.0148394
733.135	0.0148444
733.213	0.0148144
733.291	0.0147704
733.369	0.0148159
733.447	0.0148167
733.525	0.0146926
733.603	0.0145757
733.682	0.0147637
733.760	0.0145420
733.838	0.0144164
733.916	0.0143539
733.994	0.0142865
734.072	0.0141708
734.150	0.0141241
734.228	0.0139709
734.307	0.0138953
734.385	0.0139024
734.463	0.0137936
734.541	0.0137561
734.619	0.0136321
734.697	0.0135866
734.775	0.0136486
734.853	0.0135763
734.932	0.0135952
735.010	0.0134650
735.088	0.0134657
735.166	0.0133140
735.244	0.0134100
735.322	0.0133823
735.400	0.0134401
735.478	0.0135166
735.557	0.0134876
735.635	0.0134864
735.713	0.0135738
735.791	0.0134225
735.869	0.0136124
735.947	0.0136833
736.025	0.0135229
736.103	0.0136715
736.182	0.0136761
736.260	0.0137031
736.338	0.0138200
736.416	0.0137821
736.494	0.0137881
736.572	0.0137767
736.650	0.0138034
736.728	0.0136949
736.807	0.0138433
736.885	0.0137816
736.963	0.0138087
737.041	0.0137753
737.119	0.0135947
737.197	0.0137605
737.275	0.0137083
737.353	0.0138894
737.432	0.0137866
737.510	0.0138245
737.588	0.0137965
737.666	0.0138637
737.744	0.0140253
737.822	0.0142145
737.900	0.0140443
737.978	0.0140787
738.057	0.0143090
738.135	0.0143089
738.213	0.0143723
738.291	0.0142503
738.369	0.0145645
738.447	0.0145332
738.525	0.0144041
738.603	0.0146766
738.682	0.0146508
738.760	0.0146857
738.838	0.0148528
738.916	0.0147686
738.994	0.0146559
739.072	0.0148402
739.150	0.0146932
739.228	0.0146965
739.307	0.0148329
739.385	0.0146901
739.463	0.0145377
739.541	0.0145974
739.619	0.0142870
739.697	0.0143689
739.775	0.0143172
739.853	0.0140706
739.932	0.0141737
740.010	0.0140907
740.088	0.0141607
740.166	0.0139844
740.244	0.0139623
740.322	0.0139088
740.400	0.0138577
740.478	0.0137125
740.557	0.0136160
740.635	0.0136225
740.713	0.0135970
740.791	0.0136177
740.869	0.0135611
740.947	0.0136127
741.025	0.0136117
741.103	0.0135950
741.182	0.0134700
741.260	0.0135138
741.338	0.0134645
741.416	0.0135378
741.494	0.0136714
741.572	0.0136105
741.650	0.0135679
741.728	0.0135143
741.807	0.0135919
741.885	0.0136177
741.963	0.0136433
742.041	0.0136371
742.119	0.0137228
742.197	0.0136476
742.275	0.0136888
742.353	0.0138410
742.432	0.0137019
742.510	0.0136006
742.588	0.0137854
742.666	0.0139053
742.744	0.0138319
742.822	0.0137970
742.900	0.0139796
742.978	0.0139951
743.057	0.0141161
743.135	0.0141306
743.213	0.0140263
743.291	0.0142819
743.369	0.0141808
743.447	0.0142381
743.525	0.0143713
743.603	0.0144333
743.682	0.0142089
743.760	0.0143909
743.838	0.0142534
743.916	0.0143685
743.994	0.0145383
744.072	0.0143363
744.150	0.0143179
744.228	0.0142208
744.307	0.0143522
744.385	0.0143120
744.463	0.0143886
744.541	0.0142719
744.619	0.0141908
744.697	0.0141854
744.775	0.0142038
744.853	0.0142898
744.932	0.0141086
745.010	0.0141562
745.088	0.0142274
745.166	0.0142198
745.244	0.0141345
745.322	0.0139877
745.400	0.0142976
745.478	0.0142892
745.557	0.0142429
745.635	0.0142789
745.713	0.0143267
745.791	0.0143208
745.869	0.0143336
745.947	0.0143031
746.025	0.0142732
746.103	0.0143476
746.182	0.0144479
746.260	0.0143097
746.338	0.0143616
746.416	0.0142549
746.494	0.0141800
746.572	0.0142176
746.650	0.0142732
746.728	0.0142990
746.807	0.0140933
746.885	0.0141254
746.963	0.0141943
747.041	0.0140800
747.119	0.0140601
747.197	0.0140419
747.275	0.0140539
747.353	0.0140004
747.432	0.0139808
747.510	0.0140277
747.588	0.0138432
747.666	0.0140270
747.744	0.0138924
747.822	0.0139284
747.900	0.0138348
747.978	0.0138280
748.057	0.0138200
748.135	0.0138992
748.213	0.0137554
748.291	0.0137555
748.369	0.0137092
748.447	0.0137011
748.525	0.0138320
748.603	0.0136020
748.682	0.0135997
748.760	0.0136515
748.838	0.0135962
748.916	0.0135553
748.994	0.0137370
749.072	0.0137155
749.150	0.0136537
749.228	0.0136611
749.307	0.0136150
749.385	0.0136090
749.463	0.0136070
749.541	0.0136371
749.619	0.0135503
749.697	0.0136514
749.775	0.0136098
749.853	0.0136947
749.932	0.0136386
750.010	0.0136031
750.088	0.0136535
750.166	0.0137166
750.244	0.0136894
750.322	0.0137312
750.400	0.0135400
750.478	0.0135992
750.557	0.0138676
750.635	0.0138522
750.713	0.0138147
750.791	0.0137588
750.869	0.0139076
750.947	0.0138102
751.025	0.0139912
751.103	0.0140956
751.182	0.0141315
751.260	0.0141135
751.338	0.0139259
751.416	0.0141607
751.494	0.0140365
751.572	0.0140738
751.650	0.0140809
751.728	0.0140575
751.807	0.0141170
751.885	0.0141486
751.963	0.0140239
752.041	0.0141511
752.119	0.0141228
752.197	0.0139798
752.275	0.0139396
752.353	0.0141025
752.432	0.0140973
752.510	0.0140273
752.588	0.0139598
752.666	0.0141216
752.744	0.0140664
752.822	0.0141238
752.900	0.0141830
752.978	0.0141885
753.057	0.0140597
753.135	0.0141668
753.213	0.0141789
753.291	0.0140990
753.369	0.0142082
753.447	0.0141766
753.525	0.0140536
753.603	0.0141389
753.682	0.0141911
753.760	0.0141315
753.838	0.0141170
753.916	0.0141736
753.994	0.0141570
754.072	0.0140263
754.150	0.0140703
754.228	0.0140087
754.307	0.0139302
754.385	0.0139572
754.463	0.0139622
754.541	0.0139832
754.619	0.0137061
754.697	0.0137203
754.775	0.0138779
754.853	0.0137723
754.932	0.0138609
755.010	0.0137374
755.088	0.0138813
755.166	0.0139996
755.244	0.0136839
755.322	0.0138396
755.400	0.0138805
755.478	0.0137721
755.557	0.0136596
755.635	0.0139173
755.713	0.0138917
755.791	0.0137161
755.869	0.0139592
755.947	0.0138641
756.025	0.0138361
756.103	0.0138596
756.182	0.0138934
756.260	0.0138857
756.338	0.0139061
756.416	0.0138948
756.494	0.0138877
756.572	0.0138561
756.650	0.0139385
756.728	0.0138782
756.807	0.0140589
756.885	0.0140848
756.963	0.0140915
757.041	0.0138466
757.119	0.0137204
757.197	0.0139258
757.275	0.0138799
757.353	0.0139379
757.432	0.0139764
757.510	0.0138747
757.588	0.0138567
757.666	0.0137930
757.744	0.0138905
757.822	0.0137540
757.900	0.0137579
757.978	0.0138605
758.057	0.0138113
758.135	0.0138744
758.213	0.0138319
758.291	0.0139806
758.369	0.0140599
758.447	0.0141155
758.525	0.0140943
758.603	0.0142014
758.682	0.0143080
758.760	0.0142451
758.838	0.0143351
758.916	0.0143591
758.994	0.0144073
759.072	0.0144928
759.150	0.0145154
759.228	0.0144961
759.307	0.0145512
759.385	0.0144001
759.463	0.0144529
759.541	0.0144998
759.619	0.0143336
759.697	0.0143777
759.775	0.0143478
759.853	0.0143235
759.932	0.0143852
760.010	0.0143893
760.088	0.0143772
760.166	0.0141383
760.244	0.0143217
760.322	0.0143229
760.400	0.0141379
760.478	0.0141543
760.557	0.0140626
760.635	0.0141371
760.713	0.0139571
760.791	0.0139977
760.869	0.0138295
760.947	0.0138454
761.025	0.0136400
761.103	0.0138426
761.182	0.0137148
761.260	0.0136194
761.338	0.0134956
761.416	0.0136141
761.494	0.0135321
761.572	0.0135109
761.650	0.0135436
761.728	0.0134450
761.807	0.0134647
761.885	0.0134643
761.963	0.0134203
762.041	0.0134293
762.119	0.0136613
762.197	0.0136367
762.275	0.0134680
762.353	0.0135598
762.432	0.0136344
762.510	0.0137325
762.588	0.0137108
762.666	0.0138277
762.744	0.0138341
762.822	0.0139754
762.900	0.0139575
762.978	0.0139722
763.057	0.0141214
763.135	0.0142532
763.213	0.0141508
763.291	0.0141655
763.369	0.0141425
763.447	0.0142254
763.525	0.0142074
763.603	0.0143048
763.682	0.0141438
763.760	0.0141609
763.838	0.0143486
763.916	0.0143470
763.994	0.0141557
764.072	0.0142127
764.150	0.0142850
764.228	0.0141688
764.307	0.0141013
764.385	0.0140774
764.463	0.0141048
764.541	0.0139342
764.619	0.0139614
764.697	0.0139936
764.775	0.0139153
764.853	0.0138332
764.932	0.0138725
765.010	0.0138111
765.088	0.0137744
765.166	0.0138744
765.244	0.0137309
765.322	0.0136598
765.400	0.0136456
765.478	0.0137355
765.557	0.0138087
765.635	0.0137999
765.713	0.0136497
765.791	0.0137212
765.869	0.0137344
765.947	0.0137702
766.025	0.0137968
766.103	0.0137594
766.182	0.0139520
766.260	0.0138105
766.338	0.0138017
766.416	0.0139409
766.494	0.0140034
766.572	0.0141037
766.650	0.0142149
766.728	0.0142744
766.807	0.0142662
766.885	0.0142635
766.963	0.0144656
767.041	0.0143238
767.119	0.0144508
767.197	0.0145135
767.275	0.0144294
767.353	0.0144456
767.432	0.0147710
767.510	0.0145364
767.588	0.0146071
767.666	0.0146315
767.744	0.0145276
767.822	0.0146288
767.900	0.0143341
767.978	0.0143542
768.057	0.0142735
768.135	0.0141878
768.213	0.0143431
768.291	0.0142171
768.369	0.0142221
768.447	0.0139354
768.525	0.0137520
768.603	0.0137842
768.682	0.0137663
768.760	0.0136337
768.838	0.0135198
768.916	0.0135158
768.994	0.0133389
769.072	0.0132825
769.150	0.0132900
769.228	0.0132250
769.307	0.0130674
769.385	0.0130357
769.463	0.0130717
769.541	0.0130824
769.619	0.0129384
769.697	0.0130180
769.775	0.0129688
769.853	0.0129985
769.932	0.0131164
770.010	0.0131373
770.088	0.0130247
770.166	0.0132607
770.244	0.0132063
770.322	0.0132440
770.400	0.0133854
770.478	0.0132966
770.557	0.0133688
770.635	0.0135860
770.713	0.0135603
770.791	0.0137827
770.869	0.0137028
770.947	0.0137168
771.025	0.0138038
771.103	0.0139323
771.182	0.0138905
771.260	0.0140389
771.338	0.0140057
771.416	0.0143033
771.494	0.0142136
771.572	0.0143665
771.650	0.0144087
771.728	0.0143800
771.807	0.0143993
771.885	0.0144794
771.963	0.0145737
772.041	0.0145728
772.119	0.0143710
772.197	0.0144986
772.275	0.0145170
772.353	0.0144303
772.432	0.0144630
772.510	0.0143388
772.588	0.0142551
772.666	0.0142976
772.744	0.0142057
772.822	0.0142471
772.900	0.0140212
772.978	0.0139349
773.057	0.0140998
773.135	0.0139272
773.213	0.0137745
773.291	0.0137513
773.369	0.0136163
773.447	0.0135170
773.525	0.0136395
773.603	0.0136100
773.682	0.0135540
773.760	0.0135873
773.838	0.0136243
773.916	0.0133769
773.994	0.0136355
774.072	0.0136023
774.150	0.0136227
774.228	0.0136514
774.307	0.0136695
774.385	0.0135809
774.463	0.0136851
774.541	0.0136362
774.619	0.0137093
774.697	0.0137666
774.775	0.0138087
774.853	0.0137294
774.932	0.0138223
775.010	0.0139212
775.088	0.0138548
775.166	0.0139273
775.244	0.0138156
775.322	0.0137847
775.400	0.0139083
775.478	0.0137798
775.557	0.0139884
775.635	0.0140439
775.713	0.0138969
775.791	0.0139011
775.869	0.0139977
775.947	0.0139532
776.025	0.0139785
776.103	0.0139235
776.182	0.0138414
776.260	0.0138937
776.338	0.0139359
776.416	0.0139419
776.494	0.0139234
776.572	0.0140603
776.650	0.0139621
776.728	0.0139953
776.807	0.0140230
776.885	0.0139499
776.963	0.0139288
777.041	0.0138025
777.119	0.0139741
777.197	0.0142057
777.275	0.0139470
777.353	0.0138987
777.432	0.0139075
777.510	0.0140675
777.588	0.0140714
777.666	0.0139915
777.744	0.0139003
777.822	0.0140004
777.900	0.0138991
777.978	0.0140426
778.057	0.0140854
778.135	0.0140955
778.213	0.0139965
778.291	0.0141125
778.369	0.0141587
778.447	0.0141043
778.525	0.0140645
778.603	0.0139230
778.682	0.0140843
778.760	0.0142533
778.838	0.0141302
778.916	0.0140670
778.994	0.0140678
779.072	0.0140702
779.150	0.0140536
779.228	0.0141988
779.307	0.0141572
779.385	0.0141763
779.463	0.0142052
779.541	0.0140392
779.619	0.0140578
779.697	0.0139583
779.775	0.0140783
779.853	0.0141045
779.932	0.0139690
780.010	0.0138783
780.088	0.0140172
780.166	0.0137104
780.244	0.0137590
780.322	0.0138492
780.400	0.0138643
780.478	0.0137160
780.557	0.0136948
780.635	0.0138156
780.713	0.0136929
780.791	0.0137532
780.869	0.0138184
780.947	0.0138165
781.025	0.0137898
781.103	0.0136839
781.182	0.0137828
781.260	0.0137234
781.338	0.0136298
781.416	0.0138939
781.494	0.0139308
781.572	0.0139579
781.650	0.0139220
781.728	0.0139548
781.807	0.0138689
781.885	0.0139610
781.963	0.0139629
782.041	0.0138410
782.119	0.0139154
782.197	0.0140022
782.275	0.0140692
782.353	0.0139790
782.432	0.0140558
782.510	0.0141544
782.588	0.0142103
782.666	0.0140523
782.744	0.0140462
782.822	0.0140530
782.900	0.0140717
782.978	0.0140865
783.057	0.0141164
783.135	0.0141341
783.213	0.0141250
783.291	0.0140525
783.369	0.0140862
783.447	0.0140084
783.525	0.0140957
783.603	0.0139395
783.682	0.0140018
783.760	0.0138794
783.838	0.0139306
783.916	0.0137778
783.994	0.0140384
784.072	0.0137844
784.150	0.0138045
784.228	0.0138922
784.307	0.0137869
784.385	0.0137906
784.463	0.0136893
784.541	0.0138023
784.619	0.0136560
784.697	0.0135994
784.775	0.0135654
784.853	0.0135851
784.932	0.0134306
785.010	0.0133952
785.088	0.0133877
785.166	0.0134274
785.244	0.0133421
785.322	0.0132378
785.400	0.0132805
785.478	0.0131545
785.557	0.0131877
785.635	0.0132493
785.713	0.0133121
785.791	0.0131005
785.869	0.0131545
785.947	0.0132844
786.025	0.0134201
786.103	0.0133741
786.182	0.0134493
786.260	0.0134332
786.338	0.0136370
786.416	0.0136440
786.494	0.0137138
786.572	0.0137083
786.650	0.0138705
786.728	0.0139444
786.807	0.0139796
786.885	0.0139404
786.963	0.0141908
787.041	0.0142122
787.119	0.0143728
787.197	0.0142316
787.275	0.0145392
787.353	0.0144653
787.432	0.0144293
787.510	0.0145576
787.588	0.0146860
787.666	0.0146011
787.744	0.0146935
787.822	0.0144907
787.900	0.0146603
787.978	0.0146567
788.057	0.0145058
788.135	0.0146052
788.213	0.0145283
788.291	0.0145376
788.369	0.0143704
788.447	0.0142121
788.525	0.0142226
788.603	0.0142075
788.682	0.0141732
788.760	0.0141584
788.838	0.0140290
788.916	0.0140277
788.994	0.0140573
789.072	0.0139210
789.150	0.0138406
789.228	0.0139432
789.307	0.0137991
789.385	0.0136958
789.463	0.0135989
789.541	0.0136943
789.619	0.0135150
789.697	0.0134580
789.775	0.0133542
789.853	0.0134097
789.932	0.0133743
790.010	0.0133064
790.088	0.0132927
790.166	0.0133067
790.244	0.0134266
790.322	0.0133493
790.400	0.0133177
790.478	0.0133186
790.557	0.0134728
790.635	0.0134316
790.713	0.0134694
790.791	0.0136308
790.869	0.0136433
790.947	0.0134989
791.025	0.0135173
791.103	0.0135722
791.182	0.0135857
791.260	0.0135467
791.338	0.0136820
791.416	0.0137793
791.494	0.0137914
791.572	0.0137772
791.650	0.0135944
791.728	0.0138497
791.807	0.0138083
791.885	0.0137997
791.963	0.0137592
792.041	0.0136958
792.119	0.0136935
792.197	0.0137337
792.275	0.0136133
792.353	0.0136633
792.432	0.0136340
792.510	0.0137581
792.588	0.0137909
792.666	0.0136411
792.744	0.0139267
792.822	0.0138340
792.900	0.0140127
792.978	0.0140747
793.057	0.0141110
793.135	0.0141593
793.213	0.0142694
793.291	0.0142989
793.369	0.0143494
793.447	0.0145567
793.525	0.0143317
793.603	0.0145130
793.682	0.0143701
793.760	0.0143648
793.838	0.0143462
793.916	0.0143914
793.994	0.0144006
794.072	0.0144270
794.150	0.0143116
794.228	0.0141494
794.307	0.0141285
794.385	0.0141564
794.463	0.0141129
794.541	0.0142155
794.619	0.0138919
794.697	0.0137919
794.775	0.0138165
794.853	0.0138432
794.932	0.0138409
795.010	0.0138870
795.088	0.0138714
795.166	0.0138561
795.244	0.0139002
795.322	0.0139866
795.400	0.0138566
795.478	0.0141106
795.557	0.0140691
795.635	0.0140166
795.713	0.0139720
795.791	0.0139377
795.869	0.0138943
795.947	0.0138004
796.025	0.0138988
796.103	0.0139035
796.182	0.0138821
796.260	0.0138835
796.338	0.0139572
796.416	0.0138334
796.494	0.0136597
796.572	0.0137648
796.650	0.0136152
796.728	0.0137096
796.807	0.0135842
796.885	0.0136122
796.963	0.0136694
797.041	0.0136639
797.119	0.0136063
797.197	0.0137164
797.275	0.0135912
797.353	0.0136943
797.432	0.0137308
797.510	0.0137890
797.588	0.0137767
797.666	0.0137596
797.744	0.0138390
797.822	0.0138276
797.900	0.0137886
797.978	0.0139193
798.057	0.0138966
798.135	0.0139385
798.213	0.0139462
798.291	0.0139793
798.369	0.0139399
798.447	0.0139240
798.525	0.0140058
798.603	0.0138263
798.682	0.0139390
798.760	0.0139548
798.838	0.0138641
798.916	0.0139096
798.994	0.0138772
799.072	0.0140003
799.150	0.0139971
799.228	0.0137785
799.307	0.0138791
799.385	0.0138317
799.463	0.0139223
799.541	0.0139753
799.619	0.0139153
799.697	0.0138131
799.775	0.0138891
799.853	0.0137769
799.932	0.0139756
800.010	0.0139224
800.088	0.0138950
800.166	0.0140105
800.244	0.0139771
800.322	0.0139246
800.400	0.0141015
800.478	0.0139082
800.557	0.0138591
800.635	0.0140612
800.713	0.0140097
800.791	0.0141052
800.869	0.0139842
800.947	0.0139304
801.025	0.0139952
801.103	0.0139361
801.182	0.0139852
801.260	0.0139745
801.338	0.0139413
801.416	0.0139030
801.494	0.0139873
801.572	0.0138566
801.650	0.0136629
801.728	0.0138385
801.807	0.0136733
801.885	0.0138469
801.963	0.0139858
802.041	0.0138265
802.119	0.0139497
802.197	0.0139403
802.275	0.0139426
802.353	0.0140077
802.432	0.0140494
802.510	0.0141109
802.588	0.0141104
802.666	0.0142740
802.744	0.0141471
802.822	0.0140672
802.900	0.0142435
802.978	0.0142136
803.057	0.0142059
803.135	0.0140810
803.213	0.0141154
803.291	0.0139153
803.369	0.0138733
803.447	0.0140226
803.525	0.0138948
803.603	0.0137022
803.682	0.0136696
803.760	0.0137146
803.838	0.0135784
803.916	0.0136341
803.994	0.0137560
804.072	0.0137975
804.150	0.0137844
804.228	0.0136400
804.307	0.0137351
804.385	0.0138723
804.463	0.0139328
804.541	0.0138664
804.619	0.0139348
804.697	0.0140244
804.775	0.0139651
804.853	0.0140209
804.932	0.0139921
805.010	0.0138812
805.088	0.0141667
805.166	0.0142458
805.244	0.0142250
805.322	0.0142695
805.400	0.0142455
805.478	0.0142784
805.557	0.0142597
805.635	0.0143337
805.713	0.0143492
805.791	0.0143412
805.869	0.0142646
805.947	0.0143438
806.025	0.0142100
806.103	0.0142169
806.182	0.0142118
806.260	0.0140348
806.338	0.0139525
806.416	0.0139648
806.494	0.0139784
806.572	0.0137395
806.650	0.0136989
806.728	0.0136435
806.807	0.0135294
806.885	0.0137097
806.963	0.0137520
807.041	0.0136308
807.119	0.0136489
807.197	0.0138696
807.275	0.0139077
807.353	0.0138577
807.432	0.0141055
807.510	0.0141143
807.588	0.0140305
807.666	0.0141434
807.744	0.0141408
807.822	0.0141573
807.900	0.0142294
807.978	0.0140533
808.057	0.0140889
808.135	0.0140700
808.213	0.0140240
808.291	0.0140417
808.369	0.0140527
808.447	0.0140565
808.525	0.0140086
808.603	0.0140942
808.682	0.0141256
808.760	0.0139762
808.838	0.0141476
808.916	0.0141685
808.994	0.0139092
809.072	0.0139246
809.150	0.0140427
809.228	0.0141768
809.307	0.0140636
809.385	0.0139516
809.463	0.0139787
809.541	0.0139938
809.619	0.0140489
809.697	0.0141360
809.775	0.0141333
809.853	0.0141581
809.932	0.0141814
810.010	0.0141567
810.088	0.0141885
810.166	0.0141029
810.244	0.0140402
810.322	0.0139785
810.400	0.0140123
810.478	0.0140394
810.557	0.0140946
810.635	0.0139697
810.713	0.0139915
810.791	0.0138400
810.869	0.0138527
810.947	0.0137942
811.025	0.0139187
811.103	0.0138466
811.182	0.0138356
811.260	0.0136823
811.338	0.0136995
811.416	0.0138829
811.494	0.0137551
811.572	0.0136586
811.650	0.0136107
811.728	0.0136771
811.807	0.0136339
811.885	0.0135972
811.963	0.0136469
812.041	0.0136330
812.119	0.0136221
812.197	0.0133968
812.275	0.0136632
812.353	0.0136159
812.432	0.0135234
812.510	0.0135774
812.588	0.0136912
812.666	0.0136277
812.744	0.0137464
812.822	0.0137738
812.900	0.0138372
812.978	0.0139777
813.057	0.0141414
813.135	0.0143250
813.213	0.0143524
813.291	0.0143041
813.369	0.0146612
813.447	0.0145557
813.525	0.0145202
813.603	0.0145854
813.682	0.0146586
813.760	0.0145986
813.838	0.0145376
813.916	0.0146156
813.994	0.0142530
814.072	0.0141519
814.150	0.0140738
814.228	0.0138557
814.307	0.0136900
814.385	0.0136789
814.463	0.0135275
814.541	0.0133649
814.619	0.0133909
814.697	0.0135210
814.775	0.0133508
814.853	0.0134448
814.932	0.0135303
815.010	0.0134842
815.088	0.0135266
815.166	0.0136796
815.244	0.0136521
815.322	0.0137953
815.400	0.0137444
815.478	0.0140554
815.557	0.0140205
815.635	0.0141759
815.713	0.0141638
815.791	0.0143136
815.869	0.0143049
815.947	0.0142724
816.025	0.0142281
816.103	0.0142333
816.182	0.0143323
816.260	0.0143503
816.338	0.0141743
816.416	0.0140278
816.494	0.0139178
816.572	0.0139249
816.650	0.0138544
816.728	0.0139600
816.807	0.0138567
816.885	0.0138693
816.963	0.0136659
817.041	0.0136966
817.119	0.0137112
817.197	0.0137896
817.275	0.0137678
817.353	0.0138731
817.432	0.0137338
817.510	0.0137125
817.588	0.0139468
817.666	0.0138726
817.744	0.0140123
817.822	0.0140062
817.900	0.0141019
817.978	0.0141569
818.057	0.0142059
818.135	0.0143428
818.213	0.0144595
818.291	0.0143973
818.369	0.0143265
818.447	0.0144775
818.525	0.0144222
818.603	0.0143440
818.682	0.0144125
818.760	0.0145707
818.838	0.0144845
818.916	0.0143853
818.994	0.0144888
819.072	0.0144447
819.150	0.0143954
819.228	0.0142690
819.307	0.0143787
819.385	0.0142345
819.463	0.0142139
819.541	0.0140980
819.619	0.0139435
819.697	0.0139710
819.775	0.0139387
819.853	0.0138419
819.932	0.0136572
820.010	0.0135348
820.088	0.0135696
820.166	0.0136093
820.244	0.0138087
820.322	0.0137834
820.400	0.0137769
820.478	0.0139105
820.557	0.0141455
820.635	0.0140287
820.713	0.0143286
820.791	0.0143761
820.869	0.0143576
820.947	0.0146104
821.025	0.0145335
821.103	0.0146667
821.182	0.0145576
821.260	0.0144866
821.338	0.0144179
821.416	0.0144312
821.494	0.0143966
821.572	0.0141028
821.650	0.0139723
821.728	0.0139129
821.807	0.0137387
821.885	0.0135629
821.963	0.0135644
822.041	0.0134554
822.119	0.0134581
822.197	0.0135106
822.275	0.0135477
822.353	0.0134757
822.432	0.0135121
822.510	0.0135744
822.588	0.0137052
822.666	0.0138565
822.744	0.0139317
822.822	0.0139610
822.900	0.0140840
822.978	0.0141188
823.057	0.0142368
823.135	0.0142196
823.213	0.0142667
823.291	0.0142305
823.369	0.0143475
823.447	0.0145059
823.525	0.0144229
823.603	0.0144077
823.682	0.0144611
823.760	0.0144058
823.838	0.0142940
823.916	0.0145023
823.994	0.0143698
824.072	0.0143936
824.150	0.0142470
824.228	0.0144505
824.307	0.0144095
824.385	0.0143089
824.463	0.0143765
824.541	0.0143501
824.619	0.0142474
824.697	0.0142005
824.775	0.0141102
824.853	0.0139931
824.932	0.0140100
825.010	0.0140688
825.088	0.0140031
825.166	0.0137534
825.244	0.0138384
825.322	0.0136938
825.400	0.0137785
825.478	0.0137768
825.557	0.0136359
825.635	0.0137266
825.713	0.0137476
825.791	0.0138322
825.869	0.0137621
825.947	0.0139540
826.025	0.0138772
826.103	0.0139246
826.182	0.0139993
826.260	0.0138499
826.338	0.0139374
826.416	0.0139753
826.494	0.0139404
826.572	0.0137392
826.650	0.0138471
826.728	0.0137186
826.807	0.0136137
826.885	0.0135881
826.963	0.0136457
827.041	0.0135128
827.119	0.0134569
827.197	0.0134434
827.275	0.0134673
827.353	0.0134718
827.432	0.0134559
827.510	0.0135055
827.588	0.0135225
827.666	0.0134364
827.744	0.0135860
827.822	0.0137329
827.900	0.0137405
827.978	0.0138298
828.057	0.0137672
828.135	0.0139185
828.213	0.0139717
828.291	0.0139764
828.369	0.0140820
828.447	0.0140016
828.525	0.0141187
828.603	0.0141103
828.682	0.0141666
828.760	0.0143058
828.838	0.0144162
828.916	0.0142828
828.994	0.0141982
829.072	0.0141682
829.150	0.0142902
829.228	0.0142802
829.307	0.0143275
829.385	0.0141301
829.463	0.0141203
829.541	0.0141495
829.619	0.0140455
829.697	0.0140790
829.775	0.0140024
829.853	0.0139828
829.932	0.0138902
830.010	0.0139594
830.088	0.0137030
830.166	0.0136156
830.244	0.0136395
830.322	0.0135687
830.400	0.0137142
830.478	0.0138127
830.557	0.0136187
830.635	0.0136412
830.713	0.0137225
830.791	0.0137646
830.869	0.0137617
830.947	0.0138828
831.025	0.0137009
831.103	0.0138698
831.182	0.0138895
831.260	0.0139130
831.338	0.0138423
831.416	0.0141727
831.494	0.0140841
831.572	0.0141444
831.650	0.0143277
831.728	0.0143416
831.807	0.0144009
831.885	0.0144278
831.963	0.0143052
832.041	0.0142525
832.119	0.0143279
832.197	0.0141704
832.275	0.0142404
832.353	0.0142336
832.432	0.0140519
832.510	0.0138841
832.588	0.0138625
832.666	0.0140350
832.744	0.0138710
832.822	0.0137327
832.900	0.0135564
832.978	0.0137067
833.057	0.0136602
833.135	0.0134779
833.213	0.0133979
833.291	0.0135031
833.369	0.0133793
833.447	0.0133727
833.525	0.0133446
833.603	0.0132534
833.682	0.0131990
833.760	0.0132894
833.838	0.0132982
833.916	0.0133970
833.994	0.0134670
834.072	0.0136481
834.150	0.0136312
834.228	0.0138584
834.307	0.0138840
834.385	0.0142634
834.463	0.0141901
834.541	0.0142838
834.619	0.0143346
834.697	0.0144722
834.775	0.0145258
834.853	0.0145545
834.932	0.0144716
835.010	0.0145535
835.088	0.0145061
835.166	0.0145008
835.244	0.0144899
835.322	0.0143841
835.400	0.0144071
835.478	0.0142622
835.557	0.0142178
835.635	0.0142497
835.713	0.0141737
835.791	0.0140057
835.869	0.0140147
835.947	0.0139595
836.025	0.0140136
836.103	0.0140708
836.182	0.0139515
836.260	0.0138540
836.338	0.0139868
836.416	0.0139241
836.494	0.0137008
836.572	0.0137312
836.650	0.0138084
836.728	0.0135043
836.807	0.0135744
836.885	0.0135187
836.963	0.0135488
837.041	0.0135041
837.119	0.0135424
837.197	0.0135694
837.275	0.0135255
837.353	0.0134206
837.432	0.0135641
837.510	0.0138048
837.588	0.0136605
837.666	0.0137199
837.744	0.0137022
837.822	0.0137682
837.900	0.0139012
837.978	0.0137881
838.057	0.0138065
838.135	0.0138053
838.213	0.0137125
838.291	0.0137315
838.369	0.0137428
838.447	0.0138890
838.525	0.0139417
838.603	0.0138171
838.682	0.0140045
838.760	0.0140562
838.838	0.0139481
838.916	0.0142364
838.994	0.0142145
839.072	0.0141840
839.150	0.0143018
839.228	0.0142927
839.307	0.0143825
839.385	0.0141978
839.463	0.0141515
839.541	0.0143346
839.619	0.0142407
839.697	0.0141615
839.775	0.0142566
839.853	0.0142000
839.932	0.0141447
840.010	0.0140470
840.088	0.0140559
840.166	0.0141505
840.244	0.0141570
840.322	0.0140978
840.400	0.0141586
840.478	0.0142146
840.557	0.0140536
840.635	0.0142413
840.713	0.0140921
840.791	0.0140441
840.869	0.0142204
840.947	0.0140755
841.025	0.0139753
841.103	0.0141768
841.182	0.0139245
841.260	0.0138634
841.338	0.0140333
841.416	0.0140785
841.494	0.0140492
841.572	0.0138947
841.650	0.0139899
841.728	0.0140285
841.807	0.0140840
841.885	0.0141532
841.963	0.0141258
842.041	0.0140776
842.119	0.0141467
842.197	0.0140179
842.275	0.0139910
842.353	0.0141772
842.432	0.0141149
842.510	0.0140672
842.588	0.0141796
842.666	0.0142467
842.744	0.0143040
842.822	0.0142554
842.900	0.0144536
842.978	0.0142257
843.057	0.0142971
843.135	0.0141978
843.213	0.0142398
843.291	0.0142979
843.369	0.0144032
843.447	0.0141694
843.525	0.0141718
843.603	0.0142363
843.682	0.0141066
843.760	0.0141232
843.838	0.0141071
843.916	0.0140307
843.994	0.0140567
844.072	0.0139301
844.150	0.0138958
844.228	0.0138755
844.307	0.0138136
844.385	0.0137360
844.463	0.0136392
844.541	0.0136967
844.619	0.0136781
844.697	0.0136466
844.775	0.0136796
844.853	0.0135517
844.932	0.0135777
845.010	0.0137440
845.088	0.0138046
845.166	0.0136236
845.244	0.0136266
845.322	0.0135851
845.400	0.0135850
845.478	0.0137186
845.557	0.0136522
845.635	0.0136687
845.713	0.0137390
845.791	0.0137653
845.869	0.0138387
845.947	0.0139480
846.025	0.0139588
846.103	0.0140462
846.182	0.0140327
846.260	0.0142333
846.338	0.0142380
846.416	0.0141127
846.494	0.0142458
846.572	0.0144422
846.650	0.0144293
846.728	0.0144259
846.807	0.0144566
846.885	0.0143221
846.963	0.0144228
847.041	0.0143668
847.119	0.0143092
847.197	0.0142548
847.275	0.0143034
847.353	0.0142581
847.432	0.0140060
847.510	0.0139328
847.588	0.0139841
847.666	0.0138798
847.744	0.0138470
847.822	0.0138338
847.900	0.0137688
847.978	0.0138419
848.057	0.0139012
848.135	0.0136678
848.213	0.0137765
848.291	0.0137746
848.369	0.0136453
848.447	0.0135772
848.525	0.0137306
848.603	0.0137200
848.682	0.0139280
848.760	0.0137142
848.838	0.0137687
848.916	0.0138024
848.994	0.0138363
849.072	0.0137289
849.150	0.0137437
849.228	0.0138086
849.307	0.0138425
849.385	0.0136733
849.463	0.0138766
849.541	0.0139416
849.619	0.0137433
849.697	0.0139987
849.775	0.0139880
849.853	0.0139577
849.932	0.0139628
850.010	0.0138752
850.088	0.0139782
850.166	0.0137853
850.244	0.0139735
850.322	0.0140016
850.400	0.0140017
850.478	0.0139400
850.557	0.0140925
850.635	0.0141668
850.713	0.0141405
850.791	0.0140331
850.869	0.0140543
850.947	0.0140394
851.025	0.0141003
851.103	0.0140601
851.182	0.0140749
851.260	0.0142839
851.338	0.0141908
851.416	0.0141573
851.494	0.0139746
851.572	0.0140369
851.650	0.0139893
851.728	0.0139426
851.807	0.0138833
851.885	0.0139127
851.963	0.0138363
852.041	0.0138541
852.119	0.0138158
852.197	0.0137628
852.275	0.0136710
852.353	0.0135996
852.432	0.0136826
852.510	0.0138552
852.588	0.0137608
852.666	0.0139133
852.744	0.0136785
852.822	0.0137272
852.900	0.0137119
852.978	0.0136308
853.057	0.0137196
853.135	0.0135268
853.213	0.0137135
853.291	0.0137164
853.369	0.0137772
853.447	0.0135791
853.525	0.0137447
853.603	0.0139488
853.682	0.0137909
853.760	0.0139697
853.838	0.0139257
853.916	0.0137817
853.994	0.0138886
854.072	0.0139005
854.150	0.0140820
854.228	0.0140389
854.307	0.0139678
854.385	0.0138953
854.463	0.0138050
854.541	0.0137724
854.619	0.0140714
854.697	0.0138170
854.775	0.0136327
854.853	0.0136386
854.932	0.0137028
855.010	0.0136148
855.088	0.0135650
855.166	0.0134645
855.244	0.0135813
855.322	0.0137658
855.400	0.0135336
855.478	0.0134550
855.557	0.0135071
855.635	0.0135769
855.713	0.0136280
855.791	0.0136654
855.869	0.0135985
855.947	0.0137137
856.025	0.0136458
856.103	0.0137107
856.182	0.0137801
856.260	0.0138236
856.338	0.0138740
856.416	0.0136920
856.494	0.0136469
856.572	0.0137415
856.650	0.0139092
856.728	0.0139323
856.807	0.0141103
856.885	0.0139628
856.963	0.0138860
857.041	0.0140295
857.119	0.0141756
857.197	0.0141167
857.275	0.0140628
857.353	0.0141587
857.432	0.0141428
857.510	0.0141811
857.588	0.0141779
857.666	0.0141718
857.744	0.0141563
857.822	0.0142576
857.900	0.0143953
857.978	0.0142445
858.057	0.0144480
858.135	0.0142139
858.213	0.0143385
858.291	0.0142493
858.369	0.0143636
858.447	0.0141836
858.525	0.0141984
858.603	0.0142137
858.682	0.0140054
858.760	0.0140304
858.838	0.0139931
858.916	0.0137908
858.994	0.0138138
859.072	0.0137426
859.150	0.0137522
859.228	0.0137391
859.307	0.0136166
859.385	0.0135789
859.463	0.0135918
859.541	0.0135322
859.619	0.0134117
859.697	0.0135177
859.775	0.0133941
859.853	0.0132136
859.932	0.0133430
860.010	0.0135782
860.088	0.0132874
860.166	0.0132368
860.244	0.0133562
860.322	0.0133305
860.400	0.0135414
860.478	0.0135387
860.557	0.0135115
860.635	0.0135844
860.713	0.0136654
860.791	0.0137962
860.869	0.0138087
860.947	0.0139170
861.025	0.0138979
861.103	0.0138594
861.182	0.0139448
861.260	0.0141123
861.338	0.0140131
861.416	0.0140138
861.494	0.0141783
861.572	0.0142152
861.650	0.0142056
861.728	0.0141793
861.807	0.0142738
861.885	0.0142457
861.963	0.0143224
862.041	0.0141224
862.119	0.0142188
862.197	0.0142471
862.275	0.0142228
862.353	0.0142771
862.432	0.0143546
862.510	0.0142390
862.588	0.0143118
862.666	0.0142995
862.744	0.0141988
862.822	0.0140959
862.900	0.0142229
862.978	0.0142675
863.057	0.0141995
863.135	0.0143563
863.213	0.0141748
863.291	0.0140486
863.369	0.0139230
863.447	0.0139571
863.525	0.0140823
863.603	0.0139902
863.682	0.0140328
863.760	0.0138270
863.838	0.0137131
863.916	0.0136784
863.994	0.0137675
864.072	0.0138702
864.150	0.0137990
864.228	0.0137304
864.307	0.0138453
864.385	0.0137395
864.463	0.0139142
864.541	0.0138618
864.619	0.0137591
864.697	0.0139020
864.775	0.0139653
864.853	0.0139130
864.932	0.0139972
865.010	0.0140913
865.088	0.0139510
865.166	0.0138900
865.244	0.0140936
865.322	0.0140408
865.400	0.0140342
865.478	0.0141764
865.557	0.0141510
865.635	0.0140511
865.713	0.0140911
865.791	0.0142550
865.869	0.0142359
865.947	0.0142179
866.025	0.0142867
866.103	0.0143385
866.182	0.0143066
866.260	0.0143533
866.338	0.0144226
866.416	0.0144028
866.494	0.0144924
866.572	0.0142830
866.650	0.0142590
866.728	0.0145158
866.807	0.0143513
866.885	0.0142943
866.963	0.0141094
867.041	0.0142001
867.119	0.0140260
867.197	0.0140125
867.275	0.0140769
867.353	0.0139310
867.432	0.0138732
867.510	0.0138489
867.588	0.0138673
867.666	0.0137045
867.744	0.0137039
867.822	0.0136795
867.900	0.0137283
867.978	0.0136087
868.057	0.0135702
868.135	0.0135877
868.213	0.0135432
868.291	0.0137153
868.369	0.0136803
868.447	0.0136668
868.525	0.0136863
868.603	0.0137177
868.682	0.0137247
868.760	0.0137350
868.838	0.0137759
868.916	0.0137586
868.994	0.0136944
869.072	0.0139793
869.150	0.0139268
869.228	0.0138072
869.307	0.0140338
869.385	0.0138615
869.463	0.0140942
869.541	0.0141296
869.619	0.0139840
869.697	0.0140327
869.775	0.0140989
869.853	0.0140418
869.932	0.0140494
870.010	0.0140784
870.088	0.0139449
870.166	0.0140653
870.244	0.0141472
870.322	0.0140565
870.400	0.0139268
870.478	0.0140703
870.557	0.0140004
870.635	0.0140604
870.713	0.0140689
870.791	0.0139655
870.869	0.0138925
870.947	0.0139974
871.025	0.0139461
871.103	0.0139442
871.182	0.0139751
871.260	0.0139513
871.338	0.0137501
871.416	0.0138526
871.494	0.0137370
871.572	0.0137558
871.650	0.0137769
871.728	0.0137193
871.807	0.0136418
871.885	0.0136559
871.963	0.0138065
872.041	0.0136839
872.119	0.0136884
872.197	0.0137263
872.275	0.0139063
872.353	0.0138824
872.432	0.0138538
872.510	0.0138268
872.588	0.0139938
872.666	0.0137016
872.744	0.0137821
872.822	0.0138502
872.900	0.0137051
872.978	0.0139731
873.057	0.0139896
873.135	0.0140146
873.213	0.0139433
873.291	0.0139183
873.369	0.0139153
873.447	0.0139313
873.525	0.0141657
873.603	0.0141315
873.682	0.0140769
873.760	0.0141513
873.838	0.0142190
873.916	0.0139807
873.994	0.0140144
874.072	0.0140780
874.150	0.0140418
874.228	0.0140367
874.307	0.0140841
874.385	0.0139821
874.463	0.0139338
874.541	0.0140631
874.619	0.0139892
874.697	0.0138561
874.775	0.0139162
874.853	0.0139593
874.932	0.0138782
875.010	0.0137804
875.088	0.0139065
875.166	0.0140205
875.244	0.0139069
875.322	0.0137740
875.400	0.0138213
875.478	0.0139402
875.557	0.0139819
875.635	0.0137082
875.713	0.0137283
875.791	0.0137482
875.869	0.0138093
875.947	0.0138601
876.025	0.0137847
876.103	0.0137469
876.182	0.0137241
876.260	0.0137664
876.338	0.0137042
876.416	0.0138116
876.494	0.0138507
876.572	0.0138254
876.650	0.0137607
876.728	0.0137219
876.807	0.0140082
876.885	0.0139542
876.963	0.0140371
877.041	0.0139558
877.119	0.0141302
877.197	0.0140007
877.275	0.0140250
877.353	0.0140714
877.432	0.0141571
877.510	0.0140546
877.588	0.0141536
877.666	0.0142773
877.744	0.0142414
877.822	0.0142406
877.900	0.0142572
877.978	0.0142097
878.057	0.0142464
878.135	0.0143083
878.213	0.0143045
878.291	0.0141702
878.369	0.0141023
878.447	0.0142073
878.525	0.0141113
878.603	0.0142307
878.682	0.0141172
878.760	0.0140691
878.838	0.0139741
878.916	0.0140582
878.994	0.0139396
879.072	0.0139951
879.150	0.0139905
879.228	0.0139706
879.307	0.0138916
879.385	0.0139458
879.463	0.0139472
879.541	0.0138330
879.619	0.0137582
879.697	0.0137742
879.775	0.0138316
879.853	0.0138445
879.932	0.0137305
880.010	0.0136371
880.088	0.0135889
880.166	0.0136909
880.244	0.0137060
880.322	0.0136319
880.400	0.0135416
880.478	0.0135801
880.557	0.0137040
880.635	0.0135639
880.713	0.0136271
880.791	0.0136197
880.869	0.0136218
880.947	0.0136908
881.025	0.0137537
881.103	0.0138702
881.182	0.0137563
881.260	0.0138096
881.338	0.0138864
881.416	0.0139272
881.494	0.0139531
881.572	0.0139304
881.650	0.0139686
881.728	0.0140609
881.807	0.0141073
881.885	0.0139713
881.963	0.0141177
882.041	0.0140923
882.119	0.0143066
882.197	0.0141504
882.275	0.0141437
882.353	0.0141869
882.432	0.0143188
882.510	0.0141579
882.588	0.0142361
882.666	0.0141032
882.744	0.0142310
882.822	0.0143166
882.900	0.0141868
882.978	0.0142024
883.057	0.0141983
883.135	0.0141368
883.213	0.0141540
883.291	0.0139557
883.369	0.0140878
883.447	0.0141367
883.525	0.0141180
883.603	0.0139310
883.682	0.0138792
883.760	0.0139127
883.838	0.0138325
883.916	0.0138337
883.994	0.0138708
884.072	0.0138361
884.150	0.0138484
884.228	0.0137836
884.307	0.0138502
884.385	0.0137763
884.463	0.0137575
884.541	0.0138152
884.619	0.0137890
884.697	0.0138042
884.775	0.0138413
884.853	0.0137865
884.932	0.0137351
885.010	0.0137180
885.088	0.0138105
885.166	0.0138016
885.244	0.0138716
885.322	0.0137413
885.400	0.0136456
885.478	0.0138431
885.557	0.0137704
885.635	0.0138568
885.713	0.0137509
885.791	0.0140038
885.869	0.0139755
885.947	0.0139992
886.025	0.0140959
886.103	0.0139274
886.182	0.0139900
886.260	0.0141793
886.338	0.0140362
886.416	0.0141183
886.494	0.0141376
886.572	0.0140688
886.650	0.0140878
886.728	0.0139434
886.807	0.0139333
886.885	0.0140273
886.963	0.0140617
887.041	0.0139355
887.119	0.0138282
887.197	0.0138719
887.275	0.0139611
887.353	0.0137984
887.432	0.0139202
887.510	0.0139987
887.588	0.0139156
887.666	0.0137647
887.744	0.0139132
887.822	0.0139570
887.900	0.0139012
887.978	0.0139629
888.057	0.0138758
888.135	0.0139112
888.213	0.0138616
888.291	0.0138610
888.369	0.0138722
888.447	0.0138219
888.525	0.0138823
888.603	0.0139294
888.682	0.0139949
888.760	0.0138306
888.838	0.0139088
888.916	0.0139973
888.994	0.0137469
889.072	0.0137824
889.150	0.0139115
889.228	0.0137778
889.307	0.0138434
889.385	0.0138965
889.463	0.0138213
889.541	0.0138887
889.619	0.0138213
889.697	0.0137231
889.775	0.0137669
889.853	0.0138129
889.932	0.0138105
890.010	0.0137067
890.088	0.0136654
890.166	0.0137141
890.244	0.0138359
890.322	0.0138204
890.400	0.0137531
890.478	0.0136995
890.557	0.0137094
890.635	0.0138754
890.713	0.0138672
890.791	0.0140310
890.869	0.0138930
890.947	0.0138385
891.025	0.0140471
891.103	0.0139362
891.182	0.0140337
891.260	0.0140896
891.338	0.0141683
891.416	0.0141740
891.494	0.0142770
891.572	0.0142866
891.650	0.0142039
891.728	0.0140903
891.807	0.0143198
891.885	0.0143055
891.963	0.0141698
892.041	0.0142692
892.119	0.0142854
892.197	0.0141766
892.275	0.0140509
892.353	0.0141322
892.432	0.0141451
892.510	0.0143867
892.588	0.0142304
892.666	0.0142550
892.744	0.0143465
892.822	0.0142621
892.900	0.0140956
892.978	0.0141670
893.057	0.0140540
893.135	0.0141593
893.213	0.0142023
893.291	0.0140299
893.369	0.0143233
893.447	0.0141961
893.525	0.0142231
893.603	0.0142288
893.682	0.0141432
893.760	0.0142576
893.838	0.0141449
893.916	0.0141236
893.994	0.0141082
894.072	0.0143237
894.150	0.0140907
894.228	0.0141098
894.307	0.0140567
894.385	0.0140472
894.463	0.0141249
894.541	0.0140891
894.619	0.0139676
894.697	0.0140673
894.775	0.0138109
894.853	0.0138246
894.932	0.0137704
895.010	0.0137379
895.088	0.0138651
895.166	0.0138199
895.244	0.0137819
895.322	0.0137611
895.400	0.0137723
895.478	0.0137401
895.557	0.0136775
895.635	0.0137009
895.713	0.0139385
895.791	0.0138212
895.869	0.0138204
895.947	0.0138757
896.025	0.0139008
896.103	0.0139124
896.182	0.0139529
896.260	0.0138756
896.338	0.0139256
896.416	0.0140672
896.494	0.0141466
896.572	0.0141560
896.650	0.0142410
896.728	0.0141676
896.807	0.0141721
896.885	0.0142751
896.963	0.0141460
897.041	0.0141453
897.119	0.0143665
897.197	0.0143047
897.275	0.0141446
897.353	0.0141836
897.432	0.0141496
897.510	0.0140025
897.588	0.0140576
897.666	0.0140505
897.744	0.0139102
897.822	0.0139226
897.900	0.0140958
897.978	0.0138896
898.057	0.0138890
898.135	0.0140332
898.213	0.0139336
898.291	0.0139754
898.369	0.0138131
898.447	0.0138062
898.525	0.0138132
898.603	0.0139223
898.682	0.0139759
898.760	0.0138337
898.838	0.0139069
898.916	0.0140324
898.994	0.0139417
899.072	0.0139166
899.150	0.0141068
899.228	0.0139917
899.307	0.0140260
899.385	0.0142072
899.463	0.0139687
899.541	0.0140159
899.619	0.0141552
899.697	0.0141348
899.775	0.0140588
899.853	0.0141228
899.932	0.0140990
900.010	0.0140072
900.088	0.0141756
900.166	0.0141829
900.244	0.0140782
900.322	0.0140958
900.400	0.0139732
900.478	0.0139323
900.557	0.0141304
900.635	0.0141351
900.713	0.0142316
900.791	0.0141016
900.869	0.0141299
900.947	0.0141857
901.025	0.0141256
901.103	0.0139859
901.182	0.0140699
901.260	0.0140841
901.338	0.0140468
901.416	0.0139978
901.494	0.0140268
901.572	0.0139685
901.650	0.0138911
901.728	0.0139423
901.807	0.0140169
901.885	0.0138576
901.963	0.0138005
902.041	0.0138105
902.119	0.0138400
902.197	0.0138140
902.275	0.0137404
902.353	0.0138351
902.432	0.0137041
902.510	0.0136558
902.588	0.0137605
902.666	0.0136446
902.744	0.0137611
902.822	0.0138128
902.900	0.0136453
902.978	0.0136821
903.057	0.0138210
903.135	0.0136437
903.213	0.0137394
903.291	0.0138824
903.369	0.0137783
903.447	0.0137045
903.525	0.0139661
903.603	0.0138723
903.682	0.0138990
903.760	0.0139262
903.838	0.0140048
903.916	0.0139365
903.994	0.0139757
904.072	0.0140337
904.150	0.0139454
904.228	0.0140543
904.307	0.0140634
904.385	0.0140170
904.463	0.0140973
904.541	0.0139906
904.619	0.0139541
904.697	0.0140916
904.775	0.0141192
904.853	0.0141300
904.932	0.0141266
905.010	0.0141603
905.088	0.0141965
905.166	0.0141798
905.244	0.0141231
905.322	0.0142115
905.400	0.0141659
905.478	0.0140907
905.557	0.0142208
905.635	0.0141466
905.713	0.0140602
905.791	0.0140703
905.869	0.0142448
905.947	0.0141641
906.025	0.0141916
906.103	0.0141098
906.182	0.0141341
906.260	0.0141043
906.338	0.0142413
906.416	0.0142541
906.494	0.0142386
906.572	0.0141489
906.650	0.0141020
906.728	0.0141386
906.807	0.0140659
906.885	0.0141321
906.963	0.0143022
907.041	0.0140778
907.119	0.0139751
907.197	0.0140915
907.275	0.0140526
907.353	0.0139744
907.432	0.0138956
907.510	0.0139320
907.588	0.0139102
907.666	0.0138706
907.744	0.0137579
907.822	0.0137276
907.900	0.0137863
907.978	0.0136951
908.057	0.0138229
908.135	0.0138226
908.213	0.0138268
908.291	0.0137229
908.369	0.0138220
908.447	0.0137251
908.525	0.0137709
908.603	0.0136326
908.682	0.0137919
908.760	0.0136694
908.838	0.0137184
908.916	0.0138265
908.994	0.0137258
909.072	0.0138094
909.150	0.0138150
909.228	0.0136917
909.307	0.0138200
909.385	0.0138713
909.463	0.0138393
909.541	0.0138315
909.619	0.0138595
909.697	0.0139159
909.775	0.0139693
909.853	0.0139822
909.932	0.0140353
910.010	0.0139309
910.088	0.0137752
910.166	0.0139249
910.244	0.0138879
910.322	0.0139234
910.400	0.0140699
910.478	0.0140491
910.557	0.0140353
910.635	0.0138953
910.713	0.0140543
910.791	0.0139980
910.869	0.0140216
910.947	0.0139758
911.025	0.0142204
911.103	0.0141061
911.182	0.0140334
911.260	0.0140150
911.338	0.0141096
911.416	0.0141076
911.494	0.0140057
911.572	0.0141000
911.650	0.0139204
911.728	0.0141074
911.807	0.0140966
911.885	0.0139345
911.963	0.0139219
912.041	0.0139490
912.119	0.0139960
912.197	0.0139033
912.275	0.0139933
912.353	0.0138863
912.432	0.0139107
912.510	0.0140845
912.588	0.0139483
912.666	0.0140025
912.744	0.0139075
912.822	0.0140318
912.900	0.0139474
912.978	0.0141055
913.057	0.0141279
913.135	0.0138786
913.213	0.0139855
913.291	0.0140309
913.369	0.0140308
913.447	0.0139162
913.525	0.0140116
913.603	0.0141309
913.682	0.0141271
913.760	0.0140440
913.838	0.0140227
913.916	0.0141361
913.994	0.0139944
914.072	0.0140674
914.150	0.0140539
914.228	0.0140640
914.307	0.0139249
914.385	0.0138907
914.463	0.0140698
914.541	0.0139825
914.619	0.0139659
914.697	0.0138998
914.775	0.0139268
914.853	0.0138549
914.932	0.0139975
915.010	0.0139870
915.088	0.0138805
915.166	0.0138466
915.244	0.0138223
915.322	0.0140284
915.400	0.0138496
915.478	0.0137711
915.557	0.0138377
915.635	0.0139372
915.713	0.0140660
915.791	0.0138602
915.869	0.0138441
915.947	0.0139970
916.025	0.0139682
916.103	0.0139266
916.182	0.0138089
916.260	0.0139945
916.338	0.0138880
916.416	0.0139203
916.494	0.0138837
916.572	0.0138861
916.650	0.0139632
916.728	0.0140141
916.807	0.0140131
916.885	0.0139395
916.963	0.0140446
917.041	0.0138838
917.119	0.0140033
917.197	0.0138801
917.275	0.0139985
917.353	0.0140303
917.432	0.0140111
917.510	0.0140136
917.588	0.0139758
917.666	0.0139091
917.744	0.0140405
917.822	0.0139991
917.900	0.0138358
917.978	0.0138348
918.057	0.0138876
918.135	0.0138381
918.213	0.0137292
918.291	0.0138611
918.369	0.0136595
918.447	0.0136903
918.525	0.0136797
918.603	0.0138002
918.682	0.0138181
918.760	0.0137048
918.838	0.0137717
918.916	0.0138609
918.994	0.0138017
919.072	0.0139510
919.150	0.0137698
919.228	0.0137633
919.307	0.0139059
919.385	0.0137929
919.463	0.0137757
919.541	0.0139016
919.619	0.0139447
919.697	0.0138814
919.775	0.0140402
919.853	0.0141547
919.932	0.0141380
920.010	0.0141157
920.088	0.0141509
920.166	0.0142278
920.244	0.0141092
920.322	0.0142690
920.400	0.0140397
920.478	0.0141689
920.557	0.0141726
920.635	0.0141857
920.713	0.0141803
920.791	0.0142089
920.869	0.0140416
920.947	0.0141814
921.025	0.0140910
921.103	0.0141470
921.182	0.0141522
921.260	0.0140358
921.338	0.0139626
921.416	0.0141650
921.494	0.0139177
921.572	0.0139874
921.650	0.0140757
921.728	0.0140810
921.807	0.0140935
921.885	0.0140347
921.963	0.0140735
922.041	0.0141393
922.119	0.0140736
922.197	0.0141236
922.275	0.0141939
922.353	0.0139339
922.432	0.0140432
922.510	0.0139733
922.588	0.0138597
922.666	0.0140540
922.744	0.0140779
922.822	0.0138791
922.900	0.0139449
922.978	0.0139294
923.057	0.0138949
923.135	0.0139038
923.213	0.0137258
923.291	0.0137829
923.369	0.0138490
923.447	0.0138145
923.525	0.0138756
923.603	0.0138044
923.682	0.0137760
923.760	0.0138132
923.838	0.0138365
923.916	0.0137528
923.994	0.0138693
924.072	0.0139455
924.150	0.0137629
924.228	0.0137791
924.307	0.0139289
924.385	0.0138860
924.463	0.0137968
924.541	0.0138671
924.619	0.0138096
924.697	0.0139031
924.775	0.0138869
924.853	0.0139510
924.932	0.0140339
925.010	0.0141143
925.088	0.0140089
925.166	0.0141325
925.244	0.0140541
925.322	0.0140903
925.400	0.0140941
925.478	0.0141131
925.557	0.0141924
925.635	0.0141093
925.713	0.0140807
925.791	0.0140887
925.869	0.0141808
925.947	0.0141303
926.025	0.0140382
926.103	0.0140852
926.182	0.0142059
926.260	0.0141483
926.338	0.0141858
926.416	0.0140961
926.494	0.0141596
926.572	0.0142383
926.650	0.0141022
926.728	0.0140301
926.807	0.0140660
926.885	0.0141669
926.963	0.0141055
927.041	0.0140557
927.119	0.0139192
927.197	0.0139650
927.275	0.0138678
927.353	0.0138934
927.432	0.0139439
927.510	0.0138659
927.588	0.0139420
927.666	0.0139701
927.744	0.0137586
927.822	0.0139643
927.900	0.0139211
927.978	0.0138187
928.057	0.0139687
928.135	0.0138939
928.213	0.0139568
928.291	0.0138692
928.369	0.0139231
928.447	0.0139940
928.525	0.0138902
928.603	0.0138667
928.682	0.0137782
928.760	0.0139247
928.838	0.0138811
928.916	0.0138068
928.994	0.0139418
929.072	0.0139215
929.150	0.0138779
929.228	0.0137021
929.307	0.0138304
929.385	0.0139431
929.463	0.0138014
929.541	0.0139969
929.619	0.0139522
929.697	0.0139188
929.775	0.0139576
929.853	0.0139122
929.932	0.0137711
930.010	0.0138248
930.088	0.0138982
930.166	0.0137508
930.244	0.0139815
930.322	0.0139678
930.400	0.0138899
930.478	0.0137466
930.557	0.0138257
930.635	0.0137886
930.713	0.0138765
930.791	0.0139458
930.869	0.0138899
930.947	0.0138284
931.025	0.0138602
931.103	0.0138617
931.182	0.0138390
931.260	0.0138711
931.338	0.0137828
931.416	0.0138524
931.494	0.0137477
931.572	0.0138348
931.650	0.0136991
931.728	0.0138326
931.807	0.0139359
931.885	0.0138329
931.963	0.0138734
932.041	0.0138427
932.119	0.0139925
932.197	0.0139465
932.275	0.0138489
932.353	0.0139469
932.432	0.0140047
932.510	0.0139933
932.588	0.0141082
932.666	0.0140635
932.744	0.0140904
932.822	0.0139898
932.900	0.0137888
932.978	0.0139528
933.057	0.0139333
933.135	0.0139286
933.213	0.0141086
933.291	0.0139526
933.369	0.0139120
933.447	0.0139214
933.525	0.0139780
933.603	0.0139725
933.682	0.0137608
933.760	0.0139624
933.838	0.0139692
933.916	0.0137936
933.994	0.0138449
934.072	0.0139003
934.150	0.0138448
934.228	0.0140243
934.307	0.0139746
934.385	0.0138858
934.463	0.0139003
934.541	0.0138168
934.619	0.0138879
934.697	0.0139155
934.775	0.0139244
934.853	0.0139505
934.932	0.0138367
935.010	0.0136877
935.088	0.0138303
935.166	0.0138405
935.244	0.0136678
935.322	0.0138868
935.400	0.0138918
935.478	0.0138129
935.557	0.0138869
935.635	0.0136543
935.713	0.0138785
935.791	0.0137282
935.869	0.0138935
935.947	0.0138567
936.025	0.0139174
936.103	0.0138976
936.182	0.0138154
936.260	0.0138697
936.338	0.0139156
936.416	0.0139150
936.494	0.0140041
936.572	0.0139377
936.650	0.0138627
936.728	0.0139474
936.807	0.0138013
936.885	0.0137733
936.963	0.0138975
937.041	0.0138493
937.119	0.0139743
937.197	0.0139352
937.275	0.0137891
937.353	0.0137918
937.432	0.0139169
937.510	0.0138795
937.588	0.0139294
937.666	0.0139243
937.744	0.0139597
937.822	0.0138576
937.900	0.0137308
937.978	0.0138928
938.057	0.0138553
938.135	0.0137238
938.213	0.0138504
938.291	0.0138344
938.369	0.0137589
938.447	0.0138097
938.525	0.0138300
938.603	0.0136419
938.682	0.0137651
938.760	0.0138696
938.838	0.0137906
938.916	0.0138618
938.994	0.0138949
939.072	0.0138964
939.150	0.0137328
939.228	0.0139580
939.307	0.0138402
939.385	0.0137833
939.463	0.0139714
939.541	0.0139495
939.619	0.0138075
939.697	0.0139204
939.775	0.0140204
939.853	0.0138054
939.932	0.0139859
940.010	0.0139047
940.088	0.0139865
940.166	0.0139781
940.244	0.0141144
940.322	0.0140178
940.400	0.0140809
940.478	0.0139805
940.557	0.0138936
940.635	0.0139691
940.713	0.0138775
940.791	0.0139351
940.869	0.0140144
940.947	0.0141039
941.025	0.0140208
941.103	0.0139806
941.182	0.0139528
941.260	0.0140569
941.338	0.0139149
941.416	0.0139299
941.494	0.0139816
941.572	0.0139090
941.650	0.0139796
941.728	0.0140727
941.807	0.0138851
941.885	0.0137278
941.963	0.0140579
942.041	0.0139063
942.119	0.0140321
942.197	0.0139583
942.275	0.0139185
942.353	0.0140660
942.432	0.0139083
942.510	0.0138242
942.588	0.0137962
942.666	0.0139552
942.744	0.0139370
942.822	0.0137904
942.900	0.0136562
942.978	0.0137421
943.057	0.0138315
943.135	0.0138793
943.213	0.0138639
943.291	0.0139601
943.369	0.0139867
943.447	0.0140171
943.525	0.0138659
943.603	0.0139567
943.682	0.0141547
943.760	0.0141231
943.838	0.0140033
943.916	0.0139677
943.994	0.0138906
944.072	0.0140022
944.150	0.0141026
944.228	0.0140027
944.307	0.0140145
944.385	0.0139110
944.463	0.0140229
944.541	0.0140237
944.619	0.0140029
944.697	0.0139977
944.775	0.0140489
944.853	0.0139445
944.932	0.0140617
945.010	0.0140157
945.088	0.0140755
945.166	0.0141673
945.244	0.0139188
945.322	0.0140257
945.400	0.0142126
945.478	0.0140661
945.557	0.0139234
945.635	0.0140202
945.713	0.0140459
945.791	0.0140881
945.869	0.0141017
945.947	0.0140932
946.025	0.0139867
946.103	0.0139014
946.182	0.0139841
946.260	0.0138557
946.338	0.0140466
946.416	0.0141513
946.494	0.0138923
946.572	0.0140201
946.650	0.0139131
946.728	0.0139913
946.807	0.0139114
946.885	0.0140244
946.963	0.0141312
947.041	0.0140228
947.119	0.0139857
947.197	0.0141168
947.275	0.0141865
947.353	0.0140603
947.432	0.0140764
947.510	0.0139676
947.588	0.0139114
947.666	0.0139332
947.744	0.0138654
947.822	0.0140665
947.900	0.0138940
947.978	0.0139023
948.057	0.0140186
948.135	0.0138580
948.213	0.0138085
948.291	0.0138374
948.369	0.0137286
948.447	0.0137047
948.525	0.0137154
948.603	0.0137301
948.682	0.0137104
948.760	0.0137360
948.838	0.0137749
948.916	0.0138102
948.994	0.0136419
949.072	0.0136130
949.150	0.0138142
949.228	0.0137709
949.307	0.0138636
949.385	0.0137347
949.463	0.0137245
949.541	0.0137582
949.619	0.0137624
949.697	0.0138036
949.775	0.0137984
949.853	0.0138618
949.932	0.0137957
950.010	0.0140114
950.088	0.0139079
950.166	0.0139972
950.244	0.0138676
950.322	0.0138670
950.400	0.0140005
950.478	0.0139605
950.557	0.0140139
950.635	0.0139318
950.713	0.0139128
950.791	0.0138412
950.869	0.0139189
950.947	0.0137241
951.025	0.0140555
951.103	0.0140548
951.182	0.0139342
951.260	0.0141168
951.338	0.0138933
951.416	0.0138143
951.494	0.0139383
951.572	0.0138190
951.650	0.0139911
951.728	0.0140331
951.807	0.0140247
951.885	0.0139666
951.963	0.0139771
952.041	0.0140083
952.119	0.0139851
952.197	0.0139854
952.275	0.0140436
952.353	0.0139179
952.432	0.0139104
952.510	0.0141063
952.588	0.0140015
952.666	0.0138380
952.744	0.0140061
952.822	0.0138760
952.900	0.0139959
952.978	0.0138067
953.057	0.0137749
953.135	0.0139067
953.213	0.0139016
953.291	0.0138925
953.369	0.0138945
953.447	0.0140288
953.525	0.0138897
953.603	0.0138798
953.682	0.0139230
953.760	0.0138945
953.838	0.0138196
953.916	0.0139629
953.994	0.0139321
954.072	0.0138706
954.150	0.0139507
954.228	0.0140334
954.307	0.0139635
954.385	0.0141230
954.463	0.0140292
954.541	0.0141904
954.619	0.0140208
954.697	0.0142065
954.775	0.0141485
954.853	0.0139812
954.932	0.0141408
955.010	0.0141684
955.088	0.0141636
955.166	0.0140710
955.244	0.0141181
955.322	0.0141283
955.400	0.0143079
955.478	0.0141966
955.557	0.0140704
955.635	0.0139864
955.713	0.0140669
955.791	0.0140305
955.869	0.0139608
955.947	0.0139455
956.025	0.0139597
956.103	0.0141374
956.182	0.0138387
956.260	0.0137819
956.338	0.0138974
956.416	0.0138537
956.494	0.0139101
956.572	0.0136889
956.650	0.0137428
956.728	0.0137743
956.807	0.0136572
956.885	0.0137243
956.963	0.0137868
957.041	0.0138635
957.119	0.0138717
957.197	0.0137741
957.275	0.0137924
957.353	0.0138460
957.432	0.0137341
957.510	0.0138625
957.588	0.0138547
957.666	0.0137002
957.744	0.0137265
957.822	0.0138853
957.900	0.0137891
957.978	0.0137186
958.057	0.0139071
958.135	0.0137919
958.213	0.0137989
958.291	0.0138194
958.369	0.0138358
958.447	0.0140358
958.525	0.0139102
958.603	0.0140037
958.682	0.0139680
958.760	0.0139548
958.838	0.0141357
958.916	0.0141715
958.994	0.0140972
959.072	0.0139767
959.150	0.0140862
959.228	0.0139322
959.307	0.0140942
959.385	0.0141630
959.463	0.0141276
959.541	0.0141978
959.619	0.0141362
959.697	0.0140704
959.775	0.0141547
959.853	0.0140615
959.932	0.0140934
960.010	0.0140466
960.088	0.0141419
960.166	0.0141404
960.244	0.0140043
960.322	0.0140482
960.400	0.0139970
960.478	0.0140198
960.557	0.0140534
960.635	0.0138895
960.713	0.0139482
960.791	0.0140424
960.869	0.0139690
960.947	0.0139355
961.025	0.0138945
961.103	0.0137415
961.182	0.0138969
961.260	0.0138605
961.338	0.0139525
961.416	0.0138023
961.494	0.0138366
961.572	0.0137899
961.650	0.0138073
961.728	0.0138869
961.807	0.0138198
961.885	0.0138287
961.963	0.0140164
962.041	0.0136915
962.119	0.0137318
962.197	0.0138570
962.275	0.0139099
962.353	0.0138091
962.432	0.0139243
962.510	0.0139651
962.588	0.0140611
962.666	0.0138757
962.744	0.0138930
962.822	0.0139220
962.900	0.0139488
962.978	0.0140012
963.057	0.0139136
963.135	0.0139674
963.213	0.0138917
963.291	0.0141634
963.369	0.0143193
963.447	0.0141166
963.525	0.0140413
963.603	0.0141190
963.682	0.0140678
963.760	0.0141671
963.838	0.0141597
963.916	0.0140990
963.994	0.0140556
964.072	0.0141096
964.150	0.0140785
964.228	0.0141335
964.307	0.0141411
964.385	0.0139668
964.463	0.0139535
964.541	0.0139372
964.619	0.0141403
964.697	0.0141029
964.775	0.0140186
964.853	0.0139518
964.932	0.0139111
965.010	0.0138887
965.088	0.0139507
965.166	0.0138112
965.244	0.0139724
965.322	0.0138207
965.400	0.0138873
965.478	0.0137752
965.557	0.0137577
965.635	0.0138071
965.713	0.0137313
965.791	0.0138233
965.869	0.0137889
965.947	0.0137811
966.025	0.0138010
966.103	0.0138868
966.182	0.0139510
966.260	0.0138097
966.338	0.0140395
966.416	0.0139868
966.494	0.0139405
966.572	0.0139405
966.650	0.0140451
966.728	0.0140863
966.807	0.0139839
966.885	0.0140282
966.963	0.0140070
967.041	0.0138593
967.119	0.0140028
967.197	0.0140208
967.275	0.0140736
967.353	0.0139762
967.432	0.0138975
967.510	0.0140836
967.588	0.0141177
967.666	0.0140161
967.744	0.0140377
967.822	0.0140216
967.900	0.0142260
967.978	0.0141122
968.057	0.0140646
968.135	0.0141016
968.213	0.0141133
968.291	0.0140883
968.369	0.0140625
968.447	0.0140260
968.525	0.0142139
968.603	0.0140983
968.682	0.0140599
968.760	0.0140386
968.838	0.0140273
968.916	0.0140163
968.994	0.0140221
969.072	0.0140403
969.150	0.0139977
969.228	0.0139886
969.307	0.0140912
969.385	0.0139008
969.463	0.0139592
969.541	0.0140243
969.619	0.0140266
969.697	0.0141457
969.775	0.0139228
969.853	0.0140097
969.932	0.0138877
