05/14/2022	19:42:16	Ver.	4.1	UNKNOWN
Optical Delay	650.009681	Delta X		0.078125	Sweeps	1	Scan Rate	0/0
Coordinates	Axis 1	NaN	Axis 2	NaN	Axis 3	NaN	Axis 4	NaN	Axis 5	NaN	Axis 6	0.000000
TX Power	0.000000	RX Power	0.000000

650.010	0.0139552
650.088	0.0139079
650.166	0.0138937
650.244	0.0139493
650.322	0.0139553
650.400	0.0138699
650.478	0.0140701
650.557	0.0140410
650.635	0.0140218
650.713	0.0139613
650.791	0.0140073
650.869	0.0139441
650.947	0.0139695
651.025	0.0140335
651.103	0.0139069
651.182	0.0139176
651.260	0.0139660
651.338	0.0139172
651.416	0.0139709
651.494	0.0139265
651.572	0.0137322
651.650	0.0136941
651.728	0.0138828
651.807	0.0139028
651.885	0.0137866
651.963	0.0139231
652.041	0.0139122
652.119	0.0141510
652.197	0.0141822
652.275	0.0140338
652.353	0.0142153
652.432	0.0142693
652.510	0.0142503
652.588	0.0143738
652.666	0.0144190
652.744	0.0143617
652.822	0.0143973
652.900	0.0144500
652.978	0.0143838
653.057	0.0143362
653.135	0.0142642
653.213	0.0142578
653.291	0.0142839
653.369	0.0141467
653.447	0.0141607
653.525	0.0139558
653.603	0.0138211
653.682	0.0139899
653.760	0.0138914
653.838	0.0138908
653.916	0.0138150
653.994	0.0138081
654.072	0.0139271
654.150	0.0138663
654.228	0.0138482
654.307	0.0138646
654.385	0.0139270
654.463	0.0140034
654.541	0.0139368
654.619	0.0140447
654.697	0.0141411
654.775	0.0141862
654.853	0.0143166
654.932	0.0144011
655.010	0.0142850
655.088	0.0144126
655.166	0.0143505
655.244	0.0143092
655.322	0.0143755
655.400	0.0141908
655.478	0.0141959
655.557	0.0142876
655.635	0.0140145
655.713	0.0141396
655.791	0.0139944
655.869	0.0139807
655.947	0.0139297
656.025	0.0137461
656.103	0.0136988
656.182	0.0138061
656.260	0.0136452
656.338	0.0135983
656.416	0.0135346
656.494	0.0133986
656.572	0.0133880
656.650	0.0135064
656.728	0.0134937
656.807	0.0137157
656.885	0.0138484
656.963	0.0137997
657.041	0.0139130
657.119	0.0142191
657.197	0.0141880
657.275	0.0145066
657.353	0.0145646
657.432	0.0146323
657.510	0.0148377
657.588	0.0148903
657.666	0.0149180
657.744	0.0149622
657.822	0.0150543
657.900	0.0149490
657.978	0.0148582
658.057	0.0148996
658.135	0.0148466
658.213	0.0146003
658.291	0.0144078
658.369	0.0142329
658.447	0.0138959
658.525	0.0139104
658.603	0.0136643
658.682	0.0136027
658.760	0.0132923
658.838	0.0130814
658.916	0.0129568
658.994	0.0129594
659.072	0.0127461
659.150	0.0129484
659.228	0.0128680
659.307	0.0129797
659.385	0.0129558
659.463	0.0129720
659.541	0.0130359
659.619	0.0131306
659.697	0.0135889
659.775	0.0135976
659.853	0.0136925
659.932	0.0139943
660.010	0.0140911
660.088	0.0144206
660.166	0.0144928
660.244	0.0147435
660.322	0.0148950
660.400	0.0149297
660.478	0.0150632
660.557	0.0152142
660.635	0.0153384
660.713	0.0154618
660.791	0.0153695
660.869	0.0153657
660.947	0.0153372
661.025	0.0153642
661.103	0.0150745
661.182	0.0149471
661.260	0.0147742
661.338	0.0147456
661.416	0.0146392
661.494	0.0144425
661.572	0.0140447
661.650	0.0140936
661.728	0.0140004
661.807	0.0138843
661.885	0.0136607
661.963	0.0135970
662.041	0.0135328
662.119	0.0132796
662.197	0.0132947
662.275	0.0131425
662.353	0.0132001
662.432	0.0130184
662.510	0.0129751
662.588	0.0128687
662.666	0.0127439
662.744	0.0128220
662.822	0.0127885
662.900	0.0127847
662.978	0.0127169
663.057	0.0126909
663.135	0.0127374
663.213	0.0125926
663.291	0.0126270
663.369	0.0128104
663.447	0.0126421
663.525	0.0127213
663.603	0.0128030
663.682	0.0132017
663.760	0.0134216
663.838	0.0135442
663.916	0.0136759
663.994	0.0138805
664.072	0.0142003
664.150	0.0144144
664.228	0.0146997
664.307	0.0149693
664.385	0.0153544
664.463	0.0156133
664.541	0.0157946
664.619	0.0161620
664.697	0.0162749
664.775	0.0163737
664.853	0.0164597
664.932	0.0165279
665.010	0.0166721
665.088	0.0166610
665.166	0.0166126
665.244	0.0164803
665.322	0.0162947
665.400	0.0161222
665.478	0.0159792
665.557	0.0157046
665.635	0.0154542
665.713	0.0150040
665.791	0.0145758
665.869	0.0142506
665.947	0.0136980
666.025	0.0132619
666.103	0.0127291
666.182	0.0122952
666.260	0.0118700
666.338	0.0114468
666.416	0.0111348
666.494	0.0106634
666.572	0.0104930
666.650	0.0103670
666.728	0.0102214
666.807	0.0100430
666.885	0.0100951
666.963	0.0102945
667.041	0.0102611
667.119	0.0106709
667.197	0.0109730
667.275	0.0112394
667.353	0.0116520
667.432	0.0121481
667.510	0.0126160
667.588	0.0131513
667.666	0.0134130
667.744	0.0138445
667.822	0.0143085
667.900	0.0148457
667.978	0.0151096
668.057	0.0156434
668.135	0.0160132
668.213	0.0163107
668.291	0.0166859
668.369	0.0167835
668.447	0.0170234
668.525	0.0172667
668.603	0.0174541
668.682	0.0176999
668.760	0.0178023
668.838	0.0175783
668.916	0.0175188
668.994	0.0175605
669.072	0.0173013
669.150	0.0171503
669.228	0.0170006
669.307	0.0166924
669.385	0.0164504
669.463	0.0160453
669.541	0.0157055
669.619	0.0155257
669.697	0.0150762
669.775	0.0147048
669.853	0.0144505
669.932	0.0141822
670.010	0.0137478
670.088	0.0135987
670.166	0.0133315
670.244	0.0129650
670.322	0.0127797
670.400	0.0123774
670.478	0.0120284
670.557	0.0117924
670.635	0.0115123
670.713	0.0112257
670.791	0.0109965
670.869	0.0106892
670.947	0.0105666
671.025	0.0104606
671.103	0.0102523
671.182	0.0102267
671.260	0.0100618
671.338	0.0101756
671.416	0.0103403
671.494	0.0105307
671.572	0.0107100
671.650	0.0111977
671.728	0.0114657
671.807	0.0118398
671.885	0.0121527
671.963	0.0125580
672.041	0.0129660
672.119	0.0133945
672.197	0.0139154
672.275	0.0142798
672.353	0.0148478
672.432	0.0151477
672.510	0.0154931
672.588	0.0159373
672.666	0.0162788
672.744	0.0167662
672.822	0.0171307
672.900	0.0172846
672.978	0.0176857
673.057	0.0178475
673.135	0.0180116
673.213	0.0181126
673.291	0.0182671
673.369	0.0182893
673.447	0.0180299
673.525	0.0178536
673.603	0.0177219
673.682	0.0176298
673.760	0.0172139
673.838	0.0169389
673.916	0.0167319
673.994	0.0161936
674.072	0.0158501
674.150	0.0155003
674.228	0.0148717
674.307	0.0144209
674.385	0.0140125
674.463	0.0134338
674.541	0.0129671
674.619	0.0126056
674.697	0.0123037
674.775	0.0118593
674.853	0.0115189
674.932	0.0111323
675.010	0.0109465
675.088	0.0105689
675.166	0.0104272
675.244	0.0103143
675.322	0.0101517
675.400	0.0100359
675.478	0.0102364
675.557	0.00999763
675.635	0.0100980
675.713	0.0103763
675.791	0.0106513
675.869	0.0105624
675.947	0.0110426
676.025	0.0114344
676.103	0.0116779
676.182	0.0119988
676.260	0.0123972
676.338	0.0126691
676.416	0.0131236
676.494	0.0135728
676.572	0.0140247
676.650	0.0145247
676.728	0.0147108
676.807	0.0151520
676.885	0.0155814
676.963	0.0160927
677.041	0.0162543
677.119	0.0166460
677.197	0.0170522
677.275	0.0172842
677.353	0.0172697
677.432	0.0174921
677.510	0.0176834
677.588	0.0175845
677.666	0.0176327
677.744	0.0175391
677.822	0.0173241
677.900	0.0172388
677.978	0.0170205
678.057	0.0167554
678.135	0.0164809
678.213	0.0161607
678.291	0.0157301
678.369	0.0154602
678.447	0.0150977
678.525	0.0147850
678.603	0.0143433
678.682	0.0138197
678.760	0.0133940
678.838	0.0133169
678.916	0.0130894
678.994	0.0126796
679.072	0.0124750
679.150	0.0122785
679.228	0.0120951
679.307	0.0120499
679.385	0.0118443
679.463	0.0118209
679.541	0.0118580
679.619	0.0116599
679.697	0.0116634
679.775	0.0116338
679.853	0.0117432
679.932	0.0118797
680.010	0.0119527
680.088	0.0122008
680.166	0.0124246
680.244	0.0126775
680.322	0.0129230
680.400	0.0132639
680.478	0.0135567
680.557	0.0138547
680.635	0.0139412
680.713	0.0144122
680.791	0.0146793
680.869	0.0149275
680.947	0.0150259
681.025	0.0150336
681.103	0.0150134
681.182	0.0151295
681.260	0.0149570
681.338	0.0149494
681.416	0.0149477
681.494	0.0148284
681.572	0.0148214
681.650	0.0146720
681.728	0.0145219
681.807	0.0144193
681.885	0.0142048
681.963	0.0141334
682.041	0.0139569
682.119	0.0137551
682.197	0.0137543
682.275	0.0136453
682.353	0.0134378
682.432	0.0132275
682.510	0.0131265
682.588	0.0131276
682.666	0.0130251
682.744	0.0130436
682.822	0.0129694
682.900	0.0129752
682.978	0.0131973
683.057	0.0132384
683.135	0.0134468
683.213	0.0135654
683.291	0.0138473
683.369	0.0141837
683.447	0.0142630
683.525	0.0145547
683.603	0.0147630
683.682	0.0149903
683.760	0.0151064
683.838	0.0152740
683.916	0.0153832
683.994	0.0155367
684.072	0.0154647
684.150	0.0156841
684.228	0.0155051
684.307	0.0155441
684.385	0.0156194
684.463	0.0155367
684.541	0.0155836
684.619	0.0155972
684.697	0.0154941
684.775	0.0153702
684.853	0.0152245
684.932	0.0151331
685.010	0.0150700
685.088	0.0148581
685.166	0.0146418
685.244	0.0146497
685.322	0.0143552
685.400	0.0139908
685.478	0.0138068
685.557	0.0137299
685.635	0.0134901
685.713	0.0132806
685.791	0.0130210
685.869	0.0129933
685.947	0.0127145
686.025	0.0125498
686.103	0.0125587
686.182	0.0125223
686.260	0.0124435
686.338	0.0123824
686.416	0.0121872
686.494	0.0123576
686.572	0.0124666
686.650	0.0125524
686.728	0.0127428
686.807	0.0126978
686.885	0.0127591
686.963	0.0129155
687.041	0.0131030
687.119	0.0132678
687.197	0.0133878
687.275	0.0136106
687.353	0.0136388
687.432	0.0138383
687.510	0.0139290
687.588	0.0141483
687.666	0.0139844
687.744	0.0142075
687.822	0.0143109
687.900	0.0144818
687.978	0.0144620
688.057	0.0146138
688.135	0.0145438
688.213	0.0146523
688.291	0.0147795
688.369	0.0146806
688.447	0.0147931
688.525	0.0147907
688.603	0.0148499
688.682	0.0146238
688.760	0.0146706
688.838	0.0147311
688.916	0.0146487
688.994	0.0146371
689.072	0.0145385
689.150	0.0145802
689.228	0.0144845
689.307	0.0144530
689.385	0.0143894
689.463	0.0144069
689.541	0.0145669
689.619	0.0146575
689.697	0.0145258
689.775	0.0146651
689.853	0.0147144
689.932	0.0147926
690.010	0.0149283
690.088	0.0150025
690.166	0.0150613
690.244	0.0150809
690.322	0.0149743
690.400	0.0150928
690.478	0.0149509
690.557	0.0149310
690.635	0.0150499
690.713	0.0151318
690.791	0.0149929
690.869	0.0149228
690.947	0.0149753
691.025	0.0149805
691.103	0.0148061
691.182	0.0147964
691.260	0.0146014
691.338	0.0144524
691.416	0.0143004
691.494	0.0139472
691.572	0.0138248
691.650	0.0135159
691.728	0.0134100
691.807	0.0131857
691.885	0.0129906
691.963	0.0128130
692.041	0.0125775
692.119	0.0123927
692.197	0.0122363
692.275	0.0120135
692.353	0.0119944
692.432	0.0118387
692.510	0.0117788
692.588	0.0118468
692.666	0.0119016
692.744	0.0118166
692.822	0.0117869
692.900	0.0118933
692.978	0.0121268
693.057	0.0121714
693.135	0.0122845
693.213	0.0124070
693.291	0.0124369
693.369	0.0126218
693.447	0.0128125
693.525	0.0129726
693.603	0.0131858
693.682	0.0133943
693.760	0.0136917
693.838	0.0139601
693.916	0.0143066
693.994	0.0148096
694.072	0.0150623
694.150	0.0154388
694.228	0.0155533
694.307	0.0157980
694.385	0.0159892
694.463	0.0163530
694.541	0.0164226
694.619	0.0166139
694.697	0.0165790
694.775	0.0166579
694.853	0.0168490
694.932	0.0167506
695.010	0.0166993
695.088	0.0166861
695.166	0.0166387
695.244	0.0163633
695.322	0.0163089
695.400	0.0161337
695.478	0.0159406
695.557	0.0157381
695.635	0.0154475
695.713	0.0151656
695.791	0.0146561
695.869	0.0145289
695.947	0.0140031
696.025	0.0136699
696.103	0.0134267
696.182	0.0131469
696.260	0.0128985
696.338	0.0126021
696.416	0.0121600
696.494	0.0120937
696.572	0.0120113
696.650	0.0117817
696.728	0.0115879
696.807	0.0114817
696.885	0.0114993
696.963	0.0117106
697.041	0.0116816
697.119	0.0118085
697.197	0.0120964
697.275	0.0121521
697.353	0.0124926
697.432	0.0126409
697.510	0.0128149
697.588	0.0129823
697.666	0.0133355
697.744	0.0135670
697.822	0.0138486
697.900	0.0141533
697.978	0.0141972
698.057	0.0144060
698.135	0.0146027
698.213	0.0147961
698.291	0.0147314
698.369	0.0148898
698.447	0.0150104
698.525	0.0149891
698.603	0.0148853
698.682	0.0149278
698.760	0.0147552
698.838	0.0148479
698.916	0.0147147
698.994	0.0144402
699.072	0.0142369
699.150	0.0139727
699.228	0.0139187
699.307	0.0135873
699.385	0.0134258
699.463	0.0134587
699.541	0.0132233
699.619	0.0130568
699.697	0.0128812
699.775	0.0130037
699.853	0.0128563
699.932	0.0128622
700.010	0.0131325
700.088	0.0131714
700.166	0.0134030
700.244	0.0137102
700.322	0.0139979
700.400	0.0142574
700.478	0.0145660
700.557	0.0146694
700.635	0.0148922
700.713	0.0151453
700.791	0.0154242
700.869	0.0156142
700.947	0.0157444
701.025	0.0159515
701.103	0.0159666
701.182	0.0159462
701.260	0.0159901
701.338	0.0159532
701.416	0.0158743
701.494	0.0157185
701.572	0.0156311
701.650	0.0154966
701.728	0.0153696
701.807	0.0151266
701.885	0.0149651
701.963	0.0146856
702.041	0.0145287
702.119	0.0143443
702.197	0.0140993
702.275	0.0138309
702.353	0.0138139
702.432	0.0136584
702.510	0.0135648
702.588	0.0134674
702.666	0.0133798
702.744	0.0133987
702.822	0.0133984
702.900	0.0133020
702.978	0.0132596
703.057	0.0134081
703.135	0.0133344
703.213	0.0132939
703.291	0.0134535
703.369	0.0134976
703.447	0.0133602
703.525	0.0135190
703.603	0.0134232
703.682	0.0134431
703.760	0.0135178
703.838	0.0134926
703.916	0.0134438
703.994	0.0135519
704.072	0.0133544
704.150	0.0132726
704.228	0.0132566
704.307	0.0133005
704.385	0.0131594
704.463	0.0132715
704.541	0.0130229
704.619	0.0130873
704.697	0.0131090
704.775	0.0131332
704.853	0.0130827
704.932	0.0132059
705.010	0.0133681
705.088	0.0133016
705.166	0.0133958
705.244	0.0136020
705.322	0.0138129
705.400	0.0138385
705.478	0.0139507
705.557	0.0141010
705.635	0.0141727
705.713	0.0143893
705.791	0.0146077
705.869	0.0147738
705.947	0.0149578
706.025	0.0151136
706.103	0.0150693
706.182	0.0151536
706.260	0.0153229
706.338	0.0152369
706.416	0.0153098
706.494	0.0153012
706.572	0.0153152
706.650	0.0153096
706.728	0.0151759
706.807	0.0151105
706.885	0.0151108
706.963	0.0149270
707.041	0.0148874
707.119	0.0146981
707.197	0.0146610
707.275	0.0145287
707.353	0.0144827
707.432	0.0141983
707.510	0.0142507
707.588	0.0141719
707.666	0.0139445
707.744	0.0139613
707.822	0.0138850
707.900	0.0136781
707.978	0.0137325
708.057	0.0134924
708.135	0.0134525
708.213	0.0134464
708.291	0.0135384
708.369	0.0133308
708.447	0.0133928
708.525	0.0133757
708.603	0.0134021
708.682	0.0135725
708.760	0.0134647
708.838	0.0135000
708.916	0.0135538
708.994	0.0137019
709.072	0.0136864
709.150	0.0135511
709.228	0.0136473
709.307	0.0136121
709.385	0.0134702
709.463	0.0134854
709.541	0.0135964
709.619	0.0135587
709.697	0.0136794
709.775	0.0138371
709.853	0.0138535
709.932	0.0139655
710.010	0.0141144
710.088	0.0142144
710.166	0.0143295
710.244	0.0143190
710.322	0.0144685
710.400	0.0144627
710.478	0.0145626
710.557	0.0146554
710.635	0.0147602
710.713	0.0148032
710.791	0.0146424
710.869	0.0147546
710.947	0.0146429
711.025	0.0147117
711.103	0.0144832
711.182	0.0143366
711.260	0.0143295
711.338	0.0141320
711.416	0.0140206
711.494	0.0140263
711.572	0.0139172
711.650	0.0138696
711.728	0.0138081
711.807	0.0135640
711.885	0.0134886
711.963	0.0134976
712.041	0.0134595
712.119	0.0133932
712.197	0.0132748
712.275	0.0133272
712.353	0.0133850
712.432	0.0133115
712.510	0.0135012
712.588	0.0136002
712.666	0.0136803
712.744	0.0137334
712.822	0.0137643
712.900	0.0140164
712.978	0.0141364
713.057	0.0142857
713.135	0.0144059
713.213	0.0145281
713.291	0.0149850
713.369	0.0151092
713.447	0.0151492
713.525	0.0153304
713.603	0.0152930
713.682	0.0153870
713.760	0.0155533
713.838	0.0156107
713.916	0.0156358
713.994	0.0156525
714.072	0.0156044
714.150	0.0155580
714.228	0.0154921
714.307	0.0153317
714.385	0.0153640
714.463	0.0152040
714.541	0.0152751
714.619	0.0149479
714.697	0.0146170
714.775	0.0145911
714.853	0.0142972
714.932	0.0140927
715.010	0.0139455
715.088	0.0136624
715.166	0.0134444
715.244	0.0132489
715.322	0.0131162
715.400	0.0128638
715.478	0.0127356
715.557	0.0126488
715.635	0.0126727
715.713	0.0125200
715.791	0.0125431
715.869	0.0125488
715.947	0.0125090
716.025	0.0125353
716.103	0.0126039
716.182	0.0128757
716.260	0.0127614
716.338	0.0128632
716.416	0.0130779
716.494	0.0131905
716.572	0.0133138
716.650	0.0132758
716.728	0.0135040
716.807	0.0135746
716.885	0.0135319
716.963	0.0136081
717.041	0.0139243
717.119	0.0141029
717.197	0.0139346
717.275	0.0141222
717.353	0.0141472
717.432	0.0143168
717.510	0.0143605
717.588	0.0142181
717.666	0.0143291
717.744	0.0144177
717.822	0.0144746
717.900	0.0145612
717.978	0.0145704
718.057	0.0147652
718.135	0.0146893
718.213	0.0145753
718.291	0.0145341
718.369	0.0145860
718.447	0.0145052
718.525	0.0145345
718.603	0.0145677
718.682	0.0144757
718.760	0.0145446
718.838	0.0145404
718.916	0.0145665
718.994	0.0144776
719.072	0.0145261
719.150	0.0145523
719.228	0.0145934
719.307	0.0146534
719.385	0.0146055
719.463	0.0146829
719.541	0.0144978
719.619	0.0145713
719.697	0.0145700
719.775	0.0145432
719.853	0.0143584
719.932	0.0144350
720.010	0.0142039
720.088	0.0141366
720.166	0.0140825
720.244	0.0141560
720.322	0.0139066
720.400	0.0137519
720.478	0.0137611
720.557	0.0135668
720.635	0.0135572
720.713	0.0135366
720.791	0.0135107
720.869	0.0133832
720.947	0.0133418
721.025	0.0134559
721.103	0.0133777
721.182	0.0131918
721.260	0.0132716
721.338	0.0132687
721.416	0.0131204
721.494	0.0130283
721.572	0.0130869
721.650	0.0131813
721.728	0.0130080
721.807	0.0131709
721.885	0.0132313
721.963	0.0132432
722.041	0.0132362
722.119	0.0133820
722.197	0.0135909
722.275	0.0136033
722.353	0.0137714
722.432	0.0138885
722.510	0.0139527
722.588	0.0142451
722.666	0.0143713
722.744	0.0144195
722.822	0.0146510
722.900	0.0146308
722.978	0.0145586
723.057	0.0147546
723.135	0.0147805
723.213	0.0147253
723.291	0.0147283
723.369	0.0148775
723.447	0.0147538
723.525	0.0148335
723.603	0.0146777
723.682	0.0145022
723.760	0.0145663
723.838	0.0145415
723.916	0.0146210
723.994	0.0142990
724.072	0.0142846
724.150	0.0141759
724.228	0.0139892
724.307	0.0140200
724.385	0.0139587
724.463	0.0138081
724.541	0.0137234
724.619	0.0137722
724.697	0.0136808
724.775	0.0137762
724.853	0.0136590
724.932	0.0137053
725.010	0.0137693
725.088	0.0138051
725.166	0.0137333
725.244	0.0137566
725.322	0.0138098
725.400	0.0137488
725.478	0.0138316
725.557	0.0139193
725.635	0.0139312
725.713	0.0139558
725.791	0.0137043
725.869	0.0136745
725.947	0.0137273
726.025	0.0137342
726.103	0.0137572
726.182	0.0137062
726.260	0.0137650
726.338	0.0138765
726.416	0.0137549
726.494	0.0137247
726.572	0.0137627
726.650	0.0138398
726.728	0.0138223
726.807	0.0138457
726.885	0.0138766
726.963	0.0138195
727.041	0.0138974
727.119	0.0138403
727.197	0.0138258
727.275	0.0137120
727.353	0.0139177
727.432	0.0139362
727.510	0.0139252
727.588	0.0138389
727.666	0.0139071
727.744	0.0139822
727.822	0.0140733
727.900	0.0139774
727.978	0.0140317
728.057	0.0141815
728.135	0.0139359
728.213	0.0140235
728.291	0.0141304
728.369	0.0142075
728.447	0.0141328
728.525	0.0140824
728.603	0.0140636
728.682	0.0142280
728.760	0.0142683
728.838	0.0143595
728.916	0.0142851
728.994	0.0143161
729.072	0.0142684
729.150	0.0144585
729.228	0.0144115
729.307	0.0143109
729.385	0.0144054
729.463	0.0143202
729.541	0.0142374
729.619	0.0142989
729.697	0.0141732
729.775	0.0143306
729.853	0.0142509
729.932	0.0142017
730.010	0.0141608
730.088	0.0141785
730.166	0.0142718
730.244	0.0142750
730.322	0.0142530
730.400	0.0142618
730.478	0.0142164
730.557	0.0143287
730.635	0.0143536
730.713	0.0143064
730.791	0.0142150
730.869	0.0142641
730.947	0.0141674
731.025	0.0140311
731.103	0.0141059
731.182	0.0138017
731.260	0.0139722
731.338	0.0138985
731.416	0.0139151
731.494	0.0138395
731.572	0.0137854
731.650	0.0139242
731.728	0.0138150
731.807	0.0138869
731.885	0.0138609
731.963	0.0138236
732.041	0.0138873
732.119	0.0138302
732.197	0.0138390
732.275	0.0138612
732.353	0.0138163
732.432	0.0139161
732.510	0.0139959
732.588	0.0139682
732.666	0.0139868
732.744	0.0142147
732.822	0.0142068
732.900	0.0141850
732.978	0.0143517
733.057	0.0144759
733.135	0.0145582
733.213	0.0144360
733.291	0.0145300
733.369	0.0145483
733.447	0.0145332
733.525	0.0146431
733.603	0.0144587
733.682	0.0146142
733.760	0.0145071
733.838	0.0144312
733.916	0.0142767
733.994	0.0143906
734.072	0.0140469
734.150	0.0140235
734.228	0.0139469
734.307	0.0139140
734.385	0.0138574
734.463	0.0138132
734.541	0.0135519
734.619	0.0135986
734.697	0.0134969
734.775	0.0135008
734.853	0.0135110
734.932	0.0135532
735.010	0.0133763
735.088	0.0133662
735.166	0.0134203
735.244	0.0133984
735.322	0.0135622
735.400	0.0136012
735.478	0.0136724
735.557	0.0136424
735.635	0.0137695
735.713	0.0138992
735.791	0.0138422
735.869	0.0139547
735.947	0.0138734
736.025	0.0140468
736.103	0.0141023
736.182	0.0140163
736.260	0.0140981
736.338	0.0139535
736.416	0.0140720
736.494	0.0140742
736.572	0.0140851
736.650	0.0140015
736.728	0.0141573
736.807	0.0141013
736.885	0.0140901
736.963	0.0142226
737.041	0.0142343
737.119	0.0142535
737.197	0.0141954
737.275	0.0141854
737.353	0.0142371
737.432	0.0142362
737.510	0.0142477
737.588	0.0140576
737.666	0.0142192
737.744	0.0141988
737.822	0.0140681
737.900	0.0140109
737.978	0.0140026
738.057	0.0139944
738.135	0.0141179
738.213	0.0141782
738.291	0.0139389
738.369	0.0140833
738.447	0.0140516
738.525	0.0141832
738.603	0.0140110
738.682	0.0141891
738.760	0.0141824
738.838	0.0142062
738.916	0.0142413
738.994	0.0142043
739.072	0.0140925
739.150	0.0142614
739.228	0.0142236
739.307	0.0142638
739.385	0.0143319
739.463	0.0142501
739.541	0.0142853
739.619	0.0144263
739.697	0.0143883
739.775	0.0144951
739.853	0.0145203
739.932	0.0144437
740.010	0.0144037
740.088	0.0144685
740.166	0.0143909
740.244	0.0142188
740.322	0.0144170
740.400	0.0141698
740.478	0.0140414
740.557	0.0141300
740.635	0.0140562
740.713	0.0140775
740.791	0.0138802
740.869	0.0137695
740.947	0.0137425
741.025	0.0136143
741.103	0.0137505
741.182	0.0136434
741.260	0.0137361
741.338	0.0136234
741.416	0.0136508
741.494	0.0136569
741.572	0.0137434
741.650	0.0137050
741.728	0.0136646
741.807	0.0135922
741.885	0.0137791
741.963	0.0137118
742.041	0.0137157
742.119	0.0137777
742.197	0.0137186
742.275	0.0135925
742.353	0.0136008
742.432	0.0136235
742.510	0.0137682
742.588	0.0135564
742.666	0.0137011
742.744	0.0137842
742.822	0.0137686
742.900	0.0137796
742.978	0.0138676
743.057	0.0138759
743.135	0.0139589
743.213	0.0139867
743.291	0.0139073
743.369	0.0139779
743.447	0.0141951
743.525	0.0141405
743.603	0.0141245
743.682	0.0140673
743.760	0.0141511
743.838	0.0141586
743.916	0.0141914
743.994	0.0142000
744.072	0.0143299
744.150	0.0142634
744.228	0.0143888
744.307	0.0142300
744.385	0.0141875
744.463	0.0142328
744.541	0.0142298
744.619	0.0142937
744.697	0.0142489
744.775	0.0144013
744.853	0.0143469
744.932	0.0140988
745.010	0.0141129
745.088	0.0141969
745.166	0.0140663
745.244	0.0140083
745.322	0.0140761
745.400	0.0140118
745.478	0.0138985
745.557	0.0137962
745.635	0.0137498
745.713	0.0137486
745.791	0.0137344
745.869	0.0137467
745.947	0.0138190
746.025	0.0137672
746.103	0.0137862
746.182	0.0137394
746.260	0.0137235
746.338	0.0138629
746.416	0.0138813
746.494	0.0139185
746.572	0.0139275
746.650	0.0138702
746.728	0.0137873
746.807	0.0137993
746.885	0.0138533
746.963	0.0136940
747.041	0.0136747
747.119	0.0138072
747.197	0.0137328
747.275	0.0136239
747.353	0.0136625
747.432	0.0135610
747.510	0.0135055
747.588	0.0134897
747.666	0.0137343
747.744	0.0136313
747.822	0.0134766
747.900	0.0137167
747.978	0.0136107
748.057	0.0135352
748.135	0.0136721
748.213	0.0136276
748.291	0.0135915
748.369	0.0138276
748.447	0.0137560
748.525	0.0137194
748.603	0.0138731
748.682	0.0137865
748.760	0.0139748
748.838	0.0140395
748.916	0.0140658
748.994	0.0141290
749.072	0.0142969
749.150	0.0143143
749.228	0.0143406
749.307	0.0142491
749.385	0.0143872
749.463	0.0143594
749.541	0.0144139
749.619	0.0144758
749.697	0.0145100
749.775	0.0144779
749.853	0.0144571
749.932	0.0145023
750.010	0.0143754
750.088	0.0142924
750.166	0.0145146
750.244	0.0143863
750.322	0.0142338
750.400	0.0144450
750.478	0.0143775
750.557	0.0142308
750.635	0.0144248
750.713	0.0144070
750.791	0.0144266
750.869	0.0145114
750.947	0.0145219
751.025	0.0144804
751.103	0.0145563
751.182	0.0144626
751.260	0.0145153
751.338	0.0145327
751.416	0.0145668
751.494	0.0144997
751.572	0.0144420
751.650	0.0143360
751.728	0.0142851
751.807	0.0143832
751.885	0.0142809
751.963	0.0142628
752.041	0.0141876
752.119	0.0141245
752.197	0.0142005
752.275	0.0140881
752.353	0.0139417
752.432	0.0137959
752.510	0.0139268
752.588	0.0138399
752.666	0.0139268
752.744	0.0139452
752.822	0.0137558
752.900	0.0136333
752.978	0.0136288
753.057	0.0135902
753.135	0.0136912
753.213	0.0137398
753.291	0.0137899
753.369	0.0136659
753.447	0.0136400
753.525	0.0139389
753.603	0.0137569
753.682	0.0138755
753.760	0.0137904
753.838	0.0138015
753.916	0.0138820
753.994	0.0139516
754.072	0.0139249
754.150	0.0137653
754.228	0.0139877
754.307	0.0139725
754.385	0.0140792
754.463	0.0138887
754.541	0.0140421
754.619	0.0138374
754.697	0.0140441
754.775	0.0139770
754.853	0.0139778
754.932	0.0137468
755.010	0.0138303
755.088	0.0138056
755.166	0.0137216
755.244	0.0137515
755.322	0.0137244
755.400	0.0137331
755.478	0.0137393
755.557	0.0138168
755.635	0.0139430
755.713	0.0137411
755.791	0.0137979
755.869	0.0138315
755.947	0.0137785
756.025	0.0139381
756.103	0.0141853
756.182	0.0141435
756.260	0.0141627
756.338	0.0142455
756.416	0.0143094
756.494	0.0142488
756.572	0.0143872
756.650	0.0144736
756.728	0.0145214
756.807	0.0144897
756.885	0.0144840
756.963	0.0146478
757.041	0.0146047
757.119	0.0145723
757.197	0.0145673
757.275	0.0146294
757.353	0.0145377
757.432	0.0143372
757.510	0.0144209
757.588	0.0143970
757.666	0.0144393
757.744	0.0143408
757.822	0.0143571
757.900	0.0142699
757.978	0.0142282
758.057	0.0142308
758.135	0.0142477
758.213	0.0141295
758.291	0.0141354
758.369	0.0141718
758.447	0.0140224
758.525	0.0140263
758.603	0.0141064
758.682	0.0140249
758.760	0.0142807
758.838	0.0141024
758.916	0.0140676
758.994	0.0140649
759.072	0.0138163
759.150	0.0139276
759.228	0.0140432
759.307	0.0138405
759.385	0.0139340
759.463	0.0140058
759.541	0.0138784
759.619	0.0137518
759.697	0.0139043
759.775	0.0136967
759.853	0.0138383
759.932	0.0137448
760.010	0.0138818
760.088	0.0138854
760.166	0.0138057
760.244	0.0138566
760.322	0.0139758
760.400	0.0139391
760.478	0.0141152
760.557	0.0141631
760.635	0.0141265
760.713	0.0140033
760.791	0.0141458
760.869	0.0143262
760.947	0.0143214
761.025	0.0142262
761.103	0.0142563
761.182	0.0142953
761.260	0.0141632
761.338	0.0141577
761.416	0.0142737
761.494	0.0142580
761.572	0.0142483
761.650	0.0142419
761.728	0.0141586
761.807	0.0140952
761.885	0.0140440
761.963	0.0140301
762.041	0.0139833
762.119	0.0139827
762.197	0.0137549
762.275	0.0137951
762.353	0.0138910
762.432	0.0137254
762.510	0.0136470
762.588	0.0136641
762.666	0.0135851
762.744	0.0135744
762.822	0.0134527
762.900	0.0134979
762.978	0.0135652
763.057	0.0134583
763.135	0.0133578
763.213	0.0134634
763.291	0.0136108
763.369	0.0135986
763.447	0.0136771
763.525	0.0136446
763.603	0.0137616
763.682	0.0138028
763.760	0.0138421
763.838	0.0139214
763.916	0.0139617
763.994	0.0141727
764.072	0.0139489
764.150	0.0140112
764.228	0.0143067
764.307	0.0143201
764.385	0.0142693
764.463	0.0143938
764.541	0.0143569
764.619	0.0145226
764.697	0.0144491
764.775	0.0145180
764.853	0.0145275
764.932	0.0146261
765.010	0.0146243
765.088	0.0145582
765.166	0.0147329
765.244	0.0146018
765.322	0.0144736
765.400	0.0145961
765.478	0.0146902
765.557	0.0146056
765.635	0.0146162
765.713	0.0144392
765.791	0.0143674
765.869	0.0145444
765.947	0.0143149
766.025	0.0140689
766.103	0.0141394
766.182	0.0141789
766.260	0.0140440
766.338	0.0139869
766.416	0.0139452
766.494	0.0138184
766.572	0.0137874
766.650	0.0137250
766.728	0.0136524
766.807	0.0134999
766.885	0.0133954
766.963	0.0136684
767.041	0.0135017
767.119	0.0134689
767.197	0.0133575
767.275	0.0135051
767.353	0.0134874
767.432	0.0133465
767.510	0.0134525
767.588	0.0133562
767.666	0.0134498
767.744	0.0133761
767.822	0.0133976
767.900	0.0135039
767.978	0.0134766
768.057	0.0134946
768.135	0.0136766
768.213	0.0134151
768.291	0.0137145
768.369	0.0136990
768.447	0.0136398
768.525	0.0136305
768.603	0.0137566
768.682	0.0137777
768.760	0.0139867
768.838	0.0138719
768.916	0.0140151
768.994	0.0140923
769.072	0.0140754
769.150	0.0140446
769.228	0.0141787
769.307	0.0142712
769.385	0.0142979
769.463	0.0142589
769.541	0.0144778
769.619	0.0145042
769.697	0.0143945
769.775	0.0143837
769.853	0.0146778
769.932	0.0145585
770.010	0.0145835
770.088	0.0147208
770.166	0.0147079
770.244	0.0147317
770.322	0.0147839
770.400	0.0148186
770.478	0.0148066
770.557	0.0147620
770.635	0.0148080
770.713	0.0147544
770.791	0.0146387
770.869	0.0146222
770.947	0.0146506
771.025	0.0144411
771.103	0.0144379
771.182	0.0142801
771.260	0.0142723
771.338	0.0143610
771.416	0.0142329
771.494	0.0141369
771.572	0.0141254
771.650	0.0140433
771.728	0.0139124
771.807	0.0138953
771.885	0.0139436
771.963	0.0139349
772.041	0.0138640
772.119	0.0137743
772.197	0.0137234
772.275	0.0137099
772.353	0.0135390
772.432	0.0135625
772.510	0.0136333
772.588	0.0134646
772.666	0.0135341
772.744	0.0134665
772.822	0.0136928
772.900	0.0135992
772.978	0.0136762
773.057	0.0136697
773.135	0.0135485
773.213	0.0136939
773.291	0.0137135
773.369	0.0137586
773.447	0.0137834
773.525	0.0138258
773.603	0.0139826
773.682	0.0137927
773.760	0.0138865
773.838	0.0138748
773.916	0.0140116
773.994	0.0141956
774.072	0.0140800
774.150	0.0141197
774.228	0.0141104
774.307	0.0142731
774.385	0.0143661
774.463	0.0142470
774.541	0.0142200
774.619	0.0143678
774.697	0.0142787
774.775	0.0142072
774.853	0.0143545
774.932	0.0141418
775.010	0.0140152
775.088	0.0140118
775.166	0.0139319
775.244	0.0139526
775.322	0.0138467
775.400	0.0137695
775.478	0.0136423
775.557	0.0135606
775.635	0.0135712
775.713	0.0134838
775.791	0.0134785
775.869	0.0134233
775.947	0.0132944
776.025	0.0134357
776.103	0.0134135
776.182	0.0135664
776.260	0.0134319
776.338	0.0133751
776.416	0.0135491
776.494	0.0135609
776.572	0.0137070
776.650	0.0136842
776.728	0.0136533
776.807	0.0137666
776.885	0.0139001
776.963	0.0140241
777.041	0.0140641
777.119	0.0138917
777.197	0.0141588
777.275	0.0142316
777.353	0.0143463
777.432	0.0142039
777.510	0.0142396
777.588	0.0144473
777.666	0.0143480
777.744	0.0143607
777.822	0.0143954
777.900	0.0143098
777.978	0.0144144
778.057	0.0144280
778.135	0.0143830
778.213	0.0143842
778.291	0.0142976
778.369	0.0141534
778.447	0.0141380
778.525	0.0141685
778.603	0.0141727
778.682	0.0141313
778.760	0.0142121
778.838	0.0141113
778.916	0.0141697
778.994	0.0140553
779.072	0.0139906
779.150	0.0139875
779.228	0.0140755
779.307	0.0140379
779.385	0.0140660
779.463	0.0140792
779.541	0.0140626
779.619	0.0142356
779.697	0.0141825
779.775	0.0141946
779.853	0.0142203
779.932	0.0143597
780.010	0.0144373
780.088	0.0142426
780.166	0.0142777
780.244	0.0144276
780.322	0.0142971
780.400	0.0144190
780.478	0.0143389
780.557	0.0144110
780.635	0.0143703
780.713	0.0143055
780.791	0.0143159
780.869	0.0142991
780.947	0.0142912
781.025	0.0143022
781.103	0.0142968
781.182	0.0143676
781.260	0.0141378
781.338	0.0141531
781.416	0.0143098
781.494	0.0141405
781.572	0.0141166
781.650	0.0142136
781.728	0.0141008
781.807	0.0141111
781.885	0.0142301
781.963	0.0139640
782.041	0.0139120
782.119	0.0140096
782.197	0.0138871
782.275	0.0138457
782.353	0.0138202
782.432	0.0139044
782.510	0.0138475
782.588	0.0137083
782.666	0.0137849
782.744	0.0137476
782.822	0.0138314
782.900	0.0137572
782.978	0.0136594
783.057	0.0135538
783.135	0.0135495
783.213	0.0136787
783.291	0.0137344
783.369	0.0137764
783.447	0.0138426
783.525	0.0139501
783.603	0.0138752
783.682	0.0136470
783.760	0.0138418
783.838	0.0139925
783.916	0.0140675
783.994	0.0139506
784.072	0.0140169
784.150	0.0141628
784.228	0.0141608
784.307	0.0142343
784.385	0.0142427
784.463	0.0143776
784.541	0.0143292
784.619	0.0143936
784.697	0.0144801
784.775	0.0143719
784.853	0.0143639
784.932	0.0144191
785.010	0.0145006
785.088	0.0145239
785.166	0.0145908
785.244	0.0145388
785.322	0.0146281
785.400	0.0146175
785.478	0.0145879
785.557	0.0146489
785.635	0.0146444
785.713	0.0147233
785.791	0.0147250
785.869	0.0146877
785.947	0.0147179
786.025	0.0145609
786.103	0.0145229
786.182	0.0145763
786.260	0.0145837
786.338	0.0145345
786.416	0.0144197
786.494	0.0144871
786.572	0.0144270
786.650	0.0142744
786.728	0.0143212
786.807	0.0141364
786.885	0.0141328
786.963	0.0142268
787.041	0.0141099
787.119	0.0141319
787.197	0.0140579
787.275	0.0139782
787.353	0.0139437
787.432	0.0139094
787.510	0.0138252
787.588	0.0138648
787.666	0.0136562
787.744	0.0136440
787.822	0.0136474
787.900	0.0135734
787.978	0.0134635
788.057	0.0134941
788.135	0.0133800
788.213	0.0134743
788.291	0.0133280
788.369	0.0133212
788.447	0.0133289
788.525	0.0132739
788.603	0.0133894
788.682	0.0133366
788.760	0.0134145
788.838	0.0134079
788.916	0.0132817
788.994	0.0134009
789.072	0.0135114
789.150	0.0135615
789.228	0.0134187
789.307	0.0132937
789.385	0.0135187
789.463	0.0135258
789.541	0.0135781
789.619	0.0136671
789.697	0.0137675
789.775	0.0136529
789.853	0.0136674
789.932	0.0138840
790.010	0.0137510
790.088	0.0139500
790.166	0.0139858
790.244	0.0139758
790.322	0.0140856
790.400	0.0141356
790.478	0.0141131
790.557	0.0142060
790.635	0.0142920
790.713	0.0144304
790.791	0.0144687
790.869	0.0145441
790.947	0.0144784
791.025	0.0145409
791.103	0.0146209
791.182	0.0146653
791.260	0.0147760
791.338	0.0147850
791.416	0.0147670
791.494	0.0147804
791.572	0.0148675
791.650	0.0148193
791.728	0.0147440
791.807	0.0147973
791.885	0.0145623
791.963	0.0145556
792.041	0.0146177
792.119	0.0144909
792.197	0.0143897
792.275	0.0144988
792.353	0.0143494
792.432	0.0143958
792.510	0.0143096
792.588	0.0143984
792.666	0.0141738
792.744	0.0142840
792.822	0.0140753
792.900	0.0140141
792.978	0.0139554
793.057	0.0140279
793.135	0.0140686
793.213	0.0139852
793.291	0.0137337
793.369	0.0138139
793.447	0.0138927
793.525	0.0138727
793.603	0.0138850
793.682	0.0139371
793.760	0.0137348
793.838	0.0138908
793.916	0.0139136
793.994	0.0139355
794.072	0.0140396
794.150	0.0140221
794.228	0.0141209
794.307	0.0141387
794.385	0.0141003
794.463	0.0140476
794.541	0.0141851
794.619	0.0141678
794.697	0.0140442
794.775	0.0140988
794.853	0.0140713
794.932	0.0139767
795.010	0.0140430
795.088	0.0140572
795.166	0.0140218
795.244	0.0139712
795.322	0.0139378
795.400	0.0138314
795.478	0.0138872
795.557	0.0137704
795.635	0.0137602
795.713	0.0138626
795.791	0.0138284
795.869	0.0139137
795.947	0.0138474
796.025	0.0139365
796.103	0.0139069
796.182	0.0139753
796.260	0.0137525
796.338	0.0137952
796.416	0.0138734
796.494	0.0139809
796.572	0.0138560
796.650	0.0138174
796.728	0.0138894
796.807	0.0139612
796.885	0.0139146
796.963	0.0138773
797.041	0.0139244
797.119	0.0139520
797.197	0.0139732
797.275	0.0141088
797.353	0.0139506
797.432	0.0139976
797.510	0.0139558
797.588	0.0140640
797.666	0.0140797
797.744	0.0139469
797.822	0.0140730
797.900	0.0142336
797.978	0.0141110
798.057	0.0142905
798.135	0.0143511
798.213	0.0141947
798.291	0.0141128
798.369	0.0143021
798.447	0.0141897
798.525	0.0142269
798.603	0.0142496
798.682	0.0142110
798.760	0.0142304
798.838	0.0141661
798.916	0.0141975
798.994	0.0142554
799.072	0.0140703
799.150	0.0140780
799.228	0.0140547
799.307	0.0141985
799.385	0.0140768
799.463	0.0140353
799.541	0.0141090
799.619	0.0140411
799.697	0.0139800
799.775	0.0141254
799.853	0.0138650
799.932	0.0140158
800.010	0.0139667
800.088	0.0139223
800.166	0.0139376
800.244	0.0138959
800.322	0.0139354
800.400	0.0139224
800.478	0.0139541
800.557	0.0140230
800.635	0.0138409
800.713	0.0139620
800.791	0.0141570
800.869	0.0139188
800.947	0.0140656
801.025	0.0140757
801.103	0.0141227
801.182	0.0140603
801.260	0.0141314
801.338	0.0141795
801.416	0.0143262
801.494	0.0141363
801.572	0.0142175
801.650	0.0143186
801.728	0.0141488
801.807	0.0144265
801.885	0.0145352
801.963	0.0144009
802.041	0.0145567
802.119	0.0142091
802.197	0.0143554
802.275	0.0141757
802.353	0.0141686
802.432	0.0140750
802.510	0.0140673
802.588	0.0139495
802.666	0.0138796
802.744	0.0139294
802.822	0.0138148
802.900	0.0138454
802.978	0.0138090
803.057	0.0140553
803.135	0.0140154
803.213	0.0140505
803.291	0.0140292
803.369	0.0140849
803.447	0.0141244
803.525	0.0140916
803.603	0.0142407
803.682	0.0142010
803.760	0.0142249
803.838	0.0142455
803.916	0.0142244
803.994	0.0142500
804.072	0.0140457
804.150	0.0140520
804.228	0.0140412
804.307	0.0139207
804.385	0.0137415
804.463	0.0137002
804.541	0.0137322
804.619	0.0135725
804.697	0.0136710
804.775	0.0135094
804.853	0.0135545
804.932	0.0133778
805.010	0.0135845
805.088	0.0136880
805.166	0.0135403
805.244	0.0136326
805.322	0.0137557
805.400	0.0137360
805.478	0.0138979
805.557	0.0139130
805.635	0.0138905
805.713	0.0140110
805.791	0.0139377
805.869	0.0137875
805.947	0.0139220
806.025	0.0139727
806.103	0.0139066
806.182	0.0139951
806.260	0.0140719
806.338	0.0138847
806.416	0.0140165
806.494	0.0140958
806.572	0.0141831
806.650	0.0141331
806.728	0.0143581
806.807	0.0143697
806.885	0.0144189
806.963	0.0144613
807.041	0.0143361
807.119	0.0144058
807.197	0.0144547
807.275	0.0143297
807.353	0.0143781
807.432	0.0143569
807.510	0.0141980
807.588	0.0142830
807.666	0.0141505
807.744	0.0141914
807.822	0.0143000
807.900	0.0142730
807.978	0.0141814
808.057	0.0142712
808.135	0.0142702
808.213	0.0143527
808.291	0.0141513
808.369	0.0142049
808.447	0.0141663
808.525	0.0139708
808.603	0.0138602
808.682	0.0138709
808.760	0.0137505
808.838	0.0136520
808.916	0.0135735
808.994	0.0135407
809.072	0.0135071
809.150	0.0134035
809.228	0.0134291
809.307	0.0134895
809.385	0.0134394
809.463	0.0135328
809.541	0.0137733
809.619	0.0138021
809.697	0.0139125
809.775	0.0140941
809.853	0.0142226
809.932	0.0142299
810.010	0.0145805
810.088	0.0146212
810.166	0.0147646
810.244	0.0148534
810.322	0.0147215
810.400	0.0148292
810.478	0.0147408
810.557	0.0146608
810.635	0.0145175
810.713	0.0144319
810.791	0.0145538
810.869	0.0143591
810.947	0.0142933
811.025	0.0142507
811.103	0.0141101
811.182	0.0140407
811.260	0.0140107
811.338	0.0140746
811.416	0.0138940
811.494	0.0140558
811.572	0.0140464
811.650	0.0140469
811.728	0.0140730
811.807	0.0139875
811.885	0.0139413
811.963	0.0140979
812.041	0.0140464
812.119	0.0139328
812.197	0.0140215
812.275	0.0139600
812.353	0.0138677
812.432	0.0138584
812.510	0.0139481
812.588	0.0137775
812.666	0.0137386
812.744	0.0137914
812.822	0.0137543
812.900	0.0137244
812.978	0.0135973
813.057	0.0137471
813.135	0.0137450
813.213	0.0136422
813.291	0.0137757
813.369	0.0138897
813.447	0.0140302
813.525	0.0140366
813.603	0.0140242
813.682	0.0140449
813.760	0.0140871
813.838	0.0140121
813.916	0.0139973
813.994	0.0139615
814.072	0.0139737
814.150	0.0139729
814.228	0.0138842
814.307	0.0139545
814.385	0.0138939
814.463	0.0139796
814.541	0.0139029
814.619	0.0139224
814.697	0.0140128
814.775	0.0138914
814.853	0.0140296
814.932	0.0139158
815.010	0.0139661
815.088	0.0140221
815.166	0.0141353
815.244	0.0141307
815.322	0.0141077
815.400	0.0142776
815.478	0.0144887
815.557	0.0144208
815.635	0.0146404
815.713	0.0146208
815.791	0.0145598
815.869	0.0145800
815.947	0.0147997
816.025	0.0147350
816.103	0.0146774
816.182	0.0145213
816.260	0.0146033
816.338	0.0144759
816.416	0.0143887
816.494	0.0142986
816.572	0.0142159
816.650	0.0140417
816.728	0.0139064
816.807	0.0138853
816.885	0.0138909
816.963	0.0138906
817.041	0.0137922
817.119	0.0137576
817.197	0.0135590
817.275	0.0136665
817.353	0.0137274
817.432	0.0137436
817.510	0.0138546
817.588	0.0137354
817.666	0.0138736
817.744	0.0138493
817.822	0.0139892
817.900	0.0137945
817.978	0.0138126
818.057	0.0138047
818.135	0.0139783
818.213	0.0140344
818.291	0.0141495
818.369	0.0140050
818.447	0.0140079
818.525	0.0140023
818.603	0.0140296
818.682	0.0140017
818.760	0.0138698
818.838	0.0139198
818.916	0.0138590
818.994	0.0138361
819.072	0.0138673
819.150	0.0138973
819.228	0.0138625
819.307	0.0137440
819.385	0.0138812
819.463	0.0138396
819.541	0.0138566
819.619	0.0138571
819.697	0.0140130
819.775	0.0138980
819.853	0.0140508
819.932	0.0140498
820.010	0.0140813
820.088	0.0142496
820.166	0.0143290
820.244	0.0144132
820.322	0.0144317
820.400	0.0144328
820.478	0.0145405
820.557	0.0145068
820.635	0.0144457
820.713	0.0144225
820.791	0.0144196
820.869	0.0143510
820.947	0.0142723
821.025	0.0141251
821.103	0.0141927
821.182	0.0139674
821.260	0.0139943
821.338	0.0138246
821.416	0.0137627
821.494	0.0136826
821.572	0.0135700
821.650	0.0135050
821.728	0.0136347
821.807	0.0136706
821.885	0.0136295
821.963	0.0138472
822.041	0.0137903
822.119	0.0139648
822.197	0.0140285
822.275	0.0141854
822.353	0.0143250
822.432	0.0142724
822.510	0.0143755
822.588	0.0143645
822.666	0.0145131
822.744	0.0145284
822.822	0.0146454
822.900	0.0144156
822.978	0.0143454
823.057	0.0142565
823.135	0.0142343
823.213	0.0140643
823.291	0.0140055
823.369	0.0139846
823.447	0.0138329
823.525	0.0137179
823.603	0.0137698
823.682	0.0137057
823.760	0.0137069
823.838	0.0135317
823.916	0.0137805
823.994	0.0138358
824.072	0.0137487
824.150	0.0138469
824.228	0.0138398
824.307	0.0138620
824.385	0.0139819
824.463	0.0138408
824.541	0.0139804
824.619	0.0140971
824.697	0.0140749
824.775	0.0138933
824.853	0.0140004
824.932	0.0139596
825.010	0.0139278
825.088	0.0137582
825.166	0.0137270
825.244	0.0137142
825.322	0.0137397
825.400	0.0135914
825.478	0.0137099
825.557	0.0136377
825.635	0.0137347
825.713	0.0137503
825.791	0.0137614
825.869	0.0138773
825.947	0.0139272
826.025	0.0141039
826.103	0.0141157
826.182	0.0142042
826.260	0.0142325
826.338	0.0144139
826.416	0.0144230
826.494	0.0146111
826.572	0.0145229
826.650	0.0143214
826.728	0.0145506
826.807	0.0146484
826.885	0.0145148
826.963	0.0143761
827.041	0.0145223
827.119	0.0144380
827.197	0.0143890
827.275	0.0143067
827.353	0.0143026
827.432	0.0142864
827.510	0.0141634
827.588	0.0140938
827.666	0.0141361
827.744	0.0141502
827.822	0.0138462
827.900	0.0139783
827.978	0.0138780
828.057	0.0137625
828.135	0.0135130
828.213	0.0136330
828.291	0.0135754
828.369	0.0135401
828.447	0.0135186
828.525	0.0134927
828.603	0.0135664
828.682	0.0137068
828.760	0.0138372
828.838	0.0139156
828.916	0.0138462
828.994	0.0138874
829.072	0.0141152
829.150	0.0141621
829.228	0.0142617
829.307	0.0145467
829.385	0.0144620
829.463	0.0144295
829.541	0.0145067
829.619	0.0143797
829.697	0.0143744
829.775	0.0142823
829.853	0.0143053
829.932	0.0141693
830.010	0.0141040
830.088	0.0140895
830.166	0.0140908
830.244	0.0139594
830.322	0.0139472
830.400	0.0138650
830.478	0.0138535
830.557	0.0137827
830.635	0.0137401
830.713	0.0136916
830.791	0.0136398
830.869	0.0136292
830.947	0.0135948
831.025	0.0134323
831.103	0.0134839
831.182	0.0133307
831.260	0.0134766
831.338	0.0133901
831.416	0.0134379
831.494	0.0133752
831.572	0.0134661
831.650	0.0135810
831.728	0.0136703
831.807	0.0136725
831.885	0.0138351
831.963	0.0140129
832.041	0.0140488
832.119	0.0141199
832.197	0.0142134
832.275	0.0142276
832.353	0.0143417
832.432	0.0142912
832.510	0.0143226
832.588	0.0143963
832.666	0.0145085
832.744	0.0144205
832.822	0.0141881
832.900	0.0143446
832.978	0.0143671
833.057	0.0143415
833.135	0.0143002
833.213	0.0143701
833.291	0.0144286
833.369	0.0144919
833.447	0.0144178
833.525	0.0140210
833.603	0.0143794
833.682	0.0144816
833.760	0.0144289
833.838	0.0144355
833.916	0.0142976
833.994	0.0142857
834.072	0.0144511
834.150	0.0144635
834.228	0.0143654
834.307	0.0143369
834.385	0.0143394
834.463	0.0142097
834.541	0.0142209
834.619	0.0141777
834.697	0.0140005
834.775	0.0139996
834.853	0.0140006
834.932	0.0139297
835.010	0.0138855
835.088	0.0137380
835.166	0.0138087
835.244	0.0136970
835.322	0.0136057
835.400	0.0136231
835.478	0.0138530
835.557	0.0137399
835.635	0.0136342
835.713	0.0137936
835.791	0.0136745
835.869	0.0136701
835.947	0.0136116
836.025	0.0137331
836.103	0.0136684
836.182	0.0137438
836.260	0.0137463
836.338	0.0136843
836.416	0.0137112
836.494	0.0138552
836.572	0.0137160
836.650	0.0137056
836.728	0.0138308
836.807	0.0139668
836.885	0.0138622
836.963	0.0141350
837.041	0.0140518
837.119	0.0140906
837.197	0.0139915
837.275	0.0142081
837.353	0.0141864
837.432	0.0142072
837.510	0.0141770
837.588	0.0140549
837.666	0.0142280
837.744	0.0143283
837.822	0.0144041
837.900	0.0141850
837.978	0.0142712
838.057	0.0142616
838.135	0.0142322
838.213	0.0143317
838.291	0.0142718
838.369	0.0141805
838.447	0.0141565
838.525	0.0140294
838.603	0.0139537
838.682	0.0138395
838.760	0.0139351
838.838	0.0138831
838.916	0.0139297
838.994	0.0138126
839.072	0.0137036
839.150	0.0137519
839.228	0.0137528
839.307	0.0136866
839.385	0.0137754
839.463	0.0136591
839.541	0.0137063
839.619	0.0137724
839.697	0.0138898
839.775	0.0139639
839.853	0.0139484
839.932	0.0139633
840.010	0.0140550
840.088	0.0141568
840.166	0.0141300
840.244	0.0143327
840.322	0.0143771
840.400	0.0142521
840.478	0.0143961
840.557	0.0145029
840.635	0.0143916
840.713	0.0143819
840.791	0.0143961
840.869	0.0143752
840.947	0.0143932
841.025	0.0145000
841.103	0.0143980
841.182	0.0144389
841.260	0.0143266
841.338	0.0144344
841.416	0.0144817
841.494	0.0144599
841.572	0.0143900
841.650	0.0145100
841.728	0.0144622
841.807	0.0143295
841.885	0.0141937
841.963	0.0142638
842.041	0.0143626
842.119	0.0142081
842.197	0.0141467
842.275	0.0141528
842.353	0.0140073
842.432	0.0139557
842.510	0.0138520
842.588	0.0138428
842.666	0.0139284
842.744	0.0137368
842.822	0.0137908
842.900	0.0136288
842.978	0.0137013
843.057	0.0134734
843.135	0.0135023
843.213	0.0134979
843.291	0.0135621
843.369	0.0132784
843.447	0.0134923
843.525	0.0136050
843.603	0.0135236
843.682	0.0136327
843.760	0.0136961
843.838	0.0136810
843.916	0.0138179
843.994	0.0139101
844.072	0.0138902
844.150	0.0140331
844.228	0.0141708
844.307	0.0142741
844.385	0.0144076
844.463	0.0143673
844.541	0.0145069
844.619	0.0144478
844.697	0.0145063
844.775	0.0145237
844.853	0.0144397
844.932	0.0146634
845.010	0.0146157
845.088	0.0146376
845.166	0.0145201
845.244	0.0147810
845.322	0.0145409
845.400	0.0145003
845.478	0.0143760
845.557	0.0143637
845.635	0.0142818
845.713	0.0142622
845.791	0.0141676
845.869	0.0140479
845.947	0.0140255
846.025	0.0137807
846.103	0.0137642
846.182	0.0137447
846.260	0.0139056
846.338	0.0135493
846.416	0.0134802
846.494	0.0136174
846.572	0.0135938
846.650	0.0135824
846.728	0.0134877
846.807	0.0136510
846.885	0.0136994
846.963	0.0136890
847.041	0.0138090
847.119	0.0135724
847.197	0.0137324
847.275	0.0137798
847.353	0.0137157
847.432	0.0137100
847.510	0.0137445
847.588	0.0137112
847.666	0.0137663
847.744	0.0137563
847.822	0.0137014
847.900	0.0137920
847.978	0.0138063
848.057	0.0137269
848.135	0.0139909
848.213	0.0140532
848.291	0.0140849
848.369	0.0142426
848.447	0.0142000
848.525	0.0141864
848.603	0.0141754
848.682	0.0144584
848.760	0.0144627
848.838	0.0144643
848.916	0.0144344
848.994	0.0144160
849.072	0.0145254
849.150	0.0145213
849.228	0.0144531
849.307	0.0144527
849.385	0.0145273
849.463	0.0144000
849.541	0.0143553
849.619	0.0142171
849.697	0.0142020
849.775	0.0141805
849.853	0.0141444
849.932	0.0140302
850.010	0.0138783
850.088	0.0139570
850.166	0.0139276
850.244	0.0138532
850.322	0.0138596
850.400	0.0139499
850.478	0.0138547
850.557	0.0137064
850.635	0.0137865
850.713	0.0137848
850.791	0.0136161
850.869	0.0136827
850.947	0.0135765
851.025	0.0136009
851.103	0.0137289
851.182	0.0136746
851.260	0.0137207
851.338	0.0137133
851.416	0.0138600
851.494	0.0138488
851.572	0.0139997
851.650	0.0139078
851.728	0.0138338
851.807	0.0139530
851.885	0.0138712
851.963	0.0139873
852.041	0.0142156
852.119	0.0141069
852.197	0.0140536
852.275	0.0142766
852.353	0.0143520
852.432	0.0141084
852.510	0.0142567
852.588	0.0143047
852.666	0.0142804
852.744	0.0143796
852.822	0.0143005
852.900	0.0144076
852.978	0.0143165
853.057	0.0142566
853.135	0.0142775
853.213	0.0144375
853.291	0.0141704
853.369	0.0140952
853.447	0.0142076
853.525	0.0140856
853.603	0.0141896
853.682	0.0139877
853.760	0.0141225
853.838	0.0141412
853.916	0.0139749
853.994	0.0139515
854.072	0.0140664
854.150	0.0140605
854.228	0.0139477
854.307	0.0139027
854.385	0.0139836
854.463	0.0139726
854.541	0.0138831
854.619	0.0139214
854.697	0.0138137
854.775	0.0137434
854.853	0.0138331
854.932	0.0138359
855.010	0.0137274
855.088	0.0136826
855.166	0.0137115
855.244	0.0136327
855.322	0.0137919
855.400	0.0136939
855.478	0.0138237
855.557	0.0138757
855.635	0.0140202
855.713	0.0142314
855.791	0.0140436
855.869	0.0141380
855.947	0.0141513
856.025	0.0143951
856.103	0.0144350
856.182	0.0144930
856.260	0.0145841
856.338	0.0145528
856.416	0.0145928
856.494	0.0146032
856.572	0.0146470
856.650	0.0144704
856.728	0.0145193
856.807	0.0145849
856.885	0.0144576
856.963	0.0144097
857.041	0.0144877
857.119	0.0143493
857.197	0.0143126
857.275	0.0144222
857.353	0.0142779
857.432	0.0141613
857.510	0.0141499
857.588	0.0140782
857.666	0.0138960
857.744	0.0139742
857.822	0.0139610
857.900	0.0137962
857.978	0.0138432
858.057	0.0136874
858.135	0.0137555
858.213	0.0135734
858.291	0.0135851
858.369	0.0137213
858.447	0.0136723
858.525	0.0137226
858.603	0.0137647
858.682	0.0137334
858.760	0.0138046
858.838	0.0137608
858.916	0.0138850
858.994	0.0140674
859.072	0.0141470
859.150	0.0139782
859.228	0.0140472
859.307	0.0140600
859.385	0.0140996
859.463	0.0141382
859.541	0.0141255
859.619	0.0141338
859.697	0.0143788
859.775	0.0142229
859.853	0.0142926
859.932	0.0143641
860.010	0.0143041
860.088	0.0144764
860.166	0.0143243
860.244	0.0144353
860.322	0.0142130
860.400	0.0143275
860.478	0.0143632
860.557	0.0143008
860.635	0.0142833
860.713	0.0143006
860.791	0.0141976
860.869	0.0141486
860.947	0.0141244
861.025	0.0140280
861.103	0.0141310
861.182	0.0141315
861.260	0.0140521
861.338	0.0139577
861.416	0.0138132
861.494	0.0138950
861.572	0.0140362
861.650	0.0140578
861.728	0.0138484
861.807	0.0138582
861.885	0.0139581
861.963	0.0137473
862.041	0.0138351
862.119	0.0137577
862.197	0.0137852
862.275	0.0135355
862.353	0.0136601
862.432	0.0137579
862.510	0.0137082
862.588	0.0137679
862.666	0.0137830
862.744	0.0138203
862.822	0.0138362
862.900	0.0138226
862.978	0.0138762
863.057	0.0138082
863.135	0.0137592
863.213	0.0140577
863.291	0.0138259
863.369	0.0138885
863.447	0.0138155
863.525	0.0139576
863.603	0.0140829
863.682	0.0141227
863.760	0.0141808
863.838	0.0140044
863.916	0.0142454
863.994	0.0141338
864.072	0.0142171
864.150	0.0144022
864.228	0.0143237
864.307	0.0141796
864.385	0.0143448
864.463	0.0144073
864.541	0.0143566
864.619	0.0141362
864.697	0.0143345
864.775	0.0143745
864.853	0.0142973
864.932	0.0142275
865.010	0.0143783
865.088	0.0143025
865.166	0.0140289
865.244	0.0143770
865.322	0.0143170
865.400	0.0143359
865.478	0.0142380
865.557	0.0142126
865.635	0.0142083
865.713	0.0140672
865.791	0.0141398
865.869	0.0140393
865.947	0.0140116
866.025	0.0140042
866.103	0.0139183
866.182	0.0139700
866.260	0.0138593
866.338	0.0140039
866.416	0.0139934
866.494	0.0138484
866.572	0.0139055
866.650	0.0136888
866.728	0.0138092
866.807	0.0139626
866.885	0.0138779
866.963	0.0139096
867.041	0.0139653
867.119	0.0138456
867.197	0.0139359
867.275	0.0139925
867.353	0.0140651
867.432	0.0140155
867.510	0.0140496
867.588	0.0139716
867.666	0.0141235
867.744	0.0140912
867.822	0.0141547
867.900	0.0141989
867.978	0.0140612
868.057	0.0141597
868.135	0.0142411
868.213	0.0141816
868.291	0.0142087
868.369	0.0142562
868.447	0.0141097
868.525	0.0142937
868.603	0.0141792
868.682	0.0142691
868.760	0.0142482
868.838	0.0143031
868.916	0.0141873
868.994	0.0141091
869.072	0.0140643
869.150	0.0141428
869.228	0.0139913
869.307	0.0140822
869.385	0.0139513
869.463	0.0138885
869.541	0.0139342
869.619	0.0139066
869.697	0.0137244
869.775	0.0136809
869.853	0.0137556
869.932	0.0136973
870.010	0.0138311
870.088	0.0136672
870.166	0.0137029
870.244	0.0138005
870.322	0.0138335
870.400	0.0137391
870.478	0.0139520
870.557	0.0138715
870.635	0.0137923
870.713	0.0137994
870.791	0.0138129
870.869	0.0139822
870.947	0.0139970
871.025	0.0140759
871.103	0.0140645
871.182	0.0139542
871.260	0.0140875
871.338	0.0140639
871.416	0.0141615
871.494	0.0142553
871.572	0.0142617
871.650	0.0142955
871.728	0.0141136
871.807	0.0143480
871.885	0.0143179
871.963	0.0143823
872.041	0.0142872
872.119	0.0144447
872.197	0.0145119
872.275	0.0145025
872.353	0.0144545
872.432	0.0144234
872.510	0.0144522
872.588	0.0144868
872.666	0.0144354
872.744	0.0143533
872.822	0.0144473
872.900	0.0142366
872.978	0.0143674
873.057	0.0142935
873.135	0.0143167
873.213	0.0142843
873.291	0.0141796
873.369	0.0141296
873.447	0.0141936
873.525	0.0141036
873.603	0.0140186
873.682	0.0139976
873.760	0.0140172
873.838	0.0139714
873.916	0.0140809
873.994	0.0138703
874.072	0.0138698
874.150	0.0139831
874.228	0.0140800
874.307	0.0140261
874.385	0.0139749
874.463	0.0139669
874.541	0.0139252
874.619	0.0140437
874.697	0.0140241
874.775	0.0141180
874.853	0.0141175
874.932	0.0141605
875.010	0.0140839
875.088	0.0141310
875.166	0.0142503
875.244	0.0142659
875.322	0.0141454
875.400	0.0142248
875.478	0.0142149
875.557	0.0141403
875.635	0.0142898
875.713	0.0142482
875.791	0.0141646
875.869	0.0142075
875.947	0.0142621
876.025	0.0144158
876.103	0.0142599
876.182	0.0143174
876.260	0.0142648
876.338	0.0142409
876.416	0.0143919
876.494	0.0142937
876.572	0.0142603
876.650	0.0142438
876.728	0.0143538
876.807	0.0141934
876.885	0.0142049
876.963	0.0142204
877.041	0.0141022
877.119	0.0141413
877.197	0.0140969
877.275	0.0140762
877.353	0.0141355
877.432	0.0140016
877.510	0.0138615
877.588	0.0141123
877.666	0.0139414
877.744	0.0138789
877.822	0.0139430
877.900	0.0138655
877.978	0.0138893
878.057	0.0139169
878.135	0.0138017
878.213	0.0138083
878.291	0.0138601
878.369	0.0140304
878.447	0.0138171
878.525	0.0138322
878.603	0.0139904
878.682	0.0140087
878.760	0.0139222
878.838	0.0139430
878.916	0.0138672
878.994	0.0139063
879.072	0.0141490
879.150	0.0141998
879.228	0.0139314
879.307	0.0141103
879.385	0.0141406
879.463	0.0140349
879.541	0.0140672
879.619	0.0141554
879.697	0.0141006
879.775	0.0141096
879.853	0.0142156
879.932	0.0142401
880.010	0.0142413
880.088	0.0141853
880.166	0.0140331
880.244	0.0141953
880.322	0.0142339
880.400	0.0141010
880.478	0.0141508
880.557	0.0141893
880.635	0.0142061
880.713	0.0142869
880.791	0.0142475
880.869	0.0141616
880.947	0.0140459
881.025	0.0140504
881.103	0.0141658
881.182	0.0140599
881.260	0.0141109
881.338	0.0140616
881.416	0.0141667
881.494	0.0141569
881.572	0.0141747
881.650	0.0141649
881.728	0.0140451
881.807	0.0141543
881.885	0.0142937
881.963	0.0141250
882.041	0.0141754
882.119	0.0141173
882.197	0.0142358
882.275	0.0141872
882.353	0.0141393
882.432	0.0140245
882.510	0.0141550
882.588	0.0140900
882.666	0.0139506
882.744	0.0140945
882.822	0.0140833
882.900	0.0140367
882.978	0.0139732
883.057	0.0137668
883.135	0.0137890
883.213	0.0137894
883.291	0.0137814
883.369	0.0138663
883.447	0.0138327
883.525	0.0137344
883.603	0.0137354
883.682	0.0135870
883.760	0.0139188
883.838	0.0136832
883.916	0.0137140
883.994	0.0138178
884.072	0.0138510
884.150	0.0137682
884.228	0.0138361
884.307	0.0138997
884.385	0.0137637
884.463	0.0139342
884.541	0.0138502
884.619	0.0139262
884.697	0.0139445
884.775	0.0139096
884.853	0.0138785
884.932	0.0139134
885.010	0.0140063
885.088	0.0140954
885.166	0.0141058
885.244	0.0139558
885.322	0.0140085
885.400	0.0139609
885.478	0.0141129
885.557	0.0142715
885.635	0.0141802
885.713	0.0140422
885.791	0.0141536
885.869	0.0142109
885.947	0.0142151
886.025	0.0140450
886.103	0.0141312
886.182	0.0142154
886.260	0.0140778
886.338	0.0140776
886.416	0.0140350
886.494	0.0140048
886.572	0.0138541
886.650	0.0138493
886.728	0.0140410
886.807	0.0137927
886.885	0.0139037
886.963	0.0139533
887.041	0.0139960
887.119	0.0139095
887.197	0.0140220
887.275	0.0138806
887.353	0.0138660
887.432	0.0138649
887.510	0.0138241
887.588	0.0139278
887.666	0.0139006
887.744	0.0138824
887.822	0.0139397
887.900	0.0138045
887.978	0.0139550
888.057	0.0138997
888.135	0.0141463
888.213	0.0139455
888.291	0.0140668
888.369	0.0141488
888.447	0.0138847
888.525	0.0141095
888.603	0.0141996
888.682	0.0141387
888.760	0.0142379
888.838	0.0142831
888.916	0.0143948
888.994	0.0142901
889.072	0.0142656
889.150	0.0141688
889.228	0.0143633
889.307	0.0144698
889.385	0.0143951
889.463	0.0142901
889.541	0.0143424
889.619	0.0142091
889.697	0.0141329
889.775	0.0142974
889.853	0.0142095
889.932	0.0141331
890.010	0.0140816
890.088	0.0140978
890.166	0.0139702
890.244	0.0139627
890.322	0.0140955
890.400	0.0139861
890.478	0.0136470
890.557	0.0137532
890.635	0.0137575
890.713	0.0137965
890.791	0.0137859
890.869	0.0136486
890.947	0.0135894
891.025	0.0136623
891.103	0.0137806
891.182	0.0138000
891.260	0.0134685
891.338	0.0137164
891.416	0.0137302
891.494	0.0136340
891.572	0.0135900
891.650	0.0137289
891.728	0.0137360
891.807	0.0137776
891.885	0.0138596
891.963	0.0139293
892.041	0.0139947
892.119	0.0139792
892.197	0.0139649
892.275	0.0139982
892.353	0.0140752
892.432	0.0140863
892.510	0.0142727
892.588	0.0142046
892.666	0.0142822
892.744	0.0143040
892.822	0.0142657
892.900	0.0142107
892.978	0.0142968
893.057	0.0143459
893.135	0.0142058
893.213	0.0142519
893.291	0.0144632
893.369	0.0141989
893.447	0.0142294
893.525	0.0142411
893.603	0.0142196
893.682	0.0141403
893.760	0.0141025
893.838	0.0143403
893.916	0.0141336
893.994	0.0142258
894.072	0.0142352
894.150	0.0140842
894.228	0.0142503
894.307	0.0141960
894.385	0.0141821
894.463	0.0141502
894.541	0.0141454
894.619	0.0140192
894.697	0.0140057
894.775	0.0140146
894.853	0.0141313
894.932	0.0141278
895.010	0.0140691
895.088	0.0140014
895.166	0.0142897
895.244	0.0141582
895.322	0.0141350
895.400	0.0142451
895.478	0.0140841
895.557	0.0141471
895.635	0.0141628
895.713	0.0141196
895.791	0.0140518
895.869	0.0139143
895.947	0.0141689
896.025	0.0140028
896.103	0.0140012
896.182	0.0138748
896.260	0.0140858
896.338	0.0140909
896.416	0.0140304
896.494	0.0138870
896.572	0.0139285
896.650	0.0138912
896.728	0.0139745
896.807	0.0138737
896.885	0.0139384
896.963	0.0139561
897.041	0.0139551
897.119	0.0141278
897.197	0.0139886
897.275	0.0140038
897.353	0.0139742
897.432	0.0140369
897.510	0.0139587
897.588	0.0139671
897.666	0.0139778
897.744	0.0140502
897.822	0.0140849
897.900	0.0142658
897.978	0.0140745
898.057	0.0141552
898.135	0.0141554
898.213	0.0141253
898.291	0.0142517
898.369	0.0141074
898.447	0.0141428
898.525	0.0142188
898.603	0.0143102
898.682	0.0142638
898.760	0.0142896
898.838	0.0141717
898.916	0.0143111
898.994	0.0142247
899.072	0.0142928
899.150	0.0142558
899.228	0.0141798
899.307	0.0141386
899.385	0.0141681
899.463	0.0141813
899.541	0.0142506
899.619	0.0143331
899.697	0.0141593
899.775	0.0141798
899.853	0.0140369
899.932	0.0141481
900.010	0.0139082
900.088	0.0140687
900.166	0.0140897
900.244	0.0140306
900.322	0.0139754
900.400	0.0138751
900.478	0.0138995
900.557	0.0139407
900.635	0.0138574
900.713	0.0140343
900.791	0.0138050
900.869	0.0139052
900.947	0.0138611
901.025	0.0138972
901.103	0.0140274
901.182	0.0139554
901.260	0.0141567
901.338	0.0140514
901.416	0.0140739
901.494	0.0141176
901.572	0.0141282
901.650	0.0141410
901.728	0.0141514
901.807	0.0141825
901.885	0.0143899
901.963	0.0142105
902.041	0.0141367
902.119	0.0142616
902.197	0.0143433
902.275	0.0143047
902.353	0.0142059
902.432	0.0141091
902.510	0.0143703
902.588	0.0140857
902.666	0.0141941
902.744	0.0141460
902.822	0.0142064
902.900	0.0141845
902.978	0.0140559
903.057	0.0140780
903.135	0.0141192
903.213	0.0140030
903.291	0.0140314
903.369	0.0139540
903.447	0.0139018
903.525	0.0139901
903.603	0.0138225
903.682	0.0140048
903.760	0.0139915
903.838	0.0138619
903.916	0.0138546
903.994	0.0139449
904.072	0.0138644
904.150	0.0138919
904.228	0.0139359
904.307	0.0139268
904.385	0.0138728
904.463	0.0138137
904.541	0.0137607
904.619	0.0137630
904.697	0.0139785
904.775	0.0138915
904.853	0.0138085
904.932	0.0138417
905.010	0.0138322
905.088	0.0138206
905.166	0.0138007
905.244	0.0137152
905.322	0.0138608
905.400	0.0138852
905.478	0.0139316
905.557	0.0138634
905.635	0.0138835
905.713	0.0138555
905.791	0.0138628
905.869	0.0139295
905.947	0.0138865
906.025	0.0139699
906.103	0.0139890
906.182	0.0137627
906.260	0.0138036
906.338	0.0138561
906.416	0.0138545
906.494	0.0140104
906.572	0.0138903
906.650	0.0140166
906.728	0.0139139
906.807	0.0137904
906.885	0.0138284
906.963	0.0138314
907.041	0.0139951
907.119	0.0140569
907.197	0.0139364
907.275	0.0139943
907.353	0.0139494
907.432	0.0138826
907.510	0.0139335
907.588	0.0138255
907.666	0.0141065
907.744	0.0140584
907.822	0.0139861
907.900	0.0140830
907.978	0.0141572
908.057	0.0141914
908.135	0.0140257
908.213	0.0141221
908.291	0.0141251
908.369	0.0140955
908.447	0.0141730
908.525	0.0142324
908.603	0.0142654
908.682	0.0141121
908.760	0.0140056
908.838	0.0142189
908.916	0.0139920
908.994	0.0139995
909.072	0.0140806
909.150	0.0141000
909.228	0.0140714
909.307	0.0139085
909.385	0.0140598
909.463	0.0141301
909.541	0.0139636
909.619	0.0139492
909.697	0.0140500
909.775	0.0141351
909.853	0.0139890
909.932	0.0138307
910.010	0.0140054
910.088	0.0140606
910.166	0.0138660
910.244	0.0140108
910.322	0.0139930
910.400	0.0139547
910.478	0.0137991
910.557	0.0140623
910.635	0.0139691
910.713	0.0139608
910.791	0.0139662
910.869	0.0139989
910.947	0.0139706
911.025	0.0140511
911.103	0.0139532
911.182	0.0138498
911.260	0.0141347
911.338	0.0140216
911.416	0.0140262
911.494	0.0139046
911.572	0.0137984
911.650	0.0140536
911.728	0.0139349
911.807	0.0139320
911.885	0.0140390
911.963	0.0140904
912.041	0.0139160
912.119	0.0138206
912.197	0.0139890
912.275	0.0140944
912.353	0.0138900
912.432	0.0140324
912.510	0.0139890
912.588	0.0138425
912.666	0.0139565
912.744	0.0138683
912.822	0.0137170
912.900	0.0138072
912.978	0.0137382
913.057	0.0138700
913.135	0.0138111
913.213	0.0140202
913.291	0.0139909
913.369	0.0139267
913.447	0.0140327
913.525	0.0139268
913.603	0.0138125
913.682	0.0140245
913.760	0.0141029
913.838	0.0139822
913.916	0.0141541
913.994	0.0141556
914.072	0.0140675
914.150	0.0142356
914.228	0.0141859
914.307	0.0141809
914.385	0.0143242
914.463	0.0142774
914.541	0.0142726
914.619	0.0142314
914.697	0.0142044
914.775	0.0142410
914.853	0.0143279
914.932	0.0142836
915.010	0.0141333
915.088	0.0141154
915.166	0.0142945
915.244	0.0142191
915.322	0.0142923
915.400	0.0143882
915.478	0.0142803
915.557	0.0142348
915.635	0.0141743
915.713	0.0142181
915.791	0.0140932
915.869	0.0140549
915.947	0.0142651
916.025	0.0140761
916.103	0.0141845
916.182	0.0142080
916.260	0.0142561
916.338	0.0140871
916.416	0.0140913
916.494	0.0141285
916.572	0.0141566
916.650	0.0140542
916.728	0.0141678
916.807	0.0140773
916.885	0.0139092
916.963	0.0140356
917.041	0.0142037
917.119	0.0141176
917.197	0.0140765
917.275	0.0140794
917.353	0.0140405
917.432	0.0139782
917.510	0.0140580
917.588	0.0139459
917.666	0.0140240
917.744	0.0139952
917.822	0.0139281
917.900	0.0140783
917.978	0.0139944
918.057	0.0138885
918.135	0.0140227
918.213	0.0139439
918.291	0.0139354
918.369	0.0140057
918.447	0.0139704
918.525	0.0139528
918.603	0.0139818
918.682	0.0140759
918.760	0.0140048
918.838	0.0139910
918.916	0.0140061
918.994	0.0140986
919.072	0.0140750
919.150	0.0141040
919.228	0.0141855
919.307	0.0140238
919.385	0.0140682
919.463	0.0140598
919.541	0.0140704
919.619	0.0140730
919.697	0.0140831
919.775	0.0140847
919.853	0.0140534
919.932	0.0141481
920.010	0.0139011
920.088	0.0140089
920.166	0.0139716
920.244	0.0141922
920.322	0.0141122
920.400	0.0139684
920.478	0.0140508
920.557	0.0142120
920.635	0.0140456
920.713	0.0140585
920.791	0.0141034
920.869	0.0141731
920.947	0.0140311
921.025	0.0141054
921.103	0.0140222
921.182	0.0140732
921.260	0.0140302
921.338	0.0140242
921.416	0.0140842
921.494	0.0139702
921.572	0.0141331
921.650	0.0139402
921.728	0.0139854
921.807	0.0139965
921.885	0.0139680
921.963	0.0138441
922.041	0.0138209
922.119	0.0138169
922.197	0.0138403
922.275	0.0138264
922.353	0.0138643
922.432	0.0137293
922.510	0.0137856
922.588	0.0137933
922.666	0.0137955
922.744	0.0137405
922.822	0.0138689
922.900	0.0138051
922.978	0.0137466
923.057	0.0138384
923.135	0.0140172
923.213	0.0140250
923.291	0.0139585
923.369	0.0140090
923.447	0.0139741
923.525	0.0140714
923.603	0.0141288
923.682	0.0141212
923.760	0.0140759
923.838	0.0143536
923.916	0.0141454
923.994	0.0142683
924.072	0.0141681
924.150	0.0141539
924.228	0.0142539
924.307	0.0142637
924.385	0.0141180
924.463	0.0142332
924.541	0.0142978
924.619	0.0142815
924.697	0.0141096
924.775	0.0141737
924.853	0.0140845
924.932	0.0140515
925.010	0.0140379
925.088	0.0140746
925.166	0.0140607
925.244	0.0140550
925.322	0.0140778
925.400	0.0139955
925.478	0.0139680
925.557	0.0140728
925.635	0.0140367
925.713	0.0139017
925.791	0.0139816
925.869	0.0140551
925.947	0.0140231
926.025	0.0139581
926.103	0.0139368
926.182	0.0138938
926.260	0.0138815
926.338	0.0138234
926.416	0.0140142
926.494	0.0140624
926.572	0.0139352
926.650	0.0140228
926.728	0.0141136
926.807	0.0141006
926.885	0.0139304
926.963	0.0138885
927.041	0.0139783
927.119	0.0139338
927.197	0.0140633
927.275	0.0141078
927.353	0.0139289
927.432	0.0140376
927.510	0.0141812
927.588	0.0138371
927.666	0.0140992
927.744	0.0140975
927.822	0.0140874
927.900	0.0140219
927.978	0.0141027
928.057	0.0142387
928.135	0.0140794
928.213	0.0141190
928.291	0.0141216
928.369	0.0141305
928.447	0.0142440
928.525	0.0143257
928.603	0.0141489
928.682	0.0141213
928.760	0.0142410
928.838	0.0140929
928.916	0.0141737
928.994	0.0142830
929.072	0.0140314
929.150	0.0140033
929.228	0.0140402
929.307	0.0141006
929.385	0.0141376
929.463	0.0139159
929.541	0.0140856
929.619	0.0140672
929.697	0.0140288
929.775	0.0139758
929.853	0.0139339
929.932	0.0140118
930.010	0.0138989
930.088	0.0139777
930.166	0.0139753
930.244	0.0139217
930.322	0.0140420
930.400	0.0138908
930.478	0.0141106
930.557	0.0140634
930.635	0.0141257
930.713	0.0142389
930.791	0.0142124
930.869	0.0141447
930.947	0.0140213
931.025	0.0142056
931.103	0.0140421
931.182	0.0142929
931.260	0.0141185
931.338	0.0141853
931.416	0.0141167
931.494	0.0141096
931.572	0.0141053
931.650	0.0141241
931.728	0.0140926
931.807	0.0141125
931.885	0.0140230
931.963	0.0139749
932.041	0.0140842
932.119	0.0139042
932.197	0.0138864
932.275	0.0138414
932.353	0.0137952
932.432	0.0138337
932.510	0.0138120
932.588	0.0137489
932.666	0.0137382
932.744	0.0137019
932.822	0.0137785
932.900	0.0136520
932.978	0.0135877
933.057	0.0136795
933.135	0.0136620
933.213	0.0136536
933.291	0.0135999
933.369	0.0136199
933.447	0.0137215
933.525	0.0136332
933.603	0.0137995
933.682	0.0138086
933.760	0.0136861
933.838	0.0138024
933.916	0.0138380
933.994	0.0137463
934.072	0.0138004
934.150	0.0140185
934.228	0.0139737
934.307	0.0140469
934.385	0.0141010
934.463	0.0139974
934.541	0.0140683
934.619	0.0141248
934.697	0.0141178
934.775	0.0141187
934.853	0.0139920
934.932	0.0141312
935.010	0.0140268
935.088	0.0140773
935.166	0.0141494
935.244	0.0142096
935.322	0.0140754
935.400	0.0140440
935.478	0.0141612
935.557	0.0141486
935.635	0.0140714
935.713	0.0141766
935.791	0.0141494
935.869	0.0140734
935.947	0.0140598
936.025	0.0140547
936.103	0.0140873
936.182	0.0143060
936.260	0.0140013
936.338	0.0141290
936.416	0.0140130
936.494	0.0139772
936.572	0.0141441
936.650	0.0140368
936.728	0.0140373
936.807	0.0141608
936.885	0.0141804
936.963	0.0140766
937.041	0.0141365
937.119	0.0141836
937.197	0.0141141
937.275	0.0141246
937.353	0.0140878
937.432	0.0141898
937.510	0.0142706
937.588	0.0141241
937.666	0.0141544
937.744	0.0142159
937.822	0.0142597
937.900	0.0141281
937.978	0.0142464
938.057	0.0141644
938.135	0.0141552
938.213	0.0141872
938.291	0.0142522
938.369	0.0142077
938.447	0.0142089
938.525	0.0140726
938.603	0.0140188
938.682	0.0141083
938.760	0.0141496
938.838	0.0142201
938.916	0.0141476
938.994	0.0141135
939.072	0.0142116
939.150	0.0140869
939.228	0.0141373
939.307	0.0141015
939.385	0.0141151
939.463	0.0140592
939.541	0.0141726
939.619	0.0141173
939.697	0.0141233
939.775	0.0141521
939.853	0.0141473
939.932	0.0137907
940.010	0.0140172
940.088	0.0139847
940.166	0.0139526
940.244	0.0138767
940.322	0.0139241
940.400	0.0138795
940.478	0.0140562
940.557	0.0139812
940.635	0.0138730
940.713	0.0139115
940.791	0.0138680
940.869	0.0139131
940.947	0.0139385
941.025	0.0139911
941.103	0.0138557
941.182	0.0138036
941.260	0.0138933
941.338	0.0137027
941.416	0.0138831
941.494	0.0138952
941.572	0.0139157
941.650	0.0138345
941.728	0.0138910
941.807	0.0138576
941.885	0.0139371
941.963	0.0138683
942.041	0.0139416
942.119	0.0140360
942.197	0.0140192
942.275	0.0139585
942.353	0.0140820
942.432	0.0140570
942.510	0.0141987
942.588	0.0140575
942.666	0.0138476
942.744	0.0140534
942.822	0.0141203
942.900	0.0141851
942.978	0.0140167
943.057	0.0142406
943.135	0.0142572
943.213	0.0140993
943.291	0.0140850
943.369	0.0142249
943.447	0.0140255
943.525	0.0140405
943.603	0.0141609
943.682	0.0141465
943.760	0.0140670
943.838	0.0141462
943.916	0.0140973
943.994	0.0140691
944.072	0.0141109
944.150	0.0140795
944.228	0.0140604
944.307	0.0140842
944.385	0.0142256
944.463	0.0140823
944.541	0.0141637
944.619	0.0141624
944.697	0.0141415
944.775	0.0141649
944.853	0.0141670
944.932	0.0140647
945.010	0.0140007
945.088	0.0141170
945.166	0.0139625
945.244	0.0140649
945.322	0.0141358
945.400	0.0141801
945.478	0.0140582
945.557	0.0140925
945.635	0.0140132
945.713	0.0139738
945.791	0.0139555
945.869	0.0140926
945.947	0.0139221
946.025	0.0138360
946.103	0.0139015
946.182	0.0138609
946.260	0.0137981
946.338	0.0138619
946.416	0.0137164
946.494	0.0137366
946.572	0.0139279
946.650	0.0138780
946.728	0.0138349
946.807	0.0138197
946.885	0.0138077
946.963	0.0137880
947.041	0.0139122
947.119	0.0139467
947.197	0.0139754
947.275	0.0140042
947.353	0.0139880
947.432	0.0140840
947.510	0.0139689
947.588	0.0141852
947.666	0.0140739
947.744	0.0141421
947.822	0.0140895
947.900	0.0140778
947.978	0.0140190
948.057	0.0142378
948.135	0.0141776
948.213	0.0140822
948.291	0.0142056
948.369	0.0141704
948.447	0.0141469
948.525	0.0141054
948.603	0.0142254
948.682	0.0141438
948.760	0.0140895
948.838	0.0139818
948.916	0.0139747
948.994	0.0139429
949.072	0.0140875
949.150	0.0140338
949.228	0.0140626
949.307	0.0140163
949.385	0.0138110
949.463	0.0138727
949.541	0.0139002
949.619	0.0138971
949.697	0.0139922
949.775	0.0139944
949.853	0.0139491
949.932	0.0139516
950.010	0.0139251
950.088	0.0140302
950.166	0.0140241
950.244	0.0140707
950.322	0.0140849
950.400	0.0138531
950.478	0.0140892
950.557	0.0140137
950.635	0.0139523
950.713	0.0142428
950.791	0.0140865
950.869	0.0141499
950.947	0.0140963
951.025	0.0140385
951.103	0.0141293
951.182	0.0140622
951.260	0.0140860
951.338	0.0141212
951.416	0.0140887
951.494	0.0139432
951.572	0.0140662
951.650	0.0141513
951.728	0.0140092
951.807	0.0138504
951.885	0.0141391
951.963	0.0140793
952.041	0.0141323
952.119	0.0141247
952.197	0.0140012
952.275	0.0141567
952.353	0.0141767
952.432	0.0142345
952.510	0.0141123
952.588	0.0141083
952.666	0.0142008
952.744	0.0142980
952.822	0.0142187
952.900	0.0141649
952.978	0.0141914
953.057	0.0141678
953.135	0.0141189
953.213	0.0144206
953.291	0.0142106
953.369	0.0142529
953.447	0.0142819
953.525	0.0142056
953.603	0.0141911
953.682	0.0140559
953.760	0.0141061
953.838	0.0140508
953.916	0.0141965
953.994	0.0142188
954.072	0.0139473
954.150	0.0140935
954.228	0.0140849
954.307	0.0138116
954.385	0.0138840
954.463	0.0138691
954.541	0.0138310
954.619	0.0137250
954.697	0.0138379
954.775	0.0138294
954.853	0.0136750
954.932	0.0137686
955.010	0.0137152
955.088	0.0136717
955.166	0.0138457
955.244	0.0137917
955.322	0.0138673
955.400	0.0137551
955.478	0.0138585
955.557	0.0139115
955.635	0.0138239
955.713	0.0138873
955.791	0.0139159
955.869	0.0138255
955.947	0.0139088
956.025	0.0139523
956.103	0.0139365
956.182	0.0140655
956.260	0.0140490
956.338	0.0139278
956.416	0.0141095
956.494	0.0141852
956.572	0.0142874
956.650	0.0141826
956.728	0.0143749
956.807	0.0142914
956.885	0.0141713
956.963	0.0142656
957.041	0.0143737
957.119	0.0143798
957.197	0.0141257
957.275	0.0140800
957.353	0.0142204
957.432	0.0142692
957.510	0.0143188
957.588	0.0141123
957.666	0.0140895
957.744	0.0142795
957.822	0.0141747
957.900	0.0141721
957.978	0.0142452
958.057	0.0141544
958.135	0.0142131
958.213	0.0142225
958.291	0.0140881
958.369	0.0140745
958.447	0.0140343
958.525	0.0141114
958.603	0.0141730
958.682	0.0140516
958.760	0.0140035
958.838	0.0140048
958.916	0.0139481
958.994	0.0140594
959.072	0.0140110
959.150	0.0140082
959.228	0.0140345
959.307	0.0139983
959.385	0.0138323
959.463	0.0139233
959.541	0.0138022
959.619	0.0138061
959.697	0.0140701
959.775	0.0139285
959.853	0.0139230
959.932	0.0138976
960.010	0.0139444
960.088	0.0139297
960.166	0.0138496
960.244	0.0140157
960.322	0.0138425
960.400	0.0139082
960.478	0.0140347
960.557	0.0140253
960.635	0.0140252
960.713	0.0142255
960.791	0.0141181
960.869	0.0141685
960.947	0.0140652
961.025	0.0140514
961.103	0.0142231
961.182	0.0140656
961.260	0.0140525
961.338	0.0142228
961.416	0.0141218
961.494	0.0141537
961.572	0.0142448
961.650	0.0141161
961.728	0.0141099
961.807	0.0140920
961.885	0.0140932
961.963	0.0141708
962.041	0.0140540
962.119	0.0139722
962.197	0.0138734
962.275	0.0140183
962.353	0.0138879
962.432	0.0139104
962.510	0.0139539
962.588	0.0139466
962.666	0.0138303
962.744	0.0139590
962.822	0.0139565
962.900	0.0138966
962.978	0.0138403
963.057	0.0139316
963.135	0.0137878
963.213	0.0137827
963.291	0.0139228
963.369	0.0140556
963.447	0.0139452
963.525	0.0139523
963.603	0.0139300
963.682	0.0140018
963.760	0.0140695
963.838	0.0140599
963.916	0.0140102
963.994	0.0141684
964.072	0.0140755
964.150	0.0142002
964.228	0.0141596
964.307	0.0141081
964.385	0.0141122
964.463	0.0141534
964.541	0.0142052
964.619	0.0139693
964.697	0.0140264
964.775	0.0141122
964.853	0.0142644
964.932	0.0140613
965.010	0.0140514
965.088	0.0139497
965.166	0.0140773
965.244	0.0140393
965.322	0.0141309
965.400	0.0141267
965.478	0.0140948
965.557	0.0141115
965.635	0.0140124
965.713	0.0141591
965.791	0.0142333
965.869	0.0140430
965.947	0.0141698
966.025	0.0143185
966.103	0.0142448
966.182	0.0141442
966.260	0.0142831
966.338	0.0142425
966.416	0.0142765
966.494	0.0142241
966.572	0.0141663
966.650	0.0141402
966.728	0.0141342
966.807	0.0141180
966.885	0.0140832
966.963	0.0140546
967.041	0.0141031
967.119	0.0140388
967.197	0.0140176
967.275	0.0140816
967.353	0.0142130
967.432	0.0139964
967.510	0.0140936
967.588	0.0139619
967.666	0.0141180
967.744	0.0139592
967.822	0.0140837
967.900	0.0141089
967.978	0.0140769
968.057	0.0140639
968.135	0.0140334
968.213	0.0139750
968.291	0.0141192
968.369	0.0140858
968.447	0.0141380
968.525	0.0141190
968.603	0.0141645
968.682	0.0141850
968.760	0.0141808
968.838	0.0141927
968.916	0.0141235
968.994	0.0141862
969.072	0.0141475
969.150	0.0140864
969.228	0.0141162
969.307	0.0141808
969.385	0.0141797
969.463	0.0141460
969.541	0.0141204
969.619	0.0141228
969.697	0.0141016
969.775	0.0141814
969.853	0.0140302
969.932	0.0140168
