05/14/2022	19:43:06	Ver.	4.1	UNKNOWN
Optical Delay	650.009681	Delta X		0.078125	Sweeps	1	Scan Rate	0/0
Coordinates	Axis 1	NaN	Axis 2	NaN	Axis 3	NaN	Axis 4	NaN	Axis 5	NaN	Axis 6	0.000000
TX Power	0.000000	RX Power	0.000000

650.010	0.0144327
650.088	0.0145881
650.166	0.0145280
650.244	0.0144529
650.322	0.0145065
650.400	0.0147079
650.478	0.0146068
650.557	0.0147153
650.635	0.0145456
650.713	0.0143610
650.791	0.0144381
650.869	0.0144672
650.947	0.0144129
651.025	0.0144529
651.103	0.0143510
651.182	0.0142449
651.260	0.0143250
651.338	0.0144149
651.416	0.0143403
651.494	0.0144627
651.572	0.0144530
651.650	0.0144617
651.728	0.0146293
651.807	0.0146061
651.885	0.0147303
651.963	0.0146622
652.041	0.0148999
652.119	0.0149379
652.197	0.0148484
652.275	0.0149487
652.353	0.0148527
652.432	0.0147406
652.510	0.0147210
652.588	0.0147035
652.666	0.0147511
652.744	0.0146979
652.822	0.0145483
652.900	0.0145031
652.978	0.0143377
653.057	0.0144329
653.135	0.0142612
653.213	0.0142389
653.291	0.0140961
653.369	0.0139984
653.447	0.0140465
653.525	0.0140972
653.603	0.0140371
653.682	0.0140584
653.760	0.0141370
653.838	0.0142500
653.916	0.0143728
653.994	0.0143391
654.072	0.0144594
654.150	0.0144827
654.228	0.0147918
654.307	0.0146882
654.385	0.0148247
654.463	0.0148036
654.541	0.0148674
654.619	0.0148211
654.697	0.0148730
654.775	0.0147810
654.853	0.0147133
654.932	0.0147336
655.010	0.0148469
655.088	0.0145891
655.166	0.0146106
655.244	0.0144303
655.322	0.0143797
655.400	0.0142609
655.478	0.0142239
655.557	0.0140617
655.635	0.0140294
655.713	0.0138639
655.791	0.0138844
655.869	0.0138183
655.947	0.0138613
656.025	0.0138567
656.103	0.0137276
656.182	0.0137847
656.260	0.0138546
656.338	0.0140018
656.416	0.0140078
656.494	0.0141325
656.572	0.0143999
656.650	0.0144487
656.728	0.0147002
656.807	0.0149599
656.885	0.0149441
656.963	0.0150804
657.041	0.0152834
657.119	0.0154909
657.197	0.0154669
657.275	0.0157248
657.353	0.0154745
657.432	0.0154551
657.510	0.0154076
657.588	0.0153894
657.666	0.0152677
657.744	0.0150149
657.822	0.0149423
657.900	0.0146670
657.978	0.0142898
658.057	0.0141413
658.135	0.0138920
658.213	0.0136606
658.291	0.0135387
658.369	0.0132687
658.447	0.0131902
658.525	0.0129953
658.603	0.0129278
658.682	0.0130448
658.760	0.0130022
658.838	0.0128952
658.916	0.0132091
658.994	0.0133315
659.072	0.0135782
659.150	0.0137640
659.228	0.0137409
659.307	0.0140413
659.385	0.0142735
659.463	0.0144476
659.541	0.0148005
659.619	0.0149236
659.697	0.0152600
659.775	0.0153419
659.853	0.0155395
659.932	0.0157993
660.010	0.0157848
660.088	0.0159740
660.166	0.0159029
660.244	0.0160110
660.322	0.0159565
660.400	0.0158275
660.478	0.0159018
660.557	0.0156309
660.635	0.0155095
660.713	0.0151727
660.791	0.0151818
660.869	0.0149704
660.947	0.0147913
661.025	0.0145551
661.103	0.0143246
661.182	0.0141385
661.260	0.0140305
661.338	0.0139512
661.416	0.0138528
661.494	0.0136429
661.572	0.0137956
661.650	0.0136769
661.728	0.0136353
661.807	0.0136190
661.885	0.0136288
661.963	0.0135557
662.041	0.0135167
662.119	0.0135659
662.197	0.0135204
662.275	0.0135655
662.353	0.0136794
662.432	0.0136971
662.510	0.0137569
662.588	0.0138905
662.666	0.0137367
662.744	0.0137995
662.822	0.0138332
662.900	0.0139011
662.978	0.0138841
663.057	0.0139373
663.135	0.0140834
663.213	0.0141319
663.291	0.0140911
663.369	0.0141345
663.447	0.0143520
663.525	0.0144626
663.603	0.0145341
663.682	0.0147241
663.760	0.0150007
663.838	0.0151705
663.916	0.0153989
663.994	0.0155012
664.072	0.0155939
664.150	0.0159496
664.228	0.0161718
664.307	0.0161903
664.385	0.0164780
664.463	0.0164696
664.541	0.0165324
664.619	0.0165423
664.697	0.0164548
664.775	0.0164645
664.853	0.0163879
664.932	0.0164152
665.010	0.0161131
665.088	0.0158933
665.166	0.0157707
665.244	0.0156542
665.322	0.0154621
665.400	0.0150499
665.478	0.0146819
665.557	0.0145419
665.635	0.0140984
665.713	0.0136230
665.791	0.0131791
665.869	0.0127505
665.947	0.0124045
666.025	0.0121030
666.103	0.0118124
666.182	0.0116474
666.260	0.0113742
666.338	0.0112395
666.416	0.0111598
666.494	0.0113001
666.572	0.0112183
666.650	0.0114514
666.728	0.0115504
666.807	0.0116742
666.885	0.0121759
666.963	0.0124066
667.041	0.0129105
667.119	0.0132244
667.197	0.0137672
667.275	0.0139968
667.353	0.0144307
667.432	0.0148039
667.510	0.0152090
667.588	0.0155572
667.666	0.0160081
667.744	0.0162619
667.822	0.0165715
667.900	0.0169861
667.978	0.0169736
668.057	0.0172589
668.135	0.0174490
668.213	0.0177150
668.291	0.0176782
668.369	0.0177583
668.447	0.0178320
668.525	0.0175781
668.603	0.0176908
668.682	0.0175700
668.760	0.0173462
668.838	0.0170902
668.916	0.0167659
668.994	0.0165089
669.072	0.0162086
669.150	0.0159522
669.228	0.0156271
669.307	0.0152386
669.385	0.0148847
669.463	0.0145152
669.541	0.0142835
669.619	0.0140456
669.697	0.0137280
669.775	0.0134637
669.853	0.0130066
669.932	0.0128265
670.010	0.0126067
670.088	0.0123396
670.166	0.0119646
670.244	0.0117497
670.322	0.0115490
670.400	0.0113944
670.478	0.0111346
670.557	0.0110874
670.635	0.0111026
670.713	0.0111238
670.791	0.0109648
670.869	0.0111677
670.947	0.0111662
671.025	0.0114492
671.103	0.0116443
671.182	0.0119645
671.260	0.0122691
671.338	0.0126572
671.416	0.0128245
671.494	0.0133395
671.572	0.0136903
671.650	0.0138972
671.728	0.0142374
671.807	0.0146264
671.885	0.0149717
671.963	0.0153409
672.041	0.0157290
672.119	0.0160433
672.197	0.0162084
672.275	0.0163031
672.353	0.0166641
672.432	0.0169773
672.510	0.0169962
672.588	0.0172372
672.666	0.0174400
672.744	0.0175102
672.822	0.0177246
672.900	0.0178131
672.978	0.0177682
673.057	0.0177850
673.135	0.0176673
673.213	0.0175495
673.291	0.0175388
673.369	0.0172648
673.447	0.0170228
673.525	0.0168362
673.603	0.0166179
673.682	0.0163375
673.760	0.0159685
673.838	0.0157364
673.916	0.0156362
673.994	0.0151022
674.072	0.0146491
674.150	0.0143992
674.228	0.0140726
674.307	0.0137490
674.385	0.0134325
674.463	0.0130163
674.541	0.0126936
674.619	0.0124010
674.697	0.0122259
674.775	0.0120550
674.853	0.0116376
674.932	0.0115009
675.010	0.0111470
675.088	0.0111023
675.166	0.0109734
675.244	0.0108891
675.322	0.0107433
675.400	0.0109254
675.478	0.0108324
675.557	0.0110582
675.635	0.0113139
675.713	0.0114872
675.791	0.0115089
675.869	0.0118225
675.947	0.0122118
676.025	0.0125709
676.103	0.0130672
676.182	0.0136667
676.260	0.0140394
676.338	0.0143963
676.416	0.0148560
676.494	0.0153245
676.572	0.0157089
676.650	0.0161803
676.728	0.0163973
676.807	0.0168498
676.885	0.0171529
676.963	0.0174689
677.041	0.0176833
677.119	0.0179273
677.197	0.0181535
677.275	0.0181249
677.353	0.0182951
677.432	0.0182082
677.510	0.0181126
677.588	0.0181980
677.666	0.0180636
677.744	0.0177406
677.822	0.0177041
677.900	0.0172800
677.978	0.0170575
678.057	0.0164194
678.135	0.0161456
678.213	0.0157554
678.291	0.0152766
678.369	0.0148866
678.447	0.0145389
678.525	0.0141167
678.603	0.0138129
678.682	0.0134345
678.760	0.0130625
678.838	0.0128675
678.916	0.0127455
678.994	0.0125555
679.072	0.0123585
679.150	0.0121275
679.228	0.0120169
679.307	0.0119758
679.385	0.0118800
679.463	0.0119328
679.541	0.0119714
679.619	0.0119518
679.697	0.0120872
679.775	0.0123821
679.853	0.0125441
679.932	0.0126391
680.010	0.0130038
680.088	0.0133109
680.166	0.0134471
680.244	0.0137357
680.322	0.0141257
680.400	0.0143877
680.478	0.0145506
680.557	0.0148649
680.635	0.0150358
680.713	0.0153358
680.791	0.0155786
680.869	0.0156512
680.947	0.0157023
681.025	0.0158033
681.103	0.0157703
681.182	0.0156890
681.260	0.0156245
681.338	0.0156038
681.416	0.0153925
681.494	0.0152177
681.572	0.0150539
681.650	0.0148960
681.728	0.0146203
681.807	0.0145872
681.885	0.0144294
681.963	0.0143304
682.041	0.0140250
682.119	0.0139789
682.197	0.0138483
682.275	0.0137523
682.353	0.0136389
682.432	0.0135088
682.510	0.0134467
682.588	0.0135689
682.666	0.0135461
682.744	0.0135167
682.822	0.0137834
682.900	0.0138597
682.978	0.0139968
683.057	0.0142783
683.135	0.0143919
683.213	0.0144419
683.291	0.0148253
683.369	0.0149427
683.447	0.0151256
683.525	0.0153523
683.603	0.0154412
683.682	0.0155978
683.760	0.0156764
683.838	0.0157786
683.916	0.0156617
683.994	0.0157849
684.072	0.0158410
684.150	0.0158821
684.228	0.0157244
684.307	0.0156545
684.385	0.0159297
684.463	0.0156776
684.541	0.0156217
684.619	0.0155222
684.697	0.0156779
684.775	0.0155263
684.853	0.0153139
684.932	0.0151591
685.010	0.0150883
685.088	0.0151101
685.166	0.0148405
685.244	0.0144756
685.322	0.0144442
685.400	0.0142622
685.478	0.0141209
685.557	0.0138136
685.635	0.0135951
685.713	0.0133868
685.791	0.0132736
685.869	0.0130489
685.947	0.0129311
686.025	0.0128070
686.103	0.0127319
686.182	0.0124883
686.260	0.0125980
686.338	0.0124379
686.416	0.0123569
686.494	0.0122044
686.572	0.0122034
686.650	0.0123011
686.728	0.0124455
686.807	0.0125932
686.885	0.0126603
686.963	0.0128646
687.041	0.0131106
687.119	0.0133853
687.197	0.0135429
687.275	0.0136954
687.353	0.0140272
687.432	0.0142712
687.510	0.0144837
687.588	0.0146784
687.666	0.0150592
687.744	0.0154030
687.822	0.0154588
687.900	0.0158051
687.978	0.0158833
688.057	0.0158328
688.135	0.0162082
688.213	0.0161742
688.291	0.0162794
688.369	0.0163330
688.447	0.0164689
688.525	0.0161456
688.603	0.0162305
688.682	0.0161011
688.760	0.0159678
688.838	0.0158408
688.916	0.0155817
688.994	0.0154701
689.072	0.0153091
689.150	0.0153022
689.228	0.0149576
689.307	0.0147632
689.385	0.0145697
689.463	0.0144401
689.541	0.0144562
689.619	0.0144219
689.697	0.0142339
689.775	0.0142368
689.853	0.0142383
689.932	0.0141676
690.010	0.0140600
690.088	0.0141115
690.166	0.0141496
690.244	0.0141405
690.322	0.0142367
690.400	0.0143391
690.478	0.0147099
690.557	0.0145949
690.635	0.0148009
690.713	0.0148716
690.791	0.0150478
690.869	0.0152281
690.947	0.0153410
691.025	0.0153048
691.103	0.0154231
691.182	0.0153846
691.260	0.0154225
691.338	0.0152255
691.416	0.0151596
691.494	0.0149665
691.572	0.0147938
691.650	0.0144260
691.728	0.0142188
691.807	0.0141088
691.885	0.0136637
691.963	0.0133890
692.041	0.0130773
692.119	0.0128053
692.197	0.0126292
692.275	0.0124040
692.353	0.0123071
692.432	0.0119915
692.510	0.0119839
692.588	0.0120191
692.666	0.0120200
692.744	0.0119364
692.822	0.0120502
692.900	0.0121936
692.978	0.0122551
693.057	0.0124546
693.135	0.0125950
693.213	0.0128658
693.291	0.0129981
693.369	0.0134279
693.447	0.0135479
693.525	0.0138822
693.603	0.0142352
693.682	0.0146534
693.760	0.0150430
693.838	0.0153230
693.916	0.0156313
693.994	0.0159555
694.072	0.0162832
694.150	0.0166007
694.228	0.0167396
694.307	0.0171393
694.385	0.0172794
694.463	0.0175483
694.541	0.0174876
694.619	0.0174871
694.697	0.0175140
694.775	0.0174870
694.853	0.0175701
694.932	0.0175132
695.010	0.0172907
695.088	0.0172386
695.166	0.0171383
695.244	0.0169759
695.322	0.0167603
695.400	0.0164325
695.478	0.0160410
695.557	0.0158626
695.635	0.0154596
695.713	0.0151728
695.791	0.0149541
695.869	0.0146504
695.947	0.0141448
696.025	0.0139238
696.103	0.0136543
696.182	0.0131912
696.260	0.0129120
696.338	0.0126855
696.416	0.0126177
696.494	0.0122971
696.572	0.0121094
696.650	0.0121120
696.728	0.0119621
696.807	0.0118144
696.885	0.0117386
696.963	0.0117993
697.041	0.0119080
697.119	0.0121003
697.197	0.0120585
697.275	0.0121426
697.353	0.0120386
697.432	0.0123444
697.510	0.0125410
697.588	0.0125318
697.666	0.0128496
697.744	0.0133018
697.822	0.0133710
697.900	0.0138132
697.978	0.0139912
698.057	0.0143516
698.135	0.0146223
698.213	0.0148939
698.291	0.0150932
698.369	0.0153268
698.447	0.0155296
698.525	0.0158221
698.603	0.0158450
698.682	0.0159651
698.760	0.0159790
698.838	0.0158772
698.916	0.0158592
698.994	0.0159042
699.072	0.0157323
699.150	0.0156206
699.228	0.0155275
699.307	0.0152657
699.385	0.0152541
699.463	0.0148717
699.541	0.0148930
699.619	0.0145645
699.697	0.0145017
699.775	0.0144804
699.853	0.0142416
699.932	0.0143352
700.010	0.0143686
700.088	0.0142812
700.166	0.0141133
700.244	0.0141515
700.322	0.0143807
700.400	0.0143633
700.478	0.0144673
700.557	0.0145860
700.635	0.0147215
700.713	0.0147227
700.791	0.0149640
700.869	0.0151942
700.947	0.0151505
701.025	0.0153455
701.103	0.0154832
701.182	0.0154191
701.260	0.0156418
701.338	0.0156004
701.416	0.0156280
701.494	0.0156448
701.572	0.0156905
701.650	0.0155833
701.728	0.0155627
701.807	0.0154832
701.885	0.0153384
701.963	0.0152742
702.041	0.0151419
702.119	0.0150183
702.197	0.0147401
702.275	0.0146033
702.353	0.0144929
702.432	0.0145070
702.510	0.0142780
702.588	0.0139668
702.666	0.0140363
702.744	0.0138513
702.822	0.0136661
702.900	0.0135651
702.978	0.0133694
703.057	0.0133974
703.135	0.0135496
703.213	0.0133431
703.291	0.0134602
703.369	0.0132693
703.447	0.0133786
703.525	0.0134945
703.603	0.0136350
703.682	0.0136002
703.760	0.0134396
703.838	0.0137505
703.916	0.0137957
703.994	0.0138033
704.072	0.0139600
704.150	0.0139323
704.228	0.0140171
704.307	0.0139754
704.385	0.0141749
704.463	0.0142142
704.541	0.0140734
704.619	0.0142776
704.697	0.0143526
704.775	0.0142728
704.853	0.0141683
704.932	0.0143189
705.010	0.0142594
705.088	0.0141789
705.166	0.0140701
705.244	0.0141452
705.322	0.0142154
705.400	0.0141830
705.478	0.0141458
705.557	0.0143153
705.635	0.0142460
705.713	0.0143295
705.791	0.0144794
705.869	0.0148920
705.947	0.0150076
706.025	0.0150919
706.103	0.0153073
706.182	0.0155209
706.260	0.0155750
706.338	0.0155562
706.416	0.0157124
706.494	0.0158739
706.572	0.0160014
706.650	0.0158150
706.728	0.0160625
706.807	0.0158421
706.885	0.0158885
706.963	0.0158671
707.041	0.0158371
707.119	0.0156922
707.197	0.0156848
707.275	0.0155910
707.353	0.0154144
707.432	0.0153846
707.510	0.0150598
707.588	0.0150630
707.666	0.0148129
707.744	0.0146447
707.822	0.0145719
707.900	0.0145454
707.978	0.0143137
708.057	0.0143098
708.135	0.0142383
708.213	0.0141006
708.291	0.0139162
708.369	0.0139028
708.447	0.0136944
708.525	0.0137576
708.603	0.0135606
708.682	0.0135678
708.760	0.0133911
708.838	0.0132659
708.916	0.0131480
708.994	0.0130691
709.072	0.0129770
709.150	0.0132027
709.228	0.0130337
709.307	0.0130411
709.385	0.0130263
709.463	0.0130467
709.541	0.0132130
709.619	0.0133916
709.697	0.0134987
709.775	0.0135025
709.853	0.0136555
709.932	0.0136902
710.010	0.0138777
710.088	0.0140819
710.166	0.0141247
710.244	0.0142329
710.322	0.0142843
710.400	0.0144437
710.478	0.0146350
710.557	0.0146536
710.635	0.0145997
710.713	0.0148638
710.791	0.0148580
710.869	0.0149605
710.947	0.0150868
711.025	0.0150121
711.103	0.0149465
711.182	0.0151241
711.260	0.0152428
711.338	0.0152489
711.416	0.0150541
711.494	0.0150885
711.572	0.0151840
711.650	0.0150893
711.728	0.0150382
711.807	0.0150543
711.885	0.0149146
711.963	0.0148624
712.041	0.0145789
712.119	0.0146539
712.197	0.0146662
712.275	0.0145747
712.353	0.0145554
712.432	0.0143807
712.510	0.0143520
712.588	0.0142764
712.666	0.0143844
712.744	0.0142485
712.822	0.0141400
712.900	0.0141479
712.978	0.0143383
713.057	0.0144037
713.135	0.0143449
713.213	0.0145415
713.291	0.0145861
713.369	0.0147317
713.447	0.0148431
713.525	0.0149145
713.603	0.0149667
713.682	0.0150925
713.760	0.0150494
713.838	0.0149696
713.916	0.0151564
713.994	0.0151601
714.072	0.0150186
714.150	0.0151385
714.228	0.0151008
714.307	0.0150967
714.385	0.0150314
714.463	0.0147921
714.541	0.0146707
714.619	0.0145831
714.697	0.0146695
714.775	0.0144554
714.853	0.0143281
714.932	0.0140200
715.010	0.0139301
715.088	0.0138529
715.166	0.0138775
715.244	0.0137075
715.322	0.0136044
715.400	0.0136105
715.478	0.0135725
715.557	0.0135163
715.635	0.0136835
715.713	0.0136789
715.791	0.0136846
715.869	0.0136955
715.947	0.0137833
716.025	0.0139318
716.103	0.0140923
716.182	0.0140804
716.260	0.0142120
716.338	0.0141757
716.416	0.0139793
716.494	0.0141401
716.572	0.0141079
716.650	0.0142880
716.728	0.0141192
716.807	0.0142194
716.885	0.0142923
716.963	0.0141273
717.041	0.0142224
717.119	0.0141409
717.197	0.0141899
717.275	0.0142062
717.353	0.0141441
717.432	0.0140185
717.510	0.0140372
717.588	0.0142181
717.666	0.0141222
717.744	0.0141326
717.822	0.0142026
717.900	0.0142126
717.978	0.0143349
718.057	0.0143159
718.135	0.0144511
718.213	0.0146511
718.291	0.0146786
718.369	0.0147704
718.447	0.0149403
718.525	0.0151534
718.603	0.0152474
718.682	0.0152256
718.760	0.0152544
718.838	0.0154578
718.916	0.0156561
718.994	0.0156256
719.072	0.0155978
719.150	0.0156981
719.228	0.0158041
719.307	0.0157517
719.385	0.0158552
719.463	0.0157071
719.541	0.0157269
719.619	0.0156828
719.697	0.0155795
719.775	0.0155031
719.853	0.0154041
719.932	0.0153357
720.010	0.0153965
720.088	0.0153672
720.166	0.0151250
720.244	0.0148956
720.322	0.0148668
720.400	0.0146901
720.478	0.0147000
720.557	0.0146608
720.635	0.0144171
720.713	0.0143446
720.791	0.0141926
720.869	0.0140158
720.947	0.0140333
721.025	0.0139751
721.103	0.0138782
721.182	0.0136858
721.260	0.0137883
721.338	0.0137231
721.416	0.0135326
721.494	0.0134853
721.572	0.0136977
721.650	0.0135925
721.728	0.0136682
721.807	0.0136371
721.885	0.0135482
721.963	0.0135945
722.041	0.0137613
722.119	0.0137820
722.197	0.0138847
722.275	0.0138770
722.353	0.0140003
722.432	0.0140802
722.510	0.0140839
722.588	0.0142387
722.666	0.0142308
722.744	0.0143884
722.822	0.0144968
722.900	0.0145038
722.978	0.0144749
723.057	0.0145005
723.135	0.0145775
723.213	0.0145677
723.291	0.0146542
723.369	0.0147254
723.447	0.0148129
723.525	0.0147856
723.603	0.0147574
723.682	0.0148825
723.760	0.0149719
723.838	0.0148857
723.916	0.0149315
723.994	0.0149449
724.072	0.0151506
724.150	0.0147631
724.228	0.0149352
724.307	0.0149601
724.385	0.0149716
724.463	0.0148852
724.541	0.0150175
724.619	0.0149184
724.697	0.0150278
724.775	0.0148965
724.853	0.0148389
724.932	0.0148973
725.010	0.0148698
725.088	0.0147975
725.166	0.0148158
725.244	0.0148759
725.322	0.0146998
725.400	0.0146646
725.478	0.0146225
725.557	0.0144960
725.635	0.0146046
725.713	0.0148595
725.791	0.0147105
725.869	0.0147448
725.947	0.0147873
726.025	0.0148556
726.103	0.0146850
726.182	0.0147220
726.260	0.0146152
726.338	0.0146045
726.416	0.0147283
726.494	0.0145734
726.572	0.0143536
726.650	0.0144124
726.728	0.0144429
726.807	0.0143549
726.885	0.0141971
726.963	0.0140393
727.041	0.0140056
727.119	0.0138369
727.197	0.0138130
727.275	0.0137886
727.353	0.0137369
727.432	0.0137379
727.510	0.0136436
727.588	0.0135938
727.666	0.0136601
727.744	0.0136852
727.822	0.0136313
727.900	0.0136343
727.978	0.0138509
728.057	0.0138509
728.135	0.0138271
728.213	0.0138879
728.291	0.0141190
728.369	0.0141219
728.447	0.0142214
728.525	0.0141096
728.603	0.0144013
728.682	0.0144899
728.760	0.0144456
728.838	0.0145493
728.916	0.0146619
728.994	0.0145432
729.072	0.0146023
729.150	0.0145573
729.228	0.0145677
729.307	0.0146062
729.385	0.0145773
729.463	0.0145997
729.541	0.0146025
729.619	0.0147475
729.697	0.0148703
729.775	0.0149373
729.853	0.0147991
729.932	0.0149445
730.010	0.0150195
730.088	0.0149182
730.166	0.0150609
730.244	0.0149363
730.322	0.0150984
730.400	0.0149529
730.478	0.0150245
730.557	0.0150967
730.635	0.0148499
730.713	0.0148287
730.791	0.0147700
730.869	0.0148544
730.947	0.0147424
731.025	0.0145325
731.103	0.0146446
731.182	0.0147429
731.260	0.0145151
731.338	0.0146365
731.416	0.0146600
731.494	0.0146034
731.572	0.0145616
731.650	0.0145340
731.728	0.0146022
731.807	0.0145525
731.885	0.0144024
731.963	0.0144233
732.041	0.0145303
732.119	0.0144891
732.197	0.0144427
732.275	0.0143416
732.353	0.0143664
732.432	0.0145492
732.510	0.0146289
732.588	0.0146260
732.666	0.0145172
732.744	0.0146806
732.822	0.0146560
732.900	0.0146826
732.978	0.0148092
733.057	0.0147898
733.135	0.0148332
733.213	0.0148148
733.291	0.0148415
733.369	0.0147803
733.447	0.0147850
733.525	0.0147926
733.603	0.0146702
733.682	0.0146595
733.760	0.0146197
733.838	0.0145334
733.916	0.0144659
733.994	0.0143164
734.072	0.0143098
734.150	0.0141804
734.228	0.0141544
734.307	0.0139777
734.385	0.0139131
734.463	0.0138522
734.541	0.0138862
734.619	0.0137695
734.697	0.0137573
734.775	0.0136608
734.853	0.0136871
734.932	0.0137514
735.010	0.0139283
735.088	0.0136903
735.166	0.0137312
735.244	0.0138812
735.322	0.0139044
735.400	0.0139131
735.478	0.0140775
735.557	0.0140176
735.635	0.0140670
735.713	0.0143285
735.791	0.0143314
735.869	0.0141911
735.947	0.0143637
736.025	0.0142988
736.103	0.0143036
736.182	0.0143786
736.260	0.0144343
736.338	0.0145676
736.416	0.0146203
736.494	0.0144048
736.572	0.0144973
736.650	0.0144308
736.728	0.0144717
736.807	0.0146233
736.885	0.0143285
736.963	0.0145161
737.041	0.0145807
737.119	0.0146390
737.197	0.0145630
737.275	0.0145624
737.353	0.0144818
737.432	0.0146331
737.510	0.0144993
737.588	0.0145042
737.666	0.0145266
737.744	0.0142918
737.822	0.0144450
737.900	0.0144677
737.978	0.0144790
738.057	0.0145021
738.135	0.0144193
738.213	0.0143383
738.291	0.0142751
738.369	0.0142039
738.447	0.0143359
738.525	0.0143669
738.603	0.0142374
738.682	0.0143353
738.760	0.0143313
738.838	0.0143095
738.916	0.0143758
738.994	0.0143862
739.072	0.0144637
739.150	0.0147014
739.228	0.0145401
739.307	0.0146317
739.385	0.0145608
739.463	0.0146957
739.541	0.0146191
739.619	0.0149600
739.697	0.0149413
739.775	0.0148489
739.853	0.0147504
739.932	0.0148751
740.010	0.0147092
740.088	0.0147152
740.166	0.0146114
740.244	0.0146880
740.322	0.0147791
740.400	0.0145502
740.478	0.0145674
740.557	0.0144633
740.635	0.0143578
740.713	0.0142820
740.791	0.0141742
740.869	0.0141859
740.947	0.0141843
741.025	0.0139649
741.103	0.0139193
741.182	0.0139568
741.260	0.0139329
741.338	0.0139490
741.416	0.0138400
741.494	0.0138882
741.572	0.0139964
741.650	0.0139097
741.728	0.0138186
741.807	0.0138534
741.885	0.0140668
741.963	0.0140820
742.041	0.0139618
742.119	0.0140578
742.197	0.0142796
742.275	0.0143131
742.353	0.0144388
742.432	0.0144131
742.510	0.0145113
742.588	0.0146892
742.666	0.0147865
742.744	0.0147757
742.822	0.0148992
742.900	0.0150127
742.978	0.0150459
743.057	0.0150681
743.135	0.0151189
743.213	0.0151306
743.291	0.0151945
743.369	0.0150865
743.447	0.0151015
743.525	0.0153174
743.603	0.0152244
743.682	0.0150861
743.760	0.0150835
743.838	0.0150298
743.916	0.0149267
743.994	0.0149393
744.072	0.0148618
744.150	0.0149153
744.228	0.0148753
744.307	0.0147411
744.385	0.0146995
744.463	0.0146992
744.541	0.0147460
744.619	0.0147757
744.697	0.0147884
744.775	0.0145362
744.853	0.0145454
744.932	0.0144773
745.010	0.0144820
745.088	0.0144955
745.166	0.0144923
745.244	0.0144576
745.322	0.0143434
745.400	0.0142780
745.478	0.0141391
745.557	0.0141148
745.635	0.0142400
745.713	0.0142796
745.791	0.0143565
745.869	0.0142183
745.947	0.0143282
746.025	0.0143021
746.103	0.0142777
746.182	0.0144331
746.260	0.0143153
746.338	0.0143859
746.416	0.0145229
746.494	0.0144115
746.572	0.0145634
746.650	0.0144286
746.728	0.0144372
746.807	0.0144827
746.885	0.0145131
746.963	0.0145053
747.041	0.0144531
747.119	0.0143723
747.197	0.0143334
747.275	0.0144587
747.353	0.0144447
747.432	0.0144308
747.510	0.0143708
747.588	0.0143848
747.666	0.0144120
747.744	0.0142773
747.822	0.0143915
747.900	0.0143749
747.978	0.0141659
748.057	0.0142603
748.135	0.0144651
748.213	0.0143673
748.291	0.0142485
748.369	0.0143034
748.447	0.0143494
748.525	0.0144064
748.603	0.0142876
748.682	0.0143508
748.760	0.0142626
748.838	0.0142319
748.916	0.0143888
748.994	0.0143604
749.072	0.0143105
749.150	0.0142785
749.228	0.0143341
749.307	0.0142286
749.385	0.0143680
749.463	0.0143810
749.541	0.0142579
749.619	0.0142725
749.697	0.0144163
749.775	0.0145188
749.853	0.0144600
749.932	0.0144958
750.010	0.0145654
750.088	0.0146824
750.166	0.0146191
750.244	0.0148735
750.322	0.0148229
750.400	0.0149629
750.478	0.0149987
750.557	0.0151043
750.635	0.0151097
750.713	0.0152609
750.791	0.0152323
750.869	0.0151870
750.947	0.0154074
751.025	0.0153168
751.103	0.0152222
751.182	0.0151479
751.260	0.0152151
751.338	0.0150537
751.416	0.0151379
751.494	0.0151845
751.572	0.0150623
751.650	0.0149336
751.728	0.0149194
751.807	0.0147669
751.885	0.0147746
751.963	0.0146183
752.041	0.0145007
752.119	0.0144742
752.197	0.0143279
752.275	0.0143702
752.353	0.0143267
752.432	0.0141805
752.510	0.0139899
752.588	0.0142342
752.666	0.0141051
752.744	0.0139738
752.822	0.0139796
752.900	0.0141151
752.978	0.0141520
753.057	0.0141541
753.135	0.0141939
753.213	0.0141793
753.291	0.0141718
753.369	0.0142105
753.447	0.0142314
753.525	0.0142744
753.603	0.0144673
753.682	0.0144678
753.760	0.0143524
753.838	0.0143484
753.916	0.0143572
753.994	0.0144603
754.072	0.0142706
754.150	0.0144296
754.228	0.0142369
754.307	0.0142822
754.385	0.0141615
754.463	0.0141802
754.541	0.0142381
754.619	0.0139968
754.697	0.0139704
754.775	0.0139736
754.853	0.0141633
754.932	0.0139395
755.010	0.0140088
755.088	0.0139045
755.166	0.0139211
755.244	0.0139894
755.322	0.0140387
755.400	0.0140321
755.478	0.0140159
755.557	0.0141084
755.635	0.0143261
755.713	0.0142937
755.791	0.0144185
755.869	0.0144106
755.947	0.0146228
756.025	0.0145529
756.103	0.0146542
756.182	0.0147929
756.260	0.0147372
756.338	0.0148650
756.416	0.0149103
756.494	0.0149352
756.572	0.0148952
756.650	0.0149517
756.728	0.0149545
756.807	0.0149657
756.885	0.0150522
756.963	0.0149246
757.041	0.0149721
757.119	0.0150230
757.197	0.0148383
757.275	0.0147611
757.353	0.0147322
757.432	0.0146872
757.510	0.0147336
757.588	0.0147503
757.666	0.0146800
757.744	0.0145329
757.822	0.0146060
757.900	0.0146214
757.978	0.0145818
758.057	0.0144981
758.135	0.0143974
758.213	0.0145335
758.291	0.0144714
758.369	0.0143711
758.447	0.0144782
758.525	0.0144422
758.603	0.0142826
758.682	0.0142313
758.760	0.0143449
758.838	0.0141389
758.916	0.0141415
758.994	0.0141444
759.072	0.0142110
759.150	0.0140349
759.228	0.0140259
759.307	0.0141070
759.385	0.0140565
759.463	0.0141746
759.541	0.0140696
759.619	0.0139631
759.697	0.0139578
759.775	0.0142007
759.853	0.0140916
759.932	0.0140935
760.010	0.0142289
760.088	0.0141242
760.166	0.0142059
760.244	0.0142532
760.322	0.0142628
760.400	0.0144228
760.478	0.0144400
760.557	0.0145132
760.635	0.0145211
760.713	0.0145059
760.791	0.0146389
760.869	0.0145893
760.947	0.0147308
761.025	0.0148740
761.103	0.0148138
761.182	0.0147900
761.260	0.0147637
761.338	0.0147658
761.416	0.0148485
761.494	0.0148137
761.572	0.0147443
761.650	0.0147681
761.728	0.0148450
761.807	0.0145644
761.885	0.0145879
761.963	0.0146583
762.041	0.0145699
762.119	0.0144673
762.197	0.0143608
762.275	0.0144192
762.353	0.0142076
762.432	0.0141673
762.510	0.0142609
762.588	0.0143005
762.666	0.0141885
762.744	0.0141104
762.822	0.0141411
762.900	0.0140359
762.978	0.0141495
763.057	0.0142992
763.135	0.0141855
763.213	0.0140873
763.291	0.0141547
763.369	0.0142278
763.447	0.0143110
763.525	0.0142072
763.603	0.0143203
763.682	0.0142916
763.760	0.0143930
763.838	0.0142979
763.916	0.0143757
763.994	0.0145911
764.072	0.0146477
764.150	0.0144751
764.228	0.0147449
764.307	0.0146873
764.385	0.0146904
764.463	0.0147652
764.541	0.0149062
764.619	0.0148897
764.697	0.0150526
764.775	0.0150864
764.853	0.0150790
764.932	0.0150813
765.010	0.0149377
765.088	0.0151687
765.166	0.0151348
765.244	0.0150249
765.322	0.0149872
765.400	0.0150149
765.478	0.0148215
765.557	0.0150053
765.635	0.0148447
765.713	0.0147722
765.791	0.0146952
765.869	0.0147187
765.947	0.0146415
766.025	0.0145718
766.103	0.0145966
766.182	0.0143914
766.260	0.0143330
766.338	0.0143786
766.416	0.0142596
766.494	0.0141283
766.572	0.0140976
766.650	0.0140941
766.728	0.0140209
766.807	0.0139143
766.885	0.0138638
766.963	0.0139277
767.041	0.0137415
767.119	0.0137935
767.197	0.0139961
767.275	0.0138064
767.353	0.0139453
767.432	0.0138957
767.510	0.0137222
767.588	0.0138242
767.666	0.0140604
767.744	0.0139778
767.822	0.0140438
767.900	0.0139609
767.978	0.0139461
768.057	0.0139249
768.135	0.0139975
768.213	0.0140555
768.291	0.0141557
768.369	0.0142213
768.447	0.0142675
768.525	0.0143199
768.603	0.0143359
768.682	0.0143923
768.760	0.0144476
768.838	0.0145719
768.916	0.0146772
768.994	0.0146096
769.072	0.0145657
769.150	0.0146746
769.228	0.0147070
769.307	0.0147270
769.385	0.0149196
769.463	0.0149959
769.541	0.0151318
769.619	0.0151062
769.697	0.0151482
769.775	0.0151408
769.853	0.0152608
769.932	0.0152297
770.010	0.0152094
770.088	0.0152849
770.166	0.0152969
770.244	0.0152932
770.322	0.0152412
770.400	0.0152435
770.478	0.0151647
770.557	0.0151307
770.635	0.0150227
770.713	0.0150420
770.791	0.0148659
770.869	0.0148518
770.947	0.0147682
771.025	0.0146361
771.103	0.0145397
771.182	0.0144940
771.260	0.0144679
771.338	0.0143502
771.416	0.0143324
771.494	0.0143353
771.572	0.0141393
771.650	0.0142411
771.728	0.0141727
771.807	0.0141468
771.885	0.0140203
771.963	0.0140194
772.041	0.0141864
772.119	0.0140584
772.197	0.0140886
772.275	0.0142962
772.353	0.0141130
772.432	0.0141080
772.510	0.0143515
772.588	0.0142711
772.666	0.0142912
772.744	0.0143513
772.822	0.0143993
772.900	0.0144339
772.978	0.0144154
773.057	0.0144418
773.135	0.0145713
773.213	0.0147002
773.291	0.0146513
773.369	0.0147421
773.447	0.0147861
773.525	0.0147031
773.603	0.0146844
773.682	0.0148170
773.760	0.0149036
773.838	0.0148231
773.916	0.0148013
773.994	0.0148382
774.072	0.0149403
774.150	0.0150016
774.228	0.0150598
774.307	0.0150901
774.385	0.0149680
774.463	0.0151193
774.541	0.0149731
774.619	0.0149997
774.697	0.0149496
774.775	0.0149103
774.853	0.0149224
774.932	0.0149419
775.010	0.0147282
775.088	0.0147346
775.166	0.0147012
775.244	0.0145850
775.322	0.0145097
775.400	0.0143869
775.478	0.0144088
775.557	0.0144592
775.635	0.0143920
775.713	0.0143320
775.791	0.0142490
775.869	0.0142223
775.947	0.0140031
776.025	0.0140055
776.103	0.0140173
776.182	0.0141322
776.260	0.0140396
776.338	0.0141506
776.416	0.0141086
776.494	0.0140469
776.572	0.0140306
776.650	0.0143082
776.728	0.0142832
776.807	0.0143192
776.885	0.0144093
776.963	0.0144816
777.041	0.0144674
777.119	0.0145016
777.197	0.0145637
777.275	0.0146088
777.353	0.0146243
777.432	0.0145358
777.510	0.0145405
777.588	0.0146606
777.666	0.0146780
777.744	0.0147012
777.822	0.0147505
777.900	0.0145900
777.978	0.0147120
778.057	0.0146402
778.135	0.0143892
778.213	0.0146189
778.291	0.0145470
778.369	0.0145892
778.447	0.0146244
778.525	0.0145617
778.603	0.0144699
778.682	0.0144772
778.760	0.0145065
778.838	0.0145396
778.916	0.0145385
778.994	0.0147082
779.072	0.0144852
779.150	0.0144744
779.228	0.0143928
779.307	0.0143741
779.385	0.0143546
779.463	0.0143301
779.541	0.0142507
779.619	0.0144415
779.697	0.0143353
779.775	0.0143410
779.853	0.0143904
779.932	0.0143324
780.010	0.0144101
780.088	0.0143616
780.166	0.0141531
780.244	0.0142292
780.322	0.0144211
780.400	0.0143624
780.478	0.0143074
780.557	0.0142464
780.635	0.0144228
780.713	0.0144830
780.791	0.0145820
780.869	0.0145029
780.947	0.0145484
781.025	0.0144778
781.103	0.0146324
781.182	0.0145940
781.260	0.0146999
781.338	0.0146947
781.416	0.0147285
781.494	0.0147911
781.572	0.0147492
781.650	0.0146542
781.728	0.0147852
781.807	0.0147664
781.885	0.0146394
781.963	0.0146072
782.041	0.0144924
782.119	0.0144660
782.197	0.0142931
782.275	0.0144138
782.353	0.0142455
782.432	0.0143648
782.510	0.0141556
782.588	0.0137939
782.666	0.0140171
782.744	0.0139623
782.822	0.0138857
782.900	0.0138914
782.978	0.0138793
783.057	0.0139894
783.135	0.0139117
783.213	0.0140094
783.291	0.0139889
783.369	0.0139322
783.447	0.0139458
783.525	0.0141717
783.603	0.0142352
783.682	0.0142593
783.760	0.0141713
783.838	0.0144622
783.916	0.0144193
783.994	0.0144099
784.072	0.0145858
784.150	0.0145314
784.228	0.0146123
784.307	0.0148207
784.385	0.0148222
784.463	0.0148672
784.541	0.0148631
784.619	0.0149765
784.697	0.0149050
784.775	0.0149259
784.853	0.0149852
784.932	0.0149672
785.010	0.0149543
785.088	0.0150668
785.166	0.0150232
785.244	0.0150219
785.322	0.0151422
785.400	0.0150407
785.478	0.0150186
785.557	0.0151944
785.635	0.0151035
785.713	0.0151347
785.791	0.0149986
785.869	0.0150059
785.947	0.0149715
786.025	0.0150163
786.103	0.0148969
786.182	0.0149718
786.260	0.0149163
786.338	0.0148502
786.416	0.0147293
786.494	0.0147648
786.572	0.0147150
786.650	0.0145518
786.728	0.0145733
786.807	0.0146880
786.885	0.0145434
786.963	0.0143733
787.041	0.0143952
787.119	0.0143880
787.197	0.0142576
787.275	0.0141650
787.353	0.0140627
787.432	0.0141106
787.510	0.0140029
787.588	0.0138599
787.666	0.0139700
787.744	0.0138074
787.822	0.0138119
787.900	0.0138089
787.978	0.0138580
788.057	0.0137602
788.135	0.0137862
788.213	0.0138906
788.291	0.0136385
788.369	0.0137183
788.447	0.0138360
788.525	0.0138834
788.603	0.0138909
788.682	0.0138887
788.760	0.0138867
788.838	0.0137454
788.916	0.0139861
788.994	0.0139362
789.072	0.0139156
789.150	0.0141360
789.228	0.0141621
789.307	0.0141630
789.385	0.0141974
789.463	0.0142313
789.541	0.0142119
789.619	0.0141798
789.697	0.0143739
789.775	0.0143962
789.853	0.0144338
789.932	0.0144004
790.010	0.0146287
790.088	0.0146748
790.166	0.0145529
790.244	0.0146706
790.322	0.0147807
790.400	0.0147748
790.478	0.0149861
790.557	0.0149722
790.635	0.0150058
790.713	0.0149756
790.791	0.0151822
790.869	0.0152756
790.947	0.0151353
791.025	0.0152348
791.103	0.0152384
791.182	0.0151566
791.260	0.0152516
791.338	0.0152248
791.416	0.0152783
791.494	0.0153790
791.572	0.0152544
791.650	0.0152215
791.728	0.0150768
791.807	0.0150789
791.885	0.0151736
791.963	0.0151028
792.041	0.0150986
792.119	0.0150941
792.197	0.0148628
792.275	0.0147607
792.353	0.0149041
792.432	0.0148114
792.510	0.0147939
792.588	0.0146318
792.666	0.0145412
792.744	0.0145582
792.822	0.0144569
792.900	0.0144392
792.978	0.0142674
793.057	0.0142263
793.135	0.0141880
793.213	0.0141222
793.291	0.0141186
793.369	0.0141056
793.447	0.0139933
793.525	0.0139616
793.603	0.0141473
793.682	0.0139584
793.760	0.0138483
793.838	0.0139838
793.916	0.0139896
793.994	0.0138804
794.072	0.0139159
794.150	0.0138728
794.228	0.0139790
794.307	0.0139961
794.385	0.0140692
794.463	0.0140904
794.541	0.0142333
794.619	0.0143465
794.697	0.0142075
794.775	0.0141065
794.853	0.0141377
794.932	0.0143192
795.010	0.0141547
795.088	0.0142035
795.166	0.0143812
795.244	0.0143123
795.322	0.0143446
795.400	0.0143340
795.478	0.0144010
795.557	0.0142822
795.635	0.0144284
795.713	0.0144958
795.791	0.0146542
795.869	0.0145097
795.947	0.0144888
796.025	0.0144546
796.103	0.0145553
796.182	0.0146240
796.260	0.0145241
796.338	0.0146446
796.416	0.0146746
796.494	0.0144136
796.572	0.0144904
796.650	0.0145291
796.728	0.0143877
796.807	0.0144580
796.885	0.0145079
796.963	0.0144988
797.041	0.0144585
797.119	0.0145744
797.197	0.0143999
797.275	0.0144880
797.353	0.0145746
797.432	0.0146988
797.510	0.0146429
797.588	0.0146643
797.666	0.0146657
797.744	0.0148836
797.822	0.0147731
797.900	0.0148309
797.978	0.0147907
798.057	0.0147871
798.135	0.0148096
798.213	0.0148688
798.291	0.0147633
798.369	0.0146984
798.447	0.0147553
798.525	0.0147136
798.603	0.0147791
798.682	0.0146157
798.760	0.0147366
798.838	0.0147041
798.916	0.0146385
798.994	0.0145947
799.072	0.0146159
799.150	0.0146012
799.228	0.0145324
799.307	0.0145076
799.385	0.0145262
799.463	0.0145706
799.541	0.0144934
799.619	0.0146027
799.697	0.0144998
799.775	0.0144751
799.853	0.0142994
799.932	0.0145520
800.010	0.0144705
800.088	0.0143877
800.166	0.0143872
800.244	0.0143716
800.322	0.0142921
800.400	0.0144353
800.478	0.0143005
800.557	0.0144344
800.635	0.0143795
800.713	0.0143608
800.791	0.0144943
800.869	0.0147062
800.947	0.0147290
801.025	0.0145953
801.103	0.0148042
801.182	0.0149212
801.260	0.0148779
801.338	0.0147755
801.416	0.0148376
801.494	0.0147511
801.572	0.0147628
801.650	0.0145839
801.728	0.0147653
801.807	0.0146098
801.885	0.0145312
801.963	0.0144971
802.041	0.0145602
802.119	0.0144357
802.197	0.0142378
802.275	0.0144287
802.353	0.0145414
802.432	0.0144480
802.510	0.0143565
802.588	0.0144018
802.666	0.0144182
802.744	0.0145179
802.822	0.0143909
802.900	0.0146407
802.978	0.0145494
803.057	0.0145129
803.135	0.0145993
803.213	0.0146124
803.291	0.0146194
803.369	0.0146718
803.447	0.0147259
803.525	0.0146886
803.603	0.0146763
803.682	0.0146477
803.760	0.0144881
803.838	0.0145609
803.916	0.0145892
803.994	0.0143764
804.072	0.0143522
804.150	0.0143571
804.228	0.0143068
804.307	0.0142310
804.385	0.0141234
804.463	0.0141425
804.541	0.0141267
804.619	0.0140572
804.697	0.0140896
804.775	0.0141166
804.853	0.0141346
804.932	0.0140947
805.010	0.0141219
805.088	0.0141662
805.166	0.0141300
805.244	0.0138908
805.322	0.0140691
805.400	0.0142177
805.478	0.0141486
805.557	0.0141496
805.635	0.0141785
805.713	0.0143257
805.791	0.0143812
805.869	0.0144766
805.947	0.0146332
806.025	0.0147368
806.103	0.0148043
806.182	0.0148381
806.260	0.0147620
806.338	0.0148381
806.416	0.0148328
806.494	0.0149128
806.572	0.0148535
806.650	0.0146666
806.728	0.0148282
806.807	0.0145860
806.885	0.0146206
806.963	0.0146131
807.041	0.0144405
807.119	0.0144563
807.197	0.0142351
807.275	0.0142942
807.353	0.0145104
807.432	0.0144184
807.510	0.0142882
807.588	0.0144258
807.666	0.0144884
807.744	0.0142572
807.822	0.0143510
807.900	0.0143135
807.978	0.0141826
808.057	0.0143340
808.135	0.0142030
808.213	0.0142200
808.291	0.0143443
808.369	0.0143832
808.447	0.0143137
808.525	0.0143345
808.603	0.0143542
808.682	0.0144067
808.760	0.0144779
808.838	0.0144131
808.916	0.0145323
808.994	0.0147101
809.072	0.0146232
809.150	0.0145196
809.228	0.0143876
809.307	0.0145494
809.385	0.0144471
809.463	0.0144751
809.541	0.0143860
809.619	0.0144590
809.697	0.0144445
809.775	0.0142319
809.853	0.0142645
809.932	0.0142992
810.010	0.0142071
810.088	0.0142383
810.166	0.0143044
810.244	0.0143015
810.322	0.0144898
810.400	0.0143988
810.478	0.0144980
810.557	0.0143578
810.635	0.0145235
810.713	0.0145763
810.791	0.0145181
810.869	0.0147199
810.947	0.0145462
811.025	0.0148191
811.103	0.0148415
811.182	0.0148789
811.260	0.0148543
811.338	0.0149142
811.416	0.0148703
811.494	0.0148794
811.572	0.0147683
811.650	0.0147429
811.728	0.0148579
811.807	0.0147837
811.885	0.0147746
811.963	0.0145668
812.041	0.0145782
812.119	0.0145087
812.197	0.0144999
812.275	0.0143631
812.353	0.0144273
812.432	0.0143077
812.510	0.0141875
812.588	0.0139143
812.666	0.0139981
812.744	0.0140005
812.822	0.0138987
812.900	0.0139176
812.978	0.0138254
813.057	0.0139949
813.135	0.0139243
813.213	0.0139070
813.291	0.0140688
813.369	0.0141627
813.447	0.0141315
813.525	0.0143909
813.603	0.0145869
813.682	0.0146501
813.760	0.0146641
813.838	0.0147472
813.916	0.0149603
813.994	0.0148222
814.072	0.0148244
814.150	0.0148739
814.228	0.0147450
814.307	0.0147226
814.385	0.0145935
814.463	0.0144157
814.541	0.0142705
814.619	0.0141935
814.697	0.0142618
814.775	0.0140453
814.853	0.0139801
814.932	0.0140039
815.010	0.0140105
815.088	0.0141908
815.166	0.0141172
815.244	0.0142612
815.322	0.0144267
815.400	0.0144328
815.478	0.0146011
815.557	0.0146435
815.635	0.0146479
815.713	0.0146710
815.791	0.0147397
815.869	0.0148111
815.947	0.0147298
816.025	0.0147498
816.103	0.0148833
816.182	0.0147047
816.260	0.0146718
816.338	0.0146748
816.416	0.0146667
816.494	0.0145506
816.572	0.0145659
816.650	0.0144832
816.728	0.0143889
816.807	0.0145332
816.885	0.0143378
816.963	0.0143439
817.041	0.0142397
817.119	0.0142929
817.197	0.0143427
817.275	0.0142852
817.353	0.0143932
817.432	0.0144112
817.510	0.0143925
817.588	0.0145323
817.666	0.0144894
817.744	0.0145445
817.822	0.0148132
817.900	0.0145366
817.978	0.0146091
818.057	0.0143831
818.135	0.0144246
818.213	0.0144733
818.291	0.0144912
818.369	0.0142890
818.447	0.0142004
818.525	0.0142250
818.603	0.0142622
818.682	0.0141900
818.760	0.0142129
818.838	0.0142357
818.916	0.0140752
818.994	0.0142850
819.072	0.0141463
819.150	0.0140111
819.228	0.0140926
819.307	0.0141756
819.385	0.0142603
819.463	0.0142336
819.541	0.0141900
819.619	0.0142289
819.697	0.0144306
819.775	0.0145036
819.853	0.0146175
819.932	0.0149090
820.010	0.0149253
820.088	0.0149140
820.166	0.0150629
820.244	0.0153079
820.322	0.0151869
820.400	0.0151675
820.478	0.0151722
820.557	0.0151480
820.635	0.0149268
820.713	0.0149554
820.791	0.0148579
820.869	0.0145570
820.947	0.0144990
821.025	0.0145076
821.103	0.0143127
821.182	0.0141677
821.260	0.0143097
821.338	0.0141581
821.416	0.0142824
821.494	0.0142674
821.572	0.0143563
821.650	0.0144373
821.728	0.0146613
821.807	0.0147315
821.885	0.0147000
821.963	0.0148862
822.041	0.0148093
822.119	0.0149734
822.197	0.0148325
822.275	0.0148246
822.353	0.0148271
822.432	0.0146059
822.510	0.0145811
822.588	0.0144905
822.666	0.0144110
822.744	0.0142560
822.822	0.0141884
822.900	0.0141353
822.978	0.0139187
823.057	0.0140361
823.135	0.0139931
823.213	0.0140091
823.291	0.0141068
823.369	0.0139974
823.447	0.0141730
823.525	0.0144035
823.603	0.0141758
823.682	0.0143977
823.760	0.0145945
823.838	0.0144884
823.916	0.0145885
823.994	0.0145028
824.072	0.0145932
824.150	0.0147150
824.228	0.0147335
824.307	0.0145805
824.385	0.0145569
824.463	0.0147404
824.541	0.0147495
824.619	0.0145332
824.697	0.0146058
824.775	0.0144897
824.853	0.0144535
824.932	0.0146336
825.010	0.0144585
825.088	0.0143309
825.166	0.0145131
825.244	0.0145541
825.322	0.0143551
825.400	0.0146634
825.478	0.0146732
825.557	0.0146263
825.635	0.0145244
825.713	0.0146684
825.791	0.0145882
825.869	0.0143900
825.947	0.0144408
826.025	0.0144538
826.103	0.0144193
826.182	0.0142304
826.260	0.0141656
826.338	0.0142757
826.416	0.0144405
826.494	0.0142606
826.572	0.0142245
826.650	0.0142899
826.728	0.0142090
826.807	0.0142900
826.885	0.0144133
826.963	0.0144770
827.041	0.0144804
827.119	0.0146607
827.197	0.0147442
827.275	0.0148148
827.353	0.0148992
827.432	0.0148844
827.510	0.0149120
827.588	0.0149875
827.666	0.0151485
827.744	0.0150362
827.822	0.0150077
827.900	0.0148649
827.978	0.0146484
828.057	0.0147655
828.135	0.0144846
828.213	0.0143472
828.291	0.0143295
828.369	0.0142742
828.447	0.0142233
828.525	0.0140923
828.603	0.0139787
828.682	0.0140267
828.760	0.0139042
828.838	0.0139418
828.916	0.0139655
828.994	0.0139240
829.072	0.0138432
829.150	0.0138265
829.228	0.0139195
829.307	0.0139536
829.385	0.0138398
829.463	0.0137914
829.541	0.0139004
829.619	0.0140256
829.697	0.0142293
829.775	0.0140959
829.853	0.0142695
829.932	0.0143935
830.010	0.0144311
830.088	0.0145319
830.166	0.0144499
830.244	0.0145966
830.322	0.0147361
830.400	0.0147438
830.478	0.0146389
830.557	0.0147507
830.635	0.0148509
830.713	0.0148370
830.791	0.0147881
830.869	0.0146437
830.947	0.0148379
831.025	0.0149223
831.103	0.0147020
831.182	0.0147144
831.260	0.0147252
831.338	0.0146744
831.416	0.0146950
831.494	0.0146069
831.572	0.0145531
831.650	0.0145171
831.728	0.0145565
831.807	0.0144312
831.885	0.0142185
831.963	0.0141907
832.041	0.0142483
832.119	0.0144427
832.197	0.0142642
832.275	0.0141762
832.353	0.0140464
832.432	0.0141076
832.510	0.0143165
832.588	0.0142530
832.666	0.0142180
832.744	0.0142789
832.822	0.0143473
832.900	0.0144711
832.978	0.0145171
833.057	0.0145094
833.135	0.0146043
833.213	0.0144984
833.291	0.0144792
833.369	0.0146877
833.447	0.0147207
833.525	0.0146746
833.603	0.0146024
833.682	0.0147519
833.760	0.0147563
833.838	0.0146604
833.916	0.0147418
833.994	0.0147830
834.072	0.0148856
834.150	0.0147722
834.228	0.0146830
834.307	0.0148583
834.385	0.0149830
834.463	0.0149545
834.541	0.0150198
834.619	0.0149741
834.697	0.0148845
834.775	0.0147487
834.853	0.0148415
834.932	0.0147271
835.010	0.0145783
835.088	0.0146565
835.166	0.0145786
835.244	0.0144304
835.322	0.0142915
835.400	0.0143086
835.478	0.0144036
835.557	0.0141927
835.635	0.0140564
835.713	0.0141312
835.791	0.0139458
835.869	0.0139168
835.947	0.0138836
836.025	0.0138966
836.103	0.0139111
836.182	0.0138953
836.260	0.0137685
836.338	0.0137970
836.416	0.0138657
836.494	0.0138148
836.572	0.0139122
836.650	0.0139823
836.728	0.0140556
836.807	0.0141525
836.885	0.0141956
836.963	0.0143660
837.041	0.0144135
837.119	0.0146905
837.197	0.0147717
837.275	0.0147633
837.353	0.0147559
837.432	0.0148772
837.510	0.0149239
837.588	0.0148645
837.666	0.0148191
837.744	0.0149863
837.822	0.0148614
837.900	0.0148083
837.978	0.0147985
838.057	0.0147212
838.135	0.0146989
838.213	0.0146091
838.291	0.0145622
838.369	0.0145957
838.447	0.0144790
838.525	0.0145604
838.603	0.0144262
838.682	0.0144600
838.760	0.0144548
838.838	0.0144625
838.916	0.0144449
838.994	0.0144170
839.072	0.0143521
839.150	0.0143291
839.228	0.0143471
839.307	0.0141531
839.385	0.0141833
839.463	0.0141078
839.541	0.0142664
839.619	0.0142285
839.697	0.0141475
839.775	0.0142664
839.853	0.0141685
839.932	0.0142047
840.010	0.0142206
840.088	0.0142300
840.166	0.0142639
840.244	0.0144394
840.322	0.0145097
840.400	0.0144678
840.478	0.0144701
840.557	0.0145216
840.635	0.0146084
840.713	0.0145278
840.791	0.0144129
840.869	0.0143985
840.947	0.0144730
841.025	0.0143961
841.103	0.0144754
841.182	0.0144184
841.260	0.0144880
841.338	0.0145030
841.416	0.0146985
841.494	0.0146063
841.572	0.0148920
841.650	0.0149419
841.728	0.0148640
841.807	0.0147829
841.885	0.0148567
841.963	0.0149481
842.041	0.0148400
842.119	0.0147708
842.197	0.0145827
842.275	0.0147250
842.353	0.0147308
842.432	0.0146033
842.510	0.0145951
842.588	0.0145578
842.666	0.0144266
842.744	0.0145565
842.822	0.0145805
842.900	0.0144541
842.978	0.0144612
843.057	0.0144838
843.135	0.0142529
843.213	0.0143374
843.291	0.0143735
843.369	0.0142769
843.447	0.0142137
843.525	0.0144546
843.603	0.0142331
843.682	0.0141827
843.760	0.0142216
843.838	0.0141783
843.916	0.0139981
843.994	0.0143182
844.072	0.0142094
844.150	0.0142413
844.228	0.0143163
844.307	0.0142268
844.385	0.0143257
844.463	0.0143851
844.541	0.0144888
844.619	0.0144294
844.697	0.0145605
844.775	0.0145624
844.853	0.0145326
844.932	0.0146606
845.010	0.0146535
845.088	0.0147515
845.166	0.0146910
845.244	0.0148730
845.322	0.0147636
845.400	0.0147919
845.478	0.0147097
845.557	0.0147063
845.635	0.0148952
845.713	0.0148718
845.791	0.0148766
845.869	0.0147905
845.947	0.0148832
846.025	0.0148992
846.103	0.0148379
846.182	0.0148999
846.260	0.0147972
846.338	0.0148261
846.416	0.0146083
846.494	0.0147495
846.572	0.0145972
846.650	0.0144375
846.728	0.0143289
846.807	0.0143638
846.885	0.0143021
846.963	0.0140908
847.041	0.0140499
847.119	0.0140588
847.197	0.0138944
847.275	0.0139448
847.353	0.0140076
847.432	0.0140012
847.510	0.0137982
847.588	0.0138834
847.666	0.0138592
847.744	0.0140001
847.822	0.0140014
847.900	0.0141014
847.978	0.0141692
848.057	0.0140102
848.135	0.0141779
848.213	0.0140546
848.291	0.0143417
848.369	0.0144320
848.447	0.0145043
848.525	0.0144516
848.603	0.0145773
848.682	0.0147288
848.760	0.0147706
848.838	0.0148982
848.916	0.0148539
848.994	0.0148803
849.072	0.0149956
849.150	0.0152421
849.228	0.0152203
849.307	0.0150747
849.385	0.0149816
849.463	0.0150730
849.541	0.0148556
849.619	0.0148972
849.697	0.0149255
849.775	0.0146527
849.853	0.0146098
849.932	0.0147608
850.010	0.0146814
850.088	0.0145855
850.166	0.0144627
850.244	0.0144936
850.322	0.0144898
850.400	0.0145280
850.478	0.0143935
850.557	0.0144475
850.635	0.0143761
850.713	0.0144251
850.791	0.0143584
850.869	0.0142338
850.947	0.0143040
851.025	0.0142898
851.103	0.0143134
851.182	0.0143478
851.260	0.0142850
851.338	0.0142605
851.416	0.0141623
851.494	0.0142911
851.572	0.0142454
851.650	0.0143472
851.728	0.0143681
851.807	0.0144373
851.885	0.0144592
851.963	0.0143498
852.041	0.0144075
852.119	0.0142997
852.197	0.0143673
852.275	0.0143798
852.353	0.0144103
852.432	0.0145082
852.510	0.0144388
852.588	0.0143569
852.666	0.0145287
852.744	0.0144077
852.822	0.0142709
852.900	0.0144387
852.978	0.0141700
853.057	0.0143334
853.135	0.0145493
853.213	0.0144313
853.291	0.0144126
853.369	0.0145760
853.447	0.0145421
853.525	0.0145695
853.603	0.0145321
853.682	0.0148142
853.760	0.0146633
853.838	0.0147103
853.916	0.0146918
853.994	0.0145989
854.072	0.0145909
854.150	0.0145236
854.228	0.0142870
854.307	0.0144043
854.385	0.0143883
854.463	0.0143506
854.541	0.0142506
854.619	0.0141351
854.697	0.0141186
854.775	0.0141691
854.853	0.0143005
854.932	0.0143069
855.010	0.0143082
855.088	0.0142921
855.166	0.0143372
855.244	0.0143125
855.322	0.0143800
855.400	0.0144223
855.478	0.0144763
855.557	0.0145959
855.635	0.0143982
855.713	0.0144317
855.791	0.0145871
855.869	0.0145661
855.947	0.0144535
856.025	0.0145332
856.103	0.0145847
856.182	0.0146200
856.260	0.0145132
856.338	0.0145390
856.416	0.0145886
856.494	0.0147024
856.572	0.0145934
856.650	0.0146545
856.728	0.0148207
856.807	0.0147747
856.885	0.0145934
856.963	0.0147827
857.041	0.0148847
857.119	0.0147899
857.197	0.0146264
857.275	0.0146981
857.353	0.0147762
857.432	0.0146952
857.510	0.0145117
857.588	0.0146439
857.666	0.0145324
857.744	0.0146484
857.822	0.0144083
857.900	0.0144395
857.978	0.0143925
858.057	0.0143471
858.135	0.0145004
858.213	0.0144622
858.291	0.0143934
858.369	0.0144122
858.447	0.0143879
858.525	0.0144897
858.603	0.0144221
858.682	0.0143659
858.760	0.0141759
858.838	0.0143186
858.916	0.0144315
858.994	0.0143325
859.072	0.0142530
859.150	0.0143506
859.228	0.0143920
859.307	0.0144124
859.385	0.0143659
859.463	0.0145564
859.541	0.0145875
859.619	0.0147379
859.697	0.0145154
859.775	0.0144808
859.853	0.0145882
859.932	0.0145527
860.010	0.0147021
860.088	0.0146997
860.166	0.0145346
860.244	0.0143668
860.322	0.0145533
860.400	0.0145540
860.478	0.0145023
860.557	0.0145090
860.635	0.0144071
860.713	0.0145240
860.791	0.0143993
860.869	0.0144387
860.947	0.0144675
861.025	0.0143812
861.103	0.0143900
861.182	0.0142968
861.260	0.0144202
861.338	0.0144841
861.416	0.0144143
861.494	0.0144250
861.572	0.0142206
861.650	0.0141984
861.728	0.0142165
861.807	0.0143034
861.885	0.0142588
861.963	0.0142441
862.041	0.0141581
862.119	0.0142150
862.197	0.0143222
862.275	0.0141887
862.353	0.0141698
862.432	0.0142976
862.510	0.0143406
862.588	0.0143394
862.666	0.0144057
862.744	0.0143395
862.822	0.0143723
862.900	0.0144717
862.978	0.0145248
863.057	0.0145490
863.135	0.0144453
863.213	0.0145984
863.291	0.0146155
863.369	0.0146912
863.447	0.0146492
863.525	0.0147227
863.603	0.0146254
863.682	0.0145912
863.760	0.0147266
863.838	0.0147324
863.916	0.0149223
863.994	0.0148955
864.072	0.0148253
864.150	0.0148463
864.228	0.0149014
864.307	0.0148476
864.385	0.0148767
864.463	0.0147612
864.541	0.0146867
864.619	0.0147359
864.697	0.0145366
864.775	0.0147182
864.853	0.0147751
864.932	0.0146509
865.010	0.0146443
865.088	0.0146479
865.166	0.0147182
865.244	0.0146197
865.322	0.0144485
865.400	0.0146013
865.478	0.0146616
865.557	0.0146578
865.635	0.0145367
865.713	0.0143533
865.791	0.0145070
865.869	0.0144717
865.947	0.0144920
866.025	0.0144381
866.103	0.0144728
866.182	0.0143089
866.260	0.0141949
866.338	0.0144449
866.416	0.0144134
866.494	0.0142971
866.572	0.0143398
866.650	0.0144595
866.728	0.0143731
866.807	0.0144018
866.885	0.0144124
866.963	0.0145881
867.041	0.0143702
867.119	0.0146162
867.197	0.0145929
867.275	0.0145425
867.353	0.0145792
867.432	0.0145330
867.510	0.0147021
867.588	0.0146230
867.666	0.0144911
867.744	0.0146092
867.822	0.0146522
867.900	0.0146564
867.978	0.0147478
868.057	0.0147120
868.135	0.0148504
868.213	0.0147402
868.291	0.0147432
868.369	0.0148077
868.447	0.0146848
868.525	0.0146824
868.603	0.0147195
868.682	0.0147031
868.760	0.0147686
868.838	0.0147374
868.916	0.0146554
868.994	0.0146391
869.072	0.0146262
869.150	0.0145503
869.228	0.0146523
869.307	0.0145251
869.385	0.0144635
869.463	0.0144998
869.541	0.0144351
869.619	0.0143062
869.697	0.0143300
869.775	0.0143555
869.853	0.0143555
869.932	0.0142700
870.010	0.0142059
870.088	0.0141263
870.166	0.0141844
870.244	0.0142535
870.322	0.0141601
870.400	0.0140998
870.478	0.0141304
870.557	0.0141920
870.635	0.0141871
870.713	0.0142191
870.791	0.0143719
870.869	0.0142560
870.947	0.0144141
871.025	0.0144505
871.103	0.0144228
871.182	0.0145164
871.260	0.0145912
871.338	0.0144049
871.416	0.0147630
871.494	0.0149105
871.572	0.0146984
871.650	0.0145187
871.728	0.0146236
871.807	0.0146530
871.885	0.0146546
871.963	0.0145219
872.041	0.0145543
872.119	0.0145934
872.197	0.0144775
872.275	0.0144520
872.353	0.0145231
872.432	0.0144249
872.510	0.0145784
872.588	0.0145215
872.666	0.0143745
872.744	0.0144983
872.822	0.0145467
872.900	0.0143686
872.978	0.0144027
873.057	0.0143574
873.135	0.0142881
873.213	0.0142015
873.291	0.0143937
873.369	0.0142448
873.447	0.0142779
873.525	0.0142465
873.603	0.0142538
873.682	0.0142178
873.760	0.0142500
873.838	0.0141939
873.916	0.0144141
873.994	0.0142641
874.072	0.0142319
874.150	0.0143031
874.228	0.0144707
874.307	0.0145212
874.385	0.0145121
874.463	0.0144720
874.541	0.0144998
874.619	0.0146679
874.697	0.0147234
874.775	0.0146994
874.853	0.0145999
874.932	0.0147669
875.010	0.0147636
875.088	0.0146025
875.166	0.0146674
875.244	0.0146109
875.322	0.0146589
875.400	0.0145838
875.478	0.0146066
875.557	0.0144752
875.635	0.0145933
875.713	0.0146642
875.791	0.0146950
875.869	0.0144841
875.947	0.0146650
876.025	0.0146658
876.103	0.0145798
876.182	0.0145174
876.260	0.0145079
876.338	0.0144939
876.416	0.0147107
876.494	0.0146385
876.572	0.0145290
876.650	0.0144616
876.728	0.0144827
876.807	0.0146083
876.885	0.0145090
876.963	0.0144495
877.041	0.0143507
877.119	0.0144920
877.197	0.0144326
877.275	0.0143394
877.353	0.0144066
877.432	0.0143873
877.510	0.0143411
877.588	0.0143181
877.666	0.0142198
877.744	0.0141859
877.822	0.0143239
877.900	0.0142682
877.978	0.0141763
878.057	0.0143134
878.135	0.0143600
878.213	0.0143631
878.291	0.0142870
878.369	0.0143092
878.447	0.0142822
878.525	0.0144447
878.603	0.0145348
878.682	0.0144841
878.760	0.0143657
878.838	0.0144481
878.916	0.0145141
878.994	0.0145171
879.072	0.0145530
879.150	0.0145965
879.228	0.0146147
879.307	0.0145788
879.385	0.0145792
879.463	0.0146002
879.541	0.0146125
879.619	0.0147278
879.697	0.0147218
879.775	0.0145403
879.853	0.0147324
879.932	0.0146713
880.010	0.0146745
880.088	0.0147170
880.166	0.0147206
880.244	0.0146296
880.322	0.0146790
880.400	0.0146784
880.478	0.0146570
880.557	0.0144844
880.635	0.0144917
880.713	0.0144791
880.791	0.0144822
880.869	0.0143565
880.947	0.0142958
881.025	0.0143562
881.103	0.0143540
881.182	0.0144245
881.260	0.0143748
881.338	0.0143899
881.416	0.0144587
881.494	0.0143934
881.572	0.0142585
881.650	0.0144534
881.728	0.0145666
881.807	0.0145419
881.885	0.0143436
881.963	0.0146564
882.041	0.0145272
882.119	0.0144585
882.197	0.0145967
882.275	0.0147227
882.353	0.0145937
882.432	0.0147296
882.510	0.0148144
882.588	0.0146375
882.666	0.0145022
882.744	0.0144997
882.822	0.0145682
882.900	0.0144696
882.978	0.0143964
883.057	0.0145180
883.135	0.0144442
883.213	0.0143692
883.291	0.0144370
883.369	0.0143436
883.447	0.0144305
883.525	0.0143089
883.603	0.0143552
883.682	0.0143167
883.760	0.0143747
883.838	0.0143671
883.916	0.0141236
883.994	0.0142222
884.072	0.0141028
884.150	0.0141800
884.228	0.0142753
884.307	0.0143640
884.385	0.0143913
884.463	0.0142645
884.541	0.0142986
884.619	0.0143907
884.697	0.0143568
884.775	0.0144549
884.853	0.0144863
884.932	0.0144347
885.010	0.0145767
885.088	0.0145184
885.166	0.0145870
885.244	0.0146447
885.322	0.0146628
885.400	0.0146276
885.478	0.0147613
885.557	0.0146780
885.635	0.0147131
885.713	0.0147598
885.791	0.0148236
885.869	0.0146748
885.947	0.0146898
886.025	0.0145985
886.103	0.0147129
886.182	0.0148034
886.260	0.0146350
886.338	0.0146364
886.416	0.0145951
886.494	0.0146046
886.572	0.0145660
886.650	0.0144563
886.728	0.0144902
886.807	0.0145148
886.885	0.0145126
886.963	0.0144456
887.041	0.0145264
887.119	0.0144114
887.197	0.0144180
887.275	0.0144163
887.353	0.0143440
887.432	0.0143050
887.510	0.0143945
887.588	0.0144492
887.666	0.0144115
887.744	0.0144260
887.822	0.0144395
887.900	0.0145475
887.978	0.0145501
888.057	0.0146204
888.135	0.0146569
888.213	0.0144706
888.291	0.0145235
888.369	0.0145363
888.447	0.0148171
888.525	0.0145039
888.603	0.0145869
888.682	0.0147303
888.760	0.0147231
888.838	0.0146889
888.916	0.0145780
888.994	0.0146530
889.072	0.0148109
889.150	0.0147317
889.228	0.0148677
889.307	0.0147311
889.385	0.0148034
889.463	0.0147221
889.541	0.0147758
889.619	0.0147291
889.697	0.0146606
889.775	0.0147952
889.853	0.0146554
889.932	0.0145907
890.010	0.0146374
890.088	0.0145203
890.166	0.0144121
890.244	0.0145024
890.322	0.0144958
890.400	0.0144168
890.478	0.0145121
890.557	0.0143530
890.635	0.0143500
890.713	0.0141988
890.791	0.0143747
890.869	0.0143009
890.947	0.0142622
891.025	0.0141589
891.103	0.0140925
891.182	0.0141277
891.260	0.0141923
891.338	0.0141338
891.416	0.0141409
891.494	0.0141984
891.572	0.0142481
891.650	0.0143182
891.728	0.0143812
891.807	0.0142358
891.885	0.0143268
891.963	0.0143915
892.041	0.0144910
892.119	0.0146313
892.197	0.0145063
892.275	0.0144348
892.353	0.0145983
892.432	0.0146100
892.510	0.0145625
892.588	0.0146776
892.666	0.0146098
892.744	0.0146841
892.822	0.0146573
892.900	0.0146549
892.978	0.0145174
893.057	0.0146211
893.135	0.0146650
893.213	0.0146487
893.291	0.0146301
893.369	0.0147112
893.447	0.0146475
893.525	0.0146021
893.603	0.0146571
893.682	0.0146529
893.760	0.0147656
893.838	0.0147993
893.916	0.0148262
893.994	0.0146139
894.072	0.0146875
894.150	0.0144623
894.228	0.0146115
894.307	0.0145655
894.385	0.0145815
894.463	0.0146223
894.541	0.0145867
894.619	0.0146609
894.697	0.0144465
894.775	0.0143611
894.853	0.0145308
894.932	0.0144599
895.010	0.0143360
895.088	0.0145317
895.166	0.0145150
895.244	0.0144537
895.322	0.0144439
895.400	0.0143836
895.478	0.0142705
895.557	0.0143282
895.635	0.0143118
895.713	0.0142944
895.791	0.0142896
895.869	0.0142393
895.947	0.0142622
896.025	0.0142860
896.103	0.0141828
896.182	0.0143613
896.260	0.0141438
896.338	0.0140028
896.416	0.0140891
896.494	0.0141006
896.572	0.0141228
896.650	0.0142710
896.728	0.0142798
896.807	0.0142906
896.885	0.0140038
896.963	0.0140636
897.041	0.0142574
897.119	0.0141391
897.197	0.0140944
897.275	0.0142016
897.353	0.0142576
897.432	0.0141461
897.510	0.0142521
897.588	0.0144979
897.666	0.0142675
897.744	0.0144427
897.822	0.0145158
897.900	0.0144424
897.978	0.0144142
898.057	0.0143821
898.135	0.0143424
898.213	0.0141863
898.291	0.0145133
898.369	0.0144732
898.447	0.0143692
898.525	0.0143253
898.603	0.0143301
898.682	0.0144825
898.760	0.0145433
898.838	0.0144125
898.916	0.0144513
898.994	0.0144646
899.072	0.0145731
899.150	0.0144448
899.228	0.0145238
899.307	0.0146592
899.385	0.0146854
899.463	0.0146633
899.541	0.0144801
899.619	0.0145126
899.697	0.0145423
899.775	0.0145146
899.853	0.0147514
899.932	0.0144854
900.010	0.0144460
900.088	0.0147351
900.166	0.0145546
900.244	0.0146244
900.322	0.0146042
900.400	0.0145740
900.478	0.0145425
900.557	0.0146133
900.635	0.0145318
900.713	0.0144832
900.791	0.0145494
900.869	0.0145803
900.947	0.0143861
901.025	0.0145609
901.103	0.0145010
901.182	0.0145757
901.260	0.0144181
901.338	0.0144247
901.416	0.0145189
901.494	0.0145628
901.572	0.0143919
901.650	0.0145006
901.728	0.0146079
901.807	0.0145755
901.885	0.0146303
901.963	0.0147351
902.041	0.0146168
902.119	0.0145508
902.197	0.0145973
902.275	0.0147059
902.353	0.0145734
902.432	0.0147234
902.510	0.0145907
902.588	0.0147872
902.666	0.0146529
902.744	0.0146032
902.822	0.0147134
902.900	0.0144844
902.978	0.0145528
903.057	0.0145718
903.135	0.0144980
903.213	0.0147491
903.291	0.0145784
903.369	0.0144456
903.447	0.0146156
903.525	0.0145261
903.603	0.0145024
903.682	0.0144825
903.760	0.0144420
903.838	0.0143855
903.916	0.0143832
903.994	0.0141685
904.072	0.0143662
904.150	0.0143127
904.228	0.0141505
904.307	0.0142178
904.385	0.0141926
904.463	0.0142455
904.541	0.0141924
904.619	0.0142303
904.697	0.0143111
904.775	0.0143253
904.853	0.0141797
904.932	0.0143157
905.010	0.0141747
905.088	0.0142498
905.166	0.0142709
905.244	0.0143348
905.322	0.0142683
905.400	0.0143414
905.478	0.0142913
905.557	0.0144125
905.635	0.0143232
905.713	0.0143193
905.791	0.0144375
905.869	0.0144042
905.947	0.0144934
906.025	0.0145271
906.103	0.0145165
906.182	0.0145349
906.260	0.0145705
906.338	0.0146426
906.416	0.0144696
906.494	0.0145808
906.572	0.0145247
906.650	0.0146205
906.728	0.0146360
906.807	0.0147380
906.885	0.0146291
906.963	0.0147556
907.041	0.0147017
907.119	0.0147556
907.197	0.0146850
907.275	0.0146722
907.353	0.0147037
907.432	0.0147692
907.510	0.0148338
907.588	0.0146849
907.666	0.0148022
907.744	0.0147519
907.822	0.0147592
907.900	0.0147246
907.978	0.0147855
908.057	0.0146049
908.135	0.0146992
908.213	0.0145991
908.291	0.0146603
908.369	0.0145406
908.447	0.0145622
908.525	0.0146709
908.603	0.0144378
908.682	0.0144362
908.760	0.0144439
908.838	0.0143682
908.916	0.0143869
908.994	0.0144244
909.072	0.0144107
909.150	0.0143674
909.228	0.0142821
909.307	0.0143028
909.385	0.0142483
909.463	0.0143020
909.541	0.0141922
909.619	0.0142690
909.697	0.0144618
909.775	0.0143150
909.853	0.0144116
909.932	0.0144012
910.010	0.0143373
910.088	0.0144334
910.166	0.0144245
910.244	0.0144284
910.322	0.0144627
910.400	0.0145416
910.478	0.0143671
910.557	0.0145207
910.635	0.0145367
910.713	0.0145949
910.791	0.0145707
910.869	0.0146245
910.947	0.0146702
911.025	0.0146791
911.103	0.0146322
911.182	0.0147499
911.260	0.0147519
911.338	0.0146719
911.416	0.0147357
911.494	0.0145951
911.572	0.0145865
911.650	0.0146730
911.728	0.0145683
911.807	0.0146879
911.885	0.0146547
911.963	0.0144057
912.041	0.0144255
912.119	0.0144874
912.197	0.0144109
912.275	0.0143192
912.353	0.0144090
912.432	0.0143000
912.510	0.0143719
912.588	0.0144078
912.666	0.0142663
912.744	0.0143094
912.822	0.0145114
912.900	0.0142940
912.978	0.0144274
913.057	0.0142804
913.135	0.0142810
913.213	0.0143584
913.291	0.0143280
913.369	0.0143600
913.447	0.0143850
913.525	0.0142397
913.603	0.0143803
913.682	0.0144786
913.760	0.0143976
913.838	0.0142859
913.916	0.0144672
913.994	0.0143454
914.072	0.0143922
914.150	0.0145308
914.228	0.0144499
914.307	0.0143529
914.385	0.0143764
914.463	0.0144719
914.541	0.0144134
914.619	0.0145963
914.697	0.0144730
914.775	0.0143714
914.853	0.0143356
914.932	0.0144918
915.010	0.0143654
915.088	0.0146084
915.166	0.0145605
915.244	0.0143414
915.322	0.0143057
915.400	0.0142747
915.478	0.0142702
915.557	0.0142889
915.635	0.0143714
915.713	0.0143605
915.791	0.0143436
915.869	0.0143257
915.947	0.0143125
916.025	0.0142702
916.103	0.0143094
916.182	0.0142079
916.260	0.0141373
916.338	0.0144043
916.416	0.0143096
916.494	0.0143038
916.572	0.0142963
916.650	0.0143881
916.728	0.0143427
916.807	0.0142928
916.885	0.0144720
916.963	0.0143761
917.041	0.0144681
917.119	0.0146050
917.197	0.0144633
917.275	0.0146557
917.353	0.0146285
917.432	0.0144528
917.510	0.0145651
917.588	0.0144389
917.666	0.0145528
917.744	0.0145327
917.822	0.0145336
917.900	0.0146084
917.978	0.0146562
918.057	0.0145120
918.135	0.0145735
918.213	0.0145530
918.291	0.0145663
918.369	0.0145409
918.447	0.0145233
918.525	0.0144222
918.603	0.0144484
918.682	0.0145572
918.760	0.0145683
918.838	0.0145927
918.916	0.0145344
918.994	0.0146972
919.072	0.0146582
919.150	0.0145899
919.228	0.0147688
919.307	0.0145781
919.385	0.0146108
919.463	0.0147049
919.541	0.0145808
919.619	0.0147132
919.697	0.0147710
919.775	0.0146613
919.853	0.0146470
919.932	0.0146857
920.010	0.0148241
920.088	0.0148653
920.166	0.0146136
920.244	0.0146971
920.322	0.0147999
920.400	0.0148135
920.478	0.0145798
920.557	0.0147483
920.635	0.0147343
920.713	0.0147099
920.791	0.0145699
920.869	0.0146012
920.947	0.0146714
921.025	0.0146676
921.103	0.0146159
921.182	0.0145451
921.260	0.0145375
921.338	0.0145724
921.416	0.0146011
921.494	0.0146237
921.572	0.0145005
921.650	0.0145305
921.728	0.0145695
921.807	0.0144591
921.885	0.0143040
921.963	0.0144257
922.041	0.0143052
922.119	0.0143972
922.197	0.0142138
922.275	0.0143537
922.353	0.0142619
922.432	0.0143863
922.510	0.0142492
922.588	0.0142500
922.666	0.0144744
922.744	0.0143633
922.822	0.0142924
922.900	0.0142124
922.978	0.0142801
923.057	0.0143317
923.135	0.0144077
923.213	0.0143563
923.291	0.0142657
923.369	0.0143828
923.447	0.0143343
923.525	0.0144090
923.603	0.0142542
923.682	0.0143173
923.760	0.0144739
923.838	0.0145047
923.916	0.0144433
923.994	0.0142655
924.072	0.0144334
924.150	0.0145110
924.228	0.0144151
924.307	0.0145062
924.385	0.0144724
924.463	0.0145513
924.541	0.0145437
924.619	0.0146716
924.697	0.0145387
924.775	0.0145767
924.853	0.0146120
924.932	0.0145205
925.010	0.0145061
925.088	0.0145445
925.166	0.0145633
925.244	0.0145650
925.322	0.0144207
925.400	0.0144541
925.478	0.0144511
925.557	0.0143758
925.635	0.0144088
925.713	0.0143350
925.791	0.0142894
925.869	0.0142593
925.947	0.0141835
926.025	0.0142400
926.103	0.0142229
926.182	0.0142068
926.260	0.0141651
926.338	0.0141734
926.416	0.0143134
926.494	0.0142397
926.572	0.0142145
926.650	0.0142353
926.728	0.0141490
926.807	0.0142986
926.885	0.0143770
926.963	0.0144749
927.041	0.0144783
927.119	0.0144416
927.197	0.0143536
927.275	0.0144012
927.353	0.0143922
927.432	0.0146022
927.510	0.0145408
927.588	0.0145554
927.666	0.0145061
927.744	0.0146067
927.822	0.0145693
927.900	0.0145229
927.978	0.0144880
928.057	0.0145560
928.135	0.0147542
928.213	0.0146178
928.291	0.0147019
928.369	0.0147046
928.447	0.0146622
928.525	0.0145847
928.603	0.0145226
928.682	0.0146938
928.760	0.0145882
928.838	0.0145853
928.916	0.0146764
928.994	0.0147037
929.072	0.0146606
929.150	0.0146203
929.228	0.0146194
929.307	0.0144574
929.385	0.0145868
929.463	0.0147100
929.541	0.0145762
929.619	0.0144220
929.697	0.0143893
929.775	0.0145249
929.853	0.0145474
929.932	0.0144781
930.010	0.0145308
930.088	0.0144326
930.166	0.0144919
930.244	0.0146069
930.322	0.0145082
930.400	0.0144915
930.478	0.0144917
930.557	0.0146927
930.635	0.0144881
930.713	0.0146804
930.791	0.0148467
930.869	0.0146697
930.947	0.0146210
931.025	0.0146866
931.103	0.0147023
931.182	0.0146494
931.260	0.0145851
931.338	0.0146490
931.416	0.0146309
931.494	0.0146196
931.572	0.0144700
931.650	0.0145261
931.728	0.0145605
931.807	0.0143182
931.885	0.0144379
931.963	0.0142912
932.041	0.0143501
932.119	0.0142962
932.197	0.0144119
932.275	0.0144033
932.353	0.0143275
932.432	0.0142770
932.510	0.0142871
932.588	0.0142754
932.666	0.0142797
932.744	0.0143089
932.822	0.0143761
932.900	0.0142851
932.978	0.0143903
933.057	0.0143598
933.135	0.0142860
933.213	0.0144292
933.291	0.0145343
933.369	0.0143386
933.447	0.0144329
933.525	0.0144897
933.603	0.0144440
933.682	0.0144777
933.760	0.0144120
933.838	0.0144648
933.916	0.0143321
933.994	0.0143847
934.072	0.0144957
934.150	0.0145477
934.228	0.0144188
934.307	0.0144135
934.385	0.0143364
934.463	0.0144353
934.541	0.0144420
934.619	0.0144369
934.697	0.0144449
934.775	0.0145203
934.853	0.0145029
934.932	0.0144170
935.010	0.0144453
935.088	0.0143919
935.166	0.0144600
935.244	0.0144237
935.322	0.0144478
935.400	0.0145131
935.478	0.0144893
935.557	0.0144733
935.635	0.0144284
935.713	0.0143742
935.791	0.0144228
935.869	0.0143034
935.947	0.0141896
936.025	0.0143895
936.103	0.0145409
936.182	0.0145248
936.260	0.0144462
936.338	0.0143497
936.416	0.0144411
936.494	0.0143905
936.572	0.0144178
936.650	0.0144597
936.728	0.0144887
936.807	0.0145404
936.885	0.0143286
936.963	0.0143835
937.041	0.0143395
937.119	0.0144418
937.197	0.0143435
937.275	0.0142154
937.353	0.0144798
937.432	0.0143504
937.510	0.0142594
937.588	0.0142136
937.666	0.0144164
937.744	0.0144203
937.822	0.0142436
937.900	0.0143028
937.978	0.0143724
938.057	0.0144868
938.135	0.0144000
938.213	0.0145624
938.291	0.0143978
938.369	0.0145098
938.447	0.0145295
938.525	0.0144736
938.603	0.0145945
938.682	0.0145252
938.760	0.0146309
938.838	0.0145927
938.916	0.0145819
938.994	0.0145844
939.072	0.0146074
939.150	0.0144817
939.228	0.0146639
939.307	0.0145100
939.385	0.0145148
939.463	0.0145836
939.541	0.0144135
939.619	0.0142986
939.697	0.0144341
939.775	0.0144662
939.853	0.0143174
939.932	0.0143223
940.010	0.0142996
940.088	0.0145303
940.166	0.0143569
940.244	0.0143498
940.322	0.0143182
940.400	0.0142796
940.478	0.0143386
940.557	0.0143702
940.635	0.0143421
940.713	0.0144930
940.791	0.0143564
940.869	0.0143250
940.947	0.0143367
941.025	0.0144343
941.103	0.0145641
941.182	0.0144824
941.260	0.0144651
941.338	0.0144814
941.416	0.0145283
941.494	0.0146438
941.572	0.0143739
941.650	0.0144210
941.728	0.0143683
941.807	0.0144913
941.885	0.0143733
941.963	0.0145007
942.041	0.0146229
942.119	0.0144961
942.197	0.0144914
942.275	0.0146321
942.353	0.0145357
942.432	0.0145628
942.510	0.0145300
942.588	0.0145554
942.666	0.0145208
942.744	0.0146568
942.822	0.0147800
942.900	0.0146062
942.978	0.0145979
943.057	0.0146777
943.135	0.0145658
943.213	0.0145553
943.291	0.0147327
943.369	0.0146311
943.447	0.0145158
943.525	0.0146412
943.603	0.0146331
943.682	0.0146738
943.760	0.0147009
943.838	0.0146121
943.916	0.0145313
943.994	0.0145528
944.072	0.0145161
944.150	0.0146239
944.228	0.0144938
944.307	0.0145686
944.385	0.0145810
944.463	0.0147815
944.541	0.0145943
944.619	0.0144401
944.697	0.0146520
944.775	0.0145697
944.853	0.0146745
944.932	0.0145589
945.010	0.0145451
945.088	0.0145885
945.166	0.0146127
945.244	0.0144355
945.322	0.0145189
945.400	0.0146356
945.478	0.0144044
945.557	0.0145156
945.635	0.0144786
945.713	0.0143804
945.791	0.0144433
945.869	0.0143911
945.947	0.0143892
946.025	0.0143993
946.103	0.0143819
946.182	0.0142957
946.260	0.0144105
946.338	0.0144109
946.416	0.0144970
946.494	0.0143967
946.572	0.0143085
946.650	0.0142923
946.728	0.0144654
946.807	0.0143941
946.885	0.0144835
946.963	0.0144773
947.041	0.0143250
947.119	0.0143244
947.197	0.0144183
947.275	0.0144674
947.353	0.0144610
947.432	0.0143140
947.510	0.0144407
947.588	0.0144401
947.666	0.0145469
947.744	0.0144807
947.822	0.0144878
947.900	0.0145358
947.978	0.0145810
948.057	0.0143942
948.135	0.0145258
948.213	0.0143409
948.291	0.0143211
948.369	0.0144728
948.447	0.0144180
948.525	0.0143063
948.603	0.0143555
948.682	0.0142417
948.760	0.0144224
948.838	0.0144035
948.916	0.0143884
948.994	0.0144047
949.072	0.0142905
949.150	0.0142587
949.228	0.0143787
949.307	0.0144362
949.385	0.0144113
949.463	0.0144553
949.541	0.0144488
949.619	0.0145119
949.697	0.0144701
949.775	0.0144715
949.853	0.0145405
949.932	0.0145535
950.010	0.0145481
950.088	0.0145530
950.166	0.0143669
950.244	0.0145750
950.322	0.0145016
950.400	0.0144727
950.478	0.0145229
950.557	0.0144983
950.635	0.0144260
950.713	0.0145425
950.791	0.0145970
950.869	0.0145626
950.947	0.0145334
951.025	0.0145798
951.103	0.0144801
951.182	0.0145807
951.260	0.0146294
951.338	0.0146478
951.416	0.0145515
951.494	0.0144978
951.572	0.0144738
951.650	0.0144811
951.728	0.0146236
951.807	0.0146792
951.885	0.0145221
951.963	0.0146378
952.041	0.0146377
952.119	0.0147604
952.197	0.0146749
952.275	0.0146675
952.353	0.0146383
952.432	0.0146256
952.510	0.0146331
952.588	0.0146393
952.666	0.0146248
952.744	0.0146124
952.822	0.0145441
952.900	0.0145786
952.978	0.0147282
953.057	0.0146572
953.135	0.0145826
953.213	0.0146004
953.291	0.0145641
953.369	0.0145364
953.447	0.0145722
953.525	0.0145112
953.603	0.0143715
953.682	0.0144519
953.760	0.0144293
953.838	0.0142706
953.916	0.0144321
953.994	0.0144606
954.072	0.0143458
954.150	0.0144386
954.228	0.0143056
954.307	0.0144280
954.385	0.0144229
954.463	0.0144122
954.541	0.0143919
954.619	0.0144199
954.697	0.0143285
954.775	0.0145213
954.853	0.0143481
954.932	0.0143534
955.010	0.0144678
955.088	0.0143495
955.166	0.0144547
955.244	0.0144482
955.322	0.0144709
955.400	0.0145108
955.478	0.0143983
955.557	0.0143410
955.635	0.0143022
955.713	0.0144400
955.791	0.0144749
955.869	0.0145214
955.947	0.0144505
956.025	0.0145890
956.103	0.0144019
956.182	0.0144220
956.260	0.0146082
956.338	0.0146262
956.416	0.0144684
956.494	0.0144744
956.572	0.0145888
956.650	0.0147131
956.728	0.0147488
956.807	0.0146385
956.885	0.0146107
956.963	0.0147027
957.041	0.0146727
957.119	0.0146844
957.197	0.0145424
957.275	0.0146419
957.353	0.0146230
957.432	0.0146132
957.510	0.0145966
957.588	0.0146172
957.666	0.0146666
957.744	0.0146383
957.822	0.0147512
957.900	0.0146230
957.978	0.0145697
958.057	0.0145451
958.135	0.0146967
958.213	0.0146369
958.291	0.0145091
958.369	0.0144495
958.447	0.0143694
958.525	0.0143895
958.603	0.0144029
958.682	0.0143695
958.760	0.0144121
958.838	0.0144747
958.916	0.0143183
958.994	0.0142793
959.072	0.0144465
959.150	0.0145107
959.228	0.0145042
959.307	0.0143721
959.385	0.0142525
959.463	0.0143889
959.541	0.0143898
959.619	0.0143179
959.697	0.0145225
959.775	0.0143387
959.853	0.0145210
959.932	0.0145159
960.010	0.0144601
960.088	0.0144094
960.166	0.0144247
960.244	0.0144458
960.322	0.0144743
960.400	0.0143979
960.478	0.0145338
960.557	0.0144607
960.635	0.0145456
960.713	0.0144400
960.791	0.0145029
960.869	0.0145531
960.947	0.0146775
961.025	0.0145918
961.103	0.0145447
961.182	0.0144884
961.260	0.0145370
961.338	0.0146181
961.416	0.0144926
961.494	0.0145540
961.572	0.0146644
961.650	0.0146562
961.728	0.0146292
961.807	0.0146175
961.885	0.0146909
961.963	0.0145094
962.041	0.0144216
962.119	0.0144463
962.197	0.0145280
962.275	0.0142804
962.353	0.0143510
962.432	0.0143981
962.510	0.0144070
962.588	0.0144392
962.666	0.0143383
962.744	0.0143693
962.822	0.0143620
962.900	0.0143326
962.978	0.0142987
963.057	0.0144179
963.135	0.0144503
963.213	0.0144317
963.291	0.0144220
963.369	0.0143420
963.447	0.0142617
963.525	0.0143815
963.603	0.0144896
963.682	0.0143604
963.760	0.0144440
963.838	0.0145001
963.916	0.0144662
963.994	0.0143957
964.072	0.0144456
964.150	0.0144272
964.228	0.0145812
964.307	0.0144856
964.385	0.0147091
964.463	0.0144780
964.541	0.0144312
964.619	0.0146123
964.697	0.0144836
964.775	0.0144524
964.853	0.0143858
964.932	0.0144897
965.010	0.0144938
965.088	0.0143915
965.166	0.0143802
965.244	0.0144624
965.322	0.0146436
965.400	0.0144761
965.478	0.0143759
965.557	0.0144648
965.635	0.0144556
965.713	0.0143449
965.791	0.0144030
965.869	0.0144185
965.947	0.0144653
966.025	0.0145075
966.103	0.0144669
966.182	0.0144368
966.260	0.0143863
966.338	0.0144057
966.416	0.0145011
966.494	0.0143480
966.572	0.0143815
966.650	0.0144757
966.728	0.0144782
966.807	0.0145142
966.885	0.0145490
966.963	0.0144546
967.041	0.0144209
967.119	0.0144571
967.197	0.0144910
967.275	0.0144260
967.353	0.0145492
967.432	0.0144980
967.510	0.0145165
967.588	0.0144274
967.666	0.0144202
967.744	0.0143964
967.822	0.0145024
967.900	0.0144043
967.978	0.0144454
968.057	0.0144203
968.135	0.0144479
968.213	0.0144679
968.291	0.0145086
968.369	0.0144415
968.447	0.0145230
968.525	0.0145034
968.603	0.0144505
968.682	0.0143851
968.760	0.0144426
968.838	0.0145811
968.916	0.0145078
968.994	0.0145829
969.072	0.0145217
969.150	0.0144659
969.228	0.0143382
969.307	0.0145197
969.385	0.0144481
969.463	0.0145243
969.541	0.0144473
969.619	0.0145567
969.697	0.0144733
969.775	0.0144662
969.853	0.0144315
969.932	0.0143326
