05/14/2022	19:10:09	Ver.	4.1	UNKNOWN
Optical Delay	650.016352	Delta X		0.078125	Sweeps	1	Scan Rate	0/0
Coordinates	Axis 1	NaN	Axis 2	NaN	Axis 3	NaN	Axis 4	NaN	Axis 5	NaN	Axis 6	0.000000
TX Power	0.000000	RX Power	0.000000

650.016	0.0149181
650.094	0.0149932
650.173	0.0148611
650.251	0.0148569
650.329	0.0148237
650.407	0.0149127
650.485	0.0148562
650.563	0.0148873
650.641	0.0148650
650.719	0.0148492
650.798	0.0148388
650.876	0.0149187
650.954	0.0148178
651.032	0.0149429
651.110	0.0149821
651.188	0.0149284
651.266	0.0148417
651.344	0.0149532
651.423	0.0149693
651.501	0.0149372
651.579	0.0149934
651.657	0.0150587
651.735	0.0149345
651.813	0.0148570
651.891	0.0147437
651.969	0.0149258
652.048	0.0150155
652.126	0.0147936
652.204	0.0148240
652.282	0.0150038
652.360	0.0149092
652.438	0.0149181
652.516	0.0150049
652.594	0.0148779
652.673	0.0148730
652.751	0.0148190
652.829	0.0148079
652.907	0.0149062
652.985	0.0149372
653.063	0.0150193
653.141	0.0148454
653.219	0.0148885
653.298	0.0148882
653.376	0.0149039
653.454	0.0148934
653.532	0.0148952
653.610	0.0150351
653.688	0.0148142
653.766	0.0148894
653.844	0.0148204
653.923	0.0148035
654.001	0.0150031
654.079	0.0150574
654.157	0.0148610
654.235	0.0148024
654.313	0.0149402
654.391	0.0148049
654.469	0.0148656
654.548	0.0149809
654.626	0.0150198
654.704	0.0149433
654.782	0.0148882
654.860	0.0148759
654.938	0.0148735
655.016	0.0148676
655.094	0.0148027
655.173	0.0148996
655.251	0.0147764
655.329	0.0147798
655.407	0.0148210
655.485	0.0149036
655.563	0.0148347
655.641	0.0146693
655.719	0.0149604
655.798	0.0149733
655.876	0.0149004
655.954	0.0148875
656.032	0.0148750
656.110	0.0148362
656.188	0.0147852
656.266	0.0148623
656.344	0.0147848
656.423	0.0149200
656.501	0.0150050
656.579	0.0148957
656.657	0.0148170
656.735	0.0148068
656.813	0.0150057
656.891	0.0148563
656.969	0.0148328
657.048	0.0148412
657.126	0.0149094
657.204	0.0148544
657.282	0.0149644
657.360	0.0148468
657.438	0.0148556
657.516	0.0149560
657.594	0.0150243
657.673	0.0149678
657.751	0.0149324
657.829	0.0147417
657.907	0.0148679
657.985	0.0148884
658.063	0.0148965
658.141	0.0149268
658.219	0.0149165
658.298	0.0149809
658.376	0.0148552
658.454	0.0148901
658.532	0.0149460
658.610	0.0148728
658.688	0.0148884
658.766	0.0148157
658.844	0.0149259
658.923	0.0149245
659.001	0.0148093
659.079	0.0149132
659.157	0.0148414
659.235	0.0149139
659.313	0.0149029
659.391	0.0149333
659.469	0.0148354
659.548	0.0149311
659.626	0.0148632
659.704	0.0149240
659.782	0.0148991
659.860	0.0149131
659.938	0.0148468
660.016	0.0148302
660.094	0.0148711
660.173	0.0149010
660.251	0.0150031
660.329	0.0149297
660.407	0.0149490
660.485	0.0148874
660.563	0.0149634
660.641	0.0148403
660.719	0.0150645
660.798	0.0148818
660.876	0.0149196
660.954	0.0148904
661.032	0.0149400
661.110	0.0149969
661.188	0.0150950
661.266	0.0150524
661.344	0.0148932
661.423	0.0148608
661.501	0.0149315
661.579	0.0149096
661.657	0.0148283
661.735	0.0149554
661.813	0.0148525
661.891	0.0149231
661.969	0.0149646
662.048	0.0150410
662.126	0.0150519
662.204	0.0149722
662.282	0.0148582
662.360	0.0150215
662.438	0.0149734
662.516	0.0149488
662.594	0.0149140
662.673	0.0148402
662.751	0.0148280
662.829	0.0149431
662.907	0.0150232
662.985	0.0149760
663.063	0.0149347
663.141	0.0149884
663.219	0.0150711
663.298	0.0149741
663.376	0.0149879
663.454	0.0149442
663.532	0.0149298
663.610	0.0149165
663.688	0.0150478
663.766	0.0149995
663.844	0.0149140
663.923	0.0148775
664.001	0.0149940
664.079	0.0149921
664.157	0.0148505
664.235	0.0148890
664.313	0.0150194
664.391	0.0149393
664.469	0.0150555
664.548	0.0150202
664.626	0.0149744
664.704	0.0149638
664.782	0.0148713
664.860	0.0149466
664.938	0.0149277
665.016	0.0150277
665.094	0.0149304
665.173	0.0149221
665.251	0.0147576
665.329	0.0149487
665.407	0.0149766
665.485	0.0149804
665.563	0.0149464
665.641	0.0148642
665.719	0.0149513
665.798	0.0149331
665.876	0.0150716
665.954	0.0150334
666.032	0.0149339
666.110	0.0148594
666.188	0.0149770
666.266	0.0149696
666.344	0.0148716
666.423	0.0149603
666.501	0.0147961
666.579	0.0149242
666.657	0.0150420
666.735	0.0148817
666.813	0.0148832
666.891	0.0148806
666.969	0.0147754
667.048	0.0149548
667.126	0.0149580
667.204	0.0149393
667.282	0.0149155
667.360	0.0149552
667.438	0.0148827
667.516	0.0148428
667.594	0.0147410
667.673	0.0148707
667.751	0.0149550
667.829	0.0149536
667.907	0.0149298
667.985	0.0148702
668.063	0.0146751
668.141	0.0149522
668.219	0.0148592
668.298	0.0148746
668.376	0.0148688
668.454	0.0148019
668.532	0.0148699
668.610	0.0148058
668.688	0.0148540
668.766	0.0149809
668.844	0.0150253
668.923	0.0148797
669.001	0.0147898
669.079	0.0147342
669.157	0.0147116
669.235	0.0148390
669.313	0.0148399
669.391	0.0148354
669.469	0.0148839
669.548	0.0148534
669.626	0.0147035
669.704	0.0149784
669.782	0.0149146
669.860	0.0147992
669.938	0.0148438
670.016	0.0149342
670.094	0.0150171
670.173	0.0148701
670.251	0.0148978
670.329	0.0148447
670.407	0.0148264
670.485	0.0148474
670.563	0.0149229
670.641	0.0148363
670.719	0.0148679
670.798	0.0149599
670.876	0.0146981
670.954	0.0150017
671.032	0.0150452
671.110	0.0149297
671.188	0.0149062
671.266	0.0150329
671.344	0.0148338
671.423	0.0149731
671.501	0.0149011
671.579	0.0148943
671.657	0.0149036
671.735	0.0147510
671.813	0.0148400
671.891	0.0149227
671.969	0.0149189
672.048	0.0150778
672.126	0.0149917
672.204	0.0148347
672.282	0.0149614
672.360	0.0148177
672.438	0.0150280
672.516	0.0149145
672.594	0.0149438
672.673	0.0147653
672.751	0.0149123
672.829	0.0148339
672.907	0.0150037
672.985	0.0148874
673.063	0.0149216
673.141	0.0150167
673.219	0.0149937
673.298	0.0148611
673.376	0.0149509
673.454	0.0150011
673.532	0.0150203
673.610	0.0149123
673.688	0.0150290
673.766	0.0149539
673.844	0.0149955
673.923	0.0150063
674.001	0.0150627
674.079	0.0150238
674.157	0.0148643
674.235	0.0148119
674.313	0.0149493
674.391	0.0150497
674.469	0.0149528
674.548	0.0150535
674.626	0.0149215
674.704	0.0149917
674.782	0.0150404
674.860	0.0151099
674.938	0.0149609
675.016	0.0149781
675.094	0.0151305
675.173	0.0150632
675.251	0.0149518
675.329	0.0149838
675.407	0.0149118
675.485	0.0150906
675.563	0.0150917
675.641	0.0150842
675.719	0.0149537
675.798	0.0150673
675.876	0.0149384
675.954	0.0149163
676.032	0.0150274
676.110	0.0150101
676.188	0.0149980
676.266	0.0150451
676.344	0.0149700
676.423	0.0151263
676.501	0.0149994
676.579	0.0149778
676.657	0.0150898
676.735	0.0148757
676.813	0.0150262
676.891	0.0150753
676.969	0.0149429
677.048	0.0149693
677.126	0.0149957
677.204	0.0149442
677.282	0.0150887
677.360	0.0150459
677.438	0.0151353
677.516	0.0149055
677.594	0.0149334
677.673	0.0150241
677.751	0.0148968
677.829	0.0149681
677.907	0.0149933
677.985	0.0151408
678.063	0.0149567
678.141	0.0148622
678.219	0.0149683
678.298	0.0151300
678.376	0.0150052
678.454	0.0150295
678.532	0.0149645
678.610	0.0149297
678.688	0.0150558
678.766	0.0150288
678.844	0.0148743
678.923	0.0149258
679.001	0.0149618
679.079	0.0148874
679.157	0.0148927
679.235	0.0148070
679.313	0.0149699
679.391	0.0149625
679.469	0.0150249
679.548	0.0148327
679.626	0.0148435
679.704	0.0148700
679.782	0.0149812
679.860	0.0149646
679.938	0.0147766
680.016	0.0149213
680.094	0.0149213
680.173	0.0148971
680.251	0.0149362
680.329	0.0147981
680.407	0.0148344
680.485	0.0148879
680.563	0.0147840
680.641	0.0147272
680.719	0.0148969
680.798	0.0148956
680.876	0.0149301
680.954	0.0149512
681.032	0.0149097
681.110	0.0149474
681.188	0.0149426
681.266	0.0148462
681.344	0.0148947
681.423	0.0149680
681.501	0.0149611
681.579	0.0149366
681.657	0.0147851
681.735	0.0148347
681.813	0.0149157
681.891	0.0148321
681.969	0.0148290
682.048	0.0147366
682.126	0.0148854
682.204	0.0148863
682.282	0.0148544
682.360	0.0148297
682.438	0.0149223
682.516	0.0147881
682.594	0.0148991
682.673	0.0149676
682.751	0.0149530
682.829	0.0149436
682.907	0.0148679
682.985	0.0149134
683.063	0.0148470
683.141	0.0147337
683.219	0.0147852
683.298	0.0148820
683.376	0.0147855
683.454	0.0148898
683.532	0.0149151
683.610	0.0149155
683.688	0.0148639
683.766	0.0149105
683.844	0.0149973
683.923	0.0149768
684.001	0.0149596
684.079	0.0148368
684.157	0.0147920
684.235	0.0148374
684.313	0.0148367
684.391	0.0148196
684.469	0.0148443
684.548	0.0149793
684.626	0.0148560
684.704	0.0149932
684.782	0.0148238
684.860	0.0148368
684.938	0.0150041
685.016	0.0148691
685.094	0.0149680
685.173	0.0148761
685.251	0.0148938
685.329	0.0149367
685.407	0.0149670
685.485	0.0148881
685.563	0.0148907
685.641	0.0147465
685.719	0.0148594
685.798	0.0150262
685.876	0.0148719
685.954	0.0148532
686.032	0.0149583
686.110	0.0149818
686.188	0.0149441
686.266	0.0148540
686.344	0.0149443
686.423	0.0149226
686.501	0.0150486
686.579	0.0148720
686.657	0.0148733
686.735	0.0150031
686.813	0.0149681
686.891	0.0149510
686.969	0.0149099
687.048	0.0149249
687.126	0.0148215
687.204	0.0149406
687.282	0.0149115
687.360	0.0149906
687.438	0.0149324
687.516	0.0148380
687.594	0.0149637
687.673	0.0149909
687.751	0.0149599
687.829	0.0148331
687.907	0.0149277
687.985	0.0149177
688.063	0.0148760
688.141	0.0149131
688.219	0.0150673
688.298	0.0148331
688.376	0.0148226
688.454	0.0148666
688.532	0.0148869
688.610	0.0148835
688.688	0.0146857
688.766	0.0147488
688.844	0.0148548
688.923	0.0148560
689.001	0.0148942
689.079	0.0150463
689.157	0.0151819
689.235	0.0155517
689.313	0.0156863
689.391	0.0158650
689.469	0.0157632
689.548	0.0157584
689.626	0.0157090
689.704	0.0154476
689.782	0.0149712
689.860	0.0145778
689.938	0.0140341
690.016	0.0135294
690.094	0.0132937
690.173	0.0129935
690.251	0.0127517
690.329	0.0130026
690.407	0.0134733
690.485	0.0139602
690.563	0.0147014
690.641	0.0156218
690.719	0.0165724
690.798	0.0173383
690.876	0.0179266
690.954	0.0184466
691.032	0.0188800
691.110	0.0186970
691.188	0.0181807
691.266	0.0173943
691.344	0.0164664
691.423	0.0155405
691.501	0.0142152
691.579	0.0129986
691.657	0.0118733
691.735	0.0110040
691.813	0.0101786
691.891	0.00976906
691.969	0.00976250
692.048	0.00993301
692.126	0.0104082
692.204	0.0112054
692.282	0.0122533
692.360	0.0135249
692.438	0.0147381
692.516	0.0161867
692.594	0.0174551
692.673	0.0186903
692.751	0.0194169
692.829	0.0202057
692.907	0.0207741
692.985	0.0209536
693.063	0.0208660
693.141	0.0206663
693.219	0.0200453
693.298	0.0191740
693.376	0.0180473
693.454	0.0168914
693.532	0.0154708
693.610	0.0142580
693.688	0.0130032
693.766	0.0118663
693.844	0.0108205
693.923	0.00976898
694.001	0.00926323
694.079	0.00891167
694.157	0.00874481
694.235	0.00887894
694.313	0.00912567
694.391	0.00957436
694.469	0.0103255
694.548	0.0110876
694.626	0.0121563
694.704	0.0131542
694.782	0.0141586
694.860	0.0150808
694.938	0.0162457
695.016	0.0172152
695.094	0.0178858
695.173	0.0188037
695.251	0.0193968
695.329	0.0198144
695.407	0.0203127
695.485	0.0203236
695.563	0.0204051
695.641	0.0203043
695.719	0.0197855
695.798	0.0194940
695.876	0.0189243
695.954	0.0181491
696.032	0.0173991
696.110	0.0166386
696.188	0.0158028
696.266	0.0148827
696.344	0.0140746
696.423	0.0133342
696.501	0.0124712
696.579	0.0119653
696.657	0.0112489
696.735	0.0106092
696.813	0.0102415
696.891	0.00994698
696.969	0.00996895
697.048	0.0100468
697.126	0.0102268
697.204	0.0105667
697.282	0.0110017
697.360	0.0114317
697.438	0.0119214
697.516	0.0126030
697.594	0.0132148
697.673	0.0137913
697.751	0.0143872
697.829	0.0150164
697.907	0.0156255
697.985	0.0162296
698.063	0.0168112
698.141	0.0172200
698.219	0.0176910
698.298	0.0178467
698.376	0.0182425
698.454	0.0183466
698.532	0.0185674
698.610	0.0185104
698.688	0.0184874
698.766	0.0184937
698.844	0.0183858
698.923	0.0182261
699.001	0.0178770
699.079	0.0175944
699.157	0.0174741
699.235	0.0167529
699.313	0.0163188
699.391	0.0161246
699.469	0.0155452
699.548	0.0149889
699.626	0.0146156
699.704	0.0137840
699.782	0.0134543
699.860	0.0131379
699.938	0.0128372
700.016	0.0124600
700.094	0.0123340
700.173	0.0121145
700.251	0.0120208
700.329	0.0119966
700.407	0.0118044
700.485	0.0119643
700.563	0.0121892
700.641	0.0122871
700.719	0.0123119
700.798	0.0126183
700.876	0.0128377
700.954	0.0132794
701.032	0.0135463
701.110	0.0139716
701.188	0.0144485
701.266	0.0146886
701.344	0.0149352
701.423	0.0152810
701.501	0.0155848
701.579	0.0159013
701.657	0.0160496
701.735	0.0162735
701.813	0.0165624
701.891	0.0167271
701.969	0.0167484
702.048	0.0168115
702.126	0.0167904
702.204	0.0167767
702.282	0.0168913
702.360	0.0169775
702.438	0.0170256
702.516	0.0170565
702.594	0.0169829
702.673	0.0170098
702.751	0.0169505
702.829	0.0168706
702.907	0.0168678
702.985	0.0168202
703.063	0.0165323
703.141	0.0163069
703.219	0.0161157
703.298	0.0160059
703.376	0.0156257
703.454	0.0153951
703.532	0.0151522
703.610	0.0149216
703.688	0.0144254
703.766	0.0143000
703.844	0.0140417
703.923	0.0138665
704.001	0.0135708
704.079	0.0136160
704.157	0.0133481
704.235	0.0130805
704.313	0.0129891
704.391	0.0128035
704.469	0.0125681
704.548	0.0125350
704.626	0.0125030
704.704	0.0125151
704.782	0.0126328
704.860	0.0127131
704.938	0.0126611
705.016	0.0127753
705.094	0.0129421
705.173	0.0131789
705.251	0.0132500
705.329	0.0136533
705.407	0.0139252
705.485	0.0142643
705.563	0.0144527
705.641	0.0148379
705.719	0.0153226
705.798	0.0156895
705.876	0.0159579
705.954	0.0163370
706.032	0.0166532
706.110	0.0167706
706.188	0.0171738
706.266	0.0172800
706.344	0.0173458
706.423	0.0173272
706.501	0.0173190
706.579	0.0171337
706.657	0.0171555
706.735	0.0169217
706.813	0.0167149
706.891	0.0162976
706.969	0.0161660
707.048	0.0158582
707.126	0.0156428
707.204	0.0155289
707.282	0.0153813
707.360	0.0150801
707.438	0.0150153
707.516	0.0150218
707.594	0.0148434
707.673	0.0148370
707.751	0.0148050
707.829	0.0147888
707.907	0.0148072
707.985	0.0148670
708.063	0.0147562
708.141	0.0147506
708.219	0.0146110
708.298	0.0145101
708.376	0.0144384
708.454	0.0143065
708.532	0.0143330
708.610	0.0140943
708.688	0.0140929
708.766	0.0140203
708.844	0.0138920
708.923	0.0137668
709.001	0.0135799
709.079	0.0133304
709.157	0.0133818
709.235	0.0133706
709.313	0.0133336
709.391	0.0132584
709.469	0.0133364
709.548	0.0133545
709.626	0.0132520
709.704	0.0135213
709.782	0.0137105
709.860	0.0137006
709.938	0.0140385
710.016	0.0144476
710.094	0.0145181
710.173	0.0147320
710.251	0.0149955
710.329	0.0151602
710.407	0.0153165
710.485	0.0156192
710.563	0.0157240
710.641	0.0158932
710.719	0.0160461
710.798	0.0163470
710.876	0.0162166
710.954	0.0163835
711.032	0.0162795
711.110	0.0164086
711.188	0.0164375
711.266	0.0164342
711.344	0.0164822
711.423	0.0165376
711.501	0.0166270
711.579	0.0166788
711.657	0.0166892
711.735	0.0166069
711.813	0.0164484
711.891	0.0164095
711.969	0.0163412
712.048	0.0160413
712.126	0.0157370
712.204	0.0155438
712.282	0.0154745
712.360	0.0152419
712.438	0.0149072
712.516	0.0148158
712.594	0.0146674
712.673	0.0146167
712.751	0.0144392
712.829	0.0143564
712.907	0.0142800
712.985	0.0143429
713.063	0.0142079
713.141	0.0140105
713.219	0.0141425
713.298	0.0141151
713.376	0.0140376
713.454	0.0138850
713.532	0.0137599
713.610	0.0139333
713.688	0.0138354
713.766	0.0137218
713.844	0.0137180
713.923	0.0135916
714.001	0.0136612
714.079	0.0135731
714.157	0.0136037
714.235	0.0136078
714.313	0.0137776
714.391	0.0136869
714.469	0.0136546
714.548	0.0138921
714.626	0.0138186
714.704	0.0140101
714.782	0.0141679
714.860	0.0144255
714.938	0.0145280
715.016	0.0149436
715.094	0.0152343
715.173	0.0157653
715.251	0.0159626
715.329	0.0159721
715.407	0.0162371
715.485	0.0163841
715.563	0.0165144
715.641	0.0165572
715.719	0.0165952
715.798	0.0166696
715.876	0.0166536
715.954	0.0164886
716.032	0.0163219
716.110	0.0164213
716.188	0.0162236
716.266	0.0159216
716.344	0.0158833
716.423	0.0157735
716.501	0.0157384
716.579	0.0156044
716.657	0.0154587
716.735	0.0154485
716.813	0.0153947
716.891	0.0152801
716.969	0.0151792
717.048	0.0149295
717.126	0.0148798
717.204	0.0147507
717.282	0.0146892
717.360	0.0143963
717.438	0.0141471
717.516	0.0138495
717.594	0.0138302
717.673	0.0137705
717.751	0.0135721
717.829	0.0135155
717.907	0.0136116
717.985	0.0137485
718.063	0.0136777
718.141	0.0140079
718.219	0.0138313
718.298	0.0139648
718.376	0.0141969
718.454	0.0144668
718.532	0.0144907
718.610	0.0146947
718.688	0.0146793
718.766	0.0148196
718.844	0.0148247
718.923	0.0147455
719.001	0.0149481
719.079	0.0148515
719.157	0.0148241
719.235	0.0147723
719.313	0.0147739
719.391	0.0147817
719.469	0.0147171
719.548	0.0147983
719.626	0.0148010
719.704	0.0148705
719.782	0.0148544
719.860	0.0149574
719.938	0.0149472
720.016	0.0149179
720.094	0.0150199
720.173	0.0149840
720.251	0.0149711
720.329	0.0150557
720.407	0.0151254
720.485	0.0152390
720.563	0.0152879
720.641	0.0153519
720.719	0.0153661
720.798	0.0154260
720.876	0.0152879
720.954	0.0153236
721.032	0.0153114
721.110	0.0152587
721.188	0.0153766
721.266	0.0153240
721.344	0.0152424
721.423	0.0150852
721.501	0.0151486
721.579	0.0152180
721.657	0.0150642
721.735	0.0149696
721.813	0.0150370
721.891	0.0150612
721.969	0.0149689
722.048	0.0151671
722.126	0.0151235
722.204	0.0151141
722.282	0.0150597
722.360	0.0151937
722.438	0.0152142
722.516	0.0151431
722.594	0.0151500
722.673	0.0150912
722.751	0.0150594
722.829	0.0150185
722.907	0.0150243
722.985	0.0147125
723.063	0.0147220
723.141	0.0145223
723.219	0.0145659
723.298	0.0145789
723.376	0.0144865
723.454	0.0143919
723.532	0.0142873
723.610	0.0142313
723.688	0.0143080
723.766	0.0142068
723.844	0.0143877
723.923	0.0144071
724.001	0.0143626
724.079	0.0144154
724.157	0.0144254
724.235	0.0145495
724.313	0.0146370
724.391	0.0147085
724.469	0.0145813
724.548	0.0146951
724.626	0.0147296
724.704	0.0147972
724.782	0.0147810
724.860	0.0148029
724.938	0.0147965
725.016	0.0146315
725.094	0.0148722
725.173	0.0148462
725.251	0.0147501
725.329	0.0148885
725.407	0.0148502
725.485	0.0149831
725.563	0.0151240
725.641	0.0151691
725.719	0.0152714
725.798	0.0153829
725.876	0.0155026
725.954	0.0156506
726.032	0.0156709
726.110	0.0156111
726.188	0.0155827
726.266	0.0155969
726.344	0.0155573
726.423	0.0154764
726.501	0.0153017
726.579	0.0152168
726.657	0.0151246
726.735	0.0150430
726.813	0.0148442
726.891	0.0146075
726.969	0.0146530
727.048	0.0145499
727.126	0.0144498
727.204	0.0145385
727.282	0.0147530
727.360	0.0146888
727.438	0.0146196
727.516	0.0149190
727.594	0.0150644
727.673	0.0152421
727.751	0.0152975
727.829	0.0153619
727.907	0.0152898
727.985	0.0152968
728.063	0.0153487
728.141	0.0153363
728.219	0.0151988
728.298	0.0151132
728.376	0.0151797
728.454	0.0148209
728.532	0.0148377
728.610	0.0147213
728.688	0.0147066
728.766	0.0146540
728.844	0.0146432
728.923	0.0145516
729.001	0.0146134
729.079	0.0145116
729.157	0.0146339
729.235	0.0146319
729.313	0.0147034
729.391	0.0145638
729.469	0.0145868
729.548	0.0145715
729.626	0.0145202
729.704	0.0146650
729.782	0.0146483
729.860	0.0146650
729.938	0.0147800
730.016	0.0147861
730.094	0.0147031
730.173	0.0147784
730.251	0.0147771
730.329	0.0147350
730.407	0.0147038
730.485	0.0147594
730.563	0.0149500
730.641	0.0146071
730.719	0.0148152
730.798	0.0148262
730.876	0.0148007
730.954	0.0148180
731.032	0.0147715
731.110	0.0148526
731.188	0.0149885
731.266	0.0150414
731.344	0.0149330
731.423	0.0150834
731.501	0.0150306
731.579	0.0149644
731.657	0.0149918
731.735	0.0150204
731.813	0.0150600
731.891	0.0148839
731.969	0.0148913
732.048	0.0149538
732.126	0.0147304
732.204	0.0147791
732.282	0.0147066
732.360	0.0147163
732.438	0.0146095
732.516	0.0147633
732.594	0.0148138
732.673	0.0147070
732.751	0.0149207
732.829	0.0148211
732.907	0.0150049
732.985	0.0151796
733.063	0.0151088
733.141	0.0152547
733.219	0.0151268
733.298	0.0152747
733.376	0.0154758
733.454	0.0153149
733.532	0.0154411
733.610	0.0154801
733.688	0.0153307
733.766	0.0152941
733.844	0.0154502
733.923	0.0154047
734.001	0.0153293
734.079	0.0151861
734.157	0.0151065
734.235	0.0150905
734.313	0.0148837
734.391	0.0148281
734.469	0.0149043
734.548	0.0146100
734.626	0.0146438
734.704	0.0146867
734.782	0.0145341
734.860	0.0144902
734.938	0.0147015
735.016	0.0144178
735.094	0.0143905
735.173	0.0146301
735.251	0.0145123
735.329	0.0145023
735.407	0.0145081
735.485	0.0145388
735.563	0.0144477
735.641	0.0144658
735.719	0.0145453
735.798	0.0145310
735.876	0.0145007
735.954	0.0144528
736.032	0.0146398
736.110	0.0148027
736.188	0.0148379
736.266	0.0149081
736.344	0.0152204
736.423	0.0151456
736.501	0.0152460
736.579	0.0153937
736.657	0.0154524
736.735	0.0155789
736.813	0.0155025
736.891	0.0155848
736.969	0.0153790
737.048	0.0155621
737.126	0.0153242
737.204	0.0154256
737.282	0.0153963
737.360	0.0151949
737.438	0.0152221
737.516	0.0152541
737.594	0.0151681
737.673	0.0152297
737.751	0.0149631
737.829	0.0148632
737.907	0.0150168
737.985	0.0149335
738.063	0.0148576
738.141	0.0147983
738.219	0.0147616
738.298	0.0149628
738.376	0.0149715
738.454	0.0149497
738.532	0.0148401
738.610	0.0149603
738.688	0.0150555
738.766	0.0151051
738.844	0.0149924
738.923	0.0149474
739.001	0.0150056
739.079	0.0149931
739.157	0.0148022
739.235	0.0148666
739.313	0.0149485
739.391	0.0147490
739.469	0.0147272
739.548	0.0147339
739.626	0.0147604
739.704	0.0147475
739.782	0.0147134
739.860	0.0148230
739.938	0.0146213
740.016	0.0148206
740.094	0.0148783
740.173	0.0148879
740.251	0.0147149
740.329	0.0147469
740.407	0.0148711
740.485	0.0148954
740.563	0.0148574
740.641	0.0148623
740.719	0.0148980
740.798	0.0148838
740.876	0.0149412
740.954	0.0149599
741.032	0.0149656
741.110	0.0149491
741.188	0.0149425
741.266	0.0147935
741.344	0.0147825
741.423	0.0149089
741.501	0.0150118
741.579	0.0150340
741.657	0.0151917
741.735	0.0150360
741.813	0.0152934
741.891	0.0151479
741.969	0.0153127
742.048	0.0153362
742.126	0.0152277
742.204	0.0152947
742.282	0.0152348
742.360	0.0152703
742.438	0.0153307
742.516	0.0152077
742.594	0.0151647
742.673	0.0149927
742.751	0.0149972
742.829	0.0148653
742.907	0.0147636
742.985	0.0148544
743.063	0.0148814
743.141	0.0147562
743.219	0.0147321
743.298	0.0147158
743.376	0.0148026
743.454	0.0148283
743.532	0.0148738
743.610	0.0147672
743.688	0.0148310
743.766	0.0148698
743.844	0.0151377
743.923	0.0149514
744.001	0.0149239
744.079	0.0150780
744.157	0.0150508
744.235	0.0150190
744.313	0.0150036
744.391	0.0150062
744.469	0.0149656
744.548	0.0150897
744.626	0.0148793
744.704	0.0148854
744.782	0.0149061
744.860	0.0147884
744.938	0.0146807
745.016	0.0146722
745.094	0.0146236
745.173	0.0145425
745.251	0.0145653
745.329	0.0145448
745.407	0.0146288
745.485	0.0145342
745.563	0.0145381
745.641	0.0145871
745.719	0.0145523
745.798	0.0147142
745.876	0.0145484
745.954	0.0145714
746.032	0.0145641
746.110	0.0146981
746.188	0.0146895
746.266	0.0146385
746.344	0.0147179
746.423	0.0146938
746.501	0.0147300
746.579	0.0146848
746.657	0.0147290
746.735	0.0147848
746.813	0.0150504
746.891	0.0151067
746.969	0.0150631
747.048	0.0151933
747.126	0.0152671
747.204	0.0154413
747.282	0.0153308
747.360	0.0154536
747.438	0.0153849
747.516	0.0154774
747.594	0.0155451
747.673	0.0155391
747.751	0.0154401
747.829	0.0154105
747.907	0.0153625
747.985	0.0152032
748.063	0.0152787
748.141	0.0152309
748.219	0.0150594
748.298	0.0151245
748.376	0.0151225
748.454	0.0148772
748.532	0.0148450
748.610	0.0150277
748.688	0.0149886
748.766	0.0148970
748.844	0.0148792
748.923	0.0149687
749.001	0.0149087
749.079	0.0149846
749.157	0.0150047
749.235	0.0150389
749.313	0.0150050
749.391	0.0150360
749.469	0.0149677
749.548	0.0151149
749.626	0.0149197
749.704	0.0148256
749.782	0.0148627
749.860	0.0148776
749.938	0.0147526
750.016	0.0146262
750.094	0.0145542
750.173	0.0144628
750.251	0.0145944
750.329	0.0145763
750.407	0.0144880
750.485	0.0142729
750.563	0.0144134
750.641	0.0144031
750.719	0.0143858
750.798	0.0144039
750.876	0.0143610
750.954	0.0144876
751.032	0.0145773
751.110	0.0146023
751.188	0.0146671
751.266	0.0148792
751.344	0.0148171
751.423	0.0147493
751.501	0.0148558
751.579	0.0148650
751.657	0.0148098
751.735	0.0148706
751.813	0.0149243
751.891	0.0149078
751.969	0.0148386
752.048	0.0148722
752.126	0.0148511
752.204	0.0148914
752.282	0.0150330
752.360	0.0150150
752.438	0.0148864
752.516	0.0150761
752.594	0.0151996
752.673	0.0153256
752.751	0.0155186
752.829	0.0154227
752.907	0.0155297
752.985	0.0155588
753.063	0.0156330
753.141	0.0154848
753.219	0.0157436
753.298	0.0156901
753.376	0.0156513
753.454	0.0155726
753.532	0.0156254
753.610	0.0154492
753.688	0.0154858
753.766	0.0155074
753.844	0.0152882
753.923	0.0153416
754.001	0.0153133
754.079	0.0150944
754.157	0.0151744
754.235	0.0149490
754.313	0.0149249
754.391	0.0150175
754.469	0.0150105
754.548	0.0149075
754.626	0.0148713
754.704	0.0148647
754.782	0.0147456
754.860	0.0148093
754.938	0.0147369
755.016	0.0147025
755.094	0.0146449
755.173	0.0145875
755.251	0.0145496
755.329	0.0146672
755.407	0.0146693
755.485	0.0145026
755.563	0.0145365
755.641	0.0145533
755.719	0.0144335
755.798	0.0143939
755.876	0.0144690
755.954	0.0143708
756.032	0.0143985
756.110	0.0144827
756.188	0.0144106
756.266	0.0145836
756.344	0.0144066
756.423	0.0143888
756.501	0.0145197
756.579	0.0146574
756.657	0.0146007
756.735	0.0146986
756.813	0.0145323
756.891	0.0146997
756.969	0.0148667
757.048	0.0147337
757.126	0.0148161
757.204	0.0149893
757.282	0.0150064
757.360	0.0148820
757.438	0.0148221
757.516	0.0151352
757.594	0.0150613
757.673	0.0150740
757.751	0.0149579
757.829	0.0152448
757.907	0.0151762
757.985	0.0152462
758.063	0.0152142
758.141	0.0152394
758.219	0.0151659
758.298	0.0152830
758.376	0.0152649
758.454	0.0151154
758.532	0.0150591
758.610	0.0152622
758.688	0.0152148
758.766	0.0150605
758.844	0.0149994
758.923	0.0151778
759.001	0.0151615
759.079	0.0150764
759.157	0.0150902
759.235	0.0150800
759.313	0.0152008
759.391	0.0151183
759.469	0.0151342
759.548	0.0151751
759.626	0.0150839
759.704	0.0151136
759.782	0.0151907
759.860	0.0150641
759.938	0.0150517
760.016	0.0150436
760.094	0.0149589
760.173	0.0150439
760.251	0.0149873
760.329	0.0150226
760.407	0.0149849
760.485	0.0148483
760.563	0.0149136
760.641	0.0148112
760.719	0.0147421
760.798	0.0148502
760.876	0.0147337
760.954	0.0148981
761.032	0.0147554
761.110	0.0147520
761.188	0.0148822
761.266	0.0148565
761.344	0.0147507
761.423	0.0147155
761.501	0.0148756
761.579	0.0148512
761.657	0.0148672
761.735	0.0148872
761.813	0.0149136
761.891	0.0148470
761.969	0.0148657
762.048	0.0149493
762.126	0.0148594
762.204	0.0148534
762.282	0.0148361
762.360	0.0149080
762.438	0.0148516
762.516	0.0149097
762.594	0.0149088
762.673	0.0149440
762.751	0.0147631
762.829	0.0150234
762.907	0.0148571
762.985	0.0149644
763.063	0.0148577
763.141	0.0149943
763.219	0.0150018
763.298	0.0149748
763.376	0.0149523
763.454	0.0151835
763.532	0.0152863
763.610	0.0151369
763.688	0.0151321
763.766	0.0151178
763.844	0.0151928
763.923	0.0152162
764.001	0.0152227
764.079	0.0153570
764.157	0.0152269
764.235	0.0153066
764.313	0.0152213
764.391	0.0152003
764.469	0.0150771
764.548	0.0150455
764.626	0.0150817
764.704	0.0151086
764.782	0.0149393
764.860	0.0149804
764.938	0.0149086
765.016	0.0150411
765.094	0.0149927
765.173	0.0148027
765.251	0.0149446
765.329	0.0148199
765.407	0.0149648
765.485	0.0148663
765.563	0.0148915
765.641	0.0149174
765.719	0.0148091
765.798	0.0146336
765.876	0.0146209
765.954	0.0147694
766.032	0.0145604
766.110	0.0146307
766.188	0.0146039
766.266	0.0145806
766.344	0.0145905
766.423	0.0143964
766.501	0.0144580
766.579	0.0145338
766.657	0.0145095
766.735	0.0145325
766.813	0.0145995
766.891	0.0147188
766.969	0.0145937
767.048	0.0147310
767.126	0.0148333
767.204	0.0148544
767.282	0.0148602
767.360	0.0149563
767.438	0.0150591
767.516	0.0150522
767.594	0.0149652
767.673	0.0151031
767.751	0.0151350
767.829	0.0152229
767.907	0.0154889
767.985	0.0153603
768.063	0.0153056
768.141	0.0153745
768.219	0.0153967
768.298	0.0153756
768.376	0.0155611
768.454	0.0154469
768.532	0.0154108
768.610	0.0153869
768.688	0.0155236
768.766	0.0154852
768.844	0.0153918
768.923	0.0152811
769.001	0.0152724
769.079	0.0152196
769.157	0.0151649
769.235	0.0148631
769.313	0.0149554
769.391	0.0148244
769.469	0.0146219
769.548	0.0145442
769.626	0.0146603
769.704	0.0147140
769.782	0.0145662
769.860	0.0144721
769.938	0.0143920
770.016	0.0144422
770.094	0.0143391
770.173	0.0144887
770.251	0.0144232
770.329	0.0144181
770.407	0.0145012
770.485	0.0143919
770.563	0.0143999
770.641	0.0144364
770.719	0.0143888
770.798	0.0143654
770.876	0.0145467
770.954	0.0145071
771.032	0.0144938
771.110	0.0145741
771.188	0.0145858
771.266	0.0144645
771.344	0.0146896
771.423	0.0147210
771.501	0.0148531
771.579	0.0147814
771.657	0.0149168
771.735	0.0150124
771.813	0.0150060
771.891	0.0151997
771.969	0.0152948
772.048	0.0151940
772.126	0.0153048
772.204	0.0153056
772.282	0.0155567
772.360	0.0155586
772.438	0.0155750
772.516	0.0155600
772.594	0.0155618
772.673	0.0155904
772.751	0.0157256
772.829	0.0156342
772.907	0.0156750
772.985	0.0156274
773.063	0.0156155
773.141	0.0153643
773.219	0.0153622
773.298	0.0154899
773.376	0.0154034
773.454	0.0151768
773.532	0.0150902
773.610	0.0151531
773.688	0.0150197
773.766	0.0148248
773.844	0.0149043
773.923	0.0149698
774.001	0.0147470
774.079	0.0148738
774.157	0.0148148
774.235	0.0148383
774.313	0.0148317
774.391	0.0148373
774.469	0.0148344
774.548	0.0148137
774.626	0.0148880
774.704	0.0148771
774.782	0.0149464
774.860	0.0148514
774.938	0.0149960
775.016	0.0148605
775.094	0.0148712
775.173	0.0148772
775.251	0.0149158
775.329	0.0149134
775.407	0.0149213
775.485	0.0147221
775.563	0.0148368
775.641	0.0146432
775.719	0.0147587
775.798	0.0146519
775.876	0.0146399
775.954	0.0145774
776.032	0.0145940
776.110	0.0145093
776.188	0.0145599
776.266	0.0146007
776.344	0.0146310
776.423	0.0147780
776.501	0.0146834
776.579	0.0146308
776.657	0.0144661
776.735	0.0146868
776.813	0.0147673
776.891	0.0147305
776.969	0.0147909
777.048	0.0148608
777.126	0.0148997
777.204	0.0148789
777.282	0.0149739
777.360	0.0148792
777.438	0.0149848
777.516	0.0149584
777.594	0.0150122
777.673	0.0150320
777.751	0.0150739
777.829	0.0151666
777.907	0.0152540
777.985	0.0151928
778.063	0.0152315
778.141	0.0151727
778.219	0.0150967
778.298	0.0151701
778.376	0.0151223
778.454	0.0151542
778.532	0.0152757
778.610	0.0151836
778.688	0.0149348
778.766	0.0150401
778.844	0.0151335
778.923	0.0150512
779.001	0.0150819
779.079	0.0149162
779.157	0.0150857
779.235	0.0150130
779.313	0.0150385
779.391	0.0150419
779.469	0.0150331
779.548	0.0150749
779.626	0.0149260
779.704	0.0150591
779.782	0.0149082
779.860	0.0149587
779.938	0.0151324
780.016	0.0149071
780.094	0.0148677
780.173	0.0148688
780.251	0.0148756
780.329	0.0148241
780.407	0.0146912
780.485	0.0148287
780.563	0.0149520
780.641	0.0148594
780.719	0.0147594
780.798	0.0147578
780.876	0.0149040
780.954	0.0148340
781.032	0.0146803
781.110	0.0147606
781.188	0.0148910
781.266	0.0148197
781.344	0.0149533
781.423	0.0148602
781.501	0.0150283
781.579	0.0148445
781.657	0.0150110
781.735	0.0149460
781.813	0.0149030
781.891	0.0148171
781.969	0.0150550
782.048	0.0150249
782.126	0.0149242
782.204	0.0149126
782.282	0.0147961
782.360	0.0148605
782.438	0.0148586
782.516	0.0148124
782.594	0.0148377
782.673	0.0146543
782.751	0.0146802
782.829	0.0146163
782.907	0.0147136
782.985	0.0146594
783.063	0.0146059
783.141	0.0146131
783.219	0.0146133
783.298	0.0147073
783.376	0.0146904
783.454	0.0148032
783.532	0.0147651
783.610	0.0147409
783.688	0.0147588
783.766	0.0148797
783.844	0.0148634
783.923	0.0148084
784.001	0.0149526
784.079	0.0148760
784.157	0.0147035
784.235	0.0149809
784.313	0.0149617
784.391	0.0149503
784.469	0.0148911
784.548	0.0149026
784.626	0.0148715
784.704	0.0149435
784.782	0.0147402
784.860	0.0150298
784.938	0.0149669
785.016	0.0148896
785.094	0.0149917
785.173	0.0149571
785.251	0.0149937
785.329	0.0151080
785.407	0.0150242
785.485	0.0151530
785.563	0.0152588
785.641	0.0152399
785.719	0.0152202
785.798	0.0152868
785.876	0.0152252
785.954	0.0152796
786.032	0.0152704
786.110	0.0152744
786.188	0.0152629
786.266	0.0152339
786.344	0.0152431
786.423	0.0151263
786.501	0.0149660
786.579	0.0149459
786.657	0.0150020
786.735	0.0150771
786.813	0.0149244
786.891	0.0148240
786.969	0.0148309
787.048	0.0148006
787.126	0.0148444
787.204	0.0149093
787.282	0.0146831
787.360	0.0147794
787.438	0.0148296
787.516	0.0147022
787.594	0.0146828
787.673	0.0146569
787.751	0.0144627
787.829	0.0147311
787.907	0.0147105
787.985	0.0146275
788.063	0.0145834
788.141	0.0145590
788.219	0.0146458
788.298	0.0145223
788.376	0.0146381
788.454	0.0147212
788.532	0.0148083
788.610	0.0147323
788.688	0.0147915
788.766	0.0148810
788.844	0.0149137
788.923	0.0148405
789.001	0.0149757
789.079	0.0149623
789.157	0.0150482
789.235	0.0150619
789.313	0.0150061
789.391	0.0150701
789.469	0.0151671
789.548	0.0151695
789.626	0.0151816
789.704	0.0151637
789.782	0.0149869
789.860	0.0150985
789.938	0.0150394
790.016	0.0150587
790.094	0.0148840
790.173	0.0147703
790.251	0.0147699
790.329	0.0146093
790.407	0.0146073
790.485	0.0145578
790.563	0.0144768
790.641	0.0142988
790.719	0.0144542
790.798	0.0144640
790.876	0.0142457
790.954	0.0142212
791.032	0.0143891
791.110	0.0144853
791.188	0.0144200
791.266	0.0146164
791.344	0.0148658
791.423	0.0148927
791.501	0.0150600
791.579	0.0152035
791.657	0.0152384
791.735	0.0153743
791.813	0.0154539
791.891	0.0155945
791.969	0.0155889
792.048	0.0156073
792.126	0.0155733
792.204	0.0156327
792.282	0.0156902
792.360	0.0156702
792.438	0.0155992
792.516	0.0153278
792.594	0.0153341
792.673	0.0153480
792.751	0.0151620
792.829	0.0149341
792.907	0.0148666
792.985	0.0147963
793.063	0.0147424
793.141	0.0144443
793.219	0.0145834
793.298	0.0145084
793.376	0.0144712
793.454	0.0145052
793.532	0.0144009
793.610	0.0143893
793.688	0.0143710
793.766	0.0143556
793.844	0.0146736
793.923	0.0145604
794.001	0.0145423
794.079	0.0148159
794.157	0.0147957
794.235	0.0148793
794.313	0.0149440
794.391	0.0150530
794.469	0.0151350
794.548	0.0152094
794.626	0.0152031
794.704	0.0151835
794.782	0.0152103
794.860	0.0152215
794.938	0.0152850
795.016	0.0153976
795.094	0.0152948
795.173	0.0152663
795.251	0.0153445
795.329	0.0152713
795.407	0.0154238
795.485	0.0152953
795.563	0.0151795
795.641	0.0150967
795.719	0.0152090
795.798	0.0150446
795.876	0.0149789
795.954	0.0150438
796.032	0.0150034
796.110	0.0149664
796.188	0.0148991
796.266	0.0147686
796.344	0.0146655
796.423	0.0148144
796.501	0.0145287
796.579	0.0144028
796.657	0.0143760
796.735	0.0143190
796.813	0.0142842
796.891	0.0142410
796.969	0.0141166
797.048	0.0141380
797.126	0.0141283
797.204	0.0140772
797.282	0.0142892
797.360	0.0142155
797.438	0.0142814
797.516	0.0143567
797.594	0.0145267
797.673	0.0145943
797.751	0.0147073
797.829	0.0147848
797.907	0.0149487
797.985	0.0151734
798.063	0.0152232
798.141	0.0151822
798.219	0.0153897
798.298	0.0155327
798.376	0.0153750
798.454	0.0155148
798.532	0.0155209
798.610	0.0154964
798.688	0.0154906
798.766	0.0156086
798.844	0.0154971
798.923	0.0154982
799.001	0.0154475
799.079	0.0153507
799.157	0.0152259
799.235	0.0153572
799.313	0.0153098
799.391	0.0152987
799.469	0.0151115
799.548	0.0152085
799.626	0.0151164
799.704	0.0152372
799.782	0.0150725
799.860	0.0150067
799.938	0.0151142
800.016	0.0149292
800.094	0.0149927
800.173	0.0149823
800.251	0.0150784
800.329	0.0148905
800.407	0.0148367
800.485	0.0148587
800.563	0.0147095
800.641	0.0146368
800.719	0.0145180
800.798	0.0146697
800.876	0.0145680
800.954	0.0146151
801.032	0.0143427
801.110	0.0143005
801.188	0.0144566
801.266	0.0142863
801.344	0.0141119
801.423	0.0142923
801.501	0.0144096
801.579	0.0144956
801.657	0.0144356
801.735	0.0144984
801.813	0.0144993
801.891	0.0145497
801.969	0.0146001
802.048	0.0146378
802.126	0.0146054
802.204	0.0147317
802.282	0.0148235
802.360	0.0148279
802.438	0.0148885
802.516	0.0148550
802.594	0.0150134
802.673	0.0150396
802.751	0.0151443
802.829	0.0151821
802.907	0.0150439
802.985	0.0151460
803.063	0.0150996
803.141	0.0151810
803.219	0.0150884
803.298	0.0152734
803.376	0.0151662
803.454	0.0152795
803.532	0.0152317
803.610	0.0151637
803.688	0.0150155
803.766	0.0149499
803.844	0.0150213
803.923	0.0150862
804.001	0.0150252
804.079	0.0149770
804.157	0.0150036
804.235	0.0149911
804.313	0.0151192
804.391	0.0150014
804.469	0.0149727
804.548	0.0150432
804.626	0.0151824
804.704	0.0150736
804.782	0.0150972
804.860	0.0150486
804.938	0.0149244
805.016	0.0151713
805.094	0.0151962
805.173	0.0151122
805.251	0.0151322
805.329	0.0150290
805.407	0.0150381
805.485	0.0149852
805.563	0.0149232
805.641	0.0148315
805.719	0.0148602
805.798	0.0148865
805.876	0.0148735
805.954	0.0148726
806.032	0.0147202
806.110	0.0148109
806.188	0.0148215
806.266	0.0147581
806.344	0.0147758
806.423	0.0145927
806.501	0.0147916
806.579	0.0147499
806.657	0.0147585
806.735	0.0147925
806.813	0.0146746
806.891	0.0146549
806.969	0.0146729
807.048	0.0147052
807.126	0.0147746
807.204	0.0148623
807.282	0.0148715
807.360	0.0149125
807.438	0.0148214
807.516	0.0148926
807.594	0.0151138
807.673	0.0149878
807.751	0.0150141
807.829	0.0149775
807.907	0.0150611
807.985	0.0150624
808.063	0.0152232
808.141	0.0151160
808.219	0.0150871
808.298	0.0151965
808.376	0.0152469
808.454	0.0151871
808.532	0.0150536
808.610	0.0149670
808.688	0.0150668
808.766	0.0150880
808.844	0.0149129
808.923	0.0149170
809.001	0.0148369
809.079	0.0149827
809.157	0.0148212
809.235	0.0148527
809.313	0.0147675
809.391	0.0147557
809.469	0.0147856
809.548	0.0148258
809.626	0.0147606
809.704	0.0146753
809.782	0.0147063
809.860	0.0147291
809.938	0.0147795
810.016	0.0146513
810.094	0.0145629
810.173	0.0145737
810.251	0.0146532
810.329	0.0146716
810.407	0.0146939
810.485	0.0146198
810.563	0.0145700
810.641	0.0145688
810.719	0.0147154
810.798	0.0147793
810.876	0.0147867
810.954	0.0147924
811.032	0.0149451
811.110	0.0150895
811.188	0.0152153
811.266	0.0151882
811.344	0.0151324
811.423	0.0152689
811.501	0.0153702
811.579	0.0153487
811.657	0.0154417
811.735	0.0154713
811.813	0.0155849
811.891	0.0154964
811.969	0.0153310
812.048	0.0153667
812.126	0.0153851
812.204	0.0152485
812.282	0.0152409
812.360	0.0151530
812.438	0.0151360
812.516	0.0149144
812.594	0.0148399
812.673	0.0148090
812.751	0.0147681
812.829	0.0148021
812.907	0.0147728
812.985	0.0146956
813.063	0.0144608
813.141	0.0145910
813.219	0.0145860
813.298	0.0145868
813.376	0.0145389
813.454	0.0146628
813.532	0.0146175
813.610	0.0146879
813.688	0.0146279
813.766	0.0146125
813.844	0.0147288
813.923	0.0147797
814.001	0.0147370
814.079	0.0147282
814.157	0.0147892
814.235	0.0149456
814.313	0.0149023
814.391	0.0149487
814.469	0.0150560
814.548	0.0149955
814.626	0.0148965
814.704	0.0150534
814.782	0.0149032
814.860	0.0148795
814.938	0.0148364
815.016	0.0147310
815.094	0.0148796
815.173	0.0149249
815.251	0.0149393
815.329	0.0148850
815.407	0.0148464
815.485	0.0147821
815.563	0.0149171
815.641	0.0148965
815.719	0.0149891
815.798	0.0150029
815.876	0.0148499
815.954	0.0148702
816.032	0.0149466
816.110	0.0148886
816.188	0.0149522
816.266	0.0149551
816.344	0.0149317
816.423	0.0148410
816.501	0.0149162
816.579	0.0149054
816.657	0.0147808
816.735	0.0148787
816.813	0.0150905
816.891	0.0148621
816.969	0.0148158
817.048	0.0149660
817.126	0.0150301
817.204	0.0149682
817.282	0.0150217
817.360	0.0150227
817.438	0.0149730
817.516	0.0149365
817.594	0.0149940
817.673	0.0150830
817.751	0.0149787
817.829	0.0148273
817.907	0.0149969
817.985	0.0149921
818.063	0.0149392
818.141	0.0150100
818.219	0.0149191
818.298	0.0147076
818.376	0.0148177
818.454	0.0148132
818.532	0.0147108
818.610	0.0147129
818.688	0.0145943
818.766	0.0147015
818.844	0.0145337
818.923	0.0145174
819.001	0.0145068
819.079	0.0147005
819.157	0.0147124
819.235	0.0146611
819.313	0.0148225
819.391	0.0149352
819.469	0.0149268
819.548	0.0149933
819.626	0.0149891
819.704	0.0148746
819.782	0.0149691
819.860	0.0151812
819.938	0.0151587
820.016	0.0151327
820.094	0.0150786
820.173	0.0152345
820.251	0.0152914
820.329	0.0150475
820.407	0.0152351
820.485	0.0151125
820.563	0.0150893
820.641	0.0150523
820.719	0.0149818
820.798	0.0150056
820.876	0.0149705
820.954	0.0149114
821.032	0.0150156
821.110	0.0149580
821.188	0.0148770
821.266	0.0148915
821.344	0.0149432
821.423	0.0149326
821.501	0.0148534
821.579	0.0147614
821.657	0.0148817
821.735	0.0149010
821.813	0.0148376
821.891	0.0148030
821.969	0.0147888
822.048	0.0148170
822.126	0.0149635
822.204	0.0147719
822.282	0.0146707
822.360	0.0146562
822.438	0.0146709
822.516	0.0146481
822.594	0.0146801
822.673	0.0145624
822.751	0.0146653
822.829	0.0145457
822.907	0.0145681
822.985	0.0146936
823.063	0.0145902
823.141	0.0145835
823.219	0.0146003
823.298	0.0147433
823.376	0.0147102
823.454	0.0145701
823.532	0.0147246
823.610	0.0146742
823.688	0.0148450
823.766	0.0148122
823.844	0.0147179
823.923	0.0146274
824.001	0.0147715
824.079	0.0148324
824.157	0.0147749
824.235	0.0150386
824.313	0.0148337
824.391	0.0149540
824.469	0.0149333
824.548	0.0149765
824.626	0.0151460
824.704	0.0151125
824.782	0.0151949
824.860	0.0152098
824.938	0.0153329
825.016	0.0154043
825.094	0.0154204
825.173	0.0153939
825.251	0.0155044
825.329	0.0155447
825.407	0.0154456
825.485	0.0155296
825.563	0.0155457
825.641	0.0155837
825.719	0.0154984
825.798	0.0154264
825.876	0.0153892
825.954	0.0153570
826.032	0.0152872
826.110	0.0152243
826.188	0.0150196
826.266	0.0150424
826.344	0.0150778
826.423	0.0149065
826.501	0.0147557
826.579	0.0146986
826.657	0.0147604
826.735	0.0146078
826.813	0.0146586
826.891	0.0145361
826.969	0.0144846
827.048	0.0146091
827.126	0.0145316
827.204	0.0145647
827.282	0.0145043
827.360	0.0145738
827.438	0.0145141
827.516	0.0144082
827.594	0.0145199
827.673	0.0146133
827.751	0.0144046
827.829	0.0143890
827.907	0.0145595
827.985	0.0144691
828.063	0.0146000
828.141	0.0145194
828.219	0.0144665
828.298	0.0145702
828.376	0.0146873
828.454	0.0145444
828.532	0.0146261
828.610	0.0148362
828.688	0.0146402
828.766	0.0147662
828.844	0.0147518
828.923	0.0147990
829.001	0.0149058
829.079	0.0149707
829.157	0.0149792
829.235	0.0149609
829.313	0.0149619
829.391	0.0149686
829.469	0.0150726
829.548	0.0150536
829.626	0.0151710
829.704	0.0151646
829.782	0.0152673
829.860	0.0153467
829.938	0.0152255
830.016	0.0153925
830.094	0.0155924
830.173	0.0155573
830.251	0.0156372
830.329	0.0157588
830.407	0.0157468
830.485	0.0156503
830.563	0.0157663
830.641	0.0157664
830.719	0.0156596
830.798	0.0157349
830.876	0.0156774
830.954	0.0156553
831.032	0.0154769
831.110	0.0156425
831.188	0.0154509
831.266	0.0153549
831.344	0.0155226
831.423	0.0151584
831.501	0.0151244
831.579	0.0150262
831.657	0.0149260
831.735	0.0147954
831.813	0.0147718
831.891	0.0146597
831.969	0.0143799
832.048	0.0145072
832.126	0.0144655
832.204	0.0144402
832.282	0.0143340
832.360	0.0143922
832.438	0.0144115
832.516	0.0143745
832.594	0.0143767
832.673	0.0144170
832.751	0.0143339
832.829	0.0145194
832.907	0.0143192
832.985	0.0143733
833.063	0.0145279
833.141	0.0144909
833.219	0.0145406
833.298	0.0145989
833.376	0.0145745
833.454	0.0144937
833.532	0.0146634
833.610	0.0145969
833.688	0.0145354
833.766	0.0145995
833.844	0.0148008
833.923	0.0148292
834.001	0.0146716
834.079	0.0148039
834.157	0.0147887
834.235	0.0148881
834.313	0.0148856
834.391	0.0148265
834.469	0.0149431
834.548	0.0149822
834.626	0.0150060
834.704	0.0150964
834.782	0.0153392
834.860	0.0152180
834.938	0.0152565
835.016	0.0153503
835.094	0.0152531
835.173	0.0154191
835.251	0.0154099
835.329	0.0153767
835.407	0.0155035
835.485	0.0154240
835.563	0.0153624
835.641	0.0154746
835.719	0.0153092
835.798	0.0153368
835.876	0.0155405
835.954	0.0153468
836.032	0.0153490
836.110	0.0154780
836.188	0.0153083
836.266	0.0152366
836.344	0.0152206
836.423	0.0152887
836.501	0.0151130
836.579	0.0150893
836.657	0.0151971
836.735	0.0151665
836.813	0.0150808
836.891	0.0150311
836.969	0.0149706
837.048	0.0150853
837.126	0.0149818
837.204	0.0150385
837.282	0.0149208
837.360	0.0148144
837.438	0.0148468
837.516	0.0148277
837.594	0.0148358
837.673	0.0146764
837.751	0.0147499
837.829	0.0147417
837.907	0.0145796
837.985	0.0146326
838.063	0.0146230
838.141	0.0146055
838.219	0.0145676
838.298	0.0145757
838.376	0.0145387
838.454	0.0144992
838.532	0.0147093
838.610	0.0146037
838.688	0.0146752
838.766	0.0145164
838.844	0.0144931
838.923	0.0145145
839.001	0.0144952
839.079	0.0145479
839.157	0.0145055
839.235	0.0146056
839.313	0.0146059
839.391	0.0146671
839.469	0.0146478
839.548	0.0145880
839.626	0.0146795
839.704	0.0148778
839.782	0.0149014
839.860	0.0149745
839.938	0.0149497
840.016	0.0149921
840.094	0.0150941
840.173	0.0150568
840.251	0.0152578
840.329	0.0152414
840.407	0.0152354
840.485	0.0153518
840.563	0.0154631
840.641	0.0152165
840.719	0.0153126
840.798	0.0153319
840.876	0.0152234
840.954	0.0152612
841.032	0.0154199
841.110	0.0153196
841.188	0.0151715
841.266	0.0152009
841.344	0.0152265
841.423	0.0150464
841.501	0.0151407
841.579	0.0150723
841.657	0.0149628
841.735	0.0151133
841.813	0.0150156
841.891	0.0150637
841.969	0.0148927
842.048	0.0150455
842.126	0.0150075
842.204	0.0148809
842.282	0.0150063
842.360	0.0149695
842.438	0.0149210
842.516	0.0150985
842.594	0.0149036
842.673	0.0148128
842.751	0.0149590
842.829	0.0151015
842.907	0.0148566
842.985	0.0149736
843.063	0.0149445
843.141	0.0149236
843.219	0.0149218
843.298	0.0149274
843.376	0.0150389
843.454	0.0149279
843.532	0.0149518
843.610	0.0150275
843.688	0.0149074
843.766	0.0149504
843.844	0.0150272
843.923	0.0149584
844.001	0.0149832
844.079	0.0148399
844.157	0.0148872
844.235	0.0148775
844.313	0.0149455
844.391	0.0148258
844.469	0.0148560
844.548	0.0147913
844.626	0.0146635
844.704	0.0146825
844.782	0.0147384
844.860	0.0147405
844.938	0.0146784
845.016	0.0146812
845.094	0.0146687
845.173	0.0147166
845.251	0.0147213
845.329	0.0148470
845.407	0.0148666
845.485	0.0147960
845.563	0.0148824
845.641	0.0148957
845.719	0.0149693
845.798	0.0148771
845.876	0.0148661
845.954	0.0149535
846.032	0.0149273
846.110	0.0149939
846.188	0.0150027
846.266	0.0148717
846.344	0.0150242
846.423	0.0149130
846.501	0.0148637
846.579	0.0148746
846.657	0.0149287
846.735	0.0148718
846.813	0.0149558
846.891	0.0149181
846.969	0.0148667
847.048	0.0149905
847.126	0.0150303
847.204	0.0149062
847.282	0.0149477
847.360	0.0150250
847.438	0.0149732
847.516	0.0147939
847.594	0.0148392
847.673	0.0148585
847.751	0.0146944
847.829	0.0147694
847.907	0.0147410
847.985	0.0148418
848.063	0.0149335
848.141	0.0147779
848.219	0.0147611
848.298	0.0149696
848.376	0.0150329
848.454	0.0149512
848.532	0.0148174
848.610	0.0149046
848.688	0.0149946
848.766	0.0150093
848.844	0.0150219
848.923	0.0150386
849.001	0.0151012
849.079	0.0151697
849.157	0.0151427
849.235	0.0150813
849.313	0.0151806
849.391	0.0153452
849.469	0.0152922
849.548	0.0152605
849.626	0.0153203
849.704	0.0151635
849.782	0.0151696
849.860	0.0153439
849.938	0.0153458
850.016	0.0153255
850.094	0.0154310
850.173	0.0151916
850.251	0.0151298
850.329	0.0152145
850.407	0.0150119
850.485	0.0150645
850.563	0.0149986
850.641	0.0150008
850.719	0.0147955
850.798	0.0148485
850.876	0.0147379
850.954	0.0148142
851.032	0.0147092
851.110	0.0146716
851.188	0.0147964
851.266	0.0146619
851.344	0.0145816
851.423	0.0146089
851.501	0.0144985
851.579	0.0145309
851.657	0.0146777
851.735	0.0146833
851.813	0.0147055
851.891	0.0146464
851.969	0.0146239
852.048	0.0146372
852.126	0.0148592
852.204	0.0146352
852.282	0.0147559
852.360	0.0147112
852.438	0.0147788
852.516	0.0147324
852.594	0.0146982
852.673	0.0146698
852.751	0.0146392
852.829	0.0146931
852.907	0.0146864
852.985	0.0147662
853.063	0.0147329
853.141	0.0147562
853.219	0.0148671
853.298	0.0147661
853.376	0.0146969
853.454	0.0148050
853.532	0.0149639
853.610	0.0149539
853.688	0.0150062
853.766	0.0150185
853.844	0.0151453
853.923	0.0151568
854.001	0.0151262
854.079	0.0152129
854.157	0.0152296
854.235	0.0153725
854.313	0.0153181
854.391	0.0152984
854.469	0.0153595
854.548	0.0153259
854.626	0.0151936
854.704	0.0152888
854.782	0.0154598
854.860	0.0152288
854.938	0.0153196
855.016	0.0153745
855.094	0.0152858
855.173	0.0151810
855.251	0.0155398
855.329	0.0153291
855.407	0.0151223
855.485	0.0152277
855.563	0.0151462
855.641	0.0152176
855.719	0.0151231
855.798	0.0151838
855.876	0.0151382
855.954	0.0150264
856.032	0.0151307
856.110	0.0151492
856.188	0.0150978
856.266	0.0150250
856.344	0.0150736
856.423	0.0150104
856.501	0.0152013
856.579	0.0150714
856.657	0.0150479
856.735	0.0150032
856.813	0.0150152
856.891	0.0148898
856.969	0.0148648
857.048	0.0148154
857.126	0.0147952
857.204	0.0149003
857.282	0.0147869
857.360	0.0147614
857.438	0.0147838
857.516	0.0147551
857.594	0.0145570
857.673	0.0146563
857.751	0.0146858
857.829	0.0146606
857.907	0.0145187
857.985	0.0145856
858.063	0.0147058
858.141	0.0144517
858.219	0.0146406
858.298	0.0147453
858.376	0.0144464
858.454	0.0146077
858.532	0.0146008
858.610	0.0146905
858.688	0.0146378
858.766	0.0145933
858.844	0.0146311
858.923	0.0146937
859.001	0.0148025
859.079	0.0146227
859.157	0.0146258
859.235	0.0147822
859.313	0.0146867
859.391	0.0148649
859.469	0.0148145
859.548	0.0147158
859.626	0.0148704
859.704	0.0146430
859.782	0.0148286
859.860	0.0150572
859.938	0.0149415
860.016	0.0148785
860.094	0.0150961
860.173	0.0151554
860.251	0.0152055
860.329	0.0151282
860.407	0.0152236
860.485	0.0153033
860.563	0.0153844
860.641	0.0155676
860.719	0.0156166
860.798	0.0156539
860.876	0.0156328
860.954	0.0156575
861.032	0.0155336
861.110	0.0155428
861.188	0.0156062
861.266	0.0155888
861.344	0.0154518
861.423	0.0153580
861.501	0.0153481
861.579	0.0153536
861.657	0.0152655
861.735	0.0152180
861.813	0.0149822
861.891	0.0150524
861.969	0.0150917
862.048	0.0150211
862.126	0.0149606
862.204	0.0148452
862.282	0.0147382
862.360	0.0147163
862.438	0.0147739
862.516	0.0147128
862.594	0.0146326
862.673	0.0146315
862.751	0.0147070
862.829	0.0146806
862.907	0.0146413
862.985	0.0148438
863.063	0.0147684
863.141	0.0144434
863.219	0.0145789
863.298	0.0146426
863.376	0.0145659
863.454	0.0145943
863.532	0.0145893
863.610	0.0146368
863.688	0.0146425
863.766	0.0144122
863.844	0.0145702
863.923	0.0143755
864.001	0.0145822
864.079	0.0145734
864.157	0.0145837
864.235	0.0146563
864.313	0.0145135
864.391	0.0147973
864.469	0.0147667
864.548	0.0145737
864.626	0.0146642
864.704	0.0147301
864.782	0.0148074
864.860	0.0147051
864.938	0.0147549
865.016	0.0147695
865.094	0.0149008
865.173	0.0148737
865.251	0.0149738
865.329	0.0149612
865.407	0.0149269
865.485	0.0149755
865.563	0.0149515
865.641	0.0150681
865.719	0.0150897
865.798	0.0151314
865.876	0.0150716
865.954	0.0150986
866.032	0.0150932
866.110	0.0152714
866.188	0.0152084
866.266	0.0152499
866.344	0.0151965
866.423	0.0153796
866.501	0.0153198
866.579	0.0152958
866.657	0.0153185
866.735	0.0152058
866.813	0.0151898
866.891	0.0151607
866.969	0.0151215
867.048	0.0152369
867.126	0.0150729
867.204	0.0150415
867.282	0.0149644
867.360	0.0151460
867.438	0.0151125
867.516	0.0151270
867.594	0.0151984
867.673	0.0151566
867.751	0.0150633
867.829	0.0151556
867.907	0.0150134
867.985	0.0150272
868.063	0.0150227
868.141	0.0150980
868.219	0.0148874
868.298	0.0149706
868.376	0.0148280
868.454	0.0149696
868.532	0.0150068
868.610	0.0148162
868.688	0.0146600
868.766	0.0146920
868.844	0.0146746
868.923	0.0146343
869.001	0.0144766
869.079	0.0144424
869.157	0.0144434
869.235	0.0146115
869.313	0.0144994
869.391	0.0144896
869.469	0.0145080
869.548	0.0144566
869.626	0.0144659
869.704	0.0144134
869.782	0.0144147
869.860	0.0145610
869.938	0.0146861
870.016	0.0146163
870.094	0.0146461
870.173	0.0146082
870.251	0.0148599
870.329	0.0146893
870.407	0.0146721
870.485	0.0148364
870.563	0.0149134
870.641	0.0149525
870.719	0.0149595
870.798	0.0149966
870.876	0.0150218
870.954	0.0149969
871.032	0.0150882
871.110	0.0150561
871.188	0.0150393
871.266	0.0149841
871.344	0.0149640
871.423	0.0150112
871.501	0.0151576
871.579	0.0150138
871.657	0.0150362
871.735	0.0149778
871.813	0.0150116
871.891	0.0151479
871.969	0.0151422
872.048	0.0149667
872.126	0.0150117
872.204	0.0150320
872.282	0.0150011
872.360	0.0149929
872.438	0.0151595
872.516	0.0150935
872.594	0.0149722
872.673	0.0151163
872.751	0.0150345
872.829	0.0149974
872.907	0.0150419
872.985	0.0149728
873.063	0.0149725
873.141	0.0149621
873.219	0.0150020
873.298	0.0151585
873.376	0.0150204
873.454	0.0149097
873.532	0.0150478
873.610	0.0149701
873.688	0.0149688
873.766	0.0149789
873.844	0.0151313
873.923	0.0150583
874.001	0.0150211
874.079	0.0151546
874.157	0.0150129
874.235	0.0150117
874.313	0.0151490
874.391	0.0150555
874.469	0.0150674
874.548	0.0151084
874.626	0.0149579
874.704	0.0149064
874.782	0.0149375
874.860	0.0148806
874.938	0.0148443
875.016	0.0149232
875.094	0.0148564
875.173	0.0147240
875.251	0.0149839
875.329	0.0148971
875.407	0.0146387
875.485	0.0147836
875.563	0.0148542
875.641	0.0148306
875.719	0.0147882
875.798	0.0146879
875.876	0.0147568
875.954	0.0147809
876.032	0.0147115
876.110	0.0146716
876.188	0.0147418
876.266	0.0146423
876.344	0.0146193
876.423	0.0146819
876.501	0.0145935
876.579	0.0146434
876.657	0.0146207
876.735	0.0146376
876.813	0.0145798
876.891	0.0144301
876.969	0.0146177
877.048	0.0147325
877.126	0.0145205
877.204	0.0146617
877.282	0.0146706
877.360	0.0146838
877.438	0.0149621
877.516	0.0147208
877.594	0.0147173
877.673	0.0149386
877.751	0.0149547
877.829	0.0148646
877.907	0.0149166
877.985	0.0150990
878.063	0.0151933
878.141	0.0151245
878.219	0.0152017
878.298	0.0152468
878.376	0.0150269
878.454	0.0151246
878.532	0.0151412
878.610	0.0152013
878.688	0.0151907
878.766	0.0151448
878.844	0.0152599
878.923	0.0152464
879.001	0.0151364
879.079	0.0151385
879.157	0.0152451
879.235	0.0149052
879.313	0.0149569
879.391	0.0152134
879.469	0.0150991
879.548	0.0150757
879.626	0.0150592
879.704	0.0149300
879.782	0.0150081
879.860	0.0149434
879.938	0.0148788
880.016	0.0150287
880.094	0.0150060
880.173	0.0148010
880.251	0.0147098
880.329	0.0148495
880.407	0.0148294
880.485	0.0147794
880.563	0.0147892
880.641	0.0147895
880.719	0.0146906
880.798	0.0147466
880.876	0.0146873
880.954	0.0146575
881.032	0.0147800
881.110	0.0148519
881.188	0.0148241
881.266	0.0148000
881.344	0.0146965
881.423	0.0146755
881.501	0.0146938
881.579	0.0146088
881.657	0.0145774
881.735	0.0146024
881.813	0.0146970
881.891	0.0146437
881.969	0.0145804
882.048	0.0145746
882.126	0.0145945
882.204	0.0147287
882.282	0.0148283
882.360	0.0149850
882.438	0.0150608
882.516	0.0151765
882.594	0.0152120
882.673	0.0152623
882.751	0.0151997
882.829	0.0154048
882.907	0.0152462
882.985	0.0150951
883.063	0.0150215
883.141	0.0148118
883.219	0.0147881
883.298	0.0146107
883.376	0.0144749
883.454	0.0143155
883.532	0.0143724
883.610	0.0143230
883.688	0.0144025
883.766	0.0145316
883.844	0.0145873
883.923	0.0147057
884.001	0.0148500
884.079	0.0148024
884.157	0.0150838
884.235	0.0152830
884.313	0.0153192
884.391	0.0153262
884.469	0.0155199
884.548	0.0156322
884.626	0.0155720
884.704	0.0155583
884.782	0.0157110
884.860	0.0154568
884.938	0.0152595
885.016	0.0153017
885.094	0.0152834
885.173	0.0150183
885.251	0.0148684
885.329	0.0146867
885.407	0.0145770
885.485	0.0146172
885.563	0.0145018
885.641	0.0145460
885.719	0.0145068
885.798	0.0143713
885.876	0.0145473
885.954	0.0145787
886.032	0.0146881
886.110	0.0147740
886.188	0.0147520
886.266	0.0149811
886.344	0.0150902
886.423	0.0152648
886.501	0.0152229
886.579	0.0153688
886.657	0.0155074
886.735	0.0154127
886.813	0.0154775
886.891	0.0155956
886.969	0.0155527
887.048	0.0153233
887.126	0.0152206
887.204	0.0151385
887.282	0.0150822
887.360	0.0150140
887.438	0.0148782
887.516	0.0147757
887.594	0.0147389
887.673	0.0146068
887.751	0.0145824
887.829	0.0144803
887.907	0.0145396
887.985	0.0144797
888.063	0.0143427
888.141	0.0141873
888.219	0.0143994
888.298	0.0143326
888.376	0.0143589
888.454	0.0142694
888.532	0.0144086
888.610	0.0144926
888.688	0.0146182
888.766	0.0147365
888.844	0.0146980
888.923	0.0147657
889.001	0.0147545
889.079	0.0148353
889.157	0.0149791
889.235	0.0150301
889.313	0.0150556
889.391	0.0150145
889.469	0.0152368
889.548	0.0151683
889.626	0.0153180
889.704	0.0153237
889.782	0.0153726
889.860	0.0152531
889.938	0.0153307
890.016	0.0154205
890.094	0.0153570
890.173	0.0152991
890.251	0.0153477
890.329	0.0152881
890.407	0.0152528
890.485	0.0152880
890.563	0.0150576
890.641	0.0152290
890.719	0.0150642
890.798	0.0149899
890.876	0.0149380
890.954	0.0148641
891.032	0.0148996
891.110	0.0148568
891.188	0.0149197
891.266	0.0148661
891.344	0.0148355
891.423	0.0147219
891.501	0.0148450
891.579	0.0146775
891.657	0.0147208
891.735	0.0145468
891.813	0.0146840
891.891	0.0146524
891.969	0.0145477
892.048	0.0147339
892.126	0.0147609
892.204	0.0146676
892.282	0.0146606
892.360	0.0148179
892.438	0.0148991
892.516	0.0149151
892.594	0.0148709
892.673	0.0149271
892.751	0.0148912
892.829	0.0150340
892.907	0.0148178
892.985	0.0149886
893.063	0.0150581
893.141	0.0151535
893.219	0.0150780
893.298	0.0150716
893.376	0.0150237
893.454	0.0150168
893.532	0.0150909
893.610	0.0149804
893.688	0.0150253
893.766	0.0150420
893.844	0.0149888
893.923	0.0149423
894.001	0.0149145
894.079	0.0149368
894.157	0.0149039
894.235	0.0148717
894.313	0.0147746
894.391	0.0147637
894.469	0.0146717
894.548	0.0146225
894.626	0.0147639
894.704	0.0147496
894.782	0.0147299
894.860	0.0146615
894.938	0.0147005
895.016	0.0145669
895.094	0.0146970
895.173	0.0146299
895.251	0.0147809
895.329	0.0147838
895.407	0.0148343
895.485	0.0147108
895.563	0.0147308
895.641	0.0148654
895.719	0.0149039
895.798	0.0150731
895.876	0.0150254
895.954	0.0149474
896.032	0.0149475
896.110	0.0149635
896.188	0.0150243
896.266	0.0150681
896.344	0.0150047
896.423	0.0149240
896.501	0.0150743
896.579	0.0148399
896.657	0.0150776
896.735	0.0149965
896.813	0.0149104
896.891	0.0149220
896.969	0.0148302
897.048	0.0148640
897.126	0.0149358
897.204	0.0150889
897.282	0.0149398
897.360	0.0149592
897.438	0.0150500
897.516	0.0150352
897.594	0.0149637
897.673	0.0149019
897.751	0.0148736
897.829	0.0150729
897.907	0.0148207
897.985	0.0149478
898.063	0.0148031
898.141	0.0148567
898.219	0.0147950
898.298	0.0147597
898.376	0.0147523
898.454	0.0148433
898.532	0.0147829
898.610	0.0147110
898.688	0.0148147
898.766	0.0147227
898.844	0.0147022
898.923	0.0146940
899.001	0.0147507
899.079	0.0148256
899.157	0.0149096
899.235	0.0148898
899.313	0.0148935
899.391	0.0148854
899.469	0.0149200
899.548	0.0149881
899.626	0.0149817
899.704	0.0150968
899.782	0.0148791
899.860	0.0148317
899.938	0.0149903
900.016	0.0149383
900.094	0.0147352
900.173	0.0148514
900.251	0.0148802
900.329	0.0149898
900.407	0.0148635
900.485	0.0149673
900.563	0.0149828
900.641	0.0148402
900.719	0.0148028
900.798	0.0147510
900.876	0.0148208
900.954	0.0148248
901.032	0.0147764
901.110	0.0147840
901.188	0.0148209
901.266	0.0147358
901.344	0.0148811
901.423	0.0149680
901.501	0.0148993
901.579	0.0149725
901.657	0.0148834
901.735	0.0150219
901.813	0.0151063
901.891	0.0149948
901.969	0.0151152
902.048	0.0151559
902.126	0.0150412
902.204	0.0151005
902.282	0.0150957
902.360	0.0151402
902.438	0.0150745
902.516	0.0149368
902.594	0.0150378
902.673	0.0149212
902.751	0.0149253
902.829	0.0148727
902.907	0.0147667
902.985	0.0149409
903.063	0.0149679
903.141	0.0149725
903.219	0.0150499
903.298	0.0148595
903.376	0.0149116
903.454	0.0149972
903.532	0.0149785
903.610	0.0149339
903.688	0.0149521
903.766	0.0150068
903.844	0.0148857
903.923	0.0148421
904.001	0.0148582
904.079	0.0148228
904.157	0.0146436
904.235	0.0146626
904.313	0.0146625
904.391	0.0146909
904.469	0.0146471
904.548	0.0147174
904.626	0.0146826
904.704	0.0145907
904.782	0.0145494
904.860	0.0147102
904.938	0.0146017
905.016	0.0145252
905.094	0.0146066
905.173	0.0147606
905.251	0.0148303
905.329	0.0148626
905.407	0.0149419
905.485	0.0151110
905.563	0.0150419
905.641	0.0150640
905.719	0.0153854
905.798	0.0151823
905.876	0.0152783
905.954	0.0154585
906.032	0.0153983
906.110	0.0153928
906.188	0.0152988
906.266	0.0154912
906.344	0.0154417
906.423	0.0153574
906.501	0.0152415
906.579	0.0152981
906.657	0.0152351
906.735	0.0152119
906.813	0.0150954
906.891	0.0150166
906.969	0.0150784
907.048	0.0148945
907.126	0.0149032
907.204	0.0149415
907.282	0.0149292
907.360	0.0148948
907.438	0.0148672
907.516	0.0148135
907.594	0.0148400
907.673	0.0147218
907.751	0.0149363
907.829	0.0148811
907.907	0.0149418
907.985	0.0149466
908.063	0.0150926
908.141	0.0150243
908.219	0.0150108
908.298	0.0149780
908.376	0.0151291
908.454	0.0149486
908.532	0.0149946
908.610	0.0149619
908.688	0.0150916
908.766	0.0149915
908.844	0.0148377
908.923	0.0148356
909.001	0.0149487
909.079	0.0149588
909.157	0.0147597
909.235	0.0149031
909.313	0.0148485
909.391	0.0147385
909.469	0.0148356
909.548	0.0148316
909.626	0.0147640
909.704	0.0147332
909.782	0.0148765
909.860	0.0148997
909.938	0.0148356
910.016	0.0149271
910.094	0.0148545
910.173	0.0148031
910.251	0.0147771
910.329	0.0149342
910.407	0.0150700
910.485	0.0148927
910.563	0.0148746
910.641	0.0149690
910.719	0.0149641
910.798	0.0147735
910.876	0.0149667
910.954	0.0148965
911.032	0.0151095
911.110	0.0149670
911.188	0.0148596
911.266	0.0148212
911.344	0.0150869
911.423	0.0150581
911.501	0.0150784
911.579	0.0151412
911.657	0.0151318
911.735	0.0149014
911.813	0.0149108
911.891	0.0150240
911.969	0.0150855
912.048	0.0150954
912.126	0.0149677
912.204	0.0149640
912.282	0.0149041
912.360	0.0146739
912.438	0.0148347
912.516	0.0148409
912.594	0.0147723
912.673	0.0147832
912.751	0.0148375
912.829	0.0148434
912.907	0.0148420
912.985	0.0147940
913.063	0.0148810
913.141	0.0149181
913.219	0.0148865
913.298	0.0148573
913.376	0.0149563
913.454	0.0151440
913.532	0.0151174
913.610	0.0149764
913.688	0.0150320
913.766	0.0151341
913.844	0.0150853
913.923	0.0151655
914.001	0.0151100
914.079	0.0150183
914.157	0.0152174
914.235	0.0150592
914.313	0.0148019
914.391	0.0149164
914.469	0.0150025
914.548	0.0149010
914.626	0.0148470
914.704	0.0147634
914.782	0.0147524
914.860	0.0146751
914.938	0.0146583
915.016	0.0145759
915.094	0.0146053
915.173	0.0147112
915.251	0.0146799
915.329	0.0146352
915.407	0.0146670
915.485	0.0146834
915.563	0.0146326
915.641	0.0147135
915.719	0.0147748
915.798	0.0147724
915.876	0.0148888
915.954	0.0148750
916.032	0.0147773
916.110	0.0149043
916.188	0.0148852
916.266	0.0148491
916.344	0.0149343
916.423	0.0148987
916.501	0.0148755
916.579	0.0148482
916.657	0.0149406
916.735	0.0148824
916.813	0.0148987
916.891	0.0148801
916.969	0.0147707
917.048	0.0148004
917.126	0.0147830
917.204	0.0148745
917.282	0.0148819
917.360	0.0147758
917.438	0.0148088
917.516	0.0148499
917.594	0.0146894
917.673	0.0148766
917.751	0.0147832
917.829	0.0147944
917.907	0.0148065
917.985	0.0149860
918.063	0.0148682
918.141	0.0149136
918.219	0.0148963
918.298	0.0150121
918.376	0.0148965
918.454	0.0150593
918.532	0.0149464
918.610	0.0148961
918.688	0.0149580
918.766	0.0149448
918.844	0.0150002
918.923	0.0149001
919.001	0.0149181
919.079	0.0148695
919.157	0.0148965
919.235	0.0150129
919.313	0.0149032
919.391	0.0150284
919.469	0.0150312
919.548	0.0149947
919.626	0.0150237
919.704	0.0150322
919.782	0.0150851
919.860	0.0150294
919.938	0.0150543
920.016	0.0150333
920.094	0.0149225
920.173	0.0148678
920.251	0.0149149
920.329	0.0148887
920.407	0.0149094
920.485	0.0147380
920.563	0.0147491
920.641	0.0147679
920.719	0.0149144
920.798	0.0148551
920.876	0.0147766
920.954	0.0147561
921.032	0.0146554
921.110	0.0146250
921.188	0.0148631
921.266	0.0148003
921.344	0.0148932
921.423	0.0150368
921.501	0.0147858
921.579	0.0147649
921.657	0.0149228
921.735	0.0149569
921.813	0.0148771
921.891	0.0148819
921.969	0.0150343
922.048	0.0151286
922.126	0.0149918
922.204	0.0149861
922.282	0.0150279
922.360	0.0150452
922.438	0.0150740
922.516	0.0151600
922.594	0.0151277
922.673	0.0151176
922.751	0.0150970
922.829	0.0151646
922.907	0.0151810
922.985	0.0151093
923.063	0.0150143
923.141	0.0150684
923.219	0.0150959
923.298	0.0151720
923.376	0.0150240
923.454	0.0150472
923.532	0.0149705
923.610	0.0149437
923.688	0.0148914
923.766	0.0149418
923.844	0.0149590
923.923	0.0149363
924.001	0.0149998
924.079	0.0147728
924.157	0.0147328
924.235	0.0148698
924.313	0.0147630
924.391	0.0147701
924.469	0.0146809
924.548	0.0147472
924.626	0.0147388
924.704	0.0146915
924.782	0.0147775
924.860	0.0148121
924.938	0.0146813
925.016	0.0147672
925.094	0.0148569
925.173	0.0147678
925.251	0.0147627
925.329	0.0148197
925.407	0.0146777
925.485	0.0148986
925.563	0.0147989
925.641	0.0146800
925.719	0.0147965
925.798	0.0147730
925.876	0.0148011
925.954	0.0147844
926.032	0.0148133
926.110	0.0150150
926.188	0.0149098
926.266	0.0148544
926.344	0.0149731
926.423	0.0149988
926.501	0.0148618
926.579	0.0150213
926.657	0.0150790
926.735	0.0150641
926.813	0.0151275
926.891	0.0151555
926.969	0.0150359
927.048	0.0151171
927.126	0.0150266
927.204	0.0152424
927.282	0.0151385
927.360	0.0151707
927.438	0.0150404
927.516	0.0151545
927.594	0.0151580
927.673	0.0150443
927.751	0.0150847
927.829	0.0151061
927.907	0.0150663
927.985	0.0149626
928.063	0.0150307
928.141	0.0149409
928.219	0.0149639
928.298	0.0149543
928.376	0.0149654
928.454	0.0148668
928.532	0.0148706
928.610	0.0148891
928.688	0.0148956
928.766	0.0148916
928.844	0.0148774
928.923	0.0149100
929.001	0.0148824
929.079	0.0149089
929.157	0.0149227
929.235	0.0148856
929.313	0.0148511
929.391	0.0148045
929.469	0.0147712
929.548	0.0148559
929.626	0.0148001
929.704	0.0146712
929.782	0.0147882
929.860	0.0147811
929.938	0.0147999
930.016	0.0147757
930.094	0.0147205
930.173	0.0148148
930.251	0.0147858
930.329	0.0146275
930.407	0.0148958
930.485	0.0148189
930.563	0.0148105
930.641	0.0148910
930.719	0.0148572
930.798	0.0150128
930.876	0.0148122
930.954	0.0149969
931.032	0.0149322
931.110	0.0148515
931.188	0.0148747
931.266	0.0149427
931.344	0.0148830
931.423	0.0148633
931.501	0.0148479
931.579	0.0150099
931.657	0.0149086
931.735	0.0149983
931.813	0.0150598
931.891	0.0150039
931.969	0.0149970
932.048	0.0150259
932.126	0.0150475
932.204	0.0151039
932.282	0.0149930
932.360	0.0151105
932.438	0.0149596
932.516	0.0150330
932.594	0.0150118
932.673	0.0149345
932.751	0.0148754
932.829	0.0150219
932.907	0.0148679
932.985	0.0149049
933.063	0.0148713
933.141	0.0147438
933.219	0.0147666
933.298	0.0148078
933.376	0.0148389
933.454	0.0149541
933.532	0.0150147
933.610	0.0148045
933.688	0.0149080
933.766	0.0150154
933.844	0.0151186
933.923	0.0150043
934.001	0.0150797
934.079	0.0151368
934.157	0.0149150
934.235	0.0150108
934.313	0.0151285
934.391	0.0150636
934.469	0.0150050
934.548	0.0150579
934.626	0.0149530
934.704	0.0148982
934.782	0.0148649
934.860	0.0147680
934.938	0.0148176
935.016	0.0148489
935.094	0.0148510
935.173	0.0147601
935.251	0.0148301
935.329	0.0147401
935.407	0.0148347
935.485	0.0148739
935.563	0.0147459
935.641	0.0148403
935.719	0.0148574
935.798	0.0148334
935.876	0.0149133
935.954	0.0148444
936.032	0.0148843
936.110	0.0147764
936.188	0.0149084
936.266	0.0149450
936.344	0.0149701
936.423	0.0149803
936.501	0.0149957
936.579	0.0149439
936.657	0.0150150
936.735	0.0152258
936.813	0.0152594
936.891	0.0151940
936.969	0.0152013
937.048	0.0151237
937.126	0.0152881
937.204	0.0151098
937.282	0.0151314
937.360	0.0151221
937.438	0.0152476
937.516	0.0150449
937.594	0.0151720
937.673	0.0150925
937.751	0.0150364
937.829	0.0150274
937.907	0.0148743
937.985	0.0147671
938.063	0.0146809
938.141	0.0148605
938.219	0.0147149
938.298	0.0146669
938.376	0.0147720
938.454	0.0148222
938.532	0.0147091
938.610	0.0146098
938.688	0.0147091
938.766	0.0146771
938.844	0.0147750
938.923	0.0147167
939.001	0.0148386
939.079	0.0147416
939.157	0.0146935
939.235	0.0149425
939.313	0.0148592
939.391	0.0148450
939.469	0.0148444
939.548	0.0148662
939.626	0.0150108
939.704	0.0147408
939.782	0.0147394
939.860	0.0149909
939.938	0.0149547
940.016	0.0150181
940.094	0.0148866
940.173	0.0148724
940.251	0.0150169
940.329	0.0151235
940.407	0.0150942
940.485	0.0149347
940.563	0.0150829
940.641	0.0150689
940.719	0.0152145
940.798	0.0150822
940.876	0.0150426
940.954	0.0151379
941.032	0.0149569
941.110	0.0150658
941.188	0.0150827
941.266	0.0150069
941.344	0.0150905
941.423	0.0148920
941.501	0.0149355
941.579	0.0149629
941.657	0.0148691
941.735	0.0149803
941.813	0.0150432
941.891	0.0149786
941.969	0.0148027
942.048	0.0147806
942.126	0.0148646
942.204	0.0148052
942.282	0.0148522
942.360	0.0149239
942.438	0.0149496
942.516	0.0150839
942.594	0.0150597
942.673	0.0149808
942.751	0.0149117
942.829	0.0148193
942.907	0.0148667
942.985	0.0148879
943.063	0.0149228
943.141	0.0147346
943.219	0.0147396
943.298	0.0147419
943.376	0.0148435
943.454	0.0147910
943.532	0.0148171
943.610	0.0147530
943.688	0.0146384
943.766	0.0146750
943.844	0.0147929
943.923	0.0149086
944.001	0.0147449
944.079	0.0147392
944.157	0.0148238
944.235	0.0148107
944.313	0.0147926
944.391	0.0148746
944.469	0.0148531
944.548	0.0149059
944.626	0.0148545
944.704	0.0148553
944.782	0.0149639
944.860	0.0150101
944.938	0.0150623
945.016	0.0149454
945.094	0.0150772
945.173	0.0150519
945.251	0.0150298
945.329	0.0149909
945.407	0.0150161
945.485	0.0150377
945.563	0.0150759
945.641	0.0151141
945.719	0.0151052
945.798	0.0149035
945.876	0.0149602
945.954	0.0151797
946.032	0.0152296
946.110	0.0149591
946.188	0.0150404
946.266	0.0149780
946.344	0.0150939
946.423	0.0149528
946.501	0.0150198
946.579	0.0151141
946.657	0.0150251
946.735	0.0150593
946.813	0.0149255
946.891	0.0148993
946.969	0.0148140
947.048	0.0148342
947.126	0.0147840
947.204	0.0148722
947.282	0.0147974
947.360	0.0148315
947.438	0.0147602
947.516	0.0148399
947.594	0.0148889
947.673	0.0147137
947.751	0.0145997
947.829	0.0148463
947.907	0.0148709
947.985	0.0147644
948.063	0.0148183
948.141	0.0147230
948.219	0.0146593
948.298	0.0148967
948.376	0.0148836
948.454	0.0149208
948.532	0.0149774
948.610	0.0149322
948.688	0.0150351
948.766	0.0149174
948.844	0.0149856
948.923	0.0150126
949.001	0.0150986
949.079	0.0150027
949.157	0.0150585
949.235	0.0151408
949.313	0.0151298
949.391	0.0150924
949.469	0.0149406
949.548	0.0150052
949.626	0.0149908
949.704	0.0150972
949.782	0.0150690
949.860	0.0150432
949.938	0.0150153
950.016	0.0150645
950.094	0.0150588
950.173	0.0150689
950.251	0.0149539
950.329	0.0151288
950.407	0.0150559
950.485	0.0150411
950.563	0.0149850
950.641	0.0150011
950.719	0.0150256
950.798	0.0151204
950.876	0.0149579
950.954	0.0149560
951.032	0.0149371
951.110	0.0148894
951.188	0.0149781
951.266	0.0149792
951.344	0.0148103
951.423	0.0148228
951.501	0.0148751
951.579	0.0148318
951.657	0.0148849
951.735	0.0149343
951.813	0.0148363
951.891	0.0147939
951.969	0.0149189
952.048	0.0148544
952.126	0.0147533
952.204	0.0148911
952.282	0.0149657
952.360	0.0149948
952.438	0.0148402
952.516	0.0148077
952.594	0.0148487
952.673	0.0149940
952.751	0.0149344
952.829	0.0150141
952.907	0.0148835
952.985	0.0151450
953.063	0.0149799
953.141	0.0150256
953.219	0.0149383
953.298	0.0149936
953.376	0.0148754
953.454	0.0150014
953.532	0.0149086
953.610	0.0149213
953.688	0.0149047
953.766	0.0149955
953.844	0.0149052
953.923	0.0148489
954.001	0.0148389
954.079	0.0148690
954.157	0.0148718
954.235	0.0148723
954.313	0.0148973
954.391	0.0148422
954.469	0.0149511
954.548	0.0148742
954.626	0.0148117
954.704	0.0149502
954.782	0.0147765
954.860	0.0147926
954.938	0.0147639
955.016	0.0149653
955.094	0.0149196
955.173	0.0148413
955.251	0.0149260
955.329	0.0148479
955.407	0.0148265
955.485	0.0149271
955.563	0.0149918
955.641	0.0149014
955.719	0.0148887
955.798	0.0148457
955.876	0.0148236
955.954	0.0149135
956.032	0.0150295
956.110	0.0150780
956.188	0.0148897
956.266	0.0149538
956.344	0.0148247
956.423	0.0150125
956.501	0.0149966
956.579	0.0149208
956.657	0.0149994
956.735	0.0149886
956.813	0.0150559
956.891	0.0151167
956.969	0.0151189
957.048	0.0149850
957.126	0.0150585
957.204	0.0151424
957.282	0.0150781
957.360	0.0151297
957.438	0.0150024
957.516	0.0149837
957.594	0.0150479
957.673	0.0151617
957.751	0.0150443
957.829	0.0151566
957.907	0.0151401
957.985	0.0150098
958.063	0.0149923
958.141	0.0150143
958.219	0.0149338
958.298	0.0149450
958.376	0.0150675
958.454	0.0150047
958.532	0.0149511
958.610	0.0151907
958.688	0.0149576
958.766	0.0150553
958.844	0.0148705
958.923	0.0148636
959.001	0.0148294
959.079	0.0148175
959.157	0.0147939
959.235	0.0148581
959.313	0.0147436
959.391	0.0148636
959.469	0.0149169
959.548	0.0150883
959.626	0.0149872
959.704	0.0148897
959.782	0.0149461
959.860	0.0149445
959.938	0.0148923
960.016	0.0147177
960.094	0.0148290
960.173	0.0147350
960.251	0.0146674
960.329	0.0146635
960.407	0.0147338
960.485	0.0148223
960.563	0.0149340
960.641	0.0149540
960.719	0.0149644
960.798	0.0150850
960.876	0.0150600
960.954	0.0150675
961.032	0.0150921
961.110	0.0151225
961.188	0.0151408
961.266	0.0148672
961.344	0.0148386
961.423	0.0149069
961.501	0.0148128
961.579	0.0147744
961.657	0.0147654
961.735	0.0146905
961.813	0.0147854
961.891	0.0145642
961.969	0.0145932
962.048	0.0148039
962.126	0.0149513
962.204	0.0148172
962.282	0.0150233
962.360	0.0152632
962.438	0.0153025
962.516	0.0152715
962.594	0.0153779
962.673	0.0152568
962.751	0.0154243
962.829	0.0153521
962.907	0.0151028
962.985	0.0152153
963.063	0.0149430
963.141	0.0148623
963.219	0.0147244
963.298	0.0148166
963.376	0.0145882
963.454	0.0146658
963.532	0.0146113
963.610	0.0145274
963.688	0.0144998
963.766	0.0147292
963.844	0.0147969
963.923	0.0148858
964.001	0.0148186
964.079	0.0149704
964.157	0.0149273
964.235	0.0151066
964.313	0.0151665
964.391	0.0152557
964.469	0.0151777
964.548	0.0152434
964.626	0.0149870
964.704	0.0149551
964.782	0.0150651
964.860	0.0148732
964.938	0.0147766
965.016	0.0146494
965.094	0.0145319
965.173	0.0146851
965.251	0.0147613
965.329	0.0146603
965.407	0.0146132
965.485	0.0146754
965.563	0.0146312
965.641	0.0147236
965.719	0.0148245
965.798	0.0149000
965.876	0.0149155
965.954	0.0150134
966.032	0.0151722
966.110	0.0151625
966.188	0.0151531
966.266	0.0151168
966.344	0.0151956
966.423	0.0150745
966.501	0.0150092
966.579	0.0151028
966.657	0.0150900
966.735	0.0149104
966.813	0.0149186
966.891	0.0148677
966.969	0.0147723
967.048	0.0147403
967.126	0.0145914
967.204	0.0145966
967.282	0.0146253
967.360	0.0146696
967.438	0.0145940
967.516	0.0146745
967.594	0.0145402
967.673	0.0147839
967.751	0.0146639
967.829	0.0147222
967.907	0.0148237
967.985	0.0148212
968.063	0.0149075
968.141	0.0150054
968.219	0.0148737
968.298	0.0149276
968.376	0.0150625
968.454	0.0151994
968.532	0.0152270
968.610	0.0151189
968.688	0.0151949
968.766	0.0152244
968.844	0.0151720
968.923	0.0151888
969.001	0.0150127
969.079	0.0149118
969.157	0.0149762
969.235	0.0150453
969.313	0.0147975
969.391	0.0147182
969.469	0.0147079
969.548	0.0147350
969.626	0.0146356
969.704	0.0147015
969.782	0.0147520
969.860	0.0146484
969.938	0.0146689
