05/14/2022	19:14:59	Ver.	4.1	UNKNOWN
Optical Delay	650.016352	Delta X		0.078125	Sweeps	1	Scan Rate	0/0
Coordinates	Axis 1	NaN	Axis 2	NaN	Axis 3	NaN	Axis 4	NaN	Axis 5	NaN	Axis 6	0.000000
TX Power	0.000000	RX Power	0.000000

650.016	0.0143662
650.094	0.0144262
650.173	0.0145920
650.251	0.0143755
650.329	0.0143787
650.407	0.0143459
650.485	0.0144213
650.563	0.0144761
650.641	0.0143645
650.719	0.0145003
650.798	0.0143917
650.876	0.0143702
650.954	0.0144539
651.032	0.0144191
651.110	0.0143614
651.188	0.0141911
651.266	0.0144453
651.344	0.0143803
651.423	0.0143745
651.501	0.0144969
651.579	0.0143919
651.657	0.0143441
651.735	0.0144072
651.813	0.0143831
651.891	0.0144961
651.969	0.0142890
652.048	0.0144170
652.126	0.0143465
652.204	0.0144468
652.282	0.0144355
652.360	0.0143314
652.438	0.0144900
652.516	0.0144178
652.594	0.0143253
652.673	0.0143436
652.751	0.0143722
652.829	0.0143122
652.907	0.0142842
652.985	0.0144090
653.063	0.0144621
653.141	0.0144467
653.219	0.0143967
653.298	0.0144534
653.376	0.0145151
653.454	0.0143436
653.532	0.0143803
653.610	0.0144154
653.688	0.0144611
653.766	0.0144158
653.844	0.0144107
653.923	0.0144010
654.001	0.0143464
654.079	0.0145029
654.157	0.0145033
654.235	0.0142567
654.313	0.0142682
654.391	0.0143671
654.469	0.0143919
654.548	0.0145167
654.626	0.0144263
654.704	0.0143279
654.782	0.0143835
654.860	0.0143563
654.938	0.0143181
655.016	0.0143535
655.094	0.0144304
655.173	0.0143993
655.251	0.0143433
655.329	0.0144569
655.407	0.0143654
655.485	0.0144994
655.563	0.0143342
655.641	0.0142790
655.719	0.0144640
655.798	0.0143924
655.876	0.0143349
655.954	0.0142731
656.032	0.0145158
656.110	0.0142406
656.188	0.0142283
656.266	0.0143525
656.344	0.0143980
656.423	0.0144252
656.501	0.0143110
656.579	0.0143232
656.657	0.0144498
656.735	0.0143368
656.813	0.0143570
656.891	0.0143980
656.969	0.0143195
657.048	0.0142170
657.126	0.0143919
657.204	0.0145578
657.282	0.0143947
657.360	0.0143849
657.438	0.0143846
657.516	0.0141786
657.594	0.0143288
657.673	0.0145134
657.751	0.0143435
657.829	0.0143833
657.907	0.0144449
657.985	0.0144715
658.063	0.0142595
658.141	0.0143980
658.219	0.0144767
658.298	0.0144581
658.376	0.0144402
658.454	0.0143908
658.532	0.0143141
658.610	0.0143910
658.688	0.0144502
658.766	0.0142887
658.844	0.0143287
658.923	0.0144287
659.001	0.0144619
659.079	0.0143780
659.157	0.0143990
659.235	0.0144273
659.313	0.0144911
659.391	0.0146149
659.469	0.0144897
659.548	0.0142956
659.626	0.0144981
659.704	0.0144460
659.782	0.0142899
659.860	0.0143081
659.938	0.0143902
660.016	0.0145787
660.094	0.0144502
660.173	0.0143598
660.251	0.0143776
660.329	0.0145098
660.407	0.0144128
660.485	0.0144659
660.563	0.0144265
660.641	0.0144357
660.719	0.0145222
660.798	0.0145154
660.876	0.0145282
660.954	0.0145089
661.032	0.0145322
661.110	0.0144598
661.188	0.0144181
661.266	0.0144673
661.344	0.0144288
661.423	0.0143517
661.501	0.0144678
661.579	0.0146192
661.657	0.0144157
661.735	0.0144310
661.813	0.0143845
661.891	0.0144141
661.969	0.0144272
662.048	0.0145017
662.126	0.0144715
662.204	0.0143226
662.282	0.0143609
662.360	0.0145762
662.438	0.0144654
662.516	0.0144872
662.594	0.0144490
662.673	0.0144698
662.751	0.0144634
662.829	0.0144193
662.907	0.0145306
662.985	0.0144398
663.063	0.0144691
663.141	0.0143015
663.219	0.0144250
663.298	0.0143857
663.376	0.0143517
663.454	0.0143971
663.532	0.0144449
663.610	0.0145008
663.688	0.0144427
663.766	0.0144563
663.844	0.0145651
663.923	0.0142932
664.001	0.0143445
664.079	0.0145105
664.157	0.0144431
664.235	0.0143771
664.313	0.0143319
664.391	0.0144212
664.469	0.0143868
664.548	0.0143642
664.626	0.0144498
664.704	0.0144897
664.782	0.0143467
664.860	0.0144622
664.938	0.0144128
665.016	0.0144733
665.094	0.0144089
665.173	0.0144326
665.251	0.0144115
665.329	0.0144607
665.407	0.0144843
665.485	0.0143713
665.563	0.0143961
665.641	0.0145889
665.719	0.0143754
665.798	0.0143855
665.876	0.0143721
665.954	0.0144315
666.032	0.0143562
666.110	0.0144875
666.188	0.0145151
666.266	0.0144952
666.344	0.0145014
666.423	0.0144447
666.501	0.0143694
666.579	0.0145271
666.657	0.0144586
666.735	0.0143709
666.813	0.0144144
666.891	0.0143507
666.969	0.0143639
667.048	0.0142681
667.126	0.0144261
667.204	0.0144727
667.282	0.0143461
667.360	0.0143233
667.438	0.0143940
667.516	0.0144299
667.594	0.0144241
667.673	0.0144307
667.751	0.0144231
667.829	0.0143432
667.907	0.0144092
667.985	0.0144796
668.063	0.0144787
668.141	0.0144494
668.219	0.0143322
668.298	0.0143873
668.376	0.0144101
668.454	0.0144852
668.532	0.0144334
668.610	0.0143896
668.688	0.0143277
668.766	0.0143439
668.844	0.0144651
668.923	0.0145443
669.001	0.0143991
669.079	0.0144244
669.157	0.0144019
669.235	0.0143039
669.313	0.0144781
669.391	0.0144113
669.469	0.0143481
669.548	0.0144645
669.626	0.0143851
669.704	0.0143766
669.782	0.0143665
669.860	0.0141646
669.938	0.0143027
670.016	0.0145106
670.094	0.0144209
670.173	0.0145391
670.251	0.0144261
670.329	0.0143931
670.407	0.0143986
670.485	0.0142505
670.563	0.0144390
670.641	0.0143815
670.719	0.0143950
670.798	0.0142826
670.876	0.0144236
670.954	0.0143604
671.032	0.0144354
671.110	0.0144570
671.188	0.0144881
671.266	0.0144883
671.344	0.0144304
671.423	0.0143761
671.501	0.0143259
671.579	0.0144766
671.657	0.0145110
671.735	0.0143326
671.813	0.0143468
671.891	0.0144510
671.969	0.0144401
672.048	0.0143140
672.126	0.0145548
672.204	0.0145175
672.282	0.0144088
672.360	0.0143150
672.438	0.0144384
672.516	0.0145627
672.594	0.0145467
672.673	0.0144450
672.751	0.0144650
672.829	0.0144698
672.907	0.0144083
672.985	0.0144598
673.063	0.0144086
673.141	0.0143624
673.219	0.0144246
673.298	0.0143469
673.376	0.0143694
673.454	0.0145294
673.532	0.0143709
673.610	0.0144765
673.688	0.0144200
673.766	0.0144496
673.844	0.0143430
673.923	0.0143751
674.001	0.0143746
674.079	0.0144370
674.157	0.0143689
674.235	0.0143011
674.313	0.0143376
674.391	0.0144360
674.469	0.0144485
674.548	0.0143385
674.626	0.0144210
674.704	0.0143308
674.782	0.0144618
674.860	0.0142767
674.938	0.0143313
675.016	0.0143742
675.094	0.0141998
675.173	0.0143007
675.251	0.0143501
675.329	0.0143093
675.407	0.0142754
675.485	0.0142852
675.563	0.0144125
675.641	0.0145426
675.719	0.0144020
675.798	0.0143433
675.876	0.0141487
675.954	0.0143582
676.032	0.0144328
676.110	0.0144743
676.188	0.0143719
676.266	0.0143114
676.344	0.0142870
676.423	0.0143842
676.501	0.0144554
676.579	0.0143158
676.657	0.0143742
676.735	0.0143906
676.813	0.0145065
676.891	0.0145177
676.969	0.0143211
677.048	0.0142442
677.126	0.0142691
677.204	0.0144800
677.282	0.0143730
677.360	0.0143741
677.438	0.0143824
677.516	0.0143748
677.594	0.0142451
677.673	0.0142853
677.751	0.0142700
677.829	0.0144621
677.907	0.0143983
677.985	0.0142937
678.063	0.0143848
678.141	0.0144012
678.219	0.0143768
678.298	0.0143316
678.376	0.0143253
678.454	0.0143211
678.532	0.0143683
678.610	0.0143097
678.688	0.0143656
678.766	0.0145147
678.844	0.0143974
678.923	0.0142867
679.001	0.0143507
679.079	0.0143581
679.157	0.0143488
679.235	0.0142931
679.313	0.0143250
679.391	0.0142626
679.469	0.0144318
679.548	0.0143436
679.626	0.0144331
679.704	0.0143835
679.782	0.0143806
679.860	0.0145629
679.938	0.0144118
680.016	0.0143852
680.094	0.0144122
680.173	0.0144688
680.251	0.0144880
680.329	0.0144738
680.407	0.0144322
680.485	0.0143707
680.563	0.0143719
680.641	0.0145171
680.719	0.0143684
680.798	0.0144341
680.876	0.0144439
680.954	0.0143870
681.032	0.0144677
681.110	0.0143816
681.188	0.0143790
681.266	0.0143646
681.344	0.0143360
681.423	0.0143311
681.501	0.0143056
681.579	0.0144411
681.657	0.0144820
681.735	0.0144524
681.813	0.0142976
681.891	0.0144509
681.969	0.0144780
682.048	0.0143668
682.126	0.0143681
682.204	0.0144097
682.282	0.0142480
682.360	0.0144379
682.438	0.0143015
682.516	0.0144344
682.594	0.0146169
682.673	0.0144092
682.751	0.0144259
682.829	0.0144438
682.907	0.0144518
682.985	0.0144688
683.063	0.0144508
683.141	0.0143452
683.219	0.0143419
683.298	0.0143580
683.376	0.0143073
683.454	0.0145063
683.532	0.0144455
683.610	0.0143023
683.688	0.0144491
683.766	0.0144927
683.844	0.0145381
683.923	0.0145495
684.001	0.0146418
684.079	0.0145723
684.157	0.0145316
684.235	0.0146748
684.313	0.0145618
684.391	0.0144597
684.469	0.0143648
684.548	0.0141912
684.626	0.0140950
684.704	0.0140411
684.782	0.0139710
684.860	0.0137970
684.938	0.0139296
685.016	0.0139599
685.094	0.0138596
685.173	0.0139597
685.251	0.0140865
685.329	0.0143139
685.407	0.0145076
685.485	0.0145452
685.563	0.0147169
685.641	0.0147309
685.719	0.0148775
685.798	0.0152055
685.876	0.0152718
685.954	0.0152574
686.032	0.0153076
686.110	0.0151311
686.188	0.0148083
686.266	0.0148013
686.344	0.0145152
686.423	0.0142844
686.501	0.0139778
686.579	0.0137975
686.657	0.0135960
686.735	0.0134228
686.813	0.0133208
686.891	0.0134196
686.969	0.0133278
687.048	0.0135575
687.126	0.0136590
687.204	0.0136158
687.282	0.0138723
687.360	0.0140699
687.438	0.0139389
687.516	0.0140401
687.594	0.0142313
687.673	0.0143008
687.751	0.0144778
687.829	0.0147647
687.907	0.0147890
687.985	0.0150768
688.063	0.0152341
688.141	0.0155639
688.219	0.0157672
688.298	0.0161713
688.376	0.0163039
688.454	0.0163839
688.532	0.0165021
688.610	0.0165347
688.688	0.0164789
688.766	0.0161615
688.844	0.0159208
688.923	0.0155698
689.001	0.0151273
689.079	0.0144666
689.157	0.0139025
689.235	0.0135578
689.313	0.0129784
689.391	0.0125552
689.469	0.0120580
689.548	0.0115686
689.626	0.0113969
689.704	0.0111647
689.782	0.0110098
689.860	0.0107322
689.938	0.0107637
690.016	0.0110539
690.094	0.0109990
690.173	0.0114994
690.251	0.0118330
690.329	0.0123345
690.407	0.0128973
690.485	0.0133767
690.563	0.0140452
690.641	0.0149273
690.719	0.0155866
690.798	0.0164424
690.876	0.0173868
690.954	0.0181972
691.032	0.0188051
691.110	0.0197570
691.188	0.0203276
691.266	0.0206478
691.344	0.0207491
691.423	0.0208456
691.501	0.0207500
691.579	0.0202127
691.657	0.0196117
691.735	0.0189847
691.813	0.0179101
691.891	0.0167698
691.969	0.0158060
692.048	0.0145958
692.126	0.0133012
692.204	0.0121773
692.282	0.0110761
692.360	0.0101772
692.438	0.00925079
692.516	0.00846863
692.594	0.00762985
692.673	0.00695381
692.751	0.00661285
692.829	0.00616432
692.907	0.00609123
692.985	0.00620697
693.063	0.00644073
693.141	0.00687401
693.219	0.00762840
693.298	0.00835335
693.376	0.00935806
693.454	0.0105855
693.532	0.0121502
693.610	0.0133444
693.688	0.0148331
693.766	0.0164754
693.844	0.0178195
693.923	0.0190378
694.001	0.0202271
694.079	0.0211712
694.157	0.0220746
694.235	0.0229069
694.313	0.0233736
694.391	0.0239334
694.469	0.0241305
694.548	0.0242856
694.626	0.0242831
694.704	0.0241194
694.782	0.0235255
694.860	0.0227385
694.938	0.0217062
695.016	0.0205561
695.094	0.0191938
695.173	0.0175990
695.251	0.0159457
695.329	0.0143863
695.407	0.0127614
695.485	0.0112717
695.563	0.00990120
695.641	0.00885818
695.719	0.00786423
695.798	0.00698051
695.876	0.00633545
695.954	0.00587151
696.032	0.00559990
696.110	0.00555595
696.188	0.00552055
696.266	0.00553093
696.344	0.00545631
696.423	0.00552917
696.501	0.00557495
696.579	0.00573128
696.657	0.00599876
696.735	0.00651886
696.813	0.00740341
696.891	0.00829636
696.969	0.00950386
697.048	0.0107379
697.126	0.0123688
697.204	0.0139114
697.282	0.0154355
697.360	0.0171042
697.438	0.0185319
697.516	0.0198173
697.594	0.0208503
697.673	0.0219772
697.751	0.0227699
697.829	0.0234448
697.907	0.0236547
697.985	0.0240558
698.063	0.0244116
698.141	0.0243954
698.219	0.0245335
698.298	0.0245466
698.376	0.0244995
698.454	0.0244399
698.532	0.0240395
698.610	0.0234750
698.688	0.0227386
698.766	0.0216065
698.844	0.0203235
698.923	0.0189330
699.001	0.0172775
699.079	0.0156409
699.157	0.0138073
699.235	0.0119882
699.313	0.0104910
699.391	0.00879639
699.469	0.00738945
699.548	0.00612015
699.626	0.00518906
699.704	0.00456261
699.782	0.00407074
699.860	0.00384071
699.938	0.00378510
700.016	0.00395988
700.094	0.00417900
700.173	0.00462479
700.251	0.00502197
700.329	0.00543060
700.407	0.00590843
700.485	0.00635452
700.563	0.00692703
700.641	0.00752815
700.719	0.00850540
700.798	0.00930840
700.876	0.0101582
700.954	0.0113036
701.032	0.0123132
701.110	0.0134895
701.188	0.0147545
701.266	0.0159747
701.344	0.0171046
701.423	0.0183909
701.501	0.0194277
701.579	0.0205466
701.657	0.0216440
701.735	0.0225775
701.813	0.0233060
701.891	0.0239827
701.969	0.0248272
702.048	0.0252805
702.126	0.0254223
702.204	0.0254988
702.282	0.0255270
702.360	0.0253866
702.438	0.0250285
702.516	0.0246175
702.594	0.0238479
702.673	0.0229510
702.751	0.0218926
702.829	0.0206554
702.907	0.0192986
702.985	0.0178374
703.063	0.0162481
703.141	0.0146419
703.219	0.0129732
703.298	0.0114670
703.376	0.00989960
703.454	0.00874908
703.532	0.00731720
703.610	0.00622597
703.688	0.00544540
703.766	0.00470703
703.844	0.00396690
703.923	0.00373367
704.001	0.00359657
704.079	0.00353027
704.157	0.00353081
704.235	0.00395645
704.313	0.00431572
704.391	0.00498001
704.469	0.00569633
704.548	0.00661354
704.626	0.00764549
704.704	0.00860291
704.782	0.00971527
704.860	0.0108737
704.938	0.0121263
705.016	0.0132896
705.094	0.0143719
705.173	0.0153851
705.251	0.0163165
705.329	0.0172256
705.407	0.0179760
705.485	0.0186816
705.563	0.0193776
705.641	0.0197837
705.719	0.0202325
705.798	0.0206538
705.876	0.0209234
705.954	0.0211647
706.032	0.0214801
706.110	0.0216177
706.188	0.0216644
706.266	0.0215668
706.344	0.0215838
706.423	0.0212151
706.501	0.0208318
706.579	0.0203513
706.657	0.0198861
706.735	0.0193104
706.813	0.0186604
706.891	0.0179614
706.969	0.0170744
707.048	0.0162788
707.126	0.0154334
707.204	0.0147836
707.282	0.0141730
707.360	0.0133979
707.438	0.0129778
707.516	0.0125430
707.594	0.0120362
707.673	0.0115823
707.751	0.0114161
707.829	0.0112049
707.907	0.0110857
707.985	0.0107538
708.063	0.0103878
708.141	0.0104308
708.219	0.0103825
708.298	0.0101865
708.376	0.0100794
708.454	0.0100137
708.532	0.0101958
708.610	0.0102697
708.688	0.0104206
708.766	0.0106948
708.844	0.0108715
708.923	0.0110873
709.001	0.0113966
709.079	0.0118569
709.157	0.0122224
709.235	0.0124900
709.313	0.0128748
709.391	0.0132283
709.469	0.0134755
709.548	0.0138092
709.626	0.0140679
709.704	0.0143804
709.782	0.0146836
709.860	0.0149264
709.938	0.0153068
710.016	0.0155733
710.094	0.0157264
710.173	0.0158111
710.251	0.0161748
710.329	0.0165247
710.407	0.0164459
710.485	0.0165591
710.563	0.0167040
710.641	0.0166246
710.719	0.0166628
710.798	0.0163377
710.876	0.0160959
710.954	0.0159824
711.032	0.0158527
711.110	0.0155809
711.188	0.0154610
711.266	0.0153913
711.344	0.0152871
711.423	0.0154050
711.501	0.0154669
711.579	0.0155333
711.657	0.0155499
711.735	0.0157112
711.813	0.0157355
711.891	0.0157568
711.969	0.0158100
712.048	0.0157325
712.126	0.0157320
712.204	0.0156927
712.282	0.0155620
712.360	0.0153701
712.438	0.0154155
712.516	0.0153682
712.594	0.0152542
712.673	0.0149799
712.751	0.0146416
712.829	0.0144736
712.907	0.0143548
712.985	0.0142422
713.063	0.0141428
713.141	0.0138428
713.219	0.0135357
713.298	0.0134428
713.376	0.0133232
713.454	0.0129813
713.532	0.0129639
713.610	0.0130418
713.688	0.0130091
713.766	0.0128725
713.844	0.0127976
713.923	0.0129051
714.001	0.0131106
714.079	0.0129690
714.157	0.0130083
714.235	0.0131038
714.313	0.0132519
714.391	0.0131766
714.469	0.0131558
714.548	0.0130344
714.626	0.0128941
714.704	0.0127860
714.782	0.0127336
714.860	0.0129066
714.938	0.0127180
715.016	0.0126841
715.094	0.0129450
715.173	0.0129880
715.251	0.0132600
715.329	0.0133117
715.407	0.0134502
715.485	0.0138979
715.563	0.0139526
715.641	0.0141496
715.719	0.0145333
715.798	0.0143867
715.876	0.0144003
715.954	0.0146826
716.032	0.0148074
716.110	0.0148874
716.188	0.0150372
716.266	0.0153572
716.344	0.0154950
716.423	0.0156889
716.501	0.0158422
716.579	0.0160252
716.657	0.0162875
716.735	0.0163926
716.813	0.0164568
716.891	0.0165012
716.969	0.0165537
717.048	0.0167865
717.126	0.0167108
717.204	0.0165425
717.282	0.0164418
717.360	0.0163274
717.438	0.0161156
717.516	0.0158990
717.594	0.0156631
717.673	0.0155328
717.751	0.0153875
717.829	0.0151815
717.907	0.0152846
717.985	0.0152500
718.063	0.0151751
718.141	0.0152435
718.219	0.0150150
718.298	0.0149892
718.376	0.0149227
718.454	0.0149022
718.532	0.0146521
718.610	0.0143809
718.688	0.0143684
718.766	0.0141827
718.844	0.0138862
718.923	0.0136785
719.001	0.0136256
719.079	0.0132906
719.157	0.0132798
719.235	0.0133091
719.313	0.0131516
719.391	0.0129768
719.469	0.0130389
719.548	0.0130871
719.626	0.0130917
719.704	0.0131136
719.782	0.0129287
719.860	0.0131170
719.938	0.0129646
720.016	0.0130373
720.094	0.0129254
720.173	0.0126899
720.251	0.0127428
720.329	0.0127110
720.407	0.0127576
720.485	0.0126862
720.563	0.0126058
720.641	0.0126505
720.719	0.0127484
720.798	0.0127628
720.876	0.0129720
720.954	0.0131169
721.032	0.0133411
721.110	0.0134715
721.188	0.0137087
721.266	0.0141277
721.344	0.0144810
721.423	0.0145911
721.501	0.0148315
721.579	0.0151094
721.657	0.0153992
721.735	0.0157401
721.813	0.0158681
721.891	0.0161411
721.969	0.0161741
722.048	0.0164426
722.126	0.0165612
722.204	0.0165295
722.282	0.0166235
722.360	0.0168140
722.438	0.0167892
722.516	0.0166872
722.594	0.0165012
722.673	0.0163314
722.751	0.0162106
722.829	0.0158918
722.907	0.0157331
722.985	0.0155025
723.063	0.0153491
723.141	0.0152003
723.219	0.0149112
723.298	0.0150017
723.376	0.0148167
723.454	0.0146201
723.532	0.0147263
723.610	0.0145032
723.688	0.0145090
723.766	0.0146053
723.844	0.0145554
723.923	0.0145964
724.001	0.0146290
724.079	0.0145148
724.157	0.0145705
724.235	0.0143420
724.313	0.0144485
724.391	0.0143420
724.469	0.0141822
724.548	0.0142246
724.626	0.0142164
724.704	0.0141711
724.782	0.0139413
724.860	0.0139198
724.938	0.0137798
725.016	0.0135921
725.094	0.0134996
725.173	0.0132565
725.251	0.0132395
725.329	0.0132536
725.407	0.0130524
725.485	0.0130630
725.563	0.0132532
725.641	0.0132332
725.719	0.0132800
725.798	0.0131503
725.876	0.0133075
725.954	0.0134809
726.032	0.0133717
726.110	0.0136285
726.188	0.0134951
726.266	0.0135108
726.344	0.0135252
726.423	0.0136319
726.501	0.0135514
726.579	0.0136089
726.657	0.0134494
726.735	0.0133560
726.813	0.0135055
726.891	0.0135828
726.969	0.0137283
727.048	0.0137379
727.126	0.0139148
727.204	0.0139163
727.282	0.0140910
727.360	0.0142548
727.438	0.0143867
727.516	0.0147334
727.594	0.0149318
727.673	0.0149348
727.751	0.0150897
727.829	0.0151723
727.907	0.0152260
727.985	0.0151863
728.063	0.0153182
728.141	0.0153728
728.219	0.0154346
728.298	0.0154231
728.376	0.0156076
728.454	0.0156980
728.532	0.0158520
728.610	0.0159138
728.688	0.0159790
728.766	0.0159418
728.844	0.0160465
728.923	0.0160161
729.001	0.0160514
729.079	0.0159883
729.157	0.0158530
729.235	0.0158971
729.313	0.0159744
729.391	0.0158179
729.469	0.0157173
729.548	0.0155710
729.626	0.0154815
729.704	0.0154442
729.782	0.0152243
729.860	0.0150533
729.938	0.0147723
730.016	0.0148079
730.094	0.0147626
730.173	0.0143917
730.251	0.0143098
730.329	0.0141285
730.407	0.0139171
730.485	0.0134870
730.563	0.0134781
730.641	0.0135385
730.719	0.0132404
730.798	0.0131619
730.876	0.0129296
730.954	0.0128969
731.032	0.0129436
731.110	0.0128860
731.188	0.0128184
731.266	0.0127083
731.344	0.0128613
731.423	0.0129585
731.501	0.0130403
731.579	0.0129258
731.657	0.0129419
731.735	0.0130408
731.813	0.0129844
731.891	0.0130994
731.969	0.0129527
732.048	0.0130515
732.126	0.0131596
732.204	0.0130505
732.282	0.0128651
732.360	0.0131342
732.438	0.0130981
732.516	0.0132465
732.594	0.0133724
732.673	0.0133616
732.751	0.0137985
732.829	0.0139792
732.907	0.0139249
732.985	0.0142648
733.063	0.0144728
733.141	0.0148589
733.219	0.0149104
733.298	0.0150684
733.376	0.0152648
733.454	0.0153751
733.532	0.0155833
733.610	0.0159852
733.688	0.0158742
733.766	0.0160553
733.844	0.0160951
733.923	0.0161010
734.001	0.0161373
734.079	0.0162534
734.157	0.0162631
734.235	0.0162315
734.313	0.0162546
734.391	0.0161349
734.469	0.0162236
734.548	0.0159935
734.626	0.0159151
734.704	0.0158123
734.782	0.0156487
734.860	0.0156673
734.938	0.0154555
735.016	0.0153278
735.094	0.0153374
735.173	0.0152319
735.251	0.0149401
735.329	0.0147842
735.407	0.0147190
735.485	0.0146259
735.563	0.0144575
735.641	0.0141653
735.719	0.0141003
735.798	0.0139252
735.876	0.0136103
735.954	0.0135878
736.032	0.0135338
736.110	0.0133393
736.188	0.0131356
736.266	0.0130923
736.344	0.0131310
736.423	0.0130908
736.501	0.0130290
736.579	0.0130474
736.657	0.0131181
736.735	0.0131477
736.813	0.0131340
736.891	0.0132417
736.969	0.0131376
737.048	0.0131776
737.126	0.0131509
737.204	0.0134534
737.282	0.0133928
737.360	0.0133832
737.438	0.0135990
737.516	0.0136862
737.594	0.0137535
737.673	0.0137655
737.751	0.0139602
737.829	0.0142794
737.907	0.0141653
737.985	0.0142664
738.063	0.0144244
738.141	0.0144171
738.219	0.0145100
738.298	0.0146243
738.376	0.0145663
738.454	0.0146304
738.532	0.0147456
738.610	0.0145361
738.688	0.0147375
738.766	0.0148003
738.844	0.0147935
738.923	0.0146922
739.001	0.0147413
739.079	0.0147145
739.157	0.0149016
739.235	0.0148962
739.313	0.0148599
739.391	0.0148707
739.469	0.0147516
739.548	0.0147740
739.626	0.0148306
739.704	0.0148207
739.782	0.0148448
739.860	0.0147285
739.938	0.0148024
740.016	0.0148734
740.094	0.0149360
740.173	0.0149844
740.251	0.0149513
740.329	0.0150430
740.407	0.0150877
740.485	0.0150349
740.563	0.0151244
740.641	0.0151335
740.719	0.0151412
740.798	0.0150942
740.876	0.0151022
740.954	0.0150195
741.032	0.0150174
741.110	0.0149137
741.188	0.0148767
741.266	0.0148248
741.344	0.0145754
741.423	0.0145116
741.501	0.0144429
741.579	0.0143843
741.657	0.0142986
741.735	0.0140932
741.813	0.0141212
741.891	0.0141576
741.969	0.0140274
742.048	0.0139613
742.126	0.0139224
742.204	0.0139465
742.282	0.0138985
742.360	0.0138924
742.438	0.0140221
742.516	0.0139903
742.594	0.0139880
742.673	0.0140450
742.751	0.0141313
742.829	0.0140627
742.907	0.0142378
742.985	0.0141917
743.063	0.0141260
743.141	0.0142171
743.219	0.0143411
743.298	0.0143768
743.376	0.0143353
743.454	0.0143256
743.532	0.0142245
743.610	0.0141211
743.688	0.0141811
743.766	0.0141917
743.844	0.0141679
743.923	0.0140742
744.001	0.0142318
744.079	0.0141399
744.157	0.0142236
744.235	0.0143845
744.313	0.0143452
744.391	0.0142697
744.469	0.0143869
744.548	0.0143897
744.626	0.0143564
744.704	0.0142029
744.782	0.0142093
744.860	0.0142831
744.938	0.0142976
745.016	0.0143726
745.094	0.0142772
745.173	0.0143664
745.251	0.0143568
745.329	0.0143768
745.407	0.0143981
745.485	0.0143813
745.563	0.0143887
745.641	0.0144577
745.719	0.0145591
745.798	0.0146244
745.876	0.0146063
745.954	0.0146716
746.032	0.0146513
746.110	0.0146472
746.188	0.0146770
746.266	0.0147551
746.344	0.0147332
746.423	0.0147961
746.501	0.0145955
746.579	0.0146947
746.657	0.0147291
746.735	0.0147240
746.813	0.0148434
746.891	0.0147845
746.969	0.0146828
747.048	0.0148650
747.126	0.0147270
747.204	0.0147221
747.282	0.0147968
747.360	0.0148133
747.438	0.0148210
747.516	0.0148225
747.594	0.0146519
747.673	0.0145246
747.751	0.0145814
747.829	0.0145724
747.907	0.0147076
747.985	0.0145042
748.063	0.0144810
748.141	0.0146463
748.219	0.0144271
748.298	0.0144292
748.376	0.0141433
748.454	0.0142590
748.532	0.0142907
748.610	0.0140649
748.688	0.0140981
748.766	0.0139751
748.844	0.0139784
748.923	0.0141132
749.001	0.0140075
749.079	0.0140654
749.157	0.0139034
749.235	0.0140003
749.313	0.0139936
749.391	0.0141606
749.469	0.0141209
749.548	0.0141909
749.626	0.0143408
749.704	0.0144947
749.782	0.0143716
749.860	0.0144903
749.938	0.0143143
750.016	0.0145725
750.094	0.0146073
750.173	0.0146722
750.251	0.0145165
750.329	0.0146371
750.407	0.0145833
750.485	0.0145827
750.563	0.0146172
750.641	0.0147435
750.719	0.0146532
750.798	0.0147549
750.876	0.0146754
750.954	0.0145973
751.032	0.0146465
751.110	0.0145983
751.188	0.0144703
751.266	0.0145578
751.344	0.0144689
751.423	0.0144019
751.501	0.0142151
751.579	0.0141799
751.657	0.0142166
751.735	0.0141307
751.813	0.0142137
751.891	0.0141252
751.969	0.0140435
752.048	0.0140295
752.126	0.0138850
752.204	0.0138921
752.282	0.0139726
752.360	0.0138695
752.438	0.0138344
752.516	0.0139574
752.594	0.0139764
752.673	0.0139758
752.751	0.0138932
752.829	0.0141137
752.907	0.0140674
752.985	0.0139637
753.063	0.0142204
753.141	0.0140875
753.219	0.0141373
753.298	0.0142596
753.376	0.0144497
753.454	0.0144914
753.532	0.0145501
753.610	0.0146842
753.688	0.0146149
753.766	0.0146873
753.844	0.0147606
753.923	0.0147352
754.001	0.0147131
754.079	0.0147558
754.157	0.0148942
754.235	0.0148462
754.313	0.0148941
754.391	0.0149059
754.469	0.0147533
754.548	0.0149153
754.626	0.0147853
754.704	0.0147974
754.782	0.0148901
754.860	0.0147893
754.938	0.0148158
755.016	0.0147311
755.094	0.0146490
755.173	0.0148055
755.251	0.0148715
755.329	0.0149480
755.407	0.0147041
755.485	0.0148366
755.563	0.0147484
755.641	0.0146610
755.719	0.0147148
755.798	0.0147157
755.876	0.0146947
755.954	0.0146995
756.032	0.0145747
756.110	0.0144177
756.188	0.0145509
756.266	0.0144931
756.344	0.0143264
756.423	0.0141866
756.501	0.0140433
756.579	0.0140086
756.657	0.0139063
756.735	0.0137552
756.813	0.0136485
756.891	0.0134718
756.969	0.0134089
757.048	0.0133234
757.126	0.0133317
757.204	0.0134102
757.282	0.0133530
757.360	0.0131403
757.438	0.0133207
757.516	0.0135430
757.594	0.0134711
757.673	0.0135916
757.751	0.0136279
757.829	0.0136961
757.907	0.0139862
757.985	0.0140714
758.063	0.0140542
758.141	0.0142678
758.219	0.0143259
758.298	0.0143482
758.376	0.0146381
758.454	0.0145464
758.532	0.0145936
758.610	0.0146812
758.688	0.0146059
758.766	0.0146897
758.844	0.0147756
758.923	0.0145662
759.001	0.0147552
759.079	0.0146592
759.157	0.0146438
759.235	0.0145875
759.313	0.0145898
759.391	0.0145058
759.469	0.0143902
759.548	0.0144247
759.626	0.0143002
759.704	0.0142969
759.782	0.0143201
759.860	0.0141973
759.938	0.0142261
760.016	0.0143539
760.094	0.0142983
760.173	0.0143684
760.251	0.0145074
760.329	0.0145415
760.407	0.0146036
760.485	0.0147840
760.563	0.0148882
760.641	0.0149069
760.719	0.0148693
760.798	0.0150152
760.876	0.0151122
760.954	0.0149487
761.032	0.0149953
761.110	0.0151022
761.188	0.0151405
761.266	0.0150899
761.344	0.0149590
761.423	0.0150620
761.501	0.0150597
761.579	0.0150083
761.657	0.0148396
761.735	0.0146919
761.813	0.0147631
761.891	0.0144672
761.969	0.0144236
762.048	0.0142635
762.126	0.0141660
762.204	0.0141576
762.282	0.0139987
762.360	0.0141662
762.438	0.0141443
762.516	0.0140318
762.594	0.0138980
762.673	0.0138933
762.751	0.0139441
762.829	0.0138744
762.907	0.0138823
762.985	0.0139388
763.063	0.0138232
763.141	0.0137720
763.219	0.0137556
763.298	0.0138715
763.376	0.0137936
763.454	0.0139648
763.532	0.0137475
763.610	0.0139203
763.688	0.0139064
763.766	0.0139469
763.844	0.0139977
763.923	0.0141640
764.001	0.0140599
764.079	0.0141720
764.157	0.0142638
764.235	0.0141899
764.313	0.0142393
764.391	0.0144176
764.469	0.0144929
764.548	0.0144416
764.626	0.0143432
764.704	0.0144866
764.782	0.0144402
764.860	0.0143237
764.938	0.0144848
765.016	0.0146195
765.094	0.0144143
765.173	0.0143923
765.251	0.0143813
765.329	0.0144185
765.407	0.0145321
765.485	0.0144554
765.563	0.0143666
765.641	0.0145047
765.719	0.0144797
765.798	0.0144734
765.876	0.0145039
765.954	0.0144313
766.032	0.0144087
766.110	0.0144853
766.188	0.0146302
766.266	0.0145744
766.344	0.0144070
766.423	0.0146115
766.501	0.0146268
766.579	0.0146555
766.657	0.0146399
766.735	0.0148158
766.813	0.0149049
766.891	0.0147688
766.969	0.0147795
767.048	0.0149046
767.126	0.0149352
767.204	0.0148577
767.282	0.0149441
767.360	0.0148149
767.438	0.0147719
767.516	0.0147644
767.594	0.0148089
767.673	0.0147076
767.751	0.0147073
767.829	0.0145499
767.907	0.0146077
767.985	0.0145999
768.063	0.0144894
768.141	0.0144519
768.219	0.0143317
768.298	0.0145151
768.376	0.0144387
768.454	0.0141464
768.532	0.0141402
768.610	0.0142280
768.688	0.0143121
768.766	0.0142780
768.844	0.0143066
768.923	0.0141654
769.001	0.0141333
769.079	0.0141583
769.157	0.0141779
769.235	0.0141595
769.313	0.0141767
769.391	0.0143123
769.469	0.0142094
769.548	0.0142705
769.626	0.0141169
769.704	0.0142738
769.782	0.0142928
769.860	0.0142659
769.938	0.0144246
770.016	0.0144231
770.094	0.0143623
770.173	0.0142641
770.251	0.0143778
770.329	0.0144076
770.407	0.0143676
770.485	0.0144434
770.563	0.0144804
770.641	0.0144674
770.719	0.0142638
770.798	0.0143331
770.876	0.0144052
770.954	0.0142079
771.032	0.0142683
771.110	0.0143137
771.188	0.0143138
771.266	0.0142767
771.344	0.0140751
771.423	0.0141626
771.501	0.0142636
771.579	0.0141645
771.657	0.0142214
771.735	0.0140663
771.813	0.0140874
771.891	0.0140966
771.969	0.0141690
772.048	0.0141014
772.126	0.0141362
772.204	0.0142420
772.282	0.0141359
772.360	0.0143069
772.438	0.0144093
772.516	0.0143494
772.594	0.0143497
772.673	0.0144469
772.751	0.0145194
772.829	0.0144281
772.907	0.0146665
772.985	0.0147528
773.063	0.0145865
773.141	0.0148466
773.219	0.0148605
773.298	0.0148717
773.376	0.0149255
773.454	0.0150330
773.532	0.0151264
773.610	0.0151097
773.688	0.0150346
773.766	0.0151153
773.844	0.0150532
773.923	0.0149751
774.001	0.0150118
774.079	0.0149102
774.157	0.0148679
774.235	0.0147862
774.313	0.0146696
774.391	0.0145564
774.469	0.0145798
774.548	0.0143311
774.626	0.0143927
774.704	0.0141726
774.782	0.0142152
774.860	0.0141709
774.938	0.0139741
775.016	0.0140639
775.094	0.0140406
775.173	0.0140465
775.251	0.0140400
775.329	0.0139236
775.407	0.0139943
775.485	0.0138679
775.563	0.0140604
775.641	0.0140469
775.719	0.0139257
775.798	0.0140096
775.876	0.0139730
775.954	0.0139864
776.032	0.0142255
776.110	0.0141145
776.188	0.0140883
776.266	0.0142496
776.344	0.0142882
776.423	0.0143336
776.501	0.0144341
776.579	0.0144705
776.657	0.0144231
776.735	0.0144923
776.813	0.0144108
776.891	0.0144915
776.969	0.0144628
777.048	0.0144585
777.126	0.0143719
777.204	0.0143973
777.282	0.0144691
777.360	0.0143983
777.438	0.0144298
777.516	0.0142192
777.594	0.0142708
777.673	0.0143066
777.751	0.0143386
777.829	0.0143847
777.907	0.0145462
777.985	0.0144450
778.063	0.0144572
778.141	0.0144209
778.219	0.0144506
778.298	0.0144097
778.376	0.0144700
778.454	0.0143456
778.532	0.0144494
778.610	0.0144537
778.688	0.0144531
778.766	0.0143861
778.844	0.0144008
778.923	0.0144934
779.001	0.0144563
779.079	0.0143670
779.157	0.0143752
779.235	0.0143453
779.313	0.0144206
779.391	0.0144830
779.469	0.0144347
779.548	0.0141644
779.626	0.0142271
779.704	0.0143642
779.782	0.0144059
779.860	0.0142118
779.938	0.0142731
780.016	0.0142506
780.094	0.0142215
780.173	0.0143839
780.251	0.0142856
780.329	0.0142439
780.407	0.0143457
780.485	0.0144168
780.563	0.0144015
780.641	0.0144663
780.719	0.0144112
780.798	0.0145753
780.876	0.0144909
780.954	0.0144869
781.032	0.0144537
781.110	0.0144678
781.188	0.0146524
781.266	0.0146587
781.344	0.0145007
781.423	0.0145834
781.501	0.0145760
781.579	0.0146679
781.657	0.0146888
781.735	0.0148048
781.813	0.0146290
781.891	0.0145864
781.969	0.0145780
782.048	0.0145705
782.126	0.0145444
782.204	0.0143840
782.282	0.0143530
782.360	0.0142205
782.438	0.0142949
782.516	0.0143504
782.594	0.0143324
782.673	0.0143049
782.751	0.0142714
782.829	0.0141268
782.907	0.0141548
782.985	0.0140984
783.063	0.0141671
783.141	0.0139765
783.219	0.0140615
783.298	0.0140231
783.376	0.0140580
783.454	0.0138641
783.532	0.0138940
783.610	0.0138268
783.688	0.0138932
783.766	0.0139513
783.844	0.0138551
783.923	0.0139115
784.001	0.0140807
784.079	0.0139057
784.157	0.0140762
784.235	0.0141666
784.313	0.0142820
784.391	0.0142831
784.469	0.0143822
784.548	0.0143711
784.626	0.0145490
784.704	0.0146207
784.782	0.0146137
784.860	0.0146118
784.938	0.0146750
785.016	0.0147749
785.094	0.0147733
785.173	0.0147772
785.251	0.0148001
785.329	0.0147666
785.407	0.0147434
785.485	0.0147598
785.563	0.0147781
785.641	0.0147652
785.719	0.0148040
785.798	0.0146420
785.876	0.0147260
785.954	0.0145905
786.032	0.0145184
786.110	0.0145311
786.188	0.0143052
786.266	0.0142085
786.344	0.0143114
786.423	0.0143244
786.501	0.0142506
786.579	0.0142277
786.657	0.0142334
786.735	0.0140711
786.813	0.0140677
786.891	0.0140900
786.969	0.0142200
787.048	0.0143511
787.126	0.0142616
787.204	0.0143910
787.282	0.0143555
787.360	0.0145237
787.438	0.0146606
787.516	0.0146864
787.594	0.0145906
787.673	0.0147044
787.751	0.0148667
787.829	0.0148212
787.907	0.0149767
787.985	0.0148693
788.063	0.0148269
788.141	0.0148705
788.219	0.0147644
788.298	0.0146778
788.376	0.0146174
788.454	0.0145576
788.532	0.0145303
788.610	0.0143308
788.688	0.0142490
788.766	0.0139949
788.844	0.0139528
788.923	0.0140370
789.001	0.0137157
789.079	0.0135370
789.157	0.0136172
789.235	0.0135426
789.313	0.0136971
789.391	0.0137254
789.469	0.0137424
789.548	0.0138468
789.626	0.0137795
789.704	0.0139063
789.782	0.0140778
789.860	0.0141605
789.938	0.0141576
790.016	0.0143036
790.094	0.0144095
790.173	0.0145399
790.251	0.0146701
790.329	0.0148226
790.407	0.0149187
790.485	0.0150722
790.563	0.0151334
790.641	0.0152532
790.719	0.0154816
790.798	0.0155019
790.876	0.0156348
790.954	0.0156911
791.032	0.0156528
791.110	0.0157980
791.188	0.0157706
791.266	0.0157380
791.344	0.0156488
791.423	0.0155163
791.501	0.0153380
791.579	0.0152486
791.657	0.0151273
791.735	0.0149709
791.813	0.0147088
791.891	0.0144643
791.969	0.0142799
792.048	0.0141437
792.126	0.0139079
792.204	0.0136424
792.282	0.0135087
792.360	0.0133598
792.438	0.0131901
792.516	0.0129613
792.594	0.0131703
792.673	0.0129698
792.751	0.0128967
792.829	0.0129172
792.907	0.0130220
792.985	0.0128578
793.063	0.0128947
793.141	0.0130277
793.219	0.0131320
793.298	0.0132328
793.376	0.0134501
793.454	0.0137939
793.532	0.0138299
793.610	0.0138068
793.688	0.0143147
793.766	0.0142972
793.844	0.0145630
793.923	0.0147234
794.001	0.0147795
794.079	0.0149879
794.157	0.0151759
794.235	0.0152530
794.313	0.0153268
794.391	0.0155623
794.469	0.0157141
794.548	0.0158440
794.626	0.0159859
794.704	0.0160390
794.782	0.0161930
794.860	0.0161241
794.938	0.0161403
795.016	0.0161462
795.094	0.0160925
795.173	0.0161573
795.251	0.0158891
795.329	0.0156931
795.407	0.0155081
795.485	0.0153911
795.563	0.0151045
795.641	0.0150483
795.719	0.0145792
795.798	0.0144468
795.876	0.0142842
795.954	0.0139206
796.032	0.0136763
796.110	0.0135902
796.188	0.0132953
796.266	0.0131984
796.344	0.0131273
796.423	0.0129520
796.501	0.0129407
796.579	0.0129972
796.657	0.0127209
796.735	0.0128561
796.813	0.0127940
796.891	0.0129671
796.969	0.0129179
797.048	0.0130383
797.126	0.0132609
797.204	0.0132985
797.282	0.0134661
797.360	0.0136308
797.438	0.0139014
797.516	0.0141028
797.594	0.0141571
797.673	0.0144238
797.751	0.0145319
797.829	0.0146144
797.907	0.0148276
797.985	0.0150155
798.063	0.0150751
798.141	0.0152613
798.219	0.0153252
798.298	0.0153370
798.376	0.0155576
798.454	0.0156586
798.532	0.0156077
798.610	0.0156908
798.688	0.0157158
798.766	0.0157478
798.844	0.0156237
798.923	0.0156763
799.001	0.0158260
799.079	0.0156852
799.157	0.0155175
799.235	0.0154490
799.313	0.0153804
799.391	0.0152539
799.469	0.0149519
799.548	0.0147022
799.626	0.0146677
799.704	0.0144891
799.782	0.0142402
799.860	0.0141454
799.938	0.0139692
800.016	0.0137136
800.094	0.0137103
800.173	0.0135426
800.251	0.0135087
800.329	0.0134577
800.407	0.0132556
800.485	0.0131490
800.563	0.0131325
800.641	0.0131370
800.719	0.0131183
800.798	0.0131538
800.876	0.0132753
800.954	0.0133334
801.032	0.0133076
801.110	0.0134714
801.188	0.0135155
801.266	0.0137718
801.344	0.0138047
801.423	0.0140556
801.501	0.0141086
801.579	0.0143469
801.657	0.0144345
801.735	0.0144778
801.813	0.0146150
801.891	0.0146043
801.969	0.0147083
802.048	0.0149315
802.126	0.0149108
802.204	0.0151337
802.282	0.0151629
802.360	0.0150941
802.438	0.0152885
802.516	0.0153426
802.594	0.0152186
802.673	0.0153751
802.751	0.0154356
802.829	0.0154542
802.907	0.0153143
802.985	0.0154060
803.063	0.0154144
803.141	0.0154006
803.219	0.0152925
803.298	0.0154380
803.376	0.0152598
803.454	0.0151934
803.532	0.0151859
803.610	0.0149932
803.688	0.0149400
803.766	0.0149381
803.844	0.0148337
803.923	0.0146443
804.001	0.0146358
804.079	0.0146844
804.157	0.0144772
804.235	0.0144093
804.313	0.0141685
804.391	0.0140288
804.469	0.0141433
804.548	0.0139594
804.626	0.0139394
804.704	0.0138095
804.782	0.0137230
804.860	0.0136589
804.938	0.0137386
805.016	0.0136887
805.094	0.0135278
805.173	0.0134667
805.251	0.0133833
805.329	0.0134203
805.407	0.0135748
805.485	0.0136136
805.563	0.0134448
805.641	0.0135735
805.719	0.0136063
805.798	0.0136745
805.876	0.0136884
805.954	0.0136929
806.032	0.0138144
806.110	0.0139628
806.188	0.0141181
806.266	0.0141307
806.344	0.0142220
806.423	0.0143942
806.501	0.0143573
806.579	0.0144930
806.657	0.0146909
806.735	0.0145734
806.813	0.0147285
806.891	0.0148842
806.969	0.0147805
807.048	0.0148811
807.126	0.0148132
807.204	0.0149837
807.282	0.0147939
807.360	0.0149290
807.438	0.0149948
807.516	0.0149683
807.594	0.0148153
807.673	0.0148973
807.751	0.0149555
807.829	0.0146935
807.907	0.0148278
807.985	0.0147303
808.063	0.0146436
808.141	0.0146124
808.219	0.0147420
808.298	0.0147052
808.376	0.0145918
808.454	0.0146725
808.532	0.0146448
808.610	0.0145573
808.688	0.0144302
808.766	0.0145144
808.844	0.0145047
808.923	0.0144115
809.001	0.0146151
809.079	0.0145879
809.157	0.0144398
809.235	0.0144544
809.313	0.0145287
809.391	0.0145776
809.469	0.0143607
809.548	0.0144017
809.626	0.0143581
809.704	0.0142722
809.782	0.0143396
809.860	0.0141672
809.938	0.0142782
810.016	0.0141437
810.094	0.0140715
810.173	0.0140873
810.251	0.0139653
810.329	0.0139729
810.407	0.0139587
810.485	0.0139605
810.563	0.0140680
810.641	0.0139989
810.719	0.0139411
810.798	0.0139841
810.876	0.0141022
810.954	0.0141779
811.032	0.0139864
811.110	0.0142263
811.188	0.0143977
811.266	0.0144590
811.344	0.0145565
811.423	0.0143919
811.501	0.0145148
811.579	0.0145931
811.657	0.0144422
811.735	0.0146653
811.813	0.0145868
811.891	0.0146845
811.969	0.0146450
812.048	0.0145358
812.126	0.0146352
812.204	0.0148037
812.282	0.0145631
812.360	0.0145004
812.438	0.0144982
812.516	0.0145080
812.594	0.0145171
812.673	0.0143591
812.751	0.0143917
812.829	0.0144859
812.907	0.0143250
812.985	0.0142676
813.063	0.0142673
813.141	0.0142776
813.219	0.0143921
813.298	0.0143217
813.376	0.0143600
813.454	0.0145219
813.532	0.0144529
813.610	0.0144250
813.688	0.0145250
813.766	0.0147108
813.844	0.0146497
813.923	0.0146554
814.001	0.0146011
814.079	0.0147339
814.157	0.0146105
814.235	0.0146925
814.313	0.0146703
814.391	0.0145652
814.469	0.0146677
814.548	0.0146783
814.626	0.0146693
814.704	0.0145184
814.782	0.0144738
814.860	0.0145216
814.938	0.0146371
815.016	0.0146176
815.094	0.0144830
815.173	0.0145972
815.251	0.0146873
815.329	0.0145892
815.407	0.0144885
815.485	0.0145210
815.563	0.0144648
815.641	0.0146490
815.719	0.0144364
815.798	0.0145214
815.876	0.0144353
815.954	0.0143819
816.032	0.0144212
816.110	0.0144482
816.188	0.0143379
816.266	0.0142427
816.344	0.0142571
816.423	0.0142258
816.501	0.0141115
816.579	0.0140194
816.657	0.0141603
816.735	0.0139174
816.813	0.0139339
816.891	0.0138281
816.969	0.0140790
817.048	0.0139608
817.126	0.0139093
817.204	0.0138445
817.282	0.0138895
817.360	0.0138923
817.438	0.0139404
817.516	0.0140244
817.594	0.0140985
817.673	0.0141148
817.751	0.0140129
817.829	0.0142842
817.907	0.0144219
817.985	0.0144368
818.063	0.0144484
818.141	0.0146094
818.219	0.0145757
818.298	0.0146509
818.376	0.0147672
818.454	0.0147915
818.532	0.0149152
818.610	0.0150448
818.688	0.0148557
818.766	0.0149467
818.844	0.0149781
818.923	0.0149602
819.001	0.0150368
819.079	0.0149654
819.157	0.0148209
819.235	0.0150606
819.313	0.0149861
819.391	0.0147919
819.469	0.0148488
819.548	0.0148650
819.626	0.0145650
819.704	0.0145518
819.782	0.0147201
819.860	0.0146390
819.938	0.0145787
820.016	0.0145075
820.094	0.0145889
820.173	0.0147243
820.251	0.0145282
820.329	0.0145134
820.407	0.0144636
820.485	0.0145486
820.563	0.0144305
820.641	0.0144872
820.719	0.0145503
820.798	0.0144956
820.876	0.0144016
820.954	0.0143707
821.032	0.0141928
821.110	0.0142049
821.188	0.0141215
821.266	0.0140816
821.344	0.0140165
821.423	0.0138911
821.501	0.0138056
821.579	0.0136698
821.657	0.0137820
821.735	0.0137363
821.813	0.0135825
821.891	0.0136604
821.969	0.0137049
822.048	0.0136900
822.126	0.0138065
822.204	0.0136996
822.282	0.0137784
822.360	0.0139252
822.438	0.0140839
822.516	0.0141256
822.594	0.0140963
822.673	0.0142967
822.751	0.0143442
822.829	0.0144181
822.907	0.0142955
822.985	0.0146295
823.063	0.0146759
823.141	0.0147475
823.219	0.0147456
823.298	0.0147894
823.376	0.0149696
823.454	0.0149876
823.532	0.0148345
823.610	0.0147952
823.688	0.0149438
823.766	0.0148512
823.844	0.0148070
823.923	0.0148005
824.001	0.0147520
824.079	0.0147344
824.157	0.0147195
824.235	0.0146451
824.313	0.0147355
824.391	0.0146075
824.469	0.0146075
824.548	0.0145850
824.626	0.0146277
824.704	0.0146501
824.782	0.0147426
824.860	0.0146662
824.938	0.0146085
825.016	0.0147615
825.094	0.0147781
825.173	0.0146829
825.251	0.0148505
825.329	0.0148023
825.407	0.0147493
825.485	0.0148418
825.563	0.0147749
825.641	0.0148270
825.719	0.0147295
825.798	0.0147527
825.876	0.0146680
825.954	0.0145856
826.032	0.0144240
826.110	0.0145438
826.188	0.0144865
826.266	0.0143805
826.344	0.0143861
826.423	0.0142601
826.501	0.0142950
826.579	0.0142812
826.657	0.0141624
826.735	0.0141088
826.813	0.0142521
826.891	0.0141315
826.969	0.0141061
827.048	0.0139739
827.126	0.0142227
827.204	0.0139812
827.282	0.0140574
827.360	0.0140405
827.438	0.0140888
827.516	0.0139481
827.594	0.0140282
827.673	0.0139808
827.751	0.0140202
827.829	0.0140573
827.907	0.0139951
827.985	0.0141004
828.063	0.0142348
828.141	0.0141403
828.219	0.0141220
828.298	0.0141891
828.376	0.0142415
828.454	0.0142346
828.532	0.0141635
828.610	0.0143625
828.688	0.0143076
828.766	0.0143668
828.844	0.0144998
828.923	0.0144706
829.001	0.0144166
829.079	0.0143954
829.157	0.0144090
829.235	0.0143473
829.313	0.0146104
829.391	0.0145665
829.469	0.0145999
829.548	0.0145129
829.626	0.0146163
829.704	0.0145135
829.782	0.0146956
829.860	0.0145626
829.938	0.0146359
830.016	0.0144858
830.094	0.0144963
830.173	0.0146032
830.251	0.0144720
830.329	0.0146452
830.407	0.0145519
830.485	0.0145305
830.563	0.0145258
830.641	0.0145000
830.719	0.0145128
830.798	0.0146727
830.876	0.0145644
830.954	0.0145537
831.032	0.0145237
831.110	0.0144633
831.188	0.0146017
831.266	0.0146225
831.344	0.0145488
831.423	0.0145019
831.501	0.0145161
831.579	0.0144213
831.657	0.0145634
831.735	0.0146301
831.813	0.0145306
831.891	0.0145194
831.969	0.0145309
832.048	0.0144640
832.126	0.0143252
832.204	0.0144771
832.282	0.0143508
832.360	0.0144343
832.438	0.0143565
832.516	0.0143098
832.594	0.0144062
832.673	0.0141902
832.751	0.0142562
832.829	0.0143048
832.907	0.0142495
832.985	0.0141394
833.063	0.0140143
833.141	0.0141358
833.219	0.0140546
833.298	0.0140583
833.376	0.0140203
833.454	0.0138808
833.532	0.0139535
833.610	0.0140087
833.688	0.0139331
833.766	0.0139037
833.844	0.0140808
833.923	0.0141570
834.001	0.0140801
834.079	0.0140364
834.157	0.0142627
834.235	0.0142628
834.313	0.0142379
834.391	0.0142496
834.469	0.0143262
834.548	0.0144474
834.626	0.0145107
834.704	0.0145370
834.782	0.0145621
834.860	0.0146494
834.938	0.0146157
835.016	0.0146040
835.094	0.0146061
835.173	0.0146266
835.251	0.0144987
835.329	0.0145885
835.407	0.0145172
835.485	0.0143610
835.563	0.0144018
835.641	0.0144472
835.719	0.0144358
835.798	0.0144100
835.876	0.0144352
835.954	0.0144427
836.032	0.0144482
836.110	0.0144055
836.188	0.0144070
836.266	0.0143118
836.344	0.0144456
836.423	0.0143232
836.501	0.0143765
836.579	0.0144061
836.657	0.0144479
836.735	0.0144757
836.813	0.0146075
836.891	0.0145515
836.969	0.0144434
837.048	0.0145077
837.126	0.0145571
837.204	0.0144972
837.282	0.0144391
837.360	0.0144126
837.438	0.0145148
837.516	0.0145081
837.594	0.0145930
837.673	0.0143027
837.751	0.0145596
837.829	0.0144738
837.907	0.0143262
837.985	0.0142307
838.063	0.0143143
838.141	0.0142475
838.219	0.0142181
838.298	0.0142573
838.376	0.0141883
838.454	0.0141908
838.532	0.0141357
838.610	0.0140889
838.688	0.0140065
838.766	0.0141428
838.844	0.0140757
838.923	0.0140405
839.001	0.0141153
839.079	0.0141865
839.157	0.0141876
839.235	0.0141332
839.313	0.0143872
839.391	0.0143896
839.469	0.0143537
839.548	0.0144528
839.626	0.0145650
839.704	0.0145100
839.782	0.0146429
839.860	0.0146874
839.938	0.0146034
840.016	0.0148528
840.094	0.0148601
840.173	0.0148234
840.251	0.0148317
840.329	0.0146983
840.407	0.0148735
840.485	0.0146992
840.563	0.0148937
840.641	0.0147305
840.719	0.0146136
840.798	0.0146251
840.876	0.0145164
840.954	0.0144399
841.032	0.0144490
841.110	0.0143666
841.188	0.0141901
841.266	0.0143095
841.344	0.0143848
841.423	0.0141765
841.501	0.0142859
841.579	0.0141772
841.657	0.0141264
841.735	0.0142743
841.813	0.0142850
841.891	0.0141928
841.969	0.0143490
842.048	0.0142561
842.126	0.0143400
842.204	0.0141889
842.282	0.0142193
842.360	0.0141748
842.438	0.0142937
842.516	0.0141879
842.594	0.0143330
842.673	0.0141766
842.751	0.0142360
842.829	0.0141011
842.907	0.0141862
842.985	0.0142489
843.063	0.0142269
843.141	0.0142974
843.219	0.0141537
843.298	0.0142152
843.376	0.0142918
843.454	0.0141835
843.532	0.0143756
843.610	0.0143506
843.688	0.0145464
843.766	0.0143640
843.844	0.0144547
843.923	0.0143958
844.001	0.0144089
844.079	0.0146435
844.157	0.0146771
844.235	0.0148157
844.313	0.0147546
844.391	0.0147615
844.469	0.0145760
844.548	0.0147286
844.626	0.0148755
844.704	0.0147668
844.782	0.0147250
844.860	0.0148026
844.938	0.0147515
845.016	0.0147511
845.094	0.0145177
845.173	0.0145769
845.251	0.0145332
845.329	0.0144421
845.407	0.0144586
845.485	0.0144116
845.563	0.0143836
845.641	0.0141515
845.719	0.0142126
845.798	0.0142820
845.876	0.0142612
845.954	0.0143480
846.032	0.0140634
846.110	0.0140313
846.188	0.0141604
846.266	0.0142087
846.344	0.0143173
846.423	0.0140668
846.501	0.0142451
846.579	0.0141912
846.657	0.0140932
846.735	0.0143634
846.813	0.0142232
846.891	0.0142196
846.969	0.0142649
847.048	0.0143082
847.126	0.0143816
847.204	0.0143234
847.282	0.0143086
847.360	0.0144453
847.438	0.0143816
847.516	0.0143685
847.594	0.0144774
847.673	0.0145624
847.751	0.0145507
847.829	0.0144063
847.907	0.0144930
847.985	0.0145170
848.063	0.0145884
848.141	0.0145070
848.219	0.0145324
848.298	0.0147241
848.376	0.0146123
848.454	0.0143913
848.532	0.0144250
848.610	0.0144842
848.688	0.0144833
848.766	0.0144413
848.844	0.0144309
848.923	0.0143325
849.001	0.0143002
849.079	0.0144353
849.157	0.0142490
849.235	0.0143897
849.313	0.0143430
849.391	0.0143294
849.469	0.0143116
849.548	0.0143027
849.626	0.0143620
849.704	0.0143243
849.782	0.0143286
849.860	0.0143965
849.938	0.0143423
850.016	0.0142777
850.094	0.0143595
850.173	0.0144114
850.251	0.0143937
850.329	0.0142635
850.407	0.0143990
850.485	0.0141765
850.563	0.0142389
850.641	0.0144108
850.719	0.0143149
850.798	0.0143109
850.876	0.0143216
850.954	0.0145109
851.032	0.0145534
851.110	0.0144497
851.188	0.0143874
851.266	0.0144721
851.344	0.0145850
851.423	0.0145771
851.501	0.0146893
851.579	0.0145904
851.657	0.0144911
851.735	0.0145721
851.813	0.0144743
851.891	0.0145377
851.969	0.0145222
852.048	0.0145594
852.126	0.0143851
852.204	0.0144836
852.282	0.0144563
852.360	0.0145567
852.438	0.0145016
852.516	0.0144455
852.594	0.0143234
852.673	0.0144231
852.751	0.0145060
852.829	0.0143195
852.907	0.0141698
852.985	0.0143915
853.063	0.0144265
853.141	0.0143814
853.219	0.0144938
853.298	0.0142597
853.376	0.0143244
853.454	0.0144098
853.532	0.0143157
853.610	0.0143869
853.688	0.0144584
853.766	0.0144969
853.844	0.0143563
853.923	0.0144584
854.001	0.0144051
854.079	0.0143768
854.157	0.0144321
854.235	0.0144971
854.313	0.0144118
854.391	0.0144077
854.469	0.0145329
854.548	0.0144688
854.626	0.0143676
854.704	0.0145758
854.782	0.0145449
854.860	0.0144881
854.938	0.0144888
855.016	0.0144853
855.094	0.0145567
855.173	0.0143942
855.251	0.0142784
855.329	0.0144179
855.407	0.0144073
855.485	0.0143961
855.563	0.0143630
855.641	0.0145388
855.719	0.0145587
855.798	0.0144680
855.876	0.0143776
855.954	0.0143475
856.032	0.0144096
856.110	0.0145239
856.188	0.0144353
856.266	0.0144773
856.344	0.0143462
856.423	0.0143401
856.501	0.0142668
856.579	0.0142619
856.657	0.0142866
856.735	0.0143434
856.813	0.0142532
856.891	0.0141778
856.969	0.0141986
857.048	0.0141000
857.126	0.0142106
857.204	0.0141664
857.282	0.0143385
857.360	0.0142502
857.438	0.0141666
857.516	0.0142494
857.594	0.0141468
857.673	0.0141755
857.751	0.0141455
857.829	0.0142406
857.907	0.0141800
857.985	0.0141499
858.063	0.0142590
858.141	0.0143092
858.219	0.0141968
858.298	0.0142636
858.376	0.0143539
858.454	0.0143295
858.532	0.0144659
858.610	0.0143985
858.688	0.0142041
858.766	0.0144675
858.844	0.0142812
858.923	0.0142365
859.001	0.0145121
859.079	0.0144437
859.157	0.0144162
859.235	0.0144724
859.313	0.0144638
859.391	0.0145634
859.469	0.0144626
859.548	0.0144697
859.626	0.0143946
859.704	0.0143368
859.782	0.0144810
859.860	0.0144493
859.938	0.0144512
860.016	0.0142778
860.094	0.0142953
860.173	0.0143366
860.251	0.0144878
860.329	0.0144088
860.407	0.0143453
860.485	0.0144392
860.563	0.0144561
860.641	0.0144973
860.719	0.0143066
860.798	0.0144492
860.876	0.0144426
860.954	0.0144709
861.032	0.0143977
861.110	0.0144301
861.188	0.0145356
861.266	0.0145221
861.344	0.0145811
861.423	0.0146335
861.501	0.0147159
861.579	0.0144963
861.657	0.0146479
861.735	0.0146303
861.813	0.0144648
861.891	0.0144447
861.969	0.0144276
862.048	0.0145210
862.126	0.0145050
862.204	0.0143017
862.282	0.0143455
862.360	0.0142554
862.438	0.0141523
862.516	0.0142398
862.594	0.0140525
862.673	0.0141451
862.751	0.0141869
862.829	0.0140164
862.907	0.0141458
862.985	0.0140746
863.063	0.0139951
863.141	0.0141479
863.219	0.0141077
863.298	0.0139310
863.376	0.0140442
863.454	0.0139955
863.532	0.0141639
863.610	0.0140787
863.688	0.0142151
863.766	0.0142304
863.844	0.0143719
863.923	0.0144781
864.001	0.0143652
864.079	0.0143199
864.157	0.0143174
864.235	0.0144610
864.313	0.0144627
864.391	0.0145747
864.469	0.0146100
864.548	0.0145500
864.626	0.0144223
864.704	0.0145890
864.782	0.0145194
864.860	0.0144685
864.938	0.0144163
865.016	0.0144495
865.094	0.0143604
865.173	0.0144169
865.251	0.0143703
865.329	0.0143372
865.407	0.0143710
865.485	0.0143813
865.563	0.0143901
865.641	0.0143271
865.719	0.0143520
865.798	0.0142457
865.876	0.0143773
865.954	0.0144644
866.032	0.0144833
866.110	0.0144753
866.188	0.0145673
866.266	0.0146312
866.344	0.0146570
866.423	0.0147575
866.501	0.0146445
866.579	0.0146780
866.657	0.0146676
866.735	0.0147434
866.813	0.0147748
866.891	0.0148679
866.969	0.0147784
867.048	0.0148278
867.126	0.0148097
867.204	0.0147820
867.282	0.0145803
867.360	0.0146118
867.438	0.0146872
867.516	0.0144954
867.594	0.0146420
867.673	0.0144463
867.751	0.0144128
867.829	0.0145013
867.907	0.0144091
867.985	0.0143427
868.063	0.0143993
868.141	0.0144396
868.219	0.0143183
868.298	0.0141606
868.376	0.0142403
868.454	0.0141284
868.532	0.0141480
868.610	0.0140839
868.688	0.0142190
868.766	0.0141279
868.844	0.0141525
868.923	0.0141328
869.001	0.0141532
869.079	0.0142527
869.157	0.0141311
869.235	0.0140963
869.313	0.0142133
869.391	0.0143513
869.469	0.0141805
869.548	0.0143446
869.626	0.0143436
869.704	0.0142937
869.782	0.0145094
869.860	0.0144221
869.938	0.0143403
870.016	0.0143229
870.094	0.0146467
870.173	0.0144804
870.251	0.0144130
870.329	0.0144313
870.407	0.0144246
870.485	0.0146584
870.563	0.0146348
870.641	0.0144839
870.719	0.0144715
870.798	0.0145251
870.876	0.0144917
870.954	0.0145834
871.032	0.0144780
871.110	0.0144756
871.188	0.0143142
871.266	0.0143470
871.344	0.0144762
871.423	0.0145145
871.501	0.0143632
871.579	0.0142206
871.657	0.0142519
871.735	0.0143821
871.813	0.0143038
871.891	0.0141660
871.969	0.0141042
872.048	0.0143120
872.126	0.0142330
872.204	0.0141306
872.282	0.0142979
872.360	0.0143807
872.438	0.0143424
872.516	0.0143698
872.594	0.0143299
872.673	0.0144919
872.751	0.0145237
872.829	0.0144608
872.907	0.0146084
872.985	0.0146224
873.063	0.0145912
873.141	0.0146746
873.219	0.0147427
873.298	0.0147026
873.376	0.0146973
873.454	0.0148945
873.532	0.0147228
873.610	0.0147952
873.688	0.0148589
873.766	0.0147321
873.844	0.0145422
873.923	0.0146007
874.001	0.0147313
874.079	0.0146765
874.157	0.0145515
874.235	0.0145556
874.313	0.0145333
874.391	0.0145300
874.469	0.0145671
874.548	0.0144959
874.626	0.0143198
874.704	0.0142686
874.782	0.0142000
874.860	0.0143128
874.938	0.0141269
875.016	0.0140639
875.094	0.0141411
875.173	0.0139677
875.251	0.0140016
875.329	0.0141123
875.407	0.0139857
875.485	0.0139566
875.563	0.0140470
875.641	0.0140700
875.719	0.0141891
875.798	0.0141069
875.876	0.0140676
875.954	0.0142007
876.032	0.0141699
876.110	0.0141465
876.188	0.0143082
876.266	0.0142215
876.344	0.0142259
876.423	0.0141261
876.501	0.0142863
876.579	0.0145914
876.657	0.0144152
876.735	0.0144139
876.813	0.0144456
876.891	0.0146783
876.969	0.0145654
877.048	0.0146018
877.126	0.0146271
877.204	0.0147063
877.282	0.0146716
877.360	0.0147311
877.438	0.0147271
877.516	0.0148180
877.594	0.0147844
877.673	0.0146692
877.751	0.0146916
877.829	0.0147293
877.907	0.0146953
877.985	0.0145853
878.063	0.0145596
878.141	0.0145231
878.219	0.0144501
878.298	0.0145895
878.376	0.0145620
878.454	0.0145721
878.532	0.0144958
878.610	0.0144927
878.688	0.0143752
878.766	0.0143604
878.844	0.0144041
878.923	0.0143806
879.001	0.0143062
879.079	0.0143155
879.157	0.0142486
879.235	0.0143987
879.313	0.0144039
879.391	0.0143817
879.469	0.0142474
879.548	0.0141791
879.626	0.0141972
879.704	0.0141066
879.782	0.0141255
879.860	0.0143036
879.938	0.0141505
880.016	0.0142998
880.094	0.0142180
880.173	0.0143146
880.251	0.0143645
880.329	0.0143595
880.407	0.0144469
880.485	0.0143372
880.563	0.0145465
880.641	0.0142881
880.719	0.0143993
880.798	0.0144537
880.876	0.0143045
880.954	0.0143542
881.032	0.0143195
881.110	0.0142986
881.188	0.0143990
881.266	0.0143790
881.344	0.0144292
881.423	0.0143645
881.501	0.0143803
881.579	0.0143623
881.657	0.0144264
881.735	0.0143882
881.813	0.0145406
881.891	0.0144356
881.969	0.0144975
882.048	0.0145158
882.126	0.0145146
882.204	0.0145503
882.282	0.0145675
882.360	0.0146640
882.438	0.0148072
882.516	0.0145971
882.594	0.0147221
882.673	0.0147657
882.751	0.0148196
882.829	0.0148544
882.907	0.0147992
882.985	0.0148335
883.063	0.0147652
883.141	0.0146237
883.219	0.0144929
883.298	0.0144524
883.376	0.0143787
883.454	0.0143856
883.532	0.0142279
883.610	0.0140710
883.688	0.0139553
883.766	0.0140327
883.844	0.0138818
883.923	0.0139535
884.001	0.0137180
884.079	0.0137479
884.157	0.0137371
884.235	0.0137428
884.313	0.0137489
884.391	0.0136818
884.469	0.0138546
884.548	0.0139724
884.626	0.0141074
884.704	0.0141250
884.782	0.0140431
884.860	0.0141334
884.938	0.0144197
885.016	0.0143838
885.094	0.0144761
885.173	0.0145597
885.251	0.0148071
885.329	0.0149087
885.407	0.0148852
885.485	0.0149133
885.563	0.0149268
885.641	0.0150532
885.719	0.0149995
885.798	0.0150672
885.876	0.0152262
885.954	0.0153374
886.032	0.0149540
886.110	0.0148956
886.188	0.0150303
886.266	0.0148660
886.344	0.0149308
886.423	0.0148846
886.501	0.0147437
886.579	0.0146898
886.657	0.0145361
886.735	0.0144078
886.813	0.0143124
886.891	0.0140641
886.969	0.0140130
887.048	0.0137849
887.126	0.0136313
887.204	0.0136073
887.282	0.0137395
887.360	0.0136951
887.438	0.0138505
887.516	0.0138282
887.594	0.0140459
887.673	0.0140435
887.751	0.0141566
887.829	0.0143282
887.907	0.0142958
887.985	0.0143075
888.063	0.0142733
888.141	0.0143452
888.219	0.0143601
888.298	0.0144562
888.376	0.0143353
888.454	0.0144333
888.532	0.0144830
888.610	0.0145369
888.688	0.0145723
888.766	0.0147314
888.844	0.0145838
888.923	0.0147592
889.001	0.0148369
889.079	0.0148123
889.157	0.0150010
889.235	0.0150093
889.313	0.0150558
889.391	0.0150447
889.469	0.0149623
889.548	0.0149698
889.626	0.0149110
889.704	0.0148485
889.782	0.0148424
889.860	0.0147945
889.938	0.0148398
890.016	0.0148253
890.094	0.0148328
890.173	0.0146996
890.251	0.0146904
890.329	0.0145654
890.407	0.0144685
890.485	0.0145732
890.563	0.0143330
890.641	0.0141982
890.719	0.0140574
890.798	0.0139773
890.876	0.0137868
890.954	0.0136301
891.032	0.0133801
891.110	0.0135107
891.188	0.0134587
891.266	0.0133504
891.344	0.0134380
891.423	0.0133530
891.501	0.0135322
891.579	0.0137286
891.657	0.0136765
891.735	0.0139810
891.813	0.0141689
891.891	0.0140877
891.969	0.0143964
892.048	0.0144468
892.126	0.0146261
892.204	0.0146938
892.282	0.0147678
892.360	0.0146979
892.438	0.0147974
892.516	0.0151031
892.594	0.0152268
892.673	0.0151586
892.751	0.0152022
892.829	0.0150492
892.907	0.0152252
892.985	0.0153270
893.063	0.0151772
893.141	0.0151394
893.219	0.0152089
893.298	0.0152009
893.376	0.0150945
893.454	0.0149918
893.532	0.0150852
893.610	0.0150902
893.688	0.0149581
893.766	0.0149326
893.844	0.0149546
893.923	0.0149545
894.001	0.0149534
894.079	0.0147753
894.157	0.0148151
894.235	0.0146499
894.313	0.0145860
894.391	0.0142413
894.469	0.0143633
894.548	0.0141709
894.626	0.0140103
894.704	0.0139454
894.782	0.0139130
894.860	0.0137298
894.938	0.0137125
895.016	0.0136291
895.094	0.0136922
895.173	0.0135290
895.251	0.0136509
895.329	0.0138033
895.407	0.0137906
895.485	0.0137069
895.563	0.0138640
895.641	0.0139916
895.719	0.0140102
895.798	0.0141878
895.876	0.0143579
895.954	0.0142162
896.032	0.0143832
896.110	0.0145767
896.188	0.0146296
896.266	0.0145950
896.344	0.0146262
896.423	0.0147181
896.501	0.0147205
896.579	0.0146471
896.657	0.0146271
896.735	0.0145348
896.813	0.0146059
896.891	0.0145868
896.969	0.0147263
897.048	0.0144445
897.126	0.0144746
897.204	0.0144480
897.282	0.0145582
897.360	0.0145646
897.438	0.0144286
897.516	0.0144968
897.594	0.0144627
897.673	0.0144820
897.751	0.0145179
897.829	0.0146626
897.907	0.0145966
897.985	0.0146246
898.063	0.0145021
898.141	0.0145721
898.219	0.0146461
898.298	0.0145663
898.376	0.0146310
898.454	0.0146581
898.532	0.0145612
898.610	0.0145258
898.688	0.0146918
898.766	0.0145269
898.844	0.0145148
898.923	0.0145167
899.001	0.0145332
899.079	0.0144289
899.157	0.0144695
899.235	0.0144748
899.313	0.0144618
899.391	0.0144065
899.469	0.0143993
899.548	0.0143983
899.626	0.0143626
899.704	0.0144064
899.782	0.0143304
899.860	0.0142158
899.938	0.0142194
900.016	0.0140365
900.094	0.0141063
900.173	0.0141780
900.251	0.0140424
900.329	0.0141773
900.407	0.0141478
900.485	0.0141781
900.563	0.0141845
900.641	0.0141642
900.719	0.0143684
900.798	0.0142894
900.876	0.0142490
900.954	0.0142756
901.032	0.0144307
901.110	0.0145195
901.188	0.0144803
901.266	0.0146468
901.344	0.0145992
901.423	0.0146715
901.501	0.0146997
901.579	0.0147733
901.657	0.0148016
901.735	0.0146633
901.813	0.0146490
901.891	0.0147007
901.969	0.0146388
902.048	0.0146642
902.126	0.0145569
902.204	0.0144048
902.282	0.0145573
902.360	0.0143272
902.438	0.0141328
902.516	0.0142247
902.594	0.0141367
902.673	0.0141869
902.751	0.0139655
902.829	0.0139296
902.907	0.0139318
902.985	0.0138898
903.063	0.0138141
903.141	0.0139751
903.219	0.0140546
903.298	0.0139826
903.376	0.0141710
903.454	0.0140462
903.532	0.0142359
903.610	0.0141622
903.688	0.0143212
903.766	0.0143959
903.844	0.0143787
903.923	0.0143558
904.001	0.0144260
904.079	0.0144800
904.157	0.0145177
904.235	0.0146630
904.313	0.0145881
904.391	0.0146186
904.469	0.0146464
904.548	0.0146947
904.626	0.0147848
904.704	0.0146718
904.782	0.0148098
904.860	0.0147040
904.938	0.0148198
905.016	0.0146449
905.094	0.0145628
905.173	0.0147262
905.251	0.0147440
905.329	0.0148192
905.407	0.0148035
905.485	0.0147427
905.563	0.0146454
905.641	0.0147124
905.719	0.0147427
905.798	0.0146700
905.876	0.0147417
905.954	0.0148017
906.032	0.0147071
906.110	0.0146693
906.188	0.0145529
906.266	0.0144701
906.344	0.0144698
906.423	0.0143465
906.501	0.0143322
906.579	0.0142542
906.657	0.0141734
906.735	0.0141425
906.813	0.0140569
906.891	0.0140563
906.969	0.0140830
907.048	0.0142295
907.126	0.0141039
907.204	0.0140017
907.282	0.0140403
907.360	0.0141040
907.438	0.0140132
907.516	0.0140260
907.594	0.0140091
907.673	0.0140439
907.751	0.0141689
907.829	0.0140591
907.907	0.0139632
907.985	0.0139987
908.063	0.0140937
908.141	0.0140900
908.219	0.0140898
908.298	0.0142949
908.376	0.0143182
908.454	0.0144960
908.532	0.0145318
908.610	0.0144678
908.688	0.0145403
908.766	0.0145759
908.844	0.0145632
908.923	0.0145941
909.001	0.0144749
909.079	0.0145366
909.157	0.0145094
909.235	0.0146311
909.313	0.0146304
909.391	0.0146227
909.469	0.0145594
909.548	0.0145914
909.626	0.0146194
909.704	0.0147348
909.782	0.0146844
909.860	0.0148047
909.938	0.0147279
910.016	0.0147383
910.094	0.0147610
910.173	0.0147782
910.251	0.0146690
910.329	0.0146571
910.407	0.0147942
910.485	0.0147367
910.563	0.0146761
910.641	0.0145856
910.719	0.0145822
910.798	0.0146947
910.876	0.0145002
910.954	0.0145037
911.032	0.0143887
911.110	0.0144383
911.188	0.0143436
911.266	0.0143114
911.344	0.0144051
911.423	0.0142149
911.501	0.0141869
911.579	0.0141872
911.657	0.0141720
911.735	0.0140389
911.813	0.0141039
911.891	0.0140556
911.969	0.0140060
912.048	0.0139543
912.126	0.0138952
912.204	0.0139666
912.282	0.0140226
912.360	0.0140921
912.438	0.0140528
912.516	0.0140492
912.594	0.0141100
912.673	0.0141689
912.751	0.0143349
912.829	0.0142944
912.907	0.0142757
912.985	0.0143210
913.063	0.0145027
913.141	0.0143817
913.219	0.0145389
913.298	0.0144782
913.376	0.0147137
913.454	0.0148150
913.532	0.0150684
913.610	0.0148579
913.688	0.0148655
913.766	0.0149593
913.844	0.0149058
913.923	0.0148561
914.001	0.0148264
914.079	0.0149044
914.157	0.0147865
914.235	0.0146387
914.313	0.0147295
914.391	0.0146362
914.469	0.0145963
914.548	0.0145500
914.626	0.0145894
914.704	0.0145105
914.782	0.0144776
914.860	0.0142289
914.938	0.0141854
915.016	0.0142739
915.094	0.0142917
915.173	0.0141505
915.251	0.0141573
915.329	0.0141360
915.407	0.0142358
915.485	0.0141388
915.563	0.0142464
915.641	0.0142709
915.719	0.0142262
915.798	0.0141691
915.876	0.0141908
915.954	0.0144144
916.032	0.0142390
916.110	0.0141241
916.188	0.0143185
916.266	0.0142210
916.344	0.0142757
916.423	0.0142159
916.501	0.0142799
916.579	0.0142635
916.657	0.0142377
916.735	0.0142640
916.813	0.0141727
916.891	0.0142178
916.969	0.0144744
917.048	0.0142239
917.126	0.0143029
917.204	0.0143526
917.282	0.0144060
917.360	0.0143903
917.438	0.0145857
917.516	0.0146785
917.594	0.0144791
917.673	0.0145746
917.751	0.0145166
917.829	0.0146298
917.907	0.0145438
917.985	0.0145893
918.063	0.0146230
918.141	0.0144379
918.219	0.0145728
918.298	0.0147443
918.376	0.0146024
918.454	0.0146403
918.532	0.0144981
918.610	0.0145293
918.688	0.0146514
918.766	0.0145645
918.844	0.0145003
918.923	0.0145002
919.001	0.0144549
919.079	0.0144524
919.157	0.0144727
919.235	0.0144664
919.313	0.0143950
919.391	0.0144765
919.469	0.0142448
919.548	0.0144467
919.626	0.0143144
919.704	0.0142625
919.782	0.0143674
919.860	0.0143240
919.938	0.0141377
920.016	0.0141764
920.094	0.0141000
920.173	0.0141357
920.251	0.0141361
920.329	0.0140001
920.407	0.0140034
920.485	0.0141101
920.563	0.0142037
920.641	0.0141552
920.719	0.0141406
920.798	0.0141548
920.876	0.0143250
920.954	0.0141695
921.032	0.0143735
921.110	0.0142842
921.188	0.0141225
921.266	0.0143893
921.344	0.0144031
921.423	0.0143719
921.501	0.0144935
921.579	0.0146966
921.657	0.0146926
921.735	0.0147273
921.813	0.0145881
921.891	0.0146322
921.969	0.0146977
922.048	0.0146799
922.126	0.0146673
922.204	0.0145792
922.282	0.0145032
922.360	0.0145730
922.438	0.0146429
922.516	0.0145641
922.594	0.0146140
922.673	0.0147052
922.751	0.0146015
922.829	0.0146432
922.907	0.0147145
922.985	0.0145277
923.063	0.0145554
923.141	0.0145677
923.219	0.0144151
923.298	0.0143367
923.376	0.0145396
923.454	0.0144708
923.532	0.0143465
923.610	0.0143380
923.688	0.0143120
923.766	0.0142547
923.844	0.0141968
923.923	0.0140919
924.001	0.0139392
924.079	0.0140770
924.157	0.0140468
924.235	0.0140749
924.313	0.0141393
924.391	0.0140413
924.469	0.0139598
924.548	0.0141247
924.626	0.0140881
924.704	0.0140649
924.782	0.0141904
924.860	0.0141676
924.938	0.0140626
925.016	0.0142530
925.094	0.0143570
925.173	0.0142636
925.251	0.0144668
925.329	0.0141690
925.407	0.0143102
925.485	0.0143297
925.563	0.0144426
925.641	0.0144466
925.719	0.0145228
925.798	0.0144142
925.876	0.0144805
925.954	0.0145728
926.032	0.0144000
926.110	0.0144096
926.188	0.0144217
926.266	0.0144511
926.344	0.0143349
926.423	0.0143045
926.501	0.0145983
926.579	0.0145306
926.657	0.0144935
926.735	0.0143896
926.813	0.0143802
926.891	0.0144939
926.969	0.0145950
927.048	0.0145921
927.126	0.0145474
927.204	0.0145806
927.282	0.0145780
927.360	0.0145387
927.438	0.0145970
927.516	0.0146021
927.594	0.0144279
927.673	0.0144107
927.751	0.0144826
927.829	0.0145440
927.907	0.0145383
927.985	0.0145313
928.063	0.0144357
928.141	0.0144318
928.219	0.0145088
928.298	0.0144638
928.376	0.0143712
928.454	0.0144112
928.532	0.0144722
928.610	0.0144006
928.688	0.0143983
928.766	0.0144453
928.844	0.0143644
928.923	0.0142627
929.001	0.0142786
929.079	0.0143123
929.157	0.0144129
929.235	0.0142673
929.313	0.0142077
929.391	0.0143746
929.469	0.0141456
929.548	0.0142099
929.626	0.0140744
929.704	0.0141512
929.782	0.0141043
929.860	0.0142677
929.938	0.0141174
930.016	0.0141463
930.094	0.0142028
930.173	0.0140891
930.251	0.0141953
930.329	0.0142191
930.407	0.0143734
930.485	0.0143204
930.563	0.0142282
930.641	0.0142859
930.719	0.0142751
930.798	0.0144187
930.876	0.0142764
930.954	0.0143404
931.032	0.0142876
931.110	0.0142695
931.188	0.0144067
931.266	0.0144624
931.344	0.0144068
931.423	0.0143634
931.501	0.0144954
931.579	0.0145412
931.657	0.0146336
931.735	0.0146029
931.813	0.0146819
931.891	0.0146255
931.969	0.0145653
932.048	0.0146570
932.126	0.0146824
932.204	0.0147334
932.282	0.0145778
932.360	0.0146172
932.438	0.0146053
932.516	0.0146385
932.594	0.0145583
932.673	0.0147100
932.751	0.0146502
932.829	0.0145710
932.907	0.0146287
932.985	0.0145657
933.063	0.0144476
933.141	0.0144341
933.219	0.0141628
933.298	0.0142451
933.376	0.0142016
933.454	0.0141466
933.532	0.0140888
933.610	0.0139101
933.688	0.0140547
933.766	0.0139695
933.844	0.0140028
933.923	0.0139970
934.001	0.0139343
934.079	0.0138840
934.157	0.0139244
934.235	0.0140004
934.313	0.0139275
934.391	0.0139894
934.469	0.0141046
934.548	0.0139901
934.626	0.0141035
934.704	0.0141329
934.782	0.0140985
934.860	0.0142786
934.938	0.0143349
935.016	0.0143416
935.094	0.0144363
935.173	0.0144125
935.251	0.0144229
935.329	0.0144060
935.407	0.0145686
935.485	0.0147985
935.563	0.0146754
935.641	0.0146763
935.719	0.0147423
935.798	0.0148207
935.876	0.0148911
935.954	0.0147964
936.032	0.0147774
936.110	0.0148882
936.188	0.0148888
936.266	0.0147971
936.344	0.0148882
936.423	0.0148124
936.501	0.0149189
936.579	0.0147726
936.657	0.0146748
936.735	0.0147775
936.813	0.0145393
936.891	0.0145438
936.969	0.0145491
937.048	0.0144076
937.126	0.0143776
937.204	0.0143865
937.282	0.0144257
937.360	0.0142500
937.438	0.0141315
937.516	0.0141962
937.594	0.0141764
937.673	0.0141173
937.751	0.0141869
937.829	0.0142655
937.907	0.0141099
937.985	0.0142302
938.063	0.0141275
938.141	0.0142900
938.219	0.0142892
938.298	0.0141657
938.376	0.0142393
938.454	0.0141699
938.532	0.0142033
938.610	0.0142716
938.688	0.0142727
938.766	0.0142412
938.844	0.0142603
938.923	0.0142555
939.001	0.0143060
939.079	0.0142665
939.157	0.0141505
939.235	0.0141180
939.313	0.0142957
939.391	0.0141870
939.469	0.0142959
939.548	0.0141727
939.626	0.0141756
939.704	0.0142273
939.782	0.0141882
939.860	0.0141989
939.938	0.0141183
940.016	0.0143181
940.094	0.0143298
940.173	0.0143504
940.251	0.0142857
940.329	0.0142869
940.407	0.0144724
940.485	0.0143952
940.563	0.0145692
940.641	0.0145878
940.719	0.0145747
940.798	0.0145306
940.876	0.0147504
940.954	0.0146250
941.032	0.0146984
941.110	0.0147129
941.188	0.0146647
941.266	0.0146712
941.344	0.0147616
941.423	0.0147757
941.501	0.0148494
941.579	0.0147832
941.657	0.0146973
941.735	0.0147794
941.813	0.0147926
941.891	0.0146983
941.969	0.0148316
942.048	0.0146010
942.126	0.0145756
942.204	0.0146859
942.282	0.0145410
942.360	0.0143966
942.438	0.0144594
942.516	0.0143169
942.594	0.0143346
942.673	0.0143770
942.751	0.0141456
942.829	0.0143398
942.907	0.0142639
942.985	0.0141209
943.063	0.0141644
943.141	0.0140557
943.219	0.0140632
943.298	0.0140012
943.376	0.0141021
943.454	0.0140559
943.532	0.0141312
943.610	0.0143006
943.688	0.0141167
943.766	0.0141155
943.844	0.0142605
943.923	0.0142571
944.001	0.0143063
944.079	0.0143754
944.157	0.0142490
944.235	0.0144187
944.313	0.0144175
944.391	0.0144228
944.469	0.0143638
944.548	0.0146056
944.626	0.0146896
944.704	0.0145947
944.782	0.0145487
944.860	0.0146684
944.938	0.0145680
945.016	0.0146384
945.094	0.0146822
945.173	0.0147679
945.251	0.0146828
945.329	0.0146862
945.407	0.0144673
945.485	0.0145581
945.563	0.0144229
945.641	0.0145213
945.719	0.0145258
945.798	0.0144213
945.876	0.0145296
945.954	0.0144769
946.032	0.0144474
946.110	0.0142972
946.188	0.0144328
946.266	0.0144618
946.344	0.0144102
946.423	0.0144195
946.501	0.0142268
946.579	0.0143054
946.657	0.0142486
946.735	0.0142493
946.813	0.0141347
946.891	0.0143643
946.969	0.0143291
947.048	0.0141846
947.126	0.0142011
947.204	0.0143803
947.282	0.0142345
947.360	0.0143871
947.438	0.0143671
947.516	0.0142713
947.594	0.0143516
947.673	0.0144203
947.751	0.0143955
947.829	0.0144490
947.907	0.0143534
947.985	0.0143898
948.063	0.0144457
948.141	0.0146208
948.219	0.0145248
948.298	0.0144463
948.376	0.0145212
948.454	0.0145547
948.532	0.0145104
948.610	0.0146146
948.688	0.0145255
948.766	0.0144427
948.844	0.0145048
948.923	0.0145355
949.001	0.0145255
949.079	0.0144167
949.157	0.0145137
949.235	0.0146063
949.313	0.0145708
949.391	0.0145806
949.469	0.0145728
949.548	0.0144634
949.626	0.0146431
949.704	0.0145508
949.782	0.0146511
949.860	0.0145962
949.938	0.0143905
950.016	0.0143469
950.094	0.0144470
950.173	0.0144829
950.251	0.0145182
950.329	0.0145405
950.407	0.0144317
950.485	0.0143896
950.563	0.0143188
950.641	0.0142043
950.719	0.0142305
950.798	0.0143605
950.876	0.0142594
950.954	0.0142944
951.032	0.0142745
951.110	0.0142676
951.188	0.0142270
951.266	0.0142731
951.344	0.0142719
951.423	0.0142406
951.501	0.0143465
951.579	0.0142942
951.657	0.0142593
951.735	0.0144650
951.813	0.0143894
951.891	0.0143190
951.969	0.0143486
952.048	0.0144855
952.126	0.0143902
952.204	0.0144951
952.282	0.0143846
952.360	0.0145140
952.438	0.0143854
952.516	0.0142587
952.594	0.0143364
952.673	0.0142347
952.751	0.0142960
952.829	0.0143338
952.907	0.0144348
952.985	0.0144156
953.063	0.0143370
953.141	0.0144712
953.219	0.0144551
953.298	0.0144088
953.376	0.0143626
953.454	0.0144051
953.532	0.0143836
953.610	0.0144350
953.688	0.0145707
953.766	0.0143857
953.844	0.0143018
953.923	0.0142967
954.001	0.0144536
954.079	0.0144139
954.157	0.0143094
954.235	0.0144505
954.313	0.0145107
954.391	0.0143426
954.469	0.0143456
954.548	0.0143651
954.626	0.0142161
954.704	0.0142315
954.782	0.0142474
954.860	0.0143232
954.938	0.0143165
955.016	0.0143475
955.094	0.0142566
955.173	0.0142110
955.251	0.0142140
955.329	0.0143489
955.407	0.0141439
955.485	0.0142810
955.563	0.0142413
955.641	0.0144512
955.719	0.0144503
955.798	0.0143267
955.876	0.0142887
955.954	0.0143789
956.032	0.0143067
956.110	0.0144653
956.188	0.0143475
956.266	0.0144908
956.344	0.0143047
956.423	0.0143623
956.501	0.0142305
956.579	0.0145010
956.657	0.0144144
956.735	0.0146284
956.813	0.0144623
956.891	0.0143477
956.969	0.0144913
957.048	0.0145932
957.126	0.0145377
957.204	0.0145125
957.282	0.0145990
957.360	0.0145391
957.438	0.0144430
957.516	0.0144399
957.594	0.0145375
957.673	0.0143520
957.751	0.0144318
957.829	0.0146108
957.907	0.0145336
957.985	0.0145049
958.063	0.0145725
958.141	0.0145509
958.219	0.0143827
958.298	0.0145272
958.376	0.0143562
958.454	0.0144481
958.532	0.0144366
958.610	0.0145026
958.688	0.0144019
958.766	0.0143874
958.844	0.0143983
958.923	0.0144010
959.001	0.0143199
959.079	0.0143140
959.157	0.0143995
959.235	0.0142980
959.313	0.0141463
959.391	0.0143734
959.469	0.0143205
959.548	0.0142192
959.626	0.0143227
959.704	0.0142807
959.782	0.0141345
959.860	0.0142539
959.938	0.0141573
960.016	0.0141842
960.094	0.0142629
960.173	0.0142303
960.251	0.0143002
960.329	0.0142696
960.407	0.0142389
960.485	0.0143005
960.563	0.0143556
960.641	0.0143663
960.719	0.0145872
960.798	0.0145009
960.876	0.0145238
960.954	0.0145502
961.032	0.0146664
961.110	0.0146655
961.188	0.0145615
961.266	0.0145789
961.344	0.0145154
961.423	0.0145843
961.501	0.0144606
961.579	0.0145546
961.657	0.0144053
961.735	0.0144315
961.813	0.0143386
961.891	0.0142545
961.969	0.0142654
962.048	0.0144485
962.126	0.0144661
962.204	0.0142726
962.282	0.0141796
962.360	0.0143637
962.438	0.0142523
962.516	0.0144402
962.594	0.0144336
962.673	0.0143581
962.751	0.0143971
962.829	0.0144505
962.907	0.0144315
962.985	0.0144801
963.063	0.0143501
963.141	0.0145036
963.219	0.0145050
963.298	0.0145180
963.376	0.0145386
963.454	0.0145968
963.532	0.0144727
963.610	0.0143963
963.688	0.0144028
963.766	0.0143100
963.844	0.0144115
963.923	0.0145380
964.001	0.0143430
964.079	0.0144155
964.157	0.0144334
964.235	0.0143229
964.313	0.0144273
964.391	0.0144028
964.469	0.0144983
964.548	0.0144203
964.626	0.0146148
964.704	0.0145679
964.782	0.0146087
964.860	0.0146889
964.938	0.0144749
965.016	0.0146782
965.094	0.0145692
965.173	0.0144666
965.251	0.0146219
965.329	0.0145850
965.407	0.0144760
965.485	0.0145081
965.563	0.0143671
965.641	0.0144044
965.719	0.0143266
965.798	0.0141772
965.876	0.0141034
965.954	0.0141345
966.032	0.0139099
966.110	0.0140747
966.188	0.0139514
966.266	0.0138914
966.344	0.0140794
966.423	0.0140105
966.501	0.0138952
966.579	0.0138401
966.657	0.0141350
966.735	0.0141458
966.813	0.0141714
966.891	0.0142856
966.969	0.0143690
967.048	0.0144843
967.126	0.0144847
967.204	0.0145420
967.282	0.0147167
967.360	0.0146420
967.438	0.0146114
967.516	0.0146928
967.594	0.0145678
967.673	0.0146849
967.751	0.0147772
967.829	0.0148122
967.907	0.0146865
967.985	0.0145713
968.063	0.0146384
968.141	0.0145293
968.219	0.0147469
968.298	0.0146724
968.376	0.0144608
968.454	0.0145940
968.532	0.0144567
968.610	0.0145266
968.688	0.0145480
968.766	0.0146527
968.844	0.0145209
968.923	0.0144852
969.001	0.0143739
969.079	0.0145505
969.157	0.0145394
969.235	0.0145168
969.313	0.0144122
969.391	0.0143880
969.469	0.0144346
969.548	0.0145705
969.626	0.0144314
969.704	0.0145609
969.782	0.0144094
969.860	0.0143604
969.938	0.0142701
