05/14/2022	19:17:35	Ver.	4.1	UNKNOWN
Optical Delay	650.016352	Delta X		0.078125	Sweeps	1	Scan Rate	0/0
Coordinates	Axis 1	NaN	Axis 2	NaN	Axis 3	NaN	Axis 4	NaN	Axis 5	NaN	Axis 6	0.000000
TX Power	0.000000	RX Power	0.000000

650.016	0.0142290
650.094	0.0142079
650.173	0.0140770
650.251	0.0142019
650.329	0.0142265
650.407	0.0142477
650.485	0.0140509
650.563	0.0141930
650.641	0.0143392
650.719	0.0142034
650.798	0.0142329
650.876	0.0141853
650.954	0.0141607
651.032	0.0142716
651.110	0.0141720
651.188	0.0142712
651.266	0.0141532
651.344	0.0141677
651.423	0.0142168
651.501	0.0141998
651.579	0.0141438
651.657	0.0142744
651.735	0.0142798
651.813	0.0142279
651.891	0.0140761
651.969	0.0142593
652.048	0.0143439
652.126	0.0142249
652.204	0.0142434
652.282	0.0141730
652.360	0.0141434
652.438	0.0142437
652.516	0.0141532
652.594	0.0141219
652.673	0.0141830
652.751	0.0141772
652.829	0.0142486
652.907	0.0142512
652.985	0.0142750
653.063	0.0142113
653.141	0.0141599
653.219	0.0142371
653.298	0.0142510
653.376	0.0142067
653.454	0.0141564
653.532	0.0142226
653.610	0.0144121
653.688	0.0141964
653.766	0.0140760
653.844	0.0142297
653.923	0.0143492
654.001	0.0141438
654.079	0.0141957
654.157	0.0141544
654.235	0.0141054
654.313	0.0142267
654.391	0.0141507
654.469	0.0140882
654.548	0.0141576
654.626	0.0142441
654.704	0.0142370
654.782	0.0142850
654.860	0.0142535
654.938	0.0141430
655.016	0.0141708
655.094	0.0142655
655.173	0.0142022
655.251	0.0142640
655.329	0.0140855
655.407	0.0142142
655.485	0.0141933
655.563	0.0140816
655.641	0.0141869
655.719	0.0142208
655.798	0.0141055
655.876	0.0141550
655.954	0.0142122
656.032	0.0141628
656.110	0.0141714
656.188	0.0143449
656.266	0.0142584
656.344	0.0141058
656.423	0.0141478
656.501	0.0142062
656.579	0.0141541
656.657	0.0142208
656.735	0.0142432
656.813	0.0141000
656.891	0.0140705
656.969	0.0141224
657.048	0.0142194
657.126	0.0141311
657.204	0.0140337
657.282	0.0143785
657.360	0.0142577
657.438	0.0141223
657.516	0.0142270
657.594	0.0142024
657.673	0.0142342
657.751	0.0142722
657.829	0.0141595
657.907	0.0141252
657.985	0.0142351
658.063	0.0143870
658.141	0.0142058
658.219	0.0141189
658.298	0.0141891
658.376	0.0141396
658.454	0.0140307
658.532	0.0140314
658.610	0.0140601
658.688	0.0140807
658.766	0.0141988
658.844	0.0141376
658.923	0.0141485
659.001	0.0141515
659.079	0.0143404
659.157	0.0141193
659.235	0.0141776
659.313	0.0142326
659.391	0.0141476
659.469	0.0141330
659.548	0.0142605
659.626	0.0141773
659.704	0.0141208
659.782	0.0142283
659.860	0.0141791
659.938	0.0141705
660.016	0.0141106
660.094	0.0141452
660.173	0.0141510
660.251	0.0142277
660.329	0.0140514
660.407	0.0142045
660.485	0.0142025
660.563	0.0142254
660.641	0.0141238
660.719	0.0141046
660.798	0.0140751
660.876	0.0141911
660.954	0.0141305
661.032	0.0141179
661.110	0.0141790
661.188	0.0142812
661.266	0.0143130
661.344	0.0141870
661.423	0.0141838
661.501	0.0141917
661.579	0.0141820
661.657	0.0141899
661.735	0.0141189
661.813	0.0143084
661.891	0.0141923
661.969	0.0143979
662.048	0.0141624
662.126	0.0141240
662.204	0.0141576
662.282	0.0141589
662.360	0.0141673
662.438	0.0142393
662.516	0.0139944
662.594	0.0143555
662.673	0.0142483
662.751	0.0142722
662.829	0.0142246
662.907	0.0143248
662.985	0.0142743
663.063	0.0142391
663.141	0.0142295
663.219	0.0142488
663.298	0.0142560
663.376	0.0141696
663.454	0.0141585
663.532	0.0142887
663.610	0.0142276
663.688	0.0141759
663.766	0.0141896
663.844	0.0141968
663.923	0.0141624
664.001	0.0142818
664.079	0.0141502
664.157	0.0142612
664.235	0.0141761
664.313	0.0142187
664.391	0.0141795
664.469	0.0142284
664.548	0.0142169
664.626	0.0141717
664.704	0.0142967
664.782	0.0141647
664.860	0.0142405
664.938	0.0141891
665.016	0.0141979
665.094	0.0142184
665.173	0.0142557
665.251	0.0143783
665.329	0.0143620
665.407	0.0144427
665.485	0.0142216
665.563	0.0142201
665.641	0.0142474
665.719	0.0142601
665.798	0.0142371
665.876	0.0142552
665.954	0.0143239
666.032	0.0142391
666.110	0.0141838
666.188	0.0143647
666.266	0.0143008
666.344	0.0143774
666.423	0.0142377
666.501	0.0143079
666.579	0.0143552
666.657	0.0143420
666.735	0.0142018
666.813	0.0143029
666.891	0.0142622
666.969	0.0142229
667.048	0.0141702
667.126	0.0143125
667.204	0.0142867
667.282	0.0143671
667.360	0.0141508
667.438	0.0141956
667.516	0.0144808
667.594	0.0142246
667.673	0.0143423
667.751	0.0142538
667.829	0.0142808
667.907	0.0142586
667.985	0.0142448
668.063	0.0142641
668.141	0.0142966
668.219	0.0143251
668.298	0.0142532
668.376	0.0141341
668.454	0.0141697
668.532	0.0143195
668.610	0.0141904
668.688	0.0142030
668.766	0.0143327
668.844	0.0143535
668.923	0.0141373
669.001	0.0142269
669.079	0.0142635
669.157	0.0143371
669.235	0.0141275
669.313	0.0141719
669.391	0.0143108
669.469	0.0143047
669.548	0.0141070
669.626	0.0141291
669.704	0.0143262
669.782	0.0142549
669.860	0.0143591
669.938	0.0142353
670.016	0.0142846
670.094	0.0142123
670.173	0.0140491
670.251	0.0142591
670.329	0.0142809
670.407	0.0142932
670.485	0.0142702
670.563	0.0142826
670.641	0.0143030
670.719	0.0142915
670.798	0.0140904
670.876	0.0141518
670.954	0.0142982
671.032	0.0143024
671.110	0.0142870
671.188	0.0141293
671.266	0.0142059
671.344	0.0141708
671.423	0.0141304
671.501	0.0143275
671.579	0.0143124
671.657	0.0142393
671.735	0.0142400
671.813	0.0141889
671.891	0.0143002
671.969	0.0141102
672.048	0.0140812
672.126	0.0142660
672.204	0.0141846
672.282	0.0141647
672.360	0.0142097
672.438	0.0141354
672.516	0.0141539
672.594	0.0142004
672.673	0.0141425
672.751	0.0141169
672.829	0.0142753
672.907	0.0142325
672.985	0.0142349
673.063	0.0143084
673.141	0.0141944
673.219	0.0141145
673.298	0.0141157
673.376	0.0143311
673.454	0.0141891
673.532	0.0141830
673.610	0.0142119
673.688	0.0142117
673.766	0.0141405
673.844	0.0142500
673.923	0.0141412
674.001	0.0142067
674.079	0.0141551
674.157	0.0142322
674.235	0.0141575
674.313	0.0142645
674.391	0.0142411
674.469	0.0141013
674.548	0.0143076
674.626	0.0142424
674.704	0.0141803
674.782	0.0140659
674.860	0.0141960
674.938	0.0141408
675.016	0.0140946
675.094	0.0141683
675.173	0.0141441
675.251	0.0143182
675.329	0.0141745
675.407	0.0142379
675.485	0.0143006
675.563	0.0143356
675.641	0.0141646
675.719	0.0140913
675.798	0.0143138
675.876	0.0142628
675.954	0.0142969
676.032	0.0141711
676.110	0.0142238
676.188	0.0141010
676.266	0.0141056
676.344	0.0141983
676.423	0.0141724
676.501	0.0141660
676.579	0.0141715
676.657	0.0141674
676.735	0.0142888
676.813	0.0143444
676.891	0.0141529
676.969	0.0142056
677.048	0.0143523
677.126	0.0143587
677.204	0.0143026
677.282	0.0141737
677.360	0.0141563
677.438	0.0141227
677.516	0.0142205
677.594	0.0141198
677.673	0.0139594
677.751	0.0142944
677.829	0.0140530
677.907	0.0142537
677.985	0.0143714
678.063	0.0142351
678.141	0.0141745
678.219	0.0142284
678.298	0.0142242
678.376	0.0142308
678.454	0.0142458
678.532	0.0142719
678.610	0.0141454
678.688	0.0140664
678.766	0.0141759
678.844	0.0142614
678.923	0.0142581
679.001	0.0139810
679.079	0.0141532
679.157	0.0142517
679.235	0.0142278
679.313	0.0142868
679.391	0.0141376
679.469	0.0140929
679.548	0.0141293
679.626	0.0141126
679.704	0.0141232
679.782	0.0140240
679.860	0.0141050
679.938	0.0141415
680.016	0.0141017
680.094	0.0142222
680.173	0.0142298
680.251	0.0141801
680.329	0.0142869
680.407	0.0145500
680.485	0.0144807
680.563	0.0144854
680.641	0.0143163
680.719	0.0144331
680.798	0.0144242
680.876	0.0143558
680.954	0.0142700
681.032	0.0141338
681.110	0.0141357
681.188	0.0140616
681.266	0.0138992
681.344	0.0139240
681.423	0.0138064
681.501	0.0138777
681.579	0.0137302
681.657	0.0139312
681.735	0.0138577
681.813	0.0139536
681.891	0.0141508
681.969	0.0142178
682.048	0.0146301
682.126	0.0145628
682.204	0.0145485
682.282	0.0149433
682.360	0.0150191
682.438	0.0147791
682.516	0.0149337
682.594	0.0148734
682.673	0.0147013
682.751	0.0144682
682.829	0.0142249
682.907	0.0140026
682.985	0.0137819
683.063	0.0136932
683.141	0.0134279
683.219	0.0134348
683.298	0.0133222
683.376	0.0134084
683.454	0.0132803
683.532	0.0134526
683.610	0.0134509
683.688	0.0136739
683.766	0.0137480
683.844	0.0138908
683.923	0.0140827
684.001	0.0140796
684.079	0.0141676
684.157	0.0142640
684.235	0.0144597
684.313	0.0145438
684.391	0.0147515
684.469	0.0148431
684.548	0.0152773
684.626	0.0153349
684.704	0.0155056
684.782	0.0156436
684.860	0.0156950
684.938	0.0158392
685.016	0.0157314
685.094	0.0153365
685.173	0.0152213
685.251	0.0150141
685.329	0.0145742
685.407	0.0142434
685.485	0.0138801
685.563	0.0136707
685.641	0.0133723
685.719	0.0131249
685.798	0.0129954
685.876	0.0128239
685.954	0.0129060
686.032	0.0128527
686.110	0.0127876
686.188	0.0128421
686.266	0.0127128
686.344	0.0129395
686.423	0.0131192
686.501	0.0132698
686.579	0.0133065
686.657	0.0134204
686.735	0.0137276
686.813	0.0139180
686.891	0.0144360
686.969	0.0145417
687.048	0.0148640
687.126	0.0152213
687.204	0.0153876
687.282	0.0158347
687.360	0.0160918
687.438	0.0163023
687.516	0.0162601
687.594	0.0163950
687.673	0.0164257
687.751	0.0163542
687.829	0.0161821
687.907	0.0158387
687.985	0.0155064
688.063	0.0150224
688.141	0.0145855
688.219	0.0143056
688.298	0.0140686
688.376	0.0138471
688.454	0.0134739
688.532	0.0133918
688.610	0.0131980
688.688	0.0133495
688.766	0.0133935
688.844	0.0132779
688.923	0.0134286
689.001	0.0133382
689.079	0.0134863
689.157	0.0134607
689.235	0.0134239
689.313	0.0133916
689.391	0.0133733
689.469	0.0132949
689.548	0.0134166
689.626	0.0134449
689.704	0.0133404
689.782	0.0134111
689.860	0.0135738
689.938	0.0135052
690.016	0.0135053
690.094	0.0136451
690.173	0.0138748
690.251	0.0139534
690.329	0.0140344
690.407	0.0141477
690.485	0.0143793
690.563	0.0144993
690.641	0.0145937
690.719	0.0146646
690.798	0.0149719
690.876	0.0152003
690.954	0.0152476
691.032	0.0155174
691.110	0.0157741
691.188	0.0157858
691.266	0.0158421
691.344	0.0158734
691.423	0.0159980
691.501	0.0158672
691.579	0.0156999
691.657	0.0156429
691.735	0.0157554
691.813	0.0156119
691.891	0.0156203
691.969	0.0155727
692.048	0.0154527
692.126	0.0154282
692.204	0.0153427
692.282	0.0152313
692.360	0.0152185
692.438	0.0151440
692.516	0.0149118
692.594	0.0147669
692.673	0.0146466
692.751	0.0144254
692.829	0.0141706
692.907	0.0140656
692.985	0.0138138
693.063	0.0133319
693.141	0.0129708
693.219	0.0125730
693.298	0.0121319
693.376	0.0117260
693.454	0.0113454
693.532	0.0109470
693.610	0.0105354
693.688	0.0102941
693.766	0.0103045
693.844	0.0102860
693.923	0.0102251
694.001	0.0104021
694.079	0.0104938
694.157	0.0108755
694.235	0.0112973
694.313	0.0115856
694.391	0.0120682
694.469	0.0125571
694.548	0.0131969
694.626	0.0136988
694.704	0.0143556
694.782	0.0150083
694.860	0.0157027
694.938	0.0164458
695.016	0.0171787
695.094	0.0178495
695.173	0.0185243
695.251	0.0190794
695.329	0.0197231
695.407	0.0203175
695.485	0.0206562
695.563	0.0212340
695.641	0.0213427
695.719	0.0216569
695.798	0.0213769
695.876	0.0211093
695.954	0.0209191
696.032	0.0202888
696.110	0.0196793
696.188	0.0188445
696.266	0.0181043
696.344	0.0170154
696.423	0.0158920
696.501	0.0145634
696.579	0.0133363
696.657	0.0119691
696.735	0.0108403
696.813	0.00968452
696.891	0.00860527
696.969	0.00757561
697.048	0.00694450
697.126	0.00625732
697.204	0.00611572
697.282	0.00596420
697.360	0.00587509
697.438	0.00591888
697.516	0.00635262
697.594	0.00658592
697.673	0.00700882
697.751	0.00734604
697.829	0.00790352
697.907	0.00835869
697.985	0.00860878
698.063	0.00920364
698.141	0.00999657
698.219	0.0107178
698.298	0.0115928
698.376	0.0125406
698.454	0.0137247
698.532	0.0150551
698.610	0.0162481
698.688	0.0173721
698.766	0.0185034
698.844	0.0192854
698.923	0.0202897
699.001	0.0209641
699.079	0.0215303
699.157	0.0218336
699.235	0.0218398
699.313	0.0218769
699.391	0.0218563
699.469	0.0216096
699.548	0.0213299
699.626	0.0211119
699.704	0.0208260
699.782	0.0205523
699.860	0.0203242
699.938	0.0198701
700.016	0.0196648
700.094	0.0193618
700.173	0.0187923
700.251	0.0181257
700.329	0.0172256
700.407	0.0163918
700.485	0.0154173
700.563	0.0144360
700.641	0.0132242
700.719	0.0119490
700.798	0.0108919
700.876	0.00989067
700.954	0.00877953
701.032	0.00806313
701.110	0.00741829
701.188	0.00700249
701.266	0.00666878
701.344	0.00690414
701.423	0.00694420
701.501	0.00743233
701.579	0.00796074
701.657	0.00842545
701.735	0.00894249
701.813	0.00976158
701.891	0.0102892
701.969	0.0108551
702.048	0.0112017
702.126	0.0115962
702.204	0.0118659
702.282	0.0119625
702.360	0.0122292
702.438	0.0120184
702.516	0.0121686
702.594	0.0123055
702.673	0.0122839
702.751	0.0122236
702.829	0.0123045
702.907	0.0126303
702.985	0.0131932
703.063	0.0136104
703.141	0.0141846
703.219	0.0148080
703.298	0.0154862
703.376	0.0160769
703.454	0.0166914
703.532	0.0171635
703.610	0.0175427
703.688	0.0179528
703.766	0.0182133
703.844	0.0186604
703.923	0.0190006
704.001	0.0191863
704.079	0.0194262
704.157	0.0196419
704.235	0.0198038
704.313	0.0200124
704.391	0.0202484
704.469	0.0206602
704.548	0.0209210
704.626	0.0210177
704.704	0.0209986
704.782	0.0210268
704.860	0.0207184
704.938	0.0202110
705.016	0.0193781
705.094	0.0186802
705.173	0.0178483
705.251	0.0168450
705.329	0.0157349
705.407	0.0146652
705.485	0.0134574
705.563	0.0124359
705.641	0.0111854
705.719	0.00983757
705.798	0.00903465
705.876	0.00844254
705.954	0.00775352
706.032	0.00723862
706.110	0.00690155
706.188	0.00682289
706.266	0.00674835
706.344	0.00690201
706.423	0.00692894
706.501	0.00739372
706.579	0.00770401
706.657	0.00803169
706.735	0.00864799
706.813	0.00910439
706.891	0.00953827
706.969	0.0100160
707.048	0.0106179
707.126	0.0110328
707.204	0.0113120
707.282	0.0115092
707.360	0.0116637
707.438	0.0118723
707.516	0.0121218
707.594	0.0123038
707.673	0.0126203
707.751	0.0130207
707.829	0.0135197
707.907	0.0139384
707.985	0.0143588
708.063	0.0150123
708.141	0.0155990
708.219	0.0161664
708.298	0.0167873
708.376	0.0172424
708.454	0.0180482
708.532	0.0185462
708.610	0.0190966
708.688	0.0194819
708.766	0.0197392
708.844	0.0200813
708.923	0.0204118
709.001	0.0207210
709.079	0.0208612
709.157	0.0210516
709.235	0.0212951
709.313	0.0214623
709.391	0.0215863
709.469	0.0216154
709.548	0.0216034
709.626	0.0213713
709.704	0.0210415
709.782	0.0208709
709.860	0.0204176
709.938	0.0196624
710.016	0.0190763
710.094	0.0179812
710.173	0.0168349
710.251	0.0156950
710.329	0.0144540
710.407	0.0131039
710.485	0.0118896
710.563	0.0106694
710.641	0.00943413
710.719	0.00838921
710.798	0.00755905
710.876	0.00679184
710.954	0.00631203
711.032	0.00600113
711.110	0.00587257
711.188	0.00584846
711.266	0.00582077
711.344	0.00606316
711.423	0.00645378
711.501	0.00680771
711.579	0.00735466
711.657	0.00800377
711.735	0.00841255
711.813	0.00891129
711.891	0.00924133
711.969	0.00988609
712.048	0.0102732
712.126	0.0107047
712.204	0.0110086
712.282	0.0114310
712.360	0.0120071
712.438	0.0125017
712.516	0.0130328
712.594	0.0135949
712.673	0.0140997
712.751	0.0147919
712.829	0.0152118
712.907	0.0157708
712.985	0.0163731
713.063	0.0169221
713.141	0.0174869
713.219	0.0177784
713.298	0.0182265
713.376	0.0185971
713.454	0.0191068
713.532	0.0192998
713.610	0.0194241
713.688	0.0195918
713.766	0.0196631
713.844	0.0197740
713.923	0.0199045
714.001	0.0199230
714.079	0.0201038
714.157	0.0201771
714.235	0.0200938
714.313	0.0199827
714.391	0.0200681
714.469	0.0199184
714.548	0.0195698
714.626	0.0191248
714.704	0.0188976
714.782	0.0183099
714.860	0.0177612
714.938	0.0172425
715.016	0.0164039
715.094	0.0159119
715.173	0.0150409
715.251	0.0142592
715.329	0.0136446
715.407	0.0129222
715.485	0.0124708
715.563	0.0117850
715.641	0.0112528
715.719	0.0108835
715.798	0.0105645
715.876	0.0102225
715.954	0.0100102
716.032	0.00980682
716.110	0.00973732
716.188	0.00944000
716.266	0.00963982
716.344	0.00960327
716.423	0.00966614
716.501	0.00976730
716.579	0.00965355
716.657	0.00990425
716.735	0.00975121
716.813	0.00986771
716.891	0.00991791
716.969	0.0100563
717.048	0.0102198
717.126	0.0103674
717.204	0.0103963
717.282	0.0106512
717.360	0.0109113
717.438	0.0111711
717.516	0.0115998
717.594	0.0119276
717.673	0.0123738
717.751	0.0128137
717.829	0.0132655
717.907	0.0139806
717.985	0.0144653
718.063	0.0151867
718.141	0.0156071
718.219	0.0161948
718.298	0.0169267
718.376	0.0172877
718.454	0.0177091
718.532	0.0181580
718.610	0.0185404
718.688	0.0184648
718.766	0.0186445
718.844	0.0188819
718.923	0.0186701
719.001	0.0185738
719.079	0.0183367
719.157	0.0182193
719.235	0.0180558
719.313	0.0178138
719.391	0.0175653
719.469	0.0174705
719.548	0.0173041
719.626	0.0168959
719.704	0.0166740
719.782	0.0164253
719.860	0.0163181
719.938	0.0159553
720.016	0.0157893
720.094	0.0156673
720.173	0.0152831
720.251	0.0151640
720.329	0.0149442
720.407	0.0147077
720.485	0.0144096
720.563	0.0142129
720.641	0.0139955
720.719	0.0138480
720.798	0.0136101
720.876	0.0135593
720.954	0.0133822
721.032	0.0131662
721.110	0.0129877
721.188	0.0126986
721.266	0.0125914
721.344	0.0125025
721.423	0.0123257
721.501	0.0122015
721.579	0.0121439
721.657	0.0118607
721.735	0.0116129
721.813	0.0114829
721.891	0.0113151
721.969	0.0113470
722.048	0.0113603
722.126	0.0112552
722.204	0.0111827
722.282	0.0113060
722.360	0.0114419
722.438	0.0116252
722.516	0.0117849
722.594	0.0120281
722.673	0.0122198
722.751	0.0125060
722.829	0.0127983
722.907	0.0130122
722.985	0.0133138
723.063	0.0133353
723.141	0.0136411
723.219	0.0139927
723.298	0.0141068
723.376	0.0144524
723.454	0.0145259
723.532	0.0147601
723.610	0.0150674
723.688	0.0153963
723.766	0.0155945
723.844	0.0158492
723.923	0.0158662
724.001	0.0160716
724.079	0.0161973
724.157	0.0162320
724.235	0.0162686
724.313	0.0161610
724.391	0.0160879
724.469	0.0159157
724.548	0.0156791
724.626	0.0152884
724.704	0.0149324
724.782	0.0147890
724.860	0.0145750
724.938	0.0141376
725.016	0.0140326
725.094	0.0140044
725.173	0.0137258
725.251	0.0138356
725.329	0.0138448
725.407	0.0141809
725.485	0.0142873
725.563	0.0147111
725.641	0.0148146
725.719	0.0152926
725.798	0.0154755
725.876	0.0158276
725.954	0.0159006
726.032	0.0161994
726.110	0.0163955
726.188	0.0163739
726.266	0.0163778
726.344	0.0162979
726.423	0.0160798
726.501	0.0158353
726.579	0.0156429
726.657	0.0153012
726.735	0.0150217
726.813	0.0146359
726.891	0.0143653
726.969	0.0140807
727.048	0.0138055
727.126	0.0135120
727.204	0.0132885
727.282	0.0131890
727.360	0.0129167
727.438	0.0129522
727.516	0.0129136
727.594	0.0126881
727.673	0.0127309
727.751	0.0129007
727.829	0.0129148
727.907	0.0129318
727.985	0.0130127
728.063	0.0129100
728.141	0.0129893
728.219	0.0130421
728.298	0.0131856
728.376	0.0132049
728.454	0.0131878
728.532	0.0131797
728.610	0.0130320
728.688	0.0131463
728.766	0.0131536
728.844	0.0132516
728.923	0.0132660
729.001	0.0133884
729.079	0.0134612
729.157	0.0134670
729.235	0.0134845
729.313	0.0134339
729.391	0.0133840
729.469	0.0134042
729.548	0.0133916
729.626	0.0132383
729.704	0.0132897
729.782	0.0132937
729.860	0.0129881
729.938	0.0131486
730.016	0.0132890
730.094	0.0133706
730.173	0.0134907
730.251	0.0136675
730.329	0.0138118
730.407	0.0139906
730.485	0.0143085
730.563	0.0146619
730.641	0.0148067
730.719	0.0150561
730.798	0.0153304
730.876	0.0153826
730.954	0.0156817
731.032	0.0158975
731.110	0.0159146
731.188	0.0160056
731.266	0.0162183
731.344	0.0163730
731.423	0.0162752
731.501	0.0163263
731.579	0.0163671
731.657	0.0162057
731.735	0.0161164
731.813	0.0159769
731.891	0.0159502
731.969	0.0161166
732.048	0.0158590
732.126	0.0158277
732.204	0.0157951
732.282	0.0154131
732.360	0.0153210
732.438	0.0153119
732.516	0.0151904
732.594	0.0148856
732.673	0.0148916
732.751	0.0145992
732.829	0.0144247
732.907	0.0143605
732.985	0.0141072
733.063	0.0138759
733.141	0.0138449
733.219	0.0136803
733.298	0.0134458
733.376	0.0135355
733.454	0.0134005
733.532	0.0135093
733.610	0.0132253
733.688	0.0132870
733.766	0.0133913
733.844	0.0132101
733.923	0.0132029
734.001	0.0131388
734.079	0.0130481
734.157	0.0129590
734.235	0.0130165
734.313	0.0129285
734.391	0.0127478
734.469	0.0128514
734.548	0.0127148
734.626	0.0127917
734.704	0.0127334
734.782	0.0126529
734.860	0.0126354
734.938	0.0128587
735.016	0.0128110
735.094	0.0130078
735.173	0.0130518
735.251	0.0131030
735.329	0.0130154
735.407	0.0132594
735.485	0.0133665
735.563	0.0134155
735.641	0.0136810
735.719	0.0137151
735.798	0.0138569
735.876	0.0137795
735.954	0.0138427
736.032	0.0139994
736.110	0.0140605
736.188	0.0141681
736.266	0.0143602
736.344	0.0143636
736.423	0.0146430
736.501	0.0148266
736.579	0.0150196
736.657	0.0152025
736.735	0.0153727
736.813	0.0156304
736.891	0.0157430
736.969	0.0158746
737.048	0.0159324
737.126	0.0158878
737.204	0.0159729
737.282	0.0159475
737.360	0.0158343
737.438	0.0156602
737.516	0.0156633
737.594	0.0154705
737.673	0.0154923
737.751	0.0152618
737.829	0.0152083
737.907	0.0149490
737.985	0.0149196
738.063	0.0148166
738.141	0.0147108
738.219	0.0148095
738.298	0.0148150
738.376	0.0146889
738.454	0.0147699
738.532	0.0146854
738.610	0.0146651
738.688	0.0148130
738.766	0.0147665
738.844	0.0147224
738.923	0.0147804
739.001	0.0145624
739.079	0.0144225
739.157	0.0144141
739.235	0.0142796
739.313	0.0141706
739.391	0.0141893
739.469	0.0140916
739.548	0.0139853
739.626	0.0139568
739.704	0.0138476
739.782	0.0138446
739.860	0.0136925
739.938	0.0137236
740.016	0.0137134
740.094	0.0135814
740.173	0.0135665
740.251	0.0135300
740.329	0.0134736
740.407	0.0135709
740.485	0.0135157
740.563	0.0133235
740.641	0.0132809
740.719	0.0133260
740.798	0.0134654
740.876	0.0132841
740.954	0.0132613
741.032	0.0133766
741.110	0.0133790
741.188	0.0132087
741.266	0.0134229
741.344	0.0132507
741.423	0.0134251
741.501	0.0133339
741.579	0.0133974
741.657	0.0134277
741.735	0.0134716
741.813	0.0137101
741.891	0.0136984
741.969	0.0136732
742.048	0.0137386
742.126	0.0138774
742.204	0.0138160
742.282	0.0139514
742.360	0.0139587
742.438	0.0141050
742.516	0.0140627
742.594	0.0142570
742.673	0.0143381
742.751	0.0144871
742.829	0.0145206
742.907	0.0145094
742.985	0.0146108
743.063	0.0148734
743.141	0.0150179
743.219	0.0149264
743.298	0.0151263
743.376	0.0151649
743.454	0.0151871
743.532	0.0152419
743.610	0.0152498
743.688	0.0151386
743.766	0.0152589
743.844	0.0151505
743.923	0.0150543
744.001	0.0151671
744.079	0.0152277
744.157	0.0151534
744.235	0.0152608
744.313	0.0151406
744.391	0.0151882
744.469	0.0152799
744.548	0.0154070
744.626	0.0153761
744.704	0.0153920
744.782	0.0154025
744.860	0.0152892
744.938	0.0152234
745.016	0.0153059
745.094	0.0152467
745.173	0.0150283
745.251	0.0150240
745.329	0.0148849
745.407	0.0146894
745.485	0.0145744
745.563	0.0145085
745.641	0.0143333
745.719	0.0141277
745.798	0.0140080
745.876	0.0138343
745.954	0.0138706
746.032	0.0137260
746.110	0.0136488
746.188	0.0135136
746.266	0.0136308
746.344	0.0134554
746.423	0.0135103
746.501	0.0133298
746.579	0.0133337
746.657	0.0132464
746.735	0.0133361
746.813	0.0132511
746.891	0.0130443
746.969	0.0128709
747.048	0.0130709
747.126	0.0130497
747.204	0.0130779
747.282	0.0130453
747.360	0.0130301
747.438	0.0130074
747.516	0.0132035
747.594	0.0132014
747.673	0.0132905
747.751	0.0133168
747.829	0.0132586
747.907	0.0133734
747.985	0.0133696
748.063	0.0136108
748.141	0.0136907
748.219	0.0138710
748.298	0.0138367
748.376	0.0137903
748.454	0.0138676
748.532	0.0137352
748.610	0.0138713
748.688	0.0141563
748.766	0.0141431
748.844	0.0141747
748.923	0.0144466
749.001	0.0143544
749.079	0.0146152
749.157	0.0148624
749.235	0.0149265
749.313	0.0149542
749.391	0.0150755
749.469	0.0150469
749.548	0.0152692
749.626	0.0153348
749.704	0.0153449
749.782	0.0153025
749.860	0.0151775
749.938	0.0152237
750.016	0.0151434
750.094	0.0152438
750.173	0.0151519
750.251	0.0150122
750.329	0.0149097
750.407	0.0148347
750.485	0.0148157
750.563	0.0147397
750.641	0.0146994
750.719	0.0146649
750.798	0.0146917
750.876	0.0145931
750.954	0.0146104
751.032	0.0146020
751.110	0.0146830
751.188	0.0145341
751.266	0.0145453
751.344	0.0143549
751.423	0.0144840
751.501	0.0144402
751.579	0.0142827
751.657	0.0143389
751.735	0.0142772
751.813	0.0143228
751.891	0.0142230
751.969	0.0142369
752.048	0.0141690
752.126	0.0141337
752.204	0.0140872
752.282	0.0141650
752.360	0.0139938
752.438	0.0141199
752.516	0.0140086
752.594	0.0139069
752.673	0.0138593
752.751	0.0138545
752.829	0.0137505
752.907	0.0137130
752.985	0.0136495
753.063	0.0136237
753.141	0.0135365
753.219	0.0134904
753.298	0.0135165
753.376	0.0133958
753.454	0.0133891
753.532	0.0133070
753.610	0.0132882
753.688	0.0134259
753.766	0.0133447
753.844	0.0133613
753.923	0.0135523
754.001	0.0135645
754.079	0.0137279
754.157	0.0136992
754.235	0.0138234
754.313	0.0140038
754.391	0.0140739
754.469	0.0141045
754.548	0.0140777
754.626	0.0142075
754.704	0.0141304
754.782	0.0140863
754.860	0.0139970
754.938	0.0140794
755.016	0.0140717
755.094	0.0141642
755.173	0.0141427
755.251	0.0141225
755.329	0.0141241
755.407	0.0141838
755.485	0.0142227
755.563	0.0142950
755.641	0.0143747
755.719	0.0143652
755.798	0.0143644
755.876	0.0143519
755.954	0.0143312
756.032	0.0144390
756.110	0.0144472
756.188	0.0144188
756.266	0.0143349
756.344	0.0143975
756.423	0.0146844
756.501	0.0144580
756.579	0.0145488
756.657	0.0146485
756.735	0.0148647
756.813	0.0145753
756.891	0.0146918
756.969	0.0146396
757.048	0.0149320
757.126	0.0149910
757.204	0.0149480
757.282	0.0150088
757.360	0.0150825
757.438	0.0151875
757.516	0.0150297
757.594	0.0150610
757.673	0.0149158
757.751	0.0150056
757.829	0.0149107
757.907	0.0149308
757.985	0.0148569
758.063	0.0146899
758.141	0.0145420
758.219	0.0144474
758.298	0.0144391
758.376	0.0143005
758.454	0.0141644
758.532	0.0141220
758.610	0.0141891
758.688	0.0140942
758.766	0.0140276
758.844	0.0138412
758.923	0.0139334
759.001	0.0138895
759.079	0.0138440
759.157	0.0138344
759.235	0.0136882
759.313	0.0137788
759.391	0.0137416
759.469	0.0136369
759.548	0.0135995
759.626	0.0136761
759.704	0.0136773
759.782	0.0135020
759.860	0.0137266
759.938	0.0137054
760.016	0.0137572
760.094	0.0138729
760.173	0.0138369
760.251	0.0138662
760.329	0.0137751
760.407	0.0139684
760.485	0.0141521
760.563	0.0139021
760.641	0.0139313
760.719	0.0141294
760.798	0.0140976
760.876	0.0141328
760.954	0.0140520
761.032	0.0141557
761.110	0.0140410
761.188	0.0139355
761.266	0.0139278
761.344	0.0139279
761.423	0.0137912
761.501	0.0137589
761.579	0.0138519
761.657	0.0140297
761.735	0.0139783
761.813	0.0139971
761.891	0.0141476
761.969	0.0142138
762.048	0.0141963
762.126	0.0142975
762.204	0.0143298
762.282	0.0144969
762.360	0.0144080
762.438	0.0144672
762.516	0.0146926
762.594	0.0147453
762.673	0.0147950
762.751	0.0147514
762.829	0.0149390
762.907	0.0148922
762.985	0.0149406
763.063	0.0149863
763.141	0.0148835
763.219	0.0150124
763.298	0.0150893
763.376	0.0149752
763.454	0.0149111
763.532	0.0148129
763.610	0.0148650
763.688	0.0148796
763.766	0.0148257
763.844	0.0147659
763.923	0.0147196
764.001	0.0147508
764.079	0.0145185
764.157	0.0143575
764.235	0.0143622
764.313	0.0143642
764.391	0.0142461
764.469	0.0141479
764.548	0.0140708
764.626	0.0140359
764.704	0.0140458
764.782	0.0139785
764.860	0.0140639
764.938	0.0141360
765.016	0.0139306
765.094	0.0141754
765.173	0.0141764
765.251	0.0140460
765.329	0.0141644
765.407	0.0142829
765.485	0.0142677
765.563	0.0142405
765.641	0.0141409
765.719	0.0140919
765.798	0.0141416
765.876	0.0141257
765.954	0.0142101
766.032	0.0141570
766.110	0.0142083
766.188	0.0141878
766.266	0.0142288
766.344	0.0140658
766.423	0.0141946
766.501	0.0141648
766.579	0.0142549
766.657	0.0141061
766.735	0.0141505
766.813	0.0141653
766.891	0.0141639
766.969	0.0140073
767.048	0.0140414
767.126	0.0139892
767.204	0.0140266
767.282	0.0139735
767.360	0.0139375
767.438	0.0138652
767.516	0.0137313
767.594	0.0135985
767.673	0.0138850
767.751	0.0139142
767.829	0.0137548
767.907	0.0137163
767.985	0.0139185
768.063	0.0139782
768.141	0.0140189
768.219	0.0141697
768.298	0.0141463
768.376	0.0141644
768.454	0.0141721
768.532	0.0142290
768.610	0.0142943
768.688	0.0143703
768.766	0.0145013
768.844	0.0144645
768.923	0.0144646
769.001	0.0143918
769.079	0.0144241
769.157	0.0145071
769.235	0.0144486
769.313	0.0143991
769.391	0.0143972
769.469	0.0145930
769.548	0.0144380
769.626	0.0144205
769.704	0.0143269
769.782	0.0144400
769.860	0.0143989
769.938	0.0144949
770.016	0.0143951
770.094	0.0145292
770.173	0.0144247
770.251	0.0144934
770.329	0.0144057
770.407	0.0144289
770.485	0.0144660
770.563	0.0145898
770.641	0.0144674
770.719	0.0143936
770.798	0.0145745
770.876	0.0144801
770.954	0.0144543
771.032	0.0145216
771.110	0.0146075
771.188	0.0144958
771.266	0.0144096
771.344	0.0146053
771.423	0.0145608
771.501	0.0147311
771.579	0.0146132
771.657	0.0146400
771.735	0.0146827
771.813	0.0146399
771.891	0.0146073
771.969	0.0144736
772.048	0.0145730
772.126	0.0143320
772.204	0.0142348
772.282	0.0140189
772.360	0.0141050
772.438	0.0139571
772.516	0.0137337
772.594	0.0136646
772.673	0.0136774
772.751	0.0136526
772.829	0.0136176
772.907	0.0137279
772.985	0.0135460
773.063	0.0135585
773.141	0.0135733
773.219	0.0135938
773.298	0.0137418
773.376	0.0137217
773.454	0.0137614
773.532	0.0138862
773.610	0.0138626
773.688	0.0138638
773.766	0.0140163
773.844	0.0138847
773.923	0.0139438
774.001	0.0141660
774.079	0.0141506
774.157	0.0141274
774.235	0.0141367
774.313	0.0142718
774.391	0.0143302
774.469	0.0142680
774.548	0.0142139
774.626	0.0143282
774.704	0.0144387
774.782	0.0143645
774.860	0.0144432
774.938	0.0142656
775.016	0.0142349
775.094	0.0144935
775.173	0.0144765
775.251	0.0143975
775.329	0.0142406
775.407	0.0141727
775.485	0.0142854
775.563	0.0143764
775.641	0.0141591
775.719	0.0143138
775.798	0.0142496
775.876	0.0140281
775.954	0.0140510
776.032	0.0141335
776.110	0.0141982
776.188	0.0140971
776.266	0.0140495
776.344	0.0141284
776.423	0.0140168
776.501	0.0142116
776.579	0.0141630
776.657	0.0143314
776.735	0.0141977
776.813	0.0141070
776.891	0.0142622
776.969	0.0142247
777.048	0.0141899
777.126	0.0142631
777.204	0.0143243
777.282	0.0143319
777.360	0.0143139
777.438	0.0143772
777.516	0.0141741
777.594	0.0143668
777.673	0.0145030
777.751	0.0143607
777.829	0.0143605
777.907	0.0144868
777.985	0.0145253
778.063	0.0145716
778.141	0.0145560
778.219	0.0147289
778.298	0.0146011
778.376	0.0144637
778.454	0.0144637
778.532	0.0144711
778.610	0.0146429
778.688	0.0144681
778.766	0.0145530
778.844	0.0145142
778.923	0.0144891
779.001	0.0145214
779.079	0.0143917
779.157	0.0143210
779.235	0.0143321
779.313	0.0142345
779.391	0.0141661
779.469	0.0142554
779.548	0.0142359
779.626	0.0143443
779.704	0.0141698
779.782	0.0141293
779.860	0.0140768
779.938	0.0140726
780.016	0.0139433
780.094	0.0139710
780.173	0.0139178
780.251	0.0138667
780.329	0.0139669
780.407	0.0138870
780.485	0.0140368
780.563	0.0139003
780.641	0.0139579
780.719	0.0139585
780.798	0.0139599
780.876	0.0139671
780.954	0.0139619
781.032	0.0139606
781.110	0.0139013
781.188	0.0141016
781.266	0.0140701
781.344	0.0140612
781.423	0.0139758
781.501	0.0138582
781.579	0.0139071
781.657	0.0138470
781.735	0.0138674
781.813	0.0138325
781.891	0.0138866
781.969	0.0138512
782.048	0.0139708
782.126	0.0140857
782.204	0.0140000
782.282	0.0140843
782.360	0.0141029
782.438	0.0141955
782.516	0.0143309
782.594	0.0142519
782.673	0.0142949
782.751	0.0143578
782.829	0.0144859
782.907	0.0144435
782.985	0.0144210
783.063	0.0146304
783.141	0.0146574
783.219	0.0145821
783.298	0.0146457
783.376	0.0148003
783.454	0.0147828
783.532	0.0146756
783.610	0.0149834
783.688	0.0148512
783.766	0.0149167
783.844	0.0149823
783.923	0.0148817
784.001	0.0149273
784.079	0.0147206
784.157	0.0149614
784.235	0.0147783
784.313	0.0147088
784.391	0.0147123
784.469	0.0146651
784.548	0.0144302
784.626	0.0144821
784.704	0.0145510
784.782	0.0144562
784.860	0.0144286
784.938	0.0142217
785.016	0.0141530
785.094	0.0140166
785.173	0.0140706
785.251	0.0138946
785.329	0.0139426
785.407	0.0139296
785.485	0.0137753
785.563	0.0137356
785.641	0.0138364
785.719	0.0137979
785.798	0.0139392
785.876	0.0140437
785.954	0.0139348
786.032	0.0139616
786.110	0.0139666
786.188	0.0139796
786.266	0.0140388
786.344	0.0140081
786.423	0.0139966
786.501	0.0140118
786.579	0.0140971
786.657	0.0141583
786.735	0.0141015
786.813	0.0141329
786.891	0.0140379
786.969	0.0143092
787.048	0.0140509
787.126	0.0141389
787.204	0.0143215
787.282	0.0142557
787.360	0.0142593
787.438	0.0143999
787.516	0.0145500
787.594	0.0144930
787.673	0.0145054
787.751	0.0145300
787.829	0.0145233
787.907	0.0145795
787.985	0.0145415
788.063	0.0147190
788.141	0.0146070
788.219	0.0145886
788.298	0.0148048
788.376	0.0147162
788.454	0.0146268
788.532	0.0145627
788.610	0.0145970
788.688	0.0145435
788.766	0.0145665
788.844	0.0144434
788.923	0.0143707
789.001	0.0143881
789.079	0.0143051
789.157	0.0143014
789.235	0.0141808
789.313	0.0141909
789.391	0.0140950
789.469	0.0139971
789.548	0.0139774
789.626	0.0137730
789.704	0.0136738
789.782	0.0138189
789.860	0.0136285
789.938	0.0135654
790.016	0.0135914
790.094	0.0136108
790.173	0.0134840
790.251	0.0135480
790.329	0.0134460
790.407	0.0135101
790.485	0.0134297
790.563	0.0135957
790.641	0.0136774
790.719	0.0136178
790.798	0.0138503
790.876	0.0141035
790.954	0.0140076
791.032	0.0140420
791.110	0.0141048
791.188	0.0143094
791.266	0.0143533
791.344	0.0144918
791.423	0.0147894
791.501	0.0146482
791.579	0.0147309
791.657	0.0149441
791.735	0.0150285
791.813	0.0150421
791.891	0.0151406
791.969	0.0153148
792.048	0.0152412
792.126	0.0153645
792.204	0.0152141
792.282	0.0152811
792.360	0.0151930
792.438	0.0153033
792.516	0.0151500
792.594	0.0152570
792.673	0.0150490
792.751	0.0149799
792.829	0.0148383
792.907	0.0146494
792.985	0.0145699
793.063	0.0141943
793.141	0.0142070
793.219	0.0142349
793.298	0.0140041
793.376	0.0138013
793.454	0.0136869
793.532	0.0135122
793.610	0.0135612
793.688	0.0134924
793.766	0.0133548
793.844	0.0134492
793.923	0.0133655
794.001	0.0132322
794.079	0.0132215
794.157	0.0132002
794.235	0.0131346
794.313	0.0132408
794.391	0.0132703
794.469	0.0131036
794.548	0.0132996
794.626	0.0134261
794.704	0.0135574
794.782	0.0136646
794.860	0.0136517
794.938	0.0137110
795.016	0.0139902
795.094	0.0138866
795.173	0.0139441
795.251	0.0141235
795.329	0.0142623
795.407	0.0143966
795.485	0.0145104
795.563	0.0146541
795.641	0.0145766
795.719	0.0145852
795.798	0.0146992
795.876	0.0148720
795.954	0.0149838
796.032	0.0151614
796.110	0.0151327
796.188	0.0151795
796.266	0.0152293
796.344	0.0152830
796.423	0.0152591
796.501	0.0153214
796.579	0.0152441
796.657	0.0151575
796.735	0.0151899
796.813	0.0151311
796.891	0.0150972
796.969	0.0149093
797.048	0.0147926
797.126	0.0145974
797.204	0.0143409
797.282	0.0142333
797.360	0.0141849
797.438	0.0140945
797.516	0.0138490
797.594	0.0138444
797.673	0.0136522
797.751	0.0135844
797.829	0.0135398
797.907	0.0133340
797.985	0.0133213
798.063	0.0132671
798.141	0.0132478
798.219	0.0133830
798.298	0.0132126
798.376	0.0132523
798.454	0.0133270
798.532	0.0135169
798.610	0.0135768
798.688	0.0135300
798.766	0.0136316
798.844	0.0138509
798.923	0.0138485
799.001	0.0138976
799.079	0.0139311
799.157	0.0141898
799.235	0.0142832
799.313	0.0144059
799.391	0.0145535
799.469	0.0143665
799.548	0.0144276
799.626	0.0144737
799.704	0.0144698
799.782	0.0145778
799.860	0.0144624
799.938	0.0143847
800.016	0.0143622
800.094	0.0145116
800.173	0.0145177
800.251	0.0146982
800.329	0.0145715
800.407	0.0146438
800.485	0.0146133
800.563	0.0146590
800.641	0.0147958
800.719	0.0149749
800.798	0.0149306
800.876	0.0148674
800.954	0.0150485
801.032	0.0149813
801.110	0.0149480
801.188	0.0150130
801.266	0.0150864
801.344	0.0149540
801.423	0.0148618
801.501	0.0148519
801.579	0.0147955
801.657	0.0146517
801.735	0.0145221
801.813	0.0143440
801.891	0.0143678
801.969	0.0141238
802.048	0.0138873
802.126	0.0138188
802.204	0.0136007
802.282	0.0135244
802.360	0.0135761
802.438	0.0133146
802.516	0.0133451
802.594	0.0131830
802.673	0.0129045
802.751	0.0131302
802.829	0.0131181
802.907	0.0129792
802.985	0.0129046
803.063	0.0130556
803.141	0.0130477
803.219	0.0130883
803.298	0.0133984
803.376	0.0133479
803.454	0.0132179
803.532	0.0134729
803.610	0.0135002
803.688	0.0137149
803.766	0.0135824
803.844	0.0137775
803.923	0.0138618
804.001	0.0139973
804.079	0.0141397
804.157	0.0143279
804.235	0.0143814
804.313	0.0143887
804.391	0.0144293
804.469	0.0144102
804.548	0.0144830
804.626	0.0144011
804.704	0.0145514
804.782	0.0148126
804.860	0.0147760
804.938	0.0146570
805.016	0.0147517
805.094	0.0148623
805.173	0.0150002
805.251	0.0150311
805.329	0.0150689
805.407	0.0150861
805.485	0.0151882
805.563	0.0152901
805.641	0.0152219
805.719	0.0152892
805.798	0.0153747
805.876	0.0154298
805.954	0.0154666
806.032	0.0155151
806.110	0.0153868
806.188	0.0154886
806.266	0.0153406
806.344	0.0153024
806.423	0.0153048
806.501	0.0150875
806.579	0.0149915
806.657	0.0147488
806.735	0.0146836
806.813	0.0144704
806.891	0.0143297
806.969	0.0140856
807.048	0.0137170
807.126	0.0136552
807.204	0.0136147
807.282	0.0133566
807.360	0.0132169
807.438	0.0132054
807.516	0.0130854
807.594	0.0126914
807.673	0.0127328
807.751	0.0127488
807.829	0.0127384
807.907	0.0127232
807.985	0.0128647
808.063	0.0129772
808.141	0.0130121
808.219	0.0129889
808.298	0.0130772
808.376	0.0131767
808.454	0.0132712
808.532	0.0133697
808.610	0.0133173
808.688	0.0134973
808.766	0.0134898
808.844	0.0138432
808.923	0.0139204
809.001	0.0139465
809.079	0.0139110
809.157	0.0139828
809.235	0.0141569
809.313	0.0141133
809.391	0.0140347
809.469	0.0141794
809.548	0.0143691
809.626	0.0142126
809.704	0.0143535
809.782	0.0144794
809.860	0.0144080
809.938	0.0146527
810.016	0.0147232
810.094	0.0148386
810.173	0.0150387
810.251	0.0151380
810.329	0.0150664
810.407	0.0152423
810.485	0.0153030
810.563	0.0152757
810.641	0.0155556
810.719	0.0155148
810.798	0.0155164
810.876	0.0154025
810.954	0.0155199
811.032	0.0155604
811.110	0.0155023
811.188	0.0153203
811.266	0.0153391
811.344	0.0152229
811.423	0.0151729
811.501	0.0150806
811.579	0.0150240
811.657	0.0150211
811.735	0.0150590
811.813	0.0147999
811.891	0.0143884
811.969	0.0144978
812.048	0.0143433
812.126	0.0142206
812.204	0.0138807
812.282	0.0139814
812.360	0.0139716
812.438	0.0138628
812.516	0.0136323
812.594	0.0135867
812.673	0.0135300
812.751	0.0133961
812.829	0.0133569
812.907	0.0133276
812.985	0.0132082
813.063	0.0130984
813.141	0.0132333
813.219	0.0131799
813.298	0.0131806
813.376	0.0132701
813.454	0.0132645
813.532	0.0132652
813.610	0.0132961
813.688	0.0133532
813.766	0.0132726
813.844	0.0134290
813.923	0.0135809
814.001	0.0135332
814.079	0.0136465
814.157	0.0137167
814.235	0.0136435
814.313	0.0137568
814.391	0.0139231
814.469	0.0139316
814.548	0.0140302
814.626	0.0141276
814.704	0.0140823
814.782	0.0142829
814.860	0.0142964
814.938	0.0144903
815.016	0.0144280
815.094	0.0144542
815.173	0.0146023
815.251	0.0145168
815.329	0.0146400
815.407	0.0147073
815.485	0.0147994
815.563	0.0147494
815.641	0.0147717
815.719	0.0150520
815.798	0.0150094
815.876	0.0150763
815.954	0.0149667
816.032	0.0151234
816.110	0.0150249
816.188	0.0151268
816.266	0.0153362
816.344	0.0150465
816.423	0.0152759
816.501	0.0152622
816.579	0.0152030
816.657	0.0151930
816.735	0.0150604
816.813	0.0150025
816.891	0.0150477
816.969	0.0149757
817.048	0.0148232
817.126	0.0147449
817.204	0.0148057
817.282	0.0147513
817.360	0.0145165
817.438	0.0143981
817.516	0.0143383
817.594	0.0143412
817.673	0.0141110
817.751	0.0139570
817.829	0.0139439
817.907	0.0138676
817.985	0.0136637
818.063	0.0138095
818.141	0.0135963
818.219	0.0135712
818.298	0.0135655
818.376	0.0133591
818.454	0.0132650
818.532	0.0133471
818.610	0.0133698
818.688	0.0131317
818.766	0.0131659
818.844	0.0132293
818.923	0.0133579
819.001	0.0132852
819.079	0.0134042
819.157	0.0133244
819.235	0.0133456
819.313	0.0136481
819.391	0.0136739
819.469	0.0135474
819.548	0.0136508
819.626	0.0137630
819.704	0.0137162
819.782	0.0138275
819.860	0.0139919
819.938	0.0140285
820.016	0.0140246
820.094	0.0140512
820.173	0.0142482
820.251	0.0141810
820.329	0.0143562
820.407	0.0143218
820.485	0.0144063
820.563	0.0145988
820.641	0.0146560
820.719	0.0144854
820.798	0.0146752
820.876	0.0145466
820.954	0.0146873
821.032	0.0147681
821.110	0.0148760
821.188	0.0148571
821.266	0.0148025
821.344	0.0147868
821.423	0.0149030
821.501	0.0148395
821.579	0.0149559
821.657	0.0147437
821.735	0.0147781
821.813	0.0148028
821.891	0.0147767
821.969	0.0148648
822.048	0.0148293
822.126	0.0147560
822.204	0.0148208
822.282	0.0147784
822.360	0.0146135
822.438	0.0146017
822.516	0.0147203
822.594	0.0147031
822.673	0.0144976
822.751	0.0144727
822.829	0.0144220
822.907	0.0145283
822.985	0.0144466
823.063	0.0142440
823.141	0.0142735
823.219	0.0141402
823.298	0.0141039
823.376	0.0140643
823.454	0.0139714
823.532	0.0138297
823.610	0.0137189
823.688	0.0137533
823.766	0.0137604
823.844	0.0135832
823.923	0.0136543
824.001	0.0135336
824.079	0.0135614
824.157	0.0135920
824.235	0.0134566
824.313	0.0134171
824.391	0.0134566
824.469	0.0135505
824.548	0.0134645
824.626	0.0134991
824.704	0.0136143
824.782	0.0137968
824.860	0.0138912
824.938	0.0139310
825.016	0.0139558
825.094	0.0140782
825.173	0.0140176
825.251	0.0142525
825.329	0.0142538
825.407	0.0141656
825.485	0.0142669
825.563	0.0143601
825.641	0.0142757
825.719	0.0141152
825.798	0.0141988
825.876	0.0141769
825.954	0.0141044
826.032	0.0140009
826.110	0.0139547
826.188	0.0140337
826.266	0.0140871
826.344	0.0140483
826.423	0.0139858
826.501	0.0140517
826.579	0.0140424
826.657	0.0139908
826.735	0.0140269
826.813	0.0140553
826.891	0.0140742
826.969	0.0142242
827.048	0.0142718
827.126	0.0143281
827.204	0.0142779
827.282	0.0144634
827.360	0.0144811
827.438	0.0144112
827.516	0.0145335
827.594	0.0147010
827.673	0.0147649
827.751	0.0147909
827.829	0.0148344
827.907	0.0147939
827.985	0.0148071
828.063	0.0147926
828.141	0.0146979
828.219	0.0145454
828.298	0.0145522
828.376	0.0145007
828.454	0.0145306
828.532	0.0145076
828.610	0.0143126
828.688	0.0142751
828.766	0.0142898
828.844	0.0141355
828.923	0.0141780
829.001	0.0141599
829.079	0.0140405
829.157	0.0140993
829.235	0.0139276
829.313	0.0138152
829.391	0.0139149
829.469	0.0138142
829.548	0.0139747
829.626	0.0139049
829.704	0.0138994
829.782	0.0139026
829.860	0.0139925
829.938	0.0139713
830.016	0.0140398
830.094	0.0140636
830.173	0.0141893
830.251	0.0141208
830.329	0.0140556
830.407	0.0140790
830.485	0.0141071
830.563	0.0140321
830.641	0.0139176
830.719	0.0140647
830.798	0.0140234
830.876	0.0138689
830.954	0.0139656
831.032	0.0138784
831.110	0.0138374
831.188	0.0139651
831.266	0.0140575
831.344	0.0139388
831.423	0.0137686
831.501	0.0137270
831.579	0.0139231
831.657	0.0139870
831.735	0.0139570
831.813	0.0140064
831.891	0.0140620
831.969	0.0141391
832.048	0.0141971
832.126	0.0141137
832.204	0.0142201
832.282	0.0142631
832.360	0.0142875
832.438	0.0143164
832.516	0.0141617
832.594	0.0143256
832.673	0.0143302
832.751	0.0144636
832.829	0.0143613
832.907	0.0143597
832.985	0.0146332
833.063	0.0145264
833.141	0.0144843
833.219	0.0145173
833.298	0.0144087
833.376	0.0144649
833.454	0.0145891
833.532	0.0144592
833.610	0.0145295
833.688	0.0144688
833.766	0.0142912
833.844	0.0143133
833.923	0.0143089
834.001	0.0143483
834.079	0.0143972
834.157	0.0143980
834.235	0.0143128
834.313	0.0141389
834.391	0.0143900
834.469	0.0142474
834.548	0.0141956
834.626	0.0142510
834.704	0.0140662
834.782	0.0142299
834.860	0.0141994
834.938	0.0142240
835.016	0.0143462
835.094	0.0142587
835.173	0.0142196
835.251	0.0141795
835.329	0.0142993
835.407	0.0142106
835.485	0.0143016
835.563	0.0143517
835.641	0.0142465
835.719	0.0143437
835.798	0.0143471
835.876	0.0144478
835.954	0.0144562
836.032	0.0143396
836.110	0.0143758
836.188	0.0145626
836.266	0.0144949
836.344	0.0144441
836.423	0.0145616
836.501	0.0144009
836.579	0.0144755
836.657	0.0144617
836.735	0.0142978
836.813	0.0144810
836.891	0.0144588
836.969	0.0142933
837.048	0.0144436
837.126	0.0142953
837.204	0.0142293
837.282	0.0143589
837.360	0.0143598
837.438	0.0141971
837.516	0.0141549
837.594	0.0140651
837.673	0.0141047
837.751	0.0142062
837.829	0.0140792
837.907	0.0142057
837.985	0.0139273
838.063	0.0140533
838.141	0.0140859
838.219	0.0138128
838.298	0.0139373
838.376	0.0139021
838.454	0.0138605
838.532	0.0139384
838.610	0.0138113
838.688	0.0139117
838.766	0.0139547
838.844	0.0138605
838.923	0.0138634
839.001	0.0140789
839.079	0.0140337
839.157	0.0140005
839.235	0.0140788
839.313	0.0140437
839.391	0.0140572
839.469	0.0141177
839.548	0.0141234
839.626	0.0141296
839.704	0.0141525
839.782	0.0141419
839.860	0.0141728
839.938	0.0141407
840.016	0.0142253
840.094	0.0141719
840.173	0.0142255
840.251	0.0143212
840.329	0.0142658
840.407	0.0142699
840.485	0.0143391
840.563	0.0144894
840.641	0.0143038
840.719	0.0143304
840.798	0.0144702
840.876	0.0144926
840.954	0.0145145
841.032	0.0146859
841.110	0.0146848
841.188	0.0145997
841.266	0.0147688
841.344	0.0147570
841.423	0.0146600
841.501	0.0148605
841.579	0.0148887
841.657	0.0146570
841.735	0.0147771
841.813	0.0146986
841.891	0.0146868
841.969	0.0147860
842.048	0.0146293
842.126	0.0146487
842.204	0.0144584
842.282	0.0146106
842.360	0.0145584
842.438	0.0143616
842.516	0.0143475
842.594	0.0143936
842.673	0.0143260
842.751	0.0141883
842.829	0.0142489
842.907	0.0141071
842.985	0.0141713
843.063	0.0140314
843.141	0.0140099
843.219	0.0140047
843.298	0.0138523
843.376	0.0139160
843.454	0.0138206
843.532	0.0138528
843.610	0.0138110
843.688	0.0138457
843.766	0.0137103
843.844	0.0137400
843.923	0.0136536
844.001	0.0137299
844.079	0.0137193
844.157	0.0136906
844.235	0.0137379
844.313	0.0137117
844.391	0.0137615
844.469	0.0137672
844.548	0.0139532
844.626	0.0139706
844.704	0.0139006
844.782	0.0138752
844.860	0.0138911
844.938	0.0138979
845.016	0.0139998
845.094	0.0140695
845.173	0.0139747
845.251	0.0139777
845.329	0.0141581
845.407	0.0143140
845.485	0.0142191
845.563	0.0142100
845.641	0.0143340
845.719	0.0143371
845.798	0.0144238
845.876	0.0144338
845.954	0.0144404
846.032	0.0144234
846.110	0.0144388
846.188	0.0145071
846.266	0.0145060
846.344	0.0144460
846.423	0.0146088
846.501	0.0146278
846.579	0.0148821
846.657	0.0147119
846.735	0.0146583
846.813	0.0148368
846.891	0.0149470
846.969	0.0147734
847.048	0.0147715
847.126	0.0147301
847.204	0.0148769
847.282	0.0146449
847.360	0.0146852
847.438	0.0147126
847.516	0.0145082
847.594	0.0145686
847.673	0.0145403
847.751	0.0143867
847.829	0.0143150
847.907	0.0144652
847.985	0.0143076
848.063	0.0143455
848.141	0.0143081
848.219	0.0142914
848.298	0.0143074
848.376	0.0140837
848.454	0.0141105
848.532	0.0142222
848.610	0.0141911
848.688	0.0141686
848.766	0.0141624
848.844	0.0139921
848.923	0.0139986
849.001	0.0139424
849.079	0.0139912
849.157	0.0138101
849.235	0.0139176
849.313	0.0137939
849.391	0.0138498
849.469	0.0137119
849.548	0.0137048
849.626	0.0137471
849.704	0.0136317
849.782	0.0137166
849.860	0.0137298
849.938	0.0137067
850.016	0.0136462
850.094	0.0137562
850.173	0.0138257
850.251	0.0136353
850.329	0.0137332
850.407	0.0139330
850.485	0.0138733
850.563	0.0140060
850.641	0.0141119
850.719	0.0140015
850.798	0.0141699
850.876	0.0142403
850.954	0.0142759
851.032	0.0141149
851.110	0.0141754
851.188	0.0142131
851.266	0.0141743
851.344	0.0142694
851.423	0.0144004
851.501	0.0141769
851.579	0.0143856
851.657	0.0144557
851.735	0.0144348
851.813	0.0143216
851.891	0.0143494
851.969	0.0143739
852.048	0.0144909
852.126	0.0144679
852.204	0.0144015
852.282	0.0144863
852.360	0.0145928
852.438	0.0145383
852.516	0.0146719
852.594	0.0145467
852.673	0.0145708
852.751	0.0146710
852.829	0.0145489
852.907	0.0147400
852.985	0.0145773
853.063	0.0146369
853.141	0.0146329
853.219	0.0145538
853.298	0.0145768
853.376	0.0146413
853.454	0.0146477
853.532	0.0145011
853.610	0.0144461
853.688	0.0143687
853.766	0.0143191
853.844	0.0143050
853.923	0.0142368
854.001	0.0142312
854.079	0.0142433
854.157	0.0141131
854.235	0.0140828
854.313	0.0140122
854.391	0.0141208
854.469	0.0139923
854.548	0.0139214
854.626	0.0138340
854.704	0.0138680
854.782	0.0139023
854.860	0.0138438
854.938	0.0137941
855.016	0.0138939
855.094	0.0138857
855.173	0.0137443
855.251	0.0138853
855.329	0.0140603
855.407	0.0139328
855.485	0.0139682
855.563	0.0138650
855.641	0.0140417
855.719	0.0139713
855.798	0.0139190
855.876	0.0141536
855.954	0.0139950
856.032	0.0139838
856.110	0.0141955
856.188	0.0139468
856.266	0.0140282
856.344	0.0141016
856.423	0.0140875
856.501	0.0142013
856.579	0.0142162
856.657	0.0140952
856.735	0.0142305
856.813	0.0142387
856.891	0.0141718
856.969	0.0142055
857.048	0.0142547
857.126	0.0142951
857.204	0.0144086
857.282	0.0144078
857.360	0.0144257
857.438	0.0144053
857.516	0.0143606
857.594	0.0144545
857.673	0.0144189
857.751	0.0144753
857.829	0.0145632
857.907	0.0144747
857.985	0.0145176
858.063	0.0146249
858.141	0.0147054
858.219	0.0145808
858.298	0.0145872
858.376	0.0148376
858.454	0.0146551
858.532	0.0146472
858.610	0.0146009
858.688	0.0145960
858.766	0.0146471
858.844	0.0145700
858.923	0.0143967
859.001	0.0144596
859.079	0.0142913
859.157	0.0143074
859.235	0.0143441
859.313	0.0141656
859.391	0.0139782
859.469	0.0140865
859.548	0.0140678
859.626	0.0140384
859.704	0.0140163
859.782	0.0140209
859.860	0.0140668
859.938	0.0141337
860.016	0.0139509
860.094	0.0140753
860.173	0.0141022
860.251	0.0139632
860.329	0.0139727
860.407	0.0138272
860.485	0.0141611
860.563	0.0139436
860.641	0.0139664
860.719	0.0140247
860.798	0.0139429
860.876	0.0140098
860.954	0.0141325
861.032	0.0141068
861.110	0.0141302
861.188	0.0141407
861.266	0.0139832
861.344	0.0140745
861.423	0.0141557
861.501	0.0142406
861.579	0.0142854
861.657	0.0142773
861.735	0.0143088
861.813	0.0142926
861.891	0.0143350
861.969	0.0142196
862.048	0.0142711
862.126	0.0143765
862.204	0.0142655
862.282	0.0142522
862.360	0.0143431
862.438	0.0143391
862.516	0.0143421
862.594	0.0145690
862.673	0.0143361
862.751	0.0142609
862.829	0.0143063
862.907	0.0143699
862.985	0.0145444
863.063	0.0144849
863.141	0.0143458
863.219	0.0144861
863.298	0.0145995
863.376	0.0143183
863.454	0.0143333
863.532	0.0143238
863.610	0.0142917
863.688	0.0141010
863.766	0.0143397
863.844	0.0142679
863.923	0.0141709
864.001	0.0142045
864.079	0.0142879
864.157	0.0143034
864.235	0.0142018
864.313	0.0141245
864.391	0.0141231
864.469	0.0140869
864.548	0.0140565
864.626	0.0142688
864.704	0.0141660
864.782	0.0141561
864.860	0.0140540
864.938	0.0141462
865.016	0.0140802
865.094	0.0140815
865.173	0.0140181
865.251	0.0140294
865.329	0.0141632
865.407	0.0141850
865.485	0.0141422
865.563	0.0141348
865.641	0.0140916
865.719	0.0141318
865.798	0.0141576
865.876	0.0141940
865.954	0.0140725
866.032	0.0141634
866.110	0.0141237
866.188	0.0141840
866.266	0.0142671
866.344	0.0141972
866.423	0.0141183
866.501	0.0142366
866.579	0.0141747
866.657	0.0143035
866.735	0.0143915
866.813	0.0143540
866.891	0.0142950
866.969	0.0143287
867.048	0.0142465
867.126	0.0141558
867.204	0.0143060
867.282	0.0142225
867.360	0.0142574
867.438	0.0141815
867.516	0.0140662
867.594	0.0140340
867.673	0.0140115
867.751	0.0141418
867.829	0.0141430
867.907	0.0141454
867.985	0.0140404
868.063	0.0140704
868.141	0.0141571
868.219	0.0142778
868.298	0.0140112
868.376	0.0141300
868.454	0.0142161
868.532	0.0142034
868.610	0.0142284
868.688	0.0141323
868.766	0.0142758
868.844	0.0143011
868.923	0.0141907
869.001	0.0142386
869.079	0.0142814
869.157	0.0143247
869.235	0.0143875
869.313	0.0143873
869.391	0.0144119
869.469	0.0144585
869.548	0.0145489
869.626	0.0144793
869.704	0.0143766
869.782	0.0145719
869.860	0.0147096
869.938	0.0146734
870.016	0.0145725
870.094	0.0146082
870.173	0.0143674
870.251	0.0146188
870.329	0.0145015
870.407	0.0145301
870.485	0.0144421
870.563	0.0143981
870.641	0.0144048
870.719	0.0143637
870.798	0.0143811
870.876	0.0143310
870.954	0.0142708
871.032	0.0141679
871.110	0.0140096
871.188	0.0141335
871.266	0.0140499
871.344	0.0140043
871.423	0.0141090
871.501	0.0140125
871.579	0.0139964
871.657	0.0139075
871.735	0.0139240
871.813	0.0137493
871.891	0.0137976
871.969	0.0138712
872.048	0.0138708
872.126	0.0138885
872.204	0.0139464
872.282	0.0139759
872.360	0.0137933
872.438	0.0137911
872.516	0.0139410
872.594	0.0139671
872.673	0.0139015
872.751	0.0140023
872.829	0.0139665
872.907	0.0140288
872.985	0.0141293
873.063	0.0140617
873.141	0.0141703
873.219	0.0141602
873.298	0.0141951
873.376	0.0143172
873.454	0.0144258
873.532	0.0143227
873.610	0.0143155
873.688	0.0144852
873.766	0.0144661
873.844	0.0144988
873.923	0.0145773
874.001	0.0145634
874.079	0.0145408
874.157	0.0147027
874.235	0.0146935
874.313	0.0145633
874.391	0.0145291
874.469	0.0144388
874.548	0.0144211
874.626	0.0143132
874.704	0.0144317
874.782	0.0144167
874.860	0.0142715
874.938	0.0143952
875.016	0.0142725
875.094	0.0143895
875.173	0.0144141
875.251	0.0144305
875.329	0.0143669
875.407	0.0143493
875.485	0.0143775
875.563	0.0143427
875.641	0.0144014
875.719	0.0143348
875.798	0.0144113
875.876	0.0144488
875.954	0.0144332
876.032	0.0144408
876.110	0.0144638
876.188	0.0144345
876.266	0.0142705
876.344	0.0143736
876.423	0.0143843
876.501	0.0144327
876.579	0.0142683
876.657	0.0144135
876.735	0.0143376
876.813	0.0142155
876.891	0.0141715
876.969	0.0140870
877.048	0.0138600
877.126	0.0140150
877.204	0.0139516
877.282	0.0139577
877.360	0.0138782
877.438	0.0139199
877.516	0.0138346
877.594	0.0138985
877.673	0.0138223
877.751	0.0139296
877.829	0.0139233
877.907	0.0138457
877.985	0.0139726
878.063	0.0139074
878.141	0.0139443
878.219	0.0136972
878.298	0.0139832
878.376	0.0138570
878.454	0.0138477
878.532	0.0137824
878.610	0.0139016
878.688	0.0138969
878.766	0.0138959
878.844	0.0140185
878.923	0.0141006
879.001	0.0140723
879.079	0.0142765
879.157	0.0141668
879.235	0.0142170
879.313	0.0143026
879.391	0.0143180
879.469	0.0142719
879.548	0.0144720
879.626	0.0144620
879.704	0.0144627
879.782	0.0144708
879.860	0.0143754
879.938	0.0145327
880.016	0.0146782
880.094	0.0145534
880.173	0.0143347
880.251	0.0145583
880.329	0.0144647
880.407	0.0144765
880.485	0.0147102
880.563	0.0146722
880.641	0.0146489
880.719	0.0146396
880.798	0.0145651
880.876	0.0146500
880.954	0.0145734
881.032	0.0147166
881.110	0.0145480
881.188	0.0147218
881.266	0.0145734
881.344	0.0145263
881.423	0.0146761
881.501	0.0143993
881.579	0.0143142
881.657	0.0144009
881.735	0.0142403
881.813	0.0143211
881.891	0.0142124
881.969	0.0139991
882.048	0.0140926
882.126	0.0140215
882.204	0.0139684
882.282	0.0139829
882.360	0.0138998
882.438	0.0139484
882.516	0.0140031
882.594	0.0138983
882.673	0.0139232
882.751	0.0140180
882.829	0.0139568
882.907	0.0140713
882.985	0.0140176
883.063	0.0140859
883.141	0.0141364
883.219	0.0140085
883.298	0.0140479
883.376	0.0140893
883.454	0.0140200
883.532	0.0140413
883.610	0.0139624
883.688	0.0141487
883.766	0.0142100
883.844	0.0143365
883.923	0.0141118
884.001	0.0142677
884.079	0.0143375
884.157	0.0143531
884.235	0.0143954
884.313	0.0143809
884.391	0.0144003
884.469	0.0143715
884.548	0.0143293
884.626	0.0144048
884.704	0.0143500
884.782	0.0142389
884.860	0.0143140
884.938	0.0141653
885.016	0.0141589
885.094	0.0142559
885.173	0.0141656
885.251	0.0141132
885.329	0.0142008
885.407	0.0139982
885.485	0.0140290
885.563	0.0138730
885.641	0.0139444
885.719	0.0140836
885.798	0.0141100
885.876	0.0138111
885.954	0.0139853
886.032	0.0140193
886.110	0.0140800
886.188	0.0141727
886.266	0.0139950
886.344	0.0141536
886.423	0.0139906
886.501	0.0143060
886.579	0.0142954
886.657	0.0143048
886.735	0.0143103
886.813	0.0144069
886.891	0.0145995
886.969	0.0144573
887.048	0.0146926
887.126	0.0148330
887.204	0.0147564
887.282	0.0147299
887.360	0.0148313
887.438	0.0149281
887.516	0.0148096
887.594	0.0146042
887.673	0.0145962
887.751	0.0146559
887.829	0.0146145
887.907	0.0145526
887.985	0.0142862
888.063	0.0141957
888.141	0.0141808
888.219	0.0140878
888.298	0.0138675
888.376	0.0137468
888.454	0.0138075
888.532	0.0138131
888.610	0.0136356
888.688	0.0138090
888.766	0.0136512
888.844	0.0136796
888.923	0.0136897
889.001	0.0136042
889.079	0.0137006
889.157	0.0139010
889.235	0.0138111
889.313	0.0139203
889.391	0.0140011
889.469	0.0140713
889.548	0.0141650
889.626	0.0140214
889.704	0.0140827
889.782	0.0141630
889.860	0.0142464
889.938	0.0143661
890.016	0.0144966
890.094	0.0144572
890.173	0.0144221
890.251	0.0146607
890.329	0.0145959
890.407	0.0147513
890.485	0.0147544
890.563	0.0148826
890.641	0.0147351
890.719	0.0147559
890.798	0.0146214
890.876	0.0144240
890.954	0.0144984
891.032	0.0144370
891.110	0.0143531
891.188	0.0143643
891.266	0.0142561
891.344	0.0141895
891.423	0.0142484
891.501	0.0141470
891.579	0.0142384
891.657	0.0142632
891.735	0.0141843
891.813	0.0142879
891.891	0.0142564
891.969	0.0141097
892.048	0.0141575
892.126	0.0140646
892.204	0.0140897
892.282	0.0139377
892.360	0.0138001
892.438	0.0138387
892.516	0.0138168
892.594	0.0139223
892.673	0.0137597
892.751	0.0137335
892.829	0.0136890
892.907	0.0137749
892.985	0.0139387
893.063	0.0138652
893.141	0.0139899
893.219	0.0140366
893.298	0.0141859
893.376	0.0140913
893.454	0.0141843
893.532	0.0143406
893.610	0.0143312
893.688	0.0145091
893.766	0.0144366
893.844	0.0144407
893.923	0.0143747
894.001	0.0145646
894.079	0.0145959
894.157	0.0144566
894.235	0.0144594
894.313	0.0145667
894.391	0.0145055
894.469	0.0144339
894.548	0.0143308
894.626	0.0143812
894.704	0.0144286
894.782	0.0143500
894.860	0.0144266
894.938	0.0143996
895.016	0.0144598
895.094	0.0145794
895.173	0.0145130
895.251	0.0144998
895.329	0.0145568
895.407	0.0145911
895.485	0.0146782
895.563	0.0145566
895.641	0.0146241
895.719	0.0145303
895.798	0.0145951
895.876	0.0145103
895.954	0.0146081
896.032	0.0147093
896.110	0.0145161
896.188	0.0144931
896.266	0.0145536
896.344	0.0146705
896.423	0.0146379
896.501	0.0147259
896.579	0.0144790
896.657	0.0146004
896.735	0.0144790
896.813	0.0142889
896.891	0.0142740
896.969	0.0141199
897.048	0.0140789
897.126	0.0139073
897.204	0.0138041
897.282	0.0137553
897.360	0.0136248
897.438	0.0136293
897.516	0.0135279
897.594	0.0134799
897.673	0.0134699
897.751	0.0133950
897.829	0.0132639
897.907	0.0135828
897.985	0.0134924
898.063	0.0135892
898.141	0.0137771
898.219	0.0137449
898.298	0.0139355
898.376	0.0140038
898.454	0.0141120
898.532	0.0141641
898.610	0.0141573
898.688	0.0142422
898.766	0.0144003
898.844	0.0143105
898.923	0.0145098
899.001	0.0144481
899.079	0.0144418
899.157	0.0144427
899.235	0.0145013
899.313	0.0143691
899.391	0.0143744
899.469	0.0143796
899.548	0.0144664
899.626	0.0144158
899.704	0.0142661
899.782	0.0143378
899.860	0.0142870
899.938	0.0143391
900.016	0.0143610
900.094	0.0143996
900.173	0.0143344
900.251	0.0144302
900.329	0.0143553
900.407	0.0143014
900.485	0.0144305
900.563	0.0145202
900.641	0.0143543
900.719	0.0143744
900.798	0.0143955
900.876	0.0144379
900.954	0.0144097
901.032	0.0143990
901.110	0.0145103
901.188	0.0145064
901.266	0.0144695
901.344	0.0146012
901.423	0.0144749
901.501	0.0144786
901.579	0.0143498
901.657	0.0143429
901.735	0.0143407
901.813	0.0141660
901.891	0.0140572
901.969	0.0139536
902.048	0.0139059
902.126	0.0138165
902.204	0.0138627
902.282	0.0137952
902.360	0.0137116
902.438	0.0136907
902.516	0.0137896
902.594	0.0136396
902.673	0.0136673
902.751	0.0139597
902.829	0.0138722
902.907	0.0140372
902.985	0.0142265
903.063	0.0141387
903.141	0.0143121
903.219	0.0143720
903.298	0.0145165
903.376	0.0144594
903.454	0.0144554
903.532	0.0145783
903.610	0.0145774
903.688	0.0144755
903.766	0.0146001
903.844	0.0145642
903.923	0.0144286
904.001	0.0144255
904.079	0.0144579
904.157	0.0142738
904.235	0.0142761
904.313	0.0142197
904.391	0.0140765
904.469	0.0140271
904.548	0.0139511
904.626	0.0138306
904.704	0.0139088
904.782	0.0137665
904.860	0.0138260
904.938	0.0136570
905.016	0.0136950
905.094	0.0137814
905.173	0.0137811
905.251	0.0138626
905.329	0.0139284
905.407	0.0138914
905.485	0.0139464
905.563	0.0140153
905.641	0.0140443
905.719	0.0140877
905.798	0.0141869
905.876	0.0142668
905.954	0.0142813
906.032	0.0143497
906.110	0.0144702
906.188	0.0144072
906.266	0.0145509
906.344	0.0145883
906.423	0.0144614
906.501	0.0144784
906.579	0.0146793
906.657	0.0146130
906.735	0.0145992
906.813	0.0145319
906.891	0.0146290
906.969	0.0147350
907.048	0.0147451
907.126	0.0145658
907.204	0.0146181
907.282	0.0144366
907.360	0.0145123
907.438	0.0144548
907.516	0.0146230
907.594	0.0144820
907.673	0.0144920
907.751	0.0144450
907.829	0.0144277
907.907	0.0142397
907.985	0.0143089
908.063	0.0143718
908.141	0.0143701
908.219	0.0143021
908.298	0.0142786
908.376	0.0142857
908.454	0.0143118
908.532	0.0142105
908.610	0.0140988
908.688	0.0140636
908.766	0.0140957
908.844	0.0140110
908.923	0.0138692
909.001	0.0137546
909.079	0.0138610
909.157	0.0137837
909.235	0.0137967
909.313	0.0138007
909.391	0.0136936
909.469	0.0137445
909.548	0.0137407
909.626	0.0139540
909.704	0.0140582
909.782	0.0140177
909.860	0.0140490
909.938	0.0141083
910.016	0.0141508
910.094	0.0142104
910.173	0.0141681
910.251	0.0143046
910.329	0.0144342
910.407	0.0142832
910.485	0.0143085
910.563	0.0143150
910.641	0.0144645
910.719	0.0142753
910.798	0.0144677
910.876	0.0145427
910.954	0.0144015
911.032	0.0144434
911.110	0.0144009
911.188	0.0144693
911.266	0.0144501
911.344	0.0143921
911.423	0.0145234
911.501	0.0144993
911.579	0.0144869
911.657	0.0145795
911.735	0.0145548
911.813	0.0144863
911.891	0.0144838
911.969	0.0145570
912.048	0.0145884
912.126	0.0144810
912.204	0.0145190
912.282	0.0145167
912.360	0.0145109
912.438	0.0143647
912.516	0.0144793
912.594	0.0145179
912.673	0.0144315
912.751	0.0146468
912.829	0.0145027
912.907	0.0143003
912.985	0.0143586
913.063	0.0141470
913.141	0.0142394
913.219	0.0140250
913.298	0.0140779
913.376	0.0140453
913.454	0.0138342
913.532	0.0140364
913.610	0.0138863
913.688	0.0137886
913.766	0.0137846
913.844	0.0137608
913.923	0.0137508
914.001	0.0137973
914.079	0.0138240
914.157	0.0139080
914.235	0.0139189
914.313	0.0140609
914.391	0.0140493
914.469	0.0141124
914.548	0.0142568
914.626	0.0141796
914.704	0.0143528
914.782	0.0144993
914.860	0.0144198
914.938	0.0144859
915.016	0.0144744
915.094	0.0144926
915.173	0.0146281
915.251	0.0147466
915.329	0.0147126
915.407	0.0145958
915.485	0.0146989
915.563	0.0146785
915.641	0.0145715
915.719	0.0147397
915.798	0.0146420
915.876	0.0145938
915.954	0.0145978
916.032	0.0143699
916.110	0.0142585
916.188	0.0143465
916.266	0.0142608
916.344	0.0141298
916.423	0.0141457
916.501	0.0141330
916.579	0.0141027
916.657	0.0139822
916.735	0.0141299
916.813	0.0138798
916.891	0.0138440
916.969	0.0139249
917.048	0.0138992
917.126	0.0139640
917.204	0.0140501
917.282	0.0140874
917.360	0.0141043
917.438	0.0143209
917.516	0.0143806
917.594	0.0142059
917.673	0.0143019
917.751	0.0143157
917.829	0.0144265
917.907	0.0143694
917.985	0.0142905
918.063	0.0143275
918.141	0.0142662
918.219	0.0141837
918.298	0.0141496
918.376	0.0142565
918.454	0.0140947
918.532	0.0141257
918.610	0.0140548
918.688	0.0140703
918.766	0.0140826
918.844	0.0140891
918.923	0.0141422
919.001	0.0140774
919.079	0.0140817
919.157	0.0141994
919.235	0.0143238
919.313	0.0143224
919.391	0.0142184
919.469	0.0142171
919.548	0.0145742
919.626	0.0144524
919.704	0.0145213
919.782	0.0144738
919.860	0.0144358
919.938	0.0145952
920.016	0.0146921
920.094	0.0145438
920.173	0.0143653
920.251	0.0145742
920.329	0.0145660
920.407	0.0145790
920.485	0.0144483
920.563	0.0144279
920.641	0.0142200
920.719	0.0143198
920.798	0.0142126
920.876	0.0140887
920.954	0.0141236
921.032	0.0140681
921.110	0.0142184
921.188	0.0140962
921.266	0.0139739
921.344	0.0139162
921.423	0.0139710
921.501	0.0138499
921.579	0.0137463
921.657	0.0137559
921.735	0.0138834
921.813	0.0137471
921.891	0.0137775
921.969	0.0138994
922.048	0.0138380
922.126	0.0139108
922.204	0.0137690
922.282	0.0141340
922.360	0.0141605
922.438	0.0139979
922.516	0.0141637
922.594	0.0141962
922.673	0.0141593
922.751	0.0142363
922.829	0.0142490
922.907	0.0142128
922.985	0.0142361
923.063	0.0142375
923.141	0.0142711
923.219	0.0142520
923.298	0.0144526
923.376	0.0143638
923.454	0.0144325
923.532	0.0143124
923.610	0.0141647
923.688	0.0142860
923.766	0.0143708
923.844	0.0143092
923.923	0.0144081
924.001	0.0143981
924.079	0.0142353
924.157	0.0143434
924.235	0.0143363
924.313	0.0144265
924.391	0.0143465
924.469	0.0143690
924.548	0.0143027
924.626	0.0143179
924.704	0.0142340
924.782	0.0143243
924.860	0.0142998
924.938	0.0143882
925.016	0.0143735
925.094	0.0143653
925.173	0.0143950
925.251	0.0143050
925.329	0.0142160
925.407	0.0142750
925.485	0.0143774
925.563	0.0143491
925.641	0.0142992
925.719	0.0143637
925.798	0.0143216
925.876	0.0142767
925.954	0.0142574
926.032	0.0141894
926.110	0.0141518
926.188	0.0140405
926.266	0.0141723
926.344	0.0140503
926.423	0.0139493
926.501	0.0139887
926.579	0.0140424
926.657	0.0139088
926.735	0.0139776
926.813	0.0139536
926.891	0.0139625
926.969	0.0139635
927.048	0.0139639
927.126	0.0138994
927.204	0.0139191
927.282	0.0139872
927.360	0.0140447
927.438	0.0139569
927.516	0.0141315
927.594	0.0141599
927.673	0.0140575
927.751	0.0140845
927.829	0.0142360
927.907	0.0142456
927.985	0.0140850
928.063	0.0141668
928.141	0.0141862
928.219	0.0143230
928.298	0.0142489
928.376	0.0143734
928.454	0.0144501
928.532	0.0144065
928.610	0.0144238
928.688	0.0144334
928.766	0.0144761
928.844	0.0144208
928.923	0.0143953
929.001	0.0144904
929.079	0.0145174
929.157	0.0144655
929.235	0.0143251
929.313	0.0144172
929.391	0.0143779
929.469	0.0143722
929.548	0.0144048
929.626	0.0144105
929.704	0.0142067
929.782	0.0143090
929.860	0.0143711
929.938	0.0142639
930.016	0.0144005
930.094	0.0142359
930.173	0.0145227
930.251	0.0144196
930.329	0.0141833
930.407	0.0144558
930.485	0.0144395
930.563	0.0143208
930.641	0.0144353
930.719	0.0143638
930.798	0.0143414
930.876	0.0142731
930.954	0.0143142
931.032	0.0141254
931.110	0.0141731
931.188	0.0140813
931.266	0.0140957
931.344	0.0139864
931.423	0.0139165
931.501	0.0140162
931.579	0.0140865
931.657	0.0138885
931.735	0.0138757
931.813	0.0140823
931.891	0.0140234
931.969	0.0139694
932.048	0.0139469
932.126	0.0140215
932.204	0.0140162
932.282	0.0142258
932.360	0.0140324
932.438	0.0140693
932.516	0.0141234
932.594	0.0141876
932.673	0.0141140
932.751	0.0142709
932.829	0.0141087
932.907	0.0141443
932.985	0.0143653
933.063	0.0144305
933.141	0.0143475
933.219	0.0143488
933.298	0.0144682
933.376	0.0145647
933.454	0.0143696
933.532	0.0146558
933.610	0.0146848
933.688	0.0144454
933.766	0.0145129
933.844	0.0145119
933.923	0.0145546
934.001	0.0145256
934.079	0.0145738
934.157	0.0145962
934.235	0.0146651
934.313	0.0145929
934.391	0.0147034
934.469	0.0146912
934.548	0.0145931
934.626	0.0144006
934.704	0.0144212
934.782	0.0145107
934.860	0.0143361
934.938	0.0143295
935.016	0.0143308
935.094	0.0144400
935.173	0.0141861
935.251	0.0143192
935.329	0.0142467
935.407	0.0142347
935.485	0.0141248
935.563	0.0141988
935.641	0.0141864
935.719	0.0141203
935.798	0.0141599
935.876	0.0140717
935.954	0.0139650
936.032	0.0140944
936.110	0.0140186
936.188	0.0139407
936.266	0.0139142
936.344	0.0139413
936.423	0.0140236
936.501	0.0138065
936.579	0.0139521
936.657	0.0139500
936.735	0.0138896
936.813	0.0139274
936.891	0.0138902
936.969	0.0139396
937.048	0.0139972
937.126	0.0139053
937.204	0.0140227
937.282	0.0140660
937.360	0.0140784
937.438	0.0140312
937.516	0.0140649
937.594	0.0142010
937.673	0.0141933
937.751	0.0142690
937.829	0.0143385
937.907	0.0143173
937.985	0.0144518
938.063	0.0144597
938.141	0.0143750
938.219	0.0143884
938.298	0.0144381
938.376	0.0145683
938.454	0.0145490
938.532	0.0144592
938.610	0.0145641
938.688	0.0145715
938.766	0.0146187
938.844	0.0147042
938.923	0.0146989
939.001	0.0145290
939.079	0.0146220
939.157	0.0147032
939.235	0.0146519
939.313	0.0145370
939.391	0.0146254
939.469	0.0145586
939.548	0.0144056
939.626	0.0146568
939.704	0.0144894
939.782	0.0143147
939.860	0.0144454
939.938	0.0143308
940.016	0.0142518
940.094	0.0142006
940.173	0.0142660
940.251	0.0141690
940.329	0.0141460
940.407	0.0140284
940.485	0.0140871
940.563	0.0141064
940.641	0.0141308
940.719	0.0140269
940.798	0.0138966
940.876	0.0139281
940.954	0.0138835
941.032	0.0138786
941.110	0.0138499
941.188	0.0139262
941.266	0.0138771
941.344	0.0137730
941.423	0.0137762
941.501	0.0137862
941.579	0.0137956
941.657	0.0139296
941.735	0.0138497
941.813	0.0138548
941.891	0.0137654
941.969	0.0138454
942.048	0.0137799
942.126	0.0139403
942.204	0.0139456
942.282	0.0139178
942.360	0.0141525
942.438	0.0142072
942.516	0.0141548
942.594	0.0141555
942.673	0.0143664
942.751	0.0142986
942.829	0.0143325
942.907	0.0144647
942.985	0.0144137
943.063	0.0143098
943.141	0.0144918
943.219	0.0146467
943.298	0.0145410
943.376	0.0145358
943.454	0.0143922
943.532	0.0144264
943.610	0.0145865
943.688	0.0144514
943.766	0.0145614
943.844	0.0143764
943.923	0.0143750
944.001	0.0143003
944.079	0.0143768
944.157	0.0143983
944.235	0.0142723
944.313	0.0142119
944.391	0.0141014
944.469	0.0141592
944.548	0.0140060
944.626	0.0139760
944.704	0.0141968
944.782	0.0140957
944.860	0.0139481
944.938	0.0140582
945.016	0.0139027
945.094	0.0139785
945.173	0.0140318
945.251	0.0140527
945.329	0.0139326
945.407	0.0140260
945.485	0.0139487
945.563	0.0140849
945.641	0.0139705
945.719	0.0140354
945.798	0.0140934
945.876	0.0138818
945.954	0.0140219
946.032	0.0140832
946.110	0.0141264
946.188	0.0141170
946.266	0.0142005
946.344	0.0141425
946.423	0.0140437
946.501	0.0140325
946.579	0.0140880
946.657	0.0141523
946.735	0.0139415
946.813	0.0140987
946.891	0.0141672
946.969	0.0139834
947.048	0.0140215
947.126	0.0140372
947.204	0.0140356
947.282	0.0141492
947.360	0.0141805
947.438	0.0142491
947.516	0.0141594
947.594	0.0142088
947.673	0.0143303
947.751	0.0142030
947.829	0.0141984
947.907	0.0142615
947.985	0.0145129
948.063	0.0143955
948.141	0.0144090
948.219	0.0143957
948.298	0.0142931
948.376	0.0141933
948.454	0.0143124
948.532	0.0141820
948.610	0.0141953
948.688	0.0142635
948.766	0.0143262
948.844	0.0142702
948.923	0.0142699
949.001	0.0143221
949.079	0.0142366
949.157	0.0143027
949.235	0.0143089
949.313	0.0143322
949.391	0.0143813
949.469	0.0143475
949.548	0.0142618
949.626	0.0143376
949.704	0.0144181
949.782	0.0143521
949.860	0.0143204
949.938	0.0143640
950.016	0.0142432
950.094	0.0142017
950.173	0.0140357
950.251	0.0140900
950.329	0.0142313
950.407	0.0140213
950.485	0.0140358
950.563	0.0140537
950.641	0.0141228
950.719	0.0141496
950.798	0.0139157
950.876	0.0140639
950.954	0.0142542
951.032	0.0140913
951.110	0.0141095
951.188	0.0141383
951.266	0.0141599
951.344	0.0140549
951.423	0.0141532
951.501	0.0141523
951.579	0.0141373
951.657	0.0140747
951.735	0.0140421
951.813	0.0140658
951.891	0.0140004
951.969	0.0140075
952.048	0.0140280
952.126	0.0141235
952.204	0.0140600
952.282	0.0140432
952.360	0.0141770
952.438	0.0141372
952.516	0.0141765
952.594	0.0141719
952.673	0.0143251
952.751	0.0143848
952.829	0.0142883
952.907	0.0142459
952.985	0.0144611
953.063	0.0143772
953.141	0.0143303
953.219	0.0143096
953.298	0.0144284
953.376	0.0143946
953.454	0.0143312
953.532	0.0142896
953.610	0.0144667
953.688	0.0143865
953.766	0.0145670
953.844	0.0144579
953.923	0.0145261
954.001	0.0143823
954.079	0.0144061
954.157	0.0143649
954.235	0.0144922
954.313	0.0146021
954.391	0.0146174
954.469	0.0145941
954.548	0.0146281
954.626	0.0146933
954.704	0.0145125
954.782	0.0145876
954.860	0.0144552
954.938	0.0142468
955.016	0.0143745
955.094	0.0143793
955.173	0.0143177
955.251	0.0142812
955.329	0.0142500
955.407	0.0140211
955.485	0.0141340
955.563	0.0141727
955.641	0.0140564
955.719	0.0140166
955.798	0.0139693
955.876	0.0141026
955.954	0.0140264
956.032	0.0140397
956.110	0.0140598
956.188	0.0140144
956.266	0.0140240
956.344	0.0139740
956.423	0.0139653
956.501	0.0139822
956.579	0.0139971
956.657	0.0140337
956.735	0.0141223
956.813	0.0141552
956.891	0.0140809
956.969	0.0141445
957.048	0.0142065
957.126	0.0141583
957.204	0.0141896
957.282	0.0141486
957.360	0.0142572
957.438	0.0141917
957.516	0.0143750
957.594	0.0143004
957.673	0.0142054
957.751	0.0143249
957.829	0.0143817
957.907	0.0142964
957.985	0.0141806
958.063	0.0142938
958.141	0.0143263
958.219	0.0142696
958.298	0.0143761
958.376	0.0141966
958.454	0.0142591
958.532	0.0143120
958.610	0.0141808
958.688	0.0142683
958.766	0.0143128
958.844	0.0142336
958.923	0.0141830
959.001	0.0142612
959.079	0.0143598
959.157	0.0143584
959.235	0.0144123
959.313	0.0144376
959.391	0.0146105
959.469	0.0145364
959.548	0.0145645
959.626	0.0146183
959.704	0.0146711
959.782	0.0144568
959.860	0.0145272
959.938	0.0145715
960.016	0.0146140
960.094	0.0144244
960.173	0.0144665
960.251	0.0144361
960.329	0.0143740
960.407	0.0143240
960.485	0.0142181
960.563	0.0142135
960.641	0.0141779
960.719	0.0141518
960.798	0.0142149
960.876	0.0142518
960.954	0.0140335
961.032	0.0141376
961.110	0.0140247
961.188	0.0142155
961.266	0.0142904
961.344	0.0142445
961.423	0.0142898
961.501	0.0140918
961.579	0.0143013
961.657	0.0141686
961.735	0.0141261
961.813	0.0141608
961.891	0.0143127
961.969	0.0142226
962.048	0.0142310
962.126	0.0142937
962.204	0.0141940
962.282	0.0143380
962.360	0.0143359
962.438	0.0144018
962.516	0.0141689
962.594	0.0143175
962.673	0.0142056
962.751	0.0143208
962.829	0.0143954
962.907	0.0141972
962.985	0.0142074
963.063	0.0141855
963.141	0.0141743
963.219	0.0140987
963.298	0.0141228
963.376	0.0141151
963.454	0.0140480
963.532	0.0141632
963.610	0.0141597
963.688	0.0140452
963.766	0.0141106
963.844	0.0141403
963.923	0.0141660
964.001	0.0141622
964.079	0.0141861
964.157	0.0141013
964.235	0.0142814
964.313	0.0143607
964.391	0.0144431
964.469	0.0142875
964.548	0.0144532
964.626	0.0144122
964.704	0.0144663
964.782	0.0146172
964.860	0.0144494
964.938	0.0143062
965.016	0.0143105
965.094	0.0143645
965.173	0.0144566
965.251	0.0143803
965.329	0.0141999
965.407	0.0144610
965.485	0.0142859
965.563	0.0141319
965.641	0.0142453
965.719	0.0142477
965.798	0.0142042
965.876	0.0142602
965.954	0.0142514
966.032	0.0142993
966.110	0.0142843
966.188	0.0141380
966.266	0.0141627
966.344	0.0142458
966.423	0.0142870
966.501	0.0142950
966.579	0.0142779
966.657	0.0141408
966.735	0.0142189
966.813	0.0142126
966.891	0.0141698
966.969	0.0142841
967.048	0.0142499
967.126	0.0142033
967.204	0.0142045
967.282	0.0142214
967.360	0.0141828
967.438	0.0141799
967.516	0.0142341
967.594	0.0142134
967.673	0.0141118
967.751	0.0141806
967.829	0.0141727
967.907	0.0140224
967.985	0.0142297
968.063	0.0141382
968.141	0.0140747
968.219	0.0141321
968.298	0.0140415
968.376	0.0142614
968.454	0.0141921
968.532	0.0140957
968.610	0.0140652
968.688	0.0141914
968.766	0.0140430
968.844	0.0142116
968.923	0.0140272
969.001	0.0139890
969.079	0.0141135
969.157	0.0140954
969.235	0.0141789
969.313	0.0142847
969.391	0.0142696
969.469	0.0141924
969.548	0.0142072
969.626	0.0141680
969.704	0.0143417
969.782	0.0143773
969.860	0.0143016
969.938	0.0144055
