05/14/2022	19:27:10	Ver.	4.1	UNKNOWN
Optical Delay	650.009681	Delta X		0.078125	Sweeps	1	Scan Rate	0/0
Coordinates	Axis 1	NaN	Axis 2	NaN	Axis 3	NaN	Axis 4	NaN	Axis 5	NaN	Axis 6	0.000000
TX Power	0.000000	RX Power	0.000000

650.010	0.0148778
650.088	0.0148875
650.166	0.0148626
650.244	0.0148972
650.322	0.0148432
650.400	0.0148342
650.478	0.0148225
650.557	0.0148596
650.635	0.0149639
650.713	0.0149011
650.791	0.0149107
650.869	0.0149541
650.947	0.0149065
651.025	0.0149525
651.103	0.0148611
651.182	0.0149458
651.260	0.0148156
651.338	0.0147943
651.416	0.0148659
651.494	0.0148486
651.572	0.0149149
651.650	0.0149777
651.728	0.0150545
651.807	0.0149249
651.885	0.0148495
651.963	0.0149468
652.041	0.0150104
652.119	0.0147847
652.197	0.0150241
652.275	0.0149220
652.353	0.0149337
652.432	0.0149862
652.510	0.0148666
652.588	0.0148781
652.666	0.0149989
652.744	0.0148740
652.822	0.0148132
652.900	0.0149358
652.978	0.0149286
653.057	0.0148029
653.135	0.0149094
653.213	0.0150136
653.291	0.0149876
653.369	0.0150078
653.447	0.0148587
653.525	0.0148357
653.603	0.0148634
653.682	0.0148566
653.760	0.0149555
653.838	0.0149947
653.916	0.0148730
653.994	0.0148347
654.072	0.0149596
654.150	0.0148020
654.228	0.0148205
654.307	0.0148234
654.385	0.0149328
654.463	0.0148436
654.541	0.0148463
654.619	0.0149420
654.697	0.0148329
654.775	0.0149786
654.853	0.0149152
654.932	0.0148195
655.010	0.0149515
655.088	0.0148454
655.166	0.0149898
655.244	0.0148208
655.322	0.0148637
655.400	0.0149254
655.478	0.0147849
655.557	0.0148996
655.635	0.0149972
655.713	0.0148930
655.791	0.0148888
655.869	0.0147997
655.947	0.0148331
656.025	0.0148707
656.103	0.0149361
656.182	0.0148394
656.260	0.0147854
656.338	0.0148045
656.416	0.0149416
656.494	0.0149551
656.572	0.0147588
656.650	0.0148832
656.728	0.0150613
656.807	0.0147946
656.885	0.0148108
656.963	0.0148949
657.041	0.0149412
657.119	0.0149523
657.197	0.0147591
657.275	0.0147953
657.353	0.0148320
657.432	0.0147601
657.510	0.0147540
657.588	0.0147697
657.666	0.0148178
657.744	0.0149597
657.822	0.0147369
657.900	0.0150414
657.978	0.0148918
658.057	0.0147959
658.135	0.0148808
658.213	0.0149271
658.291	0.0147783
658.369	0.0148189
658.447	0.0148675
658.525	0.0147891
658.603	0.0148352
658.682	0.0147472
658.760	0.0146996
658.838	0.0147308
658.916	0.0149018
658.994	0.0149031
659.072	0.0148214
659.150	0.0146980
659.228	0.0148954
659.307	0.0148636
659.385	0.0146941
659.463	0.0147007
659.541	0.0148805
659.619	0.0146772
659.697	0.0147061
659.775	0.0148652
659.853	0.0148437
659.932	0.0147486
660.010	0.0147785
660.088	0.0148393
660.166	0.0148198
660.244	0.0148719
660.322	0.0147884
660.400	0.0147599
660.478	0.0148154
660.557	0.0149008
660.635	0.0148544
660.713	0.0148473
660.791	0.0147243
660.869	0.0147898
660.947	0.0147279
661.025	0.0146962
661.103	0.0147059
661.182	0.0147738
661.260	0.0148257
661.338	0.0147782
661.416	0.0146900
661.494	0.0148425
661.572	0.0147483
661.650	0.0147678
661.728	0.0146552
661.807	0.0146439
661.885	0.0147470
661.963	0.0148287
662.041	0.0147188
662.119	0.0147779
662.197	0.0148296
662.275	0.0148623
662.353	0.0147873
662.432	0.0148175
662.510	0.0148077
662.588	0.0148659
662.666	0.0146678
662.744	0.0148193
662.822	0.0148531
662.900	0.0147547
662.978	0.0149024
663.057	0.0149573
663.135	0.0148502
663.213	0.0148534
663.291	0.0147237
663.369	0.0147446
663.447	0.0148274
663.525	0.0147520
663.603	0.0148332
663.682	0.0147295
663.760	0.0148103
663.838	0.0147805
663.916	0.0148668
663.994	0.0148688
664.072	0.0147453
664.150	0.0147945
664.228	0.0147598
664.307	0.0148801
664.385	0.0147222
664.463	0.0147255
664.541	0.0147572
664.619	0.0148964
664.697	0.0148225
664.775	0.0148425
664.853	0.0146880
664.932	0.0147031
665.010	0.0148035
665.088	0.0147816
665.166	0.0147593
665.244	0.0148188
665.322	0.0146237
665.400	0.0146619
665.478	0.0146712
665.557	0.0146547
665.635	0.0148267
665.713	0.0147212
665.791	0.0147219
665.869	0.0148463
665.947	0.0148083
666.025	0.0147636
666.103	0.0148734
666.182	0.0149287
666.260	0.0148743
666.338	0.0148621
666.416	0.0148557
666.494	0.0148833
666.572	0.0150529
666.650	0.0148918
666.728	0.0149540
666.807	0.0149207
666.885	0.0149136
666.963	0.0147695
667.041	0.0149486
667.119	0.0149309
667.197	0.0147413
667.275	0.0147717
667.353	0.0148342
667.432	0.0147792
667.510	0.0148665
667.588	0.0146400
667.666	0.0147310
667.744	0.0146116
667.822	0.0147858
667.900	0.0147076
667.978	0.0147748
668.057	0.0146576
668.135	0.0148486
668.213	0.0146780
668.291	0.0148682
668.369	0.0149493
668.447	0.0149235
668.525	0.0150752
668.603	0.0151665
668.682	0.0151621
668.760	0.0153005
668.838	0.0153022
668.916	0.0152718
668.994	0.0152473
669.072	0.0151612
669.150	0.0150862
669.228	0.0151837
669.307	0.0149188
669.385	0.0148758
669.463	0.0148413
669.541	0.0147345
669.619	0.0144834
669.697	0.0145075
669.775	0.0144090
669.853	0.0143267
669.932	0.0141284
670.010	0.0142365
670.088	0.0141013
670.166	0.0141766
670.244	0.0142719
670.322	0.0143338
670.400	0.0142341
670.478	0.0145327
670.557	0.0147075
670.635	0.0150818
670.713	0.0153032
670.791	0.0155211
670.869	0.0155812
670.947	0.0157865
671.025	0.0160319
671.103	0.0161141
671.182	0.0161678
671.260	0.0162041
671.338	0.0163204
671.416	0.0161049
671.494	0.0158308
671.572	0.0158605
671.650	0.0156620
671.728	0.0152700
671.807	0.0149710
671.885	0.0145885
671.963	0.0142005
672.041	0.0139525
672.119	0.0137685
672.197	0.0134809
672.275	0.0131227
672.353	0.0129623
672.432	0.0129655
672.510	0.0128603
672.588	0.0130618
672.666	0.0130441
672.744	0.0131842
672.822	0.0133559
672.900	0.0136892
672.978	0.0139427
673.057	0.0142393
673.135	0.0148421
673.213	0.0150527
673.291	0.0155273
673.369	0.0159922
673.447	0.0163314
673.525	0.0163732
673.603	0.0166761
673.682	0.0168626
673.760	0.0170565
673.838	0.0171136
673.916	0.0169702
673.994	0.0168364
674.072	0.0167766
674.150	0.0165707
674.228	0.0164852
674.307	0.0161922
674.385	0.0157973
674.463	0.0152528
674.541	0.0150596
674.619	0.0147386
674.697	0.0143385
674.775	0.0140147
674.853	0.0135997
674.932	0.0133398
675.010	0.0130383
675.088	0.0127148
675.166	0.0126147
675.244	0.0126550
675.322	0.0125236
675.400	0.0127235
675.478	0.0128543
675.557	0.0128948
675.635	0.0133197
675.713	0.0134826
675.791	0.0137461
675.869	0.0141113
675.947	0.0143829
676.025	0.0149175
676.103	0.0153812
676.182	0.0155322
676.260	0.0157444
676.338	0.0161636
676.416	0.0164396
676.494	0.0165718
676.572	0.0166343
676.650	0.0168676
676.728	0.0168031
676.807	0.0168404
676.885	0.0168005
676.963	0.0166801
677.041	0.0164692
677.119	0.0161916
677.197	0.0160342
677.275	0.0159203
677.353	0.0156425
677.432	0.0152606
677.510	0.0149446
677.588	0.0148003
677.666	0.0146548
677.744	0.0142093
677.822	0.0140356
677.900	0.0138384
677.978	0.0136993
678.057	0.0136100
678.135	0.0134499
678.213	0.0135001
678.291	0.0134415
678.369	0.0134659
678.447	0.0135788
678.525	0.0137021
678.603	0.0140327
678.682	0.0141217
678.760	0.0144264
678.838	0.0148573
678.916	0.0150809
678.994	0.0153368
679.072	0.0155652
679.150	0.0157911
679.228	0.0162138
679.307	0.0162743
679.385	0.0163242
679.463	0.0164636
679.541	0.0165199
679.619	0.0164182
679.697	0.0162324
679.775	0.0160300
679.853	0.0154822
679.932	0.0153136
680.010	0.0148843
680.088	0.0144110
680.166	0.0140861
680.244	0.0136439
680.322	0.0132384
680.400	0.0129601
680.478	0.0127164
680.557	0.0124448
680.635	0.0122791
680.713	0.0122489
680.791	0.0122617
680.869	0.0123138
680.947	0.0125127
681.025	0.0129334
681.103	0.0131205
681.182	0.0134896
681.260	0.0137618
681.338	0.0142714
681.416	0.0147713
681.494	0.0151403
681.572	0.0156535
681.650	0.0160131
681.728	0.0163859
681.807	0.0168462
681.885	0.0172834
681.963	0.0173335
682.041	0.0176282
682.119	0.0178545
682.197	0.0179366
682.275	0.0179661
682.353	0.0179375
682.432	0.0179899
682.510	0.0180087
682.588	0.0176926
682.666	0.0174376
682.744	0.0171770
682.822	0.0168170
682.900	0.0164259
682.978	0.0159579
683.057	0.0156798
683.135	0.0150528
683.213	0.0145868
683.291	0.0142651
683.369	0.0137847
683.447	0.0132661
683.525	0.0129227
683.603	0.0126535
683.682	0.0122455
683.760	0.0120976
683.838	0.0118695
683.916	0.0117226
683.994	0.0115039
684.072	0.0114563
684.150	0.0114641
684.228	0.0114017
684.307	0.0114361
684.385	0.0114188
684.463	0.0113576
684.541	0.0115697
684.619	0.0117323
684.697	0.0119971
684.775	0.0122617
684.853	0.0126918
684.932	0.0131335
685.010	0.0134460
685.088	0.0141350
685.166	0.0146978
685.244	0.0152369
685.322	0.0158710
685.400	0.0164127
685.478	0.0167612
685.557	0.0172725
685.635	0.0175743
685.713	0.0179983
685.791	0.0181522
685.869	0.0186511
685.947	0.0187006
686.025	0.0188795
686.103	0.0188849
686.182	0.0190656
686.260	0.0189648
686.338	0.0188917
686.416	0.0188162
686.494	0.0186513
686.572	0.0185828
686.650	0.0184695
686.728	0.0180786
686.807	0.0176278
686.885	0.0171358
686.963	0.0167607
687.041	0.0162059
687.119	0.0154676
687.197	0.0147154
687.275	0.0141938
687.353	0.0134641
687.432	0.0128310
687.510	0.0122943
687.588	0.0118205
687.666	0.0114831
687.744	0.0111050
687.822	0.0108440
687.900	0.0107816
687.978	0.0107168
688.057	0.0106844
688.135	0.0107310
688.213	0.0108759
688.291	0.0111330
688.369	0.0112948
688.447	0.0116949
688.525	0.0120316
688.603	0.0123816
688.682	0.0127236
688.760	0.0129746
688.838	0.0133872
688.916	0.0138395
688.994	0.0141367
689.072	0.0144892
689.150	0.0148273
689.228	0.0151625
689.307	0.0152959
689.385	0.0157196
689.463	0.0158864
689.541	0.0159615
689.619	0.0163521
689.697	0.0164761
689.775	0.0167690
689.853	0.0168471
689.932	0.0168337
690.010	0.0168056
690.088	0.0169511
690.166	0.0170350
690.244	0.0167941
690.322	0.0167879
690.400	0.0168012
690.478	0.0168090
690.557	0.0167287
690.635	0.0168416
690.713	0.0168478
690.791	0.0168028
690.869	0.0172288
690.947	0.0173380
691.025	0.0175874
691.103	0.0177012
691.182	0.0179512
691.260	0.0180297
691.338	0.0180119
691.416	0.0180883
691.494	0.0179189
691.572	0.0174960
691.650	0.0173465
691.728	0.0167705
691.807	0.0162318
691.885	0.0155607
691.963	0.0148341
692.041	0.0139933
692.119	0.0132013
692.197	0.0125002
692.275	0.0116660
692.353	0.0111639
692.432	0.0107384
692.510	0.0102286
692.588	0.00993111
692.666	0.00978920
692.744	0.00950562
692.822	0.00954163
692.900	0.00972542
692.978	0.00988304
693.057	0.0102124
693.135	0.0107057
693.213	0.0109390
693.291	0.0116374
693.369	0.0121840
693.447	0.0126582
693.525	0.0133004
693.603	0.0139303
693.682	0.0146780
693.760	0.0152719
693.838	0.0161343
693.916	0.0167611
693.994	0.0172395
694.072	0.0178394
694.150	0.0182510
694.228	0.0187541
694.307	0.0190010
694.385	0.0194126
694.463	0.0194968
694.541	0.0195297
694.619	0.0193133
694.697	0.0190518
694.775	0.0189233
694.853	0.0184315
694.932	0.0179784
695.010	0.0174724
695.088	0.0169255
695.166	0.0159918
695.244	0.0155902
695.322	0.0150309
695.400	0.0142220
695.478	0.0137018
695.557	0.0132890
695.635	0.0128996
695.713	0.0125227
695.791	0.0123686
695.869	0.0123133
695.947	0.0121671
696.025	0.0122141
696.103	0.0122920
696.182	0.0123325
696.260	0.0123856
696.338	0.0129046
696.416	0.0131434
696.494	0.0134203
696.572	0.0136882
696.650	0.0142701
696.728	0.0147647
696.807	0.0151720
696.885	0.0154452
696.963	0.0160754
697.041	0.0164260
697.119	0.0166464
697.197	0.0169145
697.275	0.0170408
697.353	0.0170464
697.432	0.0169166
697.510	0.0168759
697.588	0.0166759
697.666	0.0164083
697.744	0.0162553
697.822	0.0159627
697.900	0.0153363
697.978	0.0150583
698.057	0.0147530
698.135	0.0143968
698.213	0.0139682
698.291	0.0137366
698.369	0.0134593
698.447	0.0134363
698.525	0.0131067
698.603	0.0129723
698.682	0.0130718
698.760	0.0130785
698.838	0.0131250
698.916	0.0133273
698.994	0.0132119
699.072	0.0133639
699.150	0.0135017
699.228	0.0137637
699.307	0.0139359
699.385	0.0141001
699.463	0.0144041
699.541	0.0145306
699.619	0.0147790
699.697	0.0151744
699.775	0.0154442
699.853	0.0155074
699.932	0.0156250
700.010	0.0157880
700.088	0.0160533
700.166	0.0160947
700.244	0.0160193
700.322	0.0159630
700.400	0.0158318
700.478	0.0157776
700.557	0.0155012
700.635	0.0151245
700.713	0.0148325
700.791	0.0144352
700.869	0.0142329
700.947	0.0139810
701.025	0.0136350
701.103	0.0133363
701.182	0.0131823
701.260	0.0130418
701.338	0.0132000
701.416	0.0133918
701.494	0.0134927
701.572	0.0136543
701.650	0.0140147
701.728	0.0142872
701.807	0.0148629
701.885	0.0153197
701.963	0.0156400
702.041	0.0161404
702.119	0.0165813
702.197	0.0168553
702.275	0.0174565
702.353	0.0174281
702.432	0.0177446
702.510	0.0179520
702.588	0.0179161
702.666	0.0180676
702.744	0.0180878
702.822	0.0180289
702.900	0.0178211
702.978	0.0172904
703.057	0.0169594
703.135	0.0164977
703.213	0.0160675
703.291	0.0155986
703.369	0.0151664
703.447	0.0146951
703.525	0.0141478
703.603	0.0136460
703.682	0.0130678
703.760	0.0128113
703.838	0.0126093
703.916	0.0123666
703.994	0.0121133
704.072	0.0118987
704.150	0.0118553
704.228	0.0118844
704.307	0.0121603
704.385	0.0121700
704.463	0.0123524
704.541	0.0126506
704.619	0.0129109
704.697	0.0132108
704.775	0.0134735
704.853	0.0138158
704.932	0.0139359
705.010	0.0142008
705.088	0.0145670
705.166	0.0146256
705.244	0.0148249
705.322	0.0148604
705.400	0.0149705
705.478	0.0149202
705.557	0.0148965
705.635	0.0148467
705.713	0.0149275
705.791	0.0148822
705.869	0.0148239
705.947	0.0149399
706.025	0.0148695
706.103	0.0149120
706.182	0.0151380
706.260	0.0151659
706.338	0.0153210
706.416	0.0155132
706.494	0.0156803
706.572	0.0159072
706.650	0.0160496
706.728	0.0162010
706.807	0.0164782
706.885	0.0164595
706.963	0.0165829
707.041	0.0166389
707.119	0.0164162
707.197	0.0166597
707.275	0.0166798
707.353	0.0166652
707.432	0.0163289
707.510	0.0161704
707.588	0.0162347
707.666	0.0161127
707.744	0.0159060
707.822	0.0157784
707.900	0.0157410
707.978	0.0156414
708.057	0.0154733
708.135	0.0154162
708.213	0.0153239
708.291	0.0152481
708.369	0.0154475
708.447	0.0153300
708.525	0.0152252
708.603	0.0152558
708.682	0.0152615
708.760	0.0153413
708.838	0.0153193
708.916	0.0151439
708.994	0.0149819
709.072	0.0149615
709.150	0.0150440
709.228	0.0150621
709.307	0.0148029
709.385	0.0145802
709.463	0.0145451
709.541	0.0143464
709.619	0.0140686
709.697	0.0138095
709.775	0.0135493
709.853	0.0133231
709.932	0.0129979
710.010	0.0129619
710.088	0.0126694
710.166	0.0124205
710.244	0.0123185
710.322	0.0123051
710.400	0.0123321
710.478	0.0123284
710.557	0.0123867
710.635	0.0124612
710.713	0.0126804
710.791	0.0129711
710.869	0.0130811
710.947	0.0132527
711.025	0.0138911
711.103	0.0142274
711.182	0.0144248
711.260	0.0148970
711.338	0.0152132
711.416	0.0153297
711.494	0.0156245
711.572	0.0159458
711.650	0.0162225
711.728	0.0163935
711.807	0.0164936
711.885	0.0166710
711.963	0.0166830
712.041	0.0166591
712.119	0.0166578
712.197	0.0167879
712.275	0.0167772
712.353	0.0168410
712.432	0.0168822
712.510	0.0167030
712.588	0.0167035
712.666	0.0167248
712.744	0.0166245
712.822	0.0165691
712.900	0.0162990
712.978	0.0163020
713.057	0.0160896
713.135	0.0159314
713.213	0.0158517
713.291	0.0157387
713.369	0.0155611
713.447	0.0154098
713.525	0.0154717
713.603	0.0154494
713.682	0.0154770
713.760	0.0155104
713.838	0.0153331
713.916	0.0153185
713.994	0.0153762
714.072	0.0152940
714.150	0.0151652
714.228	0.0150201
714.307	0.0149019
714.385	0.0147298
714.463	0.0146797
714.541	0.0146301
714.619	0.0143787
714.697	0.0144903
714.775	0.0143941
714.853	0.0144409
714.932	0.0145448
715.010	0.0144597
715.088	0.0143597
715.166	0.0143752
715.244	0.0142153
715.322	0.0141225
715.400	0.0141211
715.478	0.0140461
715.557	0.0137988
715.635	0.0137093
715.713	0.0133369
715.791	0.0130815
715.869	0.0128855
715.947	0.0127064
716.025	0.0128392
716.103	0.0126049
716.182	0.0124313
716.260	0.0125371
716.338	0.0125153
716.416	0.0126575
716.494	0.0128942
716.572	0.0132063
716.650	0.0133298
716.728	0.0135073
716.807	0.0140012
716.885	0.0143901
716.963	0.0147552
717.041	0.0152216
717.119	0.0154932
717.197	0.0156620
717.275	0.0159304
717.353	0.0162716
717.432	0.0163008
717.510	0.0165997
717.588	0.0167117
717.666	0.0166156
717.744	0.0164848
717.822	0.0166483
717.900	0.0163848
717.978	0.0163274
718.057	0.0163942
718.135	0.0163016
718.213	0.0161877
718.291	0.0160004
718.369	0.0160285
718.447	0.0160053
718.525	0.0159281
718.603	0.0158800
718.682	0.0158177
718.760	0.0158697
718.838	0.0158267
718.916	0.0157077
718.994	0.0158393
719.072	0.0154772
719.150	0.0151807
719.228	0.0151955
719.307	0.0151116
719.385	0.0147628
719.463	0.0146407
719.541	0.0145506
719.619	0.0145372
719.697	0.0143470
719.775	0.0143053
719.853	0.0142060
719.932	0.0141019
720.010	0.0141098
720.088	0.0141067
720.166	0.0141397
720.244	0.0141705
720.322	0.0142221
720.400	0.0141737
720.478	0.0141377
720.557	0.0141281
720.635	0.0140965
720.713	0.0140199
720.791	0.0140623
720.869	0.0141264
720.947	0.0141950
721.025	0.0140829
721.103	0.0142486
721.182	0.0140990
721.260	0.0141048
721.338	0.0140700
721.416	0.0139042
721.494	0.0139839
721.572	0.0140953
721.650	0.0141348
721.728	0.0142490
721.807	0.0143099
721.885	0.0142346
721.963	0.0144274
722.041	0.0144061
722.119	0.0143504
722.197	0.0145000
722.275	0.0146602
722.353	0.0144215
722.432	0.0145409
722.510	0.0146330
722.588	0.0147328
722.666	0.0147834
722.744	0.0147076
722.822	0.0147502
722.900	0.0149083
722.978	0.0148579
723.057	0.0149094
723.135	0.0150857
723.213	0.0151955
723.291	0.0151148
723.369	0.0152442
723.447	0.0152167
723.525	0.0151588
723.603	0.0154543
723.682	0.0153432
723.760	0.0152710
723.838	0.0153034
723.916	0.0153898
723.994	0.0154419
724.072	0.0153281
724.150	0.0151984
724.228	0.0153365
724.307	0.0151325
724.385	0.0150893
724.463	0.0152893
724.541	0.0152751
724.619	0.0151266
724.697	0.0151266
724.775	0.0151665
724.853	0.0150744
724.932	0.0151488
725.010	0.0150291
725.088	0.0150538
725.166	0.0149257
725.244	0.0147364
725.322	0.0148434
725.400	0.0149967
725.478	0.0147470
725.557	0.0146436
725.635	0.0146965
725.713	0.0147876
725.791	0.0147233
725.869	0.0147495
725.947	0.0147482
726.025	0.0147015
726.103	0.0147523
726.182	0.0148633
726.260	0.0149060
726.338	0.0148948
726.416	0.0148354
726.494	0.0149518
726.572	0.0151100
726.650	0.0150165
726.728	0.0150474
726.807	0.0151007
726.885	0.0151310
726.963	0.0151059
727.041	0.0149967
727.119	0.0149722
727.197	0.0148759
727.275	0.0147820
727.353	0.0146055
727.432	0.0145978
727.510	0.0144259
727.588	0.0145203
727.666	0.0144636
727.744	0.0143697
727.822	0.0142679
727.900	0.0142016
727.978	0.0141732
728.057	0.0141677
728.135	0.0142292
728.213	0.0140993
728.291	0.0142530
728.369	0.0143253
728.447	0.0141827
728.525	0.0141990
728.603	0.0141299
728.682	0.0143341
728.760	0.0144339
728.838	0.0143562
728.916	0.0144275
728.994	0.0145349
729.072	0.0147186
729.150	0.0147089
729.228	0.0148396
729.307	0.0148364
729.385	0.0148994
729.463	0.0150433
729.541	0.0150246
729.619	0.0151644
729.697	0.0151348
729.775	0.0152906
729.853	0.0152218
729.932	0.0152354
730.010	0.0153916
730.088	0.0154533
730.166	0.0153729
730.244	0.0153451
730.322	0.0154350
730.400	0.0154935
730.478	0.0155730
730.557	0.0155191
730.635	0.0156249
730.713	0.0155927
730.791	0.0155507
730.869	0.0155889
730.947	0.0154910
731.025	0.0154865
731.103	0.0153523
731.182	0.0151641
731.260	0.0151289
731.338	0.0150196
731.416	0.0150324
731.494	0.0148900
731.572	0.0148569
731.650	0.0147738
731.728	0.0148151
731.807	0.0146973
731.885	0.0147358
731.963	0.0145947
732.041	0.0146185
732.119	0.0145778
732.197	0.0146532
732.275	0.0145500
732.353	0.0146173
732.432	0.0146398
732.510	0.0146581
732.588	0.0146665
732.666	0.0146365
732.744	0.0145198
732.822	0.0144927
732.900	0.0145172
732.978	0.0144730
733.057	0.0146109
733.135	0.0146439
733.213	0.0147279
733.291	0.0146815
733.369	0.0146219
733.447	0.0148192
733.525	0.0147144
733.603	0.0148367
733.682	0.0150375
733.760	0.0150804
733.838	0.0151895
733.916	0.0151353
733.994	0.0152052
734.072	0.0153629
734.150	0.0154604
734.228	0.0154792
734.307	0.0153207
734.385	0.0152367
734.463	0.0153165
734.541	0.0153387
734.619	0.0152918
734.697	0.0151192
734.775	0.0151543
734.853	0.0149752
734.932	0.0150398
735.010	0.0149827
735.088	0.0147892
735.166	0.0147086
735.244	0.0147501
735.322	0.0148457
735.400	0.0145940
735.478	0.0147013
735.557	0.0147004
735.635	0.0147495
735.713	0.0148151
735.791	0.0147294
735.869	0.0147377
735.947	0.0148969
736.025	0.0147993
736.103	0.0148007
736.182	0.0148849
736.260	0.0148291
736.338	0.0149063
736.416	0.0148857
736.494	0.0149426
736.572	0.0149944
736.650	0.0149619
736.728	0.0149950
736.807	0.0150901
736.885	0.0148684
736.963	0.0151097
737.041	0.0149390
737.119	0.0150718
737.197	0.0151274
737.275	0.0150478
737.353	0.0149646
737.432	0.0150150
737.510	0.0150652
737.588	0.0149463
737.666	0.0150525
737.744	0.0150771
737.822	0.0149419
737.900	0.0149459
737.978	0.0148787
738.057	0.0148934
738.135	0.0147676
738.213	0.0149374
738.291	0.0148608
738.369	0.0148514
738.447	0.0147867
738.525	0.0148694
738.603	0.0149142
738.682	0.0148670
738.760	0.0149677
738.838	0.0149780
738.916	0.0147830
738.994	0.0148089
739.072	0.0150368
739.150	0.0149258
739.228	0.0148153
739.307	0.0149095
739.385	0.0149113
739.463	0.0147715
739.541	0.0147041
739.619	0.0148424
739.697	0.0147086
739.775	0.0147392
739.853	0.0147182
739.932	0.0146954
740.010	0.0145798
740.088	0.0144846
740.166	0.0145415
740.244	0.0145472
740.322	0.0145533
740.400	0.0145691
740.478	0.0146078
740.557	0.0145818
740.635	0.0147560
740.713	0.0148694
740.791	0.0148251
740.869	0.0149989
740.947	0.0149824
741.025	0.0151078
741.103	0.0152303
741.182	0.0150547
741.260	0.0151921
741.338	0.0152294
741.416	0.0151791
741.494	0.0151517
741.572	0.0149826
741.650	0.0149991
741.728	0.0149969
741.807	0.0148360
741.885	0.0146922
741.963	0.0148268
742.041	0.0146246
742.119	0.0146423
742.197	0.0145370
742.275	0.0145395
742.353	0.0145532
742.432	0.0145284
742.510	0.0145379
742.588	0.0145863
742.666	0.0146169
742.744	0.0146738
742.822	0.0146083
742.900	0.0144921
742.978	0.0146964
743.057	0.0146817
743.135	0.0147662
743.213	0.0147291
743.291	0.0148360
743.369	0.0148757
743.447	0.0148308
743.525	0.0147775
743.603	0.0148647
743.682	0.0149677
743.760	0.0149104
743.838	0.0147699
743.916	0.0149098
743.994	0.0149065
744.072	0.0148630
744.150	0.0149371
744.228	0.0149055
744.307	0.0148840
744.385	0.0147719
744.463	0.0147869
744.541	0.0147768
744.619	0.0148504
744.697	0.0147163
744.775	0.0146401
744.853	0.0146276
744.932	0.0144743
745.010	0.0146589
745.088	0.0146010
745.166	0.0145088
745.244	0.0145516
745.322	0.0147321
745.400	0.0145905
745.478	0.0147386
745.557	0.0146529
745.635	0.0147128
745.713	0.0146861
745.791	0.0147517
745.869	0.0148479
745.947	0.0148861
746.025	0.0148073
746.103	0.0147952
746.182	0.0149099
746.260	0.0149884
746.338	0.0147935
746.416	0.0148276
746.494	0.0148900
746.572	0.0149403
746.650	0.0149262
746.728	0.0149368
746.807	0.0149666
746.885	0.0150152
746.963	0.0151183
747.041	0.0152187
747.119	0.0152982
747.197	0.0153228
747.275	0.0154512
747.353	0.0155347
747.432	0.0156348
747.510	0.0156463
747.588	0.0155812
747.666	0.0156453
747.744	0.0157954
747.822	0.0156340
747.900	0.0156587
747.978	0.0155372
748.057	0.0156540
748.135	0.0153745
748.213	0.0153639
748.291	0.0151847
748.369	0.0151627
748.447	0.0150961
748.525	0.0148756
748.603	0.0147532
748.682	0.0146358
748.760	0.0144170
748.838	0.0145061
748.916	0.0145123
748.994	0.0143293
749.072	0.0141612
749.150	0.0140318
749.228	0.0141319
749.307	0.0141555
749.385	0.0142435
749.463	0.0141895
749.541	0.0139626
749.619	0.0140417
749.697	0.0140876
749.775	0.0140773
749.853	0.0140847
749.932	0.0142584
750.010	0.0141930
750.088	0.0143860
750.166	0.0144164
750.244	0.0145621
750.322	0.0146366
750.400	0.0146215
750.478	0.0145796
750.557	0.0146571
750.635	0.0146547
750.713	0.0145779
750.791	0.0146359
750.869	0.0146655
750.947	0.0146800
751.025	0.0148012
751.103	0.0147791
751.182	0.0147815
751.260	0.0148293
751.338	0.0148879
751.416	0.0148620
751.494	0.0150735
751.572	0.0152248
751.650	0.0151573
751.728	0.0152506
751.807	0.0151923
751.885	0.0152328
751.963	0.0154263
752.041	0.0153442
752.119	0.0153394
752.197	0.0152740
752.275	0.0155113
752.353	0.0153764
752.432	0.0152901
752.510	0.0153114
752.588	0.0152843
752.666	0.0150147
752.744	0.0152444
752.822	0.0151478
752.900	0.0151942
752.978	0.0151515
753.057	0.0151140
753.135	0.0151610
753.213	0.0149621
753.291	0.0151228
753.369	0.0150591
753.447	0.0150576
753.525	0.0149654
753.603	0.0150391
753.682	0.0149816
753.760	0.0149699
753.838	0.0149304
753.916	0.0148642
753.994	0.0150002
754.072	0.0149564
754.150	0.0150719
754.228	0.0150036
754.307	0.0148567
754.385	0.0149307
754.463	0.0150413
754.541	0.0150320
754.619	0.0148980
754.697	0.0149855
754.775	0.0149891
754.853	0.0150200
754.932	0.0149395
755.010	0.0149112
755.088	0.0148209
755.166	0.0148418
755.244	0.0149117
755.322	0.0148096
755.400	0.0146392
755.478	0.0145097
755.557	0.0144224
755.635	0.0143812
755.713	0.0143637
755.791	0.0143732
755.869	0.0142957
755.947	0.0141401
756.025	0.0142944
756.103	0.0141954
756.182	0.0141207
756.260	0.0141031
756.338	0.0143682
756.416	0.0142928
756.494	0.0142538
756.572	0.0144776
756.650	0.0145087
756.728	0.0145572
756.807	0.0144788
756.885	0.0145699
756.963	0.0147944
757.041	0.0147748
757.119	0.0146547
757.197	0.0148610
757.275	0.0148493
757.353	0.0149268
757.432	0.0148983
757.510	0.0149354
757.588	0.0150413
757.666	0.0148956
757.744	0.0150813
757.822	0.0150134
757.900	0.0148739
757.978	0.0148957
758.057	0.0148775
758.135	0.0148955
758.213	0.0148395
758.291	0.0147710
758.369	0.0147113
758.447	0.0149596
758.525	0.0148534
758.603	0.0147731
758.682	0.0147597
758.760	0.0148670
758.838	0.0148400
758.916	0.0149059
758.994	0.0150330
759.072	0.0149734
759.150	0.0149445
759.228	0.0150442
759.307	0.0149681
759.385	0.0149225
759.463	0.0149957
759.541	0.0149942
759.619	0.0151148
759.697	0.0151073
759.775	0.0149608
759.853	0.0148808
759.932	0.0150060
760.010	0.0150802
760.088	0.0149652
760.166	0.0149644
760.244	0.0149818
760.322	0.0151917
760.400	0.0151008
760.478	0.0150496
760.557	0.0150834
760.635	0.0151946
760.713	0.0150947
760.791	0.0151343
760.869	0.0151538
760.947	0.0150685
761.025	0.0150585
761.103	0.0152500
761.182	0.0152661
761.260	0.0152796
761.338	0.0153809
761.416	0.0152168
761.494	0.0151446
761.572	0.0152560
761.650	0.0151591
761.728	0.0151787
761.807	0.0151303
761.885	0.0150266
761.963	0.0148329
762.041	0.0149846
762.119	0.0149198
762.197	0.0146909
762.275	0.0146095
762.353	0.0145348
762.432	0.0145439
762.510	0.0144745
762.588	0.0143351
762.666	0.0143422
762.744	0.0142661
762.822	0.0143210
762.900	0.0141965
762.978	0.0140859
763.057	0.0140883
763.135	0.0142876
763.213	0.0142487
763.291	0.0142271
763.369	0.0143645
763.447	0.0143399
763.525	0.0144324
763.603	0.0144869
763.682	0.0146852
763.760	0.0144473
763.838	0.0146233
763.916	0.0148348
763.994	0.0147839
764.072	0.0149286
764.150	0.0149033
764.228	0.0150191
764.307	0.0150135
764.385	0.0150735
764.463	0.0150429
764.541	0.0152439
764.619	0.0150343
764.697	0.0152293
764.775	0.0151204
764.853	0.0151167
764.932	0.0150327
765.010	0.0149153
765.088	0.0150788
765.166	0.0150311
765.244	0.0148201
765.322	0.0150209
765.400	0.0149364
765.478	0.0148862
765.557	0.0149104
765.635	0.0152451
765.713	0.0151380
765.791	0.0152087
765.869	0.0152284
765.947	0.0154299
766.025	0.0153284
766.103	0.0153960
766.182	0.0155328
766.260	0.0154797
766.338	0.0153779
766.416	0.0155495
766.494	0.0154259
766.572	0.0154607
766.650	0.0153490
766.728	0.0152934
766.807	0.0151960
766.885	0.0152492
766.963	0.0151713
767.041	0.0152764
767.119	0.0151608
767.197	0.0150061
767.275	0.0149892
767.353	0.0151398
767.432	0.0150237
767.510	0.0151380
767.588	0.0149583
767.666	0.0151060
767.744	0.0152499
767.822	0.0150845
767.900	0.0151429
767.978	0.0152273
768.057	0.0152377
768.135	0.0152685
768.213	0.0149786
768.291	0.0152669
768.369	0.0152382
768.447	0.0150328
768.525	0.0150082
768.603	0.0150510
768.682	0.0150075
768.760	0.0150156
768.838	0.0149477
768.916	0.0147795
768.994	0.0146509
769.072	0.0145946
769.150	0.0146176
769.228	0.0145743
769.307	0.0146035
769.385	0.0145656
769.463	0.0144051
769.541	0.0144575
769.619	0.0145617
769.697	0.0145724
769.775	0.0145618
769.853	0.0146769
769.932	0.0146835
770.010	0.0147429
770.088	0.0146644
770.166	0.0146170
770.244	0.0145813
770.322	0.0147316
770.400	0.0149223
770.478	0.0149350
770.557	0.0149265
770.635	0.0148827
770.713	0.0149079
770.791	0.0149726
770.869	0.0149956
770.947	0.0149549
771.025	0.0149213
771.103	0.0148592
771.182	0.0148524
771.260	0.0147977
771.338	0.0146704
771.416	0.0146458
771.494	0.0146156
771.572	0.0145083
771.650	0.0145657
771.728	0.0143362
771.807	0.0144199
771.885	0.0144138
771.963	0.0143628
772.041	0.0144143
772.119	0.0145087
772.197	0.0144763
772.275	0.0145040
772.353	0.0148485
772.432	0.0148571
772.510	0.0148720
772.588	0.0150295
772.666	0.0150922
772.744	0.0151340
772.822	0.0151198
772.900	0.0153348
772.978	0.0153010
773.057	0.0152488
773.135	0.0154021
773.213	0.0151066
773.291	0.0152081
773.369	0.0151557
773.447	0.0152077
773.525	0.0150780
773.603	0.0150755
773.682	0.0149692
773.760	0.0149745
773.838	0.0150226
773.916	0.0149039
773.994	0.0150142
774.072	0.0148652
774.150	0.0148716
774.228	0.0148951
774.307	0.0148834
774.385	0.0148315
774.463	0.0148916
774.541	0.0149593
774.619	0.0149680
774.697	0.0150626
774.775	0.0150784
774.853	0.0149206
774.932	0.0149155
775.010	0.0150282
775.088	0.0150546
775.166	0.0149575
775.244	0.0150210
775.322	0.0150605
775.400	0.0149964
775.478	0.0151143
775.557	0.0150457
775.635	0.0150098
775.713	0.0148394
775.791	0.0147237
775.869	0.0147189
775.947	0.0146762
776.025	0.0146330
776.103	0.0146706
776.182	0.0145482
776.260	0.0145728
776.338	0.0144321
776.416	0.0143633
776.494	0.0143670
776.572	0.0142853
776.650	0.0143063
776.728	0.0141639
776.807	0.0143680
776.885	0.0142587
776.963	0.0143301
777.041	0.0144131
777.119	0.0143016
777.197	0.0144179
777.275	0.0143513
777.353	0.0144234
777.432	0.0145445
777.510	0.0145798
777.588	0.0145612
777.666	0.0146247
777.744	0.0146377
777.822	0.0147717
777.900	0.0147523
777.978	0.0147789
778.057	0.0148163
778.135	0.0148018
778.213	0.0148454
778.291	0.0149895
778.369	0.0149792
778.447	0.0148769
778.525	0.0150322
778.603	0.0150284
778.682	0.0149287
778.760	0.0150620
778.838	0.0151170
778.916	0.0151432
778.994	0.0151667
779.072	0.0152077
779.150	0.0151708
779.228	0.0151514
779.307	0.0151415
779.385	0.0154005
779.463	0.0151363
779.541	0.0150851
779.619	0.0149956
779.697	0.0150287
779.775	0.0149550
779.853	0.0150280
779.932	0.0148926
780.010	0.0149075
780.088	0.0148897
780.166	0.0148030
780.244	0.0146825
780.322	0.0146188
780.400	0.0145476
780.478	0.0144791
780.557	0.0146230
780.635	0.0144176
780.713	0.0144928
780.791	0.0144851
780.869	0.0145221
780.947	0.0146533
781.025	0.0144190
781.103	0.0145247
781.182	0.0145439
781.260	0.0147913
781.338	0.0147697
781.416	0.0147817
781.494	0.0149271
781.572	0.0149082
781.650	0.0152960
781.728	0.0152444
781.807	0.0153490
781.885	0.0154246
781.963	0.0154845
782.041	0.0155481
782.119	0.0154821
782.197	0.0155955
782.275	0.0156992
782.353	0.0156271
782.432	0.0156222
782.510	0.0156106
782.588	0.0154742
782.666	0.0154264
782.744	0.0152528
782.822	0.0153800
782.900	0.0152615
782.978	0.0152068
783.057	0.0150289
783.135	0.0149124
783.213	0.0148122
783.291	0.0147532
783.369	0.0146320
783.447	0.0146164
783.525	0.0145734
783.603	0.0144985
783.682	0.0144755
783.760	0.0145604
783.838	0.0143719
783.916	0.0143399
783.994	0.0142603
784.072	0.0142452
784.150	0.0143279
784.228	0.0144171
784.307	0.0143294
784.385	0.0142192
784.463	0.0142912
784.541	0.0142287
784.619	0.0142765
784.697	0.0142463
784.775	0.0142426
784.853	0.0144156
784.932	0.0143896
785.010	0.0143972
785.088	0.0144888
785.166	0.0144231
785.244	0.0144705
785.322	0.0144916
785.400	0.0144161
785.478	0.0146701
785.557	0.0146634
785.635	0.0147424
785.713	0.0147017
785.791	0.0147295
785.869	0.0148512
785.947	0.0148719
786.025	0.0150285
786.103	0.0150719
786.182	0.0151344
786.260	0.0152901
786.338	0.0153333
786.416	0.0152397
786.494	0.0154206
786.572	0.0154808
786.650	0.0156667
786.728	0.0157551
786.807	0.0156723
786.885	0.0157831
786.963	0.0157404
787.041	0.0157423
787.119	0.0157878
787.197	0.0157879
787.275	0.0158643
787.353	0.0157862
787.432	0.0157619
787.510	0.0156227
787.588	0.0156849
787.666	0.0156180
787.744	0.0156302
787.822	0.0154710
787.900	0.0155479
787.978	0.0154908
788.057	0.0153867
788.135	0.0152858
788.213	0.0152161
788.291	0.0153391
788.369	0.0153481
788.447	0.0151840
788.525	0.0151241
788.603	0.0150649
788.682	0.0149620
788.760	0.0149288
788.838	0.0147274
788.916	0.0146582
788.994	0.0145860
789.072	0.0146517
789.150	0.0144781
789.228	0.0145441
789.307	0.0143327
789.385	0.0143426
789.463	0.0141721
789.541	0.0142822
789.619	0.0142452
789.697	0.0141138
789.775	0.0141456
789.853	0.0142061
789.932	0.0141317
790.010	0.0140800
790.088	0.0141865
790.166	0.0142129
790.244	0.0143391
790.322	0.0142951
790.400	0.0145290
790.478	0.0148038
790.557	0.0147971
790.635	0.0147514
790.713	0.0148591
790.791	0.0150574
790.869	0.0151872
790.947	0.0153188
791.025	0.0155076
791.103	0.0154978
791.182	0.0155312
791.260	0.0155870
791.338	0.0156451
791.416	0.0157431
791.494	0.0154957
791.572	0.0154493
791.650	0.0155284
791.728	0.0154796
791.807	0.0153767
791.885	0.0153534
791.963	0.0152238
792.041	0.0151962
792.119	0.0151086
792.197	0.0149091
792.275	0.0148464
792.353	0.0146774
792.432	0.0146288
792.510	0.0146411
792.588	0.0144305
792.666	0.0144411
792.744	0.0143736
792.822	0.0143972
792.900	0.0144302
792.978	0.0144144
793.057	0.0145307
793.135	0.0145041
793.213	0.0147018
793.291	0.0146848
793.369	0.0149171
793.447	0.0150443
793.525	0.0149047
793.603	0.0150475
793.682	0.0151733
793.760	0.0151414
793.838	0.0150816
793.916	0.0150633
793.994	0.0151324
794.072	0.0152923
794.150	0.0152184
794.228	0.0152073
794.307	0.0152660
794.385	0.0151043
794.463	0.0149541
794.541	0.0150283
794.619	0.0148715
794.697	0.0149076
794.775	0.0147289
794.853	0.0146784
794.932	0.0147293
795.010	0.0148100
795.088	0.0145618
795.166	0.0145507
795.244	0.0145203
795.322	0.0146741
795.400	0.0145058
795.478	0.0144397
795.557	0.0146952
795.635	0.0146899
795.713	0.0146146
795.791	0.0146935
795.869	0.0146870
795.947	0.0148909
796.025	0.0149749
796.103	0.0149737
796.182	0.0149355
796.260	0.0150288
796.338	0.0151038
796.416	0.0151057
796.494	0.0152334
796.572	0.0149959
796.650	0.0149197
796.728	0.0149955
796.807	0.0150404
796.885	0.0149274
796.963	0.0147984
797.041	0.0147385
797.119	0.0147632
797.197	0.0147423
797.275	0.0146502
797.353	0.0147269
797.432	0.0145916
797.510	0.0145075
797.588	0.0147002
797.666	0.0146442
797.744	0.0146093
797.822	0.0146349
797.900	0.0147354
797.978	0.0146317
798.057	0.0146549
798.135	0.0146262
798.213	0.0147440
798.291	0.0148217
798.369	0.0146286
798.447	0.0146839
798.525	0.0148669
798.603	0.0147674
798.682	0.0148727
798.760	0.0149258
798.838	0.0150608
798.916	0.0150497
798.994	0.0150121
799.072	0.0148590
799.150	0.0150311
799.228	0.0149816
799.307	0.0150536
799.385	0.0150829
799.463	0.0149323
799.541	0.0150956
799.619	0.0149499
799.697	0.0148598
799.775	0.0148503
799.853	0.0149216
799.932	0.0148217
800.010	0.0147918
800.088	0.0147847
800.166	0.0146792
800.244	0.0147182
800.322	0.0145171
800.400	0.0145594
800.478	0.0144102
800.557	0.0143677
800.635	0.0145579
800.713	0.0143417
800.791	0.0144443
800.869	0.0143932
800.947	0.0143929
801.025	0.0143707
801.103	0.0144740
801.182	0.0144088
801.260	0.0145329
801.338	0.0146173
801.416	0.0146321
801.494	0.0146823
801.572	0.0147642
801.650	0.0147062
801.728	0.0146732
801.807	0.0148656
801.885	0.0148711
801.963	0.0149236
802.041	0.0149775
802.119	0.0150584
802.197	0.0148315
802.275	0.0151327
802.353	0.0151669
802.432	0.0151844
802.510	0.0152283
802.588	0.0151987
802.666	0.0153349
802.744	0.0153125
802.822	0.0152848
802.900	0.0152240
802.978	0.0152782
803.057	0.0154398
803.135	0.0153446
803.213	0.0151804
803.291	0.0152623
803.369	0.0153168
803.447	0.0153049
803.525	0.0151953
803.603	0.0153699
803.682	0.0152016
803.760	0.0152239
803.838	0.0152553
803.916	0.0152956
803.994	0.0151278
804.072	0.0151743
804.150	0.0150052
804.228	0.0150082
804.307	0.0148248
804.385	0.0148645
804.463	0.0148980
804.541	0.0148848
804.619	0.0145824
804.697	0.0147219
804.775	0.0146228
804.853	0.0144640
804.932	0.0145734
805.010	0.0146284
805.088	0.0144470
805.166	0.0143756
805.244	0.0145473
805.322	0.0145100
805.400	0.0144814
805.478	0.0143893
805.557	0.0145000
805.635	0.0144703
805.713	0.0144646
805.791	0.0145303
805.869	0.0144732
805.947	0.0144740
806.025	0.0144698
806.103	0.0144393
806.182	0.0145409
806.260	0.0142986
806.338	0.0144697
806.416	0.0143626
806.494	0.0144270
806.572	0.0144917
806.650	0.0144122
806.728	0.0144381
806.807	0.0144866
806.885	0.0144247
806.963	0.0146173
807.041	0.0147376
807.119	0.0147096
807.197	0.0147630
807.275	0.0147470
807.353	0.0149071
807.432	0.0149131
807.510	0.0150042
807.588	0.0150840
807.666	0.0150415
807.744	0.0151834
807.822	0.0151409
807.900	0.0151641
807.978	0.0151435
808.057	0.0152232
808.135	0.0152215
808.213	0.0151985
808.291	0.0152959
808.369	0.0152733
808.447	0.0154076
808.525	0.0152944
808.603	0.0151031
808.682	0.0152610
808.760	0.0153108
808.838	0.0153249
808.916	0.0153685
808.994	0.0154066
809.072	0.0153649
809.150	0.0155235
809.228	0.0152959
809.307	0.0154699
809.385	0.0155507
809.463	0.0155421
809.541	0.0156152
809.619	0.0155061
809.697	0.0155022
809.775	0.0156161
809.853	0.0154622
809.932	0.0153757
810.010	0.0154885
810.088	0.0155176
810.166	0.0153136
810.244	0.0152998
810.322	0.0152138
810.400	0.0152212
810.478	0.0151076
810.557	0.0149757
810.635	0.0148504
810.713	0.0148206
810.791	0.0147528
810.869	0.0147320
810.947	0.0146217
811.025	0.0145817
811.103	0.0146202
811.182	0.0144292
811.260	0.0145252
811.338	0.0144023
811.416	0.0143996
811.494	0.0145628
811.572	0.0145470
811.650	0.0145502
811.728	0.0144024
811.807	0.0145648
811.885	0.0145208
811.963	0.0146024
812.041	0.0145198
812.119	0.0146922
812.197	0.0146606
812.275	0.0146289
812.353	0.0147445
812.432	0.0147417
812.510	0.0146958
812.588	0.0147086
812.666	0.0146369
812.744	0.0147077
812.822	0.0145643
812.900	0.0146714
812.978	0.0146897
813.057	0.0148727
813.135	0.0145654
813.213	0.0145741
813.291	0.0145735
813.369	0.0145480
813.447	0.0147221
813.525	0.0147101
813.603	0.0147071
813.682	0.0147101
813.760	0.0148421
813.838	0.0147970
813.916	0.0147716
813.994	0.0148794
814.072	0.0147948
814.150	0.0149098
814.228	0.0149100
814.307	0.0149147
814.385	0.0149309
814.463	0.0150735
814.541	0.0150977
814.619	0.0151119
814.697	0.0151730
814.775	0.0153386
814.853	0.0153813
814.932	0.0152415
815.010	0.0155187
815.088	0.0154289
815.166	0.0154740
815.244	0.0152790
815.322	0.0153061
815.400	0.0152049
815.478	0.0153012
815.557	0.0152081
815.635	0.0151392
815.713	0.0150677
815.791	0.0151062
815.869	0.0150741
815.947	0.0150332
816.025	0.0148334
816.103	0.0149284
816.182	0.0148453
816.260	0.0149381
816.338	0.0147828
816.416	0.0146891
816.494	0.0148169
816.572	0.0146810
816.650	0.0147723
816.728	0.0146811
816.807	0.0145757
816.885	0.0144321
816.963	0.0146458
817.041	0.0145251
817.119	0.0145056
817.197	0.0143639
817.275	0.0144991
817.353	0.0145004
817.432	0.0144449
817.510	0.0144940
817.588	0.0144616
817.666	0.0145377
817.744	0.0146291
817.822	0.0146815
817.900	0.0145193
817.978	0.0145814
818.057	0.0146884
818.135	0.0145956
818.213	0.0147189
818.291	0.0146021
818.369	0.0144817
818.447	0.0146251
818.525	0.0146133
818.603	0.0148135
818.682	0.0147064
818.760	0.0145499
818.838	0.0145057
818.916	0.0145261
818.994	0.0145977
819.072	0.0146019
819.150	0.0145852
819.228	0.0144950
819.307	0.0145415
819.385	0.0144632
819.463	0.0144267
819.541	0.0144411
819.619	0.0145956
819.697	0.0144717
819.775	0.0146066
819.853	0.0144498
819.932	0.0144199
820.010	0.0144753
820.088	0.0144618
820.166	0.0146381
820.244	0.0145989
820.322	0.0146969
820.400	0.0146922
820.478	0.0147265
820.557	0.0147086
820.635	0.0147941
820.713	0.0149051
820.791	0.0149181
820.869	0.0148978
820.947	0.0149075
821.025	0.0149686
821.103	0.0149982
821.182	0.0149192
821.260	0.0149236
821.338	0.0149790
821.416	0.0150761
821.494	0.0150695
821.572	0.0149979
821.650	0.0152122
821.728	0.0150214
821.807	0.0150726
821.885	0.0150064
821.963	0.0150969
822.041	0.0151433
822.119	0.0150742
822.197	0.0150235
822.275	0.0149487
822.353	0.0149512
822.432	0.0149311
822.510	0.0149489
822.588	0.0148824
822.666	0.0148949
822.744	0.0149675
822.822	0.0147736
822.900	0.0146773
822.978	0.0147672
823.057	0.0147012
823.135	0.0146296
823.213	0.0146925
823.291	0.0146378
823.369	0.0145979
823.447	0.0144855
823.525	0.0144193
823.603	0.0146475
823.682	0.0147210
823.760	0.0146539
823.838	0.0145497
823.916	0.0146017
823.994	0.0144981
824.072	0.0147156
824.150	0.0147962
824.228	0.0147922
824.307	0.0146545
824.385	0.0147662
824.463	0.0148690
824.541	0.0148385
824.619	0.0149018
824.697	0.0149617
824.775	0.0151066
824.853	0.0148410
824.932	0.0150342
825.010	0.0149983
825.088	0.0149277
825.166	0.0149493
825.244	0.0149945
825.322	0.0148705
825.400	0.0149025
825.478	0.0148144
825.557	0.0149418
825.635	0.0150141
825.713	0.0150114
825.791	0.0149128
825.869	0.0149230
825.947	0.0149044
826.025	0.0146950
826.103	0.0147478
826.182	0.0148577
826.260	0.0149151
826.338	0.0147709
826.416	0.0148526
826.494	0.0147520
826.572	0.0147370
826.650	0.0146404
826.728	0.0147401
826.807	0.0146672
826.885	0.0146339
826.963	0.0147592
827.041	0.0146835
827.119	0.0147157
827.197	0.0147234
827.275	0.0146977
827.353	0.0147372
827.432	0.0148270
827.510	0.0147426
827.588	0.0148809
827.666	0.0149101
827.744	0.0149117
827.822	0.0150001
827.900	0.0149662
827.978	0.0151300
828.057	0.0149783
828.135	0.0149563
828.213	0.0150528
828.291	0.0150890
828.369	0.0150040
828.447	0.0148932
828.525	0.0149049
828.603	0.0150807
828.682	0.0150263
828.760	0.0149420
828.838	0.0149539
828.916	0.0149747
828.994	0.0149606
829.072	0.0149747
829.150	0.0149836
829.228	0.0149590
829.307	0.0149575
829.385	0.0149903
829.463	0.0149910
829.541	0.0148571
829.619	0.0149626
829.697	0.0149070
829.775	0.0149632
829.853	0.0150105
829.932	0.0149645
830.010	0.0149158
830.088	0.0151038
830.166	0.0150149
830.244	0.0149105
830.322	0.0148835
830.400	0.0149858
830.478	0.0149030
830.557	0.0148473
830.635	0.0148335
830.713	0.0148409
830.791	0.0149091
830.869	0.0147249
830.947	0.0149601
831.025	0.0150332
831.103	0.0146835
831.182	0.0147992
831.260	0.0148716
831.338	0.0148737
831.416	0.0148970
831.494	0.0149606
831.572	0.0149088
831.650	0.0148670
831.728	0.0149656
831.807	0.0149849
831.885	0.0150271
831.963	0.0149283
832.041	0.0150246
832.119	0.0148091
832.197	0.0148692
832.275	0.0148432
832.353	0.0149084
832.432	0.0149953
832.510	0.0149214
832.588	0.0150861
832.666	0.0149365
832.744	0.0150504
832.822	0.0150594
832.900	0.0150997
832.978	0.0151212
833.057	0.0151440
833.135	0.0152536
833.213	0.0150647
833.291	0.0150375
833.369	0.0152149
833.447	0.0152198
833.525	0.0151517
833.603	0.0151980
833.682	0.0154091
833.760	0.0152827
833.838	0.0151933
833.916	0.0152870
833.994	0.0152040
834.072	0.0152953
834.150	0.0153156
834.228	0.0152164
834.307	0.0152529
834.385	0.0153755
834.463	0.0151974
834.541	0.0150960
834.619	0.0151176
834.697	0.0150271
834.775	0.0150458
834.853	0.0149549
834.932	0.0149329
835.010	0.0148694
835.088	0.0147345
835.166	0.0147455
835.244	0.0149253
835.322	0.0146985
835.400	0.0146857
835.478	0.0147093
835.557	0.0147874
835.635	0.0147851
835.713	0.0148074
835.791	0.0148820
835.869	0.0148975
835.947	0.0147806
836.025	0.0149517
836.103	0.0149587
836.182	0.0148544
836.260	0.0149332
836.338	0.0151056
836.416	0.0150620
836.494	0.0150026
836.572	0.0148940
836.650	0.0149604
836.728	0.0150346
836.807	0.0149171
836.885	0.0149350
836.963	0.0149511
837.041	0.0150620
837.119	0.0148360
837.197	0.0147571
837.275	0.0148018
837.353	0.0146199
837.432	0.0146912
837.510	0.0147385
837.588	0.0146144
837.666	0.0146338
837.744	0.0147049
837.822	0.0147493
837.900	0.0145928
837.978	0.0147322
838.057	0.0147118
838.135	0.0147079
838.213	0.0149051
838.291	0.0148877
838.369	0.0148063
838.447	0.0148114
838.525	0.0146644
838.603	0.0149399
838.682	0.0148199
838.760	0.0148260
838.838	0.0148679
838.916	0.0149533
838.994	0.0149577
839.072	0.0148882
839.150	0.0148995
839.228	0.0148439
839.307	0.0148669
839.385	0.0149548
839.463	0.0147327
839.541	0.0147615
839.619	0.0149937
839.697	0.0149503
839.775	0.0148924
839.853	0.0149728
839.932	0.0150130
840.010	0.0149880
840.088	0.0150014
840.166	0.0148249
840.244	0.0148303
840.322	0.0149294
840.400	0.0148775
840.478	0.0149782
840.557	0.0149064
840.635	0.0148186
840.713	0.0148257
840.791	0.0146903
840.869	0.0147959
840.947	0.0148065
841.025	0.0146756
841.103	0.0146974
841.182	0.0146358
841.260	0.0145196
841.338	0.0145554
841.416	0.0145309
841.494	0.0145610
841.572	0.0146307
841.650	0.0144400
841.728	0.0144716
841.807	0.0145018
841.885	0.0145547
841.963	0.0145541
842.041	0.0145901
842.119	0.0146634
842.197	0.0147437
842.275	0.0146120
842.353	0.0145532
842.432	0.0146128
842.510	0.0147364
842.588	0.0146889
842.666	0.0146609
842.744	0.0146025
842.822	0.0145726
842.900	0.0146375
842.978	0.0146586
843.057	0.0146083
843.135	0.0146493
843.213	0.0145786
843.291	0.0146744
843.369	0.0145940
843.447	0.0146380
843.525	0.0146249
843.603	0.0144228
843.682	0.0146612
843.760	0.0146886
843.838	0.0147163
843.916	0.0146442
843.994	0.0147042
844.072	0.0147342
844.150	0.0147460
844.228	0.0147485
844.307	0.0148215
844.385	0.0147845
844.463	0.0147550
844.541	0.0148461
844.619	0.0149374
844.697	0.0148717
844.775	0.0149704
844.853	0.0150890
844.932	0.0150446
845.010	0.0150223
845.088	0.0149985
845.166	0.0153141
845.244	0.0152301
845.322	0.0150601
845.400	0.0151540
845.478	0.0151038
845.557	0.0150722
845.635	0.0150520
845.713	0.0150951
845.791	0.0151343
845.869	0.0149224
845.947	0.0148657
846.025	0.0149996
846.103	0.0148320
846.182	0.0148917
846.260	0.0148367
846.338	0.0147953
846.416	0.0148366
846.494	0.0148365
846.572	0.0147474
846.650	0.0146409
846.728	0.0146272
846.807	0.0146474
846.885	0.0146420
846.963	0.0146307
847.041	0.0145477
847.119	0.0146478
847.197	0.0145760
847.275	0.0146075
847.353	0.0145850
847.432	0.0147002
847.510	0.0145953
847.588	0.0145048
847.666	0.0146210
847.744	0.0146791
847.822	0.0147192
847.900	0.0145507
847.978	0.0147134
848.057	0.0147993
848.135	0.0148683
848.213	0.0147148
848.291	0.0147544
848.369	0.0148048
848.447	0.0147211
848.525	0.0148692
848.603	0.0149691
848.682	0.0147931
848.760	0.0148348
848.838	0.0149960
848.916	0.0148582
848.994	0.0148976
849.072	0.0149022
849.150	0.0148063
849.228	0.0149789
849.307	0.0147675
849.385	0.0149777
849.463	0.0148898
849.541	0.0150670
849.619	0.0150694
849.697	0.0150002
849.775	0.0150381
849.853	0.0150039
849.932	0.0150008
850.010	0.0149551
850.088	0.0149642
850.166	0.0148227
850.244	0.0149061
850.322	0.0149022
850.400	0.0149100
850.478	0.0147623
850.557	0.0147916
850.635	0.0147424
850.713	0.0147904
850.791	0.0147721
850.869	0.0147322
850.947	0.0147728
851.025	0.0147784
851.103	0.0147842
851.182	0.0147031
851.260	0.0146361
851.338	0.0147465
851.416	0.0147385
851.494	0.0148324
851.572	0.0148445
851.650	0.0148657
851.728	0.0149138
851.807	0.0148698
851.885	0.0147668
851.963	0.0150162
852.041	0.0148687
852.119	0.0149820
852.197	0.0149001
852.275	0.0151088
852.353	0.0150755
852.432	0.0150482
852.510	0.0150291
852.588	0.0150482
852.666	0.0150417
852.744	0.0151066
852.822	0.0151453
852.900	0.0150360
852.978	0.0151297
853.057	0.0149821
853.135	0.0148562
853.213	0.0148876
853.291	0.0148394
853.369	0.0149136
853.447	0.0149329
853.525	0.0150734
853.603	0.0147997
853.682	0.0148589
853.760	0.0148939
853.838	0.0147882
853.916	0.0148836
853.994	0.0149372
854.072	0.0148999
854.150	0.0148454
854.228	0.0148627
854.307	0.0148610
854.385	0.0147980
854.463	0.0149467
854.541	0.0149968
854.619	0.0149393
854.697	0.0147781
854.775	0.0148489
854.853	0.0148314
854.932	0.0148557
855.010	0.0149923
855.088	0.0147822
855.166	0.0148132
855.244	0.0148350
855.322	0.0148593
855.400	0.0150464
855.478	0.0150469
855.557	0.0148933
855.635	0.0148330
855.713	0.0149105
855.791	0.0149690
855.869	0.0148434
855.947	0.0149522
856.025	0.0151284
856.103	0.0150825
856.182	0.0150594
856.260	0.0150419
856.338	0.0149405
856.416	0.0151315
856.494	0.0150806
856.572	0.0151778
856.650	0.0152528
856.728	0.0151545
856.807	0.0153246
856.885	0.0152878
856.963	0.0152137
857.041	0.0150729
857.119	0.0150446
857.197	0.0153017
857.275	0.0151779
857.353	0.0150184
857.432	0.0150111
857.510	0.0148660
857.588	0.0150179
857.666	0.0148046
857.744	0.0149095
857.822	0.0148566
857.900	0.0148457
857.978	0.0150206
858.057	0.0150410
858.135	0.0147919
858.213	0.0148650
858.291	0.0149306
858.369	0.0148318
858.447	0.0147132
858.525	0.0148504
858.603	0.0149097
858.682	0.0148582
858.760	0.0148396
858.838	0.0147282
858.916	0.0147209
858.994	0.0148086
859.072	0.0147436
859.150	0.0148299
859.228	0.0147984
859.307	0.0146826
859.385	0.0147189
859.463	0.0146928
859.541	0.0148321
859.619	0.0147775
859.697	0.0147997
859.775	0.0147055
859.853	0.0148945
859.932	0.0147977
860.010	0.0147839
860.088	0.0148109
860.166	0.0149001
860.244	0.0148473
860.322	0.0147914
860.400	0.0150282
860.478	0.0149250
860.557	0.0150982
860.635	0.0151241
860.713	0.0150599
860.791	0.0150886
860.869	0.0149773
860.947	0.0152790
861.025	0.0150508
861.103	0.0150445
861.182	0.0152322
861.260	0.0153564
861.338	0.0152042
861.416	0.0153594
861.494	0.0152707
861.572	0.0152460
861.650	0.0152303
861.728	0.0151616
861.807	0.0151289
861.885	0.0152425
861.963	0.0152241
862.041	0.0151009
862.119	0.0151716
862.197	0.0150912
862.275	0.0150278
862.353	0.0150811
862.432	0.0150743
862.510	0.0150751
862.588	0.0150174
862.666	0.0148909
862.744	0.0149573
862.822	0.0149577
862.900	0.0150307
862.978	0.0151089
863.057	0.0148100
863.135	0.0149099
863.213	0.0146790
863.291	0.0147357
863.369	0.0147627
863.447	0.0146873
863.525	0.0145798
863.603	0.0145280
863.682	0.0145696
863.760	0.0145707
863.838	0.0146021
863.916	0.0146344
863.994	0.0144506
864.072	0.0146388
864.150	0.0146526
864.228	0.0146144
864.307	0.0146065
864.385	0.0146922
864.463	0.0147028
864.541	0.0147254
864.619	0.0148143
864.697	0.0148915
864.775	0.0148586
864.853	0.0149657
864.932	0.0150297
865.010	0.0150175
865.088	0.0149750
865.166	0.0151327
865.244	0.0150581
865.322	0.0150677
865.400	0.0150667
865.478	0.0150661
865.557	0.0150488
865.635	0.0151959
865.713	0.0148072
865.791	0.0150056
865.869	0.0150358
865.947	0.0149201
866.025	0.0148776
866.103	0.0148789
866.182	0.0147795
866.260	0.0147543
866.338	0.0148778
866.416	0.0148454
866.494	0.0146480
866.572	0.0147800
866.650	0.0148602
866.728	0.0148232
866.807	0.0147258
866.885	0.0148396
866.963	0.0146848
867.041	0.0147777
867.119	0.0149038
867.197	0.0148093
867.275	0.0149749
867.353	0.0148961
867.432	0.0150647
867.510	0.0149906
867.588	0.0152044
867.666	0.0151711
867.744	0.0152213
867.822	0.0150461
867.900	0.0151012
867.978	0.0151369
868.057	0.0151928
868.135	0.0152402
868.213	0.0151056
868.291	0.0151003
868.369	0.0151376
868.447	0.0153040
868.525	0.0150816
868.603	0.0151579
868.682	0.0153350
868.760	0.0150335
868.838	0.0149773
868.916	0.0150955
868.994	0.0150794
869.072	0.0149033
869.150	0.0149214
869.228	0.0150067
869.307	0.0148891
869.385	0.0149135
869.463	0.0147812
869.541	0.0147918
869.619	0.0148332
869.697	0.0146754
869.775	0.0146994
869.853	0.0146954
869.932	0.0147945
870.010	0.0147881
870.088	0.0147326
870.166	0.0146562
870.244	0.0147425
870.322	0.0148434
870.400	0.0147804
870.478	0.0147220
870.557	0.0148636
870.635	0.0149081
870.713	0.0150405
870.791	0.0149779
870.869	0.0147276
870.947	0.0148862
871.025	0.0148245
871.103	0.0148453
871.182	0.0148511
871.260	0.0147823
871.338	0.0147692
871.416	0.0146657
871.494	0.0146486
871.572	0.0146576
871.650	0.0148989
871.728	0.0146077
871.807	0.0145727
871.885	0.0144813
871.963	0.0144719
872.041	0.0145324
872.119	0.0145319
872.197	0.0144754
872.275	0.0145900
872.353	0.0145969
872.432	0.0145303
872.510	0.0148051
872.588	0.0146891
872.666	0.0148763
872.744	0.0148669
872.822	0.0149120
872.900	0.0149963
872.978	0.0151391
873.057	0.0149303
873.135	0.0150800
873.213	0.0150601
873.291	0.0151999
873.369	0.0150378
873.447	0.0149536
873.525	0.0152422
873.603	0.0153314
873.682	0.0152779
873.760	0.0152761
873.838	0.0152330
873.916	0.0153104
873.994	0.0152867
874.072	0.0150097
874.150	0.0151448
874.228	0.0152357
874.307	0.0150278
874.385	0.0151174
874.463	0.0150285
874.541	0.0150332
874.619	0.0150077
874.697	0.0149052
874.775	0.0149150
874.853	0.0146926
874.932	0.0149175
875.010	0.0148239
875.088	0.0147210
875.166	0.0146721
875.244	0.0146187
875.322	0.0146861
875.400	0.0146861
875.478	0.0147002
875.557	0.0145673
875.635	0.0146198
875.713	0.0146716
875.791	0.0146456
875.869	0.0146865
875.947	0.0146255
876.025	0.0145721
876.103	0.0146958
876.182	0.0147587
876.260	0.0147816
876.338	0.0146881
876.416	0.0145868
876.494	0.0148454
876.572	0.0146495
876.650	0.0147952
876.728	0.0147631
876.807	0.0147135
876.885	0.0148917
876.963	0.0149409
877.041	0.0148759
877.119	0.0149786
877.197	0.0151389
877.275	0.0149437
877.353	0.0150539
877.432	0.0151456
877.510	0.0150717
877.588	0.0149210
877.666	0.0150085
877.744	0.0149251
877.822	0.0149490
877.900	0.0149541
877.978	0.0149759
878.057	0.0150164
878.135	0.0150871
878.213	0.0148994
878.291	0.0149370
878.369	0.0149852
878.447	0.0149600
878.525	0.0149062
878.603	0.0148341
878.682	0.0148584
878.760	0.0146534
878.838	0.0148216
878.916	0.0148258
878.994	0.0146094
879.072	0.0147095
879.150	0.0145758
879.228	0.0145647
879.307	0.0144800
879.385	0.0144630
879.463	0.0145093
879.541	0.0143209
879.619	0.0144968
879.697	0.0145496
879.775	0.0145936
879.853	0.0145106
879.932	0.0145747
880.010	0.0146280
880.088	0.0147849
880.166	0.0148466
880.244	0.0148863
880.322	0.0148560
880.400	0.0149145
880.478	0.0148952
880.557	0.0150019
880.635	0.0149798
880.713	0.0152024
880.791	0.0151653
880.869	0.0150755
880.947	0.0151064
881.025	0.0152559
881.103	0.0152755
881.182	0.0151962
881.260	0.0151884
881.338	0.0151736
881.416	0.0152540
881.494	0.0152316
881.572	0.0152736
881.650	0.0153124
881.728	0.0153148
881.807	0.0153510
881.885	0.0153888
881.963	0.0152414
882.041	0.0153236
882.119	0.0152413
882.197	0.0151679
882.275	0.0150317
882.353	0.0150808
882.432	0.0150903
882.510	0.0149944
882.588	0.0151623
882.666	0.0151028
882.744	0.0149487
882.822	0.0151167
882.900	0.0150128
882.978	0.0148586
883.057	0.0149818
883.135	0.0150006
883.213	0.0150175
883.291	0.0149595
883.369	0.0149776
883.447	0.0148522
883.525	0.0147525
883.603	0.0148523
883.682	0.0146957
883.760	0.0147872
883.838	0.0147056
883.916	0.0146144
883.994	0.0146321
884.072	0.0144930
884.150	0.0146095
884.228	0.0144551
884.307	0.0145509
884.385	0.0145644
884.463	0.0145783
884.541	0.0146232
884.619	0.0146236
884.697	0.0147248
884.775	0.0147454
884.853	0.0146564
884.932	0.0149085
885.010	0.0149738
885.088	0.0149680
885.166	0.0150216
885.244	0.0149563
885.322	0.0150478
885.400	0.0151813
885.478	0.0150404
885.557	0.0151665
885.635	0.0152242
885.713	0.0151421
885.791	0.0152309
885.869	0.0151989
885.947	0.0152254
886.025	0.0152947
886.103	0.0151041
886.182	0.0149412
886.260	0.0150820
886.338	0.0151011
886.416	0.0149314
886.494	0.0149255
886.572	0.0148489
886.650	0.0147607
886.728	0.0146574
886.807	0.0147952
886.885	0.0147151
886.963	0.0145003
887.041	0.0144929
887.119	0.0145007
887.197	0.0145077
887.275	0.0145175
887.353	0.0145387
887.432	0.0146289
887.510	0.0146239
887.588	0.0146915
887.666	0.0146179
887.744	0.0148222
887.822	0.0149528
887.900	0.0150672
887.978	0.0150237
888.057	0.0150322
888.135	0.0151907
888.213	0.0150203
888.291	0.0151220
888.369	0.0153694
888.447	0.0152423
888.525	0.0152412
888.603	0.0152815
888.682	0.0153570
888.760	0.0152019
888.838	0.0153959
888.916	0.0154052
888.994	0.0154134
889.072	0.0152189
889.150	0.0152232
889.228	0.0152845
889.307	0.0151450
889.385	0.0152293
889.463	0.0152187
889.541	0.0151047
889.619	0.0150830
889.697	0.0150833
889.775	0.0148277
889.853	0.0149465
889.932	0.0149696
890.010	0.0148350
890.088	0.0148610
890.166	0.0147667
890.244	0.0147782
890.322	0.0148431
890.400	0.0149198
890.478	0.0146552
890.557	0.0148883
890.635	0.0148390
890.713	0.0147667
890.791	0.0147892
890.869	0.0147661
890.947	0.0147426
891.025	0.0148210
891.103	0.0147768
891.182	0.0150131
891.260	0.0148161
891.338	0.0148506
891.416	0.0147905
891.494	0.0148500
891.572	0.0149886
891.650	0.0148325
891.728	0.0147636
891.807	0.0147690
891.885	0.0149683
891.963	0.0147254
892.041	0.0147781
892.119	0.0147717
892.197	0.0146901
892.275	0.0147260
892.353	0.0146985
892.432	0.0146825
892.510	0.0145975
892.588	0.0146567
892.666	0.0147388
892.744	0.0147661
892.822	0.0147710
892.900	0.0145992
892.978	0.0146532
893.057	0.0148257
893.135	0.0149547
893.213	0.0149504
893.291	0.0150475
893.369	0.0149288
893.447	0.0151866
893.525	0.0153734
893.603	0.0154044
893.682	0.0152586
893.760	0.0154725
893.838	0.0153440
893.916	0.0153506
893.994	0.0155067
894.072	0.0155950
894.150	0.0153945
894.228	0.0152712
894.307	0.0153590
894.385	0.0152258
894.463	0.0151329
894.541	0.0151478
894.619	0.0151670
894.697	0.0152045
894.775	0.0149450
894.853	0.0150053
894.932	0.0148763
895.010	0.0147438
895.088	0.0146735
895.166	0.0146254
895.244	0.0146613
895.322	0.0146785
895.400	0.0146471
895.478	0.0147011
895.557	0.0146703
895.635	0.0147051
895.713	0.0147633
895.791	0.0149477
895.869	0.0149323
895.947	0.0148517
896.025	0.0149215
896.103	0.0149004
896.182	0.0149893
896.260	0.0150152
896.338	0.0151853
896.416	0.0152348
896.494	0.0150749
896.572	0.0150826
896.650	0.0152196
896.728	0.0151939
896.807	0.0151241
896.885	0.0149842
896.963	0.0150799
897.041	0.0148980
897.119	0.0149072
897.197	0.0148065
897.275	0.0148982
897.353	0.0148375
897.432	0.0146651
897.510	0.0146861
897.588	0.0146029
897.666	0.0147062
897.744	0.0146482
897.822	0.0146264
897.900	0.0145531
897.978	0.0145564
898.057	0.0147025
898.135	0.0147652
898.213	0.0146963
898.291	0.0148672
898.369	0.0148306
898.447	0.0147787
898.525	0.0148170
898.603	0.0149922
898.682	0.0150416
898.760	0.0149994
898.838	0.0150702
898.916	0.0148859
898.994	0.0150525
899.072	0.0148586
899.150	0.0149087
899.228	0.0149380
899.307	0.0149787
899.385	0.0149341
899.463	0.0151056
899.541	0.0148743
899.619	0.0147908
899.697	0.0147816
899.775	0.0148226
899.853	0.0148027
899.932	0.0147657
900.010	0.0148399
900.088	0.0147372
900.166	0.0148041
900.244	0.0148042
900.322	0.0147586
900.400	0.0147564
900.478	0.0146841
900.557	0.0146695
900.635	0.0145856
900.713	0.0146941
900.791	0.0146809
900.869	0.0147094
900.947	0.0146850
901.025	0.0146930
901.103	0.0146167
901.182	0.0146540
901.260	0.0147065
901.338	0.0147240
901.416	0.0146647
901.494	0.0146964
901.572	0.0148071
901.650	0.0148079
901.728	0.0147251
901.807	0.0149458
901.885	0.0148354
901.963	0.0146319
902.041	0.0148368
902.119	0.0148525
902.197	0.0148361
902.275	0.0148044
902.353	0.0148506
902.432	0.0148885
902.510	0.0149223
902.588	0.0148502
902.666	0.0147398
902.744	0.0148487
902.822	0.0148848
902.900	0.0146980
902.978	0.0147552
903.057	0.0148485
903.135	0.0148582
903.213	0.0148554
903.291	0.0147687
903.369	0.0147393
903.447	0.0147330
903.525	0.0148243
903.603	0.0147965
903.682	0.0147743
903.760	0.0145775
903.838	0.0146294
903.916	0.0146600
903.994	0.0148152
904.072	0.0149039
904.150	0.0148224
904.228	0.0146282
904.307	0.0147433
904.385	0.0148839
904.463	0.0147652
904.541	0.0147260
904.619	0.0149010
904.697	0.0148411
904.775	0.0148711
904.853	0.0146297
904.932	0.0147029
905.010	0.0147939
905.088	0.0148650
905.166	0.0148322
905.244	0.0148665
905.322	0.0147684
905.400	0.0150063
905.478	0.0148252
905.557	0.0148803
905.635	0.0148399
905.713	0.0148493
905.791	0.0148639
905.869	0.0148689
905.947	0.0148482
906.025	0.0149420
906.103	0.0147966
906.182	0.0150124
906.260	0.0148877
906.338	0.0149888
906.416	0.0147690
906.494	0.0148935
906.572	0.0148191
906.650	0.0147110
906.728	0.0147844
906.807	0.0149148
906.885	0.0147124
906.963	0.0148416
907.041	0.0148178
907.119	0.0148585
907.197	0.0149291
907.275	0.0146974
907.353	0.0147948
907.432	0.0147485
907.510	0.0145469
907.588	0.0146584
907.666	0.0147541
907.744	0.0146261
907.822	0.0146018
907.900	0.0145609
907.978	0.0146484
908.057	0.0145706
908.135	0.0146584
908.213	0.0146149
908.291	0.0147368
908.369	0.0145856
908.447	0.0145541
908.525	0.0147023
908.603	0.0146173
908.682	0.0146778
908.760	0.0146625
908.838	0.0148756
908.916	0.0146526
908.994	0.0147821
909.072	0.0148174
909.150	0.0147439
909.228	0.0147050
909.307	0.0147791
909.385	0.0148574
909.463	0.0149592
909.541	0.0148660
909.619	0.0149216
909.697	0.0149677
909.775	0.0149376
909.853	0.0150450
909.932	0.0150962
910.010	0.0150885
910.088	0.0151350
910.166	0.0149440
910.244	0.0151189
910.322	0.0151630
910.400	0.0150325
910.478	0.0150407
910.557	0.0152133
910.635	0.0152077
910.713	0.0152168
910.791	0.0151580
910.869	0.0151167
910.947	0.0150275
911.025	0.0152766
911.103	0.0152445
911.182	0.0151250
911.260	0.0150923
911.338	0.0148456
911.416	0.0149289
911.494	0.0149448
911.572	0.0149767
911.650	0.0149050
911.728	0.0149859
911.807	0.0149255
911.885	0.0148781
911.963	0.0148156
912.041	0.0148260
912.119	0.0149756
912.197	0.0148493
912.275	0.0150290
912.353	0.0148943
912.432	0.0148370
912.510	0.0149271
912.588	0.0149464
912.666	0.0149421
912.744	0.0150031
912.822	0.0148591
912.900	0.0148438
912.978	0.0149232
913.057	0.0150472
913.135	0.0149033
913.213	0.0147432
913.291	0.0147690
913.369	0.0148790
913.447	0.0148486
913.525	0.0147774
913.603	0.0148614
913.682	0.0148634
913.760	0.0148040
913.838	0.0147122
913.916	0.0147504
913.994	0.0148369
914.072	0.0147214
914.150	0.0147302
914.228	0.0147921
914.307	0.0148961
914.385	0.0149818
914.463	0.0149120
914.541	0.0150042
914.619	0.0149113
914.697	0.0150337
914.775	0.0149317
914.853	0.0150597
914.932	0.0149872
915.010	0.0150708
915.088	0.0151767
915.166	0.0150241
915.244	0.0149762
915.322	0.0150290
915.400	0.0151339
915.478	0.0150115
915.557	0.0149997
915.635	0.0149418
915.713	0.0148866
915.791	0.0149176
915.869	0.0149316
915.947	0.0150526
916.025	0.0149123
916.103	0.0148898
916.182	0.0149070
916.260	0.0148326
916.338	0.0149554
916.416	0.0146438
916.494	0.0146849
916.572	0.0146593
916.650	0.0146733
916.728	0.0146666
916.807	0.0146366
916.885	0.0148884
916.963	0.0147713
917.041	0.0146397
917.119	0.0147572
917.197	0.0147401
917.275	0.0147713
917.353	0.0147501
917.432	0.0150214
917.510	0.0149036
917.588	0.0148810
917.666	0.0148691
917.744	0.0148862
917.822	0.0147939
917.900	0.0148755
917.978	0.0148753
918.057	0.0149456
918.135	0.0149100
918.213	0.0149924
918.291	0.0150069
918.369	0.0150024
918.447	0.0152116
918.525	0.0149561
918.603	0.0149606
918.682	0.0149765
918.760	0.0149246
918.838	0.0148421
918.916	0.0149076
918.994	0.0150970
919.072	0.0147569
919.150	0.0149506
919.228	0.0148948
919.307	0.0149043
919.385	0.0148398
919.463	0.0148996
919.541	0.0150023
919.619	0.0149844
919.697	0.0147106
919.775	0.0148999
919.853	0.0149300
919.932	0.0148272
920.010	0.0148432
920.088	0.0148470
920.166	0.0148021
920.244	0.0148188
920.322	0.0148585
920.400	0.0149509
920.478	0.0148626
920.557	0.0149569
920.635	0.0148651
920.713	0.0148344
920.791	0.0148470
920.869	0.0149823
920.947	0.0150079
921.025	0.0149959
921.103	0.0149950
921.182	0.0148405
921.260	0.0147932
921.338	0.0148758
921.416	0.0148992
921.494	0.0147896
921.572	0.0148965
921.650	0.0148094
921.728	0.0147985
921.807	0.0146486
921.885	0.0147845
921.963	0.0147316
922.041	0.0145918
922.119	0.0146037
922.197	0.0147172
922.275	0.0147531
922.353	0.0146574
922.432	0.0147340
922.510	0.0146927
922.588	0.0146332
922.666	0.0146950
922.744	0.0148669
922.822	0.0147165
922.900	0.0148890
922.978	0.0147588
923.057	0.0147189
923.135	0.0148934
923.213	0.0148519
923.291	0.0148250
923.369	0.0148082
923.447	0.0147721
923.525	0.0147956
923.603	0.0148222
923.682	0.0150519
923.760	0.0149007
923.838	0.0149242
923.916	0.0149800
923.994	0.0149275
924.072	0.0149866
924.150	0.0149303
924.228	0.0149049
924.307	0.0149467
924.385	0.0149837
924.463	0.0148380
924.541	0.0149545
924.619	0.0150368
924.697	0.0148528
924.775	0.0148202
924.853	0.0147433
924.932	0.0148980
925.010	0.0147710
925.088	0.0148678
925.166	0.0147913
925.244	0.0148287
925.322	0.0147997
925.400	0.0148869
925.478	0.0148291
925.557	0.0147447
925.635	0.0148201
925.713	0.0149550
925.791	0.0147993
925.869	0.0148251
925.947	0.0148587
926.025	0.0148485
926.103	0.0147053
926.182	0.0147341
926.260	0.0147571
926.338	0.0147947
926.416	0.0147128
926.494	0.0145884
926.572	0.0147079
926.650	0.0146909
926.728	0.0146945
926.807	0.0146130
926.885	0.0146793
926.963	0.0147102
927.041	0.0146306
927.119	0.0146572
927.197	0.0146017
927.275	0.0147232
927.353	0.0147507
927.432	0.0147530
927.510	0.0148055
927.588	0.0148067
927.666	0.0148962
927.744	0.0148318
927.822	0.0149994
927.900	0.0148581
927.978	0.0149152
928.057	0.0148457
928.135	0.0148388
928.213	0.0149951
928.291	0.0148931
928.369	0.0149776
928.447	0.0149561
928.525	0.0150647
928.603	0.0149862
928.682	0.0150532
928.760	0.0148815
928.838	0.0148783
928.916	0.0149715
928.994	0.0149291
929.072	0.0149635
929.150	0.0149146
929.228	0.0148727
929.307	0.0148637
929.385	0.0147929
929.463	0.0147915
929.541	0.0148254
929.619	0.0148534
929.697	0.0149393
929.775	0.0147998
929.853	0.0149344
929.932	0.0148869
930.010	0.0148784
930.088	0.0147900
930.166	0.0148209
930.244	0.0148065
930.322	0.0149363
930.400	0.0149166
930.478	0.0150427
930.557	0.0147698
930.635	0.0149238
930.713	0.0148273
930.791	0.0148161
930.869	0.0149434
930.947	0.0148789
931.025	0.0148784
931.103	0.0148641
931.182	0.0149208
931.260	0.0148125
931.338	0.0147182
931.416	0.0147909
931.494	0.0147850
931.572	0.0148560
931.650	0.0147570
931.728	0.0148035
931.807	0.0148069
931.885	0.0148930
931.963	0.0148418
932.041	0.0148350
932.119	0.0148976
932.197	0.0147092
932.275	0.0148842
932.353	0.0149584
932.432	0.0149428
932.510	0.0148235
932.588	0.0148602
932.666	0.0149662
932.744	0.0149601
932.822	0.0148808
932.900	0.0149714
932.978	0.0148433
933.057	0.0150097
933.135	0.0149625
933.213	0.0148576
933.291	0.0148852
933.369	0.0149059
933.447	0.0148973
933.525	0.0149679
933.603	0.0148648
933.682	0.0149158
933.760	0.0149704
933.838	0.0147281
933.916	0.0148858
933.994	0.0148098
934.072	0.0148159
934.150	0.0148861
934.228	0.0148555
934.307	0.0147618
934.385	0.0147711
934.463	0.0147525
934.541	0.0146442
934.619	0.0147474
934.697	0.0148212
934.775	0.0147311
934.853	0.0146778
934.932	0.0147226
935.010	0.0148157
935.088	0.0147700
935.166	0.0147282
935.244	0.0147289
935.322	0.0148093
935.400	0.0147714
935.478	0.0148636
935.557	0.0149866
935.635	0.0149523
935.713	0.0149117
935.791	0.0149903
935.869	0.0149277
935.947	0.0149284
936.025	0.0151464
936.103	0.0149728
936.182	0.0149629
936.260	0.0149347
936.338	0.0149758
936.416	0.0149129
936.494	0.0149095
936.572	0.0149983
936.650	0.0148575
936.728	0.0149106
936.807	0.0147724
936.885	0.0147600
936.963	0.0149256
937.041	0.0149161
937.119	0.0147828
937.197	0.0148027
937.275	0.0147024
937.353	0.0148863
937.432	0.0148695
937.510	0.0147857
937.588	0.0146716
937.666	0.0147734
937.744	0.0149010
937.822	0.0147894
937.900	0.0148678
937.978	0.0148299
938.057	0.0148326
938.135	0.0148469
938.213	0.0148446
938.291	0.0148441
938.369	0.0147676
938.447	0.0147944
938.525	0.0148891
938.603	0.0147330
938.682	0.0148872
938.760	0.0148482
938.838	0.0149804
938.916	0.0150140
938.994	0.0149321
939.072	0.0148606
939.150	0.0148891
939.228	0.0148769
939.307	0.0148042
939.385	0.0148344
939.463	0.0148870
939.541	0.0148814
939.619	0.0147959
939.697	0.0146675
939.775	0.0147776
939.853	0.0149104
939.932	0.0149381
940.010	0.0146972
940.088	0.0147364
940.166	0.0149438
940.244	0.0146787
940.322	0.0149203
940.400	0.0148940
940.478	0.0148936
940.557	0.0150105
940.635	0.0150169
940.713	0.0148602
940.791	0.0149152
940.869	0.0149501
940.947	0.0150637
941.025	0.0150757
941.103	0.0150584
941.182	0.0151729
941.260	0.0151099
941.338	0.0150898
941.416	0.0152049
941.494	0.0151977
941.572	0.0151288
941.650	0.0150881
941.728	0.0151960
941.807	0.0152441
941.885	0.0150578
941.963	0.0151737
942.041	0.0151014
942.119	0.0149711
942.197	0.0150357
942.275	0.0150820
942.353	0.0151037
942.432	0.0149532
942.510	0.0148676
942.588	0.0148144
942.666	0.0148945
942.744	0.0147533
942.822	0.0148551
942.900	0.0149194
942.978	0.0149004
943.057	0.0148720
943.135	0.0147818
943.213	0.0148452
943.291	0.0149469
943.369	0.0146763
943.447	0.0147921
943.525	0.0148110
943.603	0.0147351
943.682	0.0146461
943.760	0.0146369
943.838	0.0148818
943.916	0.0148124
943.994	0.0147836
944.072	0.0147230
944.150	0.0147663
944.228	0.0147701
944.307	0.0147646
944.385	0.0149473
944.463	0.0148656
944.541	0.0147880
944.619	0.0147456
944.697	0.0150149
944.775	0.0149525
944.853	0.0148294
944.932	0.0149532
945.010	0.0147906
945.088	0.0149184
945.166	0.0147824
945.244	0.0149261
945.322	0.0148950
945.400	0.0148188
945.478	0.0148122
945.557	0.0148905
945.635	0.0147426
945.713	0.0148869
945.791	0.0146719
945.869	0.0149536
945.947	0.0148813
946.025	0.0149213
946.103	0.0148877
946.182	0.0149115
946.260	0.0148978
946.338	0.0149294
946.416	0.0149603
946.494	0.0149049
946.572	0.0149818
946.650	0.0149459
946.728	0.0150077
946.807	0.0148550
946.885	0.0149139
946.963	0.0147871
947.041	0.0149906
947.119	0.0149975
947.197	0.0149554
947.275	0.0148000
947.353	0.0149123
947.432	0.0149564
947.510	0.0148176
947.588	0.0149862
947.666	0.0149120
947.744	0.0149565
947.822	0.0148952
947.900	0.0148798
947.978	0.0149273
948.057	0.0150004
948.135	0.0149213
948.213	0.0148598
948.291	0.0149422
948.369	0.0148718
948.447	0.0149399
948.525	0.0148917
948.603	0.0149590
948.682	0.0148978
948.760	0.0148365
948.838	0.0149360
948.916	0.0149210
948.994	0.0149864
949.072	0.0148341
949.150	0.0148657
949.228	0.0150098
949.307	0.0149741
949.385	0.0149756
949.463	0.0149663
949.541	0.0148474
949.619	0.0148554
949.697	0.0148479
949.775	0.0146972
949.853	0.0148529
949.932	0.0148746
950.010	0.0147973
950.088	0.0146581
950.166	0.0147236
950.244	0.0148116
950.322	0.0145900
950.400	0.0146288
950.478	0.0147849
950.557	0.0147040
950.635	0.0147462
950.713	0.0146184
950.791	0.0146732
950.869	0.0147781
950.947	0.0147659
951.025	0.0146875
951.103	0.0146861
951.182	0.0147775
951.260	0.0148363
951.338	0.0149899
951.416	0.0149131
951.494	0.0150144
951.572	0.0149611
951.650	0.0149250
951.728	0.0150005
951.807	0.0149584
951.885	0.0151162
951.963	0.0150510
952.041	0.0148238
952.119	0.0150597
952.197	0.0149842
952.275	0.0149952
952.353	0.0150229
952.432	0.0149160
952.510	0.0150102
952.588	0.0149178
952.666	0.0148968
952.744	0.0149142
952.822	0.0149558
952.900	0.0149969
952.978	0.0148825
953.057	0.0148460
953.135	0.0147637
953.213	0.0147935
953.291	0.0148087
953.369	0.0148058
953.447	0.0147517
953.525	0.0147824
953.603	0.0147778
953.682	0.0147929
953.760	0.0146798
953.838	0.0148236
953.916	0.0148474
953.994	0.0148019
954.072	0.0147602
954.150	0.0147988
954.228	0.0146656
954.307	0.0147225
954.385	0.0147948
954.463	0.0148569
954.541	0.0148911
954.619	0.0148217
954.697	0.0148407
954.775	0.0148570
954.853	0.0149572
954.932	0.0150616
955.010	0.0149043
955.088	0.0149068
955.166	0.0150723
955.244	0.0149670
955.322	0.0149923
955.400	0.0149899
955.478	0.0149184
955.557	0.0150142
955.635	0.0149979
955.713	0.0149691
955.791	0.0150449
955.869	0.0150485
955.947	0.0150378
956.025	0.0150192
956.103	0.0150266
956.182	0.0150073
956.260	0.0152013
956.338	0.0148872
956.416	0.0148457
956.494	0.0149984
956.572	0.0148803
956.650	0.0150627
956.728	0.0150915
956.807	0.0149374
956.885	0.0148540
956.963	0.0148228
957.041	0.0149641
957.119	0.0150569
957.197	0.0149292
957.275	0.0149825
957.353	0.0148920
957.432	0.0149192
957.510	0.0147717
957.588	0.0149451
957.666	0.0148917
957.744	0.0149374
957.822	0.0149575
957.900	0.0150223
957.978	0.0148872
958.057	0.0148531
958.135	0.0148813
958.213	0.0149297
958.291	0.0149326
958.369	0.0149199
958.447	0.0148200
958.525	0.0149504
958.603	0.0148483
958.682	0.0149597
958.760	0.0149018
958.838	0.0148446
958.916	0.0147987
958.994	0.0149364
959.072	0.0149078
959.150	0.0147737
959.228	0.0149260
959.307	0.0147829
959.385	0.0148851
959.463	0.0149024
959.541	0.0147153
959.619	0.0148714
959.697	0.0147500
959.775	0.0147813
959.853	0.0148777
959.932	0.0148875
960.010	0.0148468
960.088	0.0148467
960.166	0.0149227
960.244	0.0147156
960.322	0.0149129
960.400	0.0149100
960.478	0.0148733
960.557	0.0147713
960.635	0.0148169
960.713	0.0148463
960.791	0.0149275
960.869	0.0149702
960.947	0.0149087
961.025	0.0147859
961.103	0.0148051
961.182	0.0148199
961.260	0.0148915
961.338	0.0148873
961.416	0.0147830
961.494	0.0149514
961.572	0.0150770
961.650	0.0149203
961.728	0.0149770
961.807	0.0149438
961.885	0.0148682
961.963	0.0147892
962.041	0.0148872
962.119	0.0148804
962.197	0.0148330
962.275	0.0148153
962.353	0.0149152
962.432	0.0148842
962.510	0.0148153
962.588	0.0149083
962.666	0.0148566
962.744	0.0147576
962.822	0.0148753
962.900	0.0149149
962.978	0.0146693
963.057	0.0148207
963.135	0.0147881
963.213	0.0147506
963.291	0.0147068
963.369	0.0148974
963.447	0.0148483
963.525	0.0148192
963.603	0.0148150
963.682	0.0147578
963.760	0.0147985
963.838	0.0149445
963.916	0.0149235
963.994	0.0149129
964.072	0.0149857
964.150	0.0149097
964.228	0.0150118
964.307	0.0150623
964.385	0.0150151
964.463	0.0149522
964.541	0.0150916
964.619	0.0149818
964.697	0.0150201
964.775	0.0150383
964.853	0.0151350
964.932	0.0151640
965.010	0.0151026
965.088	0.0151023
965.166	0.0150468
965.244	0.0150478
965.322	0.0150502
965.400	0.0150842
965.478	0.0150447
965.557	0.0150187
965.635	0.0150999
965.713	0.0150482
965.791	0.0149464
965.869	0.0150102
965.947	0.0151160
966.025	0.0150044
966.103	0.0148517
966.182	0.0149663
966.260	0.0149557
966.338	0.0149574
966.416	0.0148574
966.494	0.0148244
966.572	0.0148418
966.650	0.0148854
966.728	0.0148975
966.807	0.0148569
966.885	0.0149045
966.963	0.0149351
967.041	0.0148801
967.119	0.0148635
967.197	0.0149252
967.275	0.0147487
967.353	0.0148280
967.432	0.0148286
967.510	0.0147455
967.588	0.0149764
967.666	0.0148379
967.744	0.0148759
967.822	0.0148360
967.900	0.0149380
967.978	0.0149039
968.057	0.0148116
968.135	0.0147591
968.213	0.0149561
968.291	0.0148071
968.369	0.0148338
968.447	0.0148473
968.525	0.0149454
968.603	0.0147987
968.682	0.0149900
968.760	0.0149324
968.838	0.0149253
968.916	0.0149738
968.994	0.0150433
969.072	0.0149221
969.150	0.0150182
969.228	0.0150979
969.307	0.0151130
969.385	0.0150140
969.463	0.0150015
969.541	0.0150357
969.619	0.0149833
969.697	0.0149707
969.775	0.0149768
969.853	0.0148650
969.932	0.0148967
