05/14/2022	19:29:45	Ver.	4.1	UNKNOWN
Optical Delay	650.009681	Delta X		0.078125	Sweeps	1	Scan Rate	0/0
Coordinates	Axis 1	NaN	Axis 2	NaN	Axis 3	NaN	Axis 4	NaN	Axis 5	NaN	Axis 6	0.000000
TX Power	0.000000	RX Power	0.000000

650.010	0.0144105
650.088	0.0144982
650.166	0.0144833
650.244	0.0145255
650.322	0.0145010
650.400	0.0144568
650.478	0.0143749
650.557	0.0144184
650.635	0.0144023
650.713	0.0143727
650.791	0.0145108
650.869	0.0144473
650.947	0.0145795
651.025	0.0143861
651.103	0.0144267
651.182	0.0143942
651.260	0.0144738
651.338	0.0144561
651.416	0.0143631
651.494	0.0143170
651.572	0.0143600
651.650	0.0144897
651.728	0.0143233
651.807	0.0142462
651.885	0.0143008
651.963	0.0144169
652.041	0.0143553
652.119	0.0143634
652.197	0.0143330
652.275	0.0143732
652.353	0.0143047
652.432	0.0143370
652.510	0.0143537
652.588	0.0143105
652.666	0.0143494
652.744	0.0144884
652.822	0.0142939
652.900	0.0143553
652.978	0.0142597
653.057	0.0143539
653.135	0.0142872
653.213	0.0144785
653.291	0.0144717
653.369	0.0143023
653.447	0.0143824
653.525	0.0144923
653.603	0.0142999
653.682	0.0142990
653.760	0.0143407
653.838	0.0143181
653.916	0.0142331
653.994	0.0144419
654.072	0.0146055
654.150	0.0144053
654.228	0.0144394
654.307	0.0144086
654.385	0.0144070
654.463	0.0143518
654.541	0.0143130
654.619	0.0143088
654.697	0.0143591
654.775	0.0143350
654.853	0.0145128
654.932	0.0143535
655.010	0.0142992
655.088	0.0144628
655.166	0.0144132
655.244	0.0144879
655.322	0.0143857
655.400	0.0144695
655.478	0.0144028
655.557	0.0144884
655.635	0.0144765
655.713	0.0145364
655.791	0.0144431
655.869	0.0142905
655.947	0.0144551
656.025	0.0144088
656.103	0.0144746
656.182	0.0144230
656.260	0.0145728
656.338	0.0144709
656.416	0.0144648
656.494	0.0143121
656.572	0.0143351
656.650	0.0144280
656.728	0.0143517
656.807	0.0143599
656.885	0.0143692
656.963	0.0143867
657.041	0.0144505
657.119	0.0143493
657.197	0.0144988
657.275	0.0145656
657.353	0.0144532
657.432	0.0144049
657.510	0.0144437
657.588	0.0143402
657.666	0.0145103
657.744	0.0144782
657.822	0.0143487
657.900	0.0144608
657.978	0.0145141
658.057	0.0146053
658.135	0.0144657
658.213	0.0143922
658.291	0.0142667
658.369	0.0144364
658.447	0.0143262
658.525	0.0143550
658.603	0.0143266
658.682	0.0143246
658.760	0.0143648
658.838	0.0144012
658.916	0.0143952
658.994	0.0144463
659.072	0.0144447
659.150	0.0143834
659.228	0.0145038
659.307	0.0144756
659.385	0.0144815
659.463	0.0144881
659.541	0.0144083
659.619	0.0144228
659.697	0.0144090
659.775	0.0144127
659.853	0.0144736
659.932	0.0144011
660.010	0.0143176
660.088	0.0143982
660.166	0.0143710
660.244	0.0144938
660.322	0.0143928
660.400	0.0143259
660.478	0.0144773
660.557	0.0143754
660.635	0.0144236
660.713	0.0145108
660.791	0.0145192
660.869	0.0145847
660.947	0.0145604
661.025	0.0145238
661.103	0.0144107
661.182	0.0144112
661.260	0.0145017
661.338	0.0145114
661.416	0.0144994
661.494	0.0144367
661.572	0.0145005
661.650	0.0145848
661.728	0.0146087
661.807	0.0145058
661.885	0.0146026
661.963	0.0145422
662.041	0.0145084
662.119	0.0145066
662.197	0.0143143
662.275	0.0144810
662.353	0.0143841
662.432	0.0144257
662.510	0.0143570
662.588	0.0144298
662.666	0.0144071
662.744	0.0144937
662.822	0.0144618
662.900	0.0143721
662.978	0.0144339
663.057	0.0144804
663.135	0.0144401
663.213	0.0143713
663.291	0.0143787
663.369	0.0144713
663.447	0.0144824
663.525	0.0143777
663.603	0.0143663
663.682	0.0144454
663.760	0.0144341
663.838	0.0142283
663.916	0.0143482
663.994	0.0144591
664.072	0.0143456
664.150	0.0144994
664.228	0.0144853
664.307	0.0146410
664.385	0.0144867
664.463	0.0144196
664.541	0.0144210
664.619	0.0143691
664.697	0.0144846
664.775	0.0145020
664.853	0.0144895
664.932	0.0145778
665.010	0.0145522
665.088	0.0146500
665.166	0.0146280
665.244	0.0146684
665.322	0.0146630
665.400	0.0147189
665.478	0.0146907
665.557	0.0145815
665.635	0.0145538
665.713	0.0145460
665.791	0.0143449
665.869	0.0142211
665.947	0.0143668
666.025	0.0141999
666.103	0.0141416
666.182	0.0140416
666.260	0.0138303
666.338	0.0140102
666.416	0.0139555
666.494	0.0138403
666.572	0.0139568
666.650	0.0138767
666.728	0.0139127
666.807	0.0140323
666.885	0.0140630
666.963	0.0140260
667.041	0.0143098
667.119	0.0143006
667.197	0.0143806
667.275	0.0146021
667.353	0.0148620
667.432	0.0148623
667.510	0.0150467
667.588	0.0151493
667.666	0.0152283
667.744	0.0153522
667.822	0.0152623
667.900	0.0154659
667.978	0.0154019
668.057	0.0153356
668.135	0.0151609
668.213	0.0149677
668.291	0.0147570
668.369	0.0146338
668.447	0.0144186
668.525	0.0138400
668.603	0.0137147
668.682	0.0135153
668.760	0.0132841
668.838	0.0129640
668.916	0.0127826
668.994	0.0125208
669.072	0.0125581
669.150	0.0124805
669.228	0.0125584
669.307	0.0125060
669.385	0.0126276
669.463	0.0128548
669.541	0.0131519
669.619	0.0134873
669.697	0.0138875
669.775	0.0143043
669.853	0.0146287
669.932	0.0151112
670.010	0.0155825
670.088	0.0159835
670.166	0.0162467
670.244	0.0166364
670.322	0.0168752
670.400	0.0169099
670.478	0.0170741
670.557	0.0171492
670.635	0.0171223
670.713	0.0168459
670.791	0.0166774
670.869	0.0163913
670.947	0.0160262
671.025	0.0156473
671.103	0.0151019
671.182	0.0146060
671.260	0.0141240
671.338	0.0136784
671.416	0.0132868
671.494	0.0127392
671.572	0.0123588
671.650	0.0119805
671.728	0.0116389
671.807	0.0113692
671.885	0.0112262
671.963	0.0111920
672.041	0.0111958
672.119	0.0114326
672.197	0.0115910
672.275	0.0118487
672.353	0.0123134
672.432	0.0127123
672.510	0.0131374
672.588	0.0137557
672.666	0.0141488
672.744	0.0146094
672.822	0.0151546
672.900	0.0155634
672.978	0.0161455
673.057	0.0165079
673.135	0.0167509
673.213	0.0169537
673.291	0.0173345
673.369	0.0172659
673.447	0.0173914
673.525	0.0175812
673.603	0.0172738
673.682	0.0170791
673.760	0.0168914
673.838	0.0166750
673.916	0.0163234
673.994	0.0159039
674.072	0.0157041
674.150	0.0152419
674.228	0.0147508
674.307	0.0143945
674.385	0.0140392
674.463	0.0136845
674.541	0.0133965
674.619	0.0130084
674.697	0.0126657
674.775	0.0123480
674.853	0.0122787
674.932	0.0120029
675.010	0.0118514
675.088	0.0117554
675.166	0.0118922
675.244	0.0118345
675.322	0.0120105
675.400	0.0121372
675.478	0.0123239
675.557	0.0126091
675.635	0.0130048
675.713	0.0132587
675.791	0.0137019
675.869	0.0141710
675.947	0.0144218
676.025	0.0147913
676.103	0.0150546
676.182	0.0153082
676.260	0.0155738
676.338	0.0158701
676.416	0.0161726
676.494	0.0161499
676.572	0.0162875
676.650	0.0162736
676.728	0.0162171
676.807	0.0162045
676.885	0.0161031
676.963	0.0159524
677.041	0.0156114
677.119	0.0154259
677.197	0.0151962
677.275	0.0150097
677.353	0.0147398
677.432	0.0145029
677.510	0.0144863
677.588	0.0142467
677.666	0.0139764
677.744	0.0139596
677.822	0.0139320
677.900	0.0139207
677.978	0.0139256
678.057	0.0138466
678.135	0.0139453
678.213	0.0139634
678.291	0.0138301
678.369	0.0138403
678.447	0.0139362
678.525	0.0139302
678.603	0.0139603
678.682	0.0140121
678.760	0.0140998
678.838	0.0140310
678.916	0.0140551
678.994	0.0141971
679.072	0.0142996
679.150	0.0144799
679.228	0.0145251
679.307	0.0145892
679.385	0.0147350
679.463	0.0148327
679.541	0.0148337
679.619	0.0150148
679.697	0.0150662
679.775	0.0150098
679.853	0.0151330
679.932	0.0151183
680.010	0.0149805
680.088	0.0150053
680.166	0.0151319
680.244	0.0149581
680.322	0.0149874
680.400	0.0149308
680.478	0.0147221
680.557	0.0146085
680.635	0.0145751
680.713	0.0143980
680.791	0.0142454
680.869	0.0141131
680.947	0.0140524
681.025	0.0138506
681.103	0.0134769
681.182	0.0133891
681.260	0.0132035
681.338	0.0130161
681.416	0.0128900
681.494	0.0126858
681.572	0.0126004
681.650	0.0124161
681.728	0.0125144
681.807	0.0127113
681.885	0.0128745
681.963	0.0130434
682.041	0.0132831
682.119	0.0136578
682.197	0.0140383
682.275	0.0142892
682.353	0.0147404
682.432	0.0149025
682.510	0.0153568
682.588	0.0156854
682.666	0.0159609
682.744	0.0161597
682.822	0.0165024
682.900	0.0166771
682.978	0.0167626
683.057	0.0168890
683.135	0.0168829
683.213	0.0168436
683.291	0.0168623
683.369	0.0166135
683.447	0.0166380
683.525	0.0164639
683.603	0.0163154
683.682	0.0161410
683.760	0.0157345
683.838	0.0154342
683.916	0.0153039
683.994	0.0151221
684.072	0.0147639
684.150	0.0145022
684.228	0.0143375
684.307	0.0141579
684.385	0.0138457
684.463	0.0136994
684.541	0.0136137
684.619	0.0134154
684.697	0.0131624
684.775	0.0129319
684.853	0.0129262
684.932	0.0128239
685.010	0.0126041
685.088	0.0123856
685.166	0.0122990
685.244	0.0120728
685.322	0.0119785
685.400	0.0119344
685.478	0.0119221
685.557	0.0116332
685.635	0.0117956
685.713	0.0119848
685.791	0.0119343
685.869	0.0121642
685.947	0.0123647
686.025	0.0126250
686.103	0.0128152
686.182	0.0130465
686.260	0.0132937
686.338	0.0136573
686.416	0.0139627
686.494	0.0143452
686.572	0.0146979
686.650	0.0147525
686.728	0.0149744
686.807	0.0151505
686.885	0.0153358
686.963	0.0155271
687.041	0.0156253
687.119	0.0159520
687.197	0.0159905
687.275	0.0161085
687.353	0.0163898
687.432	0.0165295
687.510	0.0166330
687.588	0.0167661
687.666	0.0168380
687.744	0.0169154
687.822	0.0169801
687.900	0.0169748
687.978	0.0170310
688.057	0.0170546
688.135	0.0169422
688.213	0.0168810
688.291	0.0168260
688.369	0.0166138
688.447	0.0165287
688.525	0.0163567
688.603	0.0160590
688.682	0.0157957
688.760	0.0155727
688.838	0.0151691
688.916	0.0148285
688.994	0.0143534
689.072	0.0141386
689.150	0.0138145
689.228	0.0134044
689.307	0.0129462
689.385	0.0124755
689.463	0.0121630
689.541	0.0118922
689.619	0.0113882
689.697	0.0111096
689.775	0.0108712
689.853	0.0105475
689.932	0.0104153
690.010	0.0101464
690.088	0.0101030
690.166	0.0101469
690.244	0.0100344
690.322	0.0100436
690.400	0.0101107
690.478	0.0103306
690.557	0.0107016
690.635	0.0110154
690.713	0.0111559
690.791	0.0117268
690.869	0.0122950
690.947	0.0127893
691.025	0.0134502
691.103	0.0138351
691.182	0.0143713
691.260	0.0150764
691.338	0.0157273
691.416	0.0162922
691.494	0.0167949
691.572	0.0173604
691.650	0.0177126
691.728	0.0181054
691.807	0.0183810
691.885	0.0186304
691.963	0.0186169
692.041	0.0187626
692.119	0.0187681
692.197	0.0185412
692.275	0.0182937
692.353	0.0182268
692.432	0.0177804
692.510	0.0176492
692.588	0.0171691
692.666	0.0169482
692.744	0.0164865
692.822	0.0161378
692.900	0.0158125
692.978	0.0155540
693.057	0.0153300
693.135	0.0151002
693.213	0.0148583
693.291	0.0147259
693.369	0.0142704
693.447	0.0141779
693.525	0.0141785
693.603	0.0138401
693.682	0.0136306
693.760	0.0135876
693.838	0.0132095
693.916	0.0130509
693.994	0.0130123
694.072	0.0128933
694.150	0.0128092
694.228	0.0126514
694.307	0.0126328
694.385	0.0126286
694.463	0.0126743
694.541	0.0126763
694.619	0.0125404
694.697	0.0125588
694.775	0.0125249
694.853	0.0124358
694.932	0.0124570
695.010	0.0123977
695.088	0.0123411
695.166	0.0123104
695.244	0.0121206
695.322	0.0121289
695.400	0.0120719
695.478	0.0118955
695.557	0.0118902
695.635	0.0119973
695.713	0.0118697
695.791	0.0120145
695.869	0.0121324
695.947	0.0123125
696.025	0.0125703
696.103	0.0127935
696.182	0.0133652
696.260	0.0138126
696.338	0.0141045
696.416	0.0146130
696.494	0.0151220
696.572	0.0156003
696.650	0.0161152
696.728	0.0166227
696.807	0.0168916
696.885	0.0173786
696.963	0.0176350
697.041	0.0179672
697.119	0.0181350
697.197	0.0182111
697.275	0.0182899
697.353	0.0182678
697.432	0.0182883
697.510	0.0182272
697.588	0.0179940
697.666	0.0176160
697.744	0.0174293
697.822	0.0170947
697.900	0.0167984
697.978	0.0166065
698.057	0.0162870
698.135	0.0158559
698.213	0.0153168
698.291	0.0150037
698.369	0.0145561
698.447	0.0142786
698.525	0.0137518
698.603	0.0131985
698.682	0.0129757
698.760	0.0127235
698.838	0.0125628
698.916	0.0122105
698.994	0.0122195
699.072	0.0122121
699.150	0.0121535
699.228	0.0122471
699.307	0.0124324
699.385	0.0125851
699.463	0.0127641
699.541	0.0131786
699.619	0.0132717
699.697	0.0134398
699.775	0.0137857
699.853	0.0139066
699.932	0.0140567
700.010	0.0142638
700.088	0.0142647
700.166	0.0143362
700.244	0.0142366
700.322	0.0142538
700.400	0.0140205
700.478	0.0141697
700.557	0.0139902
700.635	0.0138761
700.713	0.0137263
700.791	0.0135567
700.869	0.0135290
700.947	0.0133733
701.025	0.0132319
701.103	0.0131878
701.182	0.0130647
701.260	0.0131511
701.338	0.0130649
701.416	0.0131598
701.494	0.0131256
701.572	0.0131523
701.650	0.0132290
701.728	0.0133985
701.807	0.0136276
701.885	0.0136906
701.963	0.0140112
702.041	0.0143047
702.119	0.0145466
702.197	0.0147848
702.275	0.0151865
702.353	0.0156361
702.432	0.0159284
702.510	0.0162798
702.588	0.0164547
702.666	0.0168522
702.744	0.0171080
702.822	0.0172398
702.900	0.0175110
702.978	0.0174695
703.057	0.0174481
703.135	0.0173876
703.213	0.0172878
703.291	0.0170887
703.369	0.0169191
703.447	0.0166076
703.525	0.0162244
703.603	0.0159039
703.682	0.0156097
703.760	0.0152483
703.838	0.0149591
703.916	0.0147301
703.994	0.0144050
704.072	0.0142598
704.150	0.0139870
704.228	0.0136174
704.307	0.0135914
704.385	0.0134666
704.463	0.0134038
704.541	0.0131995
704.619	0.0131969
704.697	0.0131133
704.775	0.0131195
704.853	0.0134090
704.932	0.0133115
705.010	0.0133865
705.088	0.0132234
705.166	0.0133072
705.244	0.0134789
705.322	0.0135011
705.400	0.0134967
705.478	0.0136008
705.557	0.0134933
705.635	0.0132909
705.713	0.0133535
705.791	0.0132425
705.869	0.0131918
705.947	0.0129724
706.025	0.0129137
706.103	0.0127541
706.182	0.0129214
706.260	0.0127962
706.338	0.0128139
706.416	0.0129166
706.494	0.0129382
706.572	0.0132893
706.650	0.0136279
706.728	0.0138206
706.807	0.0141792
706.885	0.0143102
706.963	0.0145155
707.041	0.0149355
707.119	0.0151774
707.197	0.0153777
707.275	0.0155464
707.353	0.0159220
707.432	0.0161330
707.510	0.0159929
707.588	0.0160452
707.666	0.0160878
707.744	0.0158730
707.822	0.0158128
707.900	0.0158235
707.978	0.0156760
708.057	0.0154118
708.135	0.0154493
708.213	0.0153015
708.291	0.0149323
708.369	0.0150288
708.447	0.0148228
708.525	0.0147056
708.603	0.0147491
708.682	0.0144988
708.760	0.0143344
708.838	0.0142860
708.916	0.0142648
708.994	0.0140060
709.072	0.0138461
709.150	0.0136996
709.228	0.0136848
709.307	0.0134122
709.385	0.0131075
709.463	0.0131051
709.541	0.0129946
709.619	0.0131347
709.697	0.0129832
709.775	0.0129202
709.853	0.0130215
709.932	0.0131975
710.010	0.0133796
710.088	0.0137382
710.166	0.0139780
710.244	0.0143163
710.322	0.0146193
710.400	0.0150116
710.478	0.0152444
710.557	0.0154094
710.635	0.0155863
710.713	0.0156033
710.791	0.0159166
710.869	0.0159058
710.947	0.0159612
711.025	0.0158088
711.103	0.0158223
711.182	0.0155177
711.260	0.0152790
711.338	0.0152480
711.416	0.0150729
711.494	0.0148545
711.572	0.0147760
711.650	0.0145218
711.728	0.0141629
711.807	0.0139627
711.885	0.0138457
711.963	0.0136748
712.041	0.0135416
712.119	0.0133089
712.197	0.0131706
712.275	0.0131400
712.353	0.0129149
712.432	0.0128301
712.510	0.0129845
712.588	0.0127672
712.666	0.0126932
712.744	0.0126960
712.822	0.0128860
712.900	0.0128400
712.978	0.0129140
713.057	0.0131058
713.135	0.0131104
713.213	0.0132719
713.291	0.0132494
713.369	0.0133437
713.447	0.0134866
713.525	0.0136568
713.603	0.0137286
713.682	0.0138357
713.760	0.0138640
713.838	0.0142348
713.916	0.0143610
713.994	0.0144707
714.072	0.0146792
714.150	0.0147712
714.228	0.0150604
714.307	0.0150794
714.385	0.0151853
714.463	0.0152976
714.541	0.0153571
714.619	0.0155395
714.697	0.0154831
714.775	0.0154300
714.853	0.0154263
714.932	0.0152206
715.010	0.0152112
715.088	0.0152356
715.166	0.0149657
715.244	0.0148062
715.322	0.0147293
715.400	0.0145265
715.478	0.0144958
715.557	0.0143319
715.635	0.0144182
715.713	0.0142970
715.791	0.0142994
715.869	0.0142033
715.947	0.0142060
716.025	0.0142381
716.103	0.0140663
716.182	0.0140974
716.260	0.0143353
716.338	0.0142226
716.416	0.0142066
716.494	0.0141293
716.572	0.0142931
716.650	0.0144013
716.728	0.0145343
716.807	0.0145329
716.885	0.0146217
716.963	0.0145369
717.041	0.0145229
717.119	0.0145685
717.197	0.0146623
717.275	0.0147411
717.353	0.0147218
717.432	0.0144501
717.510	0.0144730
717.588	0.0145152
717.666	0.0144883
717.744	0.0144968
717.822	0.0142818
717.900	0.0142494
717.978	0.0141863
718.057	0.0141479
718.135	0.0141398
718.213	0.0140979
718.291	0.0140018
718.369	0.0141930
718.447	0.0140000
718.525	0.0140504
718.603	0.0141706
718.682	0.0141279
718.760	0.0142255
718.838	0.0142169
718.916	0.0140987
718.994	0.0141660
719.072	0.0141771
719.150	0.0142821
719.228	0.0140644
719.307	0.0140040
719.385	0.0140873
719.463	0.0141101
719.541	0.0139719
719.619	0.0137673
719.697	0.0138081
719.775	0.0136763
719.853	0.0136795
719.932	0.0134544
720.010	0.0133624
720.088	0.0133881
720.166	0.0135603
720.244	0.0135109
720.322	0.0135688
720.400	0.0135992
720.478	0.0135622
720.557	0.0138151
720.635	0.0139060
720.713	0.0139771
720.791	0.0142696
720.869	0.0143415
720.947	0.0145322
721.025	0.0146488
721.103	0.0147681
721.182	0.0149477
721.260	0.0151761
721.338	0.0153098
721.416	0.0155810
721.494	0.0156472
721.572	0.0158291
721.650	0.0159315
721.728	0.0160512
721.807	0.0160995
721.885	0.0162358
721.963	0.0161986
722.041	0.0161839
722.119	0.0160870
722.197	0.0159589
722.275	0.0160693
722.353	0.0158523
722.432	0.0156059
722.510	0.0155506
722.588	0.0152763
722.666	0.0151955
722.744	0.0151684
722.822	0.0150284
722.900	0.0148557
722.978	0.0146872
723.057	0.0145056
723.135	0.0143030
723.213	0.0141516
723.291	0.0141010
723.369	0.0141376
723.447	0.0140214
723.525	0.0138306
723.603	0.0139920
723.682	0.0139684
723.760	0.0138895
723.838	0.0140606
723.916	0.0142763
723.994	0.0140508
724.072	0.0141521
724.150	0.0143011
724.228	0.0143734
724.307	0.0142054
724.385	0.0140818
724.463	0.0140202
724.541	0.0141029
724.619	0.0139944
724.697	0.0138274
724.775	0.0136403
724.853	0.0136907
724.932	0.0136454
725.010	0.0134922
725.088	0.0132394
725.166	0.0132575
725.244	0.0130455
725.322	0.0132619
725.400	0.0131477
725.478	0.0133258
725.557	0.0131639
725.635	0.0133825
725.713	0.0132901
725.791	0.0133128
725.869	0.0134760
725.947	0.0136153
726.025	0.0136680
726.103	0.0137617
726.182	0.0138856
726.260	0.0139425
726.338	0.0142077
726.416	0.0142142
726.494	0.0144330
726.572	0.0144617
726.650	0.0146710
726.728	0.0147608
726.807	0.0151523
726.885	0.0151756
726.963	0.0153182
727.041	0.0155348
727.119	0.0157132
727.197	0.0157146
727.275	0.0157323
727.353	0.0158636
727.432	0.0157391
727.510	0.0159467
727.588	0.0159483
727.666	0.0157669
727.744	0.0157846
727.822	0.0157488
727.900	0.0157777
727.978	0.0156021
728.057	0.0155010
728.135	0.0153091
728.213	0.0153509
728.291	0.0153203
728.369	0.0152467
728.447	0.0150017
728.525	0.0148853
728.603	0.0148553
728.682	0.0146725
728.760	0.0144549
728.838	0.0146481
728.916	0.0144762
728.994	0.0143118
729.072	0.0142520
729.150	0.0142606
729.228	0.0143784
729.307	0.0142822
729.385	0.0140082
729.463	0.0138899
729.541	0.0139986
729.619	0.0139620
729.697	0.0138072
729.775	0.0137021
729.853	0.0135773
729.932	0.0133950
730.010	0.0136072
730.088	0.0133263
730.166	0.0132247
730.244	0.0132985
730.322	0.0132281
730.400	0.0132427
730.478	0.0131934
730.557	0.0134190
730.635	0.0132679
730.713	0.0132680
730.791	0.0133849
730.869	0.0134211
730.947	0.0136291
731.025	0.0137479
731.103	0.0136107
731.182	0.0137115
731.260	0.0137341
731.338	0.0138226
731.416	0.0137331
731.494	0.0139930
731.572	0.0139032
731.650	0.0139041
731.728	0.0139033
731.807	0.0139296
731.885	0.0139919
731.963	0.0141434
732.041	0.0142742
732.119	0.0141930
732.197	0.0144019
732.275	0.0143594
732.353	0.0146062
732.432	0.0145313
732.510	0.0146783
732.588	0.0148728
732.666	0.0148408
732.744	0.0148537
732.822	0.0151172
732.900	0.0150301
732.978	0.0150434
733.057	0.0151465
733.135	0.0151881
733.213	0.0152305
733.291	0.0152124
733.369	0.0152457
733.447	0.0151307
733.525	0.0152008
733.603	0.0153587
733.682	0.0152153
733.760	0.0149778
733.838	0.0150826
733.916	0.0151057
733.994	0.0150528
734.072	0.0149986
734.150	0.0149989
734.228	0.0147719
734.307	0.0147308
734.385	0.0150069
734.463	0.0147976
734.541	0.0147079
734.619	0.0145061
734.697	0.0144580
734.775	0.0145067
734.853	0.0144154
734.932	0.0144851
735.010	0.0143229
735.088	0.0143864
735.166	0.0144878
735.244	0.0142281
735.322	0.0143031
735.400	0.0141881
735.478	0.0141512
735.557	0.0141062
735.635	0.0140307
735.713	0.0141376
735.791	0.0140179
735.869	0.0139088
735.947	0.0138734
736.025	0.0137263
736.103	0.0137681
736.182	0.0138104
736.260	0.0137853
736.338	0.0136893
736.416	0.0138149
736.494	0.0136893
736.572	0.0138461
736.650	0.0139015
736.728	0.0138181
736.807	0.0138878
736.885	0.0139998
736.963	0.0142940
737.041	0.0142277
737.119	0.0143581
737.197	0.0145278
737.275	0.0146474
737.353	0.0146047
737.432	0.0146729
737.510	0.0146258
737.588	0.0147424
737.666	0.0147736
737.744	0.0147517
737.822	0.0146034
737.900	0.0144422
737.978	0.0144985
738.057	0.0145026
738.135	0.0144933
738.213	0.0142858
738.291	0.0144449
738.369	0.0144453
738.447	0.0144746
738.525	0.0144244
738.603	0.0142504
738.682	0.0145123
738.760	0.0145836
738.838	0.0144321
738.916	0.0144887
738.994	0.0145756
739.072	0.0143724
739.150	0.0143748
739.228	0.0144517
739.307	0.0144111
739.385	0.0144866
739.463	0.0143549
739.541	0.0144896
739.619	0.0143936
739.697	0.0145078
739.775	0.0143082
739.853	0.0144028
739.932	0.0145623
740.010	0.0144434
740.088	0.0146874
740.166	0.0145703
740.244	0.0145818
740.322	0.0144530
740.400	0.0146244
740.478	0.0145325
740.557	0.0147836
740.635	0.0145589
740.713	0.0145996
740.791	0.0146566
740.869	0.0144579
740.947	0.0146889
741.025	0.0145914
741.103	0.0146724
741.182	0.0146221
741.260	0.0144341
741.338	0.0145394
741.416	0.0145512
741.494	0.0144771
741.572	0.0144722
741.650	0.0145248
741.728	0.0143781
741.807	0.0142113
741.885	0.0143826
741.963	0.0143745
742.041	0.0140618
742.119	0.0141141
742.197	0.0139983
742.275	0.0141185
742.353	0.0140910
742.432	0.0139603
742.510	0.0140177
742.588	0.0139440
742.666	0.0141196
742.744	0.0141264
742.822	0.0141828
742.900	0.0141454
742.978	0.0142641
743.057	0.0144738
743.135	0.0143163
743.213	0.0144434
743.291	0.0145946
743.369	0.0145657
743.447	0.0146921
743.525	0.0146082
743.603	0.0146230
743.682	0.0146881
743.760	0.0146550
743.838	0.0145951
743.916	0.0147471
743.994	0.0145448
744.072	0.0144657
744.150	0.0144276
744.228	0.0144006
744.307	0.0143665
744.385	0.0142709
744.463	0.0142900
744.541	0.0141305
744.619	0.0142065
744.697	0.0141785
744.775	0.0142316
744.853	0.0142207
744.932	0.0141780
745.010	0.0141840
745.088	0.0143105
745.166	0.0143999
745.244	0.0143592
745.322	0.0142839
745.400	0.0142611
745.478	0.0144836
745.557	0.0145495
745.635	0.0145005
745.713	0.0144955
745.791	0.0145107
745.869	0.0147223
745.947	0.0146918
746.025	0.0147198
746.103	0.0148300
746.182	0.0147987
746.260	0.0146733
746.338	0.0146807
746.416	0.0146663
746.494	0.0147906
746.572	0.0147451
746.650	0.0147400
746.728	0.0147051
746.807	0.0147974
746.885	0.0147843
746.963	0.0147036
747.041	0.0144877
747.119	0.0144566
747.197	0.0145700
747.275	0.0145338
747.353	0.0146236
747.432	0.0144607
747.510	0.0142422
747.588	0.0143531
747.666	0.0142837
747.744	0.0143333
747.822	0.0143299
747.900	0.0142683
747.978	0.0144755
748.057	0.0143243
748.135	0.0144238
748.213	0.0144588
748.291	0.0143057
748.369	0.0143963
748.447	0.0143503
748.525	0.0143172
748.603	0.0143483
748.682	0.0142207
748.760	0.0144114
748.838	0.0143752
748.916	0.0143201
748.994	0.0143834
749.072	0.0144994
749.150	0.0144327
749.228	0.0145907
749.307	0.0143368
749.385	0.0145259
749.463	0.0145586
749.541	0.0145656
749.619	0.0146040
749.697	0.0145456
749.775	0.0145461
749.853	0.0145503
749.932	0.0145983
750.010	0.0146600
750.088	0.0146846
750.166	0.0146087
750.244	0.0145469
750.322	0.0146199
750.400	0.0147474
750.478	0.0145737
750.557	0.0147950
750.635	0.0147581
750.713	0.0147616
750.791	0.0148129
750.869	0.0148006
750.947	0.0149036
751.025	0.0147417
751.103	0.0148058
751.182	0.0147910
751.260	0.0147023
751.338	0.0145704
751.416	0.0146124
751.494	0.0144446
751.572	0.0141964
751.650	0.0142609
751.728	0.0141433
751.807	0.0140642
751.885	0.0140658
751.963	0.0137540
752.041	0.0137933
752.119	0.0139211
752.197	0.0140136
752.275	0.0139037
752.353	0.0139821
752.432	0.0139507
752.510	0.0141018
752.588	0.0141323
752.666	0.0141027
752.744	0.0142175
752.822	0.0142046
752.900	0.0143134
752.978	0.0142887
753.057	0.0145866
753.135	0.0145879
753.213	0.0145824
753.291	0.0145558
753.369	0.0145156
753.447	0.0145088
753.525	0.0146800
753.603	0.0146255
753.682	0.0145248
753.760	0.0144077
753.838	0.0143725
753.916	0.0143738
753.994	0.0145152
754.072	0.0143774
754.150	0.0145319
754.228	0.0144597
754.307	0.0142720
754.385	0.0143119
754.463	0.0143422
754.541	0.0143684
754.619	0.0143801
754.697	0.0143708
754.775	0.0143454
754.853	0.0142898
754.932	0.0143031
755.010	0.0143934
755.088	0.0143305
755.166	0.0141999
755.244	0.0141880
755.322	0.0141949
755.400	0.0142531
755.478	0.0142799
755.557	0.0142634
755.635	0.0143185
755.713	0.0142692
755.791	0.0142681
755.869	0.0142757
755.947	0.0143401
756.025	0.0142760
756.103	0.0143592
756.182	0.0144448
756.260	0.0144331
756.338	0.0143995
756.416	0.0145139
756.494	0.0145142
756.572	0.0144885
756.650	0.0144514
756.728	0.0145769
756.807	0.0144294
756.885	0.0143462
756.963	0.0146184
757.041	0.0146205
757.119	0.0145667
757.197	0.0143279
757.275	0.0144180
757.353	0.0142792
757.432	0.0143765
757.510	0.0144915
757.588	0.0143211
757.666	0.0145189
757.744	0.0144381
757.822	0.0143720
757.900	0.0144289
757.978	0.0143237
758.057	0.0144542
758.135	0.0143950
758.213	0.0144051
758.291	0.0143638
758.369	0.0145005
758.447	0.0143811
758.525	0.0143353
758.603	0.0141797
758.682	0.0142415
758.760	0.0141988
758.838	0.0142443
758.916	0.0143735
758.994	0.0142456
759.072	0.0141649
759.150	0.0140589
759.228	0.0142770
759.307	0.0141911
759.385	0.0141632
759.463	0.0141219
759.541	0.0141483
759.619	0.0141566
759.697	0.0142169
759.775	0.0141090
759.853	0.0140096
759.932	0.0140811
760.010	0.0141248
760.088	0.0142228
760.166	0.0140918
760.244	0.0141705
760.322	0.0142677
760.400	0.0142743
760.478	0.0142092
760.557	0.0142918
760.635	0.0143471
760.713	0.0142870
760.791	0.0144180
760.869	0.0143282
760.947	0.0143610
761.025	0.0143423
761.103	0.0142937
761.182	0.0143542
761.260	0.0144293
761.338	0.0143561
761.416	0.0141738
761.494	0.0142638
761.572	0.0143118
761.650	0.0142764
761.728	0.0144638
761.807	0.0143572
761.885	0.0143322
761.963	0.0143538
762.041	0.0143022
762.119	0.0143824
762.197	0.0144040
762.275	0.0145344
762.353	0.0143610
762.432	0.0144263
762.510	0.0142942
762.588	0.0144844
762.666	0.0145580
762.744	0.0144703
762.822	0.0144499
762.900	0.0143959
762.978	0.0145084
763.057	0.0146035
763.135	0.0144360
763.213	0.0144699
763.291	0.0144968
763.369	0.0144334
763.447	0.0144110
763.525	0.0145410
763.603	0.0146439
763.682	0.0145757
763.760	0.0146348
763.838	0.0146159
763.916	0.0145211
763.994	0.0146732
764.072	0.0145324
764.150	0.0144933
764.228	0.0146090
764.307	0.0146931
764.385	0.0146005
764.463	0.0146263
764.541	0.0146265
764.619	0.0146413
764.697	0.0144687
764.775	0.0146478
764.853	0.0148055
764.932	0.0145676
765.010	0.0145667
765.088	0.0145214
765.166	0.0144621
765.244	0.0144644
765.322	0.0144195
765.400	0.0144852
765.478	0.0143742
765.557	0.0144101
765.635	0.0145247
765.713	0.0144712
765.791	0.0142935
765.869	0.0143410
765.947	0.0143719
766.025	0.0144930
766.103	0.0144886
766.182	0.0145575
766.260	0.0145693
766.338	0.0146502
766.416	0.0146303
766.494	0.0146951
766.572	0.0146810
766.650	0.0147163
766.728	0.0148663
766.807	0.0146880
766.885	0.0147131
766.963	0.0148448
767.041	0.0148725
767.119	0.0148743
767.197	0.0147655
767.275	0.0146748
767.353	0.0146061
767.432	0.0145778
767.510	0.0144466
767.588	0.0143529
767.666	0.0144588
767.744	0.0143366
767.822	0.0143443
767.900	0.0142496
767.978	0.0141186
768.057	0.0140414
768.135	0.0139063
768.213	0.0138578
768.291	0.0140209
768.369	0.0139671
768.447	0.0141393
768.525	0.0138511
768.603	0.0138805
768.682	0.0140508
768.760	0.0140209
768.838	0.0140356
768.916	0.0142014
768.994	0.0143409
769.072	0.0142609
769.150	0.0144025
769.228	0.0144746
769.307	0.0146503
769.385	0.0146561
769.463	0.0147950
769.541	0.0147701
769.619	0.0148553
769.697	0.0148734
769.775	0.0148625
769.853	0.0150221
769.932	0.0149693
770.010	0.0150418
770.088	0.0149335
770.166	0.0149897
770.244	0.0149247
770.322	0.0148621
770.400	0.0150174
770.478	0.0148621
770.557	0.0147922
770.635	0.0148425
770.713	0.0147653
770.791	0.0148229
770.869	0.0147027
770.947	0.0145844
771.025	0.0146884
771.103	0.0146368
771.182	0.0146049
771.260	0.0146419
771.338	0.0146110
771.416	0.0146632
771.494	0.0144659
771.572	0.0144292
771.650	0.0143222
771.728	0.0142879
771.807	0.0143245
771.885	0.0142835
771.963	0.0143430
772.041	0.0141625
772.119	0.0141390
772.197	0.0141935
772.275	0.0141185
772.353	0.0140404
772.432	0.0139882
772.510	0.0140337
772.588	0.0140174
772.666	0.0142804
772.744	0.0141337
772.822	0.0142629
772.900	0.0142784
772.978	0.0142845
773.057	0.0140945
773.135	0.0142039
773.213	0.0142531
773.291	0.0143510
773.369	0.0143989
773.447	0.0142793
773.525	0.0142503
773.603	0.0143114
773.682	0.0143537
773.760	0.0142448
773.838	0.0143771
773.916	0.0142282
773.994	0.0140919
774.072	0.0142292
774.150	0.0141747
774.228	0.0141826
774.307	0.0141596
774.385	0.0141396
774.463	0.0142176
774.541	0.0141379
774.619	0.0141573
774.697	0.0141627
774.775	0.0142073
774.853	0.0140034
774.932	0.0140552
775.010	0.0141512
775.088	0.0141270
775.166	0.0141554
775.244	0.0141779
775.322	0.0142456
775.400	0.0141997
775.478	0.0140794
775.557	0.0141365
775.635	0.0142044
775.713	0.0142886
775.791	0.0142863
775.869	0.0144901
775.947	0.0144283
776.025	0.0145426
776.103	0.0145985
776.182	0.0145889
776.260	0.0146690
776.338	0.0146857
776.416	0.0147153
776.494	0.0147712
776.572	0.0148161
776.650	0.0148698
776.728	0.0148073
776.807	0.0150084
776.885	0.0148015
776.963	0.0148580
777.041	0.0148170
777.119	0.0147382
777.197	0.0146564
777.275	0.0146867
777.353	0.0146547
777.432	0.0144880
777.510	0.0145160
777.588	0.0142934
777.666	0.0144479
777.744	0.0143089
777.822	0.0141739
777.900	0.0141789
777.978	0.0142343
778.057	0.0140916
778.135	0.0140638
778.213	0.0141612
778.291	0.0139809
778.369	0.0138691
778.447	0.0140519
778.525	0.0140641
778.603	0.0140829
778.682	0.0141749
778.760	0.0139975
778.838	0.0141190
778.916	0.0142563
778.994	0.0142316
779.072	0.0142642
779.150	0.0142622
779.228	0.0143066
779.307	0.0143429
779.385	0.0143768
779.463	0.0144145
779.541	0.0144904
779.619	0.0144990
779.697	0.0144785
779.775	0.0145274
779.853	0.0145671
779.932	0.0145211
780.010	0.0145253
780.088	0.0145696
780.166	0.0144827
780.244	0.0144601
780.322	0.0144059
780.400	0.0143768
780.478	0.0145100
780.557	0.0142457
780.635	0.0144099
780.713	0.0143722
780.791	0.0141991
780.869	0.0142039
780.947	0.0142309
781.025	0.0140763
781.103	0.0142272
781.182	0.0142406
781.260	0.0140872
781.338	0.0140727
781.416	0.0140385
781.494	0.0141862
781.572	0.0141908
781.650	0.0140448
781.728	0.0140041
781.807	0.0141708
781.885	0.0141183
781.963	0.0140988
782.041	0.0139166
782.119	0.0138798
782.197	0.0138576
782.275	0.0141254
782.353	0.0142800
782.432	0.0140394
782.510	0.0140150
782.588	0.0142165
782.666	0.0142155
782.744	0.0140881
782.822	0.0142314
782.900	0.0142959
782.978	0.0142650
783.057	0.0143353
783.135	0.0144352
783.213	0.0142765
783.291	0.0143425
783.369	0.0144804
783.447	0.0144168
783.525	0.0145691
783.603	0.0146107
783.682	0.0144959
783.760	0.0147079
783.838	0.0145602
783.916	0.0143599
783.994	0.0146837
784.072	0.0147514
784.150	0.0148148
784.228	0.0147648
784.307	0.0147986
784.385	0.0147005
784.463	0.0149182
784.541	0.0148931
784.619	0.0149294
784.697	0.0148413
784.775	0.0148268
784.853	0.0148034
784.932	0.0148491
785.010	0.0148580
785.088	0.0149525
785.166	0.0148857
785.244	0.0148064
785.322	0.0147334
785.400	0.0147954
785.478	0.0147885
785.557	0.0147256
785.635	0.0146661
785.713	0.0146992
785.791	0.0146254
785.869	0.0144440
785.947	0.0143445
786.025	0.0143816
786.103	0.0140106
786.182	0.0139888
786.260	0.0140196
786.338	0.0139494
786.416	0.0137057
786.494	0.0136857
786.572	0.0136930
786.650	0.0136339
786.728	0.0136363
786.807	0.0135955
786.885	0.0135046
786.963	0.0135318
787.041	0.0136023
787.119	0.0136942
787.197	0.0136081
787.275	0.0137778
787.353	0.0139616
787.432	0.0138552
787.510	0.0139967
787.588	0.0141094
787.666	0.0141566
787.744	0.0141494
787.822	0.0143329
787.900	0.0144865
787.978	0.0144951
788.057	0.0145586
788.135	0.0145510
788.213	0.0147137
788.291	0.0148250
788.369	0.0148882
788.447	0.0147255
788.525	0.0147942
788.603	0.0148287
788.682	0.0146992
788.760	0.0148832
788.838	0.0149563
788.916	0.0148673
788.994	0.0148224
789.072	0.0149303
789.150	0.0147761
789.228	0.0147191
789.307	0.0148092
789.385	0.0148075
789.463	0.0147301
789.541	0.0147209
789.619	0.0146004
789.697	0.0146767
789.775	0.0145179
789.853	0.0144378
789.932	0.0144987
790.010	0.0144568
790.088	0.0143603
790.166	0.0144178
790.244	0.0143606
790.322	0.0143554
790.400	0.0143282
790.478	0.0142837
790.557	0.0142995
790.635	0.0143748
790.713	0.0143242
790.791	0.0142393
790.869	0.0143507
790.947	0.0143282
791.025	0.0144016
791.103	0.0143238
791.182	0.0144550
791.260	0.0144978
791.338	0.0144197
791.416	0.0144305
791.494	0.0144530
791.572	0.0144360
791.650	0.0144383
791.728	0.0144918
791.807	0.0145481
791.885	0.0143581
791.963	0.0143742
792.041	0.0143689
792.119	0.0143296
792.197	0.0143745
792.275	0.0144208
792.353	0.0142163
792.432	0.0143138
792.510	0.0143313
792.588	0.0143149
792.666	0.0142341
792.744	0.0144229
792.822	0.0144078
792.900	0.0145120
792.978	0.0146186
793.057	0.0145684
793.135	0.0147073
793.213	0.0148090
793.291	0.0149222
793.369	0.0149013
793.447	0.0148491
793.525	0.0149249
793.603	0.0150315
793.682	0.0148800
793.760	0.0149918
793.838	0.0150234
793.916	0.0149664
793.994	0.0149313
794.072	0.0148634
794.150	0.0147939
794.228	0.0147882
794.307	0.0146721
794.385	0.0147456
794.463	0.0147125
794.541	0.0145151
794.619	0.0145863
794.697	0.0144176
794.775	0.0143206
794.853	0.0141285
794.932	0.0142654
795.010	0.0142689
795.088	0.0141859
795.166	0.0141515
795.244	0.0142809
795.322	0.0141667
795.400	0.0141821
795.478	0.0141261
795.557	0.0140683
795.635	0.0142361
795.713	0.0141156
795.791	0.0142120
795.869	0.0141630
795.947	0.0141995
796.025	0.0141138
796.103	0.0140019
796.182	0.0139735
796.260	0.0140085
796.338	0.0140563
796.416	0.0138996
796.494	0.0139311
796.572	0.0140049
796.650	0.0139454
796.728	0.0138198
796.807	0.0138238
796.885	0.0137984
796.963	0.0138049
797.041	0.0139400
797.119	0.0137883
797.197	0.0139603
797.275	0.0139646
797.353	0.0139758
797.432	0.0140102
797.510	0.0141249
797.588	0.0142197
797.666	0.0141748
797.744	0.0142726
797.822	0.0144170
797.900	0.0143394
797.978	0.0143817
798.057	0.0145900
798.135	0.0146094
798.213	0.0145420
798.291	0.0146813
798.369	0.0144916
798.447	0.0144561
798.525	0.0147394
798.603	0.0146659
798.682	0.0147276
798.760	0.0147205
798.838	0.0145869
798.916	0.0146613
798.994	0.0147076
799.072	0.0148474
799.150	0.0146956
799.228	0.0145985
799.307	0.0146435
799.385	0.0146507
799.463	0.0145947
799.541	0.0146736
799.619	0.0146507
799.697	0.0145913
799.775	0.0145099
799.853	0.0145611
799.932	0.0145580
800.010	0.0147067
800.088	0.0145756
800.166	0.0144893
800.244	0.0146033
800.322	0.0145402
800.400	0.0145711
800.478	0.0144981
800.557	0.0145256
800.635	0.0145284
800.713	0.0143740
800.791	0.0144794
800.869	0.0143858
800.947	0.0142668
801.025	0.0142424
801.103	0.0141598
801.182	0.0141045
801.260	0.0140916
801.338	0.0140936
801.416	0.0140292
801.494	0.0140770
801.572	0.0139237
801.650	0.0138515
801.728	0.0138719
801.807	0.0138847
801.885	0.0138129
801.963	0.0139671
802.041	0.0139507
802.119	0.0138702
802.197	0.0138419
802.275	0.0138239
802.353	0.0139584
802.432	0.0138772
802.510	0.0139031
802.588	0.0138763
802.666	0.0138269
802.744	0.0139349
802.822	0.0139639
802.900	0.0141347
802.978	0.0140049
803.057	0.0140973
803.135	0.0139908
803.213	0.0140906
803.291	0.0142683
803.369	0.0142770
803.447	0.0141121
803.525	0.0142584
803.603	0.0141836
803.682	0.0142178
803.760	0.0143067
803.838	0.0144703
803.916	0.0143420
803.994	0.0143933
804.072	0.0144736
804.150	0.0144313
804.228	0.0144335
804.307	0.0143861
804.385	0.0144466
804.463	0.0144472
804.541	0.0145477
804.619	0.0145545
804.697	0.0145694
804.775	0.0146160
804.853	0.0144691
804.932	0.0145711
805.010	0.0143947
805.088	0.0145143
805.166	0.0145226
805.244	0.0145859
805.322	0.0145264
805.400	0.0146928
805.478	0.0147775
805.557	0.0145537
805.635	0.0146424
805.713	0.0145430
805.791	0.0146014
805.869	0.0145547
805.947	0.0146025
806.025	0.0145292
806.103	0.0144979
806.182	0.0143298
806.260	0.0143458
806.338	0.0142107
806.416	0.0144072
806.494	0.0142576
806.572	0.0142000
806.650	0.0141631
806.728	0.0141302
806.807	0.0142249
806.885	0.0142303
806.963	0.0142375
807.041	0.0141679
807.119	0.0142081
807.197	0.0142822
807.275	0.0143176
807.353	0.0143380
807.432	0.0143616
807.510	0.0143494
807.588	0.0143096
807.666	0.0142699
807.744	0.0143569
807.822	0.0143279
807.900	0.0144270
807.978	0.0143167
808.057	0.0141807
808.135	0.0143105
808.213	0.0143745
808.291	0.0142249
808.369	0.0141960
808.447	0.0142013
808.525	0.0140118
808.603	0.0141523
808.682	0.0140974
808.760	0.0141676
808.838	0.0142425
808.916	0.0142300
808.994	0.0142309
809.072	0.0142823
809.150	0.0142770
809.228	0.0143346
809.307	0.0143807
809.385	0.0144725
809.463	0.0146037
809.541	0.0146410
809.619	0.0146574
809.697	0.0144931
809.775	0.0146452
809.853	0.0147812
809.932	0.0147340
810.010	0.0146075
810.088	0.0147558
810.166	0.0147195
810.244	0.0143817
810.322	0.0145139
810.400	0.0144788
810.478	0.0144347
810.557	0.0143809
810.635	0.0142870
810.713	0.0142587
810.791	0.0142883
810.869	0.0142215
810.947	0.0141742
811.025	0.0141470
811.103	0.0140445
811.182	0.0140247
811.260	0.0139891
811.338	0.0140849
811.416	0.0141428
811.494	0.0141329
811.572	0.0141405
811.650	0.0141505
811.728	0.0141071
811.807	0.0142223
811.885	0.0143549
811.963	0.0144347
812.041	0.0144311
812.119	0.0144957
812.197	0.0144074
812.275	0.0146104
812.353	0.0145471
812.432	0.0147504
812.510	0.0145464
812.588	0.0145442
812.666	0.0145781
812.744	0.0146413
812.822	0.0145277
812.900	0.0146137
812.978	0.0145695
813.057	0.0146017
813.135	0.0145686
813.213	0.0145869
813.291	0.0145915
813.369	0.0145766
813.447	0.0144609
813.525	0.0145007
813.603	0.0145831
813.682	0.0145367
813.760	0.0145166
813.838	0.0145085
813.916	0.0145440
813.994	0.0144883
814.072	0.0144682
814.150	0.0143353
814.228	0.0145062
814.307	0.0144483
814.385	0.0143165
814.463	0.0143187
814.541	0.0143496
814.619	0.0143573
814.697	0.0144878
814.775	0.0143238
814.853	0.0143980
814.932	0.0145290
815.010	0.0145564
815.088	0.0146132
815.166	0.0145934
815.244	0.0145306
815.322	0.0146143
815.400	0.0145605
815.478	0.0147543
815.557	0.0146790
815.635	0.0146477
815.713	0.0145412
815.791	0.0146214
815.869	0.0145014
815.947	0.0145425
816.025	0.0144560
816.103	0.0145869
816.182	0.0145084
816.260	0.0143944
816.338	0.0144045
816.416	0.0142673
816.494	0.0142223
816.572	0.0141438
816.650	0.0140983
816.728	0.0142130
816.807	0.0141438
816.885	0.0140475
816.963	0.0139305
817.041	0.0139613
817.119	0.0140705
817.197	0.0139105
817.275	0.0139349
817.353	0.0138432
817.432	0.0138864
817.510	0.0139728
817.588	0.0139867
817.666	0.0137772
817.744	0.0140152
817.822	0.0139362
817.900	0.0140405
817.978	0.0141003
818.057	0.0142875
818.135	0.0143642
818.213	0.0144192
818.291	0.0145334
818.369	0.0147222
818.447	0.0147801
818.525	0.0149320
818.603	0.0148846
818.682	0.0150319
818.760	0.0151849
818.838	0.0151723
818.916	0.0152924
818.994	0.0152311
819.072	0.0150522
819.150	0.0151199
819.228	0.0152452
819.307	0.0150936
819.385	0.0150568
819.463	0.0150114
819.541	0.0149628
819.619	0.0148009
819.697	0.0146819
819.775	0.0146710
819.853	0.0145512
819.932	0.0143811
820.010	0.0143357
820.088	0.0141264
820.166	0.0141411
820.244	0.0141142
820.322	0.0140571
820.400	0.0139577
820.478	0.0140916
820.557	0.0141436
820.635	0.0142663
820.713	0.0141417
820.791	0.0142061
820.869	0.0142955
820.947	0.0143882
821.025	0.0143307
821.103	0.0143970
821.182	0.0144573
821.260	0.0146082
821.338	0.0146878
821.416	0.0147351
821.494	0.0146322
821.572	0.0148527
821.650	0.0148768
821.728	0.0148495
821.807	0.0147680
821.885	0.0148456
821.963	0.0147453
822.041	0.0146615
822.119	0.0145650
822.197	0.0144798
822.275	0.0144563
822.353	0.0142699
822.432	0.0141293
822.510	0.0140617
822.588	0.0138168
822.666	0.0136916
822.744	0.0138862
822.822	0.0138115
822.900	0.0138168
822.978	0.0137779
823.057	0.0137624
823.135	0.0138244
823.213	0.0139677
823.291	0.0140228
823.369	0.0140631
823.447	0.0141360
823.525	0.0143137
823.603	0.0144189
823.682	0.0145175
823.760	0.0145652
823.838	0.0146724
823.916	0.0149545
823.994	0.0149383
824.072	0.0149006
824.150	0.0149123
824.228	0.0150327
824.307	0.0151775
824.385	0.0150002
824.463	0.0149286
824.541	0.0149098
824.619	0.0148747
824.697	0.0147337
824.775	0.0147060
824.853	0.0145000
824.932	0.0146249
825.010	0.0145560
825.088	0.0145205
825.166	0.0144695
825.244	0.0142959
825.322	0.0143674
825.400	0.0143244
825.478	0.0141895
825.557	0.0141727
825.635	0.0142510
825.713	0.0143181
825.791	0.0142066
825.869	0.0142203
825.947	0.0142223
826.025	0.0143079
826.103	0.0143436
826.182	0.0143179
826.260	0.0143565
826.338	0.0145480
826.416	0.0144834
826.494	0.0143594
826.572	0.0144039
826.650	0.0144202
826.728	0.0145624
826.807	0.0144410
826.885	0.0144162
826.963	0.0143581
827.041	0.0143575
827.119	0.0143402
827.197	0.0143880
827.275	0.0144219
827.353	0.0143670
827.432	0.0141544
827.510	0.0140282
827.588	0.0139446
827.666	0.0142190
827.744	0.0140542
827.822	0.0140257
827.900	0.0140662
827.978	0.0140869
828.057	0.0141168
828.135	0.0140504
828.213	0.0140704
828.291	0.0140211
828.369	0.0142236
828.447	0.0141635
828.525	0.0141021
828.603	0.0143814
828.682	0.0144449
828.760	0.0143764
828.838	0.0144675
828.916	0.0144193
828.994	0.0146082
829.072	0.0145637
829.150	0.0146381
829.228	0.0146239
829.307	0.0145771
829.385	0.0147008
829.463	0.0146944
829.541	0.0146986
829.619	0.0148454
829.697	0.0147813
829.775	0.0148413
829.853	0.0147511
829.932	0.0148034
830.010	0.0149085
830.088	0.0146497
830.166	0.0146625
830.244	0.0145592
830.322	0.0144274
830.400	0.0143453
830.478	0.0143295
830.557	0.0141846
830.635	0.0140469
830.713	0.0140910
830.791	0.0140919
830.869	0.0141252
830.947	0.0140022
831.025	0.0140498
831.103	0.0140032
831.182	0.0140189
831.260	0.0140669
831.338	0.0140606
831.416	0.0140099
831.494	0.0140135
831.572	0.0140312
831.650	0.0142493
831.728	0.0141273
831.807	0.0142193
831.885	0.0142185
831.963	0.0142203
832.041	0.0143691
832.119	0.0143910
832.197	0.0143182
832.275	0.0143044
832.353	0.0143429
832.432	0.0143420
832.510	0.0142721
832.588	0.0142076
832.666	0.0141654
832.744	0.0142704
832.822	0.0141611
832.900	0.0141271
832.978	0.0141109
833.057	0.0140701
833.135	0.0141169
833.213	0.0142013
833.291	0.0141813
833.369	0.0140767
833.447	0.0140538
833.525	0.0140472
833.603	0.0141910
833.682	0.0142207
833.760	0.0143157
833.838	0.0143520
833.916	0.0144144
833.994	0.0143959
834.072	0.0143415
834.150	0.0143871
834.228	0.0144616
834.307	0.0145018
834.385	0.0144628
834.463	0.0146402
834.541	0.0145037
834.619	0.0145328
834.697	0.0145364
834.775	0.0144122
834.853	0.0145162
834.932	0.0145753
835.010	0.0145288
835.088	0.0144691
835.166	0.0145808
835.244	0.0146489
835.322	0.0146072
835.400	0.0145640
835.478	0.0144989
835.557	0.0145847
835.635	0.0144634
835.713	0.0145337
835.791	0.0145489
835.869	0.0145539
835.947	0.0145116
836.025	0.0143884
836.103	0.0144571
836.182	0.0146249
836.260	0.0147171
836.338	0.0145667
836.416	0.0144891
836.494	0.0147324
836.572	0.0147395
836.650	0.0147956
836.728	0.0147688
836.807	0.0148540
836.885	0.0147573
836.963	0.0147663
837.041	0.0148448
837.119	0.0147907
837.197	0.0148137
837.275	0.0147179
837.353	0.0146354
837.432	0.0147189
837.510	0.0146445
837.588	0.0145490
837.666	0.0145169
837.744	0.0144574
837.822	0.0142838
837.900	0.0141361
837.978	0.0142402
838.057	0.0140791
838.135	0.0139691
838.213	0.0137762
838.291	0.0137549
838.369	0.0137159
838.447	0.0135943
838.525	0.0135784
838.603	0.0136475
838.682	0.0136483
838.760	0.0134854
838.838	0.0134915
838.916	0.0136369
838.994	0.0136591
839.072	0.0138248
839.150	0.0137868
839.228	0.0138333
839.307	0.0138712
839.385	0.0139134
839.463	0.0141656
839.541	0.0141846
839.619	0.0140393
839.697	0.0143955
839.775	0.0142402
839.853	0.0145608
839.932	0.0144839
840.010	0.0146822
840.088	0.0146539
840.166	0.0147624
840.244	0.0149105
840.322	0.0148584
840.400	0.0148706
840.478	0.0148409
840.557	0.0149499
840.635	0.0150084
840.713	0.0150774
840.791	0.0149771
840.869	0.0149161
840.947	0.0150579
841.025	0.0150836
841.103	0.0151073
841.182	0.0149084
841.260	0.0149227
841.338	0.0149031
841.416	0.0147952
841.494	0.0147668
841.572	0.0146755
841.650	0.0147610
841.728	0.0146529
841.807	0.0144616
841.885	0.0145663
841.963	0.0144050
842.041	0.0144653
842.119	0.0143829
842.197	0.0145554
842.275	0.0144667
842.353	0.0144242
842.432	0.0144856
842.510	0.0144634
842.588	0.0144920
842.666	0.0143858
842.744	0.0144317
842.822	0.0145778
842.900	0.0146071
842.978	0.0145370
843.057	0.0145892
843.135	0.0146086
843.213	0.0146574
843.291	0.0147536
843.369	0.0148166
843.447	0.0146325
843.525	0.0146404
843.603	0.0145853
843.682	0.0146172
843.760	0.0144941
843.838	0.0146261
843.916	0.0145535
843.994	0.0144021
844.072	0.0144428
844.150	0.0144487
844.228	0.0144226
844.307	0.0143727
844.385	0.0141905
844.463	0.0143900
844.541	0.0143578
844.619	0.0143985
844.697	0.0142038
844.775	0.0141053
844.853	0.0142471
844.932	0.0143649
845.010	0.0143450
845.088	0.0142471
845.166	0.0143181
845.244	0.0144288
845.322	0.0143577
845.400	0.0142476
845.478	0.0143384
845.557	0.0144071
845.635	0.0143282
845.713	0.0143839
845.791	0.0144150
845.869	0.0143987
845.947	0.0143497
846.025	0.0143790
846.103	0.0142888
846.182	0.0143282
846.260	0.0143869
846.338	0.0144192
846.416	0.0142789
846.494	0.0143500
846.572	0.0143130
846.650	0.0144765
846.728	0.0144915
846.807	0.0144221
846.885	0.0143494
846.963	0.0144234
847.041	0.0144885
847.119	0.0144372
847.197	0.0143566
847.275	0.0143761
847.353	0.0143123
847.432	0.0144495
847.510	0.0144193
847.588	0.0143832
847.666	0.0146412
847.744	0.0145013
847.822	0.0145938
847.900	0.0145438
847.978	0.0144889
848.057	0.0146666
848.135	0.0145523
848.213	0.0148387
848.291	0.0146528
848.369	0.0147320
848.447	0.0147283
848.525	0.0147967
848.603	0.0148804
848.682	0.0148533
848.760	0.0147622
848.838	0.0148615
848.916	0.0148283
848.994	0.0148767
849.072	0.0146371
849.150	0.0146313
849.228	0.0146179
849.307	0.0147489
849.385	0.0147160
849.463	0.0144965
849.541	0.0145039
849.619	0.0144342
849.697	0.0143888
849.775	0.0143945
849.853	0.0143948
849.932	0.0143185
850.010	0.0141875
850.088	0.0143119
850.166	0.0143002
850.244	0.0142075
850.322	0.0141272
850.400	0.0140955
850.478	0.0139133
850.557	0.0140092
850.635	0.0140601
850.713	0.0140801
850.791	0.0140367
850.869	0.0140968
850.947	0.0142226
851.025	0.0141727
851.103	0.0142572
851.182	0.0141589
851.260	0.0141681
851.338	0.0142650
851.416	0.0143016
851.494	0.0143285
851.572	0.0145058
851.650	0.0143069
851.728	0.0145303
851.807	0.0145590
851.885	0.0144463
851.963	0.0145334
852.041	0.0145215
852.119	0.0143633
852.197	0.0144500
852.275	0.0145177
852.353	0.0145923
852.432	0.0145050
852.510	0.0145644
852.588	0.0144994
852.666	0.0144579
852.744	0.0145558
852.822	0.0146252
852.900	0.0146152
852.978	0.0146397
853.057	0.0145508
853.135	0.0145544
853.213	0.0144079
853.291	0.0142990
853.369	0.0142825
853.447	0.0143690
853.525	0.0142728
853.603	0.0143703
853.682	0.0142560
853.760	0.0140914
853.838	0.0140348
853.916	0.0140689
853.994	0.0140324
854.072	0.0140199
854.150	0.0140915
854.228	0.0140482
854.307	0.0139758
854.385	0.0141393
854.463	0.0141058
854.541	0.0143073
854.619	0.0142197
854.697	0.0143014
854.775	0.0143249
854.853	0.0143698
854.932	0.0144604
855.010	0.0144460
855.088	0.0145374
855.166	0.0147066
855.244	0.0146005
855.322	0.0147052
855.400	0.0146543
855.478	0.0148329
855.557	0.0146556
855.635	0.0146107
855.713	0.0146149
855.791	0.0146095
855.869	0.0147032
855.947	0.0146377
856.025	0.0144914
856.103	0.0146123
856.182	0.0144891
856.260	0.0144827
856.338	0.0145596
856.416	0.0145485
856.494	0.0145237
856.572	0.0145286
856.650	0.0142109
856.728	0.0141600
856.807	0.0142847
856.885	0.0143529
856.963	0.0143508
857.041	0.0140900
857.119	0.0140895
857.197	0.0140398
857.275	0.0141018
857.353	0.0139937
857.432	0.0139087
857.510	0.0140100
857.588	0.0140104
857.666	0.0137519
857.744	0.0138707
857.822	0.0139800
857.900	0.0138475
857.978	0.0138054
858.057	0.0139464
858.135	0.0139178
858.213	0.0139368
858.291	0.0140087
858.369	0.0138128
858.447	0.0139881
858.525	0.0141269
858.603	0.0142117
858.682	0.0141840
858.760	0.0140530
858.838	0.0140932
858.916	0.0141351
858.994	0.0143015
859.072	0.0143394
859.150	0.0142119
859.228	0.0142247
859.307	0.0144700
859.385	0.0145287
859.463	0.0143185
859.541	0.0144059
859.619	0.0145589
859.697	0.0145363
859.775	0.0145231
859.853	0.0143378
859.932	0.0144719
860.010	0.0142985
860.088	0.0143118
860.166	0.0143637
860.244	0.0143161
860.322	0.0143385
860.400	0.0142177
860.478	0.0141150
860.557	0.0141858
860.635	0.0141763
860.713	0.0141070
860.791	0.0141061
860.869	0.0141748
860.947	0.0140516
861.025	0.0140662
861.103	0.0141538
861.182	0.0140813
861.260	0.0141206
861.338	0.0140181
861.416	0.0141022
861.494	0.0142297
861.572	0.0142514
861.650	0.0142161
861.728	0.0143456
861.807	0.0142532
861.885	0.0142836
861.963	0.0145288
862.041	0.0144287
862.119	0.0144204
862.197	0.0144720
862.275	0.0144066
862.353	0.0145395
862.432	0.0145150
862.510	0.0145377
862.588	0.0144659
862.666	0.0145156
862.744	0.0145439
862.822	0.0144147
862.900	0.0144651
862.978	0.0144776
863.057	0.0144402
863.135	0.0144375
863.213	0.0144901
863.291	0.0144585
863.369	0.0144941
863.447	0.0143718
863.525	0.0144511
863.603	0.0144984
863.682	0.0143115
863.760	0.0145170
863.838	0.0145030
863.916	0.0145332
863.994	0.0145374
864.072	0.0144891
864.150	0.0144411
864.228	0.0145413
864.307	0.0146786
864.385	0.0144485
864.463	0.0145681
864.541	0.0146659
864.619	0.0145688
864.697	0.0144577
864.775	0.0145071
864.853	0.0146085
864.932	0.0144990
865.010	0.0145196
865.088	0.0145303
865.166	0.0144144
865.244	0.0144456
865.322	0.0144724
865.400	0.0143190
865.478	0.0143392
865.557	0.0142229
865.635	0.0142503
865.713	0.0142976
865.791	0.0142801
865.869	0.0142117
865.947	0.0140816
866.025	0.0142744
866.103	0.0142660
866.182	0.0142789
866.260	0.0144242
866.338	0.0144367
866.416	0.0143727
866.494	0.0142690
866.572	0.0144165
866.650	0.0146102
866.728	0.0143779
866.807	0.0147064
866.885	0.0146622
866.963	0.0147515
867.041	0.0146753
867.119	0.0147340
867.197	0.0146182
867.275	0.0148099
867.353	0.0147530
867.432	0.0147416
867.510	0.0148711
867.588	0.0148404
867.666	0.0147918
867.744	0.0148243
867.822	0.0148786
867.900	0.0149659
867.978	0.0147893
868.057	0.0147189
868.135	0.0147244
868.213	0.0147580
868.291	0.0146025
868.369	0.0145480
868.447	0.0146764
868.525	0.0144961
868.603	0.0144985
868.682	0.0145032
868.760	0.0143269
868.838	0.0142993
868.916	0.0143605
868.994	0.0142960
869.072	0.0142739
869.150	0.0141782
869.228	0.0140634
869.307	0.0141631
869.385	0.0142852
869.463	0.0142527
869.541	0.0142137
869.619	0.0142023
869.697	0.0143232
869.775	0.0142330
869.853	0.0142390
869.932	0.0143021
870.010	0.0144591
870.088	0.0143622
870.166	0.0144003
870.244	0.0143248
870.322	0.0144620
870.400	0.0146203
870.478	0.0145840
870.557	0.0144279
870.635	0.0144772
870.713	0.0145321
870.791	0.0145345
870.869	0.0145014
870.947	0.0144747
871.025	0.0146140
871.103	0.0145708
871.182	0.0144824
871.260	0.0145580
871.338	0.0146666
871.416	0.0145544
871.494	0.0144804
871.572	0.0144782
871.650	0.0144778
871.728	0.0143580
871.807	0.0145074
871.885	0.0144264
871.963	0.0144567
872.041	0.0144585
872.119	0.0144199
872.197	0.0144356
872.275	0.0144392
872.353	0.0142682
872.432	0.0142990
872.510	0.0143906
872.588	0.0142940
872.666	0.0143475
872.744	0.0142977
872.822	0.0143141
872.900	0.0140945
872.978	0.0142162
873.057	0.0141396
873.135	0.0142358
873.213	0.0144204
873.291	0.0143950
873.369	0.0142767
873.447	0.0143403
873.525	0.0144496
873.603	0.0142426
873.682	0.0143677
873.760	0.0144042
873.838	0.0143121
873.916	0.0145757
873.994	0.0144236
874.072	0.0144379
874.150	0.0144250
874.228	0.0145104
874.307	0.0145202
874.385	0.0145650
874.463	0.0144775
874.541	0.0143617
874.619	0.0145927
874.697	0.0145747
874.775	0.0144907
874.853	0.0143725
874.932	0.0144819
875.010	0.0144222
875.088	0.0145386
875.166	0.0143450
875.244	0.0144064
875.322	0.0144161
875.400	0.0145039
875.478	0.0143386
875.557	0.0143919
875.635	0.0142570
875.713	0.0143052
875.791	0.0143804
875.869	0.0141473
875.947	0.0141917
876.025	0.0143222
876.103	0.0142549
876.182	0.0142623
876.260	0.0143649
876.338	0.0142208
876.416	0.0143725
876.494	0.0142998
876.572	0.0140975
876.650	0.0141334
876.728	0.0143006
876.807	0.0142552
876.885	0.0142020
876.963	0.0141914
877.041	0.0140880
877.119	0.0140302
877.197	0.0140881
877.275	0.0140376
877.353	0.0141379
877.432	0.0143089
877.510	0.0141312
877.588	0.0143466
877.666	0.0144416
877.744	0.0145686
877.822	0.0144778
877.900	0.0146231
877.978	0.0146943
878.057	0.0147002
878.135	0.0146525
878.213	0.0146544
878.291	0.0147276
878.369	0.0146284
878.447	0.0146965
878.525	0.0146331
878.603	0.0145930
878.682	0.0145951
878.760	0.0145662
878.838	0.0146304
878.916	0.0144633
878.994	0.0142383
879.072	0.0144412
879.150	0.0142733
879.228	0.0143207
879.307	0.0143548
879.385	0.0141666
879.463	0.0141776
879.541	0.0142048
879.619	0.0142360
879.697	0.0141892
879.775	0.0143190
879.853	0.0141596
879.932	0.0141615
880.010	0.0142149
880.088	0.0142847
880.166	0.0140212
880.244	0.0140913
880.322	0.0141631
880.400	0.0140496
880.478	0.0140996
880.557	0.0141074
880.635	0.0140283
880.713	0.0142189
880.791	0.0142053
880.869	0.0140665
880.947	0.0141738
881.025	0.0141009
881.103	0.0139943
881.182	0.0140286
881.260	0.0140241
881.338	0.0141751
881.416	0.0141401
881.494	0.0139941
881.572	0.0140505
881.650	0.0139929
881.728	0.0140368
881.807	0.0141603
881.885	0.0142482
881.963	0.0142641
882.041	0.0141147
882.119	0.0142411
882.197	0.0142612
882.275	0.0143932
882.353	0.0143289
882.432	0.0142972
882.510	0.0144495
882.588	0.0145088
882.666	0.0145189
882.744	0.0147538
882.822	0.0144630
882.900	0.0144794
882.978	0.0146115
883.057	0.0147312
883.135	0.0145940
883.213	0.0146889
883.291	0.0147305
883.369	0.0146083
883.447	0.0145836
883.525	0.0145638
883.603	0.0144643
883.682	0.0144821
883.760	0.0146043
883.838	0.0144032
883.916	0.0143410
883.994	0.0143890
884.072	0.0143037
884.150	0.0142759
884.228	0.0142366
884.307	0.0142948
884.385	0.0143188
884.463	0.0141851
884.541	0.0141856
884.619	0.0141375
884.697	0.0142100
884.775	0.0142036
884.853	0.0142516
884.932	0.0144156
885.010	0.0142643
885.088	0.0142702
885.166	0.0144361
885.244	0.0142310
885.322	0.0142793
885.400	0.0143456
885.478	0.0145416
885.557	0.0143669
885.635	0.0144941
885.713	0.0143610
885.791	0.0143642
885.869	0.0143538
885.947	0.0142612
886.025	0.0142775
886.103	0.0144938
886.182	0.0144696
886.260	0.0143484
886.338	0.0143399
886.416	0.0143463
886.494	0.0143517
886.572	0.0143867
886.650	0.0144437
886.728	0.0143988
886.807	0.0144399
886.885	0.0143832
886.963	0.0144362
887.041	0.0143549
887.119	0.0142390
887.197	0.0143433
887.275	0.0142761
887.353	0.0143623
887.432	0.0142562
887.510	0.0143439
887.588	0.0143719
887.666	0.0142842
887.744	0.0143177
887.822	0.0143976
887.900	0.0143154
887.978	0.0144307
888.057	0.0143552
888.135	0.0144016
888.213	0.0144348
888.291	0.0143876
888.369	0.0144170
888.447	0.0143587
888.525	0.0143308
888.603	0.0143806
888.682	0.0143581
888.760	0.0142682
888.838	0.0143828
888.916	0.0143569
888.994	0.0144180
889.072	0.0143753
889.150	0.0142902
889.228	0.0142811
889.307	0.0142168
889.385	0.0142963
889.463	0.0143623
889.541	0.0143141
889.619	0.0142973
889.697	0.0143238
889.775	0.0143391
889.853	0.0143938
889.932	0.0143362
890.010	0.0143526
890.088	0.0142903
890.166	0.0144755
890.244	0.0144464
890.322	0.0145096
890.400	0.0144193
890.478	0.0144759
890.557	0.0146175
890.635	0.0146554
890.713	0.0145496
890.791	0.0145338
890.869	0.0145747
890.947	0.0146148
891.025	0.0145312
891.103	0.0146414
891.182	0.0146952
891.260	0.0147611
891.338	0.0145159
891.416	0.0147276
891.494	0.0146308
891.572	0.0145914
891.650	0.0145684
891.728	0.0145765
891.807	0.0145472
891.885	0.0144420
891.963	0.0143635
892.041	0.0143419
892.119	0.0142844
892.197	0.0144936
892.275	0.0144283
892.353	0.0142533
892.432	0.0142599
892.510	0.0142482
892.588	0.0141818
892.666	0.0141703
892.744	0.0142584
892.822	0.0142842
892.900	0.0142653
892.978	0.0141447
893.057	0.0142517
893.135	0.0142268
893.213	0.0143993
893.291	0.0142643
893.369	0.0142460
893.447	0.0142158
893.525	0.0143076
893.603	0.0143908
893.682	0.0144513
893.760	0.0143271
893.838	0.0144488
893.916	0.0146557
893.994	0.0145269
894.072	0.0145435
894.150	0.0146611
894.228	0.0145373
894.307	0.0145881
894.385	0.0146564
894.463	0.0145757
894.541	0.0146242
894.619	0.0146056
894.697	0.0146205
894.775	0.0147271
894.853	0.0147202
894.932	0.0146380
895.010	0.0145476
895.088	0.0146260
895.166	0.0145011
895.244	0.0143911
895.322	0.0144189
895.400	0.0145480
895.478	0.0144521
895.557	0.0144139
895.635	0.0143074
895.713	0.0144449
895.791	0.0143497
895.869	0.0143785
895.947	0.0143423
896.025	0.0144387
896.103	0.0144157
896.182	0.0145212
896.260	0.0145679
896.338	0.0145207
896.416	0.0143016
896.494	0.0145348
896.572	0.0146233
896.650	0.0143976
896.728	0.0144474
896.807	0.0144028
896.885	0.0145034
896.963	0.0144359
897.041	0.0145319
897.119	0.0145164
897.197	0.0143567
897.275	0.0143842
897.353	0.0143930
897.432	0.0144417
897.510	0.0145114
897.588	0.0143887
897.666	0.0143266
897.744	0.0143740
897.822	0.0142790
897.900	0.0142020
897.978	0.0141071
898.057	0.0142530
898.135	0.0141687
898.213	0.0141760
898.291	0.0142886
898.369	0.0142385
898.447	0.0141467
898.525	0.0144340
898.603	0.0143212
898.682	0.0144366
898.760	0.0144140
898.838	0.0143462
898.916	0.0144592
898.994	0.0145865
899.072	0.0145332
899.150	0.0146025
899.228	0.0144698
899.307	0.0144501
899.385	0.0145047
899.463	0.0145645
899.541	0.0145407
899.619	0.0146126
899.697	0.0144795
899.775	0.0144643
899.853	0.0146021
899.932	0.0145360
900.010	0.0145438
900.088	0.0144566
900.166	0.0144027
900.244	0.0143503
900.322	0.0144624
900.400	0.0144698
900.478	0.0143655
900.557	0.0143948
900.635	0.0143140
900.713	0.0143414
900.791	0.0142254
900.869	0.0142931
900.947	0.0142407
901.025	0.0140894
901.103	0.0142167
901.182	0.0141595
901.260	0.0140925
901.338	0.0141557
901.416	0.0142126
901.494	0.0141484
901.572	0.0142977
901.650	0.0142528
901.728	0.0143633
901.807	0.0143224
901.885	0.0143526
901.963	0.0145058
902.041	0.0144557
902.119	0.0145152
902.197	0.0144176
902.275	0.0143674
902.353	0.0145145
902.432	0.0145243
902.510	0.0145702
902.588	0.0145525
902.666	0.0145005
902.744	0.0145303
902.822	0.0146197
902.900	0.0144476
902.978	0.0145022
903.057	0.0144383
903.135	0.0144712
903.213	0.0144331
903.291	0.0144767
903.369	0.0145091
903.447	0.0145168
903.525	0.0144450
903.603	0.0144019
903.682	0.0143764
903.760	0.0143593
903.838	0.0143295
903.916	0.0143103
903.994	0.0142810
904.072	0.0143225
904.150	0.0144210
904.228	0.0143361
904.307	0.0143387
904.385	0.0143469
904.463	0.0143228
904.541	0.0141965
904.619	0.0141841
904.697	0.0142970
904.775	0.0143514
904.853	0.0143762
904.932	0.0143042
905.010	0.0143234
905.088	0.0142274
905.166	0.0143314
905.244	0.0143346
905.322	0.0142596
905.400	0.0143555
905.478	0.0143474
905.557	0.0143841
905.635	0.0144568
905.713	0.0143784
905.791	0.0143687
905.869	0.0145187
905.947	0.0144221
906.025	0.0143378
906.103	0.0144726
906.182	0.0144992
906.260	0.0143928
906.338	0.0143974
906.416	0.0144314
906.494	0.0143946
906.572	0.0143037
906.650	0.0143649
906.728	0.0143054
906.807	0.0144044
906.885	0.0144461
906.963	0.0143535
907.041	0.0142313
907.119	0.0143153
907.197	0.0143422
907.275	0.0144169
907.353	0.0144604
907.432	0.0145326
907.510	0.0144292
907.588	0.0144503
907.666	0.0143526
907.744	0.0145875
907.822	0.0144816
907.900	0.0143757
907.978	0.0144769
908.057	0.0145977
908.135	0.0144751
908.213	0.0145689
908.291	0.0145123
908.369	0.0146160
908.447	0.0145961
908.525	0.0145076
908.603	0.0145773
908.682	0.0145054
908.760	0.0146316
908.838	0.0145919
908.916	0.0145603
908.994	0.0146149
909.072	0.0146133
909.150	0.0144541
909.228	0.0145294
909.307	0.0145709
909.385	0.0143011
909.463	0.0144564
909.541	0.0141824
909.619	0.0143402
909.697	0.0143613
909.775	0.0141690
909.853	0.0141874
909.932	0.0141014
910.010	0.0141384
910.088	0.0141902
910.166	0.0141203
910.244	0.0142537
910.322	0.0142185
910.400	0.0143499
910.478	0.0141551
910.557	0.0143895
910.635	0.0143186
910.713	0.0143620
910.791	0.0143815
910.869	0.0144141
910.947	0.0144061
911.025	0.0145295
911.103	0.0144106
911.182	0.0143973
911.260	0.0143095
911.338	0.0143585
911.416	0.0143374
911.494	0.0144140
911.572	0.0143749
911.650	0.0143899
911.728	0.0143127
911.807	0.0145523
911.885	0.0143407
911.963	0.0142969
912.041	0.0143792
912.119	0.0144633
912.197	0.0143451
912.275	0.0145780
912.353	0.0144691
912.432	0.0144254
912.510	0.0144608
912.588	0.0143884
912.666	0.0144778
912.744	0.0144398
912.822	0.0143470
912.900	0.0145117
912.978	0.0144567
913.057	0.0143547
913.135	0.0142567
913.213	0.0144392
913.291	0.0143661
913.369	0.0141851
913.447	0.0143336
913.525	0.0144435
913.603	0.0143612
913.682	0.0144211
913.760	0.0142636
913.838	0.0144131
913.916	0.0143287
913.994	0.0143196
914.072	0.0144154
914.150	0.0143632
914.228	0.0143324
914.307	0.0143475
914.385	0.0144175
914.463	0.0143275
914.541	0.0144386
914.619	0.0143607
914.697	0.0143364
914.775	0.0144575
914.853	0.0143034
914.932	0.0144433
915.010	0.0145177
915.088	0.0143451
915.166	0.0144292
915.244	0.0143172
915.322	0.0143601
915.400	0.0143690
915.478	0.0144196
915.557	0.0144379
915.635	0.0143507
915.713	0.0142831
915.791	0.0143333
915.869	0.0143206
915.947	0.0142899
916.025	0.0142818
916.103	0.0141533
916.182	0.0142725
916.260	0.0142974
916.338	0.0140718
916.416	0.0143378
916.494	0.0141770
916.572	0.0140483
916.650	0.0141714
916.728	0.0140971
916.807	0.0141816
916.885	0.0141847
916.963	0.0141178
917.041	0.0142660
917.119	0.0143449
917.197	0.0144868
917.275	0.0144191
917.353	0.0144283
917.432	0.0145938
917.510	0.0143230
917.588	0.0144801
917.666	0.0145153
917.744	0.0143262
917.822	0.0146360
917.900	0.0147150
917.978	0.0146447
918.057	0.0145754
918.135	0.0145379
918.213	0.0146996
918.291	0.0145728
918.369	0.0147333
918.447	0.0145930
918.525	0.0144674
918.603	0.0144579
918.682	0.0145767
918.760	0.0146474
918.838	0.0145883
918.916	0.0144447
918.994	0.0143374
919.072	0.0142756
919.150	0.0142345
919.228	0.0144444
919.307	0.0143832
919.385	0.0142132
919.463	0.0142252
919.541	0.0142432
919.619	0.0142444
919.697	0.0140815
919.775	0.0140920
919.853	0.0141402
919.932	0.0140665
920.010	0.0140269
920.088	0.0142360
920.166	0.0141881
920.244	0.0142380
920.322	0.0142612
920.400	0.0142693
920.478	0.0142768
920.557	0.0145142
920.635	0.0144762
920.713	0.0145567
920.791	0.0145026
920.869	0.0145505
920.947	0.0145911
921.025	0.0145112
921.103	0.0146313
921.182	0.0147543
921.260	0.0146284
921.338	0.0147202
921.416	0.0145795
921.494	0.0146719
921.572	0.0146206
921.650	0.0146932
921.728	0.0146364
921.807	0.0145852
921.885	0.0146255
921.963	0.0145749
922.041	0.0146076
922.119	0.0146392
922.197	0.0147252
922.275	0.0146038
922.353	0.0146150
922.432	0.0145827
922.510	0.0146255
922.588	0.0145256
922.666	0.0145937
922.744	0.0147034
922.822	0.0145184
922.900	0.0146568
922.978	0.0146459
923.057	0.0144817
923.135	0.0144419
923.213	0.0144405
923.291	0.0145759
923.369	0.0146165
923.447	0.0145396
923.525	0.0145161
923.603	0.0144524
923.682	0.0145289
923.760	0.0144417
923.838	0.0145033
923.916	0.0144852
923.994	0.0143331
924.072	0.0143510
924.150	0.0144239
924.228	0.0143465
924.307	0.0144334
924.385	0.0143529
924.463	0.0143494
924.541	0.0141354
924.619	0.0142873
924.697	0.0142213
924.775	0.0142823
924.853	0.0143539
924.932	0.0142450
925.010	0.0143665
925.088	0.0142321
925.166	0.0142224
925.244	0.0141887
925.322	0.0142405
925.400	0.0142234
925.478	0.0143272
925.557	0.0142706
925.635	0.0143433
925.713	0.0144011
925.791	0.0144428
925.869	0.0143291
925.947	0.0143200
926.025	0.0144902
926.103	0.0145405
926.182	0.0144665
926.260	0.0143822
926.338	0.0143654
926.416	0.0144624
926.494	0.0144268
926.572	0.0146064
926.650	0.0144967
926.728	0.0146295
926.807	0.0146738
926.885	0.0145660
926.963	0.0147103
927.041	0.0147258
927.119	0.0146885
927.197	0.0146352
927.275	0.0146970
927.353	0.0146555
927.432	0.0147410
927.510	0.0146535
927.588	0.0146266
927.666	0.0145483
927.744	0.0146626
927.822	0.0145954
927.900	0.0146159
927.978	0.0146358
928.057	0.0145781
928.135	0.0145706
928.213	0.0145037
928.291	0.0143650
928.369	0.0143624
928.447	0.0145288
928.525	0.0144916
928.603	0.0144638
928.682	0.0141448
928.760	0.0143357
928.838	0.0143761
928.916	0.0144443
928.994	0.0144248
929.072	0.0143793
929.150	0.0144808
929.228	0.0143742
929.307	0.0143944
929.385	0.0142881
929.463	0.0142984
929.541	0.0142877
929.619	0.0144114
929.697	0.0144004
929.775	0.0144162
929.853	0.0142796
929.932	0.0143993
930.010	0.0143092
930.088	0.0143192
930.166	0.0143496
930.244	0.0143331
930.322	0.0143470
930.400	0.0145155
930.478	0.0145001
930.557	0.0143834
930.635	0.0143942
930.713	0.0143372
930.791	0.0144913
930.869	0.0146159
930.947	0.0145433
931.025	0.0144563
931.103	0.0144899
931.182	0.0145586
931.260	0.0144080
931.338	0.0144634
931.416	0.0145477
931.494	0.0146119
931.572	0.0144846
931.650	0.0145219
931.728	0.0145166
931.807	0.0145094
931.885	0.0145871
931.963	0.0145129
932.041	0.0144803
932.119	0.0144843
932.197	0.0144276
932.275	0.0143161
932.353	0.0144557
932.432	0.0143884
932.510	0.0145770
932.588	0.0145177
932.666	0.0142471
932.744	0.0145741
932.822	0.0144755
932.900	0.0146169
932.978	0.0143999
933.057	0.0143182
933.135	0.0144966
933.213	0.0144746
933.291	0.0143914
933.369	0.0144599
933.447	0.0142155
933.525	0.0143267
933.603	0.0144933
933.682	0.0142532
933.760	0.0143603
933.838	0.0142512
933.916	0.0143802
933.994	0.0143650
934.072	0.0142528
934.150	0.0143923
934.228	0.0142249
934.307	0.0144017
934.385	0.0144172
934.463	0.0143913
934.541	0.0144173
934.619	0.0143806
934.697	0.0143696
934.775	0.0145438
934.853	0.0143491
934.932	0.0144678
935.010	0.0144839
935.088	0.0144312
935.166	0.0146266
935.244	0.0145327
935.322	0.0144287
935.400	0.0144617
935.478	0.0143424
935.557	0.0144394
935.635	0.0144402
935.713	0.0143832
935.791	0.0143959
935.869	0.0144199
935.947	0.0143816
936.025	0.0143343
936.103	0.0144502
936.182	0.0144568
936.260	0.0144586
936.338	0.0143690
936.416	0.0144099
936.494	0.0144556
936.572	0.0144884
936.650	0.0146626
936.728	0.0146645
936.807	0.0145654
936.885	0.0146147
936.963	0.0144469
937.041	0.0146867
937.119	0.0146713
937.197	0.0146504
937.275	0.0144949
937.353	0.0146010
937.432	0.0146001
937.510	0.0146327
937.588	0.0145717
937.666	0.0146278
937.744	0.0144746
937.822	0.0146694
937.900	0.0145531
937.978	0.0146474
938.057	0.0145634
938.135	0.0144183
938.213	0.0144655
938.291	0.0144337
938.369	0.0145172
938.447	0.0144083
938.525	0.0142886
938.603	0.0143562
938.682	0.0142685
938.760	0.0142945
938.838	0.0143227
938.916	0.0142311
938.994	0.0142833
939.072	0.0143541
939.150	0.0143139
939.228	0.0143745
939.307	0.0143401
939.385	0.0142426
939.463	0.0142983
939.541	0.0142713
939.619	0.0141764
939.697	0.0143803
939.775	0.0143856
939.853	0.0142702
939.932	0.0142292
940.010	0.0143042
940.088	0.0143045
940.166	0.0142955
940.244	0.0142377
940.322	0.0142609
940.400	0.0142989
940.478	0.0143903
940.557	0.0142476
940.635	0.0143233
940.713	0.0142659
940.791	0.0142583
940.869	0.0142911
940.947	0.0142436
941.025	0.0144242
941.103	0.0143523
941.182	0.0143764
941.260	0.0142835
941.338	0.0144266
941.416	0.0142773
941.494	0.0143141
941.572	0.0143442
941.650	0.0144820
941.728	0.0143334
941.807	0.0145716
941.885	0.0145316
941.963	0.0144717
942.041	0.0144288
942.119	0.0144854
942.197	0.0144849
942.275	0.0145912
942.353	0.0146141
942.432	0.0145251
942.510	0.0145036
942.588	0.0146464
942.666	0.0146489
942.744	0.0146390
942.822	0.0145320
942.900	0.0143499
942.978	0.0144884
943.057	0.0144821
943.135	0.0143417
943.213	0.0146075
943.291	0.0144252
943.369	0.0143797
943.447	0.0144070
943.525	0.0142888
943.603	0.0143693
943.682	0.0142657
943.760	0.0144461
943.838	0.0144530
943.916	0.0144584
943.994	0.0143675
944.072	0.0142358
944.150	0.0143015
944.228	0.0145470
944.307	0.0144460
944.385	0.0145415
944.463	0.0144189
944.541	0.0145412
944.619	0.0146125
944.697	0.0146365
944.775	0.0145793
944.853	0.0145972
944.932	0.0145560
945.010	0.0145060
945.088	0.0144679
945.166	0.0146189
945.244	0.0145159
945.322	0.0144949
945.400	0.0145446
945.478	0.0146462
945.557	0.0146219
945.635	0.0145264
945.713	0.0145604
945.791	0.0145666
945.869	0.0144730
945.947	0.0144804
946.025	0.0144978
946.103	0.0144637
946.182	0.0145457
946.260	0.0144578
946.338	0.0143986
946.416	0.0144507
946.494	0.0143956
946.572	0.0143920
946.650	0.0142426
946.728	0.0144026
946.807	0.0143079
946.885	0.0144660
946.963	0.0143029
947.041	0.0143638
947.119	0.0143275
947.197	0.0144347
947.275	0.0143436
947.353	0.0144455
947.432	0.0145135
947.510	0.0145379
947.588	0.0145120
947.666	0.0143363
947.744	0.0144493
947.822	0.0145114
947.900	0.0144709
947.978	0.0143697
948.057	0.0143435
948.135	0.0144232
948.213	0.0144256
948.291	0.0144403
948.369	0.0143036
948.447	0.0143549
948.525	0.0142937
948.603	0.0143353
948.682	0.0141280
948.760	0.0140801
948.838	0.0144220
948.916	0.0141875
948.994	0.0142839
949.072	0.0142477
949.150	0.0141886
949.228	0.0142915
949.307	0.0142467
949.385	0.0143044
949.463	0.0143475
949.541	0.0143483
949.619	0.0143204
949.697	0.0145129
949.775	0.0142882
949.853	0.0142593
949.932	0.0145650
950.010	0.0144551
950.088	0.0144450
950.166	0.0144833
950.244	0.0144009
950.322	0.0143602
950.400	0.0142534
950.478	0.0143774
950.557	0.0143126
950.635	0.0144120
950.713	0.0143795
950.791	0.0141339
950.869	0.0142178
950.947	0.0142826
951.025	0.0142317
951.103	0.0143076
951.182	0.0141831
951.260	0.0141859
951.338	0.0141492
951.416	0.0142014
951.494	0.0141538
951.572	0.0141232
951.650	0.0142355
951.728	0.0141745
951.807	0.0142181
951.885	0.0142439
951.963	0.0141703
952.041	0.0142368
952.119	0.0143119
952.197	0.0141866
952.275	0.0143637
952.353	0.0143712
952.432	0.0144205
952.510	0.0143660
952.588	0.0143349
952.666	0.0144302
952.744	0.0143118
952.822	0.0143253
952.900	0.0144970
952.978	0.0144180
953.057	0.0143157
953.135	0.0144003
953.213	0.0143221
953.291	0.0143666
953.369	0.0143942
953.447	0.0143462
953.525	0.0143237
953.603	0.0143295
953.682	0.0143138
953.760	0.0144470
953.838	0.0143320
953.916	0.0143433
953.994	0.0142973
954.072	0.0142677
954.150	0.0143200
954.228	0.0143923
954.307	0.0141882
954.385	0.0140926
954.463	0.0143855
954.541	0.0142815
954.619	0.0143349
954.697	0.0141568
954.775	0.0142437
954.853	0.0143549
954.932	0.0143808
955.010	0.0144007
955.088	0.0142252
955.166	0.0143295
955.244	0.0143222
955.322	0.0143839
955.400	0.0143943
955.478	0.0143175
955.557	0.0142626
955.635	0.0142692
955.713	0.0143518
955.791	0.0142601
955.869	0.0143073
955.947	0.0142586
956.025	0.0142480
956.103	0.0143024
956.182	0.0143159
956.260	0.0144057
956.338	0.0142564
956.416	0.0143505
956.494	0.0144063
956.572	0.0143356
956.650	0.0143302
956.728	0.0143471
956.807	0.0142757
956.885	0.0143219
956.963	0.0143307
957.041	0.0143032
957.119	0.0144241
957.197	0.0143925
957.275	0.0143677
957.353	0.0142965
957.432	0.0144456
957.510	0.0145016
957.588	0.0143935
957.666	0.0144337
957.744	0.0143491
957.822	0.0143979
957.900	0.0144901
957.978	0.0145717
958.057	0.0145844
958.135	0.0145572
958.213	0.0144437
958.291	0.0144970
958.369	0.0144190
958.447	0.0143468
958.525	0.0145216
958.603	0.0143982
958.682	0.0143044
958.760	0.0144019
958.838	0.0143144
958.916	0.0142888
958.994	0.0141994
959.072	0.0143755
959.150	0.0142977
959.228	0.0141821
959.307	0.0140231
959.385	0.0141946
959.463	0.0142232
959.541	0.0141334
959.619	0.0141769
959.697	0.0141837
959.775	0.0140852
959.853	0.0141484
959.932	0.0142566
960.010	0.0141525
960.088	0.0141676
960.166	0.0141509
960.244	0.0141687
960.322	0.0142218
960.400	0.0145337
960.478	0.0144109
960.557	0.0142083
960.635	0.0142831
960.713	0.0142708
960.791	0.0143231
960.869	0.0143863
960.947	0.0142516
961.025	0.0143046
961.103	0.0143929
961.182	0.0144920
961.260	0.0144156
961.338	0.0143678
961.416	0.0144742
961.494	0.0145215
961.572	0.0144321
961.650	0.0143050
961.728	0.0145164
961.807	0.0144476
961.885	0.0145461
961.963	0.0144781
962.041	0.0143909
962.119	0.0145131
962.197	0.0145285
962.275	0.0145390
962.353	0.0145689
962.432	0.0145340
962.510	0.0145583
962.588	0.0145510
962.666	0.0145032
962.744	0.0147868
962.822	0.0146664
962.900	0.0148385
962.978	0.0145951
963.057	0.0145450
963.135	0.0146333
963.213	0.0146918
963.291	0.0145154
963.369	0.0144788
963.447	0.0145749
963.525	0.0144485
963.603	0.0143410
963.682	0.0144059
963.760	0.0146136
963.838	0.0143892
963.916	0.0142271
963.994	0.0144328
964.072	0.0144362
964.150	0.0143260
964.228	0.0143486
964.307	0.0143596
964.385	0.0143919
964.463	0.0143612
964.541	0.0144217
964.619	0.0144120
964.697	0.0144720
964.775	0.0144903
964.853	0.0144331
964.932	0.0142552
965.010	0.0144102
965.088	0.0143997
965.166	0.0144318
965.244	0.0144017
965.322	0.0144981
965.400	0.0146628
965.478	0.0144662
965.557	0.0145174
965.635	0.0143863
965.713	0.0146799
965.791	0.0145953
965.869	0.0145760
965.947	0.0147044
966.025	0.0145082
966.103	0.0146875
966.182	0.0145910
966.260	0.0146167
966.338	0.0147089
966.416	0.0145909
966.494	0.0145148
966.572	0.0146169
966.650	0.0145467
966.728	0.0145633
966.807	0.0145764
966.885	0.0145036
966.963	0.0145491
967.041	0.0144738
967.119	0.0143761
967.197	0.0144188
967.275	0.0143462
967.353	0.0144234
967.432	0.0143977
967.510	0.0144675
967.588	0.0144624
967.666	0.0143750
967.744	0.0143591
967.822	0.0144062
967.900	0.0145729
967.978	0.0143655
968.057	0.0144721
968.135	0.0143542
968.213	0.0143227
968.291	0.0144544
968.369	0.0144260
968.447	0.0144616
968.525	0.0145655
968.603	0.0145053
968.682	0.0144151
968.760	0.0142835
968.838	0.0142968
968.916	0.0143114
968.994	0.0144216
969.072	0.0144494
969.150	0.0142377
969.228	0.0142387
969.307	0.0142594
969.385	0.0142318
969.463	0.0143681
969.541	0.0143663
969.619	0.0142082
969.697	0.0142763
969.775	0.0142764
969.853	0.0140280
969.932	0.0142361
