05/14/2022	19:30:00	Ver.	4.1	UNKNOWN
Optical Delay	650.009681	Delta X		0.078125	Sweeps	1	Scan Rate	0/0
Coordinates	Axis 1	NaN	Axis 2	NaN	Axis 3	NaN	Axis 4	NaN	Axis 5	NaN	Axis 6	0.000000
TX Power	0.000000	RX Power	0.000000

650.010	0.0145734
650.088	0.0146672
650.166	0.0147462
650.244	0.0146744
650.322	0.0145844
650.400	0.0146498
650.478	0.0144981
650.557	0.0145319
650.635	0.0146622
650.713	0.0147633
650.791	0.0145920
650.869	0.0146638
650.947	0.0147330
651.025	0.0146368
651.103	0.0145980
651.182	0.0146188
651.260	0.0146635
651.338	0.0145962
651.416	0.0146382
651.494	0.0147367
651.572	0.0144966
651.650	0.0146413
651.728	0.0146575
651.807	0.0145895
651.885	0.0146387
651.963	0.0147279
652.041	0.0146575
652.119	0.0146488
652.197	0.0145245
652.275	0.0147269
652.353	0.0147779
652.432	0.0146095
652.510	0.0146681
652.588	0.0146702
652.666	0.0147855
652.744	0.0147410
652.822	0.0147076
652.900	0.0146017
652.978	0.0146649
653.057	0.0147399
653.135	0.0145944
653.213	0.0144585
653.291	0.0147212
653.369	0.0146172
653.447	0.0145895
653.525	0.0145948
653.603	0.0146436
653.682	0.0145692
653.760	0.0144323
653.838	0.0145010
653.916	0.0145337
653.994	0.0146136
654.072	0.0147103
654.150	0.0146010
654.228	0.0146377
654.307	0.0146325
654.385	0.0145834
654.463	0.0146413
654.541	0.0147061
654.619	0.0147109
654.697	0.0145804
654.775	0.0148008
654.853	0.0146897
654.932	0.0147617
655.010	0.0146024
655.088	0.0146479
655.166	0.0147230
655.244	0.0148701
655.322	0.0148800
655.400	0.0148413
655.478	0.0147355
655.557	0.0146332
655.635	0.0148566
655.713	0.0146960
655.791	0.0147585
655.869	0.0146827
655.947	0.0147680
656.025	0.0147423
656.103	0.0146342
656.182	0.0146484
656.260	0.0145319
656.338	0.0147800
656.416	0.0147308
656.494	0.0147553
656.572	0.0146643
656.650	0.0145960
656.728	0.0148125
656.807	0.0146785
656.885	0.0145284
656.963	0.0146584
657.041	0.0146845
657.119	0.0146810
657.197	0.0145389
657.275	0.0146367
657.353	0.0146312
657.432	0.0148190
657.510	0.0146685
657.588	0.0146904
657.666	0.0147160
657.744	0.0147029
657.822	0.0146397
657.900	0.0147057
657.978	0.0147157
658.057	0.0147470
658.135	0.0146929
658.213	0.0147160
658.291	0.0146217
658.369	0.0146391
658.447	0.0146745
658.525	0.0145930
658.603	0.0147341
658.682	0.0147982
658.760	0.0146357
658.838	0.0146526
658.916	0.0147485
658.994	0.0146163
659.072	0.0147115
659.150	0.0147366
659.228	0.0145857
659.307	0.0147292
659.385	0.0148072
659.463	0.0146410
659.541	0.0145296
659.619	0.0147207
659.697	0.0145599
659.775	0.0146661
659.853	0.0144939
659.932	0.0145533
660.010	0.0147284
660.088	0.0146124
660.166	0.0144915
660.244	0.0146382
660.322	0.0146360
660.400	0.0145930
660.478	0.0145961
660.557	0.0146340
660.635	0.0146711
660.713	0.0145535
660.791	0.0147041
660.869	0.0145785
660.947	0.0146101
661.025	0.0146288
661.103	0.0146489
661.182	0.0146374
661.260	0.0146548
661.338	0.0146739
661.416	0.0148092
661.494	0.0146341
661.572	0.0145946
661.650	0.0145430
661.728	0.0146071
661.807	0.0146327
661.885	0.0144753
661.963	0.0146203
662.041	0.0145633
662.119	0.0147039
662.197	0.0146049
662.275	0.0145188
662.353	0.0144506
662.432	0.0147446
662.510	0.0144627
662.588	0.0144917
662.666	0.0146590
662.744	0.0146230
662.822	0.0145345
662.900	0.0146832
662.978	0.0145458
663.057	0.0146061
663.135	0.0145932
663.213	0.0145812
663.291	0.0145406
663.369	0.0144177
663.447	0.0144756
663.525	0.0145536
663.603	0.0145913
663.682	0.0144350
663.760	0.0146286
663.838	0.0148194
663.916	0.0145972
663.994	0.0147407
664.072	0.0146558
664.150	0.0147054
664.228	0.0147445
664.307	0.0145821
664.385	0.0145728
664.463	0.0147216
664.541	0.0146667
664.619	0.0146876
664.697	0.0147246
664.775	0.0148418
664.853	0.0146997
664.932	0.0147131
665.010	0.0146732
665.088	0.0148345
665.166	0.0148456
665.244	0.0147134
665.322	0.0147371
665.400	0.0147775
665.478	0.0147694
665.557	0.0145705
665.635	0.0145019
665.713	0.0145094
665.791	0.0145045
665.869	0.0143988
665.947	0.0143803
666.025	0.0143465
666.103	0.0140922
666.182	0.0141744
666.260	0.0141624
666.338	0.0141482
666.416	0.0140526
666.494	0.0141665
666.572	0.0139967
666.650	0.0140280
666.728	0.0143223
666.807	0.0143704
666.885	0.0144714
666.963	0.0146290
667.041	0.0147771
667.119	0.0149596
667.197	0.0150094
667.275	0.0151825
667.353	0.0153208
667.432	0.0153300
667.510	0.0155280
667.588	0.0155598
667.666	0.0156197
667.744	0.0156577
667.822	0.0154681
667.900	0.0155148
667.978	0.0155193
668.057	0.0152476
668.135	0.0150723
668.213	0.0150149
668.291	0.0146204
668.369	0.0144617
668.447	0.0140989
668.525	0.0138818
668.603	0.0136221
668.682	0.0133965
668.760	0.0131136
668.838	0.0127731
668.916	0.0127046
668.994	0.0127906
669.072	0.0128144
669.150	0.0127543
669.228	0.0128865
669.307	0.0130904
669.385	0.0132654
669.463	0.0135768
669.541	0.0138375
669.619	0.0141985
669.697	0.0145506
669.775	0.0150809
669.853	0.0154438
669.932	0.0158010
670.010	0.0161832
670.088	0.0166108
670.166	0.0168756
670.244	0.0170360
670.322	0.0172208
670.400	0.0172878
670.478	0.0171381
670.557	0.0170512
670.635	0.0170309
670.713	0.0166345
670.791	0.0162605
670.869	0.0159007
670.947	0.0154420
671.025	0.0151069
671.103	0.0146735
671.182	0.0140458
671.260	0.0136398
671.338	0.0131788
671.416	0.0127351
671.494	0.0122630
671.572	0.0120248
671.650	0.0117123
671.728	0.0114466
671.807	0.0113435
671.885	0.0113465
671.963	0.0113264
672.041	0.0116335
672.119	0.0116045
672.197	0.0118132
672.275	0.0123776
672.353	0.0128400
672.432	0.0132323
672.510	0.0138825
672.588	0.0144105
672.666	0.0150543
672.744	0.0154392
672.822	0.0160183
672.900	0.0164606
672.978	0.0169175
673.057	0.0172621
673.135	0.0175384
673.213	0.0177492
673.291	0.0178278
673.369	0.0178743
673.447	0.0178916
673.525	0.0178270
673.603	0.0176859
673.682	0.0172133
673.760	0.0169791
673.838	0.0165173
673.916	0.0161485
673.994	0.0157422
674.072	0.0153809
674.150	0.0150753
674.228	0.0144614
674.307	0.0139815
674.385	0.0138335
674.463	0.0133777
674.541	0.0131250
674.619	0.0127364
674.697	0.0124426
674.775	0.0123839
674.853	0.0121343
674.932	0.0119209
675.010	0.0120504
675.088	0.0120111
675.166	0.0121457
675.244	0.0122021
675.322	0.0124427
675.400	0.0125677
675.478	0.0129195
675.557	0.0133625
675.635	0.0136176
675.713	0.0140945
675.791	0.0145071
675.869	0.0148424
675.947	0.0150605
676.025	0.0154600
676.103	0.0155830
676.182	0.0160139
676.260	0.0162629
676.338	0.0164994
676.416	0.0165457
676.494	0.0166243
676.572	0.0167570
676.650	0.0164838
676.728	0.0165274
676.807	0.0164497
676.885	0.0161951
676.963	0.0161014
677.041	0.0159301
677.119	0.0157547
677.197	0.0153937
677.275	0.0151406
677.353	0.0149559
677.432	0.0148303
677.510	0.0146127
677.588	0.0144011
677.666	0.0144396
677.744	0.0142241
677.822	0.0141454
677.900	0.0141877
677.978	0.0141343
678.057	0.0140202
678.135	0.0141873
678.213	0.0142486
678.291	0.0142686
678.369	0.0142205
678.447	0.0142408
678.525	0.0142723
678.603	0.0141917
678.682	0.0141418
678.760	0.0141525
678.838	0.0141976
678.916	0.0142259
678.994	0.0141511
679.072	0.0143252
679.150	0.0144012
679.228	0.0143117
679.307	0.0143034
679.385	0.0143741
679.463	0.0145177
679.541	0.0145786
679.619	0.0145567
679.697	0.0148212
679.775	0.0148946
679.853	0.0148917
679.932	0.0150943
680.010	0.0150558
680.088	0.0151055
680.166	0.0150894
680.244	0.0150100
680.322	0.0151025
680.400	0.0149706
680.478	0.0151708
680.557	0.0150116
680.635	0.0149431
680.713	0.0149760
680.791	0.0148460
680.869	0.0147083
680.947	0.0146925
681.025	0.0143188
681.103	0.0141776
681.182	0.0139575
681.260	0.0138390
681.338	0.0136053
681.416	0.0133379
681.494	0.0132639
681.572	0.0129953
681.650	0.0128533
681.728	0.0126631
681.807	0.0129137
681.885	0.0130033
681.963	0.0130828
682.041	0.0131242
682.119	0.0135289
682.197	0.0138474
682.275	0.0141413
682.353	0.0144772
682.432	0.0149546
682.510	0.0151582
682.588	0.0155530
682.666	0.0156628
682.744	0.0159557
682.822	0.0162918
682.900	0.0165080
682.978	0.0167658
683.057	0.0169308
683.135	0.0167245
683.213	0.0169563
683.291	0.0168445
683.369	0.0167123
683.447	0.0165657
683.525	0.0163360
683.603	0.0160932
683.682	0.0159407
683.760	0.0157339
683.838	0.0153580
683.916	0.0151828
683.994	0.0149125
684.072	0.0146659
684.150	0.0143287
684.228	0.0140437
684.307	0.0139735
684.385	0.0138041
684.463	0.0135492
684.541	0.0134081
684.619	0.0133849
684.697	0.0132141
684.775	0.0131723
684.853	0.0130598
684.932	0.0128760
685.010	0.0127460
685.088	0.0126852
685.166	0.0125876
685.244	0.0124866
685.322	0.0124349
685.400	0.0123566
685.478	0.0123402
685.557	0.0122971
685.635	0.0124531
685.713	0.0124419
685.791	0.0126643
685.869	0.0128877
685.947	0.0128719
686.025	0.0132990
686.103	0.0136236
686.182	0.0138402
686.260	0.0140990
686.338	0.0142508
686.416	0.0144705
686.494	0.0149213
686.572	0.0150066
686.650	0.0152545
686.728	0.0154095
686.807	0.0155691
686.885	0.0156845
686.963	0.0157809
687.041	0.0160011
687.119	0.0161646
687.197	0.0162079
687.275	0.0161819
687.353	0.0164523
687.432	0.0166748
687.510	0.0167411
687.588	0.0166978
687.666	0.0168227
687.744	0.0170998
687.822	0.0170788
687.900	0.0168989
687.978	0.0170876
688.057	0.0170194
688.135	0.0167176
688.213	0.0167278
688.291	0.0165938
688.369	0.0164993
688.447	0.0162902
688.525	0.0160404
688.603	0.0157545
688.682	0.0154820
688.760	0.0154205
688.838	0.0150562
688.916	0.0148359
688.994	0.0146026
689.072	0.0143388
689.150	0.0140482
689.228	0.0137632
689.307	0.0134557
689.385	0.0132399
689.463	0.0129665
689.541	0.0127534
689.619	0.0125066
689.697	0.0121476
689.775	0.0118748
689.853	0.0117308
689.932	0.0113100
690.010	0.0111607
690.088	0.0108884
690.166	0.0104485
690.244	0.0106458
690.322	0.0104767
690.400	0.0105536
690.478	0.0106744
690.557	0.0107544
690.635	0.0108465
690.713	0.0113014
690.791	0.0114873
690.869	0.0117224
690.947	0.0122393
691.025	0.0126841
691.103	0.0134266
691.182	0.0139194
691.260	0.0145701
691.338	0.0151396
691.416	0.0157040
691.494	0.0164108
691.572	0.0171297
691.650	0.0176390
691.728	0.0182845
691.807	0.0187297
691.885	0.0189854
691.963	0.0192729
692.041	0.0196223
692.119	0.0196859
692.197	0.0196879
692.275	0.0194736
692.353	0.0193241
692.432	0.0191409
692.510	0.0188546
692.588	0.0183089
692.666	0.0180692
692.744	0.0176366
692.822	0.0172096
692.900	0.0168008
692.978	0.0163770
693.057	0.0160174
693.135	0.0157648
693.213	0.0150988
693.291	0.0147897
693.369	0.0143658
693.447	0.0136338
693.525	0.0133435
693.603	0.0130066
693.682	0.0125948
693.760	0.0123298
693.838	0.0120142
693.916	0.0117731
693.994	0.0116381
694.072	0.0115737
694.150	0.0115523
694.228	0.0115632
694.307	0.0117801
694.385	0.0118403
694.463	0.0118692
694.541	0.0120973
694.619	0.0125111
694.697	0.0127426
694.775	0.0129415
694.853	0.0130027
694.932	0.0134789
695.010	0.0136059
695.088	0.0136191
695.166	0.0138222
695.244	0.0137883
695.322	0.0138744
695.400	0.0137974
695.478	0.0137779
695.557	0.0135853
695.635	0.0135348
695.713	0.0134204
695.791	0.0133327
695.869	0.0132224
695.947	0.0132330
696.025	0.0132414
696.103	0.0132825
696.182	0.0132880
696.260	0.0135114
696.338	0.0138168
696.416	0.0139751
696.494	0.0142915
696.572	0.0146382
696.650	0.0149533
696.728	0.0155988
696.807	0.0160535
696.885	0.0164413
696.963	0.0169109
697.041	0.0174256
697.119	0.0175907
697.197	0.0179144
697.275	0.0182470
697.353	0.0182632
697.432	0.0183755
697.510	0.0184455
697.588	0.0183269
697.666	0.0185018
697.744	0.0183257
697.822	0.0180637
697.900	0.0178944
697.978	0.0175426
698.057	0.0172710
698.135	0.0170012
698.213	0.0166290
698.291	0.0163360
698.369	0.0157583
698.447	0.0153954
698.525	0.0149437
698.603	0.0144796
698.682	0.0140176
698.760	0.0135886
698.838	0.0131869
698.916	0.0126425
698.994	0.0123537
699.072	0.0121400
699.150	0.0119582
699.228	0.0117413
699.307	0.0117400
699.385	0.0118383
699.463	0.0119585
699.541	0.0119182
699.619	0.0121170
699.697	0.0122968
699.775	0.0124931
699.853	0.0126348
699.932	0.0128497
700.010	0.0128696
700.088	0.0132473
700.166	0.0133221
700.244	0.0134124
700.322	0.0135459
700.400	0.0137907
700.478	0.0137570
700.557	0.0139258
700.635	0.0141315
700.713	0.0143037
700.791	0.0143641
700.869	0.0143772
700.947	0.0144690
701.025	0.0146342
701.103	0.0147527
701.182	0.0144640
701.260	0.0146181
701.338	0.0145647
701.416	0.0145646
701.494	0.0144008
701.572	0.0141482
701.650	0.0142476
701.728	0.0142382
701.807	0.0141840
701.885	0.0140982
701.963	0.0141002
702.041	0.0143029
702.119	0.0142583
702.197	0.0143407
702.275	0.0147490
702.353	0.0152377
702.432	0.0155029
702.510	0.0158453
702.588	0.0161162
702.666	0.0165639
702.744	0.0169327
702.822	0.0172208
702.900	0.0173817
702.978	0.0175754
703.057	0.0178003
703.135	0.0178181
703.213	0.0176877
703.291	0.0176408
703.369	0.0174650
703.447	0.0173293
703.525	0.0169567
703.603	0.0165432
703.682	0.0161594
703.760	0.0158244
703.838	0.0153574
703.916	0.0150011
703.994	0.0146067
704.072	0.0141553
704.150	0.0138898
704.228	0.0134814
704.307	0.0132961
704.385	0.0131081
704.463	0.0128991
704.541	0.0127401
704.619	0.0127044
704.697	0.0127979
704.775	0.0126960
704.853	0.0127645
704.932	0.0128924
705.010	0.0129571
705.088	0.0131358
705.166	0.0131564
705.244	0.0131829
705.322	0.0134609
705.400	0.0135626
705.478	0.0135979
705.557	0.0135683
705.635	0.0136803
705.713	0.0137226
705.791	0.0134914
705.869	0.0134494
705.947	0.0132280
706.025	0.0131785
706.103	0.0131920
706.182	0.0132370
706.260	0.0131478
706.338	0.0130021
706.416	0.0130813
706.494	0.0131682
706.572	0.0131406
706.650	0.0134946
706.728	0.0135232
706.807	0.0138095
706.885	0.0140210
706.963	0.0143465
707.041	0.0146041
707.119	0.0148524
707.197	0.0151918
707.275	0.0154106
707.353	0.0155105
707.432	0.0157484
707.510	0.0159788
707.588	0.0161314
707.666	0.0160918
707.744	0.0161743
707.822	0.0162787
707.900	0.0163315
707.978	0.0161608
708.057	0.0162135
708.135	0.0161527
708.213	0.0160596
708.291	0.0161710
708.369	0.0160094
708.447	0.0157803
708.525	0.0158681
708.603	0.0156353
708.682	0.0154620
708.760	0.0153864
708.838	0.0151064
708.916	0.0149552
708.994	0.0147146
709.072	0.0145586
709.150	0.0142240
709.228	0.0138728
709.307	0.0136880
709.385	0.0135390
709.463	0.0132657
709.541	0.0129847
709.619	0.0128407
709.697	0.0128788
709.775	0.0127262
709.853	0.0126019
709.932	0.0127283
710.010	0.0128242
710.088	0.0129192
710.166	0.0132246
710.244	0.0135731
710.322	0.0136609
710.400	0.0139941
710.478	0.0144110
710.557	0.0147786
710.635	0.0148947
710.713	0.0153027
710.791	0.0154453
710.869	0.0155203
710.947	0.0157265
711.025	0.0158847
711.103	0.0159377
711.182	0.0158205
711.260	0.0158511
711.338	0.0156771
711.416	0.0157641
711.494	0.0154913
711.572	0.0153426
711.650	0.0152219
711.728	0.0149657
711.807	0.0147228
711.885	0.0143952
711.963	0.0143770
712.041	0.0140201
712.119	0.0136658
712.197	0.0135280
712.275	0.0133099
712.353	0.0132085
712.432	0.0130658
712.510	0.0128814
712.588	0.0128864
712.666	0.0128477
712.744	0.0128844
712.822	0.0128490
712.900	0.0130518
712.978	0.0132738
713.057	0.0132008
713.135	0.0135603
713.213	0.0136723
713.291	0.0138470
713.369	0.0139019
713.447	0.0139858
713.525	0.0142531
713.603	0.0142952
713.682	0.0146967
713.760	0.0145900
713.838	0.0147792
713.916	0.0149972
713.994	0.0151915
714.072	0.0153648
714.150	0.0153303
714.228	0.0155980
714.307	0.0156929
714.385	0.0154301
714.463	0.0156130
714.541	0.0156809
714.619	0.0157539
714.697	0.0156013
714.775	0.0155566
714.853	0.0156039
714.932	0.0156711
715.010	0.0154922
715.088	0.0154131
715.166	0.0153345
715.244	0.0152715
715.322	0.0152209
715.400	0.0150146
715.478	0.0149213
715.557	0.0150124
715.635	0.0149422
715.713	0.0148579
715.791	0.0148453
715.869	0.0146107
715.947	0.0147021
716.025	0.0146693
716.103	0.0146295
716.182	0.0146344
716.260	0.0146114
716.338	0.0146719
716.416	0.0146072
716.494	0.0146275
716.572	0.0147039
716.650	0.0148926
716.728	0.0145782
716.807	0.0147205
716.885	0.0147185
716.963	0.0146765
717.041	0.0145725
717.119	0.0146989
717.197	0.0144703
717.275	0.0144183
717.353	0.0144318
717.432	0.0144032
717.510	0.0143022
717.588	0.0142992
717.666	0.0144079
717.744	0.0144289
717.822	0.0143352
717.900	0.0143049
717.978	0.0143060
718.057	0.0143129
718.135	0.0142805
718.213	0.0142213
718.291	0.0142545
718.369	0.0142716
718.447	0.0142527
718.525	0.0141567
718.603	0.0141786
718.682	0.0141723
718.760	0.0142441
718.838	0.0144345
718.916	0.0141613
718.994	0.0144759
719.072	0.0145020
719.150	0.0144847
719.228	0.0146346
719.307	0.0145799
719.385	0.0145889
719.463	0.0146829
719.541	0.0146520
719.619	0.0146271
719.697	0.0146027
719.775	0.0144776
719.853	0.0144702
719.932	0.0145306
720.010	0.0145377
720.088	0.0144860
720.166	0.0144077
720.244	0.0142793
720.322	0.0144514
720.400	0.0143871
720.478	0.0141978
720.557	0.0142841
720.635	0.0143811
720.713	0.0143021
720.791	0.0142909
720.869	0.0141637
720.947	0.0141850
721.025	0.0143118
721.103	0.0143959
721.182	0.0144177
721.260	0.0144810
721.338	0.0145231
721.416	0.0147797
721.494	0.0149878
721.572	0.0151072
721.650	0.0153334
721.728	0.0154208
721.807	0.0155116
721.885	0.0156268
721.963	0.0157765
722.041	0.0158353
722.119	0.0158580
722.197	0.0157907
722.275	0.0160527
722.353	0.0158911
722.432	0.0159171
722.510	0.0158982
722.588	0.0157714
722.666	0.0158179
722.744	0.0156266
722.822	0.0156651
722.900	0.0154655
722.978	0.0152202
723.057	0.0150764
723.135	0.0150707
723.213	0.0148740
723.291	0.0146190
723.369	0.0144850
723.447	0.0143125
723.525	0.0140192
723.603	0.0139111
723.682	0.0137222
723.760	0.0136498
723.838	0.0136844
723.916	0.0135509
723.994	0.0136372
724.072	0.0135535
724.150	0.0137286
724.228	0.0137325
724.307	0.0137056
724.385	0.0137309
724.463	0.0138259
724.541	0.0138652
724.619	0.0138880
724.697	0.0139441
724.775	0.0138299
724.853	0.0139523
724.932	0.0138169
725.010	0.0137376
725.088	0.0135420
725.166	0.0136407
725.244	0.0135426
725.322	0.0135678
725.400	0.0135780
725.478	0.0133993
725.557	0.0133936
725.635	0.0133900
725.713	0.0132959
725.791	0.0135682
725.869	0.0135720
725.947	0.0135451
726.025	0.0136942
726.103	0.0138583
726.182	0.0138097
726.260	0.0140809
726.338	0.0142994
726.416	0.0144390
726.494	0.0146287
726.572	0.0147666
726.650	0.0148208
726.728	0.0149208
726.807	0.0150007
726.885	0.0151441
726.963	0.0151979
727.041	0.0154324
727.119	0.0155845
727.197	0.0156202
727.275	0.0155794
727.353	0.0155018
727.432	0.0154821
727.510	0.0156946
727.588	0.0156915
727.666	0.0156423
727.744	0.0156714
727.822	0.0158497
727.900	0.0157216
727.978	0.0157578
728.057	0.0157648
728.135	0.0157961
728.213	0.0157020
728.291	0.0156561
728.369	0.0153610
728.447	0.0153795
728.525	0.0152191
728.603	0.0151043
728.682	0.0149584
728.760	0.0149313
728.838	0.0147280
728.916	0.0147376
728.994	0.0144891
729.072	0.0145645
729.150	0.0144777
729.228	0.0144845
729.307	0.0143410
729.385	0.0144917
729.463	0.0144412
729.541	0.0144270
729.619	0.0141235
729.697	0.0141205
729.775	0.0142135
729.853	0.0140814
729.932	0.0139460
730.010	0.0139224
730.088	0.0138019
730.166	0.0138226
730.244	0.0136689
730.322	0.0137202
730.400	0.0136435
730.478	0.0135619
730.557	0.0136585
730.635	0.0135654
730.713	0.0136337
730.791	0.0134785
730.869	0.0135915
730.947	0.0136507
731.025	0.0135123
731.103	0.0138479
731.182	0.0139986
731.260	0.0137825
731.338	0.0140025
731.416	0.0140738
731.494	0.0140756
731.572	0.0143746
731.650	0.0143040
731.728	0.0143743
731.807	0.0143919
731.885	0.0143324
731.963	0.0144379
732.041	0.0145894
732.119	0.0146297
732.197	0.0146161
732.275	0.0147081
732.353	0.0148170
732.432	0.0147573
732.510	0.0150293
732.588	0.0150237
732.666	0.0150469
732.744	0.0151704
732.822	0.0150742
732.900	0.0151263
732.978	0.0152008
733.057	0.0153413
733.135	0.0151649
733.213	0.0152070
733.291	0.0153284
733.369	0.0153098
733.447	0.0153368
733.525	0.0155257
733.603	0.0155009
733.682	0.0155324
733.760	0.0153309
733.838	0.0153556
733.916	0.0154344
733.994	0.0153471
734.072	0.0152791
734.150	0.0151566
734.228	0.0149817
734.307	0.0148627
734.385	0.0149963
734.463	0.0150977
734.541	0.0148740
734.619	0.0148523
734.697	0.0146426
734.775	0.0147589
734.853	0.0146198
734.932	0.0146105
735.010	0.0147073
735.088	0.0146243
735.166	0.0146644
735.244	0.0144797
735.322	0.0143706
735.400	0.0145207
735.478	0.0143729
735.557	0.0143221
735.635	0.0143179
735.713	0.0141190
735.791	0.0141537
735.869	0.0140086
735.947	0.0138474
736.025	0.0139368
736.103	0.0138480
736.182	0.0139731
736.260	0.0138857
736.338	0.0138305
736.416	0.0139389
736.494	0.0138618
736.572	0.0139288
736.650	0.0139508
736.728	0.0139691
736.807	0.0141615
736.885	0.0141119
736.963	0.0140469
737.041	0.0141439
737.119	0.0144228
737.197	0.0143895
737.275	0.0144338
737.353	0.0144738
737.432	0.0145034
737.510	0.0143831
737.588	0.0146397
737.666	0.0146590
737.744	0.0147070
737.822	0.0147342
737.900	0.0147949
737.978	0.0145226
738.057	0.0146684
738.135	0.0146416
738.213	0.0147065
738.291	0.0146118
738.369	0.0146893
738.447	0.0146425
738.525	0.0147953
738.603	0.0145901
738.682	0.0146424
738.760	0.0146255
738.838	0.0147602
738.916	0.0148533
738.994	0.0147761
739.072	0.0150263
739.150	0.0149552
739.228	0.0149596
739.307	0.0149633
739.385	0.0148678
739.463	0.0149809
739.541	0.0149486
739.619	0.0149162
739.697	0.0149729
739.775	0.0149418
739.853	0.0149019
739.932	0.0149322
740.010	0.0149418
740.088	0.0149229
740.166	0.0148209
740.244	0.0149854
740.322	0.0147702
740.400	0.0149287
740.478	0.0147868
740.557	0.0147351
740.635	0.0146803
740.713	0.0147610
740.791	0.0147517
740.869	0.0148027
740.947	0.0147207
741.025	0.0148151
741.103	0.0147547
741.182	0.0146078
741.260	0.0147404
741.338	0.0146830
741.416	0.0146874
741.494	0.0146503
741.572	0.0147546
741.650	0.0146181
741.728	0.0145857
741.807	0.0144196
741.885	0.0143869
741.963	0.0144498
742.041	0.0143786
742.119	0.0144153
742.197	0.0144547
742.275	0.0142604
742.353	0.0143409
742.432	0.0144060
742.510	0.0143665
742.588	0.0143808
742.666	0.0145443
742.744	0.0144522
742.822	0.0145117
742.900	0.0145144
742.978	0.0147083
743.057	0.0147458
743.135	0.0148643
743.213	0.0148695
743.291	0.0150043
743.369	0.0149146
743.447	0.0150077
743.525	0.0150788
743.603	0.0151005
743.682	0.0152258
743.760	0.0152408
743.838	0.0150334
743.916	0.0151411
743.994	0.0151488
744.072	0.0150896
744.150	0.0149435
744.228	0.0148956
744.307	0.0147850
744.385	0.0148478
744.463	0.0146333
744.541	0.0144614
744.619	0.0144848
744.697	0.0143410
744.775	0.0142784
744.853	0.0143911
744.932	0.0142738
745.010	0.0142004
745.088	0.0143245
745.166	0.0142928
745.244	0.0141650
745.322	0.0142989
745.400	0.0143489
745.478	0.0143108
745.557	0.0143446
745.635	0.0142761
745.713	0.0143294
745.791	0.0143433
745.869	0.0143781
745.947	0.0144288
746.025	0.0145457
746.103	0.0145654
746.182	0.0145729
746.260	0.0145982
746.338	0.0146482
746.416	0.0147218
746.494	0.0148125
746.572	0.0147836
746.650	0.0148557
746.728	0.0148499
746.807	0.0148447
746.885	0.0148658
746.963	0.0149538
747.041	0.0148665
747.119	0.0148558
747.197	0.0148930
747.275	0.0148372
747.353	0.0148627
747.432	0.0147522
747.510	0.0147283
747.588	0.0149128
747.666	0.0148121
747.744	0.0146155
747.822	0.0146677
747.900	0.0146385
747.978	0.0146352
748.057	0.0145739
748.135	0.0146091
748.213	0.0145764
748.291	0.0145869
748.369	0.0145063
748.447	0.0144293
748.525	0.0145344
748.603	0.0143324
748.682	0.0143172
748.760	0.0145299
748.838	0.0142916
748.916	0.0143632
748.994	0.0144409
749.072	0.0143817
749.150	0.0143813
749.228	0.0144510
749.307	0.0145769
749.385	0.0146042
749.463	0.0145422
749.541	0.0145486
749.619	0.0145129
749.697	0.0145734
749.775	0.0145350
749.853	0.0145788
749.932	0.0146178
750.010	0.0147764
750.088	0.0146006
750.166	0.0145473
750.244	0.0146510
750.322	0.0147946
750.400	0.0147586
750.478	0.0147039
750.557	0.0148079
750.635	0.0149399
750.713	0.0149323
750.791	0.0150263
750.869	0.0149936
750.947	0.0148391
751.025	0.0148222
751.103	0.0148523
751.182	0.0146497
751.260	0.0145972
751.338	0.0145453
751.416	0.0145451
751.494	0.0145143
751.572	0.0144583
751.650	0.0143434
751.728	0.0144767
751.807	0.0143707
751.885	0.0142341
751.963	0.0143817
752.041	0.0142583
752.119	0.0142129
752.197	0.0141489
752.275	0.0141240
752.353	0.0140946
752.432	0.0142119
752.510	0.0140462
752.588	0.0140679
752.666	0.0142482
752.744	0.0142205
752.822	0.0143128
752.900	0.0143195
752.978	0.0143007
753.057	0.0143677
753.135	0.0145511
753.213	0.0147009
753.291	0.0146562
753.369	0.0147479
753.447	0.0148075
753.525	0.0148120
753.603	0.0148720
753.682	0.0148540
753.760	0.0147559
753.838	0.0147998
753.916	0.0149821
753.994	0.0147899
754.072	0.0147800
754.150	0.0148293
754.228	0.0147229
754.307	0.0147354
754.385	0.0147448
754.463	0.0148533
754.541	0.0147065
754.619	0.0146494
754.697	0.0147138
754.775	0.0147284
754.853	0.0147295
754.932	0.0147118
755.010	0.0145806
755.088	0.0145267
755.166	0.0144773
755.244	0.0144730
755.322	0.0145492
755.400	0.0144914
755.478	0.0145090
755.557	0.0145387
755.635	0.0145838
755.713	0.0144431
755.791	0.0143069
755.869	0.0144763
755.947	0.0144788
756.025	0.0144084
756.103	0.0144144
756.182	0.0144954
756.260	0.0143436
756.338	0.0143092
756.416	0.0143581
756.494	0.0143633
756.572	0.0142912
756.650	0.0143220
756.728	0.0145486
756.807	0.0145629
756.885	0.0144551
756.963	0.0145890
757.041	0.0145104
757.119	0.0145432
757.197	0.0145723
757.275	0.0144720
757.353	0.0146363
757.432	0.0146426
757.510	0.0147606
757.588	0.0148438
757.666	0.0147752
757.744	0.0144357
757.822	0.0147379
757.900	0.0146557
757.978	0.0145999
758.057	0.0146648
758.135	0.0144363
758.213	0.0143293
758.291	0.0144896
758.369	0.0144156
758.447	0.0145006
758.525	0.0144563
758.603	0.0145308
758.682	0.0145786
758.760	0.0145315
758.838	0.0145463
758.916	0.0147003
758.994	0.0146913
759.072	0.0147353
759.150	0.0147906
759.228	0.0146769
759.307	0.0145898
759.385	0.0146504
759.463	0.0146794
759.541	0.0146958
759.619	0.0146372
759.697	0.0146211
759.775	0.0146803
759.853	0.0148005
759.932	0.0147363
760.010	0.0146899
760.088	0.0146853
760.166	0.0147491
760.244	0.0147640
760.322	0.0145889
760.400	0.0144981
760.478	0.0146704
760.557	0.0146761
760.635	0.0146957
760.713	0.0147394
760.791	0.0148111
760.869	0.0147442
760.947	0.0147958
761.025	0.0146233
761.103	0.0147425
761.182	0.0146946
761.260	0.0147189
761.338	0.0148097
761.416	0.0146649
761.494	0.0147047
761.572	0.0146478
761.650	0.0147886
761.728	0.0147250
761.807	0.0146822
761.885	0.0147296
761.963	0.0147408
762.041	0.0146272
762.119	0.0146847
762.197	0.0148094
762.275	0.0147568
762.353	0.0147266
762.432	0.0147871
762.510	0.0146967
762.588	0.0147735
762.666	0.0147891
762.744	0.0148106
762.822	0.0147697
762.900	0.0148323
762.978	0.0147693
763.057	0.0147740
763.135	0.0148174
763.213	0.0148100
763.291	0.0148643
763.369	0.0147948
763.447	0.0149207
763.525	0.0148695
763.603	0.0147468
763.682	0.0150208
763.760	0.0150191
763.838	0.0149686
763.916	0.0149329
763.994	0.0150312
764.072	0.0149479
764.150	0.0147744
764.228	0.0148862
764.307	0.0150181
764.385	0.0150682
764.463	0.0148655
764.541	0.0148312
764.619	0.0147647
764.697	0.0148302
764.775	0.0146595
764.853	0.0145352
764.932	0.0145780
765.010	0.0145726
765.088	0.0144069
765.166	0.0144077
765.244	0.0144404
765.322	0.0143611
765.400	0.0143825
765.478	0.0142712
765.557	0.0142986
765.635	0.0142710
765.713	0.0144095
765.791	0.0145997
765.869	0.0142899
765.947	0.0143348
766.025	0.0145746
766.103	0.0145122
766.182	0.0146864
766.260	0.0145749
766.338	0.0146015
766.416	0.0146613
766.494	0.0147188
766.572	0.0147159
766.650	0.0147395
766.728	0.0149454
766.807	0.0148830
766.885	0.0149068
766.963	0.0149873
767.041	0.0150023
767.119	0.0148945
767.197	0.0150610
767.275	0.0149898
767.353	0.0148428
767.432	0.0148141
767.510	0.0147361
767.588	0.0148864
767.666	0.0146855
767.744	0.0144815
767.822	0.0144324
767.900	0.0143397
767.978	0.0141502
768.057	0.0142937
768.135	0.0140549
768.213	0.0139770
768.291	0.0140169
768.369	0.0139764
768.447	0.0138723
768.525	0.0136382
768.603	0.0137811
768.682	0.0137714
768.760	0.0140071
768.838	0.0139380
768.916	0.0140392
768.994	0.0139742
769.072	0.0140805
769.150	0.0142945
769.228	0.0143665
769.307	0.0143984
769.385	0.0146482
769.463	0.0145863
769.541	0.0146703
769.619	0.0147229
769.697	0.0149648
769.775	0.0148860
769.853	0.0149166
769.932	0.0149148
770.010	0.0149116
770.088	0.0149266
770.166	0.0149809
770.244	0.0149567
770.322	0.0148594
770.400	0.0148448
770.478	0.0148172
770.557	0.0148053
770.635	0.0147170
770.713	0.0148396
770.791	0.0147728
770.869	0.0147012
770.947	0.0148193
771.025	0.0146694
771.103	0.0146639
771.182	0.0146117
771.260	0.0147316
771.338	0.0145659
771.416	0.0145538
771.494	0.0146799
771.572	0.0146629
771.650	0.0145789
771.728	0.0146458
771.807	0.0145760
771.885	0.0144353
771.963	0.0145142
772.041	0.0143261
772.119	0.0144701
772.197	0.0144309
772.275	0.0144686
772.353	0.0143144
772.432	0.0143892
772.510	0.0144006
772.588	0.0143742
772.666	0.0143215
772.744	0.0143249
772.822	0.0144349
772.900	0.0143987
772.978	0.0143381
773.057	0.0143377
773.135	0.0144529
773.213	0.0144318
773.291	0.0144112
773.369	0.0144256
773.447	0.0144732
773.525	0.0143226
773.603	0.0143639
773.682	0.0144743
773.760	0.0143563
773.838	0.0144631
773.916	0.0145226
773.994	0.0144423
774.072	0.0144539
774.150	0.0143541
774.228	0.0144642
774.307	0.0145309
774.385	0.0143784
774.463	0.0143780
774.541	0.0143330
774.619	0.0145138
774.697	0.0143787
774.775	0.0143277
774.853	0.0143325
774.932	0.0144006
775.010	0.0142650
775.088	0.0143260
775.166	0.0142856
775.244	0.0143459
775.322	0.0141304
775.400	0.0143102
775.478	0.0143158
775.557	0.0143634
775.635	0.0144320
775.713	0.0144267
775.791	0.0143968
775.869	0.0144368
775.947	0.0144491
776.025	0.0144605
776.103	0.0146442
776.182	0.0146921
776.260	0.0147025
776.338	0.0145625
776.416	0.0147122
776.494	0.0148095
776.572	0.0148911
776.650	0.0150002
776.728	0.0150600
776.807	0.0150311
776.885	0.0149744
776.963	0.0151896
777.041	0.0150383
777.119	0.0151197
777.197	0.0150893
777.275	0.0150428
777.353	0.0150627
777.432	0.0149111
777.510	0.0147910
777.588	0.0148207
777.666	0.0147726
777.744	0.0147437
777.822	0.0146075
777.900	0.0145675
777.978	0.0145213
778.057	0.0145168
778.135	0.0144861
778.213	0.0144280
778.291	0.0144497
778.369	0.0143449
778.447	0.0144180
778.525	0.0142290
778.603	0.0143646
778.682	0.0142941
778.760	0.0144128
778.838	0.0143930
778.916	0.0143913
778.994	0.0143327
779.072	0.0143937
779.150	0.0144667
779.228	0.0145551
779.307	0.0145360
779.385	0.0145915
779.463	0.0148360
779.541	0.0147423
779.619	0.0145581
779.697	0.0146096
779.775	0.0147677
779.853	0.0146722
779.932	0.0148198
780.010	0.0146441
780.088	0.0146268
780.166	0.0147649
780.244	0.0145717
780.322	0.0145338
780.400	0.0145852
780.478	0.0145850
780.557	0.0146307
780.635	0.0144953
780.713	0.0145080
780.791	0.0146067
780.869	0.0143945
780.947	0.0142962
781.025	0.0144249
781.103	0.0145503
781.182	0.0143899
781.260	0.0143449
781.338	0.0143739
781.416	0.0144153
781.494	0.0142689
781.572	0.0142457
781.650	0.0142482
781.728	0.0141647
781.807	0.0141628
781.885	0.0142904
781.963	0.0142229
782.041	0.0143754
782.119	0.0143219
782.197	0.0144804
782.275	0.0143573
782.353	0.0143492
782.432	0.0143043
782.510	0.0144384
782.588	0.0145273
782.666	0.0145589
782.744	0.0146506
782.822	0.0145741
782.900	0.0146807
782.978	0.0148225
783.057	0.0147591
783.135	0.0146597
783.213	0.0148466
783.291	0.0149744
783.369	0.0149156
783.447	0.0149416
783.525	0.0148868
783.603	0.0148550
783.682	0.0148435
783.760	0.0148184
783.838	0.0148325
783.916	0.0148869
783.994	0.0148437
784.072	0.0150019
784.150	0.0147735
784.228	0.0150169
784.307	0.0149656
784.385	0.0148508
784.463	0.0148494
784.541	0.0147847
784.619	0.0147878
784.697	0.0148828
784.775	0.0149065
784.853	0.0148180
784.932	0.0148379
785.010	0.0149162
785.088	0.0147914
785.166	0.0149062
785.244	0.0147933
785.322	0.0147423
785.400	0.0148400
785.478	0.0148628
785.557	0.0148574
785.635	0.0147380
785.713	0.0148148
785.791	0.0147992
785.869	0.0147273
785.947	0.0146519
786.025	0.0145677
786.103	0.0146056
786.182	0.0144012
786.260	0.0144344
786.338	0.0144689
786.416	0.0142104
786.494	0.0143226
786.572	0.0142627
786.650	0.0141472
786.728	0.0141528
786.807	0.0140089
786.885	0.0139753
786.963	0.0140586
787.041	0.0139600
787.119	0.0139735
787.197	0.0139981
787.275	0.0140025
787.353	0.0139679
787.432	0.0140500
787.510	0.0142799
787.588	0.0143394
787.666	0.0143319
787.744	0.0144859
787.822	0.0145507
787.900	0.0145548
787.978	0.0146418
788.057	0.0147330
788.135	0.0149352
788.213	0.0149886
788.291	0.0150046
788.369	0.0150012
788.447	0.0151730
788.525	0.0151643
788.603	0.0153973
788.682	0.0153671
788.760	0.0151867
788.838	0.0151690
788.916	0.0152294
788.994	0.0151379
789.072	0.0151842
789.150	0.0151212
789.228	0.0151276
789.307	0.0149063
789.385	0.0149906
789.463	0.0151013
789.541	0.0148672
789.619	0.0147612
789.697	0.0148046
789.775	0.0147615
789.853	0.0145632
789.932	0.0146203
790.010	0.0145559
790.088	0.0144051
790.166	0.0144432
790.244	0.0144952
790.322	0.0143401
790.400	0.0143180
790.478	0.0141389
790.557	0.0142583
790.635	0.0143277
790.713	0.0142678
790.791	0.0141721
790.869	0.0141959
790.947	0.0141634
791.025	0.0141797
791.103	0.0142812
791.182	0.0142457
791.260	0.0143727
791.338	0.0145256
791.416	0.0144632
791.494	0.0143588
791.572	0.0145345
791.650	0.0145091
791.728	0.0143671
791.807	0.0145985
791.885	0.0145216
791.963	0.0143891
792.041	0.0143909
792.119	0.0144962
792.197	0.0144552
792.275	0.0143938
792.353	0.0144282
792.432	0.0142812
792.510	0.0142162
792.588	0.0142663
792.666	0.0143962
792.744	0.0145198
792.822	0.0144298
792.900	0.0144458
792.978	0.0145259
793.057	0.0145989
793.135	0.0145333
793.213	0.0147391
793.291	0.0147833
793.369	0.0146098
793.447	0.0147526
793.525	0.0147443
793.603	0.0148645
793.682	0.0146976
793.760	0.0148956
793.838	0.0149744
793.916	0.0149474
793.994	0.0148534
794.072	0.0149895
794.150	0.0148007
794.228	0.0148047
794.307	0.0147378
794.385	0.0148087
794.463	0.0150412
794.541	0.0146825
794.619	0.0145777
794.697	0.0146898
794.775	0.0146031
794.853	0.0145161
794.932	0.0147200
795.010	0.0145784
795.088	0.0143776
795.166	0.0144089
795.244	0.0144143
795.322	0.0143916
795.400	0.0142668
795.478	0.0144595
795.557	0.0142645
795.635	0.0141632
795.713	0.0142147
795.791	0.0143248
795.869	0.0142937
795.947	0.0143610
796.025	0.0142983
796.103	0.0142992
796.182	0.0142215
796.260	0.0142822
796.338	0.0142309
796.416	0.0142068
796.494	0.0140314
796.572	0.0141566
796.650	0.0141482
796.728	0.0141473
796.807	0.0140916
796.885	0.0141978
796.963	0.0141849
797.041	0.0140243
797.119	0.0142237
797.197	0.0141911
797.275	0.0141792
797.353	0.0143252
797.432	0.0142923
797.510	0.0142347
797.588	0.0142896
797.666	0.0143184
797.744	0.0142458
797.822	0.0143745
797.900	0.0143993
797.978	0.0143681
798.057	0.0144398
798.135	0.0146388
798.213	0.0145824
798.291	0.0148579
798.369	0.0147899
798.447	0.0147714
798.525	0.0147861
798.603	0.0148499
798.682	0.0150397
798.760	0.0150510
798.838	0.0150956
798.916	0.0150336
798.994	0.0151411
799.072	0.0151194
799.150	0.0150137
799.228	0.0150243
799.307	0.0150386
799.385	0.0150394
799.463	0.0150474
799.541	0.0149726
799.619	0.0150328
799.697	0.0149920
799.775	0.0149872
799.853	0.0151282
799.932	0.0149477
800.010	0.0147864
800.088	0.0149879
800.166	0.0148158
800.244	0.0147367
800.322	0.0147713
800.400	0.0146614
800.478	0.0146246
800.557	0.0146201
800.635	0.0145168
800.713	0.0145521
800.791	0.0143695
800.869	0.0143262
800.947	0.0142660
801.025	0.0142344
801.103	0.0141187
801.182	0.0142248
801.260	0.0141255
801.338	0.0140849
801.416	0.0141152
801.494	0.0140710
801.572	0.0139763
801.650	0.0139567
801.728	0.0141063
801.807	0.0141702
801.885	0.0140633
801.963	0.0142049
802.041	0.0142236
802.119	0.0141209
802.197	0.0142659
802.275	0.0143740
802.353	0.0141993
802.432	0.0142082
802.510	0.0142494
802.588	0.0142909
802.666	0.0143705
802.744	0.0143824
802.822	0.0143069
802.900	0.0143336
802.978	0.0143744
803.057	0.0143768
803.135	0.0142315
803.213	0.0142832
803.291	0.0143349
803.369	0.0142834
803.447	0.0142426
803.525	0.0143527
803.603	0.0144641
803.682	0.0145298
803.760	0.0143973
803.838	0.0144873
803.916	0.0146481
803.994	0.0145879
804.072	0.0146293
804.150	0.0148192
804.228	0.0148344
804.307	0.0148206
804.385	0.0148708
804.463	0.0149177
804.541	0.0149857
804.619	0.0151352
804.697	0.0152956
804.775	0.0150856
804.853	0.0150369
804.932	0.0151674
805.010	0.0150510
805.088	0.0150031
805.166	0.0148959
805.244	0.0151221
805.322	0.0149730
805.400	0.0148322
805.478	0.0148324
805.557	0.0149084
805.635	0.0148486
805.713	0.0148309
805.791	0.0148573
805.869	0.0148175
805.947	0.0145767
806.025	0.0147092
806.103	0.0147301
806.182	0.0147247
806.260	0.0147610
806.338	0.0145724
806.416	0.0145364
806.494	0.0145606
806.572	0.0145946
806.650	0.0145803
806.728	0.0144617
806.807	0.0143419
806.885	0.0143581
806.963	0.0143813
807.041	0.0144585
807.119	0.0144537
807.197	0.0144655
807.275	0.0144637
807.353	0.0145107
807.432	0.0144131
807.510	0.0144407
807.588	0.0144474
807.666	0.0144183
807.744	0.0143226
807.822	0.0144166
807.900	0.0144341
807.978	0.0144221
808.057	0.0143915
808.135	0.0143468
808.213	0.0143922
808.291	0.0143353
808.369	0.0141641
808.447	0.0142159
808.525	0.0143072
808.603	0.0143421
808.682	0.0142744
808.760	0.0142595
808.838	0.0141777
808.916	0.0142433
808.994	0.0145500
809.072	0.0145316
809.150	0.0145148
809.228	0.0144836
809.307	0.0146320
809.385	0.0145567
809.463	0.0146642
809.541	0.0145653
809.619	0.0147208
809.697	0.0148882
809.775	0.0146914
809.853	0.0148772
809.932	0.0149432
810.010	0.0149291
810.088	0.0151682
810.166	0.0150055
810.244	0.0149088
810.322	0.0148636
810.400	0.0148946
810.478	0.0149097
810.557	0.0147701
810.635	0.0147800
810.713	0.0147462
810.791	0.0145576
810.869	0.0147386
810.947	0.0146409
811.025	0.0144980
811.103	0.0144482
811.182	0.0145174
811.260	0.0144035
811.338	0.0143398
811.416	0.0144201
811.494	0.0144109
811.572	0.0143567
811.650	0.0144460
811.728	0.0143789
811.807	0.0142805
811.885	0.0143202
811.963	0.0144660
812.041	0.0144479
812.119	0.0144952
812.197	0.0146121
812.275	0.0144952
812.353	0.0146590
812.432	0.0147833
812.510	0.0147245
812.588	0.0147050
812.666	0.0148519
812.744	0.0149011
812.822	0.0149181
812.900	0.0148637
812.978	0.0150102
813.057	0.0150658
813.135	0.0149355
813.213	0.0150371
813.291	0.0149188
813.369	0.0149572
813.447	0.0150510
813.525	0.0147866
813.603	0.0148823
813.682	0.0148491
813.760	0.0148663
813.838	0.0147507
813.916	0.0146641
813.994	0.0147755
814.072	0.0147115
814.150	0.0147683
814.228	0.0146627
814.307	0.0146361
814.385	0.0146432
814.463	0.0145885
814.541	0.0144916
814.619	0.0144997
814.697	0.0144918
814.775	0.0145038
814.853	0.0144450
814.932	0.0143926
815.010	0.0144838
815.088	0.0143887
815.166	0.0145158
815.244	0.0145222
815.322	0.0146050
815.400	0.0144954
815.478	0.0146361
815.557	0.0145175
815.635	0.0145777
815.713	0.0146200
815.791	0.0147025
815.869	0.0147663
815.947	0.0148062
816.025	0.0148367
816.103	0.0148183
816.182	0.0148994
816.260	0.0149094
816.338	0.0148081
816.416	0.0147775
816.494	0.0148345
816.572	0.0147787
816.650	0.0147123
816.728	0.0146161
816.807	0.0145367
816.885	0.0145535
816.963	0.0144173
817.041	0.0145554
817.119	0.0143023
817.197	0.0144134
817.275	0.0142046
817.353	0.0140762
817.432	0.0141085
817.510	0.0139592
817.588	0.0139114
817.666	0.0140100
817.744	0.0138816
817.822	0.0137897
817.900	0.0139953
817.978	0.0137949
818.057	0.0140650
818.135	0.0141357
818.213	0.0141660
818.291	0.0143710
818.369	0.0142790
818.447	0.0144775
818.525	0.0146324
818.603	0.0147282
818.682	0.0149313
818.760	0.0150477
818.838	0.0149645
818.916	0.0153300
818.994	0.0153094
819.072	0.0154053
819.150	0.0154355
819.228	0.0153632
819.307	0.0156137
819.385	0.0156021
819.463	0.0154213
819.541	0.0153554
819.619	0.0153781
819.697	0.0153208
819.775	0.0151588
819.853	0.0150690
819.932	0.0148683
820.010	0.0148637
820.088	0.0146655
820.166	0.0146423
820.244	0.0145939
820.322	0.0144534
820.400	0.0142709
820.478	0.0142435
820.557	0.0141930
820.635	0.0142567
820.713	0.0142209
820.791	0.0140456
820.869	0.0140232
820.947	0.0141457
821.025	0.0142425
821.103	0.0142960
821.182	0.0143941
821.260	0.0144392
821.338	0.0144668
821.416	0.0146242
821.494	0.0147126
821.572	0.0147297
821.650	0.0148009
821.728	0.0146368
821.807	0.0147179
821.885	0.0148668
821.963	0.0148125
822.041	0.0148012
822.119	0.0147049
822.197	0.0146752
822.275	0.0146633
822.353	0.0144645
822.432	0.0143550
822.510	0.0141899
822.588	0.0140802
822.666	0.0141753
822.744	0.0140714
822.822	0.0138329
822.900	0.0138290
822.978	0.0139315
823.057	0.0139317
823.135	0.0138189
823.213	0.0137967
823.291	0.0139845
823.369	0.0140277
823.447	0.0142083
823.525	0.0143099
823.603	0.0141344
823.682	0.0144673
823.760	0.0146094
823.838	0.0146484
823.916	0.0148639
823.994	0.0147923
824.072	0.0150206
824.150	0.0150707
824.228	0.0152354
824.307	0.0151839
824.385	0.0151886
824.463	0.0151479
824.541	0.0150750
824.619	0.0150575
824.697	0.0150116
824.775	0.0148553
824.853	0.0148344
824.932	0.0147797
825.010	0.0145811
825.088	0.0146185
825.166	0.0145658
825.244	0.0144545
825.322	0.0143859
825.400	0.0143559
825.478	0.0144287
825.557	0.0142845
825.635	0.0142323
825.713	0.0143280
825.791	0.0141277
825.869	0.0142117
825.947	0.0141552
826.025	0.0142062
826.103	0.0141590
826.182	0.0142854
826.260	0.0143703
826.338	0.0143610
826.416	0.0143992
826.494	0.0144279
826.572	0.0143373
826.650	0.0143347
826.728	0.0144232
826.807	0.0145728
826.885	0.0144394
826.963	0.0144204
827.041	0.0145201
827.119	0.0144401
827.197	0.0144253
827.275	0.0145158
827.353	0.0144189
827.432	0.0143207
827.510	0.0144254
827.588	0.0144772
827.666	0.0143112
827.744	0.0142859
827.822	0.0143041
827.900	0.0144188
827.978	0.0143900
828.057	0.0143476
828.135	0.0142176
828.213	0.0142907
828.291	0.0142720
828.369	0.0143379
828.447	0.0144209
828.525	0.0143727
828.603	0.0142478
828.682	0.0144804
828.760	0.0146011
828.838	0.0145995
828.916	0.0147305
828.994	0.0147689
829.072	0.0148258
829.150	0.0149799
829.228	0.0149867
829.307	0.0149468
829.385	0.0150069
829.463	0.0150098
829.541	0.0151055
829.619	0.0149868
829.697	0.0150246
829.775	0.0150934
829.853	0.0151287
829.932	0.0150453
830.010	0.0150951
830.088	0.0151087
830.166	0.0150554
830.244	0.0149868
830.322	0.0150816
830.400	0.0148736
830.478	0.0148214
830.557	0.0148182
830.635	0.0147002
830.713	0.0146005
830.791	0.0145589
830.869	0.0146054
830.947	0.0146478
831.025	0.0143859
831.103	0.0144038
831.182	0.0145075
831.260	0.0143268
831.338	0.0142139
831.416	0.0141698
831.494	0.0141732
831.572	0.0141116
831.650	0.0142908
831.728	0.0142379
831.807	0.0141904
831.885	0.0140353
831.963	0.0140984
832.041	0.0142584
832.119	0.0142011
832.197	0.0142560
832.275	0.0143674
832.353	0.0142117
832.432	0.0144041
832.510	0.0143798
832.588	0.0143052
832.666	0.0144857
832.744	0.0145121
832.822	0.0143649
832.900	0.0144608
832.978	0.0144125
833.057	0.0144988
833.135	0.0146029
833.213	0.0143241
833.291	0.0144248
833.369	0.0144440
833.447	0.0144356
833.525	0.0145728
833.603	0.0145535
833.682	0.0144721
833.760	0.0146878
833.838	0.0145593
833.916	0.0144858
833.994	0.0146513
834.072	0.0146143
834.150	0.0147208
834.228	0.0146040
834.307	0.0147031
834.385	0.0146817
834.463	0.0147618
834.541	0.0148013
834.619	0.0148485
834.697	0.0146779
834.775	0.0146800
834.853	0.0147681
834.932	0.0146252
835.010	0.0147450
835.088	0.0147387
835.166	0.0146598
835.244	0.0146358
835.322	0.0146786
835.400	0.0145876
835.478	0.0145960
835.557	0.0146356
835.635	0.0146471
835.713	0.0147182
835.791	0.0146658
835.869	0.0146300
835.947	0.0147628
836.025	0.0149335
836.103	0.0146846
836.182	0.0148354
836.260	0.0147676
836.338	0.0146934
836.416	0.0148370
836.494	0.0148476
836.572	0.0149403
836.650	0.0150484
836.728	0.0149182
836.807	0.0150439
836.885	0.0151671
836.963	0.0149947
837.041	0.0151359
837.119	0.0152315
837.197	0.0152248
837.275	0.0152212
837.353	0.0151720
837.432	0.0151644
837.510	0.0152417
837.588	0.0150172
837.666	0.0151294
837.744	0.0149095
837.822	0.0147868
837.900	0.0147799
837.978	0.0147352
838.057	0.0144344
838.135	0.0143150
838.213	0.0143529
838.291	0.0142650
838.369	0.0141171
838.447	0.0140285
838.525	0.0139496
838.603	0.0138542
838.682	0.0137649
838.760	0.0139002
838.838	0.0138501
838.916	0.0138403
838.994	0.0139358
839.072	0.0137963
839.150	0.0140816
839.228	0.0140993
839.307	0.0141490
839.385	0.0141455
839.463	0.0143369
839.541	0.0143190
839.619	0.0143075
839.697	0.0144930
839.775	0.0145445
839.853	0.0146590
839.932	0.0146294
840.010	0.0147201
840.088	0.0148837
840.166	0.0149921
840.244	0.0149419
840.322	0.0150048
840.400	0.0151479
840.478	0.0150298
840.557	0.0150596
840.635	0.0152808
840.713	0.0153880
840.791	0.0151751
840.869	0.0152034
840.947	0.0151388
841.025	0.0152273
841.103	0.0151830
841.182	0.0150543
841.260	0.0150515
841.338	0.0149646
841.416	0.0149693
841.494	0.0149818
841.572	0.0148129
841.650	0.0146066
841.728	0.0147025
841.807	0.0147213
841.885	0.0147432
841.963	0.0147662
842.041	0.0146466
842.119	0.0145739
842.197	0.0147461
842.275	0.0146263
842.353	0.0145582
842.432	0.0146452
842.510	0.0146043
842.588	0.0147334
842.666	0.0147245
842.744	0.0146851
842.822	0.0146938
842.900	0.0146557
842.978	0.0148409
843.057	0.0146419
843.135	0.0148180
843.213	0.0146410
843.291	0.0147408
843.369	0.0146166
843.447	0.0146568
843.525	0.0147219
843.603	0.0146672
843.682	0.0145752
843.760	0.0145014
843.838	0.0144201
843.916	0.0144839
843.994	0.0144657
844.072	0.0144175
844.150	0.0143922
844.228	0.0145130
844.307	0.0145476
844.385	0.0143650
844.463	0.0144459
844.541	0.0144915
844.619	0.0143489
844.697	0.0145352
844.775	0.0144953
844.853	0.0144598
844.932	0.0144669
845.010	0.0144274
845.088	0.0144794
845.166	0.0145192
845.244	0.0143881
845.322	0.0145096
845.400	0.0144942
845.478	0.0145188
845.557	0.0145206
845.635	0.0145096
845.713	0.0144942
845.791	0.0146344
845.869	0.0144558
845.947	0.0146611
846.025	0.0145249
846.103	0.0144587
846.182	0.0144728
846.260	0.0144331
846.338	0.0144644
846.416	0.0144830
846.494	0.0144279
846.572	0.0144624
846.650	0.0145525
846.728	0.0144989
846.807	0.0144704
846.885	0.0144582
846.963	0.0146725
847.041	0.0143402
847.119	0.0144013
847.197	0.0145699
847.275	0.0145094
847.353	0.0145417
847.432	0.0144647
847.510	0.0144855
847.588	0.0145538
847.666	0.0146866
847.744	0.0145886
847.822	0.0146142
847.900	0.0147224
847.978	0.0146567
848.057	0.0147692
848.135	0.0147867
848.213	0.0147860
848.291	0.0148303
848.369	0.0147212
848.447	0.0148618
848.525	0.0148411
848.603	0.0149240
848.682	0.0148268
848.760	0.0149460
848.838	0.0149542
848.916	0.0148880
848.994	0.0147742
849.072	0.0146173
849.150	0.0147321
849.228	0.0148107
849.307	0.0147530
849.385	0.0147097
849.463	0.0148061
849.541	0.0146754
849.619	0.0145684
849.697	0.0145148
849.775	0.0144404
849.853	0.0144566
849.932	0.0143099
850.010	0.0142249
850.088	0.0144451
850.166	0.0143305
850.244	0.0141647
850.322	0.0142465
850.400	0.0142113
850.478	0.0142201
850.557	0.0140994
850.635	0.0141315
850.713	0.0140120
850.791	0.0142050
850.869	0.0141470
850.947	0.0142541
851.025	0.0142280
851.103	0.0143481
851.182	0.0142980
851.260	0.0142371
851.338	0.0143230
851.416	0.0145287
851.494	0.0144830
851.572	0.0144484
851.650	0.0145625
851.728	0.0145896
851.807	0.0145491
851.885	0.0144759
851.963	0.0146300
852.041	0.0145467
852.119	0.0146617
852.197	0.0148196
852.275	0.0147945
852.353	0.0146433
852.432	0.0146380
852.510	0.0147380
852.588	0.0148456
852.666	0.0147876
852.744	0.0148152
852.822	0.0148044
852.900	0.0147478
852.978	0.0145045
853.057	0.0146661
853.135	0.0144617
853.213	0.0146089
853.291	0.0144086
853.369	0.0143877
853.447	0.0143239
853.525	0.0143053
853.603	0.0143258
853.682	0.0140617
853.760	0.0140065
853.838	0.0140973
853.916	0.0140516
853.994	0.0139027
854.072	0.0140218
854.150	0.0140792
854.228	0.0140144
854.307	0.0140363
854.385	0.0141339
854.463	0.0141756
854.541	0.0142651
854.619	0.0141216
854.697	0.0143176
854.775	0.0143375
854.853	0.0143127
854.932	0.0144830
855.010	0.0145669
855.088	0.0146402
855.166	0.0146375
855.244	0.0146001
855.322	0.0148242
855.400	0.0147514
855.478	0.0147246
855.557	0.0147079
855.635	0.0146700
855.713	0.0148702
855.791	0.0149524
855.869	0.0148137
855.947	0.0148031
856.025	0.0149044
856.103	0.0147935
856.182	0.0147422
856.260	0.0147179
856.338	0.0146220
856.416	0.0146371
856.494	0.0147456
856.572	0.0145796
856.650	0.0145783
856.728	0.0145991
856.807	0.0145069
856.885	0.0146175
856.963	0.0143954
857.041	0.0143608
857.119	0.0144462
857.197	0.0144920
857.275	0.0144143
857.353	0.0143483
857.432	0.0143576
857.510	0.0142500
857.588	0.0143089
857.666	0.0143097
857.744	0.0141961
857.822	0.0141218
857.900	0.0143076
857.978	0.0143244
858.057	0.0143832
858.135	0.0144006
858.213	0.0143804
858.291	0.0142653
858.369	0.0143932
858.447	0.0144702
858.525	0.0144883
858.603	0.0145396
858.682	0.0144384
858.760	0.0145823
858.838	0.0146569
858.916	0.0145963
858.994	0.0146500
859.072	0.0147266
859.150	0.0147269
859.228	0.0147925
859.307	0.0147105
859.385	0.0147784
859.463	0.0148584
859.541	0.0150131
859.619	0.0148245
859.697	0.0148369
859.775	0.0150291
859.853	0.0148590
859.932	0.0147283
860.010	0.0148170
860.088	0.0148275
860.166	0.0148994
860.244	0.0148341
860.322	0.0147478
860.400	0.0146980
860.478	0.0147466
860.557	0.0145971
860.635	0.0145994
860.713	0.0146807
860.791	0.0145765
860.869	0.0144899
860.947	0.0144775
861.025	0.0146492
861.103	0.0146445
861.182	0.0145667
861.260	0.0144937
861.338	0.0144730
861.416	0.0145219
861.494	0.0145090
861.572	0.0145753
861.650	0.0146114
861.728	0.0146110
861.807	0.0148379
861.885	0.0148101
861.963	0.0147511
862.041	0.0146500
862.119	0.0147589
862.197	0.0148303
862.275	0.0147542
862.353	0.0149594
862.432	0.0149214
862.510	0.0148479
862.588	0.0147799
862.666	0.0149451
862.744	0.0148194
862.822	0.0147648
862.900	0.0147311
862.978	0.0147414
863.057	0.0148694
863.135	0.0147977
863.213	0.0147446
863.291	0.0146259
863.369	0.0146578
863.447	0.0146114
863.525	0.0146832
863.603	0.0146764
863.682	0.0147045
863.760	0.0146984
863.838	0.0146572
863.916	0.0145874
863.994	0.0149583
864.072	0.0146889
864.150	0.0147564
864.228	0.0148419
864.307	0.0146790
864.385	0.0148218
864.463	0.0149113
864.541	0.0146705
864.619	0.0147849
864.697	0.0147668
864.775	0.0147070
864.853	0.0147158
864.932	0.0147455
865.010	0.0145921
865.088	0.0144755
865.166	0.0143501
865.244	0.0144244
865.322	0.0143797
865.400	0.0144620
865.478	0.0143364
865.557	0.0142769
865.635	0.0143008
865.713	0.0141443
865.791	0.0142490
865.869	0.0140977
865.947	0.0142397
866.025	0.0141111
866.103	0.0140800
866.182	0.0141344
866.260	0.0142082
866.338	0.0142635
866.416	0.0142999
866.494	0.0144284
866.572	0.0144108
866.650	0.0143625
866.728	0.0145138
866.807	0.0145166
866.885	0.0145429
866.963	0.0145233
867.041	0.0147245
867.119	0.0147728
867.197	0.0147969
867.275	0.0148371
867.353	0.0149641
867.432	0.0150056
867.510	0.0149316
867.588	0.0150822
867.666	0.0150506
867.744	0.0150207
867.822	0.0150564
867.900	0.0150502
867.978	0.0151803
868.057	0.0150120
868.135	0.0149129
868.213	0.0148342
868.291	0.0148584
868.369	0.0148251
868.447	0.0147540
868.525	0.0146066
868.603	0.0146159
868.682	0.0146564
868.760	0.0144699
868.838	0.0146074
868.916	0.0143312
868.994	0.0143153
869.072	0.0144479
869.150	0.0143815
869.228	0.0141859
869.307	0.0142790
869.385	0.0142968
869.463	0.0142656
869.541	0.0142651
869.619	0.0143639
869.697	0.0143726
869.775	0.0143731
869.853	0.0143778
869.932	0.0143571
870.010	0.0146169
870.088	0.0146637
870.166	0.0145712
870.244	0.0144562
870.322	0.0145171
870.400	0.0147561
870.478	0.0147033
870.557	0.0147572
870.635	0.0146275
870.713	0.0145495
870.791	0.0146067
870.869	0.0145132
870.947	0.0144806
871.025	0.0144485
871.103	0.0144585
871.182	0.0144737
871.260	0.0146018
871.338	0.0145461
871.416	0.0146098
871.494	0.0146766
871.572	0.0145669
871.650	0.0145200
871.728	0.0146346
871.807	0.0146110
871.885	0.0146499
871.963	0.0145181
872.041	0.0146265
872.119	0.0145845
872.197	0.0146485
872.275	0.0146995
872.353	0.0146581
872.432	0.0146165
872.510	0.0144286
872.588	0.0144630
872.666	0.0145911
872.744	0.0145107
872.822	0.0145015
872.900	0.0145158
872.978	0.0143903
873.057	0.0145100
873.135	0.0143620
873.213	0.0143485
873.291	0.0145980
873.369	0.0145384
873.447	0.0144985
873.525	0.0143659
873.603	0.0143910
873.682	0.0145276
873.760	0.0144149
873.838	0.0145075
873.916	0.0144913
873.994	0.0145000
874.072	0.0144737
874.150	0.0144495
874.228	0.0145287
874.307	0.0143922
874.385	0.0146370
874.463	0.0145805
874.541	0.0145273
874.619	0.0145206
874.697	0.0146182
874.775	0.0146173
874.853	0.0144707
874.932	0.0144967
875.010	0.0144832
875.088	0.0145770
875.166	0.0145278
875.244	0.0145336
875.322	0.0145981
875.400	0.0144641
875.478	0.0145899
875.557	0.0145047
875.635	0.0144334
875.713	0.0144095
875.791	0.0144534
875.869	0.0146299
875.947	0.0143906
876.025	0.0142892
876.103	0.0144009
876.182	0.0143317
876.260	0.0144135
876.338	0.0144437
876.416	0.0143761
876.494	0.0144235
876.572	0.0145744
876.650	0.0142329
876.728	0.0142975
876.807	0.0142455
876.885	0.0141720
876.963	0.0143011
877.041	0.0142689
877.119	0.0142348
877.197	0.0142102
877.275	0.0143105
877.353	0.0142904
877.432	0.0142038
877.510	0.0142870
877.588	0.0143142
877.666	0.0144723
877.744	0.0144293
877.822	0.0145741
877.900	0.0144914
877.978	0.0145508
878.057	0.0147346
878.135	0.0147137
878.213	0.0148011
878.291	0.0148183
878.369	0.0147444
878.447	0.0148580
878.525	0.0149133
878.603	0.0147920
878.682	0.0148473
878.760	0.0148558
878.838	0.0147291
878.916	0.0147276
878.994	0.0148563
879.072	0.0146756
879.150	0.0147469
879.228	0.0146857
879.307	0.0146259
879.385	0.0146721
879.463	0.0146610
879.541	0.0146362
879.619	0.0146286
879.697	0.0146257
879.775	0.0144097
879.853	0.0145886
879.932	0.0144796
880.010	0.0144169
880.088	0.0143842
880.166	0.0144872
880.244	0.0143188
880.322	0.0142886
880.400	0.0144361
880.478	0.0143587
880.557	0.0143534
880.635	0.0144128
880.713	0.0143025
880.791	0.0142394
880.869	0.0142917
880.947	0.0143787
881.025	0.0142897
881.103	0.0143281
881.182	0.0143568
881.260	0.0142408
881.338	0.0143240
881.416	0.0142956
881.494	0.0142387
881.572	0.0141615
881.650	0.0143816
881.728	0.0145179
881.807	0.0142757
881.885	0.0142374
881.963	0.0144607
882.041	0.0145177
882.119	0.0143164
882.197	0.0142130
882.275	0.0145024
882.353	0.0145362
882.432	0.0144606
882.510	0.0146957
882.588	0.0148177
882.666	0.0146814
882.744	0.0147665
882.822	0.0147775
882.900	0.0148049
882.978	0.0147854
883.057	0.0148975
883.135	0.0148569
883.213	0.0150302
883.291	0.0148466
883.369	0.0149109
883.447	0.0148725
883.525	0.0148204
883.603	0.0149317
883.682	0.0148965
883.760	0.0148430
883.838	0.0146642
883.916	0.0147218
883.994	0.0146520
884.072	0.0145896
884.150	0.0145157
884.228	0.0145799
884.307	0.0145201
884.385	0.0142782
884.463	0.0143435
884.541	0.0143207
884.619	0.0141552
884.697	0.0142654
884.775	0.0142529
884.853	0.0143421
884.932	0.0143526
885.010	0.0143278
885.088	0.0143174
885.166	0.0144003
885.244	0.0142410
885.322	0.0141884
885.400	0.0143740
885.478	0.0142995
885.557	0.0143747
885.635	0.0145497
885.713	0.0144367
885.791	0.0144955
885.869	0.0145752
885.947	0.0147265
886.025	0.0147104
886.103	0.0147285
886.182	0.0147411
886.260	0.0148728
886.338	0.0147432
886.416	0.0148380
886.494	0.0150320
886.572	0.0149431
886.650	0.0149183
886.728	0.0147960
886.807	0.0148056
886.885	0.0148495
886.963	0.0148328
887.041	0.0148210
887.119	0.0146082
887.197	0.0147221
887.275	0.0146581
887.353	0.0145996
887.432	0.0144261
887.510	0.0144164
887.588	0.0144268
887.666	0.0144528
887.744	0.0143758
887.822	0.0143342
887.900	0.0144598
887.978	0.0143684
888.057	0.0143723
888.135	0.0142480
888.213	0.0144401
888.291	0.0144129
888.369	0.0144380
888.447	0.0144950
888.525	0.0144736
888.603	0.0145201
888.682	0.0146457
888.760	0.0145458
888.838	0.0145780
888.916	0.0146729
888.994	0.0146586
889.072	0.0146467
889.150	0.0147108
889.228	0.0147223
889.307	0.0146119
889.385	0.0147042
889.463	0.0148349
889.541	0.0146357
889.619	0.0147327
889.697	0.0147192
889.775	0.0146067
889.853	0.0148347
889.932	0.0147842
890.010	0.0146851
890.088	0.0147607
890.166	0.0148008
890.244	0.0147060
890.322	0.0147540
890.400	0.0148084
890.478	0.0147018
890.557	0.0147542
890.635	0.0147820
890.713	0.0148668
890.791	0.0147236
890.869	0.0148679
890.947	0.0147958
891.025	0.0146791
891.103	0.0147375
891.182	0.0147853
891.260	0.0146744
891.338	0.0147346
891.416	0.0146956
891.494	0.0147834
891.572	0.0148190
891.650	0.0146285
891.728	0.0145467
891.807	0.0145679
891.885	0.0146497
891.963	0.0145976
892.041	0.0145805
892.119	0.0145187
892.197	0.0143533
892.275	0.0144851
892.353	0.0145088
892.432	0.0145512
892.510	0.0144305
892.588	0.0145304
892.666	0.0143771
892.744	0.0144035
892.822	0.0144212
892.900	0.0144381
892.978	0.0144447
893.057	0.0143025
893.135	0.0144281
893.213	0.0143072
893.291	0.0143765
893.369	0.0143532
893.447	0.0144090
893.525	0.0145142
893.603	0.0142543
893.682	0.0144628
893.760	0.0144098
893.838	0.0145358
893.916	0.0144582
893.994	0.0144834
894.072	0.0145721
894.150	0.0146646
894.228	0.0146722
894.307	0.0147234
894.385	0.0147403
894.463	0.0147981
894.541	0.0150180
894.619	0.0149145
894.697	0.0148542
894.775	0.0148644
894.853	0.0146663
894.932	0.0147558
895.010	0.0149060
895.088	0.0147805
895.166	0.0145789
895.244	0.0145068
895.322	0.0146979
895.400	0.0145818
895.478	0.0144940
895.557	0.0145001
895.635	0.0145779
895.713	0.0145251
895.791	0.0144955
895.869	0.0144594
895.947	0.0145304
896.025	0.0145673
896.103	0.0145461
896.182	0.0145202
896.260	0.0143946
896.338	0.0146195
896.416	0.0145249
896.494	0.0144745
896.572	0.0144816
896.650	0.0145905
896.728	0.0146008
896.807	0.0145594
896.885	0.0147496
896.963	0.0145813
897.041	0.0145936
897.119	0.0146506
897.197	0.0146124
897.275	0.0146338
897.353	0.0145422
897.432	0.0146843
897.510	0.0146598
897.588	0.0146420
897.666	0.0145445
897.744	0.0145490
897.822	0.0144913
897.900	0.0144714
897.978	0.0145549
898.057	0.0144820
898.135	0.0143972
898.213	0.0144530
898.291	0.0143855
898.369	0.0145184
898.447	0.0144474
898.525	0.0144526
898.603	0.0144960
898.682	0.0146682
898.760	0.0145066
898.838	0.0145152
898.916	0.0144453
898.994	0.0145898
899.072	0.0145805
899.150	0.0146423
899.228	0.0146033
899.307	0.0146413
899.385	0.0148028
899.463	0.0146555
899.541	0.0147022
899.619	0.0147041
899.697	0.0148294
899.775	0.0148622
899.853	0.0147295
899.932	0.0147205
900.010	0.0146715
900.088	0.0148206
900.166	0.0148112
900.244	0.0147330
900.322	0.0146995
900.400	0.0145837
900.478	0.0145102
900.557	0.0144833
900.635	0.0145966
900.713	0.0145912
900.791	0.0145172
900.869	0.0144755
900.947	0.0145323
901.025	0.0145160
901.103	0.0145120
901.182	0.0144967
901.260	0.0142822
901.338	0.0144823
901.416	0.0145880
901.494	0.0144635
901.572	0.0145599
901.650	0.0146975
901.728	0.0145786
901.807	0.0143896
901.885	0.0144891
901.963	0.0146545
902.041	0.0147002
902.119	0.0146725
902.197	0.0145209
902.275	0.0146600
902.353	0.0148134
902.432	0.0147161
902.510	0.0147955
902.588	0.0148562
902.666	0.0147810
902.744	0.0147726
902.822	0.0148592
902.900	0.0146886
902.978	0.0148116
903.057	0.0148218
903.135	0.0149689
903.213	0.0147382
903.291	0.0147769
903.369	0.0146140
903.447	0.0147661
903.525	0.0147381
903.603	0.0147003
903.682	0.0147216
903.760	0.0146449
903.838	0.0146959
903.916	0.0146989
903.994	0.0145424
904.072	0.0146645
904.150	0.0146622
904.228	0.0145994
904.307	0.0145303
904.385	0.0145192
904.463	0.0146646
904.541	0.0145798
904.619	0.0145654
904.697	0.0147952
904.775	0.0148381
904.853	0.0147269
904.932	0.0147621
905.010	0.0146446
905.088	0.0146558
905.166	0.0146107
905.244	0.0145998
905.322	0.0145582
905.400	0.0146589
905.478	0.0145893
905.557	0.0146685
905.635	0.0144975
905.713	0.0144706
905.791	0.0147497
905.869	0.0144445
905.947	0.0144444
906.025	0.0144370
906.103	0.0143417
906.182	0.0143486
906.260	0.0143999
906.338	0.0144338
906.416	0.0143935
906.494	0.0145379
906.572	0.0144781
906.650	0.0143610
906.728	0.0143170
906.807	0.0144700
906.885	0.0144396
906.963	0.0143724
907.041	0.0144871
907.119	0.0144178
907.197	0.0143853
907.275	0.0144334
907.353	0.0145811
907.432	0.0144633
907.510	0.0145049
907.588	0.0144685
907.666	0.0146185
907.744	0.0145401
907.822	0.0145402
907.900	0.0145634
907.978	0.0147312
908.057	0.0146368
908.135	0.0146937
908.213	0.0146870
908.291	0.0145789
908.369	0.0145927
908.447	0.0144608
908.525	0.0147116
908.603	0.0147403
908.682	0.0148318
908.760	0.0146434
908.838	0.0145935
908.916	0.0146410
908.994	0.0147312
909.072	0.0146504
909.150	0.0146879
909.228	0.0146700
909.307	0.0146211
909.385	0.0145355
909.463	0.0145377
909.541	0.0146480
909.619	0.0144772
909.697	0.0144553
909.775	0.0144925
909.853	0.0144225
909.932	0.0142112
910.010	0.0144117
910.088	0.0144032
910.166	0.0143257
910.244	0.0145072
910.322	0.0144868
910.400	0.0143198
910.478	0.0142516
910.557	0.0144460
910.635	0.0144826
910.713	0.0144689
910.791	0.0145184
910.869	0.0144884
910.947	0.0145039
911.025	0.0146526
911.103	0.0146849
911.182	0.0146021
911.260	0.0145396
911.338	0.0145232
911.416	0.0144830
911.494	0.0145222
911.572	0.0145904
911.650	0.0144465
911.728	0.0145500
911.807	0.0146448
911.885	0.0146438
911.963	0.0145901
912.041	0.0147147
912.119	0.0146917
912.197	0.0146220
912.275	0.0148221
912.353	0.0145989
912.432	0.0146141
912.510	0.0146773
912.588	0.0146990
912.666	0.0147020
912.744	0.0145241
912.822	0.0146716
912.900	0.0145599
912.978	0.0146587
913.057	0.0145415
913.135	0.0146113
913.213	0.0146361
913.291	0.0145319
913.369	0.0145702
913.447	0.0145245
913.525	0.0144843
913.603	0.0146316
913.682	0.0145753
913.760	0.0147276
913.838	0.0145637
913.916	0.0145861
913.994	0.0145705
914.072	0.0145161
914.150	0.0145918
914.228	0.0145915
914.307	0.0147239
914.385	0.0146616
914.463	0.0146937
914.541	0.0145993
914.619	0.0145866
914.697	0.0147779
914.775	0.0146520
914.853	0.0146421
914.932	0.0146839
915.010	0.0147442
915.088	0.0146998
915.166	0.0147909
915.244	0.0146253
915.322	0.0147099
915.400	0.0147346
915.478	0.0147542
915.557	0.0148187
915.635	0.0146471
915.713	0.0147013
915.791	0.0148235
915.869	0.0148205
915.947	0.0147948
916.025	0.0147427
916.103	0.0146500
916.182	0.0147253
916.260	0.0146853
916.338	0.0147952
916.416	0.0148038
916.494	0.0148105
916.572	0.0148019
916.650	0.0148593
916.728	0.0146743
916.807	0.0147436
916.885	0.0147523
916.963	0.0148077
917.041	0.0146899
917.119	0.0145971
917.197	0.0145451
917.275	0.0147565
917.353	0.0145477
917.432	0.0145853
917.510	0.0145354
917.588	0.0145918
917.666	0.0145621
917.744	0.0145187
917.822	0.0146166
917.900	0.0145260
917.978	0.0144283
918.057	0.0146545
918.135	0.0146275
918.213	0.0145370
918.291	0.0146198
918.369	0.0146788
918.447	0.0145573
918.525	0.0144425
918.603	0.0146494
918.682	0.0146695
918.760	0.0146323
918.838	0.0145426
918.916	0.0146288
918.994	0.0146754
919.072	0.0145578
919.150	0.0144776
919.228	0.0145315
919.307	0.0143565
919.385	0.0143072
919.463	0.0145043
919.541	0.0145638
919.619	0.0142618
919.697	0.0142166
919.775	0.0143465
919.853	0.0144760
919.932	0.0145184
920.010	0.0144296
920.088	0.0144829
920.166	0.0144008
920.244	0.0143762
920.322	0.0144102
920.400	0.0145703
920.478	0.0145792
920.557	0.0144329
920.635	0.0146722
920.713	0.0145520
920.791	0.0146414
920.869	0.0146436
920.947	0.0146568
921.025	0.0147108
921.103	0.0145641
921.182	0.0147327
921.260	0.0147502
921.338	0.0146932
921.416	0.0146551
921.494	0.0146915
921.572	0.0148736
921.650	0.0149135
921.728	0.0147816
921.807	0.0146985
921.885	0.0146663
921.963	0.0148432
922.041	0.0148213
922.119	0.0148019
922.197	0.0148311
922.275	0.0146881
922.353	0.0149229
922.432	0.0147495
922.510	0.0147563
922.588	0.0147736
922.666	0.0148730
922.744	0.0147681
922.822	0.0146825
922.900	0.0147098
922.978	0.0147271
923.057	0.0146725
923.135	0.0148342
923.213	0.0148156
923.291	0.0146944
923.369	0.0147256
923.447	0.0147398
923.525	0.0147274
923.603	0.0146404
923.682	0.0145564
923.760	0.0146759
923.838	0.0145406
923.916	0.0146669
923.994	0.0145474
924.072	0.0145909
924.150	0.0144760
924.228	0.0145893
924.307	0.0144826
924.385	0.0144413
924.463	0.0145745
924.541	0.0142511
924.619	0.0143195
924.697	0.0145254
924.775	0.0145516
924.853	0.0144756
924.932	0.0144142
925.010	0.0143694
925.088	0.0143095
925.166	0.0143794
925.244	0.0144983
925.322	0.0144400
925.400	0.0144465
925.478	0.0144880
925.557	0.0144493
925.635	0.0145128
925.713	0.0145238
925.791	0.0144489
925.869	0.0145580
925.947	0.0144881
926.025	0.0145432
926.103	0.0145144
926.182	0.0144817
926.260	0.0145327
926.338	0.0146896
926.416	0.0146135
926.494	0.0146729
926.572	0.0147527
926.650	0.0146362
926.728	0.0146057
926.807	0.0148049
926.885	0.0149695
926.963	0.0148432
927.041	0.0147006
927.119	0.0148116
927.197	0.0149675
927.275	0.0148804
927.353	0.0150102
927.432	0.0149648
927.510	0.0148717
927.588	0.0148553
927.666	0.0147095
927.744	0.0146769
927.822	0.0146733
927.900	0.0148304
927.978	0.0146672
928.057	0.0145469
928.135	0.0145499
928.213	0.0147034
928.291	0.0145304
928.369	0.0144492
928.447	0.0143823
928.525	0.0145638
928.603	0.0143192
928.682	0.0144302
928.760	0.0145377
928.838	0.0144181
928.916	0.0143864
928.994	0.0144107
929.072	0.0144125
929.150	0.0143906
929.228	0.0144950
929.307	0.0143698
929.385	0.0143961
929.463	0.0145273
929.541	0.0144247
929.619	0.0145667
929.697	0.0144737
929.775	0.0146119
929.853	0.0145495
929.932	0.0145826
930.010	0.0144865
930.088	0.0146455
930.166	0.0144612
930.244	0.0145517
930.322	0.0145599
930.400	0.0146513
930.478	0.0148689
930.557	0.0147610
930.635	0.0147625
930.713	0.0147025
930.791	0.0148833
930.869	0.0148200
930.947	0.0148242
931.025	0.0147960
931.103	0.0150002
931.182	0.0147363
931.260	0.0148013
931.338	0.0148656
931.416	0.0148381
931.494	0.0149388
931.572	0.0148341
931.650	0.0147664
931.728	0.0148517
931.807	0.0148388
931.885	0.0148372
931.963	0.0147869
932.041	0.0147307
932.119	0.0148389
932.197	0.0148045
932.275	0.0149125
932.353	0.0146113
932.432	0.0147199
932.510	0.0148344
932.588	0.0148259
932.666	0.0146532
932.744	0.0147546
932.822	0.0147932
932.900	0.0147130
932.978	0.0147265
933.057	0.0147764
933.135	0.0146371
933.213	0.0146218
933.291	0.0147625
933.369	0.0146237
933.447	0.0146970
933.525	0.0144651
933.603	0.0145637
933.682	0.0146448
933.760	0.0145358
933.838	0.0145586
933.916	0.0146249
933.994	0.0145067
934.072	0.0145293
934.150	0.0144760
934.228	0.0144878
934.307	0.0146056
934.385	0.0145375
934.463	0.0144581
934.541	0.0144158
934.619	0.0144761
934.697	0.0144571
934.775	0.0144073
934.853	0.0144108
934.932	0.0144946
935.010	0.0144573
935.088	0.0143878
935.166	0.0144732
935.244	0.0144489
935.322	0.0145328
935.400	0.0145554
935.478	0.0144122
935.557	0.0144300
935.635	0.0143708
935.713	0.0145433
935.791	0.0145056
935.869	0.0146098
935.947	0.0145483
936.025	0.0144815
936.103	0.0144402
936.182	0.0145409
936.260	0.0146887
936.338	0.0144856
936.416	0.0145913
936.494	0.0146615
936.572	0.0145431
936.650	0.0146666
936.728	0.0148179
936.807	0.0147282
936.885	0.0146902
936.963	0.0147416
937.041	0.0147634
937.119	0.0146875
937.197	0.0146813
937.275	0.0146785
937.353	0.0148544
937.432	0.0147769
937.510	0.0147630
937.588	0.0147220
937.666	0.0147594
937.744	0.0148479
937.822	0.0148464
937.900	0.0146795
937.978	0.0147129
938.057	0.0147048
938.135	0.0146772
938.213	0.0146405
938.291	0.0145957
938.369	0.0146331
938.447	0.0145348
938.525	0.0146652
938.603	0.0146273
938.682	0.0147276
938.760	0.0146365
938.838	0.0147197
938.916	0.0146950
938.994	0.0145638
939.072	0.0147152
939.150	0.0146072
939.228	0.0147070
939.307	0.0145923
939.385	0.0146109
939.463	0.0146894
939.541	0.0147558
939.619	0.0145957
939.697	0.0148045
939.775	0.0145816
939.853	0.0146643
939.932	0.0146542
940.010	0.0146892
940.088	0.0146294
940.166	0.0146829
940.244	0.0146755
940.322	0.0144786
940.400	0.0146493
940.478	0.0146292
940.557	0.0143568
940.635	0.0145306
940.713	0.0145284
940.791	0.0146669
940.869	0.0145493
940.947	0.0144416
941.025	0.0144434
941.103	0.0145736
941.182	0.0145023
941.260	0.0146402
941.338	0.0146918
941.416	0.0145018
941.494	0.0145054
941.572	0.0145648
941.650	0.0147382
941.728	0.0145517
941.807	0.0145995
941.885	0.0145973
941.963	0.0147193
942.041	0.0147159
942.119	0.0147286
942.197	0.0147217
942.275	0.0149014
942.353	0.0148052
942.432	0.0148183
942.510	0.0147039
942.588	0.0148187
942.666	0.0148827
942.744	0.0149063
942.822	0.0146913
942.900	0.0148943
942.978	0.0148244
943.057	0.0146503
943.135	0.0146414
943.213	0.0145860
943.291	0.0145520
943.369	0.0146501
943.447	0.0146590
943.525	0.0146078
943.603	0.0145301
943.682	0.0143869
943.760	0.0145012
943.838	0.0144650
943.916	0.0142899
943.994	0.0143371
944.072	0.0144335
944.150	0.0144227
944.228	0.0144528
944.307	0.0143977
944.385	0.0143732
944.463	0.0143647
944.541	0.0144067
944.619	0.0145549
944.697	0.0143993
944.775	0.0143680
944.853	0.0145696
944.932	0.0146794
945.010	0.0146469
945.088	0.0145860
945.166	0.0144621
945.244	0.0144890
945.322	0.0146172
945.400	0.0146645
945.478	0.0146043
945.557	0.0146651
945.635	0.0145272
945.713	0.0145396
945.791	0.0145793
945.869	0.0145635
945.947	0.0143840
946.025	0.0144930
946.103	0.0146519
946.182	0.0144796
946.260	0.0144334
946.338	0.0143118
946.416	0.0143976
946.494	0.0145531
946.572	0.0145819
946.650	0.0145803
946.728	0.0144821
946.807	0.0145068
946.885	0.0146043
946.963	0.0143359
947.041	0.0145694
947.119	0.0145451
947.197	0.0145321
947.275	0.0146160
947.353	0.0146258
947.432	0.0145967
947.510	0.0146670
947.588	0.0147723
947.666	0.0145260
947.744	0.0145164
947.822	0.0146137
947.900	0.0146575
947.978	0.0146576
948.057	0.0145340
948.135	0.0145905
948.213	0.0146620
948.291	0.0146544
948.369	0.0145818
948.447	0.0143669
948.525	0.0145728
948.603	0.0145277
948.682	0.0145166
948.760	0.0145844
948.838	0.0144884
948.916	0.0144603
948.994	0.0145099
949.072	0.0145715
949.150	0.0144500
949.228	0.0144938
949.307	0.0144928
949.385	0.0144642
949.463	0.0145149
949.541	0.0145600
949.619	0.0145792
949.697	0.0146133
949.775	0.0145473
949.853	0.0145132
949.932	0.0146647
950.010	0.0145641
950.088	0.0146137
950.166	0.0147213
950.244	0.0145721
950.322	0.0146249
950.400	0.0145817
950.478	0.0145909
950.557	0.0145352
950.635	0.0145024
950.713	0.0145994
950.791	0.0145307
950.869	0.0145739
950.947	0.0144278
951.025	0.0144128
951.103	0.0144968
951.182	0.0144786
951.260	0.0143121
951.338	0.0143681
951.416	0.0144138
951.494	0.0144296
951.572	0.0143590
951.650	0.0143423
951.728	0.0144145
951.807	0.0144969
951.885	0.0143418
951.963	0.0144582
952.041	0.0144304
952.119	0.0143575
952.197	0.0144401
952.275	0.0146102
952.353	0.0144422
952.432	0.0143685
952.510	0.0145555
952.588	0.0145093
952.666	0.0145226
952.744	0.0144978
952.822	0.0145731
952.900	0.0145493
952.978	0.0146184
953.057	0.0146568
953.135	0.0145806
953.213	0.0146252
953.291	0.0145573
953.369	0.0146331
953.447	0.0146371
953.525	0.0145662
953.603	0.0145158
953.682	0.0145290
953.760	0.0144854
953.838	0.0144651
953.916	0.0144923
953.994	0.0145730
954.072	0.0144263
954.150	0.0144222
954.228	0.0144391
954.307	0.0145313
954.385	0.0145467
954.463	0.0144344
954.541	0.0144887
954.619	0.0146012
954.697	0.0145307
954.775	0.0144295
954.853	0.0146910
954.932	0.0146239
955.010	0.0146834
955.088	0.0146880
955.166	0.0144972
955.244	0.0145634
955.322	0.0146416
955.400	0.0147132
955.478	0.0146691
955.557	0.0144913
955.635	0.0147133
955.713	0.0146840
955.791	0.0145437
955.869	0.0146167
955.947	0.0145232
956.025	0.0146150
956.103	0.0145940
956.182	0.0145711
956.260	0.0146371
956.338	0.0143919
956.416	0.0144476
956.494	0.0144714
956.572	0.0146113
956.650	0.0145490
956.728	0.0145186
956.807	0.0144406
956.885	0.0145094
956.963	0.0144982
957.041	0.0146205
957.119	0.0145983
957.197	0.0146219
957.275	0.0146577
957.353	0.0146200
957.432	0.0146485
957.510	0.0147864
957.588	0.0148022
957.666	0.0147857
957.744	0.0148197
957.822	0.0148035
957.900	0.0148134
957.978	0.0147316
958.057	0.0148799
958.135	0.0149274
958.213	0.0149290
958.291	0.0147954
958.369	0.0148550
958.447	0.0147581
958.525	0.0149444
958.603	0.0147228
958.682	0.0147125
958.760	0.0146591
958.838	0.0146736
958.916	0.0146913
958.994	0.0145699
959.072	0.0146033
959.150	0.0145934
959.228	0.0145580
959.307	0.0145409
959.385	0.0145847
959.463	0.0145814
959.541	0.0145279
959.619	0.0143560
959.697	0.0144836
959.775	0.0146037
959.853	0.0143981
959.932	0.0144045
960.010	0.0144163
960.088	0.0144345
960.166	0.0144516
960.244	0.0144113
960.322	0.0145494
960.400	0.0145444
960.478	0.0145260
960.557	0.0146095
960.635	0.0146098
960.713	0.0147420
960.791	0.0145723
960.869	0.0146542
960.947	0.0146790
961.025	0.0147393
961.103	0.0147996
961.182	0.0146314
961.260	0.0146861
961.338	0.0147615
961.416	0.0147324
961.494	0.0146505
961.572	0.0146294
961.650	0.0146705
961.728	0.0146889
961.807	0.0146755
961.885	0.0146413
961.963	0.0146215
962.041	0.0146799
962.119	0.0146206
962.197	0.0147421
962.275	0.0145535
962.353	0.0145082
962.432	0.0147293
962.510	0.0147648
962.588	0.0146006
962.666	0.0146096
962.744	0.0148052
962.822	0.0147787
962.900	0.0146989
962.978	0.0147826
963.057	0.0147014
963.135	0.0146983
963.213	0.0147289
963.291	0.0146572
963.369	0.0147162
963.447	0.0146407
963.525	0.0146244
963.603	0.0146056
963.682	0.0145905
963.760	0.0144987
963.838	0.0145654
963.916	0.0145668
963.994	0.0146835
964.072	0.0145522
964.150	0.0144650
964.228	0.0145324
964.307	0.0145479
964.385	0.0144896
964.463	0.0144887
964.541	0.0144970
964.619	0.0144518
964.697	0.0143743
964.775	0.0145895
964.853	0.0145538
964.932	0.0144348
965.010	0.0145499
965.088	0.0145410
965.166	0.0143832
965.244	0.0146542
965.322	0.0145027
965.400	0.0144100
965.478	0.0145947
965.557	0.0145808
965.635	0.0145367
965.713	0.0145187
965.791	0.0146587
965.869	0.0146475
965.947	0.0146593
966.025	0.0145978
966.103	0.0145288
966.182	0.0144878
966.260	0.0144723
966.338	0.0146071
966.416	0.0145011
966.494	0.0145858
966.572	0.0145890
966.650	0.0144813
966.728	0.0145467
966.807	0.0144096
966.885	0.0143849
966.963	0.0144848
967.041	0.0144555
967.119	0.0144790
967.197	0.0145419
967.275	0.0143964
967.353	0.0144238
967.432	0.0144125
967.510	0.0144236
967.588	0.0143080
967.666	0.0143641
967.744	0.0143991
967.822	0.0144556
967.900	0.0144821
967.978	0.0144804
968.057	0.0144600
968.135	0.0145509
968.213	0.0145401
968.291	0.0145476
968.369	0.0144168
968.447	0.0145004
968.525	0.0145648
968.603	0.0145116
968.682	0.0144804
968.760	0.0145966
968.838	0.0143451
968.916	0.0145500
968.994	0.0145004
969.072	0.0143226
969.150	0.0144101
969.228	0.0144767
969.307	0.0142435
969.385	0.0142991
969.463	0.0144617
969.541	0.0143250
969.619	0.0142558
969.697	0.0143260
969.775	0.0143318
969.853	0.0144592
969.932	0.0143377
