05/14/2022	19:33:40	Ver.	4.1	UNKNOWN
Optical Delay	650.009681	Delta X		0.078125	Sweeps	1	Scan Rate	0/0
Coordinates	Axis 1	NaN	Axis 2	NaN	Axis 3	NaN	Axis 4	NaN	Axis 5	NaN	Axis 6	0.000000
TX Power	0.000000	RX Power	0.000000

650.010	0.0140212
650.088	0.0139626
650.166	0.0138937
650.244	0.0138608
650.322	0.0138541
650.400	0.0140665
650.478	0.0137869
650.557	0.0139780
650.635	0.0138603
650.713	0.0139263
650.791	0.0138355
650.869	0.0137350
650.947	0.0139579
651.025	0.0139051
651.103	0.0139602
651.182	0.0140547
651.260	0.0138759
651.338	0.0138985
651.416	0.0138586
651.494	0.0139484
651.572	0.0139109
651.650	0.0138831
651.728	0.0139027
651.807	0.0140527
651.885	0.0139619
651.963	0.0138619
652.041	0.0138618
652.119	0.0138210
652.197	0.0140360
652.275	0.0139191
652.353	0.0138255
652.432	0.0139380
652.510	0.0138940
652.588	0.0138464
652.666	0.0139040
652.744	0.0137991
652.822	0.0137889
652.900	0.0138258
652.978	0.0138863
653.057	0.0138471
653.135	0.0137536
653.213	0.0138853
653.291	0.0140096
653.369	0.0139455
653.447	0.0138430
653.525	0.0137041
653.603	0.0139081
653.682	0.0139638
653.760	0.0139391
653.838	0.0139333
653.916	0.0138433
653.994	0.0138953
654.072	0.0139994
654.150	0.0139118
654.228	0.0139716
654.307	0.0137587
654.385	0.0139284
654.463	0.0138982
654.541	0.0140034
654.619	0.0140257
654.697	0.0138707
654.775	0.0138917
654.853	0.0139980
654.932	0.0139120
655.010	0.0139794
655.088	0.0138276
655.166	0.0137502
655.244	0.0138153
655.322	0.0138611
655.400	0.0138261
655.478	0.0136816
655.557	0.0137801
655.635	0.0138335
655.713	0.0137476
655.791	0.0139299
655.869	0.0137340
655.947	0.0137266
656.025	0.0139366
656.103	0.0138277
656.182	0.0138068
656.260	0.0138307
656.338	0.0139220
656.416	0.0139006
656.494	0.0139127
656.572	0.0138955
656.650	0.0138608
656.728	0.0139044
656.807	0.0140244
656.885	0.0139651
656.963	0.0140889
657.041	0.0140723
657.119	0.0140347
657.197	0.0140845
657.275	0.0139574
657.353	0.0139118
657.432	0.0138208
657.510	0.0138827
657.588	0.0139600
657.666	0.0138991
657.744	0.0139925
657.822	0.0138397
657.900	0.0136275
657.978	0.0138422
658.057	0.0138137
658.135	0.0138577
658.213	0.0139210
658.291	0.0138570
658.369	0.0137328
658.447	0.0137454
658.525	0.0137833
658.603	0.0139758
658.682	0.0140028
658.760	0.0139295
658.838	0.0138615
658.916	0.0136871
658.994	0.0138181
659.072	0.0138900
659.150	0.0138717
659.228	0.0138186
659.307	0.0139485
659.385	0.0137524
659.463	0.0138276
659.541	0.0137223
659.619	0.0138258
659.697	0.0138543
659.775	0.0138461
659.853	0.0137313
659.932	0.0137907
660.010	0.0138512
660.088	0.0139271
660.166	0.0138811
660.244	0.0138084
660.322	0.0137176
660.400	0.0138173
660.478	0.0138747
660.557	0.0137340
660.635	0.0137593
660.713	0.0137547
660.791	0.0137000
660.869	0.0136643
660.947	0.0136742
661.025	0.0136512
661.103	0.0137023
661.182	0.0137034
661.260	0.0138212
661.338	0.0136908
661.416	0.0137337
661.494	0.0137326
661.572	0.0139195
661.650	0.0139441
661.728	0.0137284
661.807	0.0139120
661.885	0.0141039
661.963	0.0141261
662.041	0.0142513
662.119	0.0142711
662.197	0.0142118
662.275	0.0143004
662.353	0.0143627
662.432	0.0143484
662.510	0.0140890
662.588	0.0140450
662.666	0.0140010
662.744	0.0138065
662.822	0.0137420
662.900	0.0137282
662.978	0.0135515
663.057	0.0135600
663.135	0.0132935
663.213	0.0131657
663.291	0.0130564
663.369	0.0131956
663.447	0.0130318
663.525	0.0130507
663.603	0.0129226
663.682	0.0130389
663.760	0.0130087
663.838	0.0130726
663.916	0.0129127
663.994	0.0130800
664.072	0.0131138
664.150	0.0134329
664.228	0.0135970
664.307	0.0137074
664.385	0.0139201
664.463	0.0140758
664.541	0.0143433
664.619	0.0145503
664.697	0.0146931
664.775	0.0148594
664.853	0.0151230
664.932	0.0151521
665.010	0.0152398
665.088	0.0154168
665.166	0.0155233
665.244	0.0156779
665.322	0.0155462
665.400	0.0155222
665.478	0.0153640
665.557	0.0152879
665.635	0.0151420
665.713	0.0149612
665.791	0.0147257
665.869	0.0144955
665.947	0.0142450
666.025	0.0139584
666.103	0.0136071
666.182	0.0133051
666.260	0.0130477
666.338	0.0128419
666.416	0.0125213
666.494	0.0122629
666.572	0.0120441
666.650	0.0119183
666.728	0.0118876
666.807	0.0118428
666.885	0.0116994
666.963	0.0116993
667.041	0.0117653
667.119	0.0119466
667.197	0.0121177
667.275	0.0122962
667.353	0.0125282
667.432	0.0128659
667.510	0.0132191
667.588	0.0136487
667.666	0.0141858
667.744	0.0145786
667.822	0.0151544
667.900	0.0156117
667.978	0.0159190
668.057	0.0165564
668.135	0.0167721
668.213	0.0170431
668.291	0.0173679
668.369	0.0173835
668.447	0.0175403
668.525	0.0176190
668.603	0.0174519
668.682	0.0172554
668.760	0.0170707
668.838	0.0167241
668.916	0.0164238
668.994	0.0159737
669.072	0.0155605
669.150	0.0149252
669.228	0.0144264
669.307	0.0139094
669.385	0.0131748
669.463	0.0125713
669.541	0.0120573
669.619	0.0115252
669.697	0.0109526
669.775	0.0106126
669.853	0.0102395
669.932	0.00988060
670.010	0.00972740
670.088	0.00977798
670.166	0.00956528
670.244	0.00970917
670.322	0.0100614
670.400	0.0104824
670.478	0.0106072
670.557	0.0109281
670.635	0.0113358
670.713	0.0120567
670.791	0.0125970
670.869	0.0131748
670.947	0.0137227
671.025	0.0142834
671.103	0.0148653
671.182	0.0153996
671.260	0.0160313
671.338	0.0164085
671.416	0.0167825
671.494	0.0170602
671.572	0.0173293
671.650	0.0177412
671.728	0.0176551
671.807	0.0178590
671.885	0.0176183
671.963	0.0176962
672.041	0.0175227
672.119	0.0172223
672.197	0.0168575
672.275	0.0162622
672.353	0.0158450
672.432	0.0154228
672.510	0.0150638
672.588	0.0143846
672.666	0.0141136
672.744	0.0134170
672.822	0.0129925
672.900	0.0126057
672.978	0.0121248
673.057	0.0118985
673.135	0.0115203
673.213	0.0114093
673.291	0.0112590
673.369	0.0111383
673.447	0.0111429
673.525	0.0111565
673.603	0.0113191
673.682	0.0112653
673.760	0.0114422
673.838	0.0116415
673.916	0.0118092
673.994	0.0120197
674.072	0.0120995
674.150	0.0123714
674.228	0.0126630
674.307	0.0127595
674.385	0.0131965
674.463	0.0133274
674.541	0.0135716
674.619	0.0136531
674.697	0.0139721
674.775	0.0141287
674.853	0.0141637
674.932	0.0142509
675.010	0.0143617
675.088	0.0143161
675.166	0.0143023
675.244	0.0142165
675.322	0.0143764
675.400	0.0142655
675.478	0.0142234
675.557	0.0140652
675.635	0.0141798
675.713	0.0142741
675.791	0.0143181
675.869	0.0142532
675.947	0.0143984
676.025	0.0144189
676.103	0.0147070
676.182	0.0148463
676.260	0.0150844
676.338	0.0153045
676.416	0.0155286
676.494	0.0155066
676.572	0.0157882
676.650	0.0159110
676.728	0.0158406
676.807	0.0160680
676.885	0.0161349
676.963	0.0162210
677.041	0.0160868
677.119	0.0159975
677.197	0.0159556
677.275	0.0158185
677.353	0.0156956
677.432	0.0153925
677.510	0.0151833
677.588	0.0150898
677.666	0.0145157
677.744	0.0142268
677.822	0.0137643
677.900	0.0132239
677.978	0.0129324
678.057	0.0124579
678.135	0.0120860
678.213	0.0117849
678.291	0.0115292
678.369	0.0110345
678.447	0.0107995
678.525	0.0104662
678.603	0.0103534
678.682	0.0103889
678.760	0.0102190
678.838	0.0102455
678.916	0.0103804
678.994	0.0108126
679.072	0.0110545
679.150	0.0113403
679.228	0.0117791
679.307	0.0122315
679.385	0.0126575
679.463	0.0133066
679.541	0.0138676
679.619	0.0145588
679.697	0.0151675
679.775	0.0157033
679.853	0.0162000
679.932	0.0164754
680.010	0.0168985
680.088	0.0172655
680.166	0.0177629
680.244	0.0178555
680.322	0.0179980
680.400	0.0181050
680.478	0.0180851
680.557	0.0180723
680.635	0.0180978
680.713	0.0178619
680.791	0.0176116
680.869	0.0171096
680.947	0.0168406
681.025	0.0166273
681.103	0.0162569
681.182	0.0157090
681.260	0.0151549
681.338	0.0147182
681.416	0.0141899
681.494	0.0135899
681.572	0.0131911
681.650	0.0125821
681.728	0.0122858
681.807	0.0116726
681.885	0.0114264
681.963	0.0110773
682.041	0.0107960
682.119	0.0105508
682.197	0.0104238
682.275	0.0103553
682.353	0.0102967
682.432	0.0105025
682.510	0.0106286
682.588	0.0109371
682.666	0.0111120
682.744	0.0113007
682.822	0.0118836
682.900	0.0122314
682.978	0.0127083
683.057	0.0131749
683.135	0.0136663
683.213	0.0141510
683.291	0.0144106
683.369	0.0148817
683.447	0.0153271
683.525	0.0156388
683.603	0.0160307
683.682	0.0162347
683.760	0.0165517
683.838	0.0167857
683.916	0.0167876
683.994	0.0168334
684.072	0.0168775
684.150	0.0168789
684.228	0.0166997
684.307	0.0164920
684.385	0.0163651
684.463	0.0161380
684.541	0.0157494
684.619	0.0155678
684.697	0.0152573
684.775	0.0149043
684.853	0.0143425
684.932	0.0140470
685.010	0.0137816
685.088	0.0133857
685.166	0.0128898
685.244	0.0127045
685.322	0.0124477
685.400	0.0120860
685.478	0.0120696
685.557	0.0118988
685.635	0.0117712
685.713	0.0117263
685.791	0.0115536
685.869	0.0115590
685.947	0.0118018
686.025	0.0118312
686.103	0.0121217
686.182	0.0122498
686.260	0.0125459
686.338	0.0128168
686.416	0.0130344
686.494	0.0134357
686.572	0.0136243
686.650	0.0139342
686.728	0.0141258
686.807	0.0142592
686.885	0.0146617
686.963	0.0147488
687.041	0.0149975
687.119	0.0151871
687.197	0.0153858
687.275	0.0154470
687.353	0.0154934
687.432	0.0156593
687.510	0.0156596
687.588	0.0158259
687.666	0.0157657
687.744	0.0156437
687.822	0.0156488
687.900	0.0155106
687.978	0.0154807
688.057	0.0151949
688.135	0.0151148
688.213	0.0150274
688.291	0.0148968
688.369	0.0148372
688.447	0.0146851
688.525	0.0146834
688.603	0.0146217
688.682	0.0143976
688.760	0.0145115
688.838	0.0145205
688.916	0.0143491
688.994	0.0142883
689.072	0.0142812
689.150	0.0142944
689.228	0.0141599
689.307	0.0140611
689.385	0.0137865
689.463	0.0137701
689.541	0.0135384
689.619	0.0135373
689.697	0.0134326
689.775	0.0133656
689.853	0.0133212
689.932	0.0129772
690.010	0.0129726
690.088	0.0129610
690.166	0.0128664
690.244	0.0128273
690.322	0.0126679
690.400	0.0127072
690.478	0.0125492
690.557	0.0124529
690.635	0.0124040
690.713	0.0125523
690.791	0.0123798
690.869	0.0123517
690.947	0.0124675
691.025	0.0125355
691.103	0.0127345
691.182	0.0129019
691.260	0.0127261
691.338	0.0129967
691.416	0.0130385
691.494	0.0133061
691.572	0.0133141
691.650	0.0133791
691.728	0.0135757
691.807	0.0136726
691.885	0.0137325
691.963	0.0139386
692.041	0.0139098
692.119	0.0140733
692.197	0.0142591
692.275	0.0143522
692.353	0.0145102
692.432	0.0148110
692.510	0.0150208
692.588	0.0151797
692.666	0.0151875
692.744	0.0154149
692.822	0.0153970
692.900	0.0156170
692.978	0.0157094
693.057	0.0155138
693.135	0.0153316
693.213	0.0156049
693.291	0.0153448
693.369	0.0152565
693.447	0.0151797
693.525	0.0151115
693.603	0.0151047
693.682	0.0149882
693.760	0.0149777
693.838	0.0149698
693.916	0.0147269
693.994	0.0148335
694.072	0.0146507
694.150	0.0146717
694.228	0.0144982
694.307	0.0145878
694.385	0.0143244
694.463	0.0142865
694.541	0.0142147
694.619	0.0140897
694.697	0.0140509
694.775	0.0137496
694.853	0.0137713
694.932	0.0135404
695.010	0.0134883
695.088	0.0134144
695.166	0.0133466
695.244	0.0131418
695.322	0.0130183
695.400	0.0127875
695.478	0.0128776
695.557	0.0127158
695.635	0.0125700
695.713	0.0124596
695.791	0.0121702
695.869	0.0119300
695.947	0.0119228
696.025	0.0116264
696.103	0.0117484
696.182	0.0115098
696.260	0.0113580
696.338	0.0113631
696.416	0.0114516
696.494	0.0112647
696.572	0.0114574
696.650	0.0116832
696.728	0.0117303
696.807	0.0118452
696.885	0.0121471
696.963	0.0123180
697.041	0.0125108
697.119	0.0127390
697.197	0.0132210
697.275	0.0135449
697.353	0.0139676
697.432	0.0142761
697.510	0.0147765
697.588	0.0152350
697.666	0.0155920
697.744	0.0160204
697.822	0.0165658
697.900	0.0169086
697.978	0.0172680
698.057	0.0175696
698.135	0.0179681
698.213	0.0181559
698.291	0.0181837
698.369	0.0182640
698.447	0.0182820
698.525	0.0180558
698.603	0.0180449
698.682	0.0179742
698.760	0.0176841
698.838	0.0173247
698.916	0.0170595
698.994	0.0168806
699.072	0.0165417
699.150	0.0161262
699.228	0.0157861
699.307	0.0154240
699.385	0.0151192
699.463	0.0146462
699.541	0.0142757
699.619	0.0139864
699.697	0.0137017
699.775	0.0134148
699.853	0.0130351
699.932	0.0127272
700.010	0.0124558
700.088	0.0122843
700.166	0.0120181
700.244	0.0118787
700.322	0.0116546
700.400	0.0113960
700.478	0.0112791
700.557	0.0111985
700.635	0.0110108
700.713	0.0109145
700.791	0.0107415
700.869	0.0107773
700.947	0.0107007
701.025	0.0107218
701.103	0.0108097
701.182	0.0111521
701.260	0.0112347
701.338	0.0113280
701.416	0.0116773
701.494	0.0120979
701.572	0.0123882
701.650	0.0128009
701.728	0.0131322
701.807	0.0134933
701.885	0.0139054
701.963	0.0141644
702.041	0.0145774
702.119	0.0147876
702.197	0.0149177
702.275	0.0150153
702.353	0.0151521
702.432	0.0152384
702.510	0.0152994
702.588	0.0153110
702.666	0.0153127
702.744	0.0152155
702.822	0.0151629
702.900	0.0150473
702.978	0.0151256
703.057	0.0149961
703.135	0.0150130
703.213	0.0148972
703.291	0.0149337
703.369	0.0152518
703.447	0.0150961
703.525	0.0151559
703.603	0.0152653
703.682	0.0154063
703.760	0.0155966
703.838	0.0156970
703.916	0.0156144
703.994	0.0157853
704.072	0.0158323
704.150	0.0155882
704.228	0.0157229
704.307	0.0156062
704.385	0.0153344
704.463	0.0153250
704.541	0.0151203
704.619	0.0148432
704.697	0.0145140
704.775	0.0142870
704.853	0.0141627
704.932	0.0139144
705.010	0.0136344
705.088	0.0133172
705.166	0.0131270
705.244	0.0131050
705.322	0.0130051
705.400	0.0128983
705.478	0.0126566
705.557	0.0127412
705.635	0.0127837
705.713	0.0127747
705.791	0.0128257
705.869	0.0128167
705.947	0.0128452
706.025	0.0129202
706.103	0.0130807
706.182	0.0131034
706.260	0.0131094
706.338	0.0133096
706.416	0.0133437
706.494	0.0132455
706.572	0.0132629
706.650	0.0133391
706.728	0.0134122
706.807	0.0133459
706.885	0.0132879
706.963	0.0133007
707.041	0.0131516
707.119	0.0132588
707.197	0.0133218
707.275	0.0132826
707.353	0.0132752
707.432	0.0133503
707.510	0.0132097
707.588	0.0132210
707.666	0.0131803
707.744	0.0132011
707.822	0.0131689
707.900	0.0132688
707.978	0.0131846
708.057	0.0133261
708.135	0.0133484
708.213	0.0132034
708.291	0.0133158
708.369	0.0132976
708.447	0.0131474
708.525	0.0131120
708.603	0.0132262
708.682	0.0131714
708.760	0.0132377
708.838	0.0134917
708.916	0.0136884
708.994	0.0136082
709.072	0.0139040
709.150	0.0141378
709.228	0.0143933
709.307	0.0146444
709.385	0.0149398
709.463	0.0152411
709.541	0.0154121
709.619	0.0156842
709.697	0.0159972
709.775	0.0163113
709.853	0.0164993
709.932	0.0166177
710.010	0.0166899
710.088	0.0167879
710.166	0.0167044
710.244	0.0166638
710.322	0.0166761
710.400	0.0166838
710.478	0.0164449
710.557	0.0163257
710.635	0.0161448
710.713	0.0157723
710.791	0.0156491
710.869	0.0154176
710.947	0.0150914
711.025	0.0147176
711.103	0.0145741
711.182	0.0143590
711.260	0.0141277
711.338	0.0138287
711.416	0.0136046
711.494	0.0133896
711.572	0.0133805
711.650	0.0130496
711.728	0.0129453
711.807	0.0128400
711.885	0.0128514
711.963	0.0125948
712.041	0.0124142
712.119	0.0123451
712.197	0.0122189
712.275	0.0121781
712.353	0.0120464
712.432	0.0119808
712.510	0.0116454
712.588	0.0115200
712.666	0.0115491
712.744	0.0115431
712.822	0.0114668
712.900	0.0114016
712.978	0.0115614
713.057	0.0117113
713.135	0.0118735
713.213	0.0119277
713.291	0.0122240
713.369	0.0126389
713.447	0.0129229
713.525	0.0128719
713.603	0.0132404
713.682	0.0136252
713.760	0.0137416
713.838	0.0140313
713.916	0.0143630
713.994	0.0145502
714.072	0.0146251
714.150	0.0146078
714.228	0.0150454
714.307	0.0151569
714.385	0.0151749
714.463	0.0153080
714.541	0.0154691
714.619	0.0154734
714.697	0.0154224
714.775	0.0154353
714.853	0.0154139
714.932	0.0153905
715.010	0.0153556
715.088	0.0151820
715.166	0.0152168
715.244	0.0150580
715.322	0.0150396
715.400	0.0148235
715.478	0.0147487
715.557	0.0146255
715.635	0.0145821
715.713	0.0144518
715.791	0.0143264
715.869	0.0142721
715.947	0.0143145
716.025	0.0142406
716.103	0.0140234
716.182	0.0140008
716.260	0.0141633
716.338	0.0141069
716.416	0.0140452
716.494	0.0140374
716.572	0.0140314
716.650	0.0139407
716.728	0.0139359
716.807	0.0139543
716.885	0.0138847
716.963	0.0138994
717.041	0.0137380
717.119	0.0135364
717.197	0.0136119
717.275	0.0136530
717.353	0.0135838
717.432	0.0138283
717.510	0.0136720
717.588	0.0136611
717.666	0.0136601
717.744	0.0137592
717.822	0.0136385
717.900	0.0137040
717.978	0.0135756
718.057	0.0135632
718.135	0.0136422
718.213	0.0136532
718.291	0.0134689
718.369	0.0133854
718.447	0.0134315
718.525	0.0133575
718.603	0.0133425
718.682	0.0133981
718.760	0.0133168
718.838	0.0131805
718.916	0.0131756
718.994	0.0130200
719.072	0.0129340
719.150	0.0127223
719.228	0.0128572
719.307	0.0126431
719.385	0.0125934
719.463	0.0126080
719.541	0.0127110
719.619	0.0125762
719.697	0.0127048
719.775	0.0127813
719.853	0.0127998
719.932	0.0129034
720.010	0.0129532
720.088	0.0130798
720.166	0.0133466
720.244	0.0134251
720.322	0.0134676
720.400	0.0136243
720.478	0.0137125
720.557	0.0139606
720.635	0.0141352
720.713	0.0142708
720.791	0.0144445
720.869	0.0145248
720.947	0.0147944
721.025	0.0149284
721.103	0.0150394
721.182	0.0151406
721.260	0.0152542
721.338	0.0153172
721.416	0.0153500
721.494	0.0154903
721.572	0.0156429
721.650	0.0156705
721.728	0.0157033
721.807	0.0157626
721.885	0.0156207
721.963	0.0156155
722.041	0.0156387
722.119	0.0155644
722.197	0.0155070
722.275	0.0153783
722.353	0.0155418
722.432	0.0153978
722.510	0.0151653
722.588	0.0151472
722.666	0.0150095
722.744	0.0147694
722.822	0.0147767
722.900	0.0146887
722.978	0.0144614
723.057	0.0141081
723.135	0.0139168
723.213	0.0138403
723.291	0.0136124
723.369	0.0133949
723.447	0.0132719
723.525	0.0130881
723.603	0.0130090
723.682	0.0130346
723.760	0.0128324
723.838	0.0126942
723.916	0.0128236
723.994	0.0128445
724.072	0.0129072
724.150	0.0129565
724.228	0.0130079
724.307	0.0128888
724.385	0.0131861
724.463	0.0131220
724.541	0.0130676
724.619	0.0130625
724.697	0.0131640
724.775	0.0129945
724.853	0.0132050
724.932	0.0131509
725.010	0.0133181
725.088	0.0133509
725.166	0.0133498
725.244	0.0132748
725.322	0.0134319
725.400	0.0134779
725.478	0.0134402
725.557	0.0134983
725.635	0.0135808
725.713	0.0137974
725.791	0.0138741
725.869	0.0138110
725.947	0.0139362
726.025	0.0140578
726.103	0.0140308
726.182	0.0141933
726.260	0.0143343
726.338	0.0142717
726.416	0.0143949
726.494	0.0143340
726.572	0.0143606
726.650	0.0144414
726.728	0.0143729
726.807	0.0144568
726.885	0.0144203
726.963	0.0143239
727.041	0.0143663
727.119	0.0143361
727.197	0.0143071
727.275	0.0142789
727.353	0.0143365
727.432	0.0143038
727.510	0.0142881
727.588	0.0142812
727.666	0.0142667
727.744	0.0140939
727.822	0.0140714
727.900	0.0139927
727.978	0.0141219
728.057	0.0141016
728.135	0.0140317
728.213	0.0140697
728.291	0.0140502
728.369	0.0140437
728.447	0.0139635
728.525	0.0139578
728.603	0.0138704
728.682	0.0138697
728.760	0.0141200
728.838	0.0140308
728.916	0.0140008
728.994	0.0139294
729.072	0.0140472
729.150	0.0139854
729.228	0.0139352
729.307	0.0140884
729.385	0.0139845
729.463	0.0140130
729.541	0.0138721
729.619	0.0139117
729.697	0.0138780
729.775	0.0138113
729.853	0.0137378
729.932	0.0138000
730.010	0.0137193
730.088	0.0136407
730.166	0.0137305
730.244	0.0134675
730.322	0.0132761
730.400	0.0133901
730.478	0.0133474
730.557	0.0132447
730.635	0.0131409
730.713	0.0130961
730.791	0.0132487
730.869	0.0132115
730.947	0.0131584
731.025	0.0131514
731.103	0.0131498
731.182	0.0132815
731.260	0.0133024
731.338	0.0133186
731.416	0.0133788
731.494	0.0135343
731.572	0.0135169
731.650	0.0136484
731.728	0.0137338
731.807	0.0138313
731.885	0.0138448
731.963	0.0141650
732.041	0.0140682
732.119	0.0141563
732.197	0.0142224
732.275	0.0141012
732.353	0.0141096
732.432	0.0142362
732.510	0.0143692
732.588	0.0142949
732.666	0.0142365
732.744	0.0143758
732.822	0.0143033
732.900	0.0142372
732.978	0.0141133
733.057	0.0140929
733.135	0.0140866
733.213	0.0141044
733.291	0.0140470
733.369	0.0139808
733.447	0.0139694
733.525	0.0139233
733.603	0.0138519
733.682	0.0137909
733.760	0.0137587
733.838	0.0137742
733.916	0.0136199
733.994	0.0135897
734.072	0.0136145
734.150	0.0136523
734.228	0.0134936
734.307	0.0135540
734.385	0.0133931
734.463	0.0135984
734.541	0.0136829
734.619	0.0136373
734.697	0.0136787
734.775	0.0137806
734.853	0.0137769
734.932	0.0140783
735.010	0.0140621
735.088	0.0141753
735.166	0.0142608
735.244	0.0144002
735.322	0.0144348
735.400	0.0144328
735.478	0.0143338
735.557	0.0145177
735.635	0.0146338
735.713	0.0146537
735.791	0.0146597
735.869	0.0146208
735.947	0.0145173
736.025	0.0146275
736.103	0.0145410
736.182	0.0143166
736.260	0.0142982
736.338	0.0141341
736.416	0.0140539
736.494	0.0140177
736.572	0.0139794
736.650	0.0138625
736.728	0.0136914
736.807	0.0136523
736.885	0.0135055
736.963	0.0135519
737.041	0.0134117
737.119	0.0133440
737.197	0.0133842
737.275	0.0133778
737.353	0.0134125
737.432	0.0134084
737.510	0.0134895
737.588	0.0134454
737.666	0.0133703
737.744	0.0135587
737.822	0.0137122
737.900	0.0136401
737.978	0.0137151
738.057	0.0137684
738.135	0.0138704
738.213	0.0138315
738.291	0.0139654
738.369	0.0139388
738.447	0.0138363
738.525	0.0139877
738.603	0.0138651
738.682	0.0138311
738.760	0.0139355
738.838	0.0140511
738.916	0.0139857
738.994	0.0139813
739.072	0.0140008
739.150	0.0137597
739.228	0.0138844
739.307	0.0139923
739.385	0.0139650
739.463	0.0138577
739.541	0.0140195
739.619	0.0140540
739.697	0.0140518
739.775	0.0140174
739.853	0.0140382
739.932	0.0139835
740.010	0.0139091
740.088	0.0138972
740.166	0.0138589
740.244	0.0136901
740.322	0.0137023
740.400	0.0137801
740.478	0.0137526
740.557	0.0137351
740.635	0.0137046
740.713	0.0138448
740.791	0.0137451
740.869	0.0139860
740.947	0.0138867
741.025	0.0138229
741.103	0.0140448
741.182	0.0139764
741.260	0.0139758
741.338	0.0140775
741.416	0.0139877
741.494	0.0141257
741.572	0.0141441
741.650	0.0140753
741.728	0.0140147
741.807	0.0141740
741.885	0.0141798
741.963	0.0141523
742.041	0.0141319
742.119	0.0140560
742.197	0.0140707
742.275	0.0140880
742.353	0.0140820
742.432	0.0140514
742.510	0.0139267
742.588	0.0139258
742.666	0.0139143
742.744	0.0138608
742.822	0.0139720
742.900	0.0138694
742.978	0.0138933
743.057	0.0138306
743.135	0.0137803
743.213	0.0138675
743.291	0.0138602
743.369	0.0138095
743.447	0.0139796
743.525	0.0137867
743.603	0.0138694
743.682	0.0139851
743.760	0.0139482
743.838	0.0137969
743.916	0.0140808
743.994	0.0141051
744.072	0.0141071
744.150	0.0142011
744.228	0.0141717
744.307	0.0142630
744.385	0.0142387
744.463	0.0143116
744.541	0.0142703
744.619	0.0142251
744.697	0.0142560
744.775	0.0142288
744.853	0.0143094
744.932	0.0142703
745.010	0.0142855
745.088	0.0142872
745.166	0.0142843
745.244	0.0142589
745.322	0.0139831
745.400	0.0139825
745.478	0.0141351
745.557	0.0139715
745.635	0.0138906
745.713	0.0138692
745.791	0.0138472
745.869	0.0136507
745.947	0.0137217
746.025	0.0136031
746.103	0.0136883
746.182	0.0136101
746.260	0.0136455
746.338	0.0136071
746.416	0.0135595
746.494	0.0135040
746.572	0.0134048
746.650	0.0134036
746.728	0.0136423
746.807	0.0134122
746.885	0.0135168
746.963	0.0135236
747.041	0.0136108
747.119	0.0136134
747.197	0.0136630
747.275	0.0136729
747.353	0.0137238
747.432	0.0136252
747.510	0.0137170
747.588	0.0137993
747.666	0.0139668
747.744	0.0139079
747.822	0.0139356
747.900	0.0140932
747.978	0.0141086
748.057	0.0139259
748.135	0.0139224
748.213	0.0140050
748.291	0.0140366
748.369	0.0140965
748.447	0.0141573
748.525	0.0141233
748.603	0.0140207
748.682	0.0141364
748.760	0.0140346
748.838	0.0141537
748.916	0.0141715
748.994	0.0139674
749.072	0.0140824
749.150	0.0141259
749.228	0.0140998
749.307	0.0140428
749.385	0.0141743
749.463	0.0139847
749.541	0.0140997
749.619	0.0142319
749.697	0.0140636
749.775	0.0140602
749.853	0.0140327
749.932	0.0140842
750.010	0.0141557
750.088	0.0140001
750.166	0.0139552
750.244	0.0140112
750.322	0.0140224
750.400	0.0141061
750.478	0.0140640
750.557	0.0139426
750.635	0.0139615
750.713	0.0138710
750.791	0.0136983
750.869	0.0138400
750.947	0.0138314
751.025	0.0137616
751.103	0.0137907
751.182	0.0137834
751.260	0.0139632
751.338	0.0138324
751.416	0.0137910
751.494	0.0137695
751.572	0.0138489
751.650	0.0138113
751.728	0.0136702
751.807	0.0137688
751.885	0.0137894
751.963	0.0138312
752.041	0.0138429
752.119	0.0136891
752.197	0.0136964
752.275	0.0137699
752.353	0.0137299
752.432	0.0136214
752.510	0.0136899
752.588	0.0137867
752.666	0.0136831
752.744	0.0137258
752.822	0.0136091
752.900	0.0137209
752.978	0.0136539
753.057	0.0136837
753.135	0.0134792
753.213	0.0136772
753.291	0.0137457
753.369	0.0138834
753.447	0.0137651
753.525	0.0138477
753.603	0.0138924
753.682	0.0138921
753.760	0.0139211
753.838	0.0140676
753.916	0.0139980
753.994	0.0140408
754.072	0.0140639
754.150	0.0140942
754.228	0.0140618
754.307	0.0141712
754.385	0.0140337
754.463	0.0141599
754.541	0.0141645
754.619	0.0141558
754.697	0.0140801
754.775	0.0139337
754.853	0.0139706
754.932	0.0138560
755.010	0.0139111
755.088	0.0137982
755.166	0.0138998
755.244	0.0137152
755.322	0.0137917
755.400	0.0137258
755.478	0.0137291
755.557	0.0138055
755.635	0.0137498
755.713	0.0137900
755.791	0.0137915
755.869	0.0136616
755.947	0.0137398
756.025	0.0138917
756.103	0.0138928
756.182	0.0137807
756.260	0.0137363
756.338	0.0139145
756.416	0.0138887
756.494	0.0138846
756.572	0.0138917
756.650	0.0140751
756.728	0.0140530
756.807	0.0141055
756.885	0.0140322
756.963	0.0142058
757.041	0.0141949
757.119	0.0142846
757.197	0.0143024
757.275	0.0141422
757.353	0.0142767
757.432	0.0143859
757.510	0.0144025
757.588	0.0144045
757.666	0.0141922
757.744	0.0141320
757.822	0.0143327
757.900	0.0140822
757.978	0.0140033
758.057	0.0140336
758.135	0.0138600
758.213	0.0138940
758.291	0.0139082
758.369	0.0139117
758.447	0.0137853
758.525	0.0137650
758.603	0.0137568
758.682	0.0138012
758.760	0.0138026
758.838	0.0138474
758.916	0.0136970
758.994	0.0137911
759.072	0.0138701
759.150	0.0138633
759.228	0.0137389
759.307	0.0138292
759.385	0.0137836
759.463	0.0138220
759.541	0.0139031
759.619	0.0139045
759.697	0.0137510
759.775	0.0139216
759.853	0.0139008
759.932	0.0138834
760.010	0.0136409
760.088	0.0136080
760.166	0.0135571
760.244	0.0136826
760.322	0.0137730
760.400	0.0136313
760.478	0.0137060
760.557	0.0137080
760.635	0.0137584
760.713	0.0138401
760.791	0.0138916
760.869	0.0138292
760.947	0.0139034
761.025	0.0139469
761.103	0.0140964
761.182	0.0140620
761.260	0.0141293
761.338	0.0141778
761.416	0.0141189
761.494	0.0141318
761.572	0.0143182
761.650	0.0144173
761.728	0.0143225
761.807	0.0145161
761.885	0.0145222
761.963	0.0143735
762.041	0.0144362
762.119	0.0144913
762.197	0.0143069
762.275	0.0142892
762.353	0.0143240
762.432	0.0142313
762.510	0.0140739
762.588	0.0141576
762.666	0.0141315
762.744	0.0139609
762.822	0.0138814
762.900	0.0139250
762.978	0.0139396
763.057	0.0138945
763.135	0.0138978
763.213	0.0139790
763.291	0.0138676
763.369	0.0137793
763.447	0.0139031
763.525	0.0138891
763.603	0.0138258
763.682	0.0140148
763.760	0.0138898
763.838	0.0138744
763.916	0.0139327
763.994	0.0140146
764.072	0.0139590
764.150	0.0140055
764.228	0.0139545
764.307	0.0141910
764.385	0.0142121
764.463	0.0141584
764.541	0.0142214
764.619	0.0141859
764.697	0.0142480
764.775	0.0143851
764.853	0.0140935
764.932	0.0142629
765.010	0.0142582
765.088	0.0142617
765.166	0.0143026
765.244	0.0142628
765.322	0.0141795
765.400	0.0141628
765.478	0.0141350
765.557	0.0141715
765.635	0.0140255
765.713	0.0140731
765.791	0.0140580
765.869	0.0138522
765.947	0.0137711
766.025	0.0137237
766.103	0.0136622
766.182	0.0138236
766.260	0.0137227
766.338	0.0136385
766.416	0.0135860
766.494	0.0135310
766.572	0.0134709
766.650	0.0134246
766.728	0.0133981
766.807	0.0134900
766.885	0.0134822
766.963	0.0133816
767.041	0.0134809
767.119	0.0135056
767.197	0.0132771
767.275	0.0134473
767.353	0.0135232
767.432	0.0135641
767.510	0.0136210
767.588	0.0137022
767.666	0.0139553
767.744	0.0138943
767.822	0.0139052
767.900	0.0140678
767.978	0.0140844
768.057	0.0142321
768.135	0.0143179
768.213	0.0141865
768.291	0.0143565
768.369	0.0145420
768.447	0.0143689
768.525	0.0143394
768.603	0.0144939
768.682	0.0143466
768.760	0.0142551
768.838	0.0142702
768.916	0.0142796
768.994	0.0141312
769.072	0.0142126
769.150	0.0139812
769.228	0.0139749
769.307	0.0139907
769.385	0.0138913
769.463	0.0138789
769.541	0.0136205
769.619	0.0136751
769.697	0.0136435
769.775	0.0136073
769.853	0.0135501
769.932	0.0135281
770.010	0.0134487
770.088	0.0134361
770.166	0.0135150
770.244	0.0134872
770.322	0.0134628
770.400	0.0135281
770.478	0.0136999
770.557	0.0134257
770.635	0.0135577
770.713	0.0137044
770.791	0.0136124
770.869	0.0139346
770.947	0.0139370
771.025	0.0136059
771.103	0.0137951
771.182	0.0138940
771.260	0.0139874
771.338	0.0139709
771.416	0.0139972
771.494	0.0140259
771.572	0.0140979
771.650	0.0141324
771.728	0.0141144
771.807	0.0142808
771.885	0.0142760
771.963	0.0142139
772.041	0.0142262
772.119	0.0142870
772.197	0.0142961
772.275	0.0143137
772.353	0.0142236
772.432	0.0141596
772.510	0.0141854
772.588	0.0140800
772.666	0.0142272
772.744	0.0143589
772.822	0.0143015
772.900	0.0143052
772.978	0.0141415
773.057	0.0140768
773.135	0.0141056
773.213	0.0142139
773.291	0.0141775
773.369	0.0141441
773.447	0.0140168
773.525	0.0138760
773.603	0.0140430
773.682	0.0140453
773.760	0.0139590
773.838	0.0140509
773.916	0.0139114
773.994	0.0138776
774.072	0.0137465
774.150	0.0137875
774.228	0.0137511
774.307	0.0136452
774.385	0.0137694
774.463	0.0135686
774.541	0.0135976
774.619	0.0135278
774.697	0.0134390
774.775	0.0133208
774.853	0.0133575
774.932	0.0133913
775.010	0.0131836
775.088	0.0133517
775.166	0.0132161
775.244	0.0132786
775.322	0.0133281
775.400	0.0133060
775.478	0.0132120
775.557	0.0133344
775.635	0.0133717
775.713	0.0136057
775.791	0.0135522
775.869	0.0136114
775.947	0.0136036
776.025	0.0138019
776.103	0.0138221
776.182	0.0138842
776.260	0.0139265
776.338	0.0140785
776.416	0.0141878
776.494	0.0142017
776.572	0.0142641
776.650	0.0143518
776.728	0.0144852
776.807	0.0144408
776.885	0.0146763
776.963	0.0147248
777.041	0.0145578
777.119	0.0145988
777.197	0.0147231
777.275	0.0147086
777.353	0.0146629
777.432	0.0147412
777.510	0.0146965
777.588	0.0147791
777.666	0.0146452
777.744	0.0145015
777.822	0.0145731
777.900	0.0144466
777.978	0.0145454
778.057	0.0143313
778.135	0.0142596
778.213	0.0142711
778.291	0.0141626
778.369	0.0141218
778.447	0.0139729
778.525	0.0138369
778.603	0.0138268
778.682	0.0138947
778.760	0.0136359
778.838	0.0136133
778.916	0.0136442
778.994	0.0136401
779.072	0.0135635
779.150	0.0135445
779.228	0.0135846
779.307	0.0134644
779.385	0.0136512
779.463	0.0136102
779.541	0.0136328
779.619	0.0137100
779.697	0.0136958
779.775	0.0137294
779.853	0.0137720
779.932	0.0137863
780.010	0.0136862
780.088	0.0137428
780.166	0.0139154
780.244	0.0139593
780.322	0.0140482
780.400	0.0138796
780.478	0.0139645
780.557	0.0140110
780.635	0.0140330
780.713	0.0141278
780.791	0.0139944
780.869	0.0138595
780.947	0.0139015
781.025	0.0139140
781.103	0.0140384
781.182	0.0140757
781.260	0.0140955
781.338	0.0138727
781.416	0.0140729
781.494	0.0139853
781.572	0.0138338
781.650	0.0138114
781.728	0.0138570
781.807	0.0138933
781.885	0.0137704
781.963	0.0138104
782.041	0.0138025
782.119	0.0136853
782.197	0.0135217
782.275	0.0136334
782.353	0.0135101
782.432	0.0135283
782.510	0.0134742
782.588	0.0134820
782.666	0.0134247
782.744	0.0134184
782.822	0.0137663
782.900	0.0135902
782.978	0.0135830
783.057	0.0137703
783.135	0.0137707
783.213	0.0138847
783.291	0.0138733
783.369	0.0139731
783.447	0.0140052
783.525	0.0140991
783.603	0.0141852
783.682	0.0142129
783.760	0.0143649
783.838	0.0142891
783.916	0.0142341
783.994	0.0143721
784.072	0.0143571
784.150	0.0144223
784.228	0.0145676
784.307	0.0142948
784.385	0.0141226
784.463	0.0142317
784.541	0.0142516
784.619	0.0142036
784.697	0.0142193
784.775	0.0143312
784.853	0.0141331
784.932	0.0140270
785.010	0.0141804
785.088	0.0140145
785.166	0.0138014
785.244	0.0140266
785.322	0.0139559
785.400	0.0138290
785.478	0.0138530
785.557	0.0139521
785.635	0.0139376
785.713	0.0140185
785.791	0.0139192
785.869	0.0140727
785.947	0.0140528
786.025	0.0140471
786.103	0.0140414
786.182	0.0141396
786.260	0.0140084
786.338	0.0140452
786.416	0.0139748
786.494	0.0139529
786.572	0.0139951
786.650	0.0140237
786.728	0.0138088
786.807	0.0137983
786.885	0.0139330
786.963	0.0138020
787.041	0.0139228
787.119	0.0137823
787.197	0.0137836
787.275	0.0137614
787.353	0.0137797
787.432	0.0137327
787.510	0.0137003
787.588	0.0137784
787.666	0.0136742
787.744	0.0136372
787.822	0.0137302
787.900	0.0137098
787.978	0.0136309
788.057	0.0137068
788.135	0.0135638
788.213	0.0135599
788.291	0.0136279
788.369	0.0137165
788.447	0.0136719
788.525	0.0138139
788.603	0.0138829
788.682	0.0137460
788.760	0.0140765
788.838	0.0139507
788.916	0.0141383
788.994	0.0142216
789.072	0.0142764
789.150	0.0141349
789.228	0.0142797
789.307	0.0143056
789.385	0.0143852
789.463	0.0144486
789.541	0.0144221
789.619	0.0142959
789.697	0.0144913
789.775	0.0143852
789.853	0.0145257
789.932	0.0145893
790.010	0.0144268
790.088	0.0143513
790.166	0.0142910
790.244	0.0143114
790.322	0.0143169
790.400	0.0142680
790.478	0.0141297
790.557	0.0142236
790.635	0.0141535
790.713	0.0140805
790.791	0.0140581
790.869	0.0139636
790.947	0.0139715
791.025	0.0138437
791.103	0.0139304
791.182	0.0139510
791.260	0.0136617
791.338	0.0138063
791.416	0.0138139
791.494	0.0137725
791.572	0.0138725
791.650	0.0138768
791.728	0.0138762
791.807	0.0137667
791.885	0.0138177
791.963	0.0139188
792.041	0.0137802
792.119	0.0138299
792.197	0.0137655
792.275	0.0139075
792.353	0.0138584
792.432	0.0136835
792.510	0.0138834
792.588	0.0135852
792.666	0.0135254
792.744	0.0137261
792.822	0.0136656
792.900	0.0137375
792.978	0.0136472
793.057	0.0137011
793.135	0.0136492
793.213	0.0135218
793.291	0.0135630
793.369	0.0136882
793.447	0.0135768
793.525	0.0135219
793.603	0.0138702
793.682	0.0137422
793.760	0.0137157
793.838	0.0139080
793.916	0.0140140
793.994	0.0140870
794.072	0.0141752
794.150	0.0141706
794.228	0.0142458
794.307	0.0142262
794.385	0.0144791
794.463	0.0143790
794.541	0.0141956
794.619	0.0143735
794.697	0.0143642
794.775	0.0143667
794.853	0.0144688
794.932	0.0143109
795.010	0.0143205
795.088	0.0141994
795.166	0.0142307
795.244	0.0142352
795.322	0.0142380
795.400	0.0139912
795.478	0.0140676
795.557	0.0139510
795.635	0.0140961
795.713	0.0140203
795.791	0.0138206
795.869	0.0136856
795.947	0.0137521
796.025	0.0138398
796.103	0.0139213
796.182	0.0137235
796.260	0.0137052
796.338	0.0138774
796.416	0.0136848
796.494	0.0136649
796.572	0.0135277
796.650	0.0134930
796.728	0.0135530
796.807	0.0135654
796.885	0.0134805
796.963	0.0134496
797.041	0.0133739
797.119	0.0133325
797.197	0.0133262
797.275	0.0134447
797.353	0.0135018
797.432	0.0134034
797.510	0.0133640
797.588	0.0134456
797.666	0.0134613
797.744	0.0136932
797.822	0.0135103
797.900	0.0134513
797.978	0.0136411
798.057	0.0136510
798.135	0.0136284
798.213	0.0137875
798.291	0.0136642
798.369	0.0137799
798.447	0.0137424
798.525	0.0137792
798.603	0.0137083
798.682	0.0138879
798.760	0.0139964
798.838	0.0139742
798.916	0.0139049
798.994	0.0139165
799.072	0.0138831
799.150	0.0140721
799.228	0.0140958
799.307	0.0141201
799.385	0.0141439
799.463	0.0141847
799.541	0.0141119
799.619	0.0141164
799.697	0.0141249
799.775	0.0140729
799.853	0.0142016
799.932	0.0140977
800.010	0.0143021
800.088	0.0142393
800.166	0.0140702
800.244	0.0142850
800.322	0.0142121
800.400	0.0142113
800.478	0.0142078
800.557	0.0143042
800.635	0.0143566
800.713	0.0143521
800.791	0.0144270
800.869	0.0142286
800.947	0.0142563
801.025	0.0144603
801.103	0.0142633
801.182	0.0144354
801.260	0.0144122
801.338	0.0142661
801.416	0.0143159
801.494	0.0142249
801.572	0.0143030
801.650	0.0141718
801.728	0.0141537
801.807	0.0140957
801.885	0.0141172
801.963	0.0141224
802.041	0.0140282
802.119	0.0140459
802.197	0.0139781
802.275	0.0137836
802.353	0.0138162
802.432	0.0137477
802.510	0.0135928
802.588	0.0138026
802.666	0.0136065
802.744	0.0134729
802.822	0.0133924
802.900	0.0136389
802.978	0.0135828
803.057	0.0136787
803.135	0.0135660
803.213	0.0136857
803.291	0.0136411
803.369	0.0135330
803.447	0.0134817
803.525	0.0135260
803.603	0.0135294
803.682	0.0135374
803.760	0.0134914
803.838	0.0133649
803.916	0.0135229
803.994	0.0135474
804.072	0.0136916
804.150	0.0136909
804.228	0.0135779
804.307	0.0136347
804.385	0.0135905
804.463	0.0137234
804.541	0.0137196
804.619	0.0138009
804.697	0.0138141
804.775	0.0137454
804.853	0.0139912
804.932	0.0139085
805.010	0.0139565
805.088	0.0139769
805.166	0.0140495
805.244	0.0141470
805.322	0.0141216
805.400	0.0141969
805.478	0.0144324
805.557	0.0144222
805.635	0.0144831
805.713	0.0144164
805.791	0.0143219
805.869	0.0144305
805.947	0.0143105
806.025	0.0143865
806.103	0.0144310
806.182	0.0144267
806.260	0.0143611
806.338	0.0143996
806.416	0.0144418
806.494	0.0142892
806.572	0.0141911
806.650	0.0140597
806.728	0.0142983
806.807	0.0141536
806.885	0.0141438
806.963	0.0141723
807.041	0.0140411
807.119	0.0141003
807.197	0.0139521
807.275	0.0139306
807.353	0.0140849
807.432	0.0140130
807.510	0.0138693
807.588	0.0139214
807.666	0.0139002
807.744	0.0139970
807.822	0.0139058
807.900	0.0138384
807.978	0.0137951
808.057	0.0138198
808.135	0.0137305
808.213	0.0137325
808.291	0.0137597
808.369	0.0137144
808.447	0.0136977
808.525	0.0137232
808.603	0.0137218
808.682	0.0136645
808.760	0.0134337
808.838	0.0135106
808.916	0.0135597
808.994	0.0135370
809.072	0.0135355
809.150	0.0132894
809.228	0.0134016
809.307	0.0133002
809.385	0.0133286
809.463	0.0133947
809.541	0.0133190
809.619	0.0132439
809.697	0.0133662
809.775	0.0133543
809.853	0.0133088
809.932	0.0134455
810.010	0.0134630
810.088	0.0135598
810.166	0.0135680
810.244	0.0137746
810.322	0.0139005
810.400	0.0139120
810.478	0.0140010
810.557	0.0141058
810.635	0.0141171
810.713	0.0141670
810.791	0.0142975
810.869	0.0142570
810.947	0.0142445
811.025	0.0144038
811.103	0.0143460
811.182	0.0143596
811.260	0.0143593
811.338	0.0142398
811.416	0.0142110
811.494	0.0140878
811.572	0.0140623
811.650	0.0140866
811.728	0.0140565
811.807	0.0139989
811.885	0.0140134
811.963	0.0139955
812.041	0.0139874
812.119	0.0139723
812.197	0.0138919
812.275	0.0140672
812.353	0.0139651
812.432	0.0139146
812.510	0.0139438
812.588	0.0139758
812.666	0.0138834
812.744	0.0139738
812.822	0.0140723
812.900	0.0142468
812.978	0.0142232
813.057	0.0143812
813.135	0.0144610
813.213	0.0142676
813.291	0.0143684
813.369	0.0144091
813.447	0.0144205
813.525	0.0143869
813.603	0.0143111
813.682	0.0141451
813.760	0.0140676
813.838	0.0140564
813.916	0.0140925
813.994	0.0138778
814.072	0.0138483
814.150	0.0136570
814.228	0.0136710
814.307	0.0135108
814.385	0.0134724
814.463	0.0133755
814.541	0.0133265
814.619	0.0133861
814.697	0.0132550
814.775	0.0132213
814.853	0.0135537
814.932	0.0134869
815.010	0.0133630
815.088	0.0135577
815.166	0.0136526
815.244	0.0136916
815.322	0.0138234
815.400	0.0137894
815.478	0.0137994
815.557	0.0138815
815.635	0.0140221
815.713	0.0140530
815.791	0.0139310
815.869	0.0140362
815.947	0.0140208
816.025	0.0140761
816.103	0.0139679
816.182	0.0139892
816.260	0.0138763
816.338	0.0139995
816.416	0.0138354
816.494	0.0138840
816.572	0.0138441
816.650	0.0137852
816.728	0.0139252
816.807	0.0137026
816.885	0.0139025
816.963	0.0137624
817.041	0.0136490
817.119	0.0137562
817.197	0.0138438
817.275	0.0138894
817.353	0.0139667
817.432	0.0138783
817.510	0.0140837
817.588	0.0140725
817.666	0.0140120
817.744	0.0140230
817.822	0.0140710
817.900	0.0141218
817.978	0.0141826
818.057	0.0141206
818.135	0.0141746
818.213	0.0141724
818.291	0.0141009
818.369	0.0141775
818.447	0.0141816
818.525	0.0142498
818.603	0.0141667
818.682	0.0141494
818.760	0.0140933
818.838	0.0142563
818.916	0.0142764
818.994	0.0142232
819.072	0.0142699
819.150	0.0141148
819.228	0.0141711
819.307	0.0141947
819.385	0.0142297
819.463	0.0142495
819.541	0.0142687
819.619	0.0142375
819.697	0.0141599
819.775	0.0141817
819.853	0.0141636
819.932	0.0138817
820.010	0.0141206
820.088	0.0140344
820.166	0.0139678
820.244	0.0140439
820.322	0.0139805
820.400	0.0140072
820.478	0.0139272
820.557	0.0137275
820.635	0.0138074
820.713	0.0137872
820.791	0.0138874
820.869	0.0137685
820.947	0.0136140
821.025	0.0135602
821.103	0.0136389
821.182	0.0136914
821.260	0.0138476
821.338	0.0136095
821.416	0.0136365
821.494	0.0135764
821.572	0.0137758
821.650	0.0138931
821.728	0.0138856
821.807	0.0138347
821.885	0.0138029
821.963	0.0138605
822.041	0.0140825
822.119	0.0139805
822.197	0.0140191
822.275	0.0141786
822.353	0.0141017
822.432	0.0142738
822.510	0.0142787
822.588	0.0141576
822.666	0.0142966
822.744	0.0143829
822.822	0.0143203
822.900	0.0142407
822.978	0.0142440
823.057	0.0142828
823.135	0.0142706
823.213	0.0142162
823.291	0.0142271
823.369	0.0141718
823.447	0.0141273
823.525	0.0142036
823.603	0.0141917
823.682	0.0141954
823.760	0.0139873
823.838	0.0140047
823.916	0.0140691
823.994	0.0138874
824.072	0.0139317
824.150	0.0139323
824.228	0.0139795
824.307	0.0139186
824.385	0.0138075
824.463	0.0136664
824.541	0.0140232
824.619	0.0137698
824.697	0.0137965
824.775	0.0139238
824.853	0.0138313
824.932	0.0138984
825.010	0.0138988
825.088	0.0137825
825.166	0.0140421
825.244	0.0141021
825.322	0.0141756
825.400	0.0141461
825.478	0.0143102
825.557	0.0142197
825.635	0.0143317
825.713	0.0143385
825.791	0.0141560
825.869	0.0142577
825.947	0.0141894
826.025	0.0142329
826.103	0.0142518
826.182	0.0141679
826.260	0.0140556
826.338	0.0139155
826.416	0.0139308
826.494	0.0138557
826.572	0.0138347
826.650	0.0137663
826.728	0.0135641
826.807	0.0136400
826.885	0.0135596
826.963	0.0133675
827.041	0.0134064
827.119	0.0136091
827.197	0.0134111
827.275	0.0134274
827.353	0.0133119
827.432	0.0133444
827.510	0.0133536
827.588	0.0134208
827.666	0.0133048
827.744	0.0134933
827.822	0.0133825
827.900	0.0136195
827.978	0.0136600
828.057	0.0136597
828.135	0.0137202
828.213	0.0139296
828.291	0.0139890
828.369	0.0139816
828.447	0.0138331
828.525	0.0140114
828.603	0.0140458
828.682	0.0139974
828.760	0.0141794
828.838	0.0140221
828.916	0.0140166
828.994	0.0140033
829.072	0.0139725
829.150	0.0139619
829.228	0.0138495
829.307	0.0138087
829.385	0.0138473
829.463	0.0137179
829.541	0.0136367
829.619	0.0136067
829.697	0.0135177
829.775	0.0135361
829.853	0.0133754
829.932	0.0133935
830.010	0.0133345
830.088	0.0133939
830.166	0.0135397
830.244	0.0134714
830.322	0.0134465
830.400	0.0134186
830.478	0.0137033
830.557	0.0136308
830.635	0.0136437
830.713	0.0138258
830.791	0.0137975
830.869	0.0139483
830.947	0.0138326
831.025	0.0139924
831.103	0.0140517
831.182	0.0140958
831.260	0.0141039
831.338	0.0141299
831.416	0.0142014
831.494	0.0142197
831.572	0.0142348
831.650	0.0143405
831.728	0.0143015
831.807	0.0143906
831.885	0.0143553
831.963	0.0142825
832.041	0.0143079
832.119	0.0144153
832.197	0.0143111
832.275	0.0143159
832.353	0.0142445
832.432	0.0141875
832.510	0.0142329
832.588	0.0141341
832.666	0.0139369
832.744	0.0139574
832.822	0.0139614
832.900	0.0138300
832.978	0.0137406
833.057	0.0137801
833.135	0.0136479
833.213	0.0135906
833.291	0.0134307
833.369	0.0134668
833.447	0.0134512
833.525	0.0133991
833.603	0.0134415
833.682	0.0133348
833.760	0.0132658
833.838	0.0133039
833.916	0.0133714
833.994	0.0132653
834.072	0.0133532
834.150	0.0134938
834.228	0.0135003
834.307	0.0135752
834.385	0.0135020
834.463	0.0136378
834.541	0.0137156
834.619	0.0137765
834.697	0.0137966
834.775	0.0137794
834.853	0.0139354
834.932	0.0139709
835.010	0.0140987
835.088	0.0140913
835.166	0.0141561
835.244	0.0141058
835.322	0.0140829
835.400	0.0142235
835.478	0.0142288
835.557	0.0141224
835.635	0.0141981
835.713	0.0142922
835.791	0.0141281
835.869	0.0140964
835.947	0.0141490
836.025	0.0141400
836.103	0.0141559
836.182	0.0140532
836.260	0.0141298
836.338	0.0141739
836.416	0.0141145
836.494	0.0141049
836.572	0.0142304
836.650	0.0142976
836.728	0.0141898
836.807	0.0143434
836.885	0.0143273
836.963	0.0142294
837.041	0.0141888
837.119	0.0142011
837.197	0.0141859
837.275	0.0141342
837.353	0.0141730
837.432	0.0141683
837.510	0.0141613
837.588	0.0140975
837.666	0.0142486
837.744	0.0141073
837.822	0.0139635
837.900	0.0141049
837.978	0.0141618
838.057	0.0140254
838.135	0.0140339
838.213	0.0138719
838.291	0.0139309
838.369	0.0138940
838.447	0.0139297
838.525	0.0138633
838.603	0.0138487
838.682	0.0138270
838.760	0.0137363
838.838	0.0137745
838.916	0.0137840
838.994	0.0136426
839.072	0.0137753
839.150	0.0136366
839.228	0.0136333
839.307	0.0136332
839.385	0.0136953
839.463	0.0137379
839.541	0.0136203
839.619	0.0136278
839.697	0.0136288
839.775	0.0137373
839.853	0.0138092
839.932	0.0138524
840.010	0.0139702
840.088	0.0140236
840.166	0.0140417
840.244	0.0142093
840.322	0.0141573
840.400	0.0142022
840.478	0.0143279
840.557	0.0142210
840.635	0.0141995
840.713	0.0142465
840.791	0.0142905
840.869	0.0142701
840.947	0.0142368
841.025	0.0141650
841.103	0.0141812
841.182	0.0142459
841.260	0.0140975
841.338	0.0139889
841.416	0.0139616
841.494	0.0139317
841.572	0.0138683
841.650	0.0138718
841.728	0.0136793
841.807	0.0137024
841.885	0.0136931
841.963	0.0135648
842.041	0.0134045
842.119	0.0133571
842.197	0.0133438
842.275	0.0134924
842.353	0.0135768
842.432	0.0135043
842.510	0.0135686
842.588	0.0134901
842.666	0.0136273
842.744	0.0137627
842.822	0.0138087
842.900	0.0138563
842.978	0.0139607
843.057	0.0140582
843.135	0.0141735
843.213	0.0142611
843.291	0.0145026
843.369	0.0145022
843.447	0.0144379
843.525	0.0144534
843.603	0.0146238
843.682	0.0145296
843.760	0.0145992
843.838	0.0144125
843.916	0.0145551
843.994	0.0143501
844.072	0.0143609
844.150	0.0142722
844.228	0.0142587
844.307	0.0143574
844.385	0.0142652
844.463	0.0141917
844.541	0.0142495
844.619	0.0141065
844.697	0.0139083
844.775	0.0139930
844.853	0.0139627
844.932	0.0138755
845.010	0.0140598
845.088	0.0137728
845.166	0.0136824
845.244	0.0137585
845.322	0.0136444
845.400	0.0135970
845.478	0.0136356
845.557	0.0135187
845.635	0.0137656
845.713	0.0137867
845.791	0.0134444
845.869	0.0135375
845.947	0.0135403
846.025	0.0135948
846.103	0.0135653
846.182	0.0135114
846.260	0.0135905
846.338	0.0136882
846.416	0.0135648
846.494	0.0137009
846.572	0.0137163
846.650	0.0137354
846.728	0.0135975
846.807	0.0136183
846.885	0.0137713
846.963	0.0139420
847.041	0.0139025
847.119	0.0139330
847.197	0.0140668
847.275	0.0141277
847.353	0.0140864
847.432	0.0142469
847.510	0.0143618
847.588	0.0143602
847.666	0.0143227
847.744	0.0144586
847.822	0.0143244
847.900	0.0143039
847.978	0.0142788
848.057	0.0143887
848.135	0.0143111
848.213	0.0143903
848.291	0.0143169
848.369	0.0144104
848.447	0.0142906
848.525	0.0140562
848.603	0.0139418
848.682	0.0139368
848.760	0.0136710
848.838	0.0138303
848.916	0.0137431
848.994	0.0137044
849.072	0.0136387
849.150	0.0135649
849.228	0.0135295
849.307	0.0134662
849.385	0.0133784
849.463	0.0134289
849.541	0.0134150
849.619	0.0134285
849.697	0.0134113
849.775	0.0135220
849.853	0.0135603
849.932	0.0135980
850.010	0.0135102
850.088	0.0135363
850.166	0.0137036
850.244	0.0137540
850.322	0.0137544
850.400	0.0138686
850.478	0.0139224
850.557	0.0138221
850.635	0.0139240
850.713	0.0139850
850.791	0.0139597
850.869	0.0140066
850.947	0.0140422
851.025	0.0141023
851.103	0.0140981
851.182	0.0141074
851.260	0.0140067
851.338	0.0141598
851.416	0.0142758
851.494	0.0141613
851.572	0.0140807
851.650	0.0141581
851.728	0.0140984
851.807	0.0141657
851.885	0.0141012
851.963	0.0141789
852.041	0.0141679
852.119	0.0140270
852.197	0.0141103
852.275	0.0141195
852.353	0.0140716
852.432	0.0139201
852.510	0.0139960
852.588	0.0139201
852.666	0.0140026
852.744	0.0139884
852.822	0.0139474
852.900	0.0140735
852.978	0.0139619
853.057	0.0139436
853.135	0.0139445
853.213	0.0141442
853.291	0.0139503
853.369	0.0138776
853.447	0.0138638
853.525	0.0139282
853.603	0.0140224
853.682	0.0138103
853.760	0.0139731
853.838	0.0139169
853.916	0.0139364
853.994	0.0138565
854.072	0.0139945
854.150	0.0139007
854.228	0.0139386
854.307	0.0139538
854.385	0.0139565
854.463	0.0139426
854.541	0.0138947
854.619	0.0139449
854.697	0.0139368
854.775	0.0137947
854.853	0.0139400
854.932	0.0139036
855.010	0.0139243
855.088	0.0138514
855.166	0.0138005
855.244	0.0140553
855.322	0.0138142
855.400	0.0139570
855.478	0.0139172
855.557	0.0139066
855.635	0.0137263
855.713	0.0139104
855.791	0.0138634
855.869	0.0138645
855.947	0.0139416
856.025	0.0139247
856.103	0.0139841
856.182	0.0139875
856.260	0.0138160
856.338	0.0138949
856.416	0.0138548
856.494	0.0140433
856.572	0.0141514
856.650	0.0139547
856.728	0.0140141
856.807	0.0138911
856.885	0.0139146
856.963	0.0138722
857.041	0.0137705
857.119	0.0136919
857.197	0.0137719
857.275	0.0138243
857.353	0.0137350
857.432	0.0137711
857.510	0.0137083
857.588	0.0136071
857.666	0.0136815
857.744	0.0136852
857.822	0.0137639
857.900	0.0137621
857.978	0.0136698
858.057	0.0137971
858.135	0.0138810
858.213	0.0138138
858.291	0.0137819
858.369	0.0138569
858.447	0.0137256
858.525	0.0139563
858.603	0.0140581
858.682	0.0140987
858.760	0.0140718
858.838	0.0141074
858.916	0.0140499
858.994	0.0141634
859.072	0.0140797
859.150	0.0142104
859.228	0.0143832
859.307	0.0143707
859.385	0.0142718
859.463	0.0143186
859.541	0.0142403
859.619	0.0143333
859.697	0.0144232
859.775	0.0144215
859.853	0.0145276
859.932	0.0143962
860.010	0.0143732
860.088	0.0141641
860.166	0.0142803
860.244	0.0142308
860.322	0.0141611
860.400	0.0140004
860.478	0.0138676
860.557	0.0139011
860.635	0.0138983
860.713	0.0138488
860.791	0.0138249
860.869	0.0137445
860.947	0.0136435
861.025	0.0135934
861.103	0.0135201
861.182	0.0135037
861.260	0.0134492
861.338	0.0133745
861.416	0.0134024
861.494	0.0132951
861.572	0.0133233
861.650	0.0134282
861.728	0.0134694
861.807	0.0134065
861.885	0.0134805
861.963	0.0136070
862.041	0.0137140
862.119	0.0136675
862.197	0.0136333
862.275	0.0137896
862.353	0.0138728
862.432	0.0139388
862.510	0.0138943
862.588	0.0141239
862.666	0.0141547
862.744	0.0141748
862.822	0.0140257
862.900	0.0142164
862.978	0.0141730
863.057	0.0141490
863.135	0.0142250
863.213	0.0144057
863.291	0.0143452
863.369	0.0140755
863.447	0.0142051
863.525	0.0142058
863.603	0.0141943
863.682	0.0142655
863.760	0.0141969
863.838	0.0141882
863.916	0.0141729
863.994	0.0140326
864.072	0.0140912
864.150	0.0140424
864.228	0.0140293
864.307	0.0139818
864.385	0.0139140
864.463	0.0140157
864.541	0.0139500
864.619	0.0140106
864.697	0.0140654
864.775	0.0140769
864.853	0.0140313
864.932	0.0140441
865.010	0.0139713
865.088	0.0139677
865.166	0.0139462
865.244	0.0139672
865.322	0.0141230
865.400	0.0139008
865.478	0.0139485
865.557	0.0141920
865.635	0.0140333
865.713	0.0139635
865.791	0.0140408
865.869	0.0141024
865.947	0.0139544
866.025	0.0140263
866.103	0.0141087
866.182	0.0139162
866.260	0.0139912
866.338	0.0139584
866.416	0.0142506
866.494	0.0140508
866.572	0.0140946
866.650	0.0141322
866.728	0.0141251
866.807	0.0139629
866.885	0.0140752
866.963	0.0141246
867.041	0.0141239
867.119	0.0140437
867.197	0.0140134
867.275	0.0140749
867.353	0.0140514
867.432	0.0141155
867.510	0.0139932
867.588	0.0140914
867.666	0.0139880
867.744	0.0138818
867.822	0.0138884
867.900	0.0138235
867.978	0.0139304
868.057	0.0139571
868.135	0.0139136
868.213	0.0138765
868.291	0.0138358
868.369	0.0138533
868.447	0.0139553
868.525	0.0139990
868.603	0.0138787
868.682	0.0139230
868.760	0.0138367
868.838	0.0137548
868.916	0.0138587
868.994	0.0137911
869.072	0.0137963
869.150	0.0137415
869.228	0.0137948
869.307	0.0137321
869.385	0.0137779
869.463	0.0137669
869.541	0.0137826
869.619	0.0138878
869.697	0.0137325
869.775	0.0137566
869.853	0.0137589
869.932	0.0137676
870.010	0.0137788
870.088	0.0138343
870.166	0.0139658
870.244	0.0139862
870.322	0.0138815
870.400	0.0138663
870.478	0.0140246
870.557	0.0138998
870.635	0.0140067
870.713	0.0139951
870.791	0.0140327
870.869	0.0142059
870.947	0.0142185
871.025	0.0140287
871.103	0.0141005
871.182	0.0142728
871.260	0.0141757
871.338	0.0142189
871.416	0.0140849
871.494	0.0142271
871.572	0.0142310
871.650	0.0141514
871.728	0.0142240
871.807	0.0141129
871.885	0.0141457
871.963	0.0141367
872.041	0.0140511
872.119	0.0141248
872.197	0.0138795
872.275	0.0138008
872.353	0.0139650
872.432	0.0137650
872.510	0.0137801
872.588	0.0139302
872.666	0.0138387
872.744	0.0137408
872.822	0.0137318
872.900	0.0138305
872.978	0.0137866
873.057	0.0136082
873.135	0.0135795
873.213	0.0137109
873.291	0.0136077
873.369	0.0136719
873.447	0.0134921
873.525	0.0136721
873.603	0.0135152
873.682	0.0137827
873.760	0.0137810
873.838	0.0136895
873.916	0.0138176
873.994	0.0137340
874.072	0.0137540
874.150	0.0138388
874.228	0.0139605
874.307	0.0139151
874.385	0.0140079
874.463	0.0140136
874.541	0.0141374
874.619	0.0141367
874.697	0.0141298
874.775	0.0141898
874.853	0.0141476
874.932	0.0141866
875.010	0.0142316
875.088	0.0143453
875.166	0.0141870
875.244	0.0142438
875.322	0.0141007
875.400	0.0141624
875.478	0.0141812
875.557	0.0140400
875.635	0.0141248
875.713	0.0141823
875.791	0.0141161
875.869	0.0140031
875.947	0.0139509
876.025	0.0138654
876.103	0.0139624
876.182	0.0139101
876.260	0.0138862
876.338	0.0138385
876.416	0.0138258
876.494	0.0138049
876.572	0.0138460
876.650	0.0138016
876.728	0.0138253
876.807	0.0137114
876.885	0.0137640
876.963	0.0138254
877.041	0.0138463
877.119	0.0139533
877.197	0.0139552
877.275	0.0139004
877.353	0.0139445
877.432	0.0139531
877.510	0.0141425
877.588	0.0139609
877.666	0.0140465
877.744	0.0140576
877.822	0.0141214
877.900	0.0142577
877.978	0.0143000
878.057	0.0142675
878.135	0.0141785
878.213	0.0143503
878.291	0.0142670
878.369	0.0143700
878.447	0.0143408
878.525	0.0143195
878.603	0.0142337
878.682	0.0144262
878.760	0.0144055
878.838	0.0142939
878.916	0.0143891
878.994	0.0142818
879.072	0.0141910
879.150	0.0144904
879.228	0.0143029
879.307	0.0140528
879.385	0.0141848
879.463	0.0142944
879.541	0.0142123
879.619	0.0142110
879.697	0.0140701
879.775	0.0139966
879.853	0.0140800
879.932	0.0139528
880.010	0.0140659
880.088	0.0139813
880.166	0.0140146
880.244	0.0138663
880.322	0.0140119
880.400	0.0139747
880.478	0.0138490
880.557	0.0139310
880.635	0.0138925
880.713	0.0139397
880.791	0.0139648
880.869	0.0139492
880.947	0.0139420
881.025	0.0140321
881.103	0.0140134
881.182	0.0138969
881.260	0.0138960
881.338	0.0139652
881.416	0.0137868
881.494	0.0140091
881.572	0.0139201
881.650	0.0139120
881.728	0.0139331
881.807	0.0139671
881.885	0.0138668
881.963	0.0139507
882.041	0.0139068
882.119	0.0137981
882.197	0.0137802
882.275	0.0138660
882.353	0.0139108
882.432	0.0138047
882.510	0.0137231
882.588	0.0137470
882.666	0.0137015
882.744	0.0137400
882.822	0.0137057
882.900	0.0136993
882.978	0.0136788
883.057	0.0137090
883.135	0.0135770
883.213	0.0137359
883.291	0.0136651
883.369	0.0135992
883.447	0.0137843
883.525	0.0136917
883.603	0.0137187
883.682	0.0137379
883.760	0.0137071
883.838	0.0137606
883.916	0.0138828
883.994	0.0140575
884.072	0.0139169
884.150	0.0139860
884.228	0.0139352
884.307	0.0140791
884.385	0.0140290
884.463	0.0140553
884.541	0.0141104
884.619	0.0141534
884.697	0.0142452
884.775	0.0140618
884.853	0.0140214
884.932	0.0140047
885.010	0.0139822
885.088	0.0139990
885.166	0.0140276
885.244	0.0139565
885.322	0.0139901
885.400	0.0139633
885.478	0.0137522
885.557	0.0139052
885.635	0.0139743
885.713	0.0139262
885.791	0.0137493
885.869	0.0138303
885.947	0.0137757
886.025	0.0138454
886.103	0.0136261
886.182	0.0137449
886.260	0.0139041
886.338	0.0138031
886.416	0.0137744
886.494	0.0137795
886.572	0.0137984
886.650	0.0137442
886.728	0.0137375
886.807	0.0137786
886.885	0.0137170
886.963	0.0137998
887.041	0.0139108
887.119	0.0138431
887.197	0.0139271
887.275	0.0138946
887.353	0.0139852
887.432	0.0138078
887.510	0.0138487
887.588	0.0138760
887.666	0.0138756
887.744	0.0139178
887.822	0.0138213
887.900	0.0137843
887.978	0.0138277
888.057	0.0138223
888.135	0.0137450
888.213	0.0136607
888.291	0.0139454
888.369	0.0137909
888.447	0.0139027
888.525	0.0138149
888.603	0.0138432
888.682	0.0135895
888.760	0.0138084
888.838	0.0139102
888.916	0.0138123
888.994	0.0136591
889.072	0.0138946
889.150	0.0137991
889.228	0.0138383
889.307	0.0139021
889.385	0.0138505
889.463	0.0137086
889.541	0.0137888
889.619	0.0139428
889.697	0.0140523
889.775	0.0140614
889.853	0.0139902
889.932	0.0140427
890.010	0.0140091
890.088	0.0139666
890.166	0.0140888
890.244	0.0140520
890.322	0.0141281
890.400	0.0141356
890.478	0.0140835
890.557	0.0140276
890.635	0.0142367
890.713	0.0140787
890.791	0.0141039
890.869	0.0139446
890.947	0.0141084
891.025	0.0141103
891.103	0.0140154
891.182	0.0138210
891.260	0.0140070
891.338	0.0139703
891.416	0.0139363
891.494	0.0138513
891.572	0.0139030
891.650	0.0139499
891.728	0.0139030
891.807	0.0139051
891.885	0.0139281
891.963	0.0140716
892.041	0.0140678
892.119	0.0139836
892.197	0.0137759
892.275	0.0138173
892.353	0.0139199
892.432	0.0137743
892.510	0.0138911
892.588	0.0139315
892.666	0.0139962
892.744	0.0138513
892.822	0.0139306
892.900	0.0138890
892.978	0.0137445
893.057	0.0138352
893.135	0.0138455
893.213	0.0138966
893.291	0.0138601
893.369	0.0137591
893.447	0.0138039
893.525	0.0137965
893.603	0.0139591
893.682	0.0138093
893.760	0.0138641
893.838	0.0137966
893.916	0.0137707
893.994	0.0138152
894.072	0.0139083
894.150	0.0138191
894.228	0.0137148
894.307	0.0138350
894.385	0.0138489
894.463	0.0137385
894.541	0.0139458
894.619	0.0137839
894.697	0.0138485
894.775	0.0136546
894.853	0.0137538
894.932	0.0138321
895.010	0.0138122
895.088	0.0138216
895.166	0.0138683
895.244	0.0138880
895.322	0.0139483
895.400	0.0140273
895.478	0.0139557
895.557	0.0138734
895.635	0.0140996
895.713	0.0140810
895.791	0.0139306
895.869	0.0141201
895.947	0.0139881
896.025	0.0141811
896.103	0.0141407
896.182	0.0139906
896.260	0.0139648
896.338	0.0140697
896.416	0.0140532
896.494	0.0140689
896.572	0.0140115
896.650	0.0140270
896.728	0.0140842
896.807	0.0140149
896.885	0.0141328
896.963	0.0140257
897.041	0.0140210
897.119	0.0140079
897.197	0.0140285
897.275	0.0140411
897.353	0.0140417
897.432	0.0140302
897.510	0.0139028
897.588	0.0138822
897.666	0.0139623
897.744	0.0139377
897.822	0.0137938
897.900	0.0138924
897.978	0.0139202
898.057	0.0136660
898.135	0.0138469
898.213	0.0139260
898.291	0.0138595
898.369	0.0138229
898.447	0.0137643
898.525	0.0138283
898.603	0.0139568
898.682	0.0136668
898.760	0.0137853
898.838	0.0139025
898.916	0.0137270
898.994	0.0137913
899.072	0.0138136
899.150	0.0138651
899.228	0.0137006
899.307	0.0138763
899.385	0.0138100
899.463	0.0136375
899.541	0.0137788
899.619	0.0138124
899.697	0.0137834
899.775	0.0139256
899.853	0.0139773
899.932	0.0138141
900.010	0.0138497
900.088	0.0137821
900.166	0.0136703
900.244	0.0137791
900.322	0.0137601
900.400	0.0139629
900.478	0.0136431
900.557	0.0137445
900.635	0.0138961
900.713	0.0138111
900.791	0.0138814
900.869	0.0138799
900.947	0.0139357
901.025	0.0139069
901.103	0.0139381
901.182	0.0140112
901.260	0.0140241
901.338	0.0140244
901.416	0.0140196
901.494	0.0138785
901.572	0.0138999
901.650	0.0140615
901.728	0.0139910
901.807	0.0139351
901.885	0.0139132
901.963	0.0139533
902.041	0.0139609
902.119	0.0139490
902.197	0.0138661
902.275	0.0139645
902.353	0.0138925
902.432	0.0137590
902.510	0.0139001
902.588	0.0136830
902.666	0.0136626
902.744	0.0137534
902.822	0.0137570
902.900	0.0138685
902.978	0.0136906
903.057	0.0137505
903.135	0.0136739
903.213	0.0137804
903.291	0.0136425
903.369	0.0136859
903.447	0.0136270
903.525	0.0136810
903.603	0.0136795
903.682	0.0137793
903.760	0.0138068
903.838	0.0136938
903.916	0.0137813
903.994	0.0137278
904.072	0.0136855
904.150	0.0137787
904.228	0.0137265
904.307	0.0137634
904.385	0.0136533
904.463	0.0137038
904.541	0.0137801
904.619	0.0137795
904.697	0.0137943
904.775	0.0137609
904.853	0.0138616
904.932	0.0138318
905.010	0.0138631
905.088	0.0139743
905.166	0.0139079
905.244	0.0139086
905.322	0.0140123
905.400	0.0139085
905.478	0.0138902
905.557	0.0139535
905.635	0.0139054
905.713	0.0138892
905.791	0.0139272
905.869	0.0139268
905.947	0.0138499
906.025	0.0140288
906.103	0.0140973
906.182	0.0140757
906.260	0.0141855
906.338	0.0140480
906.416	0.0140736
906.494	0.0141425
906.572	0.0141305
906.650	0.0140395
906.728	0.0140589
906.807	0.0138921
906.885	0.0138792
906.963	0.0137849
907.041	0.0138667
907.119	0.0137120
907.197	0.0136816
907.275	0.0138184
907.353	0.0137515
907.432	0.0136638
907.510	0.0137190
907.588	0.0138303
907.666	0.0136313
907.744	0.0137469
907.822	0.0135183
907.900	0.0137793
907.978	0.0136749
908.057	0.0135702
908.135	0.0135954
908.213	0.0137611
908.291	0.0136848
908.369	0.0136265
908.447	0.0136431
908.525	0.0136055
908.603	0.0135719
908.682	0.0137191
908.760	0.0136608
908.838	0.0136755
908.916	0.0136707
908.994	0.0137794
909.072	0.0137846
909.150	0.0138137
909.228	0.0138251
909.307	0.0138643
909.385	0.0138499
909.463	0.0139043
909.541	0.0140002
909.619	0.0138876
909.697	0.0138966
909.775	0.0139524
909.853	0.0138521
909.932	0.0138989
910.010	0.0140829
910.088	0.0140232
910.166	0.0141048
910.244	0.0141161
910.322	0.0139501
910.400	0.0141867
910.478	0.0140447
910.557	0.0140338
910.635	0.0141164
910.713	0.0141759
910.791	0.0139583
910.869	0.0140290
910.947	0.0141232
911.025	0.0139341
911.103	0.0140079
911.182	0.0140060
911.260	0.0138762
911.338	0.0139426
911.416	0.0139066
911.494	0.0137958
911.572	0.0139816
911.650	0.0138512
911.728	0.0138358
911.807	0.0139344
911.885	0.0138065
911.963	0.0139076
912.041	0.0138439
912.119	0.0139413
912.197	0.0138799
912.275	0.0139305
912.353	0.0139242
912.432	0.0139259
912.510	0.0138230
912.588	0.0139570
912.666	0.0139615
912.744	0.0138738
912.822	0.0138780
912.900	0.0140481
912.978	0.0138088
913.057	0.0138136
913.135	0.0138744
913.213	0.0140490
913.291	0.0138688
913.369	0.0138691
913.447	0.0139208
913.525	0.0138908
913.603	0.0139891
913.682	0.0138101
913.760	0.0137720
913.838	0.0140258
913.916	0.0139195
913.994	0.0138419
914.072	0.0139170
914.150	0.0139610
914.228	0.0138351
914.307	0.0138757
914.385	0.0138620
914.463	0.0139715
914.541	0.0139886
914.619	0.0140142
914.697	0.0139764
914.775	0.0140240
914.853	0.0139574
914.932	0.0139355
915.010	0.0139812
915.088	0.0138276
915.166	0.0138230
915.244	0.0139658
915.322	0.0139361
915.400	0.0139123
915.478	0.0139183
915.557	0.0138590
915.635	0.0139233
915.713	0.0140599
915.791	0.0140168
915.869	0.0138646
915.947	0.0137634
916.025	0.0139524
916.103	0.0138780
916.182	0.0138023
916.260	0.0138481
916.338	0.0137759
916.416	0.0139594
916.494	0.0137592
916.572	0.0138176
916.650	0.0137332
916.728	0.0136246
916.807	0.0136905
916.885	0.0137414
916.963	0.0137039
917.041	0.0138083
917.119	0.0136220
917.197	0.0136595
917.275	0.0136446
917.353	0.0137586
917.432	0.0138018
917.510	0.0137614
917.588	0.0136991
917.666	0.0137701
917.744	0.0139041
917.822	0.0139430
917.900	0.0139324
917.978	0.0137835
918.057	0.0138962
918.135	0.0140221
918.213	0.0140668
918.291	0.0139808
918.369	0.0139959
918.447	0.0139922
918.525	0.0140639
918.603	0.0141078
918.682	0.0141582
918.760	0.0140670
918.838	0.0141020
918.916	0.0141152
918.994	0.0140689
919.072	0.0140923
919.150	0.0140320
919.228	0.0139888
919.307	0.0139946
919.385	0.0140478
919.463	0.0139417
919.541	0.0139405
919.619	0.0140047
919.697	0.0138543
919.775	0.0139470
919.853	0.0138898
919.932	0.0138563
920.010	0.0136936
920.088	0.0138570
920.166	0.0136584
920.244	0.0136303
920.322	0.0137335
920.400	0.0138409
920.478	0.0136965
920.557	0.0136226
920.635	0.0135548
920.713	0.0135807
920.791	0.0134558
920.869	0.0137012
920.947	0.0136969
921.025	0.0137730
921.103	0.0137361
921.182	0.0136245
921.260	0.0138623
921.338	0.0139134
921.416	0.0137380
921.494	0.0136803
921.572	0.0138650
921.650	0.0138631
921.728	0.0138098
921.807	0.0139491
921.885	0.0140067
921.963	0.0140432
922.041	0.0139125
922.119	0.0139793
922.197	0.0140603
922.275	0.0140551
922.353	0.0141193
922.432	0.0140250
922.510	0.0141456
922.588	0.0142015
922.666	0.0140896
922.744	0.0140504
922.822	0.0141467
922.900	0.0141645
922.978	0.0141873
923.057	0.0140976
923.135	0.0142226
923.213	0.0143697
923.291	0.0141380
923.369	0.0142213
923.447	0.0141913
923.525	0.0142280
923.603	0.0141322
923.682	0.0141372
923.760	0.0140739
923.838	0.0140166
923.916	0.0140612
923.994	0.0140788
924.072	0.0140857
924.150	0.0139772
924.228	0.0140495
924.307	0.0140963
924.385	0.0139456
924.463	0.0139816
924.541	0.0140072
924.619	0.0140945
924.697	0.0140253
924.775	0.0139177
924.853	0.0139896
924.932	0.0138596
925.010	0.0138565
925.088	0.0139596
925.166	0.0139667
925.244	0.0138917
925.322	0.0140533
925.400	0.0139708
925.478	0.0140348
925.557	0.0138811
925.635	0.0138669
925.713	0.0138493
925.791	0.0139842
925.869	0.0138046
925.947	0.0138509
926.025	0.0138755
926.103	0.0139006
926.182	0.0139094
926.260	0.0138689
926.338	0.0139366
926.416	0.0138181
926.494	0.0140351
926.572	0.0139957
926.650	0.0139238
926.728	0.0139782
926.807	0.0140166
926.885	0.0138542
926.963	0.0139857
927.041	0.0140462
927.119	0.0139034
927.197	0.0139609
927.275	0.0139333
927.353	0.0140258
927.432	0.0140527
927.510	0.0140285
927.588	0.0140910
927.666	0.0141182
927.744	0.0141380
927.822	0.0141437
927.900	0.0140296
927.978	0.0140230
928.057	0.0140439
928.135	0.0140772
928.213	0.0139678
928.291	0.0139729
928.369	0.0139793
928.447	0.0140501
928.525	0.0138126
928.603	0.0138389
928.682	0.0138552
928.760	0.0138961
928.838	0.0138480
928.916	0.0139275
928.994	0.0138249
929.072	0.0137869
929.150	0.0138158
929.228	0.0138741
929.307	0.0139291
929.385	0.0138089
929.463	0.0138282
929.541	0.0137348
929.619	0.0137746
929.697	0.0138544
929.775	0.0137973
929.853	0.0137988
929.932	0.0137128
930.010	0.0138098
930.088	0.0138433
930.166	0.0138750
930.244	0.0136477
930.322	0.0136950
930.400	0.0138500
930.478	0.0137914
930.557	0.0136924
930.635	0.0138643
930.713	0.0139539
930.791	0.0137798
930.869	0.0137639
930.947	0.0137831
931.025	0.0139724
931.103	0.0139017
931.182	0.0138562
931.260	0.0139126
931.338	0.0140174
931.416	0.0138531
931.494	0.0139103
931.572	0.0140453
931.650	0.0139445
931.728	0.0140273
931.807	0.0140266
931.885	0.0139425
931.963	0.0140598
932.041	0.0140625
932.119	0.0138268
932.197	0.0140553
932.275	0.0140307
932.353	0.0140063
932.432	0.0139845
932.510	0.0141321
932.588	0.0140417
932.666	0.0138477
932.744	0.0138214
932.822	0.0139344
932.900	0.0139383
932.978	0.0139564
933.057	0.0140430
933.135	0.0140065
933.213	0.0138339
933.291	0.0138065
933.369	0.0140311
933.447	0.0140229
933.525	0.0139939
933.603	0.0139504
933.682	0.0139577
933.760	0.0138387
933.838	0.0139332
933.916	0.0140481
933.994	0.0138931
934.072	0.0137681
934.150	0.0139207
934.228	0.0139270
934.307	0.0139220
934.385	0.0140777
934.463	0.0140330
934.541	0.0139249
934.619	0.0139478
934.697	0.0140373
934.775	0.0138873
934.853	0.0137567
934.932	0.0138979
935.010	0.0139796
935.088	0.0139767
935.166	0.0140477
935.244	0.0139146
935.322	0.0137803
935.400	0.0138526
935.478	0.0139079
935.557	0.0138485
935.635	0.0138552
935.713	0.0138538
935.791	0.0138374
935.869	0.0139027
935.947	0.0139286
936.025	0.0138639
936.103	0.0139224
936.182	0.0138350
936.260	0.0139542
936.338	0.0139518
936.416	0.0139433
936.494	0.0138329
936.572	0.0138403
936.650	0.0139589
936.728	0.0139954
936.807	0.0139603
936.885	0.0140408
936.963	0.0140070
937.041	0.0141209
937.119	0.0138902
937.197	0.0140190
937.275	0.0141176
937.353	0.0140985
937.432	0.0140460
937.510	0.0139884
937.588	0.0138661
937.666	0.0140437
937.744	0.0140727
937.822	0.0139861
937.900	0.0140666
937.978	0.0140404
938.057	0.0140126
938.135	0.0140195
938.213	0.0140766
938.291	0.0139984
938.369	0.0139476
938.447	0.0140210
938.525	0.0138924
938.603	0.0141232
938.682	0.0139651
938.760	0.0140042
938.838	0.0139957
938.916	0.0139751
938.994	0.0139910
939.072	0.0140498
939.150	0.0139116
939.228	0.0139737
939.307	0.0140245
939.385	0.0139520
939.463	0.0139789
939.541	0.0140039
939.619	0.0139890
939.697	0.0138613
939.775	0.0139105
939.853	0.0139928
939.932	0.0139486
940.010	0.0139209
940.088	0.0140944
940.166	0.0140264
940.244	0.0140539
940.322	0.0140565
940.400	0.0138937
940.478	0.0138663
940.557	0.0140388
940.635	0.0139341
940.713	0.0139237
940.791	0.0140205
940.869	0.0138915
940.947	0.0140087
941.025	0.0138622
941.103	0.0138227
941.182	0.0139738
941.260	0.0138863
941.338	0.0139323
941.416	0.0138393
941.494	0.0139638
941.572	0.0140560
941.650	0.0138979
941.728	0.0139514
941.807	0.0140827
941.885	0.0140919
941.963	0.0140122
942.041	0.0140345
942.119	0.0139475
942.197	0.0140980
942.275	0.0139960
942.353	0.0141221
942.432	0.0140368
942.510	0.0139582
942.588	0.0141751
942.666	0.0142137
942.744	0.0140629
942.822	0.0139639
942.900	0.0141425
942.978	0.0141380
943.057	0.0140321
943.135	0.0139895
943.213	0.0140541
943.291	0.0140235
943.369	0.0140129
943.447	0.0139809
943.525	0.0140353
943.603	0.0140489
943.682	0.0139676
943.760	0.0140298
943.838	0.0140883
943.916	0.0139898
943.994	0.0139994
944.072	0.0140903
944.150	0.0139636
944.228	0.0140169
944.307	0.0139426
944.385	0.0139603
944.463	0.0140047
944.541	0.0140083
944.619	0.0141613
944.697	0.0139833
944.775	0.0141096
944.853	0.0140316
944.932	0.0140860
945.010	0.0140656
945.088	0.0140578
945.166	0.0139896
945.244	0.0140405
945.322	0.0140382
945.400	0.0139991
945.478	0.0140289
945.557	0.0140246
945.635	0.0138363
945.713	0.0139230
945.791	0.0140666
945.869	0.0140511
945.947	0.0139609
946.025	0.0140101
946.103	0.0139249
946.182	0.0140911
946.260	0.0140358
946.338	0.0139627
946.416	0.0139618
946.494	0.0140901
946.572	0.0141235
946.650	0.0140171
946.728	0.0139685
946.807	0.0139500
946.885	0.0140510
946.963	0.0140043
947.041	0.0140378
947.119	0.0138892
947.197	0.0138828
947.275	0.0139661
947.353	0.0139738
947.432	0.0138305
947.510	0.0139506
947.588	0.0139254
947.666	0.0139625
947.744	0.0139418
947.822	0.0138745
947.900	0.0138715
947.978	0.0139565
948.057	0.0139820
948.135	0.0139506
948.213	0.0139625
948.291	0.0140069
948.369	0.0141302
948.447	0.0139212
948.525	0.0140247
948.603	0.0139184
948.682	0.0139108
948.760	0.0138921
948.838	0.0140517
948.916	0.0139743
948.994	0.0139594
949.072	0.0139217
949.150	0.0141199
949.228	0.0140271
949.307	0.0139456
949.385	0.0139989
949.463	0.0141267
949.541	0.0139967
949.619	0.0141485
949.697	0.0140180
949.775	0.0140441
949.853	0.0142528
949.932	0.0140550
950.010	0.0140665
950.088	0.0140756
950.166	0.0140411
950.244	0.0141645
950.322	0.0141893
950.400	0.0140457
950.478	0.0141557
950.557	0.0142232
950.635	0.0141701
950.713	0.0142130
950.791	0.0141831
950.869	0.0140144
950.947	0.0141014
951.025	0.0141714
951.103	0.0141957
951.182	0.0140945
951.260	0.0141202
951.338	0.0139756
951.416	0.0141213
951.494	0.0141861
951.572	0.0140249
951.650	0.0139341
951.728	0.0141096
951.807	0.0140347
951.885	0.0141167
951.963	0.0141824
952.041	0.0140073
952.119	0.0140502
952.197	0.0139212
952.275	0.0142342
952.353	0.0140821
952.432	0.0138840
952.510	0.0139564
952.588	0.0140284
952.666	0.0139230
952.744	0.0138864
952.822	0.0139693
952.900	0.0140007
952.978	0.0138880
953.057	0.0139496
953.135	0.0140189
953.213	0.0139162
953.291	0.0139045
953.369	0.0139053
953.447	0.0140784
953.525	0.0139426
953.603	0.0139436
953.682	0.0140111
953.760	0.0139182
953.838	0.0140039
953.916	0.0139371
953.994	0.0138419
954.072	0.0139261
954.150	0.0141006
954.228	0.0139130
954.307	0.0139478
954.385	0.0140342
954.463	0.0139410
954.541	0.0138942
954.619	0.0139809
954.697	0.0139202
954.775	0.0138111
954.853	0.0138752
954.932	0.0138272
955.010	0.0139700
955.088	0.0138519
955.166	0.0138398
955.244	0.0140001
955.322	0.0139099
955.400	0.0138173
955.478	0.0138763
955.557	0.0139336
955.635	0.0137977
955.713	0.0138528
955.791	0.0137884
955.869	0.0139056
955.947	0.0138732
956.025	0.0138464
956.103	0.0138336
956.182	0.0138024
956.260	0.0138507
956.338	0.0138708
956.416	0.0139197
956.494	0.0138653
956.572	0.0139179
956.650	0.0139876
956.728	0.0139294
956.807	0.0138366
956.885	0.0138908
956.963	0.0139393
957.041	0.0139501
957.119	0.0139280
957.197	0.0139227
957.275	0.0140461
957.353	0.0139168
957.432	0.0139597
957.510	0.0138707
957.588	0.0138750
957.666	0.0139455
957.744	0.0139493
957.822	0.0139272
957.900	0.0139134
957.978	0.0139122
958.057	0.0138636
958.135	0.0139110
958.213	0.0138069
958.291	0.0139436
958.369	0.0138647
958.447	0.0138920
958.525	0.0139875
958.603	0.0139453
958.682	0.0139519
958.760	0.0139262
958.838	0.0138390
958.916	0.0137963
958.994	0.0139565
959.072	0.0138998
959.150	0.0138941
959.228	0.0139491
959.307	0.0138589
959.385	0.0138210
959.463	0.0140269
959.541	0.0138994
959.619	0.0140038
959.697	0.0140111
959.775	0.0139381
959.853	0.0139650
959.932	0.0140463
960.010	0.0140744
960.088	0.0141335
960.166	0.0139569
960.244	0.0139249
960.322	0.0139613
960.400	0.0141616
960.478	0.0141356
960.557	0.0138850
960.635	0.0139617
960.713	0.0139413
960.791	0.0140717
960.869	0.0139890
960.947	0.0140535
961.025	0.0139242
961.103	0.0140327
961.182	0.0139175
961.260	0.0140208
961.338	0.0139031
961.416	0.0138536
961.494	0.0139472
961.572	0.0137448
961.650	0.0139075
961.728	0.0137617
961.807	0.0139407
961.885	0.0140031
961.963	0.0138586
962.041	0.0138273
962.119	0.0138536
962.197	0.0138898
962.275	0.0138387
962.353	0.0138654
962.432	0.0138156
962.510	0.0139365
962.588	0.0139080
962.666	0.0137577
962.744	0.0137727
962.822	0.0136868
962.900	0.0137336
962.978	0.0139500
963.057	0.0139559
963.135	0.0137595
963.213	0.0137225
963.291	0.0137220
963.369	0.0138017
963.447	0.0139134
963.525	0.0139214
963.603	0.0138387
963.682	0.0138608
963.760	0.0138260
963.838	0.0138770
963.916	0.0139140
963.994	0.0139571
964.072	0.0138947
964.150	0.0139948
964.228	0.0141482
964.307	0.0140034
964.385	0.0139765
964.463	0.0140705
964.541	0.0139878
964.619	0.0142220
964.697	0.0142309
964.775	0.0142255
964.853	0.0141242
964.932	0.0142444
965.010	0.0141797
965.088	0.0141311
965.166	0.0141452
965.244	0.0143738
965.322	0.0141759
965.400	0.0138721
965.478	0.0140716
965.557	0.0141264
965.635	0.0138907
965.713	0.0140518
965.791	0.0140464
965.869	0.0140823
965.947	0.0141337
966.025	0.0137997
966.103	0.0140978
966.182	0.0139393
966.260	0.0138551
966.338	0.0140942
966.416	0.0139874
966.494	0.0139246
966.572	0.0139713
966.650	0.0139941
966.728	0.0138355
966.807	0.0140474
966.885	0.0139495
966.963	0.0139861
967.041	0.0141182
967.119	0.0140771
967.197	0.0140606
967.275	0.0140909
967.353	0.0140638
967.432	0.0141210
967.510	0.0141201
967.588	0.0140623
967.666	0.0139909
967.744	0.0141850
967.822	0.0142163
967.900	0.0142598
967.978	0.0141619
968.057	0.0141798
968.135	0.0141365
968.213	0.0140871
968.291	0.0142028
968.369	0.0142100
968.447	0.0142641
968.525	0.0142970
968.603	0.0143738
968.682	0.0142304
968.760	0.0141726
968.838	0.0143833
968.916	0.0142365
968.994	0.0141276
969.072	0.0141994
969.150	0.0142416
969.228	0.0142893
969.307	0.0142614
969.385	0.0141844
969.463	0.0140668
969.541	0.0142216
969.619	0.0140722
969.697	0.0140087
969.775	0.0140977
969.853	0.0139320
969.932	0.0139406
