06/13/2022	15:15:10	Ver.	4.1	UNKNOWN
Optical Delay	599.968395	Delta X		0.078125	Sweeps	1	Scan Rate	0/0
Coordinates	Axis 1	NaN	Axis 2	NaN	Axis 3	NaN	Axis 4	NaN	Axis 5	NaN	Axis 6	0.000000
TX Power	0.000000	RX Power	0.000000

599.968	0.0163077
600.047	0.0164323
600.125	0.0162132
600.203	0.0163152
600.281	0.0161781
600.359	0.0160204
600.437	0.0161538
600.515	0.0160831
600.593	0.0159982
600.672	0.0160044
600.750	0.0160059
600.828	0.0160966
600.906	0.0159592
600.984	0.0159001
601.062	0.0159899
601.140	0.0160591
601.218	0.0160016
601.297	0.0159018
601.375	0.0161488
601.453	0.0161440
601.531	0.0161513
601.609	0.0160165
601.687	0.0161608
601.765	0.0160892
601.843	0.0161779
601.922	0.0161351
602.000	0.0160438
602.078	0.0161354
602.156	0.0160851
602.234	0.0160210
602.312	0.0161316
602.390	0.0160665
602.468	0.0160635
602.547	0.0160660
602.625	0.0160818
602.703	0.0162243
602.781	0.0162104
602.859	0.0161281
602.937	0.0161196
603.015	0.0160825
603.093	0.0161546
603.172	0.0160159
603.250	0.0160491
603.328	0.0160320
603.406	0.0160606
603.484	0.0160672
603.562	0.0160262
603.640	0.0161752
603.718	0.0160330
603.797	0.0160615
603.875	0.0161297
603.953	0.0161618
604.031	0.0161635
604.109	0.0161045
604.187	0.0162716
604.265	0.0161028
604.343	0.0161617
604.422	0.0161521
604.500	0.0161978
604.578	0.0162928
604.656	0.0162037
604.734	0.0161043
604.812	0.0161752
604.890	0.0162811
604.968	0.0162122
605.047	0.0162716
605.125	0.0164285
605.203	0.0162032
605.281	0.0162417
605.359	0.0162421
605.437	0.0163982
605.515	0.0163655
605.593	0.0162839
605.672	0.0162294
605.750	0.0163375
605.828	0.0163569
605.906	0.0163830
605.984	0.0163278
606.062	0.0160698
606.140	0.0162717
606.218	0.0163660
606.297	0.0164032
606.375	0.0163415
606.453	0.0162875
606.531	0.0161960
606.609	0.0162218
606.687	0.0162798
606.765	0.0162063
606.843	0.0160690
606.922	0.0162096
607.000	0.0162691
607.078	0.0162107
607.156	0.0162347
607.234	0.0163602
607.312	0.0163677
607.390	0.0163609
607.468	0.0162601
607.547	0.0164568
607.625	0.0164641
607.703	0.0165392
607.781	0.0163981
607.859	0.0164282
607.937	0.0163904
608.015	0.0164256
608.093	0.0164099
608.172	0.0165406
608.250	0.0164423
608.328	0.0164817
608.406	0.0164127
608.484	0.0164429
608.562	0.0163576
608.640	0.0164167
608.718	0.0163792
608.797	0.0163816
608.875	0.0163741
608.953	0.0162666
609.031	0.0162267
609.109	0.0164478
609.187	0.0163531
609.265	0.0162390
609.343	0.0163438
609.422	0.0164508
609.500	0.0162051
609.578	0.0162766
609.656	0.0163494
609.734	0.0163307
609.812	0.0163931
609.890	0.0163618
609.968	0.0163443
610.047	0.0165025
610.125	0.0164799
610.203	0.0162900
610.281	0.0162151
610.359	0.0162228
610.437	0.0163548
610.515	0.0163976
610.593	0.0163789
610.672	0.0163644
610.750	0.0163735
610.828	0.0162849
610.906	0.0163904
610.984	0.0165569
611.062	0.0163618
611.140	0.0164867
611.218	0.0164337
611.297	0.0164365
611.375	0.0164153
611.453	0.0163690
611.531	0.0164140
611.609	0.0166586
611.687	0.0164930
611.765	0.0163186
611.843	0.0164485
611.922	0.0165100
612.000	0.0163898
612.078	0.0163979
612.156	0.0164232
612.234	0.0166114
612.312	0.0165854
612.390	0.0166376
612.468	0.0164948
612.547	0.0164765
612.625	0.0164375
612.703	0.0164045
612.781	0.0165339
612.859	0.0164475
612.937	0.0163916
613.015	0.0163982
613.093	0.0164520
613.172	0.0165074
613.250	0.0164056
613.328	0.0164842
613.406	0.0163637
613.484	0.0163236
613.562	0.0163438
613.640	0.0163653
613.718	0.0164108
613.797	0.0162370
613.875	0.0163271
613.953	0.0163027
614.031	0.0162736
614.109	0.0163168
614.187	0.0162879
614.265	0.0163458
614.343	0.0164410
614.422	0.0163587
614.500	0.0163783
614.578	0.0164476
614.656	0.0163181
614.734	0.0163147
614.812	0.0163636
614.890	0.0162281
614.968	0.0164727
615.047	0.0163453
615.125	0.0164123
615.203	0.0164000
615.281	0.0162289
615.359	0.0165135
615.437	0.0163742
615.515	0.0164723
615.593	0.0164528
615.672	0.0165561
615.750	0.0165072
615.828	0.0164951
615.906	0.0164585
615.984	0.0166827
616.062	0.0165043
616.140	0.0164740
616.218	0.0165434
616.297	0.0165366
616.375	0.0166900
616.453	0.0165891
616.531	0.0165570
616.609	0.0165662
616.687	0.0167120
616.765	0.0167167
616.843	0.0165916
616.922	0.0165981
617.000	0.0166355
617.078	0.0167411
617.156	0.0167073
617.234	0.0166189
617.312	0.0165656
617.390	0.0163987
617.468	0.0165345
617.547	0.0165056
617.625	0.0163600
617.703	0.0164419
617.781	0.0164588
617.859	0.0164003
617.937	0.0163226
618.015	0.0163879
618.093	0.0163475
618.172	0.0163603
618.250	0.0165067
618.328	0.0163988
618.406	0.0163161
618.484	0.0163096
618.562	0.0164101
618.640	0.0164800
618.718	0.0164291
618.797	0.0164216
618.875	0.0163548
618.953	0.0163359
619.031	0.0164648
619.109	0.0162515
619.187	0.0163596
619.265	0.0165237
619.343	0.0165031
619.422	0.0163275
619.500	0.0163911
619.578	0.0165220
619.656	0.0164445
619.734	0.0163582
619.812	0.0164063
619.890	0.0164619
619.968	0.0163868
620.047	0.0162957
620.125	0.0164227
620.203	0.0164627
620.281	0.0163934
620.359	0.0164443
620.437	0.0164857
620.515	0.0164761
620.593	0.0163409
620.672	0.0163757
620.750	0.0165040
620.828	0.0164104
620.906	0.0164095
620.984	0.0164739
621.062	0.0164453
621.140	0.0164862
621.218	0.0163335
621.297	0.0164256
621.375	0.0163677
621.453	0.0164537
621.531	0.0163409
621.609	0.0164645
621.687	0.0163541
621.765	0.0163993
621.843	0.0163606
621.922	0.0162960
622.000	0.0163199
622.078	0.0163402
622.156	0.0164986
622.234	0.0163978
622.312	0.0162791
622.390	0.0164438
622.468	0.0161024
622.547	0.0162921
622.625	0.0162865
622.703	0.0163448
622.781	0.0163609
622.859	0.0163687
622.937	0.0161835
623.015	0.0164098
623.093	0.0163299
623.172	0.0162136
623.250	0.0162887
623.328	0.0162637
623.406	0.0163058
623.484	0.0162482
623.562	0.0162538
623.640	0.0162774
623.718	0.0163125
623.797	0.0162659
623.875	0.0162308
623.953	0.0162454
624.031	0.0162863
624.109	0.0162872
624.187	0.0162490
624.265	0.0162329
624.343	0.0161905
624.422	0.0163348
624.500	0.0162707
624.578	0.0163094
624.656	0.0163287
624.734	0.0163934
624.812	0.0161398
624.890	0.0162663
624.968	0.0163127
625.047	0.0162389
625.125	0.0162604
625.203	0.0162165
625.281	0.0161681
625.359	0.0162059
625.437	0.0161524
625.515	0.0161827
625.593	0.0160010
625.672	0.0160696
625.750	0.0161395
625.828	0.0161795
625.906	0.0161258
625.984	0.0159751
626.062	0.0161353
626.140	0.0159812
626.218	0.0160172
626.297	0.0158352
626.375	0.0159712
626.453	0.0159441
626.531	0.0159197
626.609	0.0158457
626.687	0.0157785
626.765	0.0158712
626.843	0.0159708
626.922	0.0159389
627.000	0.0159103
627.078	0.0159132
627.156	0.0159462
627.234	0.0159064
627.312	0.0158743
627.390	0.0157446
627.468	0.0159113
627.547	0.0159996
627.625	0.0161053
627.703	0.0159907
627.781	0.0160329
627.859	0.0159609
627.937	0.0160352
628.015	0.0160330
628.093	0.0160845
628.172	0.0162057
628.250	0.0160520
628.328	0.0162418
628.406	0.0161387
628.484	0.0160486
628.562	0.0161864
628.640	0.0161675
628.718	0.0161829
628.797	0.0161604
628.875	0.0162971
628.953	0.0162502
629.031	0.0161383
629.109	0.0162758
629.187	0.0162194
629.265	0.0162444
629.343	0.0162837
629.422	0.0160607
629.500	0.0162745
629.578	0.0162787
629.656	0.0161423
629.734	0.0162469
629.812	0.0163212
629.890	0.0162540
629.968	0.0162218
630.047	0.0161824
630.125	0.0161625
630.203	0.0163676
630.281	0.0162508
630.359	0.0162995
630.437	0.0163478
630.515	0.0162883
630.593	0.0162444
630.672	0.0161015
630.750	0.0163202
630.828	0.0163345
630.906	0.0162445
630.984	0.0164659
631.062	0.0162423
631.140	0.0162912
631.218	0.0163765
631.297	0.0162878
631.375	0.0163261
631.453	0.0163170
631.531	0.0162058
631.609	0.0163538
631.687	0.0162418
631.765	0.0162337
631.843	0.0163435
631.922	0.0164165
632.000	0.0164539
632.078	0.0163113
632.156	0.0162755
632.234	0.0163851
632.312	0.0164739
632.390	0.0163813
632.468	0.0164054
632.547	0.0164107
632.625	0.0164578
632.703	0.0164948
632.781	0.0165699
632.859	0.0164123
632.937	0.0163759
633.015	0.0166116
633.093	0.0164810
633.172	0.0164028
633.250	0.0165263
633.328	0.0166164
633.406	0.0166129
633.484	0.0166068
633.562	0.0164218
633.640	0.0164162
633.718	0.0165630
633.797	0.0166077
633.875	0.0166441
633.953	0.0165749
634.031	0.0165211
634.109	0.0165392
634.187	0.0164904
634.265	0.0165383
634.343	0.0165716
634.422	0.0164111
634.500	0.0163821
634.578	0.0164620
634.656	0.0165493
634.734	0.0165422
634.812	0.0164224
634.890	0.0164516
634.968	0.0165549
635.047	0.0165208
635.125	0.0164948
635.203	0.0166734
635.281	0.0165884
635.359	0.0165804
635.437	0.0164462
635.515	0.0165141
635.593	0.0165864
635.672	0.0165865
635.750	0.0165028
635.828	0.0165701
635.906	0.0165048
635.984	0.0166050
636.062	0.0165158
636.140	0.0165633
636.218	0.0165962
636.297	0.0165456
636.375	0.0166148
636.453	0.0165782
636.531	0.0165743
636.609	0.0165503
636.687	0.0167038
636.765	0.0163813
636.843	0.0165173
636.922	0.0164150
637.000	0.0164438
637.078	0.0164997
637.156	0.0164427
637.234	0.0164812
637.312	0.0164301
637.390	0.0165918
637.468	0.0164048
637.547	0.0163469
637.625	0.0164153
637.703	0.0165491
637.781	0.0164159
637.859	0.0162564
637.937	0.0163976
638.015	0.0165443
638.093	0.0163661
638.172	0.0163902
638.250	0.0164098
638.328	0.0165097
638.406	0.0164140
638.484	0.0163854
638.562	0.0164024
638.640	0.0163985
638.718	0.0163844
638.797	0.0163563
638.875	0.0165974
638.953	0.0165343
639.031	0.0163277
639.109	0.0163802
639.187	0.0165545
639.265	0.0164661
639.343	0.0163276
639.422	0.0163618
639.500	0.0164561
639.578	0.0164108
639.656	0.0163895
639.734	0.0165719
639.812	0.0165675
639.890	0.0164005
639.968	0.0165063
640.047	0.0163979
640.125	0.0165794
640.203	0.0163463
640.281	0.0164420
640.359	0.0164763
640.437	0.0164255
640.515	0.0163735
640.593	0.0163421
640.672	0.0163795
640.750	0.0162733
640.828	0.0164407
640.906	0.0164298
640.984	0.0164217
641.062	0.0163350
641.140	0.0163982
641.218	0.0163910
641.297	0.0161639
641.375	0.0163794
641.453	0.0165099
641.531	0.0163002
641.609	0.0163383
641.687	0.0162392
641.765	0.0162807
641.843	0.0163109
641.922	0.0164052
642.000	0.0164194
642.078	0.0163038
642.156	0.0163383
642.234	0.0162375
642.312	0.0163726
642.390	0.0162096
642.468	0.0163889
642.547	0.0164800
642.625	0.0164149
642.703	0.0164216
642.781	0.0164011
642.859	0.0163216
642.937	0.0164153
643.015	0.0163155
643.093	0.0164295
643.172	0.0162838
643.250	0.0163094
643.328	0.0163823
643.406	0.0163051
643.484	0.0162820
643.562	0.0163673
643.640	0.0162833
643.718	0.0163274
643.797	0.0164970
643.875	0.0162959
643.953	0.0162485
644.031	0.0163995
644.109	0.0161877
644.187	0.0162663
644.265	0.0164328
644.343	0.0164172
644.422	0.0163406
644.500	0.0163593
644.578	0.0162357
644.656	0.0162670
644.734	0.0164819
644.812	0.0163842
644.890	0.0164343
644.968	0.0162106
645.047	0.0162873
645.125	0.0161308
645.203	0.0163540
645.281	0.0164204
645.359	0.0163267
645.437	0.0164101
645.515	0.0163512
645.593	0.0162579
645.672	0.0162685
645.750	0.0162152
645.828	0.0162187
645.906	0.0162621
645.984	0.0162350
646.062	0.0163288
646.140	0.0161890
646.218	0.0161372
646.297	0.0161346
646.375	0.0161813
646.453	0.0162144
646.531	0.0162469
646.609	0.0162327
646.687	0.0162543
646.765	0.0162830
646.843	0.0161948
646.922	0.0161298
647.000	0.0162284
647.078	0.0162310
647.156	0.0162468
647.234	0.0162988
647.312	0.0162175
647.390	0.0161800
647.468	0.0161942
647.547	0.0162413
647.625	0.0162894
647.703	0.0162235
647.781	0.0161845
647.859	0.0162588
647.937	0.0162861
648.015	0.0163083
648.093	0.0161414
648.172	0.0162164
648.250	0.0162019
648.328	0.0160921
648.406	0.0162655
648.484	0.0162567
648.562	0.0162035
648.640	0.0161279
648.718	0.0161626
648.797	0.0160946
648.875	0.0161066
648.953	0.0161655
649.031	0.0162631
649.109	0.0160163
649.187	0.0161165
649.265	0.0162144
649.343	0.0162265
649.422	0.0161556
649.500	0.0162373
649.578	0.0161639
649.656	0.0161495
649.734	0.0160934
649.812	0.0161726
649.890	0.0162254
649.968	0.0161687
650.047	0.0162826
650.125	0.0161468
650.203	0.0161356
650.281	0.0163151
650.359	0.0161951
650.437	0.0160820
650.515	0.0161449
650.593	0.0162827
650.672	0.0162864
650.750	0.0163580
650.828	0.0162811
650.906	0.0162186
650.984	0.0162960
651.062	0.0161435
651.140	0.0161665
651.218	0.0162073
651.297	0.0162244
651.375	0.0162902
651.453	0.0162236
651.531	0.0162584
651.609	0.0161910
651.687	0.0163564
651.765	0.0162586
651.843	0.0162220
651.922	0.0161809
652.000	0.0163020
652.078	0.0163761
652.156	0.0163344
652.234	0.0161491
652.312	0.0163221
652.390	0.0163911
652.468	0.0163372
652.547	0.0161705
652.625	0.0161871
652.703	0.0163414
652.781	0.0163067
652.859	0.0162177
652.937	0.0164539
653.015	0.0163448
653.093	0.0162717
653.172	0.0162614
653.250	0.0164752
653.328	0.0162992
653.406	0.0162645
653.484	0.0163524
653.562	0.0163080
653.640	0.0165192
653.718	0.0164044
653.797	0.0162210
653.875	0.0163064
653.953	0.0164942
654.031	0.0162329
654.109	0.0162914
654.187	0.0164397
654.265	0.0162760
654.343	0.0162666
654.422	0.0162239
654.500	0.0164465
654.578	0.0164026
654.656	0.0163428
654.734	0.0163579
654.812	0.0163405
654.890	0.0163909
654.968	0.0163934
655.047	0.0163473
655.125	0.0162598
655.203	0.0165134
655.281	0.0164207
655.359	0.0162870
655.437	0.0163567
655.515	0.0164246
655.593	0.0163631
655.672	0.0164587
655.750	0.0161951
655.828	0.0162474
655.906	0.0164233
655.984	0.0163344
656.062	0.0164124
656.140	0.0164214
656.218	0.0163860
656.297	0.0162968
656.375	0.0163371
656.453	0.0164387
656.531	0.0165136
656.609	0.0165459
656.687	0.0164240
656.765	0.0162961
656.843	0.0165372
656.922	0.0164854
657.000	0.0163680
657.078	0.0163955
657.156	0.0164361
657.234	0.0164494
657.312	0.0162460
657.390	0.0164268
657.468	0.0163705
657.547	0.0163024
657.625	0.0162905
657.703	0.0163017
657.781	0.0163391
657.859	0.0163477
657.937	0.0162999
658.015	0.0163789
658.093	0.0162977
658.172	0.0162107
658.250	0.0163747
658.328	0.0164919
658.406	0.0163565
658.484	0.0164922
658.562	0.0164187
658.640	0.0162713
658.718	0.0162522
658.797	0.0164201
658.875	0.0164275
658.953	0.0163747
659.031	0.0163638
659.109	0.0162747
659.187	0.0163227
659.265	0.0165180
659.343	0.0165282
659.422	0.0163544
659.500	0.0164337
659.578	0.0163648
659.656	0.0163429
659.734	0.0163522
659.812	0.0165066
659.890	0.0164086
659.968	0.0163780
660.047	0.0163908
660.125	0.0163952
660.203	0.0164598
660.281	0.0163416
660.359	0.0165691
660.437	0.0164365
660.515	0.0164618
660.593	0.0163577
660.672	0.0164900
660.750	0.0164080
660.828	0.0163435
660.906	0.0163869
660.984	0.0163303
661.062	0.0165052
661.140	0.0165971
661.218	0.0164645
661.297	0.0164399
661.375	0.0162424
661.453	0.0164121
661.531	0.0164362
661.609	0.0163686
661.687	0.0164224
661.765	0.0163840
661.843	0.0163965
661.922	0.0163760
662.000	0.0164509
662.078	0.0164597
662.156	0.0164642
662.234	0.0164890
662.312	0.0164180
662.390	0.0163548
662.468	0.0165318
662.547	0.0164028
662.625	0.0164769
662.703	0.0165341
662.781	0.0164938
662.859	0.0163729
662.937	0.0164112
663.015	0.0164990
663.093	0.0166060
663.172	0.0165700
663.250	0.0165549
663.328	0.0164661
663.406	0.0164880
663.484	0.0164244
663.562	0.0164648
663.640	0.0164088
663.718	0.0164282
663.797	0.0164124
663.875	0.0164305
663.953	0.0164564
664.031	0.0165269
664.109	0.0165434
664.187	0.0163989
664.265	0.0165106
664.343	0.0164393
664.422	0.0163131
664.500	0.0165834
664.578	0.0164433
664.656	0.0164555
664.734	0.0164436
664.812	0.0163660
664.890	0.0164777
664.968	0.0165022
665.047	0.0164146
665.125	0.0163956
665.203	0.0165224
665.281	0.0164574
665.359	0.0164892
665.437	0.0163962
665.515	0.0163198
665.593	0.0164585
665.672	0.0164362
665.750	0.0163008
665.828	0.0163175
665.906	0.0165083
665.984	0.0163885
666.062	0.0162796
666.140	0.0163511
666.218	0.0163810
666.297	0.0163161
666.375	0.0164619
666.453	0.0163755
666.531	0.0164907
666.609	0.0164212
666.687	0.0163447
666.765	0.0164956
666.843	0.0162817
666.922	0.0163819
667.000	0.0165218
667.078	0.0165546
667.156	0.0164222
667.234	0.0164855
667.312	0.0165014
667.390	0.0163432
667.468	0.0163743
667.547	0.0165200
667.625	0.0165431
667.703	0.0163419
667.781	0.0163559
667.859	0.0164047
667.937	0.0164099
668.015	0.0164636
668.093	0.0163528
668.172	0.0163200
668.250	0.0163753
668.328	0.0163950
668.406	0.0164213
668.484	0.0163295
668.562	0.0164706
668.640	0.0163039
668.718	0.0162997
668.797	0.0162250
668.875	0.0165007
668.953	0.0164044
669.031	0.0163089
669.109	0.0163643
669.187	0.0164297
669.265	0.0161613
669.343	0.0164023
669.422	0.0164728
669.500	0.0162577
669.578	0.0160564
669.656	0.0163027
669.734	0.0162704
669.812	0.0162856
669.890	0.0162745
669.968	0.0162728
670.047	0.0163392
670.125	0.0162397
670.203	0.0163604
670.281	0.0162933
670.359	0.0163792
670.437	0.0162971
670.515	0.0160818
670.593	0.0161866
670.672	0.0162936
670.750	0.0161509
670.828	0.0162773
670.906	0.0162068
670.984	0.0161670
671.062	0.0161971
671.140	0.0162035
671.218	0.0161413
671.297	0.0161453
671.375	0.0161473
671.453	0.0161290
671.531	0.0162577
671.609	0.0162568
671.687	0.0162170
671.765	0.0161526
671.843	0.0163108
671.922	0.0162277
672.000	0.0163519
672.078	0.0161427
672.156	0.0162270
672.234	0.0162832
672.312	0.0163232
672.390	0.0162846
672.468	0.0161112
672.547	0.0162675
672.625	0.0162294
672.703	0.0163356
672.781	0.0161487
672.859	0.0161167
672.937	0.0162451
673.015	0.0162105
673.093	0.0162096
673.172	0.0161861
673.250	0.0161607
673.328	0.0161492
673.406	0.0162312
673.484	0.0162115
673.562	0.0163376
673.640	0.0162600
673.718	0.0161643
673.797	0.0162354
673.875	0.0161868
673.953	0.0161671
674.031	0.0161434
674.109	0.0161413
674.187	0.0161882
674.265	0.0161779
674.343	0.0160881
674.422	0.0160994
674.500	0.0161957
674.578	0.0162409
674.656	0.0161056
674.734	0.0161948
674.812	0.0162643
674.890	0.0161541
674.968	0.0160582
675.047	0.0162335
675.125	0.0161857
675.203	0.0162802
675.281	0.0162653
675.359	0.0161492
675.437	0.0163015
675.515	0.0161491
675.593	0.0162189
675.672	0.0161786
675.750	0.0162646
675.828	0.0163451
675.906	0.0162259
675.984	0.0163233
676.062	0.0162756
676.140	0.0162573
676.218	0.0163479
676.297	0.0162891
676.375	0.0162610
676.453	0.0163634
676.531	0.0164536
676.609	0.0162917
676.687	0.0162048
676.765	0.0163625
676.843	0.0163171
676.922	0.0164093
677.000	0.0163306
677.078	0.0162893
677.156	0.0162994
677.234	0.0163223
677.312	0.0163216
677.390	0.0162804
677.468	0.0163908
677.547	0.0163966
677.625	0.0162989
677.703	0.0164248
677.781	0.0164265
677.859	0.0162761
677.937	0.0163712
678.015	0.0163875
678.093	0.0163110
678.172	0.0164142
678.250	0.0164165
678.328	0.0164011
678.406	0.0165135
678.484	0.0163228
678.562	0.0163934
678.640	0.0163982
678.718	0.0163629
678.797	0.0163239
678.875	0.0164439
678.953	0.0164465
679.031	0.0164386
679.109	0.0164348
679.187	0.0164073
679.265	0.0163767
679.343	0.0164017
679.422	0.0162682
679.500	0.0163416
679.578	0.0164600
679.656	0.0164487
679.734	0.0165740
679.812	0.0164433
679.890	0.0164825
679.968	0.0164513
680.047	0.0163293
680.125	0.0164499
680.203	0.0163947
680.281	0.0163789
680.359	0.0164134
680.437	0.0164252
680.515	0.0164690
680.593	0.0163367
680.672	0.0163238
680.750	0.0163595
680.828	0.0164235
680.906	0.0165170
680.984	0.0164404
681.062	0.0165194
681.140	0.0164112
681.218	0.0163152
681.297	0.0165195
681.375	0.0164271
681.453	0.0164153
681.531	0.0163269
681.609	0.0166051
681.687	0.0164503
681.765	0.0163445
681.843	0.0164127
681.922	0.0164667
682.000	0.0164083
682.078	0.0165301
682.156	0.0166225
682.234	0.0164327
682.312	0.0165277
682.390	0.0164236
682.468	0.0164697
682.547	0.0164761
682.625	0.0165427
682.703	0.0163985
682.781	0.0164288
682.859	0.0165583
682.937	0.0164468
683.015	0.0164809
683.093	0.0163987
683.172	0.0165147
683.250	0.0166248
683.328	0.0164397
683.406	0.0164777
683.484	0.0165407
683.562	0.0163710
683.640	0.0164640
683.718	0.0164319
683.797	0.0165105
683.875	0.0164460
683.953	0.0164426
684.031	0.0164577
684.109	0.0164623
684.187	0.0164314
684.265	0.0163508
684.343	0.0163602
684.422	0.0164322
684.500	0.0165291
684.578	0.0164786
684.656	0.0164127
684.734	0.0163606
684.812	0.0165118
684.890	0.0162942
684.968	0.0164174
685.047	0.0164816
685.125	0.0164307
685.203	0.0163591
685.281	0.0163997
685.359	0.0165169
685.437	0.0163924
685.515	0.0163812
685.593	0.0164767
685.672	0.0164680
685.750	0.0165201
685.828	0.0164431
685.906	0.0163674
685.984	0.0165501
686.062	0.0164716
686.140	0.0165247
686.218	0.0164905
686.297	0.0163613
686.375	0.0163943
686.453	0.0164487
686.531	0.0165261
686.609	0.0164221
686.687	0.0164201
686.765	0.0163839
686.843	0.0164359
686.922	0.0164087
687.000	0.0163085
687.078	0.0164661
687.156	0.0164925
687.234	0.0165250
687.312	0.0163989
687.390	0.0164181
687.468	0.0163589
687.547	0.0163618
687.625	0.0164118
687.703	0.0163152
687.781	0.0162778
687.859	0.0163785
687.937	0.0164151
688.015	0.0164182
688.093	0.0162910
688.172	0.0163680
688.250	0.0164179
688.328	0.0163450
688.406	0.0163360
688.484	0.0163532
688.562	0.0161707
688.640	0.0162809
688.718	0.0162428
688.797	0.0163558
688.875	0.0165417
688.953	0.0162997
689.031	0.0164311
689.109	0.0163513
689.187	0.0164011
689.265	0.0162970
689.343	0.0163943
689.422	0.0163815
689.500	0.0162766
689.578	0.0163208
689.656	0.0164327
689.734	0.0164312
689.812	0.0163943
689.890	0.0164520
689.968	0.0163503
690.047	0.0164274
690.125	0.0162281
690.203	0.0163486
690.281	0.0164960
690.359	0.0163109
690.437	0.0163770
690.515	0.0164381
690.593	0.0164271
690.672	0.0163019
690.750	0.0164973
690.828	0.0163638
690.906	0.0163536
690.984	0.0164339
691.062	0.0163481
691.140	0.0163184
691.218	0.0163378
691.297	0.0163411
691.375	0.0163876
691.453	0.0162054
691.531	0.0164362
691.609	0.0162749
691.687	0.0164159
691.765	0.0163128
691.843	0.0163303
691.922	0.0164349
692.000	0.0164719
692.078	0.0164797
692.156	0.0164034
692.234	0.0163129
692.312	0.0163486
692.390	0.0163224
692.468	0.0162760
692.547	0.0163361
692.625	0.0163118
692.703	0.0164272
692.781	0.0164241
692.859	0.0163009
692.937	0.0162582
693.015	0.0163259
693.093	0.0164658
693.172	0.0163716
693.250	0.0163419
693.328	0.0163702
693.406	0.0164330
693.484	0.0163475
693.562	0.0163825
693.640	0.0163682
693.718	0.0162839
693.797	0.0162980
693.875	0.0163427
693.953	0.0163138
694.031	0.0162923
694.109	0.0163742
694.187	0.0163182
694.265	0.0163031
694.343	0.0162791
694.422	0.0163431
694.500	0.0163628
694.578	0.0162330
694.656	0.0162969
694.734	0.0162510
694.812	0.0162354
694.890	0.0163840
694.968	0.0164223
695.047	0.0161876
695.125	0.0162962
695.203	0.0163139
695.281	0.0162365
695.359	0.0161859
695.437	0.0163494
695.515	0.0163360
695.593	0.0162045
695.672	0.0162278
695.750	0.0161365
695.828	0.0161073
695.906	0.0160951
695.984	0.0162334
696.062	0.0161340
696.140	0.0162479
696.218	0.0160999
696.297	0.0161027
696.375	0.0161521
696.453	0.0162067
696.531	0.0162007
696.609	0.0160678
696.687	0.0162054
696.765	0.0161948
696.843	0.0161568
696.922	0.0160865
697.000	0.0160940
697.078	0.0161353
697.156	0.0161907
697.234	0.0162637
697.312	0.0160736
697.390	0.0162894
697.468	0.0162453
697.547	0.0160794
697.625	0.0162781
697.703	0.0162465
697.781	0.0161768
697.859	0.0162302
697.937	0.0162006
698.015	0.0162121
698.093	0.0162231
698.172	0.0161755
698.250	0.0161587
698.328	0.0161869
698.406	0.0161778
698.484	0.0162152
698.562	0.0161361
698.640	0.0161775
698.718	0.0162081
698.797	0.0162340
698.875	0.0162567
698.953	0.0161766
699.031	0.0161290
699.109	0.0161301
699.187	0.0162373
699.265	0.0162884
699.343	0.0161222
699.422	0.0160864
699.500	0.0162012
699.578	0.0160577
699.656	0.0160195
699.734	0.0162191
699.812	0.0161465
699.890	0.0162712
699.968	0.0161297
700.047	0.0161963
700.125	0.0161405
700.203	0.0161279
700.281	0.0160808
700.359	0.0161993
700.437	0.0162287
700.515	0.0161043
700.593	0.0160867
700.672	0.0161614
700.750	0.0161369
700.828	0.0162465
700.906	0.0159739
700.984	0.0162169
701.062	0.0162292
701.140	0.0162518
701.218	0.0161880
701.297	0.0161922
701.375	0.0162220
701.453	0.0161134
701.531	0.0162027
701.609	0.0161623
701.687	0.0162359
701.765	0.0161275
701.843	0.0161255
701.922	0.0162688
702.000	0.0161071
702.078	0.0162234
702.156	0.0161343
702.234	0.0161167
702.312	0.0162009
702.390	0.0161147
702.468	0.0160529
702.547	0.0161920
702.625	0.0162388
702.703	0.0161732
702.781	0.0161824
702.859	0.0162946
702.937	0.0161585
703.015	0.0161562
703.093	0.0162250
703.172	0.0161826
703.250	0.0163016
703.328	0.0162959
703.406	0.0161913
703.484	0.0160097
703.562	0.0162248
703.640	0.0161694
703.718	0.0161943
703.797	0.0161802
703.875	0.0163026
703.953	0.0162732
704.031	0.0163308
704.109	0.0162323
704.187	0.0161985
704.265	0.0163213
704.343	0.0160725
704.422	0.0162222
704.500	0.0162537
704.578	0.0162570
704.656	0.0162398
704.734	0.0162173
704.812	0.0162464
704.890	0.0163881
704.968	0.0163458
705.047	0.0162289
705.125	0.0161488
705.203	0.0161783
705.281	0.0161724
705.359	0.0163251
705.437	0.0161322
705.515	0.0162269
705.593	0.0162978
705.672	0.0163079
705.750	0.0163989
705.828	0.0163103
705.906	0.0162206
705.984	0.0163094
706.062	0.0163215
706.140	0.0162713
706.218	0.0162711
706.297	0.0162893
706.375	0.0162951
706.453	0.0164236
706.531	0.0163853
706.609	0.0164024
706.687	0.0163650
706.765	0.0163803
706.843	0.0164467
706.922	0.0164974
707.000	0.0164201
707.078	0.0164269
707.156	0.0164484
707.234	0.0163863
707.312	0.0163999
707.390	0.0164407
707.468	0.0165260
707.547	0.0165070
707.625	0.0164233
707.703	0.0164825
707.781	0.0164566
707.859	0.0162409
707.937	0.0164836
708.015	0.0165237
708.093	0.0166118
708.172	0.0165549
708.250	0.0164468
708.328	0.0162777
708.406	0.0164333
708.484	0.0165810
708.562	0.0165492
708.640	0.0164031
708.718	0.0164752
708.797	0.0165053
708.875	0.0164434
708.953	0.0163582
709.031	0.0165770
709.109	0.0164813
709.187	0.0164113
709.265	0.0165186
709.343	0.0165228
709.422	0.0164099
709.500	0.0163193
709.578	0.0165045
709.656	0.0166180
709.734	0.0163219
709.812	0.0165376
709.890	0.0164642
709.968	0.0165108
710.047	0.0164153
710.125	0.0165517
710.203	0.0165247
710.281	0.0165887
710.359	0.0166813
710.437	0.0165614
710.515	0.0166280
710.593	0.0165472
710.672	0.0165311
710.750	0.0164503
710.828	0.0165701
710.906	0.0165743
710.984	0.0165143
711.062	0.0166227
711.140	0.0165414
711.218	0.0165654
711.297	0.0166026
711.375	0.0165011
711.453	0.0164021
711.531	0.0166096
711.609	0.0165759
711.687	0.0165975
711.765	0.0165050
711.843	0.0166554
711.922	0.0165205
712.000	0.0165044
712.078	0.0166236
712.156	0.0165587
712.234	0.0164828
712.312	0.0163979
712.390	0.0164209
712.468	0.0165417
712.547	0.0165099
712.625	0.0163226
712.703	0.0163746
712.781	0.0164227
712.859	0.0163407
712.937	0.0164476
713.015	0.0163895
713.093	0.0164869
713.172	0.0164697
713.250	0.0166048
713.328	0.0164217
713.406	0.0163585
713.484	0.0164647
713.562	0.0165005
713.640	0.0165372
713.718	0.0165627
713.797	0.0164640
713.875	0.0165571
713.953	0.0164407
714.031	0.0163138
714.109	0.0164333
714.187	0.0166608
714.265	0.0166045
714.343	0.0164597
714.422	0.0164288
714.500	0.0164788
714.578	0.0164846
714.656	0.0164894
714.734	0.0163566
714.812	0.0163765
714.890	0.0164768
714.968	0.0163848
715.047	0.0164573
715.125	0.0164281
715.203	0.0163409
715.281	0.0164098
715.359	0.0163524
715.437	0.0163109
715.515	0.0162811
715.593	0.0162414
715.672	0.0163283
715.750	0.0163715
715.828	0.0164040
715.906	0.0163386
715.984	0.0162457
716.062	0.0163159
716.140	0.0163218
716.218	0.0163218
716.297	0.0162074
716.375	0.0162368
716.453	0.0164097
716.531	0.0162086
716.609	0.0163741
716.687	0.0162238
716.765	0.0161895
716.843	0.0162619
716.922	0.0164229
717.000	0.0162975
717.078	0.0162376
717.156	0.0161630
717.234	0.0163712
717.312	0.0162450
717.390	0.0162556
717.468	0.0162638
717.547	0.0162038
717.625	0.0162703
717.703	0.0163611
717.781	0.0162650
717.859	0.0163451
717.937	0.0163382
718.015	0.0163216
718.093	0.0163468
718.172	0.0162914
718.250	0.0163046
718.328	0.0163033
718.406	0.0163974
718.484	0.0164035
718.562	0.0162974
718.640	0.0162267
718.718	0.0164072
718.797	0.0163523
718.875	0.0162305
718.953	0.0163623
719.031	0.0163486
719.109	0.0161930
719.187	0.0163110
719.265	0.0161443
719.343	0.0162625
719.422	0.0162766
719.500	0.0163525
719.578	0.0162215
719.656	0.0163660
719.734	0.0162619
719.812	0.0160672
719.890	0.0161872
719.968	0.0162843
720.047	0.0162575
720.125	0.0163133
720.203	0.0162201
720.281	0.0163670
720.359	0.0161146
720.437	0.0162104
720.515	0.0161892
720.593	0.0161850
720.672	0.0163956
720.750	0.0162846
720.828	0.0161690
720.906	0.0162483
720.984	0.0162475
721.062	0.0161611
721.140	0.0162984
721.218	0.0162038
721.297	0.0163014
721.375	0.0163716
721.453	0.0162469
721.531	0.0162036
721.609	0.0162759
721.687	0.0162878
721.765	0.0161379
721.843	0.0161298
721.922	0.0162637
722.000	0.0162148
722.078	0.0161873
722.156	0.0161786
722.234	0.0160429
722.312	0.0161502
722.390	0.0162822
722.468	0.0162087
722.547	0.0162621
722.625	0.0162160
722.703	0.0162118
722.781	0.0162142
722.859	0.0162588
722.937	0.0161523
723.015	0.0161944
723.093	0.0162629
723.172	0.0162864
723.250	0.0162688
723.328	0.0163059
723.406	0.0163102
723.484	0.0162537
723.562	0.0162312
723.640	0.0161515
723.718	0.0163480
723.797	0.0162595
723.875	0.0161012
723.953	0.0162118
724.031	0.0163690
724.109	0.0161416
724.187	0.0163005
724.265	0.0162495
724.343	0.0163457
724.422	0.0162286
724.500	0.0163377
724.578	0.0162173
724.656	0.0162119
724.734	0.0163310
724.812	0.0162756
724.890	0.0161321
724.968	0.0163031
725.047	0.0161105
725.125	0.0163133
725.203	0.0162276
725.281	0.0164361
725.359	0.0162775
725.437	0.0161690
725.515	0.0162675
725.593	0.0161687
725.672	0.0162850
725.750	0.0162344
725.828	0.0162286
725.906	0.0161705
725.984	0.0161727
726.062	0.0162535
726.140	0.0161721
726.218	0.0163677
726.297	0.0164009
726.375	0.0161269
726.453	0.0161630
726.531	0.0162988
726.609	0.0162651
726.687	0.0163027
726.765	0.0162565
726.843	0.0162710
726.922	0.0162858
727.000	0.0163395
727.078	0.0162368
727.156	0.0163025
727.234	0.0162460
727.312	0.0163786
727.390	0.0163967
727.468	0.0164899
727.547	0.0162455
727.625	0.0163335
727.703	0.0164369
727.781	0.0163438
727.859	0.0163039
727.937	0.0162780
728.015	0.0163462
728.093	0.0164268
728.172	0.0164603
728.250	0.0164951
728.328	0.0163602
728.406	0.0163981
728.484	0.0163902
728.562	0.0164915
728.640	0.0163909
728.718	0.0163872
728.797	0.0164331
728.875	0.0164137
728.953	0.0164357
729.031	0.0163109
729.109	0.0163174
729.187	0.0164429
729.265	0.0162285
729.343	0.0163666
729.422	0.0163393
729.500	0.0164922
729.578	0.0164162
729.656	0.0163372
729.734	0.0161747
729.812	0.0164671
729.890	0.0163505
729.968	0.0163673
730.047	0.0162008
730.125	0.0163530
730.203	0.0163921
730.281	0.0163232
730.359	0.0163876
730.437	0.0162553
730.515	0.0162728
730.593	0.0162804
730.672	0.0164227
730.750	0.0163938
730.828	0.0164337
730.906	0.0163526
730.984	0.0162991
731.062	0.0164666
731.140	0.0164042
731.218	0.0164509
731.297	0.0163433
731.375	0.0164202
731.453	0.0163721
731.531	0.0164816
731.609	0.0165311
731.687	0.0164651
731.765	0.0163563
731.843	0.0164175
731.922	0.0164267
732.000	0.0164381
732.078	0.0163490
732.156	0.0163361
732.234	0.0163899
732.312	0.0164613
732.390	0.0164496
732.468	0.0164156
732.547	0.0163566
732.625	0.0162517
732.703	0.0163974
732.781	0.0162856
732.859	0.0164371
732.937	0.0164996
733.015	0.0164497
733.093	0.0164075
733.172	0.0165834
733.250	0.0164835
733.328	0.0163319
733.406	0.0164137
733.484	0.0163848
733.562	0.0164684
733.640	0.0164668
733.718	0.0163694
733.797	0.0163074
733.875	0.0164051
733.953	0.0163215
734.031	0.0164185
734.109	0.0163122
734.187	0.0163575
734.265	0.0163506
734.343	0.0163510
734.422	0.0163466
734.500	0.0162851
734.578	0.0163461
734.656	0.0162990
734.734	0.0163398
734.812	0.0163782
734.890	0.0164009
734.968	0.0164448
735.047	0.0163029
735.125	0.0163944
735.203	0.0163844
735.281	0.0164520
735.359	0.0163570
735.437	0.0163943
735.515	0.0163241
735.593	0.0163560
735.672	0.0164586
735.750	0.0164835
735.828	0.0164861
735.906	0.0163705
735.984	0.0163766
736.062	0.0162981
736.140	0.0163419
736.218	0.0163794
736.297	0.0164323
736.375	0.0164133
736.453	0.0163259
736.531	0.0163754
736.609	0.0164645
736.687	0.0163531
736.765	0.0164346
736.843	0.0163467
736.922	0.0165052
737.000	0.0166103
737.078	0.0165114
737.156	0.0163590
737.234	0.0164351
737.312	0.0163879
737.390	0.0164658
737.468	0.0164661
737.547	0.0164800
737.625	0.0164911
737.703	0.0164636
737.781	0.0165266
737.859	0.0164930
737.937	0.0164526
738.015	0.0164899
738.093	0.0165195
738.172	0.0164613
738.250	0.0165488
738.328	0.0165274
738.406	0.0164792
738.484	0.0165180
738.562	0.0163789
738.640	0.0165788
738.718	0.0165966
738.797	0.0164619
738.875	0.0165043
738.953	0.0164813
739.031	0.0164157
739.109	0.0165868
739.187	0.0165793
739.265	0.0164530
739.343	0.0165051
739.422	0.0165065
739.500	0.0164474
739.578	0.0165329
739.656	0.0165707
739.734	0.0164491
739.812	0.0165212
739.890	0.0165542
739.968	0.0165793
740.047	0.0163783
740.125	0.0164271
740.203	0.0165234
740.281	0.0164121
740.359	0.0165359
740.437	0.0165594
740.515	0.0162421
740.593	0.0164297
740.672	0.0164394
740.750	0.0165141
740.828	0.0163989
740.906	0.0163697
740.984	0.0164187
741.062	0.0164200
741.140	0.0164299
741.218	0.0164508
741.297	0.0163736
741.375	0.0164494
741.453	0.0163986
741.531	0.0164975
741.609	0.0164268
741.687	0.0164851
741.765	0.0164365
741.843	0.0163520
741.922	0.0163128
742.000	0.0164748
742.078	0.0162733
742.156	0.0164896
742.234	0.0163497
742.312	0.0162799
742.390	0.0162895
742.468	0.0164857
742.547	0.0165672
742.625	0.0164744
742.703	0.0163636
742.781	0.0164433
742.859	0.0164014
742.937	0.0163914
743.015	0.0163551
743.093	0.0165387
743.172	0.0164368
743.250	0.0162916
743.328	0.0163837
743.406	0.0163598
743.484	0.0163590
743.562	0.0164104
743.640	0.0163680
743.718	0.0163176
743.797	0.0164045
743.875	0.0163264
743.953	0.0163187
744.031	0.0163260
744.109	0.0163245
744.187	0.0163578
744.265	0.0162066
744.343	0.0162495
744.422	0.0162515
744.500	0.0161055
744.578	0.0162133
744.656	0.0162113
744.734	0.0161549
744.812	0.0162717
744.890	0.0162706
744.968	0.0161431
745.047	0.0162165
745.125	0.0161545
745.203	0.0161081
745.281	0.0161062
745.359	0.0162254
745.437	0.0160706
745.515	0.0161930
745.593	0.0161961
745.672	0.0162242
745.750	0.0163193
745.828	0.0164005
745.906	0.0162562
745.984	0.0162251
746.062	0.0163354
746.140	0.0162903
746.218	0.0164594
746.297	0.0163496
746.375	0.0163707
746.453	0.0164825
746.531	0.0163850
746.609	0.0162763
746.687	0.0163616
746.765	0.0165092
746.843	0.0163934
746.922	0.0162916
747.000	0.0165263
747.078	0.0164857
747.156	0.0164423
747.234	0.0164476
747.312	0.0165009
747.390	0.0165215
747.468	0.0163966
747.547	0.0163538
747.625	0.0164406
747.703	0.0164120
747.781	0.0165971
747.859	0.0164169
747.937	0.0164391
748.015	0.0164142
748.093	0.0165034
748.172	0.0164700
748.250	0.0165610
748.328	0.0163605
748.406	0.0163043
748.484	0.0164406
748.562	0.0164731
748.640	0.0163980
748.718	0.0164713
748.797	0.0165392
748.875	0.0165592
748.953	0.0164349
749.031	0.0165044
749.109	0.0165552
749.187	0.0165649
749.265	0.0164859
749.343	0.0165533
749.422	0.0165326
749.500	0.0164647
749.578	0.0165113
749.656	0.0165063
749.734	0.0165098
749.812	0.0163846
749.890	0.0165026
749.968	0.0165296
750.047	0.0164704
750.125	0.0165017
750.203	0.0164826
750.281	0.0164653
750.359	0.0164057
750.437	0.0162427
750.515	0.0163294
750.593	0.0164043
750.672	0.0164513
750.750	0.0163197
750.828	0.0163979
750.906	0.0163118
750.984	0.0164137
751.062	0.0163626
751.140	0.0163089
751.218	0.0162830
751.297	0.0162059
751.375	0.0162908
751.453	0.0164294
751.531	0.0164050
751.609	0.0162514
751.687	0.0163113
751.765	0.0163916
751.843	0.0162270
751.922	0.0161849
752.000	0.0162555
752.078	0.0163810
752.156	0.0164068
752.234	0.0164155
752.312	0.0163390
752.390	0.0164683
752.468	0.0163616
752.547	0.0164356
752.625	0.0164717
752.703	0.0165166
752.781	0.0164104
752.859	0.0163546
752.937	0.0163438
753.015	0.0164700
753.093	0.0163969
753.172	0.0163485
753.250	0.0163810
753.328	0.0164536
753.406	0.0164634
753.484	0.0164046
753.562	0.0164713
753.640	0.0165710
753.718	0.0163427
753.797	0.0162086
753.875	0.0163322
753.953	0.0165051
754.031	0.0164239
754.109	0.0164781
754.187	0.0164129
754.265	0.0165021
754.343	0.0165564
754.422	0.0163781
754.500	0.0163857
754.578	0.0164738
754.656	0.0164827
754.734	0.0164890
754.812	0.0163464
754.890	0.0163907
754.968	0.0163506
755.047	0.0162587
755.125	0.0163891
755.203	0.0164374
755.281	0.0163898
755.359	0.0164013
755.437	0.0162819
755.515	0.0162552
755.593	0.0162506
755.672	0.0162795
755.750	0.0163625
755.828	0.0164125
755.906	0.0162451
755.984	0.0163877
756.062	0.0163974
756.140	0.0163599
756.218	0.0163075
756.297	0.0164268
756.375	0.0164039
756.453	0.0162718
756.531	0.0163976
756.609	0.0162393
756.687	0.0162517
756.765	0.0163656
756.843	0.0163740
756.922	0.0163479
757.000	0.0164584
757.078	0.0163489
757.156	0.0163954
757.234	0.0164532
757.312	0.0162630
757.390	0.0162296
757.468	0.0164003
757.547	0.0164574
757.625	0.0165001
757.703	0.0163471
757.781	0.0163704
757.859	0.0164692
757.937	0.0164242
758.015	0.0162464
758.093	0.0163335
758.172	0.0164146
758.250	0.0163199
758.328	0.0163790
758.406	0.0162532
758.484	0.0160321
758.562	0.0162752
758.640	0.0163768
758.718	0.0161345
758.797	0.0161614
758.875	0.0162588
758.953	0.0162305
759.031	0.0163612
759.109	0.0162308
759.187	0.0162060
759.265	0.0161385
759.343	0.0160667
759.422	0.0162576
759.500	0.0162624
759.578	0.0162247
759.656	0.0162709
759.734	0.0162785
759.812	0.0161250
759.890	0.0162766
759.968	0.0162549
760.047	0.0163103
760.125	0.0162126
760.203	0.0161611
760.281	0.0163436
760.359	0.0162795
760.437	0.0161345
760.515	0.0162249
760.593	0.0162132
760.672	0.0162975
760.750	0.0162631
760.828	0.0163402
760.906	0.0163387
760.984	0.0163286
761.062	0.0163303
761.140	0.0162642
761.218	0.0163177
761.297	0.0163382
761.375	0.0163895
761.453	0.0161630
761.531	0.0161465
761.609	0.0163195
761.687	0.0163142
761.765	0.0164305
761.843	0.0163486
761.922	0.0162042
762.000	0.0161752
762.078	0.0162434
762.156	0.0161025
762.234	0.0162556
762.312	0.0163087
762.390	0.0162043
762.468	0.0162323
762.547	0.0161902
762.625	0.0161285
762.703	0.0162047
762.781	0.0160918
762.859	0.0161601
762.937	0.0163275
763.015	0.0160586
763.093	0.0161551
763.172	0.0162399
763.250	0.0161610
763.328	0.0161324
763.406	0.0159930
763.484	0.0161597
763.562	0.0162227
763.640	0.0162434
763.718	0.0161749
763.797	0.0160919
763.875	0.0162172
763.953	0.0162731
764.031	0.0162738
764.109	0.0162963
764.187	0.0162867
764.265	0.0163961
764.343	0.0162983
764.422	0.0163865
764.500	0.0164035
764.578	0.0163332
764.656	0.0163352
764.734	0.0164130
764.812	0.0164564
764.890	0.0163723
764.968	0.0163476
765.047	0.0163955
765.125	0.0165269
765.203	0.0164664
765.281	0.0163730
765.359	0.0162446
765.437	0.0163488
765.515	0.0163608
765.593	0.0163562
765.672	0.0163321
765.750	0.0164211
765.828	0.0164277
765.906	0.0163670
765.984	0.0162157
766.062	0.0164088
766.140	0.0163319
766.218	0.0162690
766.297	0.0162673
766.375	0.0163223
766.453	0.0162038
766.531	0.0163498
766.609	0.0162932
766.687	0.0165190
766.765	0.0163625
766.843	0.0162362
766.922	0.0162713
767.000	0.0163053
767.078	0.0163051
767.156	0.0163225
767.234	0.0164295
767.312	0.0162807
767.390	0.0162919
767.468	0.0164038
767.547	0.0162624
767.625	0.0162531
767.703	0.0163222
767.781	0.0163161
767.859	0.0163501
767.937	0.0163413
768.015	0.0163106
768.093	0.0163937
768.172	0.0163052
768.250	0.0163058
768.328	0.0163517
768.406	0.0162265
768.484	0.0162051
768.562	0.0163105
768.640	0.0163242
768.718	0.0161677
768.797	0.0162243
768.875	0.0163774
768.953	0.0162173
769.031	0.0162319
769.109	0.0161416
769.187	0.0162423
769.265	0.0162247
769.343	0.0161461
769.422	0.0162535
769.500	0.0163688
769.578	0.0162426
769.656	0.0163512
769.734	0.0162560
769.812	0.0163496
769.890	0.0163338
769.968	0.0163482
770.047	0.0161773
770.125	0.0163152
770.203	0.0164293
770.281	0.0164064
770.359	0.0164460
770.437	0.0166167
770.515	0.0164404
770.593	0.0164030
770.672	0.0165547
770.750	0.0164915
770.828	0.0163804
770.906	0.0164340
770.984	0.0164510
771.062	0.0163750
771.140	0.0165003
771.218	0.0164081
771.297	0.0164088
771.375	0.0163989
771.453	0.0163864
771.531	0.0164610
771.609	0.0162914
771.687	0.0163576
771.765	0.0164866
771.843	0.0161753
771.922	0.0163680
772.000	0.0164366
772.078	0.0163928
772.156	0.0162585
772.234	0.0163286
772.312	0.0162402
772.390	0.0163898
772.468	0.0164111
772.547	0.0162213
772.625	0.0163914
772.703	0.0163041
772.781	0.0162521
772.859	0.0162086
772.937	0.0162947
773.015	0.0161633
773.093	0.0161316
773.172	0.0162061
773.250	0.0161810
773.328	0.0161272
773.406	0.0161675
773.484	0.0162273
773.562	0.0163364
773.640	0.0163087
773.718	0.0161707
773.797	0.0161137
773.875	0.0162182
773.953	0.0163782
774.031	0.0162384
774.109	0.0162813
774.187	0.0162991
774.265	0.0164664
774.343	0.0163235
774.422	0.0163813
774.500	0.0164624
774.578	0.0163184
774.656	0.0163412
774.734	0.0163210
774.812	0.0163041
774.890	0.0163171
774.968	0.0163769
775.047	0.0163392
775.125	0.0163313
775.203	0.0163633
775.281	0.0162782
775.359	0.0164066
775.437	0.0162188
775.515	0.0162715
775.593	0.0161594
775.672	0.0163300
775.750	0.0163803
775.828	0.0164146
775.906	0.0163066
775.984	0.0161475
776.062	0.0162091
776.140	0.0163660
776.218	0.0163158
776.297	0.0163841
776.375	0.0163692
776.453	0.0162442
776.531	0.0162902
776.609	0.0162267
776.687	0.0162125
776.765	0.0162499
776.843	0.0163726
776.922	0.0164397
777.000	0.0163288
777.078	0.0162228
777.156	0.0163357
777.234	0.0162819
777.312	0.0162830
777.390	0.0163987
777.468	0.0162783
777.547	0.0164391
777.625	0.0164145
777.703	0.0162435
777.781	0.0163896
777.859	0.0163517
777.937	0.0164850
778.015	0.0164103
778.093	0.0163653
778.172	0.0165488
778.250	0.0164988
778.328	0.0164941
778.406	0.0163153
778.484	0.0164077
778.562	0.0162429
778.640	0.0164427
778.718	0.0162816
778.797	0.0164404
778.875	0.0163776
778.953	0.0163237
779.031	0.0163854
779.109	0.0162620
779.187	0.0163245
779.265	0.0162297
779.343	0.0165145
779.422	0.0163032
779.500	0.0162336
779.578	0.0161957
779.656	0.0163483
779.734	0.0164130
779.812	0.0163383
779.890	0.0164529
779.968	0.0165188
780.047	0.0162753
780.125	0.0164011
780.203	0.0163691
780.281	0.0164387
780.359	0.0165652
780.437	0.0164265
780.515	0.0163755
780.593	0.0163973
780.672	0.0167123
780.750	0.0164079
780.828	0.0164853
780.906	0.0165324
780.984	0.0163822
781.062	0.0163857
781.140	0.0164321
781.218	0.0162525
781.297	0.0162544
781.375	0.0164399
781.453	0.0162978
781.531	0.0163029
781.609	0.0163831
781.687	0.0163049
781.765	0.0163681
781.843	0.0162744
781.922	0.0162488
782.000	0.0161803
782.078	0.0162563
782.156	0.0162657
782.234	0.0162183
782.312	0.0161864
782.390	0.0163470
782.468	0.0162646
782.547	0.0162535
782.625	0.0162470
782.703	0.0163502
782.781	0.0164594
782.859	0.0163004
782.937	0.0163171
783.015	0.0163261
783.093	0.0162912
783.172	0.0162571
783.250	0.0161813
783.328	0.0163158
783.406	0.0163944
783.484	0.0162437
783.562	0.0162700
783.640	0.0163120
783.718	0.0162793
783.797	0.0163252
783.875	0.0162040
783.953	0.0161624
784.031	0.0163278
784.109	0.0162273
784.187	0.0162479
784.265	0.0162409
784.343	0.0162041
784.422	0.0163045
784.500	0.0162197
784.578	0.0161729
784.656	0.0162846
784.734	0.0162222
784.812	0.0161417
784.890	0.0162350
784.968	0.0161932
785.047	0.0162324
785.125	0.0161121
785.203	0.0161542
785.281	0.0161877
785.359	0.0161541
785.437	0.0161554
785.515	0.0161897
785.593	0.0162666
785.672	0.0162553
785.750	0.0163062
785.828	0.0162633
785.906	0.0162244
785.984	0.0163319
786.062	0.0162708
786.140	0.0163654
786.218	0.0163554
786.297	0.0163089
786.375	0.0163040
786.453	0.0163864
786.531	0.0162349
786.609	0.0162617
786.687	0.0162891
786.765	0.0163035
786.843	0.0163061
786.922	0.0161941
787.000	0.0161554
787.078	0.0161690
787.156	0.0161082
787.234	0.0161597
787.312	0.0162787
787.390	0.0162782
787.468	0.0160523
787.547	0.0161076
787.625	0.0161666
787.703	0.0160493
787.781	0.0160506
787.859	0.0162122
787.937	0.0162344
788.015	0.0162627
788.093	0.0161788
788.172	0.0161829
788.250	0.0161543
788.328	0.0159653
788.406	0.0162763
788.484	0.0163084
788.562	0.0162180
788.640	0.0162126
788.718	0.0162661
788.797	0.0164036
788.875	0.0162370
788.953	0.0162550
789.031	0.0164102
789.109	0.0163815
789.187	0.0163583
789.265	0.0163641
789.343	0.0162910
789.422	0.0163693
789.500	0.0163580
789.578	0.0161021
789.656	0.0162180
789.734	0.0163893
789.812	0.0163401
789.890	0.0164455
789.968	0.0163252
790.047	0.0164265
790.125	0.0163205
790.203	0.0162031
790.281	0.0162984
790.359	0.0163052
790.437	0.0162577
790.515	0.0162766
790.593	0.0163819
790.672	0.0163641
790.750	0.0162726
790.828	0.0162041
790.906	0.0162820
790.984	0.0163997
791.062	0.0163375
791.140	0.0162151
791.218	0.0162041
791.297	0.0161721
791.375	0.0161469
791.453	0.0162141
791.531	0.0162062
791.609	0.0160918
791.687	0.0162592
791.765	0.0162162
791.843	0.0161561
791.922	0.0162827
792.000	0.0162469
792.078	0.0161102
792.156	0.0163379
792.234	0.0162950
792.312	0.0161831
792.390	0.0163262
792.468	0.0164162
792.547	0.0162467
792.625	0.0162578
792.703	0.0164027
792.781	0.0162860
792.859	0.0162603
792.937	0.0163194
793.015	0.0163222
793.093	0.0162933
793.172	0.0162752
793.250	0.0161370
793.328	0.0162646
793.406	0.0162665
793.484	0.0162917
793.562	0.0162671
793.640	0.0164670
793.718	0.0163250
793.797	0.0163728
793.875	0.0163442
793.953	0.0162808
794.031	0.0161485
794.109	0.0163110
794.187	0.0162776
794.265	0.0161707
794.343	0.0163715
794.422	0.0163466
794.500	0.0163399
794.578	0.0161481
794.656	0.0164376
794.734	0.0164385
794.812	0.0164865
794.890	0.0163640
794.968	0.0163806
795.047	0.0164959
795.125	0.0164069
795.203	0.0164336
795.281	0.0164478
795.359	0.0164481
795.437	0.0163898
795.515	0.0163353
795.593	0.0163863
795.672	0.0162330
795.750	0.0163008
795.828	0.0164037
795.906	0.0162218
795.984	0.0162480
796.062	0.0162478
796.140	0.0163306
796.218	0.0162427
796.297	0.0161577
796.375	0.0162241
796.453	0.0161404
796.531	0.0162709
796.609	0.0162027
796.687	0.0162836
796.765	0.0163699
796.843	0.0163441
796.922	0.0162823
797.000	0.0163827
797.078	0.0163073
797.156	0.0161254
797.234	0.0163232
797.312	0.0163234
797.390	0.0162679
797.468	0.0162618
797.547	0.0163954
797.625	0.0163767
797.703	0.0163013
797.781	0.0163542
797.859	0.0164001
797.937	0.0163347
798.015	0.0162350
798.093	0.0165297
798.172	0.0164475
798.250	0.0164317
798.328	0.0163535
798.406	0.0163066
798.484	0.0163468
798.562	0.0164121
798.640	0.0164022
798.718	0.0163213
798.797	0.0162577
798.875	0.0163850
798.953	0.0164729
799.031	0.0164134
799.109	0.0162787
799.187	0.0163538
799.265	0.0163967
799.343	0.0163795
799.422	0.0162651
799.500	0.0163995
799.578	0.0162812
799.656	0.0164417
799.734	0.0164604
799.812	0.0162772
799.890	0.0163833
799.968	0.0163543
800.047	0.0164452
800.125	0.0163436
800.203	0.0164026
800.281	0.0165990
800.359	0.0164900
800.437	0.0164081
800.515	0.0166055
800.593	0.0165828
800.672	0.0165145
800.750	0.0165446
800.828	0.0164517
800.906	0.0163998
800.984	0.0164639
801.062	0.0163082
801.140	0.0164467
801.218	0.0164761
801.297	0.0165411
801.375	0.0165314
801.453	0.0164796
801.531	0.0163470
801.609	0.0163782
801.687	0.0164581
801.765	0.0164792
801.843	0.0164108
801.922	0.0163689
802.000	0.0164710
802.078	0.0163811
802.156	0.0163538
802.234	0.0163139
802.312	0.0163828
802.390	0.0162231
802.468	0.0164616
802.547	0.0165213
802.625	0.0164491
802.703	0.0163634
802.781	0.0165450
802.859	0.0163242
802.937	0.0165546
803.015	0.0164465
803.093	0.0164722
803.172	0.0164826
803.250	0.0165431
803.328	0.0164072
803.406	0.0164092
803.484	0.0163712
803.562	0.0164394
803.640	0.0164193
803.718	0.0165423
803.797	0.0164077
803.875	0.0163692
803.953	0.0163479
804.031	0.0162482
804.109	0.0163470
804.187	0.0164686
804.265	0.0164461
804.343	0.0163106
804.422	0.0163074
804.500	0.0164565
804.578	0.0164237
804.656	0.0164555
804.734	0.0164000
804.812	0.0163306
804.890	0.0161391
804.968	0.0163403
805.047	0.0162981
805.125	0.0162640
805.203	0.0162774
805.281	0.0163127
805.359	0.0162594
805.437	0.0163587
805.515	0.0163160
805.593	0.0163670
805.672	0.0163369
805.750	0.0163531
805.828	0.0163894
805.906	0.0163126
805.984	0.0163917
806.062	0.0162865
806.140	0.0162771
806.218	0.0162785
806.297	0.0163713
806.375	0.0162962
806.453	0.0165108
806.531	0.0164712
806.609	0.0163894
806.687	0.0164687
806.765	0.0164507
806.843	0.0164535
806.922	0.0165453
807.000	0.0164687
807.078	0.0165145
807.156	0.0164764
807.234	0.0163912
807.312	0.0165948
807.390	0.0164124
807.468	0.0163695
807.547	0.0164346
807.625	0.0163739
807.703	0.0164133
807.781	0.0165125
807.859	0.0164018
807.937	0.0164616
808.015	0.0165617
808.093	0.0164385
808.172	0.0164339
808.250	0.0162885
808.328	0.0164973
808.406	0.0164577
808.484	0.0163989
808.562	0.0164664
808.640	0.0164439
808.718	0.0162259
808.797	0.0163510
808.875	0.0163062
808.953	0.0162676
809.031	0.0163709
809.109	0.0162545
809.187	0.0163755
809.265	0.0163422
809.343	0.0163900
809.422	0.0164027
809.500	0.0162586
809.578	0.0163411
809.656	0.0164064
809.734	0.0164216
809.812	0.0163325
809.890	0.0164126
809.968	0.0165162
810.047	0.0165024
810.125	0.0165455
810.203	0.0164021
810.281	0.0163604
810.359	0.0163327
810.437	0.0165152
810.515	0.0164368
810.593	0.0163097
810.672	0.0163709
810.750	0.0163522
810.828	0.0163563
810.906	0.0164274
810.984	0.0164109
811.062	0.0162331
811.140	0.0163686
811.218	0.0164038
811.297	0.0162829
811.375	0.0163750
811.453	0.0163634
811.531	0.0163688
811.609	0.0164075
811.687	0.0163483
811.765	0.0164945
811.843	0.0164939
811.922	0.0163660
812.000	0.0164673
812.078	0.0163866
812.156	0.0164869
812.234	0.0164978
812.312	0.0164288
812.390	0.0164486
812.468	0.0163780
812.547	0.0162897
812.625	0.0164585
812.703	0.0165568
812.781	0.0165604
812.859	0.0163329
812.937	0.0163168
813.015	0.0164803
813.093	0.0164555
813.172	0.0164332
813.250	0.0164577
813.328	0.0162626
813.406	0.0164413
813.484	0.0162669
813.562	0.0163278
813.640	0.0164045
813.718	0.0161678
813.797	0.0163130
813.875	0.0163443
813.953	0.0163001
814.031	0.0164017
814.109	0.0163840
814.187	0.0163664
814.265	0.0163484
814.343	0.0163303
814.422	0.0165315
814.500	0.0165103
814.578	0.0165117
814.656	0.0165099
814.734	0.0164661
814.812	0.0163122
814.890	0.0164889
814.968	0.0163529
815.047	0.0163094
815.125	0.0162949
815.203	0.0164627
815.281	0.0164493
815.359	0.0161549
815.437	0.0162051
815.515	0.0162327
815.593	0.0163223
815.672	0.0163845
815.750	0.0162730
815.828	0.0162720
815.906	0.0163343
815.984	0.0163668
816.062	0.0163921
816.140	0.0162384
816.218	0.0162132
816.297	0.0163610
816.375	0.0164131
816.453	0.0163807
816.531	0.0164708
816.609	0.0164174
816.687	0.0163389
816.765	0.0165335
816.843	0.0162333
816.922	0.0162940
817.000	0.0164231
817.078	0.0164282
817.156	0.0162025
817.234	0.0162370
817.312	0.0162065
817.390	0.0163953
817.468	0.0161781
817.547	0.0163864
817.625	0.0163651
817.703	0.0162899
817.781	0.0163619
817.859	0.0165063
817.937	0.0166248
818.015	0.0165708
818.093	0.0164655
818.172	0.0165249
818.250	0.0164579
818.328	0.0166087
818.406	0.0163690
818.484	0.0163784
818.562	0.0164082
818.640	0.0164276
818.718	0.0163438
818.797	0.0163656
818.875	0.0162960
818.953	0.0161992
819.031	0.0162955
819.109	0.0164777
819.187	0.0163897
819.265	0.0165458
819.343	0.0164552
819.422	0.0164809
819.500	0.0163355
819.578	0.0164369
819.656	0.0166145
819.734	0.0164384
819.812	0.0164229
819.890	0.0164281
819.968	0.0163461
820.047	0.0163294
820.125	0.0165124
820.203	0.0164206
820.281	0.0162908
820.359	0.0163977
820.437	0.0163732
820.515	0.0163614
820.593	0.0162021
820.672	0.0162899
820.750	0.0163370
820.828	0.0162257
820.906	0.0162640
820.984	0.0165036
821.062	0.0163662
821.140	0.0164111
821.218	0.0163682
821.297	0.0164460
821.375	0.0165583
821.453	0.0166599
821.531	0.0165685
821.609	0.0164365
821.687	0.0164858
821.765	0.0164378
821.843	0.0164825
821.922	0.0164890
822.000	0.0164653
822.078	0.0164439
822.156	0.0164970
822.234	0.0163669
822.312	0.0164516
822.390	0.0165742
822.468	0.0165357
822.547	0.0163570
822.625	0.0163348
822.703	0.0164625
822.781	0.0165144
822.859	0.0164771
822.937	0.0165726
823.015	0.0165556
823.093	0.0165390
823.172	0.0164141
823.250	0.0163084
823.328	0.0163227
823.406	0.0164695
823.484	0.0163973
823.562	0.0163861
823.640	0.0163278
823.718	0.0162886
823.797	0.0163589
823.875	0.0163172
823.953	0.0163183
824.031	0.0162974
824.109	0.0162270
824.187	0.0162973
824.265	0.0162562
824.343	0.0163238
824.422	0.0164383
824.500	0.0164832
824.578	0.0163015
824.656	0.0164034
824.734	0.0164628
824.812	0.0165088
824.890	0.0165736
824.968	0.0166348
825.047	0.0164740
825.125	0.0164182
825.203	0.0164817
825.281	0.0165136
825.359	0.0164880
825.437	0.0165044
825.515	0.0164332
825.593	0.0164202
825.672	0.0164490
825.750	0.0163564
825.828	0.0165170
825.906	0.0164806
825.984	0.0165315
826.062	0.0164461
826.140	0.0164023
826.218	0.0165316
826.297	0.0165649
826.375	0.0164659
826.453	0.0163882
826.531	0.0163004
826.609	0.0164042
826.687	0.0166473
826.765	0.0162997
826.843	0.0164499
826.922	0.0164353
827.000	0.0163781
827.078	0.0164565
827.156	0.0164900
827.234	0.0164654
827.312	0.0163345
827.390	0.0164159
827.468	0.0164354
827.547	0.0163178
827.625	0.0161995
827.703	0.0162753
827.781	0.0162816
827.859	0.0163830
827.937	0.0162939
828.015	0.0161927
828.093	0.0161260
828.172	0.0161991
828.250	0.0162760
828.328	0.0160647
828.406	0.0161268
828.484	0.0161788
828.562	0.0161767
828.640	0.0160840
828.718	0.0161820
828.797	0.0161572
828.875	0.0162949
828.953	0.0161465
829.031	0.0162911
829.109	0.0163991
829.187	0.0164339
829.265	0.0163470
829.343	0.0163699
829.422	0.0162794
829.500	0.0164097
829.578	0.0165398
829.656	0.0164838
829.734	0.0164410
829.812	0.0164286
829.890	0.0164928
829.968	0.0166028
830.047	0.0164455
830.125	0.0163773
830.203	0.0165038
830.281	0.0165170
830.359	0.0165441
830.437	0.0164053
830.515	0.0164310
830.593	0.0164662
830.672	0.0163928
830.750	0.0164109
830.828	0.0164771
830.906	0.0164223
830.984	0.0163358
831.062	0.0164230
831.140	0.0162475
831.218	0.0162408
831.297	0.0162827
831.375	0.0161868
831.453	0.0162519
831.531	0.0161697
831.609	0.0161213
831.687	0.0163249
831.765	0.0162537
831.843	0.0162182
831.922	0.0162000
832.000	0.0163176
832.078	0.0162663
832.156	0.0163663
832.234	0.0163535
832.312	0.0162617
832.390	0.0163640
832.468	0.0163266
832.547	0.0163620
832.625	0.0164758
832.703	0.0164895
832.781	0.0164363
832.859	0.0164221
832.937	0.0162817
833.015	0.0164112
833.093	0.0164410
833.172	0.0163673
833.250	0.0164091
833.328	0.0163857
833.406	0.0163678
833.484	0.0162113
833.562	0.0163387
833.640	0.0162186
833.718	0.0161835
833.797	0.0162925
833.875	0.0162246
833.953	0.0161330
834.031	0.0163110
834.109	0.0161612
834.187	0.0161889
834.265	0.0161362
834.343	0.0162226
834.422	0.0162423
834.500	0.0162002
834.578	0.0161644
834.656	0.0161526
834.734	0.0160851
834.812	0.0160016
834.890	0.0161314
834.968	0.0162527
835.047	0.0161942
835.125	0.0162012
835.203	0.0162752
835.281	0.0161609
835.359	0.0162794
835.437	0.0162312
835.515	0.0162801
835.593	0.0164533
835.672	0.0164425
835.750	0.0164114
835.828	0.0163364
835.906	0.0163593
835.984	0.0162665
836.062	0.0164060
836.140	0.0164362
836.218	0.0163579
836.297	0.0164143
836.375	0.0164090
836.453	0.0163760
836.531	0.0162697
836.609	0.0161179
836.687	0.0162295
836.765	0.0162802
836.843	0.0161594
836.922	0.0160604
837.000	0.0161498
837.078	0.0162650
837.156	0.0163090
837.234	0.0162745
837.312	0.0162328
837.390	0.0162796
837.468	0.0162503
837.547	0.0163804
837.625	0.0162749
837.703	0.0163943
837.781	0.0165039
837.859	0.0163749
837.937	0.0163618
838.015	0.0164651
838.093	0.0164612
838.172	0.0163902
838.250	0.0164084
838.328	0.0163786
838.406	0.0162675
838.484	0.0163752
838.562	0.0163309
838.640	0.0162067
838.718	0.0162609
838.797	0.0163010
838.875	0.0164252
838.953	0.0165047
839.031	0.0163235
839.109	0.0163320
839.187	0.0164079
839.265	0.0163686
839.343	0.0163107
839.422	0.0164001
839.500	0.0162920
839.578	0.0162514
839.656	0.0163515
839.734	0.0164539
839.812	0.0164346
839.890	0.0162522
839.968	0.0162299
840.047	0.0162478
840.125	0.0163368
840.203	0.0163296
840.281	0.0162412
840.359	0.0163233
840.437	0.0164153
840.515	0.0164114
840.593	0.0162868
840.672	0.0163480
840.750	0.0164102
840.828	0.0163746
840.906	0.0163807
840.984	0.0163037
841.062	0.0164427
841.140	0.0163318
841.218	0.0165012
841.297	0.0164264
841.375	0.0164475
841.453	0.0164937
841.531	0.0163774
841.609	0.0164861
841.687	0.0165417
841.765	0.0163711
841.843	0.0164922
841.922	0.0164632
842.000	0.0164808
842.078	0.0163450
842.156	0.0164268
842.234	0.0164095
842.312	0.0165636
842.390	0.0164152
842.468	0.0162234
842.547	0.0163300
842.625	0.0165443
842.703	0.0164754
842.781	0.0164503
842.859	0.0164197
842.937	0.0165491
843.015	0.0163595
843.093	0.0163927
843.172	0.0165241
843.250	0.0164661
843.328	0.0164564
843.406	0.0165380
843.484	0.0164773
843.562	0.0164791
843.640	0.0164983
843.718	0.0163493
843.797	0.0165533
843.875	0.0165724
843.953	0.0165148
844.031	0.0165384
844.109	0.0164169
844.187	0.0164783
844.265	0.0165405
844.343	0.0163981
844.422	0.0163885
844.500	0.0164641
844.578	0.0163927
844.656	0.0165456
844.734	0.0165204
844.812	0.0165237
844.890	0.0163786
844.968	0.0164480
845.047	0.0164628
845.125	0.0163586
845.203	0.0163060
845.281	0.0163880
845.359	0.0163905
845.437	0.0163549
845.515	0.0162799
845.593	0.0162640
845.672	0.0164021
845.750	0.0163180
845.828	0.0163306
845.906	0.0162286
845.984	0.0162834
846.062	0.0162138
846.140	0.0163958
846.218	0.0162937
846.297	0.0161897
846.375	0.0163310
846.453	0.0163064
846.531	0.0161878
846.609	0.0163891
846.687	0.0164120
846.765	0.0163598
846.843	0.0163079
846.922	0.0163662
847.000	0.0164386
847.078	0.0163443
847.156	0.0161806
847.234	0.0165129
847.312	0.0164891
847.390	0.0164128
847.468	0.0163875
847.547	0.0164011
847.625	0.0165255
847.703	0.0164445
847.781	0.0165017
847.859	0.0164080
847.937	0.0163683
848.015	0.0165130
848.093	0.0164122
848.172	0.0165282
848.250	0.0164546
848.328	0.0164568
848.406	0.0165247
848.484	0.0164034
848.562	0.0165376
848.640	0.0164468
848.718	0.0164567
848.797	0.0163084
848.875	0.0164743
848.953	0.0164730
849.031	0.0163771
849.109	0.0164307
849.187	0.0163692
849.265	0.0164326
849.343	0.0164349
849.422	0.0165481
849.500	0.0165083
849.578	0.0164541
849.656	0.0164411
849.734	0.0165127
849.812	0.0164265
849.890	0.0163811
849.968	0.0164632
850.047	0.0164214
850.125	0.0164510
850.203	0.0163811
850.281	0.0164057
850.359	0.0163733
850.437	0.0163076
850.515	0.0162534
850.593	0.0162392
850.672	0.0161808
850.750	0.0162202
850.828	0.0163470
850.906	0.0162874
850.984	0.0164751
851.062	0.0162794
851.140	0.0162432
851.218	0.0164259
851.297	0.0163403
851.375	0.0163882
851.453	0.0162188
851.531	0.0161634
851.609	0.0161056
851.687	0.0163477
851.765	0.0163875
851.843	0.0163544
851.922	0.0162128
852.000	0.0164091
852.078	0.0165193
852.156	0.0163473
852.234	0.0164373
852.312	0.0163927
852.390	0.0164008
852.468	0.0163096
852.547	0.0164606
852.625	0.0163980
852.703	0.0163654
852.781	0.0164110
852.859	0.0164741
852.937	0.0164994
853.015	0.0163215
853.093	0.0164010
853.172	0.0163743
853.250	0.0162750
853.328	0.0162148
853.406	0.0161874
853.484	0.0163312
853.562	0.0162809
853.640	0.0161009
853.718	0.0161117
853.797	0.0161526
853.875	0.0160261
853.953	0.0160880
854.031	0.0162042
854.109	0.0159493
854.187	0.0162575
854.265	0.0160139
854.343	0.0161546
854.422	0.0162156
854.500	0.0161435
854.578	0.0161186
854.656	0.0161135
854.734	0.0161537
854.812	0.0161237
854.890	0.0160265
854.968	0.0161796
855.047	0.0161948
855.125	0.0161689
855.203	0.0161166
855.281	0.0162064
855.359	0.0161861
855.437	0.0161820
855.515	0.0162160
855.593	0.0161369
855.672	0.0161427
855.750	0.0160485
855.828	0.0161900
855.906	0.0163077
855.984	0.0162910
856.062	0.0164657
856.140	0.0162811
856.218	0.0164082
856.297	0.0162436
856.375	0.0162740
856.453	0.0162014
856.531	0.0162637
856.609	0.0163559
856.687	0.0163285
856.765	0.0162388
856.843	0.0162370
856.922	0.0161099
857.000	0.0162189
857.078	0.0160567
857.156	0.0162550
857.234	0.0161268
857.312	0.0161149
857.390	0.0160820
857.468	0.0159464
857.547	0.0159840
857.625	0.0160186
857.703	0.0161732
857.781	0.0160361
857.859	0.0160822
857.937	0.0160590
858.015	0.0161345
858.093	0.0160149
858.172	0.0162577
858.250	0.0161268
858.328	0.0160977
858.406	0.0161507
858.484	0.0161585
858.562	0.0162288
858.640	0.0162254
858.718	0.0162486
858.797	0.0162940
858.875	0.0162145
858.953	0.0162437
859.031	0.0161659
859.109	0.0162189
859.187	0.0161884
859.265	0.0163361
859.343	0.0161703
859.422	0.0161292
859.500	0.0162210
859.578	0.0162282
859.656	0.0163177
859.734	0.0160782
859.812	0.0162369
859.890	0.0162563
859.968	0.0161759
860.047	0.0162003
860.125	0.0161763
860.203	0.0162578
860.281	0.0161442
860.359	0.0163287
860.437	0.0162164
860.515	0.0161233
860.593	0.0160834
860.672	0.0163261
860.750	0.0160951
860.828	0.0162225
860.906	0.0162256
860.984	0.0161472
861.062	0.0161874
861.140	0.0163117
861.218	0.0162244
861.297	0.0161476
861.375	0.0161932
861.453	0.0162907
861.531	0.0164176
861.609	0.0161915
861.687	0.0161517
861.765	0.0162523
861.843	0.0161884
861.922	0.0162723
862.000	0.0161445
862.078	0.0161992
862.156	0.0163603
862.234	0.0161676
862.312	0.0161926
862.390	0.0162332
862.468	0.0161631
862.547	0.0162769
862.625	0.0162642
862.703	0.0162576
862.781	0.0163719
862.859	0.0162048
862.937	0.0164058
863.015	0.0164600
863.093	0.0163471
863.172	0.0162314
863.250	0.0162892
863.328	0.0163856
863.406	0.0163988
863.484	0.0163486
863.562	0.0163839
863.640	0.0163889
863.718	0.0163235
863.797	0.0162904
863.875	0.0162639
863.953	0.0163121
864.031	0.0163443
864.109	0.0163739
864.187	0.0163285
864.265	0.0164065
864.343	0.0162786
864.422	0.0163471
864.500	0.0164497
864.578	0.0164165
864.656	0.0163224
864.734	0.0163735
864.812	0.0164556
864.890	0.0164059
864.968	0.0163447
865.047	0.0164970
865.125	0.0164300
865.203	0.0163927
865.281	0.0164809
865.359	0.0166141
865.437	0.0164050
865.515	0.0164388
865.593	0.0164713
865.672	0.0164510
865.750	0.0164432
865.828	0.0164356
865.906	0.0165031
865.984	0.0163708
866.062	0.0163736
866.140	0.0164198
866.218	0.0164854
866.297	0.0164660
866.375	0.0164465
866.453	0.0165337
866.531	0.0165700
866.609	0.0164815
866.687	0.0163313
866.765	0.0163574
866.843	0.0164512
866.922	0.0164997
867.000	0.0162761
867.078	0.0163059
867.156	0.0164326
867.234	0.0163498
867.312	0.0163454
867.390	0.0164139
867.468	0.0162654
867.547	0.0163869
867.625	0.0163159
867.703	0.0163706
867.781	0.0163897
867.859	0.0164424
867.937	0.0162900
868.015	0.0163867
868.093	0.0163512
868.172	0.0163218
868.250	0.0164034
868.328	0.0163035
868.406	0.0163683
868.484	0.0163422
868.562	0.0163004
868.640	0.0163248
868.718	0.0164394
868.797	0.0164875
868.875	0.0163686
868.953	0.0163836
869.031	0.0163267
869.109	0.0163165
869.187	0.0163733
869.265	0.0164510
869.343	0.0163679
869.422	0.0164694
869.500	0.0164903
869.578	0.0162003
869.656	0.0162177
869.734	0.0164246
869.812	0.0163786
869.890	0.0163616
869.968	0.0164989
870.047	0.0164561
870.125	0.0163577
870.203	0.0163731
870.281	0.0164156
870.359	0.0164956
870.437	0.0163569
870.515	0.0164775
870.593	0.0163588
870.672	0.0163751
870.750	0.0162897
870.828	0.0164053
870.906	0.0163657
870.984	0.0164561
871.062	0.0165173
871.140	0.0163006
871.218	0.0164357
871.297	0.0164863
871.375	0.0163280
871.453	0.0164943
871.531	0.0164528
871.609	0.0162885
871.687	0.0163212
871.765	0.0164459
871.843	0.0164369
871.922	0.0164967
872.000	0.0162897
872.078	0.0163920
872.156	0.0163988
872.234	0.0163565
872.312	0.0164078
872.390	0.0164139
872.468	0.0163501
872.547	0.0164226
872.625	0.0163885
872.703	0.0163300
872.781	0.0162921
872.859	0.0164683
872.937	0.0164709
873.015	0.0163949
873.093	0.0164213
873.172	0.0164832
873.250	0.0163466
873.328	0.0164057
873.406	0.0163454
873.484	0.0162951
873.562	0.0164998
873.640	0.0163768
873.718	0.0163979
873.797	0.0164465
873.875	0.0163831
873.953	0.0164284
874.031	0.0162713
874.109	0.0163776
874.187	0.0163055
874.265	0.0163412
874.343	0.0164233
874.422	0.0163834
874.500	0.0164452
874.578	0.0164241
874.656	0.0163542
874.734	0.0163592
874.812	0.0163622
874.890	0.0163991
874.968	0.0162791
875.047	0.0162929
875.125	0.0162482
875.203	0.0164074
875.281	0.0162531
875.359	0.0161298
875.437	0.0163775
875.515	0.0162332
875.593	0.0162746
875.672	0.0161479
875.750	0.0162639
875.828	0.0163499
875.906	0.0162625
875.984	0.0164250
876.062	0.0163141
876.140	0.0162536
876.218	0.0163261
876.297	0.0163969
876.375	0.0163206
876.453	0.0164197
876.531	0.0164732
876.609	0.0164767
876.687	0.0164667
876.765	0.0163607
876.843	0.0165063
876.922	0.0164294
877.000	0.0163941
877.078	0.0163262
877.156	0.0164394
877.234	0.0163528
877.312	0.0163860
877.390	0.0162686
877.468	0.0163439
877.547	0.0162674
877.625	0.0162443
877.703	0.0161874
877.781	0.0162766
877.859	0.0162330
877.937	0.0161984
878.015	0.0162714
878.093	0.0162363
878.172	0.0161802
878.250	0.0162772
878.328	0.0161551
878.406	0.0162104
878.484	0.0164115
878.562	0.0163245
878.640	0.0162921
878.718	0.0162994
878.797	0.0162420
878.875	0.0163456
878.953	0.0163784
879.031	0.0163499
879.109	0.0161936
879.187	0.0162741
879.265	0.0163210
879.343	0.0163960
879.422	0.0163669
879.500	0.0164215
879.578	0.0164297
879.656	0.0164112
879.734	0.0163531
879.812	0.0162233
879.890	0.0163805
879.968	0.0164692
880.047	0.0163016
880.125	0.0162673
880.203	0.0164729
880.281	0.0162165
880.359	0.0162926
880.437	0.0163745
880.515	0.0162845
880.593	0.0163272
880.672	0.0162994
880.750	0.0162890
880.828	0.0163008
880.906	0.0161595
880.984	0.0162753
881.062	0.0163422
881.140	0.0163004
881.218	0.0163931
881.297	0.0161929
881.375	0.0163000
881.453	0.0162115
881.531	0.0161541
881.609	0.0161672
881.687	0.0162770
881.765	0.0163890
881.843	0.0162286
881.922	0.0162653
882.000	0.0163585
882.078	0.0162985
882.156	0.0162950
882.234	0.0162421
882.312	0.0162956
882.390	0.0163430
882.468	0.0163689
882.547	0.0162607
882.625	0.0162093
882.703	0.0163062
882.781	0.0162691
882.859	0.0162869
882.937	0.0164299
883.015	0.0163071
883.093	0.0163749
883.172	0.0163895
883.250	0.0163039
883.328	0.0162254
883.406	0.0163151
883.484	0.0163571
883.562	0.0162379
883.640	0.0164150
883.718	0.0163538
883.797	0.0162811
883.875	0.0163354
883.953	0.0162475
884.031	0.0164409
884.109	0.0164651
884.187	0.0162319
884.265	0.0162682
884.343	0.0165661
884.422	0.0163478
884.500	0.0162569
884.578	0.0164313
884.656	0.0163029
884.734	0.0162969
884.812	0.0162171
884.890	0.0163073
884.968	0.0163972
885.047	0.0162349
885.125	0.0162669
885.203	0.0162155
885.281	0.0162444
885.359	0.0162196
885.437	0.0161620
885.515	0.0159841
885.593	0.0161909
885.672	0.0162622
885.750	0.0161617
885.828	0.0162708
885.906	0.0162314
885.984	0.0163396
886.062	0.0162545
886.140	0.0163087
886.218	0.0163390
886.297	0.0163714
886.375	0.0164347
886.453	0.0164242
886.531	0.0164587
886.609	0.0166817
886.687	0.0165745
886.765	0.0164855
886.843	0.0163840
886.922	0.0165284
887.000	0.0166532
887.078	0.0165892
887.156	0.0164007
887.234	0.0163677
887.312	0.0164556
887.390	0.0165322
887.468	0.0163904
887.547	0.0164156
887.625	0.0164697
887.703	0.0164484
887.781	0.0163152
887.859	0.0163821
887.937	0.0163863
888.015	0.0165079
888.093	0.0164017
888.172	0.0165180
888.250	0.0165003
888.328	0.0164542
888.406	0.0165070
888.484	0.0164919
888.562	0.0164716
888.640	0.0164231
888.718	0.0164222
888.797	0.0165493
888.875	0.0165342
888.953	0.0164782
889.031	0.0165837
889.109	0.0165312
889.187	0.0165690
889.265	0.0164619
889.343	0.0166323
889.422	0.0166579
889.500	0.0165043
889.578	0.0163959
889.656	0.0166272
889.734	0.0166329
889.812	0.0166140
889.890	0.0164697
889.968	0.0166470
890.047	0.0165851
890.125	0.0164948
890.203	0.0163289
890.281	0.0164946
890.359	0.0164002
890.437	0.0164211
890.515	0.0164166
890.593	0.0164072
890.672	0.0163795
890.750	0.0162589
890.828	0.0162263
890.906	0.0163345
890.984	0.0164244
891.062	0.0163125
891.140	0.0163673
891.218	0.0164713
891.297	0.0164716
891.375	0.0163546
891.453	0.0164381
891.531	0.0164079
891.609	0.0163297
891.687	0.0162514
891.765	0.0163637
891.843	0.0164519
891.922	0.0163256
892.000	0.0164475
892.078	0.0165698
892.156	0.0163618
892.234	0.0162545
892.312	0.0165667
892.390	0.0164326
892.468	0.0163592
892.547	0.0164267
892.625	0.0164428
892.703	0.0164540
892.781	0.0164465
892.859	0.0164691
892.937	0.0163708
893.015	0.0164813
893.093	0.0162771
893.172	0.0163856
893.250	0.0163573
893.328	0.0164592
893.406	0.0162440
893.484	0.0162737
893.562	0.0163995
893.640	0.0164566
893.718	0.0163749
893.797	0.0162119
893.875	0.0163313
893.953	0.0163267
894.031	0.0162911
894.109	0.0162313
894.187	0.0160812
894.265	0.0161658
894.343	0.0162359
894.422	0.0164054
894.500	0.0163189
894.578	0.0162383
894.656	0.0161991
894.734	0.0163360
894.812	0.0161630
894.890	0.0160570
894.968	0.0162382
895.047	0.0164101
895.125	0.0164360
895.203	0.0163567
895.281	0.0163274
895.359	0.0163510
895.437	0.0163104
895.515	0.0162939
895.593	0.0164252
895.672	0.0163185
895.750	0.0163535
895.828	0.0163738
895.906	0.0163615
895.984	0.0164553
896.062	0.0164367
896.140	0.0163484
896.218	0.0163613
896.297	0.0163954
896.375	0.0164631
896.453	0.0163228
896.531	0.0164184
896.609	0.0163516
896.687	0.0163094
896.765	0.0163244
896.843	0.0164144
896.922	0.0163333
897.000	0.0164924
897.078	0.0165157
897.156	0.0163887
897.234	0.0163364
897.312	0.0163010
897.390	0.0164103
897.468	0.0164587
897.547	0.0164056
897.625	0.0164055
897.703	0.0163942
897.781	0.0163264
897.859	0.0164700
897.937	0.0164427
898.015	0.0161948
898.093	0.0163685
898.172	0.0164693
898.250	0.0162645
898.328	0.0162530
898.406	0.0163972
898.484	0.0163483
898.562	0.0163335
898.640	0.0163577
898.718	0.0162825
898.797	0.0163104
898.875	0.0164082
898.953	0.0164504
899.031	0.0163303
899.109	0.0164335
899.187	0.0163776
899.265	0.0165208
899.343	0.0164715
899.422	0.0163992
899.500	0.0165739
899.578	0.0163406
899.656	0.0164544
899.734	0.0165929
899.812	0.0164463
899.890	0.0163286
899.968	0.0165324
900.047	0.0165334
900.125	0.0164573
900.203	0.0164852
900.281	0.0165403
900.359	0.0164166
900.437	0.0164519
900.515	0.0164528
900.593	0.0165181
900.672	0.0163789
900.750	0.0164398
900.828	0.0164359
900.906	0.0163941
900.984	0.0163835
901.062	0.0164807
901.140	0.0163540
901.218	0.0163963
901.297	0.0162213
901.375	0.0162921
901.453	0.0162102
901.531	0.0164071
901.609	0.0163498
901.687	0.0163824
901.765	0.0164136
901.843	0.0163642
901.922	0.0163273
902.000	0.0163135
902.078	0.0161791
902.156	0.0164152
902.234	0.0163369
902.312	0.0163664
902.390	0.0162711
902.468	0.0162909
902.547	0.0164326
902.625	0.0162538
902.703	0.0163185
902.781	0.0164586
902.859	0.0161940
902.937	0.0163660
903.015	0.0163775
903.093	0.0163123
903.172	0.0163760
903.250	0.0163419
903.328	0.0164211
903.406	0.0164016
903.484	0.0161545
903.562	0.0162693
903.640	0.0161413
903.718	0.0162734
903.797	0.0163653
903.875	0.0162933
903.953	0.0162663
904.031	0.0161332
904.109	0.0160820
904.187	0.0162450
904.265	0.0163868
904.343	0.0161718
904.422	0.0163279
904.500	0.0162951
904.578	0.0163582
904.656	0.0163610
904.734	0.0163327
904.812	0.0163484
904.890	0.0162228
904.968	0.0163134
905.047	0.0163499
905.125	0.0164319
905.203	0.0163220
905.281	0.0164729
905.359	0.0165173
905.437	0.0164252
905.515	0.0165531
905.593	0.0164429
905.672	0.0164825
905.750	0.0162884
905.828	0.0163233
905.906	0.0165051
905.984	0.0163920
906.062	0.0162725
906.140	0.0164002
906.218	0.0164336
906.297	0.0162469
906.375	0.0163651
906.453	0.0164619
906.531	0.0163685
906.609	0.0162999
906.687	0.0163044
906.765	0.0162157
906.843	0.0162202
906.922	0.0164597
907.000	0.0164046
907.078	0.0163810
907.156	0.0163470
907.234	0.0161582
907.312	0.0161721
907.390	0.0163262
907.468	0.0162803
907.547	0.0162539
907.625	0.0164117
907.703	0.0162952
907.781	0.0162556
907.859	0.0164548
907.937	0.0164920
908.015	0.0165228
908.093	0.0165060
908.172	0.0165012
908.250	0.0165906
908.328	0.0165622
908.406	0.0164326
908.484	0.0164744
908.562	0.0164875
908.640	0.0163771
908.718	0.0164562
908.797	0.0165617
908.875	0.0165423
908.953	0.0165026
909.031	0.0164296
909.109	0.0164426
909.187	0.0165951
909.265	0.0165412
909.343	0.0165268
909.422	0.0164253
909.500	0.0163254
909.578	0.0164571
909.656	0.0164642
909.734	0.0164845
909.812	0.0165299
909.890	0.0163384
909.968	0.0163707
910.047	0.0163374
910.125	0.0163044
910.203	0.0164583
910.281	0.0163538
910.359	0.0163554
910.437	0.0163277
910.515	0.0164054
910.593	0.0162221
910.672	0.0163733
910.750	0.0163554
910.828	0.0162930
910.906	0.0163592
910.984	0.0163052
911.062	0.0162880
911.140	0.0163703
911.218	0.0163106
911.297	0.0162830
911.375	0.0163145
911.453	0.0163851
911.531	0.0163052
911.609	0.0162858
911.687	0.0164948
911.765	0.0164604
911.843	0.0163654
911.922	0.0162849
912.000	0.0163718
912.078	0.0163329
912.156	0.0163569
912.234	0.0164615
912.312	0.0165527
912.390	0.0163200
912.468	0.0164034
912.547	0.0165157
912.625	0.0164988
912.703	0.0164782
912.781	0.0162833
912.859	0.0163197
912.937	0.0164576
913.015	0.0164397
913.093	0.0164556
913.172	0.0163895
913.250	0.0164175
913.328	0.0163891
913.406	0.0164299
913.484	0.0163552
913.562	0.0164848
913.640	0.0164302
913.718	0.0164304
913.797	0.0165048
913.875	0.0164671
913.953	0.0163885
914.031	0.0164044
914.109	0.0165462
914.187	0.0166103
914.265	0.0165276
914.343	0.0164966
914.422	0.0165569
914.500	0.0165751
914.578	0.0164727
914.656	0.0165073
914.734	0.0164668
914.812	0.0165134
914.890	0.0166197
914.968	0.0164567
915.047	0.0164415
915.125	0.0164105
915.203	0.0163766
915.281	0.0163979
915.359	0.0164291
915.437	0.0163701
915.515	0.0162482
915.593	0.0163249
915.672	0.0164081
915.750	0.0164851
915.828	0.0162714
915.906	0.0163388
915.984	0.0163113
916.062	0.0162981
916.140	0.0163270
916.218	0.0162696
916.297	0.0164836
916.375	0.0163387
916.453	0.0162597
916.531	0.0163715
916.609	0.0162973
916.687	0.0163702
916.765	0.0162488
916.843	0.0164403
916.922	0.0164227
917.000	0.0163004
917.078	0.0164626
917.156	0.0163827
917.234	0.0162299
917.312	0.0164091
917.390	0.0163069
917.468	0.0164357
917.547	0.0163107
917.625	0.0163773
917.703	0.0165113
917.781	0.0164399
917.859	0.0164664
917.937	0.0164100
918.015	0.0165921
918.093	0.0165720
918.172	0.0164191
918.250	0.0164460
918.328	0.0164465
918.406	0.0165241
918.484	0.0164510
918.562	0.0164969
918.640	0.0165890
918.718	0.0164214
918.797	0.0164215
918.875	0.0165322
918.953	0.0164529
919.031	0.0164238
919.109	0.0163587
919.187	0.0163549
919.265	0.0163850
919.343	0.0163483
919.422	0.0164684
919.500	0.0164032
919.578	0.0164005
919.656	0.0163939
919.734	0.0163266
919.812	0.0164273
919.890	0.0162700
