06/13/2022	14:33:38	Ver.	4.1	UNKNOWN
Optical Delay	599.968395	Delta X		0.078125	Sweeps	1	Scan Rate	0/0
Coordinates	Axis 1	NaN	Axis 2	NaN	Axis 3	NaN	Axis 4	NaN	Axis 5	NaN	Axis 6	0.000000
TX Power	0.000000	RX Power	0.000000

599.968	0.0159222
600.047	0.0158809
600.125	0.0159322
600.203	0.0160264
600.281	0.0157310
600.359	0.0159394
600.437	0.0158932
600.515	0.0158374
600.593	0.0159164
600.672	0.0159693
600.750	0.0158926
600.828	0.0159754
600.906	0.0159895
600.984	0.0160850
601.062	0.0161326
601.140	0.0159538
601.218	0.0158506
601.297	0.0159570
601.375	0.0160030
601.453	0.0160892
601.531	0.0158541
601.609	0.0158451
601.687	0.0158556
601.765	0.0159866
601.843	0.0159026
601.922	0.0160148
602.000	0.0161526
602.078	0.0159776
602.156	0.0158558
602.234	0.0159116
602.312	0.0159885
602.390	0.0159542
602.468	0.0158197
602.547	0.0159331
602.625	0.0160312
602.703	0.0159190
602.781	0.0160084
602.859	0.0160216
602.937	0.0159832
603.015	0.0159969
603.093	0.0159276
603.172	0.0159359
603.250	0.0158945
603.328	0.0159505
603.406	0.0158556
603.484	0.0159079
603.562	0.0158704
603.640	0.0159658
603.718	0.0158221
603.797	0.0160307
603.875	0.0158597
603.953	0.0159963
604.031	0.0159264
604.109	0.0160059
604.187	0.0159477
604.265	0.0160111
604.343	0.0159137
604.422	0.0159044
604.500	0.0159309
604.578	0.0159332
604.656	0.0161384
604.734	0.0159470
604.812	0.0157645
604.890	0.0158726
604.968	0.0159824
605.047	0.0160310
605.125	0.0159002
605.203	0.0160367
605.281	0.0159573
605.359	0.0160155
605.437	0.0159471
605.515	0.0158463
605.593	0.0159192
605.672	0.0158950
605.750	0.0158868
605.828	0.0160052
605.906	0.0159698
605.984	0.0159538
606.062	0.0158859
606.140	0.0159282
606.218	0.0159497
606.297	0.0159412
606.375	0.0159203
606.453	0.0158941
606.531	0.0159937
606.609	0.0159078
606.687	0.0159679
606.765	0.0159527
606.843	0.0158945
606.922	0.0158723
607.000	0.0160291
607.078	0.0160833
607.156	0.0159705
607.234	0.0159013
607.312	0.0160179
607.390	0.0159975
607.468	0.0160311
607.547	0.0158888
607.625	0.0158681
607.703	0.0159942
607.781	0.0158062
607.859	0.0159607
607.937	0.0160246
608.015	0.0158991
608.093	0.0158743
608.172	0.0158898
608.250	0.0159730
608.328	0.0158791
608.406	0.0157913
608.484	0.0158791
608.562	0.0160604
608.640	0.0159651
608.718	0.0159219
608.797	0.0159174
608.875	0.0159772
608.953	0.0158829
609.031	0.0159649
609.109	0.0159216
609.187	0.0157955
609.265	0.0159804
609.343	0.0159667
609.422	0.0159660
609.500	0.0159288
609.578	0.0159201
609.656	0.0159396
609.734	0.0161338
609.812	0.0159666
609.890	0.0158228
609.968	0.0160074
610.047	0.0159557
610.125	0.0159469
610.203	0.0159598
610.281	0.0159185
610.359	0.0160025
610.437	0.0158350
610.515	0.0158714
610.593	0.0159003
610.672	0.0160181
610.750	0.0159617
610.828	0.0159081
610.906	0.0159455
610.984	0.0157715
611.062	0.0159463
611.140	0.0159762
611.218	0.0159470
611.297	0.0160067
611.375	0.0158407
611.453	0.0159539
611.531	0.0160175
611.609	0.0159391
611.687	0.0160256
611.765	0.0160228
611.843	0.0161234
611.922	0.0160146
612.000	0.0158424
612.078	0.0159971
612.156	0.0159458
612.234	0.0159727
612.312	0.0158727
612.390	0.0159575
612.468	0.0157587
612.547	0.0158736
612.625	0.0161069
612.703	0.0158667
612.781	0.0159000
612.859	0.0159661
612.937	0.0158906
613.015	0.0159175
613.093	0.0159348
613.172	0.0159721
613.250	0.0159635
613.328	0.0157660
613.406	0.0160451
613.484	0.0160264
613.562	0.0159039
613.640	0.0159424
613.718	0.0160847
613.797	0.0160692
613.875	0.0160458
613.953	0.0159110
614.031	0.0160992
614.109	0.0158785
614.187	0.0159181
614.265	0.0160661
614.343	0.0160262
614.422	0.0159633
614.500	0.0160286
614.578	0.0159881
614.656	0.0158992
614.734	0.0159823
614.812	0.0159688
614.890	0.0160659
614.968	0.0159621
615.047	0.0159566
615.125	0.0160330
615.203	0.0159229
615.281	0.0159188
615.359	0.0159995
615.437	0.0158836
615.515	0.0159776
615.593	0.0160072
615.672	0.0159566
615.750	0.0159481
615.828	0.0159518
615.906	0.0159523
615.984	0.0160017
616.062	0.0158596
616.140	0.0161328
616.218	0.0160162
616.297	0.0160196
616.375	0.0159153
616.453	0.0159013
616.531	0.0160028
616.609	0.0159916
616.687	0.0159031
616.765	0.0159952
616.843	0.0159957
616.922	0.0158931
617.000	0.0159454
617.078	0.0159332
617.156	0.0160049
617.234	0.0160455
617.312	0.0159862
617.390	0.0160120
617.468	0.0159741
617.547	0.0160056
617.625	0.0159734
617.703	0.0160005
617.781	0.0158767
617.859	0.0159004
617.937	0.0160191
618.015	0.0159895
618.093	0.0158916
618.172	0.0159383
618.250	0.0159778
618.328	0.0160056
618.406	0.0158595
618.484	0.0158887
618.562	0.0158455
618.640	0.0160317
618.718	0.0158894
618.797	0.0160269
618.875	0.0159419
618.953	0.0158672
619.031	0.0159621
619.109	0.0160018
619.187	0.0159695
619.265	0.0159579
619.343	0.0157575
619.422	0.0158729
619.500	0.0159187
619.578	0.0158748
619.656	0.0159023
619.734	0.0160598
619.812	0.0158280
619.890	0.0158369
619.968	0.0159233
620.047	0.0158750
620.125	0.0159903
620.203	0.0159023
620.281	0.0158599
620.359	0.0159300
620.437	0.0159530
620.515	0.0158848
620.593	0.0159916
620.672	0.0159252
620.750	0.0159566
620.828	0.0159012
620.906	0.0160207
620.984	0.0161129
621.062	0.0159071
621.140	0.0159829
621.218	0.0158747
621.297	0.0159102
621.375	0.0160725
621.453	0.0159682
621.531	0.0158060
621.609	0.0159317
621.687	0.0158649
621.765	0.0159901
621.843	0.0158978
621.922	0.0158286
622.000	0.0159016
622.078	0.0159966
622.156	0.0160245
622.234	0.0159885
622.312	0.0158926
622.390	0.0160307
622.468	0.0159389
622.547	0.0159370
622.625	0.0158821
622.703	0.0159133
622.781	0.0160391
622.859	0.0159022
622.937	0.0159737
623.015	0.0158296
623.093	0.0158792
623.172	0.0157005
623.250	0.0158820
623.328	0.0159974
623.406	0.0160051
623.484	0.0158237
623.562	0.0159059
623.640	0.0158586
623.718	0.0160114
623.797	0.0159548
623.875	0.0160286
623.953	0.0158975
624.031	0.0158009
624.109	0.0158042
624.187	0.0159642
624.265	0.0160578
624.343	0.0159431
624.422	0.0159303
624.500	0.0158659
624.578	0.0159536
624.656	0.0159512
624.734	0.0158940
624.812	0.0158719
624.890	0.0159900
624.968	0.0159544
625.047	0.0160515
625.125	0.0160654
625.203	0.0159586
625.281	0.0158170
625.359	0.0159542
625.437	0.0158238
625.515	0.0161272
625.593	0.0159977
625.672	0.0160453
625.750	0.0159253
625.828	0.0159675
625.906	0.0159117
625.984	0.0159577
626.062	0.0158579
626.140	0.0160157
626.218	0.0159899
626.297	0.0160709
626.375	0.0159155
626.453	0.0159077
626.531	0.0160033
626.609	0.0159778
626.687	0.0160101
626.765	0.0160581
626.843	0.0160045
626.922	0.0157990
627.000	0.0160485
627.078	0.0160929
627.156	0.0159119
627.234	0.0158919
627.312	0.0158450
627.390	0.0158541
627.468	0.0159071
627.547	0.0158424
627.625	0.0159785
627.703	0.0161214
627.781	0.0159736
627.859	0.0158608
627.937	0.0160051
628.015	0.0158879
628.093	0.0160198
628.172	0.0160847
628.250	0.0159204
628.328	0.0160098
628.406	0.0159653
628.484	0.0158707
628.562	0.0158704
628.640	0.0160093
628.718	0.0159460
628.797	0.0160246
628.875	0.0159697
628.953	0.0159283
629.031	0.0160316
629.109	0.0158784
629.187	0.0157782
629.265	0.0160638
629.343	0.0157847
629.422	0.0158984
629.500	0.0158678
629.578	0.0159892
629.656	0.0159318
629.734	0.0160174
629.812	0.0160283
629.890	0.0159302
629.968	0.0159377
630.047	0.0157851
630.125	0.0158093
630.203	0.0160021
630.281	0.0159463
630.359	0.0159598
630.437	0.0159505
630.515	0.0157381
630.593	0.0159240
630.672	0.0160413
630.750	0.0158515
630.828	0.0160061
630.906	0.0159549
630.984	0.0158591
631.062	0.0160356
631.140	0.0158659
631.218	0.0158978
631.297	0.0160400
631.375	0.0159535
631.453	0.0159151
631.531	0.0159511
631.609	0.0159228
631.687	0.0159966
631.765	0.0159004
631.843	0.0160502
631.922	0.0159160
632.000	0.0160819
632.078	0.0159908
632.156	0.0159486
632.234	0.0159377
632.312	0.0159442
632.390	0.0158416
632.468	0.0160233
632.547	0.0159679
632.625	0.0159612
632.703	0.0159679
632.781	0.0158616
632.859	0.0159127
632.937	0.0159480
633.015	0.0158901
633.093	0.0159480
633.172	0.0159038
633.250	0.0158191
633.328	0.0158462
633.406	0.0160303
633.484	0.0158978
633.562	0.0159918
633.640	0.0159047
633.718	0.0158841
633.797	0.0158524
633.875	0.0158495
633.953	0.0158759
634.031	0.0160306
634.109	0.0159369
634.187	0.0158530
634.265	0.0158569
634.343	0.0159106
634.422	0.0159602
634.500	0.0160184
634.578	0.0159918
634.656	0.0158819
634.734	0.0159536
634.812	0.0157767
634.890	0.0159003
634.968	0.0158282
635.047	0.0160139
635.125	0.0159919
635.203	0.0160161
635.281	0.0160132
635.359	0.0159666
635.437	0.0158460
635.515	0.0159940
635.593	0.0159269
635.672	0.0158440
635.750	0.0158716
635.828	0.0158177
635.906	0.0159340
635.984	0.0158221
636.062	0.0159583
636.140	0.0160657
636.218	0.0160346
636.297	0.0158672
636.375	0.0159286
636.453	0.0158659
636.531	0.0158348
636.609	0.0159200
636.687	0.0159866
636.765	0.0158649
636.843	0.0159070
636.922	0.0159517
637.000	0.0159405
637.078	0.0160045
637.156	0.0159145
637.234	0.0159239
637.312	0.0160162
637.390	0.0160023
637.468	0.0159739
637.547	0.0159088
637.625	0.0159621
637.703	0.0160242
637.781	0.0159045
637.859	0.0160587
637.937	0.0159555
638.015	0.0158604
638.093	0.0159700
638.172	0.0160410
638.250	0.0159568
638.328	0.0159264
638.406	0.0158505
638.484	0.0158974
638.562	0.0158990
638.640	0.0157748
638.718	0.0160390
638.797	0.0160899
638.875	0.0159122
638.953	0.0159031
639.031	0.0160036
639.109	0.0158913
639.187	0.0158910
639.265	0.0160290
639.343	0.0158117
639.422	0.0158901
639.500	0.0161114
639.578	0.0159531
639.656	0.0160007
639.734	0.0158775
639.812	0.0159972
639.890	0.0159064
639.968	0.0160735
640.047	0.0158211
640.125	0.0159256
640.203	0.0159744
640.281	0.0160452
640.359	0.0159683
640.437	0.0159196
640.515	0.0158977
640.593	0.0159254
640.672	0.0161005
640.750	0.0160591
640.828	0.0159648
640.906	0.0159838
640.984	0.0158237
641.062	0.0159680
641.140	0.0158225
641.218	0.0159818
641.297	0.0159781
641.375	0.0159237
641.453	0.0159429
641.531	0.0159118
641.609	0.0159419
641.687	0.0159697
641.765	0.0161512
641.843	0.0158379
641.922	0.0158896
642.000	0.0159929
642.078	0.0158431
642.156	0.0157652
642.234	0.0159195
642.312	0.0158726
642.390	0.0158136
642.468	0.0160654
642.547	0.0160114
642.625	0.0159611
642.703	0.0159502
642.781	0.0159620
642.859	0.0160975
642.937	0.0158121
643.015	0.0158564
643.093	0.0159846
643.172	0.0158453
643.250	0.0159646
643.328	0.0158553
643.406	0.0159301
643.484	0.0159900
643.562	0.0161271
643.640	0.0160115
643.718	0.0159278
643.797	0.0159333
643.875	0.0160503
643.953	0.0159253
644.031	0.0158724
644.109	0.0159460
644.187	0.0159367
644.265	0.0159399
644.343	0.0159978
644.422	0.0159843
644.500	0.0159479
644.578	0.0159626
644.656	0.0159126
644.734	0.0160876
644.812	0.0160047
644.890	0.0159171
644.968	0.0159879
645.047	0.0160100
645.125	0.0158936
645.203	0.0159085
645.281	0.0157681
645.359	0.0159043
645.437	0.0159850
645.515	0.0160767
645.593	0.0159913
645.672	0.0159309
645.750	0.0159669
645.828	0.0159967
645.906	0.0159915
645.984	0.0159912
646.062	0.0160185
646.140	0.0159187
646.218	0.0159402
646.297	0.0159267
646.375	0.0159787
646.453	0.0159701
646.531	0.0159991
646.609	0.0158294
646.687	0.0160064
646.765	0.0160069
646.843	0.0159201
646.922	0.0159418
647.000	0.0159622
647.078	0.0157859
647.156	0.0159447
647.234	0.0160078
647.312	0.0158617
647.390	0.0158956
647.468	0.0160410
647.547	0.0158936
647.625	0.0159986
647.703	0.0160518
647.781	0.0160043
647.859	0.0158999
647.937	0.0160116
648.015	0.0160294
648.093	0.0158710
648.172	0.0160586
648.250	0.0159311
648.328	0.0159432
648.406	0.0159335
648.484	0.0158227
648.562	0.0158844
648.640	0.0159631
648.718	0.0159669
648.797	0.0159348
648.875	0.0159563
648.953	0.0158509
649.031	0.0158891
649.109	0.0159273
649.187	0.0158979
649.265	0.0159743
649.343	0.0160739
649.422	0.0160209
649.500	0.0160445
649.578	0.0159452
649.656	0.0160355
649.734	0.0159833
649.812	0.0159663
649.890	0.0158540
649.968	0.0159116
650.047	0.0159277
650.125	0.0158640
650.203	0.0160046
650.281	0.0159774
650.359	0.0159225
650.437	0.0158562
650.515	0.0159499
650.593	0.0160097
650.672	0.0159706
650.750	0.0158688
650.828	0.0159823
650.906	0.0160225
650.984	0.0159412
651.062	0.0158614
651.140	0.0158285
651.218	0.0159515
651.297	0.0159505
651.375	0.0159104
651.453	0.0160150
651.531	0.0158549
651.609	0.0157680
651.687	0.0160625
651.765	0.0162202
651.843	0.0160630
651.922	0.0158212
652.000	0.0158587
652.078	0.0159465
652.156	0.0160271
652.234	0.0159006
652.312	0.0159010
652.390	0.0159919
652.468	0.0159477
652.547	0.0159321
652.625	0.0160242
652.703	0.0158818
652.781	0.0159454
652.859	0.0159351
652.937	0.0159904
653.015	0.0160047
653.093	0.0159904
653.172	0.0160098
653.250	0.0159537
653.328	0.0159847
653.406	0.0159298
653.484	0.0158331
653.562	0.0160146
653.640	0.0159966
653.718	0.0159821
653.797	0.0160945
653.875	0.0159162
653.953	0.0158324
654.031	0.0159008
654.109	0.0159822
654.187	0.0159253
654.265	0.0159143
654.343	0.0159354
654.422	0.0158643
654.500	0.0158943
654.578	0.0160211
654.656	0.0160577
654.734	0.0159063
654.812	0.0159964
654.890	0.0159778
654.968	0.0160332
655.047	0.0158638
655.125	0.0158698
655.203	0.0158353
655.281	0.0159220
655.359	0.0159137
655.437	0.0158746
655.515	0.0160245
655.593	0.0159048
655.672	0.0160175
655.750	0.0160011
655.828	0.0159725
655.906	0.0159500
655.984	0.0158575
656.062	0.0160374
656.140	0.0159536
656.218	0.0159441
656.297	0.0158509
656.375	0.0158469
656.453	0.0160677
656.531	0.0159368
656.609	0.0159034
656.687	0.0159516
656.765	0.0160043
656.843	0.0160450
656.922	0.0160346
657.000	0.0160636
657.078	0.0159278
657.156	0.0157776
657.234	0.0159704
657.312	0.0159423
657.390	0.0158840
657.468	0.0159171
657.547	0.0158001
657.625	0.0157083
657.703	0.0159259
657.781	0.0160482
657.859	0.0160120
657.937	0.0158847
658.015	0.0160063
658.093	0.0160080
658.172	0.0159623
658.250	0.0159103
658.328	0.0158469
658.406	0.0159544
658.484	0.0158815
658.562	0.0160507
658.640	0.0160229
658.718	0.0160545
658.797	0.0159488
658.875	0.0157899
658.953	0.0159527
659.031	0.0159052
659.109	0.0159408
659.187	0.0160364
659.265	0.0159944
659.343	0.0157929
659.422	0.0159097
659.500	0.0159441
659.578	0.0159681
659.656	0.0158937
659.734	0.0160621
659.812	0.0159251
659.890	0.0159109
659.968	0.0159216
660.047	0.0157844
660.125	0.0160361
660.203	0.0158824
660.281	0.0159624
660.359	0.0160255
660.437	0.0159147
660.515	0.0160062
660.593	0.0160381
660.672	0.0159150
660.750	0.0158401
660.828	0.0159531
660.906	0.0159005
660.984	0.0159400
661.062	0.0158762
661.140	0.0158731
661.218	0.0159235
661.297	0.0160071
661.375	0.0158866
661.453	0.0158447
661.531	0.0159457
661.609	0.0158692
661.687	0.0158414
661.765	0.0160069
661.843	0.0159939
661.922	0.0159651
662.000	0.0159442
662.078	0.0160385
662.156	0.0158839
662.234	0.0158737
662.312	0.0159029
662.390	0.0159378
662.468	0.0159389
662.547	0.0158836
662.625	0.0157811
662.703	0.0159983
662.781	0.0159236
662.859	0.0158781
662.937	0.0160993
663.015	0.0158668
663.093	0.0158567
663.172	0.0158649
663.250	0.0159653
663.328	0.0159867
663.406	0.0158667
663.484	0.0159964
663.562	0.0158965
663.640	0.0159077
663.718	0.0158727
663.797	0.0159842
663.875	0.0158948
663.953	0.0162041
664.031	0.0159373
664.109	0.0158833
664.187	0.0159913
664.265	0.0160946
664.343	0.0159332
664.422	0.0158858
664.500	0.0159057
664.578	0.0159110
664.656	0.0159972
664.734	0.0160104
664.812	0.0159043
664.890	0.0159417
664.968	0.0160040
665.047	0.0159669
665.125	0.0158989
665.203	0.0159077
665.281	0.0160666
665.359	0.0158671
665.437	0.0157583
665.515	0.0158035
665.593	0.0160748
665.672	0.0161082
665.750	0.0159518
665.828	0.0159579
665.906	0.0160688
665.984	0.0159109
666.062	0.0158509
666.140	0.0159817
666.218	0.0159519
666.297	0.0160417
666.375	0.0160117
666.453	0.0158991
666.531	0.0158488
666.609	0.0159549
666.687	0.0158374
666.765	0.0158508
666.843	0.0159777
666.922	0.0160486
667.000	0.0159693
667.078	0.0159130
667.156	0.0159255
667.234	0.0159850
667.312	0.0159097
667.390	0.0159506
667.468	0.0158619
667.547	0.0159586
667.625	0.0160184
667.703	0.0160072
667.781	0.0159409
667.859	0.0158787
667.937	0.0159198
668.015	0.0158281
668.093	0.0159490
668.172	0.0160007
668.250	0.0159844
668.328	0.0159019
668.406	0.0160220
668.484	0.0160214
668.562	0.0159206
668.640	0.0158777
668.718	0.0160069
668.797	0.0159635
668.875	0.0157902
668.953	0.0159331
669.031	0.0159274
669.109	0.0159354
669.187	0.0160195
669.265	0.0159398
669.343	0.0159164
669.422	0.0159043
669.500	0.0158941
669.578	0.0159454
669.656	0.0158379
669.734	0.0159396
669.812	0.0160105
669.890	0.0160571
669.968	0.0158246
670.047	0.0160390
670.125	0.0159248
670.203	0.0159627
670.281	0.0160457
670.359	0.0159206
670.437	0.0160597
670.515	0.0158952
670.593	0.0159424
670.672	0.0160612
670.750	0.0159247
670.828	0.0159212
670.906	0.0160863
670.984	0.0160368
671.062	0.0159721
671.140	0.0159889
671.218	0.0158611
671.297	0.0160457
671.375	0.0160456
671.453	0.0158961
671.531	0.0158297
671.609	0.0158897
671.687	0.0158704
671.765	0.0159414
671.843	0.0160856
671.922	0.0159877
672.000	0.0159074
672.078	0.0160159
672.156	0.0160244
672.234	0.0158662
672.312	0.0159412
672.390	0.0158920
672.468	0.0160284
672.547	0.0160186
672.625	0.0158795
672.703	0.0157638
672.781	0.0159758
672.859	0.0160434
672.937	0.0160531
673.015	0.0157420
673.093	0.0158866
673.172	0.0159249
673.250	0.0158732
673.328	0.0160003
673.406	0.0159426
673.484	0.0159361
673.562	0.0160080
673.640	0.0158850
673.718	0.0161068
673.797	0.0159459
673.875	0.0159789
673.953	0.0160638
674.031	0.0159365
674.109	0.0157900
674.187	0.0159016
674.265	0.0159834
674.343	0.0160656
674.422	0.0159814
674.500	0.0159964
674.578	0.0159170
674.656	0.0158914
674.734	0.0159738
674.812	0.0159701
674.890	0.0160128
674.968	0.0159339
675.047	0.0159653
675.125	0.0159854
675.203	0.0160787
675.281	0.0159526
675.359	0.0159654
675.437	0.0160048
675.515	0.0159770
675.593	0.0160520
675.672	0.0160299
675.750	0.0158961
675.828	0.0159749
675.906	0.0160519
675.984	0.0159201
676.062	0.0160346
676.140	0.0159595
676.218	0.0161262
676.297	0.0159453
676.375	0.0159969
676.453	0.0160640
676.531	0.0158561
676.609	0.0160180
676.687	0.0160196
676.765	0.0159588
676.843	0.0160599
676.922	0.0158884
677.000	0.0158665
677.078	0.0158802
677.156	0.0160605
677.234	0.0160089
677.312	0.0159565
677.390	0.0159854
677.468	0.0158556
677.547	0.0159615
677.625	0.0160694
677.703	0.0159145
677.781	0.0160594
677.859	0.0159688
677.937	0.0159341
678.015	0.0159367
678.093	0.0159769
678.172	0.0158836
678.250	0.0160649
678.328	0.0158662
678.406	0.0159403
678.484	0.0161690
678.562	0.0159997
678.640	0.0160085
678.718	0.0159976
678.797	0.0158303
678.875	0.0159287
678.953	0.0158755
679.031	0.0159010
679.109	0.0160265
679.187	0.0159087
679.265	0.0160136
679.343	0.0160710
679.422	0.0158807
679.500	0.0160164
679.578	0.0159174
679.656	0.0160129
679.734	0.0159638
679.812	0.0160062
679.890	0.0160297
679.968	0.0158898
680.047	0.0160381
680.125	0.0158911
680.203	0.0159473
680.281	0.0161428
680.359	0.0159194
680.437	0.0158721
680.515	0.0160788
680.593	0.0159874
680.672	0.0161660
680.750	0.0159945
680.828	0.0160028
680.906	0.0159824
680.984	0.0159978
681.062	0.0159308
681.140	0.0160392
681.218	0.0160236
681.297	0.0160320
681.375	0.0159418
681.453	0.0158533
681.531	0.0160266
681.609	0.0160374
681.687	0.0159411
681.765	0.0159768
681.843	0.0159022
681.922	0.0159677
682.000	0.0159337
682.078	0.0160191
682.156	0.0159783
682.234	0.0159502
682.312	0.0160025
682.390	0.0159791
682.468	0.0160754
682.547	0.0158071
682.625	0.0160820
682.703	0.0160666
682.781	0.0158713
682.859	0.0160358
682.937	0.0158380
683.015	0.0159142
683.093	0.0159667
683.172	0.0159657
683.250	0.0160695
683.328	0.0159305
683.406	0.0160143
683.484	0.0160091
683.562	0.0159543
683.640	0.0159196
683.718	0.0158965
683.797	0.0159945
683.875	0.0159509
683.953	0.0159686
684.031	0.0159241
684.109	0.0160997
684.187	0.0159126
684.265	0.0159863
684.343	0.0159299
684.422	0.0160133
684.500	0.0159670
684.578	0.0159270
684.656	0.0159735
684.734	0.0159973
684.812	0.0159453
684.890	0.0158949
684.968	0.0160620
685.047	0.0160658
685.125	0.0160816
685.203	0.0160296
685.281	0.0160458
685.359	0.0160744
685.437	0.0159542
685.515	0.0159023
685.593	0.0160980
685.672	0.0159989
685.750	0.0159214
685.828	0.0158144
685.906	0.0160254
685.984	0.0161272
686.062	0.0160258
686.140	0.0160386
686.218	0.0159533
686.297	0.0159711
686.375	0.0160217
686.453	0.0158838
686.531	0.0161009
686.609	0.0160976
686.687	0.0159036
686.765	0.0159028
686.843	0.0159502
686.922	0.0160760
687.000	0.0161111
687.078	0.0160989
687.156	0.0159985
687.234	0.0158866
687.312	0.0159840
687.390	0.0160899
687.468	0.0159172
687.547	0.0160234
687.625	0.0160325
687.703	0.0159961
687.781	0.0159731
687.859	0.0161874
687.937	0.0159722
688.015	0.0158649
688.093	0.0159987
688.172	0.0159769
688.250	0.0159587
688.328	0.0160108
688.406	0.0159039
688.484	0.0159729
688.562	0.0159485
688.640	0.0160390
688.718	0.0159676
688.797	0.0159682
688.875	0.0159707
688.953	0.0160184
689.031	0.0160826
689.109	0.0159828
689.187	0.0159977
689.265	0.0160601
689.343	0.0160417
689.422	0.0158520
689.500	0.0160042
689.578	0.0160979
689.656	0.0159681
689.734	0.0159444
689.812	0.0159918
689.890	0.0159763
689.968	0.0159571
690.047	0.0159040
690.125	0.0159677
690.203	0.0159982
690.281	0.0160319
690.359	0.0159891
690.437	0.0159052
690.515	0.0159540
690.593	0.0160171
690.672	0.0159468
690.750	0.0159691
690.828	0.0157668
690.906	0.0160505
690.984	0.0160083
691.062	0.0159500
691.140	0.0158769
691.218	0.0160309
691.297	0.0160951
691.375	0.0159839
691.453	0.0159431
691.531	0.0159761
691.609	0.0159425
691.687	0.0158244
691.765	0.0160107
691.843	0.0159060
691.922	0.0158568
692.000	0.0160442
692.078	0.0159679
692.156	0.0159321
692.234	0.0159485
692.312	0.0160322
692.390	0.0159332
692.468	0.0159592
692.547	0.0161288
692.625	0.0159917
692.703	0.0160249
692.781	0.0159282
692.859	0.0159598
692.937	0.0159518
693.015	0.0160945
693.093	0.0160590
693.172	0.0160027
693.250	0.0159142
693.328	0.0161044
693.406	0.0160825
693.484	0.0158325
693.562	0.0159943
693.640	0.0160100
693.718	0.0159582
693.797	0.0160656
693.875	0.0159152
693.953	0.0158330
694.031	0.0160157
694.109	0.0160458
694.187	0.0159728
694.265	0.0159136
694.343	0.0159904
694.422	0.0160131
694.500	0.0159209
694.578	0.0159682
694.656	0.0158624
694.734	0.0158808
694.812	0.0159608
694.890	0.0159326
694.968	0.0160645
695.047	0.0159980
695.125	0.0159052
695.203	0.0159092
695.281	0.0160429
695.359	0.0160375
695.437	0.0160830
695.515	0.0159794
695.593	0.0159621
695.672	0.0159888
695.750	0.0159128
695.828	0.0159458
695.906	0.0159221
695.984	0.0158704
696.062	0.0158436
696.140	0.0159946
696.218	0.0160088
696.297	0.0158633
696.375	0.0160535
696.453	0.0159455
696.531	0.0157938
696.609	0.0160451
696.687	0.0158031
696.765	0.0158493
696.843	0.0160931
696.922	0.0158768
697.000	0.0158967
697.078	0.0160651
697.156	0.0159856
697.234	0.0158547
697.312	0.0160767
697.390	0.0161032
697.468	0.0159324
697.547	0.0159751
697.625	0.0159859
697.703	0.0160738
697.781	0.0160294
697.859	0.0159818
697.937	0.0158945
698.015	0.0158937
698.093	0.0159483
698.172	0.0159805
698.250	0.0159305
698.328	0.0159174
698.406	0.0158949
698.484	0.0159640
698.562	0.0159579
698.640	0.0159732
698.718	0.0158112
698.797	0.0159566
698.875	0.0159190
698.953	0.0159100
699.031	0.0160133
699.109	0.0158450
699.187	0.0160564
699.265	0.0159593
699.343	0.0160036
699.422	0.0159501
699.500	0.0159859
699.578	0.0160351
699.656	0.0157632
699.734	0.0160345
699.812	0.0160508
699.890	0.0159756
699.968	0.0160808
700.047	0.0161497
700.125	0.0160132
700.203	0.0160479
700.281	0.0159822
700.359	0.0159460
700.437	0.0159891
700.515	0.0158607
700.593	0.0159819
700.672	0.0159938
700.750	0.0161085
700.828	0.0159590
700.906	0.0160336
700.984	0.0160492
701.062	0.0160236
701.140	0.0159129
701.218	0.0159173
701.297	0.0159302
701.375	0.0159217
701.453	0.0160838
701.531	0.0159414
701.609	0.0159106
701.687	0.0159168
701.765	0.0158315
701.843	0.0160225
701.922	0.0159657
702.000	0.0158705
702.078	0.0159246
702.156	0.0158649
702.234	0.0159178
702.312	0.0160463
702.390	0.0159126
702.468	0.0159274
702.547	0.0159620
702.625	0.0159313
702.703	0.0160849
702.781	0.0159656
702.859	0.0159560
702.937	0.0158365
703.015	0.0159612
703.093	0.0159583
703.172	0.0160032
703.250	0.0159335
703.328	0.0159998
703.406	0.0159299
703.484	0.0160259
703.562	0.0159634
703.640	0.0159019
703.718	0.0160696
703.797	0.0160394
703.875	0.0160760
703.953	0.0159447
704.031	0.0160249
704.109	0.0159665
704.187	0.0158266
704.265	0.0160181
704.343	0.0160986
704.422	0.0160583
704.500	0.0159987
704.578	0.0161375
704.656	0.0160135
704.734	0.0159618
704.812	0.0159113
704.890	0.0158810
704.968	0.0160795
705.047	0.0160951
705.125	0.0158666
705.203	0.0158942
705.281	0.0160057
705.359	0.0159084
705.437	0.0159574
705.515	0.0159142
705.593	0.0158894
705.672	0.0159904
705.750	0.0160601
705.828	0.0160395
705.906	0.0159810
705.984	0.0159371
706.062	0.0159843
706.140	0.0159219
706.218	0.0160322
706.297	0.0160206
706.375	0.0158530
706.453	0.0159573
706.531	0.0160025
706.609	0.0160623
706.687	0.0159403
706.765	0.0158348
706.843	0.0160426
706.922	0.0160104
707.000	0.0159212
707.078	0.0160675
707.156	0.0159881
707.234	0.0160288
707.312	0.0159549
707.390	0.0160332
707.468	0.0159254
707.547	0.0159698
707.625	0.0159894
707.703	0.0161157
707.781	0.0159444
707.859	0.0159377
707.937	0.0159772
708.015	0.0160554
708.093	0.0160983
708.172	0.0159450
708.250	0.0159752
708.328	0.0159946
708.406	0.0160537
708.484	0.0159271
708.562	0.0159025
708.640	0.0159380
708.718	0.0161318
708.797	0.0159818
708.875	0.0159666
708.953	0.0160190
709.031	0.0160215
709.109	0.0160097
709.187	0.0160358
709.265	0.0161381
709.343	0.0159064
709.422	0.0159706
709.500	0.0159914
709.578	0.0159757
709.656	0.0160721
709.734	0.0159558
709.812	0.0159448
709.890	0.0159640
709.968	0.0158972
710.047	0.0159495
710.125	0.0159122
710.203	0.0160567
710.281	0.0159575
710.359	0.0159315
710.437	0.0161083
710.515	0.0160657
710.593	0.0158349
710.672	0.0159190
710.750	0.0159225
710.828	0.0157990
710.906	0.0159383
710.984	0.0159138
711.062	0.0159689
711.140	0.0160202
711.218	0.0160004
711.297	0.0159929
711.375	0.0160635
711.453	0.0158984
711.531	0.0160210
711.609	0.0160073
711.687	0.0158849
711.765	0.0159613
711.843	0.0159843
711.922	0.0160731
712.000	0.0159856
712.078	0.0159863
712.156	0.0160174
712.234	0.0159679
712.312	0.0160087
712.390	0.0159509
712.468	0.0159148
712.547	0.0159290
712.625	0.0160130
712.703	0.0160635
712.781	0.0160632
712.859	0.0158271
712.937	0.0158525
713.015	0.0159945
713.093	0.0159592
713.172	0.0159576
713.250	0.0160709
713.328	0.0158868
713.406	0.0160054
713.484	0.0158910
713.562	0.0158029
713.640	0.0160185
713.718	0.0159486
713.797	0.0159385
713.875	0.0158127
713.953	0.0159629
714.031	0.0159856
714.109	0.0159346
714.187	0.0160027
714.265	0.0160094
714.343	0.0159729
714.422	0.0158632
714.500	0.0159193
714.578	0.0158613
714.656	0.0159670
714.734	0.0161846
714.812	0.0158116
714.890	0.0159417
714.968	0.0160355
715.047	0.0160693
715.125	0.0159819
715.203	0.0158604
715.281	0.0158801
715.359	0.0159448
715.437	0.0158445
715.515	0.0159972
715.593	0.0157993
715.672	0.0157794
715.750	0.0160184
715.828	0.0159544
715.906	0.0159849
715.984	0.0158372
716.062	0.0158593
716.140	0.0160042
716.218	0.0160618
716.297	0.0160052
716.375	0.0158618
716.453	0.0159634
716.531	0.0159333
716.609	0.0160278
716.687	0.0159419
716.765	0.0159447
716.843	0.0158201
716.922	0.0159897
717.000	0.0160012
717.078	0.0161379
717.156	0.0159024
717.234	0.0158675
717.312	0.0160007
717.390	0.0159047
717.468	0.0158478
717.547	0.0159856
717.625	0.0159086
717.703	0.0159285
717.781	0.0158153
717.859	0.0159127
717.937	0.0159753
718.015	0.0159637
718.093	0.0159551
718.172	0.0160186
718.250	0.0158379
718.328	0.0158581
718.406	0.0159370
718.484	0.0159328
718.562	0.0159045
718.640	0.0159061
718.718	0.0159613
718.797	0.0160021
718.875	0.0158435
718.953	0.0159502
719.031	0.0159637
719.109	0.0159924
719.187	0.0159371
719.265	0.0159721
719.343	0.0159962
719.422	0.0158671
719.500	0.0159254
719.578	0.0159496
719.656	0.0159280
719.734	0.0159023
719.812	0.0159917
719.890	0.0159106
719.968	0.0159260
720.047	0.0158376
720.125	0.0159467
720.203	0.0161153
720.281	0.0160390
720.359	0.0158976
720.437	0.0159113
720.515	0.0158832
720.593	0.0158170
720.672	0.0159889
720.750	0.0158973
720.828	0.0159538
720.906	0.0159808
720.984	0.0160359
721.062	0.0160194
721.140	0.0159251
721.218	0.0159788
721.297	0.0157730
721.375	0.0160851
721.453	0.0160522
721.531	0.0158743
721.609	0.0159526
721.687	0.0159081
721.765	0.0160426
721.843	0.0159662
721.922	0.0159904
722.000	0.0159814
722.078	0.0159803
722.156	0.0158453
722.234	0.0159605
722.312	0.0159904
722.390	0.0160606
722.468	0.0158755
722.547	0.0160051
722.625	0.0158665
722.703	0.0161199
722.781	0.0159627
722.859	0.0158664
722.937	0.0159075
723.015	0.0160193
723.093	0.0158862
723.172	0.0162025
723.250	0.0160487
723.328	0.0160370
723.406	0.0159441
723.484	0.0159817
723.562	0.0159550
723.640	0.0160909
723.718	0.0159779
723.797	0.0161033
723.875	0.0160838
723.953	0.0160384
724.031	0.0161778
724.109	0.0160703
724.187	0.0161064
724.265	0.0160474
724.343	0.0160477
724.422	0.0160089
724.500	0.0160393
724.578	0.0159949
724.656	0.0159607
724.734	0.0161142
724.812	0.0161823
724.890	0.0161220
724.968	0.0160219
725.047	0.0160057
725.125	0.0160110
725.203	0.0161488
725.281	0.0161462
725.359	0.0161111
725.437	0.0160328
725.515	0.0160300
725.593	0.0161243
725.672	0.0159589
725.750	0.0159695
725.828	0.0159833
725.906	0.0161221
725.984	0.0160814
726.062	0.0160776
726.140	0.0160231
726.218	0.0160888
726.297	0.0161265
726.375	0.0159352
726.453	0.0161777
726.531	0.0160657
726.609	0.0159175
726.687	0.0161080
726.765	0.0160248
726.843	0.0160973
726.922	0.0159626
727.000	0.0159962
727.078	0.0161252
727.156	0.0161543
727.234	0.0160004
727.312	0.0159533
727.390	0.0158762
727.468	0.0161644
727.547	0.0160814
727.625	0.0160526
727.703	0.0159903
727.781	0.0160617
727.859	0.0160202
727.937	0.0160657
728.015	0.0160323
728.093	0.0158935
728.172	0.0159712
728.250	0.0160728
728.328	0.0160801
728.406	0.0160771
728.484	0.0159899
728.562	0.0160369
728.640	0.0160864
728.718	0.0160973
728.797	0.0160554
728.875	0.0157832
728.953	0.0160132
729.031	0.0159702
729.109	0.0160126
729.187	0.0160387
729.265	0.0160167
729.343	0.0160027
729.422	0.0161225
729.500	0.0159949
729.578	0.0160063
729.656	0.0161481
729.734	0.0160062
729.812	0.0161554
729.890	0.0159739
729.968	0.0158713
730.047	0.0160253
730.125	0.0159267
730.203	0.0159731
730.281	0.0159145
730.359	0.0159541
730.437	0.0159801
730.515	0.0158572
730.593	0.0159873
730.672	0.0159859
730.750	0.0160510
730.828	0.0159059
730.906	0.0158588
730.984	0.0159673
731.062	0.0159625
731.140	0.0160285
731.218	0.0159007
731.297	0.0159294
731.375	0.0159173
731.453	0.0159951
731.531	0.0159147
731.609	0.0159080
731.687	0.0159525
731.765	0.0159023
731.843	0.0160401
731.922	0.0159899
732.000	0.0159963
732.078	0.0159460
732.156	0.0160388
732.234	0.0159657
732.312	0.0158419
732.390	0.0158058
732.468	0.0158994
732.547	0.0159998
732.625	0.0158843
732.703	0.0158817
732.781	0.0160081
732.859	0.0158601
732.937	0.0158749
733.015	0.0158155
733.093	0.0159813
733.172	0.0158266
733.250	0.0158984
733.328	0.0158822
733.406	0.0159522
733.484	0.0160226
733.562	0.0158337
733.640	0.0159356
733.718	0.0159505
733.797	0.0161805
733.875	0.0159467
733.953	0.0159547
734.031	0.0159662
734.109	0.0159138
734.187	0.0158627
734.265	0.0158498
734.343	0.0159352
734.422	0.0159643
734.500	0.0158890
734.578	0.0158881
734.656	0.0159737
734.734	0.0159097
734.812	0.0159577
734.890	0.0160853
734.968	0.0159115
735.047	0.0159684
735.125	0.0160002
735.203	0.0158784
735.281	0.0160165
735.359	0.0160841
735.437	0.0159456
735.515	0.0160101
735.593	0.0160631
735.672	0.0159589
735.750	0.0159384
735.828	0.0159725
735.906	0.0159326
735.984	0.0159688
736.062	0.0160579
736.140	0.0160049
736.218	0.0158363
736.297	0.0159043
736.375	0.0159268
736.453	0.0159952
736.531	0.0160972
736.609	0.0159724
736.687	0.0159489
736.765	0.0159093
736.843	0.0158650
736.922	0.0159583
737.000	0.0160543
737.078	0.0160028
737.156	0.0158640
737.234	0.0158917
737.312	0.0159701
737.390	0.0159000
737.468	0.0159660
737.547	0.0158622
737.625	0.0160616
737.703	0.0158745
737.781	0.0159898
737.859	0.0159117
737.937	0.0158944
738.015	0.0159690
738.093	0.0159164
738.172	0.0159110
738.250	0.0158997
738.328	0.0159367
738.406	0.0157912
738.484	0.0158594
738.562	0.0158786
738.640	0.0159470
738.718	0.0160920
738.797	0.0160480
738.875	0.0161286
738.953	0.0161061
739.031	0.0160468
739.109	0.0160918
739.187	0.0161839
739.265	0.0162006
739.343	0.0162127
739.422	0.0161562
739.500	0.0160182
739.578	0.0160071
739.656	0.0160031
739.734	0.0159155
739.812	0.0158599
739.890	0.0157948
739.968	0.0155983
740.047	0.0155972
740.125	0.0156762
740.203	0.0156188
740.281	0.0155188
740.359	0.0155051
740.437	0.0155924
740.515	0.0154213
740.593	0.0157561
740.672	0.0158406
740.750	0.0162042
740.828	0.0164201
740.906	0.0167032
740.984	0.0168979
741.062	0.0169984
741.140	0.0170219
741.218	0.0171796
741.297	0.0171559
741.375	0.0172325
741.453	0.0170335
741.531	0.0169263
741.609	0.0166040
741.687	0.0162850
741.765	0.0157928
741.843	0.0154386
741.922	0.0150815
742.000	0.0144656
742.078	0.0140426
742.156	0.0137931
742.234	0.0134936
742.312	0.0132479
742.390	0.0132751
742.468	0.0134788
742.547	0.0138183
742.625	0.0142908
742.703	0.0148580
742.781	0.0154913
742.859	0.0161855
742.937	0.0169270
743.015	0.0176120
743.093	0.0182227
743.172	0.0189805
743.250	0.0195870
743.328	0.0198350
743.406	0.0201598
743.484	0.0203520
743.562	0.0201529
743.640	0.0196419
743.718	0.0190070
743.797	0.0180235
743.875	0.0167873
743.953	0.0155618
744.031	0.0142021
744.109	0.0130528
744.187	0.0121736
744.265	0.0111144
744.343	0.0106628
744.422	0.0107526
744.500	0.0108517
744.578	0.0112926
744.656	0.0119277
744.734	0.0127392
744.812	0.0135897
744.890	0.0145827
744.968	0.0155029
745.047	0.0162706
745.125	0.0174005
745.203	0.0182066
745.281	0.0188756
745.359	0.0193140
745.437	0.0197021
745.515	0.0198964
745.593	0.0197498
745.672	0.0196693
745.750	0.0192356
745.828	0.0186703
745.906	0.0179515
745.984	0.0169807
746.062	0.0159834
746.140	0.0151022
746.218	0.0144452
746.297	0.0138149
746.375	0.0133709
746.453	0.0135387
746.531	0.0136797
746.609	0.0137996
746.687	0.0142855
746.765	0.0149844
746.843	0.0152324
746.922	0.0155407
747.000	0.0159210
747.078	0.0161160
747.156	0.0161497
747.234	0.0164227
747.312	0.0166171
747.390	0.0167375
747.468	0.0170374
747.547	0.0170821
747.625	0.0174061
747.703	0.0176038
747.781	0.0176344
747.859	0.0175449
747.937	0.0173542
748.015	0.0171311
748.093	0.0165130
748.172	0.0163135
748.250	0.0156843
748.328	0.0152310
748.406	0.0147372
748.484	0.0142252
748.562	0.0140482
748.640	0.0138906
748.718	0.0137473
748.797	0.0138409
748.875	0.0140832
748.953	0.0139245
749.031	0.0140063
749.109	0.0142616
749.187	0.0144901
749.265	0.0147305
749.343	0.0150227
749.422	0.0154375
749.500	0.0159143
749.578	0.0164179
749.656	0.0171638
749.734	0.0179646
749.812	0.0185007
749.890	0.0189330
749.968	0.0193094
750.047	0.0196710
750.125	0.0196156
750.203	0.0193987
750.281	0.0192550
750.359	0.0188579
750.437	0.0183466
750.515	0.0177460
750.593	0.0172141
750.672	0.0167298
750.750	0.0163336
750.828	0.0158083
750.906	0.0154413
750.984	0.0151713
751.062	0.0148164
751.140	0.0144336
751.218	0.0143347
751.297	0.0141550
751.375	0.0140079
751.453	0.0139788
751.531	0.0138094
751.609	0.0139412
751.687	0.0139655
751.765	0.0138429
751.843	0.0140124
751.922	0.0138698
752.000	0.0140784
752.078	0.0139845
752.156	0.0141981
752.234	0.0143007
752.312	0.0144666
752.390	0.0147293
752.468	0.0148738
752.547	0.0152168
752.625	0.0155153
752.703	0.0159679
752.781	0.0164248
752.859	0.0168825
752.937	0.0173233
753.015	0.0176793
753.093	0.0182265
753.172	0.0184653
753.250	0.0188536
753.328	0.0190338
753.406	0.0191860
753.484	0.0191129
753.562	0.0188885
753.640	0.0186765
753.718	0.0181481
753.797	0.0178060
753.875	0.0173986
753.953	0.0168703
754.031	0.0161825
754.109	0.0157592
754.187	0.0152164
754.265	0.0150026
754.343	0.0147433
754.422	0.0145659
754.500	0.0141948
754.578	0.0141191
754.656	0.0141217
754.734	0.0142117
754.812	0.0142070
754.890	0.0143741
754.968	0.0145805
755.047	0.0146544
755.125	0.0150371
755.203	0.0151933
755.281	0.0157300
755.359	0.0159706
755.437	0.0161507
755.515	0.0165297
755.593	0.0166631
755.672	0.0168224
755.750	0.0169501
755.828	0.0170302
755.906	0.0168539
755.984	0.0168275
756.062	0.0169002
756.140	0.0168319
756.218	0.0167739
756.297	0.0166309
756.375	0.0164690
756.453	0.0162061
756.531	0.0160146
756.609	0.0157048
756.687	0.0157415
756.765	0.0154701
756.843	0.0151302
756.922	0.0149875
757.000	0.0147373
757.078	0.0144601
757.156	0.0142326
757.234	0.0142576
757.312	0.0143680
757.390	0.0144071
757.468	0.0142605
757.547	0.0145189
757.625	0.0147517
757.703	0.0148341
757.781	0.0150838
757.859	0.0154745
757.937	0.0155827
758.015	0.0159737
758.093	0.0162704
758.172	0.0166785
758.250	0.0170687
758.328	0.0173097
758.406	0.0177615
758.484	0.0180661
758.562	0.0182193
758.640	0.0182529
758.718	0.0180795
758.797	0.0180308
758.875	0.0178039
758.953	0.0176237
759.031	0.0173199
759.109	0.0169666
759.187	0.0166759
759.265	0.0163416
759.343	0.0160390
759.422	0.0157271
759.500	0.0155020
759.578	0.0154570
759.656	0.0150879
759.734	0.0150972
759.812	0.0149989
759.890	0.0150703
759.968	0.0150941
760.047	0.0151095
760.125	0.0153226
760.203	0.0154537
760.281	0.0156586
760.359	0.0160931
760.437	0.0160664
760.515	0.0162139
760.593	0.0160316
760.672	0.0160148
760.750	0.0159428
760.828	0.0157123
760.906	0.0154887
760.984	0.0154034
761.062	0.0150892
761.140	0.0148758
761.218	0.0148946
761.297	0.0147249
761.375	0.0146124
761.453	0.0146751
761.531	0.0146074
761.609	0.0147903
761.687	0.0149094
761.765	0.0149674
761.843	0.0151659
761.922	0.0153337
762.000	0.0156212
762.078	0.0159774
762.156	0.0161914
762.234	0.0165069
762.312	0.0166802
762.390	0.0168160
762.468	0.0170096
762.547	0.0170708
762.625	0.0169514
762.703	0.0169316
762.781	0.0168564
762.859	0.0168393
762.937	0.0165987
763.015	0.0164259
763.093	0.0163136
763.172	0.0162256
763.250	0.0161282
763.328	0.0160377
763.406	0.0160332
763.484	0.0158528
763.562	0.0159771
763.640	0.0159657
763.718	0.0157867
763.797	0.0159206
763.875	0.0161394
763.953	0.0163263
764.031	0.0161913
764.109	0.0163687
764.187	0.0163455
764.265	0.0164742
764.343	0.0166743
764.422	0.0166464
764.500	0.0167393
764.578	0.0165091
764.656	0.0166628
764.734	0.0164936
764.812	0.0165768
764.890	0.0162965
764.968	0.0160770
765.047	0.0159114
765.125	0.0156721
765.203	0.0157599
765.281	0.0153935
765.359	0.0153101
765.437	0.0152722
765.515	0.0151604
765.593	0.0150762
765.672	0.0151569
765.750	0.0151060
765.828	0.0150901
765.906	0.0150661
765.984	0.0152029
766.062	0.0153115
766.140	0.0153973
766.218	0.0154580
766.297	0.0154948
766.375	0.0155975
766.453	0.0156006
766.531	0.0156783
766.609	0.0159153
766.687	0.0160751
766.765	0.0160513
766.843	0.0161721
766.922	0.0164782
767.000	0.0163460
767.078	0.0164891
767.156	0.0164692
767.234	0.0163927
767.312	0.0165251
767.390	0.0163753
767.468	0.0162545
767.547	0.0163891
767.625	0.0161945
767.703	0.0160908
767.781	0.0159686
767.859	0.0160003
767.937	0.0159018
768.015	0.0157498
768.093	0.0158084
768.172	0.0157272
768.250	0.0157824
768.328	0.0156973
768.406	0.0157523
768.484	0.0156192
768.562	0.0156744
768.640	0.0157762
768.718	0.0156448
768.797	0.0157446
768.875	0.0155895
768.953	0.0158179
769.031	0.0157880
769.109	0.0159274
769.187	0.0157946
769.265	0.0160076
769.343	0.0162499
769.422	0.0161252
769.500	0.0162694
769.578	0.0164086
769.656	0.0164982
769.734	0.0165665
769.812	0.0166348
769.890	0.0166712
769.968	0.0165867
770.047	0.0165495
770.125	0.0166217
770.203	0.0165923
770.281	0.0163167
770.359	0.0162193
770.437	0.0161853
770.515	0.0161627
770.593	0.0159069
770.672	0.0158195
770.750	0.0156563
770.828	0.0155923
770.906	0.0153199
770.984	0.0151096
771.062	0.0151614
771.140	0.0150269
771.218	0.0149553
771.297	0.0148411
771.375	0.0148939
771.453	0.0149445
771.531	0.0148654
771.609	0.0151289
771.687	0.0150733
771.765	0.0151983
771.843	0.0152739
771.922	0.0155980
772.000	0.0156808
772.078	0.0157700
772.156	0.0159449
772.234	0.0159913
772.312	0.0161277
772.390	0.0161603
772.468	0.0161775
772.547	0.0161956
772.625	0.0161081
772.703	0.0160746
772.781	0.0160644
772.859	0.0160906
772.937	0.0161721
773.015	0.0160314
773.093	0.0160595
773.172	0.0162368
773.250	0.0161690
773.328	0.0163307
773.406	0.0163292
773.484	0.0164393
773.562	0.0164419
773.640	0.0166599
773.718	0.0167017
773.797	0.0167583
773.875	0.0167558
773.953	0.0168266
774.031	0.0169300
774.109	0.0168474
774.187	0.0170224
774.265	0.0169881
774.343	0.0167590
774.422	0.0168433
774.500	0.0169356
774.578	0.0167960
774.656	0.0165358
774.734	0.0165735
774.812	0.0165486
774.890	0.0164310
774.968	0.0162586
775.047	0.0161291
775.125	0.0159772
775.203	0.0158231
775.281	0.0157781
775.359	0.0156349
775.437	0.0156425
775.515	0.0154886
775.593	0.0153670
775.672	0.0151267
775.750	0.0150335
775.828	0.0149318
775.906	0.0150547
775.984	0.0149668
776.062	0.0149105
776.140	0.0147865
776.218	0.0148811
776.297	0.0150066
776.375	0.0152948
776.453	0.0153477
776.531	0.0154002
776.609	0.0156776
776.687	0.0156957
776.765	0.0159801
776.843	0.0160701
776.922	0.0161935
777.000	0.0161205
777.078	0.0162406
777.156	0.0163277
777.234	0.0161057
777.312	0.0160751
777.390	0.0162482
777.468	0.0158891
777.547	0.0158575
777.625	0.0158779
777.703	0.0158747
777.781	0.0157375
777.859	0.0156085
777.937	0.0156815
778.015	0.0156267
778.093	0.0156136
778.172	0.0157192
778.250	0.0157762
778.328	0.0158315
778.406	0.0160078
778.484	0.0160726
778.562	0.0162463
778.640	0.0163950
778.718	0.0163613
778.797	0.0164765
778.875	0.0165753
778.953	0.0167294
779.031	0.0167114
779.109	0.0166729
779.187	0.0166668
779.265	0.0165543
779.343	0.0165973
779.422	0.0166644
779.500	0.0163902
779.578	0.0163931
779.656	0.0163747
779.734	0.0163467
779.812	0.0161825
779.890	0.0160288
779.968	0.0160365
780.047	0.0159756
780.125	0.0159316
780.203	0.0157823
780.281	0.0157177
780.359	0.0156879
780.437	0.0155468
780.515	0.0155344
780.593	0.0156282
780.672	0.0154817
780.750	0.0152957
780.828	0.0153466
780.906	0.0153233
780.984	0.0152246
781.062	0.0152848
781.140	0.0152400
781.218	0.0153748
781.297	0.0154243
781.375	0.0155097
781.453	0.0156268
781.531	0.0158389
781.609	0.0157520
781.687	0.0161040
781.765	0.0161909
781.843	0.0162320
781.922	0.0162411
782.000	0.0163395
782.078	0.0164195
782.156	0.0163605
782.234	0.0164394
782.312	0.0164441
782.390	0.0163391
782.468	0.0160731
782.547	0.0159754
782.625	0.0160278
782.703	0.0159749
782.781	0.0159058
782.859	0.0159912
782.937	0.0159380
783.015	0.0158104
783.093	0.0158267
783.172	0.0159306
783.250	0.0159625
783.328	0.0160384
783.406	0.0160423
783.484	0.0161306
783.562	0.0161231
783.640	0.0161783
783.718	0.0162733
783.797	0.0161578
783.875	0.0161414
783.953	0.0159847
784.031	0.0160136
784.109	0.0159336
784.187	0.0157435
784.265	0.0156696
784.343	0.0156998
784.422	0.0156962
784.500	0.0157613
784.578	0.0157288
784.656	0.0156541
784.734	0.0157000
784.812	0.0157447
784.890	0.0159437
784.968	0.0158685
785.047	0.0159235
785.125	0.0161166
785.203	0.0160311
785.281	0.0161916
785.359	0.0162518
785.437	0.0161960
785.515	0.0161725
785.593	0.0162284
785.672	0.0162370
785.750	0.0161287
785.828	0.0158535
785.906	0.0158983
785.984	0.0160742
786.062	0.0160985
786.140	0.0158070
786.218	0.0158150
786.297	0.0156841
786.375	0.0155776
786.453	0.0157851
786.531	0.0158284
786.609	0.0155172
786.687	0.0157786
786.765	0.0158771
786.843	0.0158797
786.922	0.0160224
787.000	0.0160191
787.078	0.0161752
787.156	0.0162569
787.234	0.0162949
787.312	0.0162627
787.390	0.0164076
787.468	0.0164449
787.547	0.0162319
787.625	0.0163286
787.703	0.0162733
787.781	0.0162346
787.859	0.0160499
787.937	0.0162959
788.015	0.0161349
788.093	0.0160089
788.172	0.0159046
788.250	0.0157878
788.328	0.0157417
788.406	0.0156050
788.484	0.0155109
788.562	0.0154685
788.640	0.0153983
788.718	0.0155598
788.797	0.0153978
788.875	0.0154482
788.953	0.0155872
789.031	0.0155434
789.109	0.0154629
789.187	0.0155226
789.265	0.0157020
789.343	0.0157641
789.422	0.0155889
789.500	0.0158755
789.578	0.0159782
789.656	0.0159430
789.734	0.0160753
789.812	0.0161665
789.890	0.0162434
789.968	0.0162236
790.047	0.0163236
790.125	0.0162741
790.203	0.0164496
790.281	0.0161401
790.359	0.0163613
790.437	0.0161867
790.515	0.0161642
790.593	0.0160239
790.672	0.0162127
790.750	0.0161634
790.828	0.0159702
790.906	0.0158567
790.984	0.0159263
791.062	0.0157860
791.140	0.0156818
791.218	0.0157079
791.297	0.0157671
791.375	0.0156660
791.453	0.0157077
791.531	0.0158486
791.609	0.0156753
791.687	0.0158109
791.765	0.0158378
791.843	0.0159141
791.922	0.0159579
792.000	0.0160508
792.078	0.0162089
792.156	0.0162527
792.234	0.0161868
792.312	0.0163145
792.390	0.0164017
792.468	0.0162727
792.547	0.0164159
792.625	0.0163430
792.703	0.0163130
792.781	0.0162756
792.859	0.0161386
792.937	0.0161713
793.015	0.0160458
793.093	0.0160213
793.172	0.0159856
793.250	0.0158028
793.328	0.0158318
793.406	0.0157641
793.484	0.0156406
793.562	0.0156490
793.640	0.0155914
793.718	0.0157240
793.797	0.0157932
793.875	0.0157017
793.953	0.0157448
794.031	0.0156718
794.109	0.0158284
794.187	0.0157531
794.265	0.0159754
794.343	0.0159769
794.422	0.0158588
794.500	0.0160471
794.578	0.0160212
794.656	0.0159789
794.734	0.0159025
794.812	0.0158890
794.890	0.0158388
794.968	0.0158575
795.047	0.0157845
795.125	0.0157977
795.203	0.0157420
795.281	0.0160249
795.359	0.0158319
795.437	0.0157507
795.515	0.0160715
795.593	0.0160006
795.672	0.0159798
795.750	0.0160519
795.828	0.0160337
795.906	0.0159229
795.984	0.0161414
796.062	0.0161565
796.140	0.0162292
796.218	0.0161000
796.297	0.0160071
796.375	0.0160402
796.453	0.0160174
796.531	0.0160770
796.609	0.0161355
796.687	0.0160500
796.765	0.0159318
796.843	0.0159793
796.922	0.0159291
797.000	0.0160041
797.078	0.0159845
797.156	0.0158900
797.234	0.0159449
797.312	0.0161981
797.390	0.0159640
797.468	0.0158890
797.547	0.0160316
797.625	0.0159446
797.703	0.0160093
797.781	0.0160818
797.859	0.0161210
797.937	0.0161733
798.015	0.0162197
798.093	0.0159703
798.172	0.0160574
798.250	0.0161363
798.328	0.0162412
798.406	0.0160500
798.484	0.0160491
798.562	0.0159930
798.640	0.0159399
798.718	0.0159579
798.797	0.0160090
798.875	0.0160284
798.953	0.0161972
799.031	0.0161207
799.109	0.0158899
799.187	0.0160517
799.265	0.0158810
799.343	0.0159422
799.422	0.0158325
799.500	0.0158651
799.578	0.0157145
799.656	0.0156816
799.734	0.0158167
799.812	0.0157629
799.890	0.0157800
799.968	0.0156638
800.047	0.0155524
800.125	0.0156032
800.203	0.0155128
800.281	0.0155064
800.359	0.0154810
800.437	0.0156174
800.515	0.0154997
800.593	0.0157094
800.672	0.0157461
800.750	0.0158578
800.828	0.0158818
800.906	0.0160619
800.984	0.0159997
801.062	0.0160707
801.140	0.0162125
801.218	0.0163080
801.297	0.0163242
801.375	0.0163541
801.453	0.0163203
801.531	0.0164748
801.609	0.0165862
801.687	0.0164645
801.765	0.0163959
801.843	0.0162967
801.922	0.0164173
802.000	0.0163295
802.078	0.0162401
802.156	0.0161674
802.234	0.0160333
802.312	0.0159856
802.390	0.0158129
802.468	0.0157769
802.547	0.0158564
802.625	0.0158695
802.703	0.0159573
802.781	0.0158632
802.859	0.0158759
802.937	0.0158593
803.015	0.0160345
803.093	0.0159977
803.172	0.0159866
803.250	0.0161037
803.328	0.0161137
803.406	0.0161850
803.484	0.0161181
803.562	0.0162373
803.640	0.0161966
803.718	0.0160553
803.797	0.0160078
803.875	0.0161087
803.953	0.0159435
804.031	0.0160674
804.109	0.0160162
804.187	0.0158534
804.265	0.0159536
804.343	0.0159132
804.422	0.0159343
804.500	0.0158087
804.578	0.0157089
804.656	0.0159080
804.734	0.0157677
804.812	0.0159183
804.890	0.0157835
804.968	0.0158920
805.047	0.0158753
805.125	0.0159094
805.203	0.0159289
805.281	0.0159861
805.359	0.0159851
805.437	0.0159192
805.515	0.0159860
805.593	0.0160741
805.672	0.0158022
805.750	0.0159739
805.828	0.0161134
805.906	0.0160625
805.984	0.0158947
806.062	0.0159104
806.140	0.0160397
806.218	0.0158861
806.297	0.0159818
806.375	0.0161116
806.453	0.0158955
806.531	0.0158984
806.609	0.0159164
806.687	0.0159846
806.765	0.0160584
806.843	0.0161404
806.922	0.0160393
807.000	0.0159871
807.078	0.0160357
807.156	0.0159118
807.234	0.0158684
807.312	0.0160506
807.390	0.0161734
807.468	0.0159286
807.547	0.0159866
807.625	0.0159827
807.703	0.0158254
807.781	0.0159336
807.859	0.0159260
807.937	0.0158806
808.015	0.0156919
808.093	0.0156342
808.172	0.0157680
808.250	0.0157597
808.328	0.0157022
808.406	0.0156949
808.484	0.0157610
808.562	0.0158208
808.640	0.0157173
808.718	0.0156204
808.797	0.0157455
808.875	0.0157797
808.953	0.0156687
809.031	0.0157245
809.109	0.0157657
809.187	0.0157014
809.265	0.0157767
809.343	0.0157168
809.422	0.0158117
809.500	0.0158879
809.578	0.0159773
809.656	0.0159708
809.734	0.0159775
809.812	0.0160172
809.890	0.0160148
809.968	0.0160487
810.047	0.0161366
810.125	0.0162505
810.203	0.0161330
810.281	0.0161132
810.359	0.0162943
810.437	0.0161447
810.515	0.0160897
810.593	0.0160258
810.672	0.0160777
810.750	0.0160397
810.828	0.0161474
810.906	0.0160458
810.984	0.0159980
811.062	0.0159590
811.140	0.0159038
811.218	0.0160683
811.297	0.0159204
811.375	0.0157811
811.453	0.0159829
811.531	0.0157179
811.609	0.0156704
811.687	0.0157952
811.765	0.0158496
811.843	0.0158275
811.922	0.0159053
812.000	0.0157613
812.078	0.0158520
812.156	0.0159403
812.234	0.0159644
812.312	0.0159310
812.390	0.0160875
812.468	0.0160510
812.547	0.0161212
812.625	0.0159921
812.703	0.0159120
812.781	0.0160065
812.859	0.0161806
812.937	0.0159325
813.015	0.0160193
813.093	0.0161209
813.172	0.0159907
813.250	0.0159374
813.328	0.0160598
813.406	0.0159129
813.484	0.0159408
813.562	0.0159027
813.640	0.0159418
813.718	0.0158728
813.797	0.0158858
813.875	0.0158908
813.953	0.0158372
814.031	0.0160141
814.109	0.0158752
814.187	0.0160200
814.265	0.0158575
814.343	0.0159136
814.422	0.0159112
814.500	0.0159078
814.578	0.0159599
814.656	0.0159385
814.734	0.0158475
814.812	0.0158368
814.890	0.0160127
814.968	0.0159974
815.047	0.0159765
815.125	0.0160024
815.203	0.0160227
815.281	0.0160484
815.359	0.0159086
815.437	0.0160091
815.515	0.0159499
815.593	0.0159327
815.672	0.0160455
815.750	0.0160604
815.828	0.0159053
815.906	0.0160135
815.984	0.0159475
816.062	0.0159621
816.140	0.0159718
816.218	0.0158997
816.297	0.0159433
816.375	0.0158804
816.453	0.0159005
816.531	0.0159292
816.609	0.0158205
816.687	0.0158313
816.765	0.0158643
816.843	0.0158997
816.922	0.0160165
817.000	0.0160015
817.078	0.0159267
817.156	0.0159908
817.234	0.0161464
817.312	0.0160135
817.390	0.0159830
817.468	0.0160343
817.547	0.0161509
817.625	0.0159817
817.703	0.0161449
817.781	0.0159949
817.859	0.0159848
817.937	0.0161069
818.015	0.0161751
818.093	0.0159196
818.172	0.0159493
818.250	0.0159666
818.328	0.0159099
818.406	0.0159676
818.484	0.0158942
818.562	0.0159203
818.640	0.0159472
818.718	0.0159003
818.797	0.0159908
818.875	0.0160300
818.953	0.0159476
819.031	0.0158637
819.109	0.0160070
819.187	0.0159189
819.265	0.0159637
819.343	0.0161957
819.422	0.0162459
819.500	0.0160916
819.578	0.0160014
819.656	0.0161452
819.734	0.0159695
819.812	0.0159611
819.890	0.0159770
819.968	0.0159557
820.047	0.0159464
820.125	0.0158470
820.203	0.0159600
820.281	0.0159090
820.359	0.0158367
820.437	0.0157206
820.515	0.0157944
820.593	0.0158413
820.672	0.0158543
820.750	0.0158661
820.828	0.0158418
820.906	0.0159765
820.984	0.0159833
821.062	0.0160678
821.140	0.0159482
821.218	0.0159490
821.297	0.0162179
821.375	0.0161028
821.453	0.0160424
821.531	0.0161040
821.609	0.0162003
821.687	0.0160938
821.765	0.0161335
821.843	0.0162743
821.922	0.0162314
822.000	0.0159823
822.078	0.0159792
822.156	0.0160731
822.234	0.0160707
822.312	0.0159401
822.390	0.0159404
822.468	0.0158698
822.547	0.0159334
822.625	0.0158351
822.703	0.0158401
822.781	0.0157690
822.859	0.0157664
822.937	0.0160410
823.015	0.0158443
823.093	0.0158997
823.172	0.0158897
823.250	0.0158065
823.328	0.0158432
823.406	0.0159317
823.484	0.0158327
823.562	0.0158916
823.640	0.0159499
823.718	0.0159673
823.797	0.0159225
823.875	0.0158164
823.953	0.0161115
824.031	0.0159776
824.109	0.0159754
824.187	0.0159405
824.265	0.0160411
824.343	0.0159615
824.422	0.0159773
824.500	0.0160483
824.578	0.0160004
824.656	0.0160161
824.734	0.0159758
824.812	0.0159169
824.890	0.0158686
824.968	0.0159016
825.047	0.0160060
825.125	0.0158778
825.203	0.0158071
825.281	0.0158089
825.359	0.0159496
825.437	0.0159389
825.515	0.0158823
825.593	0.0159573
825.672	0.0158384
825.750	0.0159845
825.828	0.0160683
825.906	0.0160728
825.984	0.0161483
826.062	0.0161135
826.140	0.0159651
826.218	0.0161498
826.297	0.0161755
826.375	0.0159569
826.453	0.0159896
826.531	0.0160252
826.609	0.0160024
826.687	0.0160133
826.765	0.0159966
826.843	0.0160025
826.922	0.0160426
827.000	0.0159212
827.078	0.0160178
827.156	0.0159298
827.234	0.0159096
827.312	0.0158946
827.390	0.0158421
827.468	0.0160356
827.547	0.0159977
827.625	0.0158818
827.703	0.0159915
827.781	0.0160063
827.859	0.0159392
827.937	0.0159123
828.015	0.0160175
828.093	0.0160155
828.172	0.0160508
828.250	0.0161069
828.328	0.0160754
828.406	0.0161411
828.484	0.0158424
828.562	0.0161192
828.640	0.0161121
828.718	0.0159700
828.797	0.0158265
828.875	0.0159000
828.953	0.0159059
829.031	0.0157370
829.109	0.0159251
829.187	0.0159664
829.265	0.0159278
829.343	0.0158136
829.422	0.0159508
829.500	0.0159797
829.578	0.0160020
829.656	0.0158711
829.734	0.0158572
829.812	0.0159779
829.890	0.0161329
829.968	0.0159484
830.047	0.0158993
830.125	0.0158221
830.203	0.0160116
830.281	0.0159226
830.359	0.0159207
830.437	0.0160387
830.515	0.0161147
830.593	0.0158939
830.672	0.0158482
830.750	0.0158530
830.828	0.0158038
830.906	0.0159917
830.984	0.0158703
831.062	0.0158901
831.140	0.0159547
831.218	0.0158570
831.297	0.0157737
831.375	0.0158304
831.453	0.0158421
831.531	0.0159711
831.609	0.0158895
831.687	0.0159435
831.765	0.0158439
831.843	0.0159269
831.922	0.0160452
832.000	0.0159144
832.078	0.0160699
832.156	0.0159663
832.234	0.0161285
832.312	0.0160344
832.390	0.0160986
832.468	0.0160937
832.547	0.0161115
832.625	0.0162665
832.703	0.0161359
832.781	0.0160117
832.859	0.0159840
832.937	0.0158746
833.015	0.0159864
833.093	0.0159286
833.172	0.0159100
833.250	0.0159776
833.328	0.0158986
833.406	0.0158884
833.484	0.0159205
833.562	0.0158772
833.640	0.0158729
833.718	0.0157632
833.797	0.0157530
833.875	0.0157957
833.953	0.0158167
834.031	0.0158987
834.109	0.0158871
834.187	0.0157656
834.265	0.0159073
834.343	0.0160123
834.422	0.0160720
834.500	0.0160043
834.578	0.0158835
834.656	0.0159875
834.734	0.0159390
834.812	0.0158589
834.890	0.0160490
834.968	0.0160983
835.047	0.0160121
835.125	0.0160339
835.203	0.0159754
835.281	0.0161365
835.359	0.0160159
835.437	0.0161576
835.515	0.0161101
835.593	0.0159393
835.672	0.0161390
835.750	0.0160842
835.828	0.0160509
835.906	0.0159238
835.984	0.0159265
836.062	0.0160068
836.140	0.0158401
836.218	0.0159205
836.297	0.0158418
836.375	0.0159405
836.453	0.0158871
836.531	0.0158880
836.609	0.0158463
836.687	0.0159409
836.765	0.0159501
836.843	0.0159498
836.922	0.0160112
837.000	0.0159000
837.078	0.0159344
837.156	0.0160000
837.234	0.0160013
837.312	0.0161630
837.390	0.0161155
837.468	0.0159330
837.547	0.0159973
837.625	0.0159082
837.703	0.0160951
837.781	0.0160599
837.859	0.0160791
837.937	0.0162014
838.015	0.0160502
838.093	0.0159669
838.172	0.0160339
838.250	0.0160897
838.328	0.0160067
838.406	0.0158354
838.484	0.0159010
838.562	0.0158846
838.640	0.0159015
838.718	0.0159148
838.797	0.0156580
838.875	0.0157459
838.953	0.0156386
839.031	0.0158057
839.109	0.0157429
839.187	0.0156055
839.265	0.0155610
839.343	0.0157952
839.422	0.0158136
839.500	0.0157527
839.578	0.0157992
839.656	0.0159119
839.734	0.0159545
839.812	0.0159318
839.890	0.0160457
839.968	0.0161073
840.047	0.0162392
840.125	0.0161469
840.203	0.0162082
840.281	0.0162202
840.359	0.0161228
840.437	0.0161861
840.515	0.0162984
840.593	0.0161377
840.672	0.0161348
840.750	0.0160242
840.828	0.0160139
840.906	0.0159521
840.984	0.0159444
841.062	0.0158154
841.140	0.0158002
841.218	0.0156662
841.297	0.0155837
841.375	0.0156058
841.453	0.0155999
841.531	0.0156490
841.609	0.0155579
841.687	0.0156257
841.765	0.0156881
841.843	0.0156194
841.922	0.0158886
842.000	0.0158701
842.078	0.0158612
842.156	0.0160319
842.234	0.0159411
842.312	0.0160944
842.390	0.0161670
842.468	0.0160683
842.547	0.0161723
842.625	0.0161895
842.703	0.0164563
842.781	0.0165366
842.859	0.0162974
842.937	0.0165107
843.015	0.0163233
843.093	0.0163585
843.172	0.0162695
843.250	0.0161612
843.328	0.0161711
843.406	0.0160431
843.484	0.0160006
843.562	0.0158486
843.640	0.0157642
843.718	0.0157285
843.797	0.0156781
843.875	0.0158250
843.953	0.0158080
844.031	0.0156639
844.109	0.0157568
844.187	0.0157565
844.265	0.0158382
844.343	0.0159185
844.422	0.0158066
844.500	0.0158313
844.578	0.0158718
844.656	0.0158656
844.734	0.0158506
844.812	0.0159682
844.890	0.0160789
844.968	0.0160619
845.047	0.0160397
845.125	0.0161840
845.203	0.0161754
845.281	0.0161160
845.359	0.0160647
845.437	0.0161600
845.515	0.0160149
845.593	0.0158804
845.672	0.0159560
845.750	0.0158648
845.828	0.0157413
845.906	0.0157748
845.984	0.0158940
846.062	0.0156879
846.140	0.0158670
846.218	0.0158397
846.297	0.0158400
846.375	0.0158165
846.453	0.0159029
846.531	0.0158545
846.609	0.0157204
846.687	0.0160620
846.765	0.0160157
846.843	0.0159851
846.922	0.0160501
847.000	0.0160693
847.078	0.0161793
847.156	0.0161851
847.234	0.0161413
847.312	0.0161382
847.390	0.0164388
847.468	0.0161671
847.547	0.0161245
847.625	0.0163638
847.703	0.0162185
847.781	0.0161039
847.859	0.0161409
847.937	0.0161195
848.015	0.0160036
848.093	0.0158521
848.172	0.0158490
848.250	0.0158630
848.328	0.0157864
848.406	0.0158240
848.484	0.0155020
848.562	0.0156468
848.640	0.0156857
848.718	0.0154701
848.797	0.0155434
848.875	0.0156066
848.953	0.0155277
849.031	0.0155945
849.109	0.0156062
849.187	0.0155959
849.265	0.0155677
849.343	0.0154732
849.422	0.0156623
849.500	0.0156949
849.578	0.0157409
849.656	0.0158699
849.734	0.0160185
849.812	0.0160883
849.890	0.0161317
849.968	0.0162384
850.047	0.0161435
850.125	0.0162389
850.203	0.0163630
850.281	0.0162587
850.359	0.0162083
850.437	0.0162315
850.515	0.0162215
850.593	0.0163583
850.672	0.0160759
850.750	0.0161826
850.828	0.0161515
850.906	0.0162950
850.984	0.0162379
851.062	0.0162843
851.140	0.0161089
851.218	0.0158987
851.297	0.0159488
851.375	0.0160099
851.453	0.0158537
851.531	0.0158395
851.609	0.0157571
851.687	0.0158217
851.765	0.0156461
851.843	0.0157519
851.922	0.0156450
852.000	0.0157790
852.078	0.0157547
852.156	0.0156310
852.234	0.0158240
852.312	0.0158562
852.390	0.0157191
852.468	0.0158070
852.547	0.0158932
852.625	0.0159279
852.703	0.0158587
852.781	0.0159783
852.859	0.0159878
852.937	0.0158622
853.015	0.0161712
853.093	0.0160558
853.172	0.0159956
853.250	0.0159470
853.328	0.0160416
853.406	0.0159938
853.484	0.0159791
853.562	0.0159565
853.640	0.0157883
853.718	0.0158527
853.797	0.0158942
853.875	0.0157262
853.953	0.0156662
854.031	0.0158076
854.109	0.0157576
854.187	0.0157217
854.265	0.0158384
854.343	0.0157687
854.422	0.0158073
854.500	0.0159170
854.578	0.0158556
854.656	0.0159954
854.734	0.0159669
854.812	0.0160426
854.890	0.0160131
854.968	0.0160656
855.047	0.0160137
855.125	0.0160857
855.203	0.0160158
855.281	0.0160057
855.359	0.0160432
855.437	0.0160214
855.515	0.0160522
855.593	0.0160545
855.672	0.0160763
855.750	0.0160764
855.828	0.0159767
855.906	0.0160606
855.984	0.0160281
856.062	0.0158672
856.140	0.0160705
856.218	0.0160594
856.297	0.0160294
856.375	0.0159342
856.453	0.0160384
856.531	0.0159554
856.609	0.0159104
856.687	0.0160637
856.765	0.0159798
856.843	0.0160018
856.922	0.0159656
857.000	0.0159691
857.078	0.0160112
857.156	0.0159951
857.234	0.0159933
857.312	0.0159398
857.390	0.0159234
857.468	0.0159328
857.547	0.0158329
857.625	0.0159845
857.703	0.0158872
857.781	0.0157556
857.859	0.0157774
857.937	0.0158807
858.015	0.0158015
858.093	0.0157420
858.172	0.0158231
858.250	0.0157742
858.328	0.0158262
858.406	0.0158882
858.484	0.0157617
858.562	0.0158720
858.640	0.0159157
858.718	0.0157146
858.797	0.0159226
858.875	0.0159484
858.953	0.0160370
859.031	0.0161281
859.109	0.0160592
859.187	0.0160858
859.265	0.0161264
859.343	0.0162328
859.422	0.0161137
859.500	0.0160504
859.578	0.0160588
859.656	0.0161688
859.734	0.0160537
859.812	0.0160550
859.890	0.0160151
859.968	0.0159447
860.047	0.0160447
860.125	0.0160551
860.203	0.0159485
860.281	0.0160672
860.359	0.0160757
860.437	0.0161915
860.515	0.0160059
860.593	0.0160263
860.672	0.0159373
860.750	0.0159587
860.828	0.0158263
860.906	0.0159309
860.984	0.0159670
861.062	0.0158408
861.140	0.0158492
861.218	0.0159232
861.297	0.0158661
861.375	0.0158165
861.453	0.0159035
861.531	0.0159507
861.609	0.0160670
861.687	0.0160905
861.765	0.0159356
861.843	0.0160149
861.922	0.0158799
862.000	0.0160755
862.078	0.0160160
862.156	0.0160851
862.234	0.0159673
862.312	0.0159585
862.390	0.0159843
862.468	0.0158966
862.547	0.0160306
862.625	0.0159101
862.703	0.0158232
862.781	0.0160254
862.859	0.0160462
862.937	0.0159718
863.015	0.0159803
863.093	0.0159155
863.172	0.0159393
863.250	0.0160408
863.328	0.0159457
863.406	0.0158871
863.484	0.0159533
863.562	0.0158104
863.640	0.0158221
863.718	0.0159779
863.797	0.0160616
863.875	0.0160749
863.953	0.0160507
864.031	0.0159267
864.109	0.0159669
864.187	0.0160364
864.265	0.0161044
864.343	0.0160503
864.422	0.0158228
864.500	0.0159893
864.578	0.0159782
864.656	0.0160405
864.734	0.0159762
864.812	0.0157420
864.890	0.0158704
864.968	0.0159058
865.047	0.0158737
865.125	0.0159190
865.203	0.0158884
865.281	0.0159415
865.359	0.0158447
865.437	0.0158888
865.515	0.0158665
865.593	0.0157843
865.672	0.0158802
865.750	0.0158478
865.828	0.0159470
865.906	0.0161197
865.984	0.0160912
866.062	0.0160873
866.140	0.0160924
866.218	0.0160898
866.297	0.0159930
866.375	0.0160316
866.453	0.0160207
866.531	0.0162125
866.609	0.0161235
866.687	0.0161362
866.765	0.0160689
866.843	0.0160188
866.922	0.0158491
867.000	0.0160204
867.078	0.0160380
867.156	0.0158475
867.234	0.0158568
867.312	0.0158088
867.390	0.0160122
867.468	0.0158845
867.547	0.0157693
867.625	0.0157960
867.703	0.0158273
867.781	0.0158002
867.859	0.0158139
867.937	0.0158315
868.015	0.0158268
868.093	0.0160015
868.172	0.0159972
868.250	0.0159940
868.328	0.0160371
868.406	0.0161266
868.484	0.0159517
868.562	0.0159013
868.640	0.0161295
868.718	0.0160241
868.797	0.0158949
868.875	0.0160452
868.953	0.0159663
869.031	0.0158636
869.109	0.0157354
869.187	0.0157001
869.265	0.0157472
869.343	0.0158202
869.422	0.0157690
869.500	0.0157672
869.578	0.0157461
869.656	0.0157269
869.734	0.0159225
869.812	0.0157932
869.890	0.0158697
869.968	0.0157369
870.047	0.0158459
870.125	0.0159296
870.203	0.0158913
870.281	0.0160110
870.359	0.0161124
870.437	0.0161900
870.515	0.0161386
870.593	0.0161016
870.672	0.0162566
870.750	0.0163302
870.828	0.0162655
870.906	0.0163845
870.984	0.0162953
871.062	0.0162870
871.140	0.0161514
871.218	0.0162023
871.297	0.0161364
871.375	0.0161477
871.453	0.0161467
871.531	0.0161538
871.609	0.0159000
871.687	0.0160175
871.765	0.0159047
871.843	0.0158868
871.922	0.0156935
872.000	0.0157619
872.078	0.0157479
872.156	0.0155733
872.234	0.0157253
872.312	0.0156438
872.390	0.0157249
872.468	0.0157172
872.547	0.0157619
872.625	0.0157436
872.703	0.0156214
872.781	0.0157163
872.859	0.0158776
872.937	0.0159039
873.015	0.0158087
873.093	0.0156758
873.172	0.0159058
873.250	0.0157557
873.328	0.0157809
873.406	0.0160591
873.484	0.0158473
873.562	0.0158773
873.640	0.0159589
873.718	0.0160246
873.797	0.0159702
873.875	0.0160275
873.953	0.0159740
874.031	0.0159158
874.109	0.0158782
874.187	0.0160060
874.265	0.0159348
874.343	0.0159325
874.422	0.0159447
874.500	0.0161404
874.578	0.0159613
874.656	0.0160444
874.734	0.0161700
874.812	0.0159964
874.890	0.0160585
874.968	0.0162642
875.047	0.0159795
875.125	0.0161900
875.203	0.0162177
875.281	0.0162561
875.359	0.0161543
875.437	0.0161348
875.515	0.0159484
875.593	0.0160222
875.672	0.0159965
875.750	0.0162447
875.828	0.0160203
875.906	0.0160348
875.984	0.0161433
876.062	0.0160674
876.140	0.0161150
876.218	0.0162269
876.297	0.0160628
876.375	0.0159812
876.453	0.0159488
876.531	0.0159903
876.609	0.0158954
876.687	0.0159604
876.765	0.0159449
876.843	0.0159637
876.922	0.0159348
877.000	0.0159007
877.078	0.0159649
877.156	0.0159304
877.234	0.0157892
877.312	0.0159953
877.390	0.0158531
877.468	0.0158316
877.547	0.0158012
877.625	0.0158691
877.703	0.0157379
877.781	0.0157814
877.859	0.0158625
877.937	0.0158964
878.015	0.0158382
878.093	0.0158611
878.172	0.0159992
878.250	0.0158276
878.328	0.0158450
878.406	0.0159930
878.484	0.0159446
878.562	0.0160119
878.640	0.0159808
878.718	0.0159392
878.797	0.0159124
878.875	0.0158542
878.953	0.0158141
879.031	0.0158604
879.109	0.0159334
879.187	0.0160439
879.265	0.0159364
879.343	0.0158530
879.422	0.0160341
879.500	0.0159146
879.578	0.0159878
879.656	0.0160448
879.734	0.0161142
879.812	0.0161390
879.890	0.0159978
879.968	0.0161140
880.047	0.0160146
880.125	0.0158951
880.203	0.0160783
880.281	0.0160468
880.359	0.0159655
880.437	0.0159387
880.515	0.0159505
880.593	0.0160376
880.672	0.0159351
880.750	0.0159445
880.828	0.0158691
880.906	0.0157536
880.984	0.0159513
881.062	0.0158968
881.140	0.0159937
881.218	0.0160664
881.297	0.0159963
881.375	0.0160990
881.453	0.0160663
881.531	0.0159224
881.609	0.0159849
881.687	0.0160970
881.765	0.0159024
881.843	0.0160062
881.922	0.0161220
882.000	0.0161079
882.078	0.0160914
882.156	0.0161176
882.234	0.0159604
882.312	0.0160361
882.390	0.0160602
882.468	0.0158671
882.547	0.0159496
882.625	0.0159937
882.703	0.0159491
882.781	0.0159166
882.859	0.0158791
882.937	0.0159238
883.015	0.0158714
883.093	0.0158786
883.172	0.0160072
883.250	0.0159888
883.328	0.0159924
883.406	0.0159382
883.484	0.0161163
883.562	0.0160484
883.640	0.0161196
883.718	0.0160273
883.797	0.0161481
883.875	0.0159916
883.953	0.0161957
884.031	0.0159060
884.109	0.0160075
884.187	0.0160507
884.265	0.0160126
884.343	0.0159119
884.422	0.0159692
884.500	0.0159849
884.578	0.0159045
884.656	0.0158463
884.734	0.0158621
884.812	0.0159241
884.890	0.0158224
884.968	0.0158354
885.047	0.0158810
885.125	0.0157107
885.203	0.0157903
885.281	0.0158620
885.359	0.0157685
885.437	0.0158743
885.515	0.0158321
885.593	0.0160162
885.672	0.0159695
885.750	0.0161392
885.828	0.0159829
885.906	0.0161328
885.984	0.0161184
886.062	0.0161970
886.140	0.0162593
886.218	0.0162325
886.297	0.0161890
886.375	0.0162539
886.453	0.0162246
886.531	0.0161715
886.609	0.0162543
886.687	0.0160029
886.765	0.0161748
886.843	0.0161142
886.922	0.0160785
887.000	0.0160850
887.078	0.0160452
887.156	0.0160104
887.234	0.0160369
887.312	0.0160590
887.390	0.0159300
887.468	0.0160658
887.547	0.0160143
887.625	0.0159520
887.703	0.0158856
887.781	0.0160390
887.859	0.0160088
887.937	0.0160081
888.015	0.0159962
888.093	0.0159689
888.172	0.0160525
888.250	0.0159649
888.328	0.0159194
888.406	0.0160307
888.484	0.0160245
888.562	0.0160235
888.640	0.0158820
888.718	0.0159328
888.797	0.0159623
888.875	0.0159433
888.953	0.0160058
889.031	0.0160168
889.109	0.0161242
889.187	0.0160905
889.265	0.0160568
889.343	0.0159613
889.422	0.0159412
889.500	0.0159356
889.578	0.0159613
889.656	0.0158308
889.734	0.0158611
889.812	0.0159615
889.890	0.0158525
889.968	0.0158958
890.047	0.0158501
890.125	0.0157996
890.203	0.0158060
890.281	0.0157934
890.359	0.0158265
890.437	0.0157034
890.515	0.0158691
890.593	0.0158243
890.672	0.0158880
890.750	0.0158587
890.828	0.0158228
890.906	0.0158730
890.984	0.0160056
891.062	0.0160558
891.140	0.0160013
891.218	0.0159479
891.297	0.0158543
891.375	0.0161478
891.453	0.0160289
891.531	0.0160011
891.609	0.0159081
891.687	0.0160404
891.765	0.0160832
891.843	0.0160869
891.922	0.0161398
892.000	0.0159534
892.078	0.0159952
892.156	0.0158511
892.234	0.0159585
892.312	0.0159624
892.390	0.0159467
892.468	0.0159026
892.547	0.0159254
892.625	0.0158620
892.703	0.0157466
892.781	0.0157458
892.859	0.0159165
892.937	0.0158820
893.015	0.0158111
893.093	0.0157069
893.172	0.0157642
893.250	0.0157263
893.328	0.0157890
893.406	0.0158436
893.484	0.0158694
893.562	0.0158545
893.640	0.0158910
893.718	0.0158144
893.797	0.0159637
893.875	0.0159774
893.953	0.0159196
894.031	0.0159675
894.109	0.0159608
894.187	0.0159953
894.265	0.0159431
894.343	0.0161423
894.422	0.0160363
894.500	0.0158948
894.578	0.0161766
894.656	0.0159559
894.734	0.0159932
894.812	0.0160108
894.890	0.0160223
894.968	0.0160715
895.047	0.0160065
895.125	0.0158746
895.203	0.0159346
895.281	0.0159583
895.359	0.0159374
895.437	0.0160896
895.515	0.0159612
895.593	0.0159293
895.672	0.0158459
895.750	0.0157551
895.828	0.0159696
895.906	0.0160010
895.984	0.0158907
896.062	0.0159718
896.140	0.0160754
896.218	0.0159633
896.297	0.0158580
896.375	0.0160616
896.453	0.0159118
896.531	0.0159012
896.609	0.0157937
896.687	0.0158475
896.765	0.0159500
896.843	0.0158959
896.922	0.0158826
897.000	0.0159139
897.078	0.0160101
897.156	0.0158961
897.234	0.0158484
897.312	0.0159593
897.390	0.0160069
897.468	0.0161022
897.547	0.0159669
897.625	0.0158224
897.703	0.0160097
897.781	0.0160867
897.859	0.0160258
897.937	0.0161079
898.015	0.0161575
898.093	0.0162295
898.172	0.0161395
898.250	0.0160474
898.328	0.0161279
898.406	0.0161167
898.484	0.0160266
898.562	0.0161195
898.640	0.0161129
898.718	0.0159923
898.797	0.0159047
898.875	0.0159077
898.953	0.0159486
899.031	0.0159274
899.109	0.0159834
899.187	0.0159788
899.265	0.0158841
899.343	0.0159542
899.422	0.0159801
899.500	0.0158474
899.578	0.0159751
899.656	0.0159722
899.734	0.0158805
899.812	0.0157222
899.890	0.0158380
899.968	0.0158170
900.047	0.0160263
900.125	0.0158529
900.203	0.0158062
900.281	0.0159658
900.359	0.0160213
900.437	0.0160483
900.515	0.0160292
900.593	0.0161632
900.672	0.0161416
900.750	0.0161977
900.828	0.0161369
900.906	0.0162432
900.984	0.0160927
901.062	0.0159866
901.140	0.0160338
901.218	0.0161725
901.297	0.0160612
901.375	0.0160630
901.453	0.0159233
901.531	0.0158115
901.609	0.0158574
901.687	0.0160452
901.765	0.0158887
901.843	0.0159906
901.922	0.0160277
902.000	0.0157885
902.078	0.0160192
902.156	0.0158674
902.234	0.0159603
902.312	0.0159332
902.390	0.0159453
902.468	0.0161005
902.547	0.0160148
902.625	0.0159699
902.703	0.0160252
902.781	0.0159215
902.859	0.0159182
902.937	0.0160395
903.015	0.0159776
903.093	0.0158878
903.172	0.0158986
903.250	0.0160017
903.328	0.0158816
903.406	0.0159515
903.484	0.0159595
903.562	0.0158485
903.640	0.0158707
903.718	0.0157533
903.797	0.0159937
903.875	0.0159016
903.953	0.0158136
904.031	0.0159094
904.109	0.0159213
904.187	0.0158775
904.265	0.0157284
904.343	0.0158070
904.422	0.0159547
904.500	0.0159536
904.578	0.0158026
904.656	0.0158064
904.734	0.0158106
904.812	0.0159708
904.890	0.0159930
904.968	0.0159055
905.047	0.0159489
905.125	0.0160285
905.203	0.0160058
905.281	0.0160022
905.359	0.0160506
905.437	0.0160750
905.515	0.0160805
905.593	0.0159393
905.672	0.0159682
905.750	0.0160335
905.828	0.0160782
905.906	0.0160492
905.984	0.0160472
906.062	0.0159881
906.140	0.0158664
906.218	0.0160637
906.297	0.0160562
906.375	0.0160551
906.453	0.0160639
906.531	0.0159932
906.609	0.0161578
906.687	0.0161682
906.765	0.0160259
906.843	0.0161642
906.922	0.0161574
907.000	0.0161147
907.078	0.0160292
907.156	0.0161871
907.234	0.0161909
907.312	0.0162057
907.390	0.0163001
907.468	0.0160570
907.547	0.0160805
907.625	0.0160454
907.703	0.0160989
907.781	0.0159991
907.859	0.0160400
907.937	0.0159191
908.015	0.0159895
908.093	0.0160658
908.172	0.0159330
908.250	0.0158424
908.328	0.0158174
908.406	0.0159893
908.484	0.0159325
908.562	0.0159467
908.640	0.0158054
908.718	0.0158759
908.797	0.0159543
908.875	0.0158291
908.953	0.0159059
909.031	0.0159766
909.109	0.0160558
909.187	0.0159838
909.265	0.0159508
909.343	0.0161922
909.422	0.0161274
909.500	0.0161694
909.578	0.0161140
909.656	0.0160769
909.734	0.0160931
909.812	0.0160963
909.890	0.0162297
909.968	0.0159901
910.047	0.0158881
910.125	0.0159012
910.203	0.0159167
910.281	0.0158965
910.359	0.0159982
910.437	0.0159596
910.515	0.0158913
910.593	0.0157664
910.672	0.0158647
910.750	0.0158163
910.828	0.0158192
910.906	0.0158630
910.984	0.0158960
911.062	0.0158504
911.140	0.0157516
911.218	0.0158417
911.297	0.0160902
911.375	0.0159756
911.453	0.0160163
911.531	0.0160584
911.609	0.0160690
911.687	0.0160941
911.765	0.0160748
911.843	0.0161215
911.922	0.0160525
912.000	0.0161656
912.078	0.0161700
912.156	0.0160472
912.234	0.0160648
912.312	0.0160432
912.390	0.0161052
912.468	0.0159890
912.547	0.0159621
912.625	0.0159371
912.703	0.0159403
912.781	0.0159891
912.859	0.0157777
912.937	0.0158606
913.015	0.0157634
913.093	0.0159176
913.172	0.0159455
913.250	0.0157720
913.328	0.0158607
913.406	0.0159347
913.484	0.0159080
913.562	0.0159274
913.640	0.0160281
913.718	0.0159747
913.797	0.0159548
913.875	0.0161290
913.953	0.0161321
914.031	0.0160538
914.109	0.0161775
914.187	0.0160770
914.265	0.0159966
914.343	0.0159633
914.422	0.0159799
914.500	0.0160040
914.578	0.0158989
914.656	0.0159121
914.734	0.0158785
914.812	0.0158047
914.890	0.0157605
914.968	0.0157825
915.047	0.0157856
915.125	0.0155972
915.203	0.0157005
915.281	0.0158346
915.359	0.0158614
915.437	0.0158116
915.515	0.0158051
915.593	0.0157432
915.672	0.0156809
915.750	0.0159718
915.828	0.0159747
915.906	0.0160299
915.984	0.0159536
916.062	0.0161201
916.140	0.0160741
916.218	0.0162358
916.297	0.0162180
916.375	0.0162498
916.453	0.0161525
916.531	0.0161188
916.609	0.0160504
916.687	0.0160632
916.765	0.0159658
916.843	0.0159464
916.922	0.0159914
917.000	0.0160398
917.078	0.0159378
917.156	0.0158490
917.234	0.0158808
917.312	0.0159261
917.390	0.0158252
917.468	0.0157976
917.547	0.0158466
917.625	0.0158297
917.703	0.0158357
917.781	0.0156700
917.859	0.0157098
917.937	0.0158275
918.015	0.0157805
918.093	0.0159253
918.172	0.0158853
918.250	0.0159200
918.328	0.0158150
918.406	0.0159687
918.484	0.0159937
918.562	0.0159432
918.640	0.0160151
918.718	0.0159286
918.797	0.0158740
918.875	0.0159203
918.953	0.0160078
919.031	0.0159230
919.109	0.0160265
919.187	0.0159152
919.265	0.0159946
919.343	0.0158288
919.422	0.0158469
919.500	0.0159067
919.578	0.0158070
919.656	0.0157861
919.734	0.0158201
919.812	0.0157333
919.890	0.0157450
