06/13/2022	14:37:33	Ver.	4.1	UNKNOWN
Optical Delay	599.968395	Delta X		0.078125	Sweeps	1	Scan Rate	0/0
Coordinates	Axis 1	NaN	Axis 2	NaN	Axis 3	NaN	Axis 4	NaN	Axis 5	NaN	Axis 6	0.000000
TX Power	0.000000	RX Power	0.000000

599.968	0.0155303
600.047	0.0154366
600.125	0.0155365
600.203	0.0156081
600.281	0.0154079
600.359	0.0155446
600.437	0.0155131
600.515	0.0154279
600.593	0.0154737
600.672	0.0154719
600.750	0.0154128
600.828	0.0155025
600.906	0.0154061
600.984	0.0154198
601.062	0.0153570
601.140	0.0155019
601.218	0.0155598
601.297	0.0154078
601.375	0.0155275
601.453	0.0153792
601.531	0.0154916
601.609	0.0156033
601.687	0.0155666
601.765	0.0154271
601.843	0.0154799
601.922	0.0155816
602.000	0.0155331
602.078	0.0155476
602.156	0.0154996
602.234	0.0155216
602.312	0.0156136
602.390	0.0155840
602.468	0.0154031
602.547	0.0155217
602.625	0.0155151
602.703	0.0154099
602.781	0.0155242
602.859	0.0154395
602.937	0.0155169
603.015	0.0155067
603.093	0.0154932
603.172	0.0155193
603.250	0.0154302
603.328	0.0155124
603.406	0.0155424
603.484	0.0155454
603.562	0.0154230
603.640	0.0154713
603.718	0.0156540
603.797	0.0155640
603.875	0.0154787
603.953	0.0154907
604.031	0.0155410
604.109	0.0154441
604.187	0.0154492
604.265	0.0155334
604.343	0.0155405
604.422	0.0155375
604.500	0.0154553
604.578	0.0155862
604.656	0.0155033
604.734	0.0155033
604.812	0.0154922
604.890	0.0155666
604.968	0.0154406
605.047	0.0156008
605.125	0.0154716
605.203	0.0155753
605.281	0.0155980
605.359	0.0156706
605.437	0.0154668
605.515	0.0153671
605.593	0.0154922
605.672	0.0154974
605.750	0.0154287
605.828	0.0154885
605.906	0.0156717
605.984	0.0156793
606.062	0.0155624
606.140	0.0154575
606.218	0.0153913
606.297	0.0154247
606.375	0.0154483
606.453	0.0154140
606.531	0.0155027
606.609	0.0154890
606.687	0.0156816
606.765	0.0156674
606.843	0.0154615
606.922	0.0154598
607.000	0.0154241
607.078	0.0155627
607.156	0.0156145
607.234	0.0155121
607.312	0.0156357
607.390	0.0154869
607.468	0.0154665
607.547	0.0155502
607.625	0.0154652
607.703	0.0155270
607.781	0.0156060
607.859	0.0155310
607.937	0.0155638
608.015	0.0155138
608.093	0.0154062
608.172	0.0153193
608.250	0.0153659
608.328	0.0155424
608.406	0.0155303
608.484	0.0154556
608.562	0.0154517
608.640	0.0155753
608.718	0.0156084
608.797	0.0154749
608.875	0.0155042
608.953	0.0154852
609.031	0.0154533
609.109	0.0155279
609.187	0.0156084
609.265	0.0157153
609.343	0.0155605
609.422	0.0155443
609.500	0.0156536
609.578	0.0155014
609.656	0.0155965
609.734	0.0154609
609.812	0.0155946
609.890	0.0155008
609.968	0.0155707
610.047	0.0156198
610.125	0.0156297
610.203	0.0154751
610.281	0.0154872
610.359	0.0155695
610.437	0.0155891
610.515	0.0155616
610.593	0.0154942
610.672	0.0154623
610.750	0.0156040
610.828	0.0155315
610.906	0.0155255
610.984	0.0157264
611.062	0.0155573
611.140	0.0155531
611.218	0.0155379
611.297	0.0155507
611.375	0.0155041
611.453	0.0154746
611.531	0.0155633
611.609	0.0155394
611.687	0.0154449
611.765	0.0156290
611.843	0.0154903
611.922	0.0154977
612.000	0.0155695
612.078	0.0155180
612.156	0.0154809
612.234	0.0154170
612.312	0.0153884
612.390	0.0153940
612.468	0.0156615
612.547	0.0154756
612.625	0.0155262
612.703	0.0155273
612.781	0.0155788
612.859	0.0155065
612.937	0.0154927
613.015	0.0155785
613.093	0.0155658
613.172	0.0154232
613.250	0.0155579
613.328	0.0155016
613.406	0.0154974
613.484	0.0155725
613.562	0.0155591
613.640	0.0154417
613.718	0.0155928
613.797	0.0155063
613.875	0.0154985
613.953	0.0155058
614.031	0.0154366
614.109	0.0155322
614.187	0.0154827
614.265	0.0155640
614.343	0.0153919
614.422	0.0155325
614.500	0.0153454
614.578	0.0155485
614.656	0.0156307
614.734	0.0154943
614.812	0.0155171
614.890	0.0155544
614.968	0.0154329
615.047	0.0155320
615.125	0.0156709
615.203	0.0154692
615.281	0.0154842
615.359	0.0154994
615.437	0.0155010
615.515	0.0155721
615.593	0.0156487
615.672	0.0154543
615.750	0.0155540
615.828	0.0155727
615.906	0.0154591
615.984	0.0155163
616.062	0.0154655
616.140	0.0155140
616.218	0.0154615
616.297	0.0154465
616.375	0.0155305
616.453	0.0154807
616.531	0.0155904
616.609	0.0155416
616.687	0.0154596
616.765	0.0155463
616.843	0.0154825
616.922	0.0154159
617.000	0.0156841
617.078	0.0155552
617.156	0.0155614
617.234	0.0155182
617.312	0.0153454
617.390	0.0154004
617.468	0.0155844
617.547	0.0155938
617.625	0.0154951
617.703	0.0155697
617.781	0.0155225
617.859	0.0154333
617.937	0.0155826
618.015	0.0155623
618.093	0.0153901
618.172	0.0155083
618.250	0.0156306
618.328	0.0154874
618.406	0.0154052
618.484	0.0155080
618.562	0.0155890
618.640	0.0154709
618.718	0.0156286
618.797	0.0155358
618.875	0.0154955
618.953	0.0154842
619.031	0.0154921
619.109	0.0155902
619.187	0.0155682
619.265	0.0153879
619.343	0.0155307
619.422	0.0156617
619.500	0.0155316
619.578	0.0157124
619.656	0.0155425
619.734	0.0156690
619.812	0.0156403
619.890	0.0155460
619.968	0.0154781
620.047	0.0156317
620.125	0.0154699
620.203	0.0155535
620.281	0.0155368
620.359	0.0154992
620.437	0.0155320
620.515	0.0155190
620.593	0.0155112
620.672	0.0155788
620.750	0.0154400
620.828	0.0153661
620.906	0.0156062
620.984	0.0155524
621.062	0.0154863
621.140	0.0155437
621.218	0.0154666
621.297	0.0156084
621.375	0.0155827
621.453	0.0155341
621.531	0.0156814
621.609	0.0154702
621.687	0.0155731
621.765	0.0155772
621.843	0.0154480
621.922	0.0155500
622.000	0.0155757
622.078	0.0155050
622.156	0.0155895
622.234	0.0155447
622.312	0.0154645
622.390	0.0154921
622.468	0.0155073
622.547	0.0154446
622.625	0.0155236
622.703	0.0156387
622.781	0.0155173
622.859	0.0155082
622.937	0.0155544
623.015	0.0155487
623.093	0.0155554
623.172	0.0156036
623.250	0.0155088
623.328	0.0154502
623.406	0.0156445
623.484	0.0155566
623.562	0.0155589
623.640	0.0153973
623.718	0.0154425
623.797	0.0154577
623.875	0.0155385
623.953	0.0155503
624.031	0.0155932
624.109	0.0154590
624.187	0.0155451
624.265	0.0154906
624.343	0.0155354
624.422	0.0155841
624.500	0.0154547
624.578	0.0154648
624.656	0.0154655
624.734	0.0155183
624.812	0.0153625
624.890	0.0155200
624.968	0.0153896
625.047	0.0155276
625.125	0.0155182
625.203	0.0155077
625.281	0.0155476
625.359	0.0156235
625.437	0.0155670
625.515	0.0155109
625.593	0.0154192
625.672	0.0153500
625.750	0.0154573
625.828	0.0156019
625.906	0.0155251
625.984	0.0154282
626.062	0.0154781
626.140	0.0155087
626.218	0.0154864
626.297	0.0155530
626.375	0.0157129
626.453	0.0154723
626.531	0.0153681
626.609	0.0156644
626.687	0.0154319
626.765	0.0155264
626.843	0.0154883
626.922	0.0154409
627.000	0.0157391
627.078	0.0154556
627.156	0.0154859
627.234	0.0155294
627.312	0.0154744
627.390	0.0154874
627.468	0.0154662
627.547	0.0154978
627.625	0.0154372
627.703	0.0156799
627.781	0.0155300
627.859	0.0154230
627.937	0.0155109
628.015	0.0154329
628.093	0.0155567
628.172	0.0156434
628.250	0.0154709
628.328	0.0155756
628.406	0.0155051
628.484	0.0153936
628.562	0.0154627
628.640	0.0155440
628.718	0.0155215
628.797	0.0154793
628.875	0.0154729
628.953	0.0156355
629.031	0.0155733
629.109	0.0154873
629.187	0.0155960
629.265	0.0154662
629.343	0.0154561
629.422	0.0156387
629.500	0.0155435
629.578	0.0154939
629.656	0.0154679
629.734	0.0154288
629.812	0.0154248
629.890	0.0154607
629.968	0.0155139
630.047	0.0156030
630.125	0.0155508
630.203	0.0155131
630.281	0.0154510
630.359	0.0155606
630.437	0.0155328
630.515	0.0154299
630.593	0.0155641
630.672	0.0155135
630.750	0.0155631
630.828	0.0155016
630.906	0.0154749
630.984	0.0155325
631.062	0.0154603
631.140	0.0156119
631.218	0.0156050
631.297	0.0154668
631.375	0.0154860
631.453	0.0156469
631.531	0.0155217
631.609	0.0154223
631.687	0.0154302
631.765	0.0155373
631.843	0.0156534
631.922	0.0155281
632.000	0.0154389
632.078	0.0154741
632.156	0.0155589
632.234	0.0154182
632.312	0.0154937
632.390	0.0155737
632.468	0.0155508
632.547	0.0154768
632.625	0.0154758
632.703	0.0155236
632.781	0.0154744
632.859	0.0154494
632.937	0.0155000
633.015	0.0154735
633.093	0.0155160
633.172	0.0154720
633.250	0.0154736
633.328	0.0154415
633.406	0.0156018
633.484	0.0153421
633.562	0.0155106
633.640	0.0155040
633.718	0.0153666
633.797	0.0155878
633.875	0.0155422
633.953	0.0155318
634.031	0.0155082
634.109	0.0156055
634.187	0.0154415
634.265	0.0153721
634.343	0.0155251
634.422	0.0154839
634.500	0.0153925
634.578	0.0155014
634.656	0.0154418
634.734	0.0154522
634.812	0.0155257
634.890	0.0154993
634.968	0.0154333
635.047	0.0155342
635.125	0.0155201
635.203	0.0154717
635.281	0.0155220
635.359	0.0155556
635.437	0.0155619
635.515	0.0155563
635.593	0.0155085
635.672	0.0156016
635.750	0.0155579
635.828	0.0154946
635.906	0.0155733
635.984	0.0154745
636.062	0.0155178
636.140	0.0155753
636.218	0.0154847
636.297	0.0155574
636.375	0.0154539
636.453	0.0153752
636.531	0.0154620
636.609	0.0155312
636.687	0.0155116
636.765	0.0155085
636.843	0.0154273
636.922	0.0153925
637.000	0.0155212
637.078	0.0155390
637.156	0.0155321
637.234	0.0155727
637.312	0.0153541
637.390	0.0155302
637.468	0.0155534
637.547	0.0155916
637.625	0.0155090
637.703	0.0154678
637.781	0.0155112
637.859	0.0155201
637.937	0.0154108
638.015	0.0155263
638.093	0.0155162
638.172	0.0155488
638.250	0.0155053
638.328	0.0156006
638.406	0.0154294
638.484	0.0155157
638.562	0.0155923
638.640	0.0153761
638.718	0.0155035
638.797	0.0154333
638.875	0.0155316
638.953	0.0154620
639.031	0.0154028
639.109	0.0154896
639.187	0.0155282
639.265	0.0155401
639.343	0.0154288
639.422	0.0155010
639.500	0.0155282
639.578	0.0155067
639.656	0.0155134
639.734	0.0155499
639.812	0.0155299
639.890	0.0155002
639.968	0.0156403
640.047	0.0155928
640.125	0.0156039
640.203	0.0154250
640.281	0.0155505
640.359	0.0156889
640.437	0.0155252
640.515	0.0155547
640.593	0.0154674
640.672	0.0155725
640.750	0.0154801
640.828	0.0154076
640.906	0.0155604
640.984	0.0154640
641.062	0.0154339
641.140	0.0154394
641.218	0.0154976
641.297	0.0155370
641.375	0.0155468
641.453	0.0155309
641.531	0.0154139
641.609	0.0154583
641.687	0.0154731
641.765	0.0156726
641.843	0.0155569
641.922	0.0155782
642.000	0.0154693
642.078	0.0155335
642.156	0.0155109
642.234	0.0156053
642.312	0.0153630
642.390	0.0155331
642.468	0.0155609
642.547	0.0154810
642.625	0.0155147
642.703	0.0155771
642.781	0.0155406
642.859	0.0154321
642.937	0.0154801
643.015	0.0155423
643.093	0.0156665
643.172	0.0155055
643.250	0.0155409
643.328	0.0154221
643.406	0.0154028
643.484	0.0154491
643.562	0.0155054
643.640	0.0156032
643.718	0.0155585
643.797	0.0154958
643.875	0.0154093
643.953	0.0154888
644.031	0.0155167
644.109	0.0154701
644.187	0.0155769
644.265	0.0154761
644.343	0.0154092
644.422	0.0155182
644.500	0.0153960
644.578	0.0155010
644.656	0.0154445
644.734	0.0155508
644.812	0.0153620
644.890	0.0156017
644.968	0.0154675
645.047	0.0155742
645.125	0.0154443
645.203	0.0155090
645.281	0.0154761
645.359	0.0153171
645.437	0.0155842
645.515	0.0155260
645.593	0.0155262
645.672	0.0154636
645.750	0.0155305
645.828	0.0155116
645.906	0.0155329
645.984	0.0155208
646.062	0.0154593
646.140	0.0153666
646.218	0.0154823
646.297	0.0155403
646.375	0.0154241
646.453	0.0155697
646.531	0.0154691
646.609	0.0153922
646.687	0.0154297
646.765	0.0154538
646.843	0.0154700
646.922	0.0155549
647.000	0.0154221
647.078	0.0153900
647.156	0.0154703
647.234	0.0155370
647.312	0.0154445
647.390	0.0156231
647.468	0.0155053
647.547	0.0155367
647.625	0.0154288
647.703	0.0154798
647.781	0.0155169
647.859	0.0154768
647.937	0.0154899
648.015	0.0154520
648.093	0.0154154
648.172	0.0154466
648.250	0.0156726
648.328	0.0155444
648.406	0.0155232
648.484	0.0155830
648.562	0.0154610
648.640	0.0155099
648.718	0.0154983
648.797	0.0154363
648.875	0.0155152
648.953	0.0155084
649.031	0.0154608
649.109	0.0155794
649.187	0.0155757
649.265	0.0156109
649.343	0.0156590
649.422	0.0155027
649.500	0.0154523
649.578	0.0153643
649.656	0.0155668
649.734	0.0155428
649.812	0.0155067
649.890	0.0153903
649.968	0.0154468
650.047	0.0154497
650.125	0.0155788
650.203	0.0155955
650.281	0.0155268
650.359	0.0153700
650.437	0.0154316
650.515	0.0153645
650.593	0.0155124
650.672	0.0154906
650.750	0.0154401
650.828	0.0155339
650.906	0.0155054
650.984	0.0154536
651.062	0.0154942
651.140	0.0154582
651.218	0.0155199
651.297	0.0154630
651.375	0.0154943
651.453	0.0155375
651.531	0.0155008
651.609	0.0155889
651.687	0.0154285
651.765	0.0154008
651.843	0.0154906
651.922	0.0156937
652.000	0.0155531
652.078	0.0155236
652.156	0.0155814
652.234	0.0154845
652.312	0.0154380
652.390	0.0155249
652.468	0.0154852
652.547	0.0154794
652.625	0.0155338
652.703	0.0154530
652.781	0.0154930
652.859	0.0155310
652.937	0.0154753
653.015	0.0154048
653.093	0.0154715
653.172	0.0154498
653.250	0.0154526
653.328	0.0154758
653.406	0.0154407
653.484	0.0155206
653.562	0.0155005
653.640	0.0154691
653.718	0.0154491
653.797	0.0154638
653.875	0.0154704
653.953	0.0155827
654.031	0.0154954
654.109	0.0154861
654.187	0.0155817
654.265	0.0154263
654.343	0.0154405
654.422	0.0153822
654.500	0.0155489
654.578	0.0154101
654.656	0.0154037
654.734	0.0154616
654.812	0.0154565
654.890	0.0153760
654.968	0.0153999
655.047	0.0154096
655.125	0.0154228
655.203	0.0154299
655.281	0.0155872
655.359	0.0155129
655.437	0.0154906
655.515	0.0155381
655.593	0.0155283
655.672	0.0156412
655.750	0.0156253
655.828	0.0155742
655.906	0.0155719
655.984	0.0155452
656.062	0.0154477
656.140	0.0155003
656.218	0.0154021
656.297	0.0156165
656.375	0.0154938
656.453	0.0155871
656.531	0.0154944
656.609	0.0155574
656.687	0.0154708
656.765	0.0156116
656.843	0.0155776
656.922	0.0155161
657.000	0.0155006
657.078	0.0156317
657.156	0.0156036
657.234	0.0155002
657.312	0.0154966
657.390	0.0155778
657.468	0.0156166
657.547	0.0155350
657.625	0.0154790
657.703	0.0155672
657.781	0.0155429
657.859	0.0153986
657.937	0.0154115
658.015	0.0155001
658.093	0.0155216
658.172	0.0154292
658.250	0.0153871
658.328	0.0155029
658.406	0.0154656
658.484	0.0152882
658.562	0.0155810
658.640	0.0155630
658.718	0.0154293
658.797	0.0153922
658.875	0.0155695
658.953	0.0154498
659.031	0.0154484
659.109	0.0155785
659.187	0.0155051
659.265	0.0153893
659.343	0.0155578
659.422	0.0155411
659.500	0.0154831
659.578	0.0155611
659.656	0.0156399
659.734	0.0154980
659.812	0.0155873
659.890	0.0156042
659.968	0.0155965
660.047	0.0154882
660.125	0.0154604
660.203	0.0155665
660.281	0.0154916
660.359	0.0154777
660.437	0.0154232
660.515	0.0155033
660.593	0.0155506
660.672	0.0154955
660.750	0.0156324
660.828	0.0154897
660.906	0.0154691
660.984	0.0156379
661.062	0.0156371
661.140	0.0155166
661.218	0.0155551
661.297	0.0154888
661.375	0.0155278
661.453	0.0154764
661.531	0.0154983
661.609	0.0155321
661.687	0.0154318
661.765	0.0156508
661.843	0.0155105
661.922	0.0153683
662.000	0.0156142
662.078	0.0155981
662.156	0.0155165
662.234	0.0156290
662.312	0.0155764
662.390	0.0153843
662.468	0.0155193
662.547	0.0154737
662.625	0.0154826
662.703	0.0155345
662.781	0.0154874
662.859	0.0155114
662.937	0.0155226
663.015	0.0154908
663.093	0.0155431
663.172	0.0156253
663.250	0.0155565
663.328	0.0154232
663.406	0.0155695
663.484	0.0154145
663.562	0.0154035
663.640	0.0156024
663.718	0.0156261
663.797	0.0155090
663.875	0.0154655
663.953	0.0155157
664.031	0.0154511
664.109	0.0154540
664.187	0.0155732
664.265	0.0155461
664.343	0.0155681
664.422	0.0153947
664.500	0.0155782
664.578	0.0155106
664.656	0.0154726
664.734	0.0155195
664.812	0.0155571
664.890	0.0154810
664.968	0.0155576
665.047	0.0155853
665.125	0.0154694
665.203	0.0154273
665.281	0.0155687
665.359	0.0154268
665.437	0.0156064
665.515	0.0154658
665.593	0.0154349
665.672	0.0155055
665.750	0.0154163
665.828	0.0154798
665.906	0.0154283
665.984	0.0153365
666.062	0.0155358
666.140	0.0155225
666.218	0.0155343
666.297	0.0156339
666.375	0.0155379
666.453	0.0156153
666.531	0.0154050
666.609	0.0154066
666.687	0.0154913
666.765	0.0153857
666.843	0.0154370
666.922	0.0155431
667.000	0.0155798
667.078	0.0154527
667.156	0.0155585
667.234	0.0155235
667.312	0.0154993
667.390	0.0154604
667.468	0.0156087
667.547	0.0155278
667.625	0.0155487
667.703	0.0155219
667.781	0.0155673
667.859	0.0155274
667.937	0.0153465
668.015	0.0154642
668.093	0.0153721
668.172	0.0156161
668.250	0.0154479
668.328	0.0154342
668.406	0.0156272
668.484	0.0154698
668.562	0.0155410
668.640	0.0154967
668.718	0.0155730
668.797	0.0156221
668.875	0.0155735
668.953	0.0154991
669.031	0.0155592
669.109	0.0155605
669.187	0.0154680
669.265	0.0153477
669.343	0.0155642
669.422	0.0153791
669.500	0.0153706
669.578	0.0155245
669.656	0.0154305
669.734	0.0154211
669.812	0.0154909
669.890	0.0154510
669.968	0.0155502
670.047	0.0153849
670.125	0.0154113
670.203	0.0155696
670.281	0.0156281
670.359	0.0156476
670.437	0.0154784
670.515	0.0154558
670.593	0.0154442
670.672	0.0155558
670.750	0.0155764
670.828	0.0155051
670.906	0.0155382
670.984	0.0155755
671.062	0.0155698
671.140	0.0155139
671.218	0.0155190
671.297	0.0155904
671.375	0.0155657
671.453	0.0155325
671.531	0.0155430
671.609	0.0155122
671.687	0.0156180
671.765	0.0155789
671.843	0.0155773
671.922	0.0154277
672.000	0.0154159
672.078	0.0154198
672.156	0.0155243
672.234	0.0154140
672.312	0.0154072
672.390	0.0154359
672.468	0.0154249
672.547	0.0155440
672.625	0.0154426
672.703	0.0153426
672.781	0.0154976
672.859	0.0154341
672.937	0.0153976
673.015	0.0153748
673.093	0.0156328
673.172	0.0155418
673.250	0.0154974
673.328	0.0156683
673.406	0.0154363
673.484	0.0155848
673.562	0.0155792
673.640	0.0155481
673.718	0.0155981
673.797	0.0156049
673.875	0.0156287
673.953	0.0154855
674.031	0.0154455
674.109	0.0156013
674.187	0.0155048
674.265	0.0155513
674.343	0.0156349
674.422	0.0154971
674.500	0.0153808
674.578	0.0155478
674.656	0.0154527
674.734	0.0154951
674.812	0.0154797
674.890	0.0154691
674.968	0.0156039
675.047	0.0155020
675.125	0.0155479
675.203	0.0155844
675.281	0.0154865
675.359	0.0154272
675.437	0.0153706
675.515	0.0155192
675.593	0.0154716
675.672	0.0154337
675.750	0.0155134
675.828	0.0154865
675.906	0.0155782
675.984	0.0154042
676.062	0.0155393
676.140	0.0155490
676.218	0.0154305
676.297	0.0153906
676.375	0.0154606
676.453	0.0154523
676.531	0.0155904
676.609	0.0155819
676.687	0.0154891
676.765	0.0155080
676.843	0.0155232
676.922	0.0155849
677.000	0.0156148
677.078	0.0154349
677.156	0.0156603
677.234	0.0154379
677.312	0.0154820
677.390	0.0155385
677.468	0.0155418
677.547	0.0156783
677.625	0.0156015
677.703	0.0155717
677.781	0.0155673
677.859	0.0155142
677.937	0.0155009
678.015	0.0156037
678.093	0.0155696
678.172	0.0155224
678.250	0.0154054
678.328	0.0155807
678.406	0.0156026
678.484	0.0155505
678.562	0.0156019
678.640	0.0153470
678.718	0.0155297
678.797	0.0155537
678.875	0.0154443
678.953	0.0155775
679.031	0.0155815
679.109	0.0154473
679.187	0.0154128
679.265	0.0154417
679.343	0.0155537
679.422	0.0156501
679.500	0.0154127
679.578	0.0154337
679.656	0.0154455
679.734	0.0156513
679.812	0.0155934
679.890	0.0155785
679.968	0.0156020
680.047	0.0156245
680.125	0.0155243
680.203	0.0157187
680.281	0.0156882
680.359	0.0155891
680.437	0.0155211
680.515	0.0155216
680.593	0.0156125
680.672	0.0157903
680.750	0.0156824
680.828	0.0156497
680.906	0.0154150
680.984	0.0155451
681.062	0.0156033
681.140	0.0155042
681.218	0.0155514
681.297	0.0155007
681.375	0.0155804
681.453	0.0155125
681.531	0.0154865
681.609	0.0154940
681.687	0.0155367
681.765	0.0155185
681.843	0.0154310
681.922	0.0154992
682.000	0.0155839
682.078	0.0155929
682.156	0.0156098
682.234	0.0154638
682.312	0.0153313
682.390	0.0155261
682.468	0.0156010
682.547	0.0154821
682.625	0.0155424
682.703	0.0155618
682.781	0.0155590
682.859	0.0154747
682.937	0.0155924
683.015	0.0155311
683.093	0.0154417
683.172	0.0155983
683.250	0.0155956
683.328	0.0155651
683.406	0.0154622
683.484	0.0154784
683.562	0.0155278
683.640	0.0155452
683.718	0.0155550
683.797	0.0155364
683.875	0.0156019
683.953	0.0156010
684.031	0.0156042
684.109	0.0155953
684.187	0.0156551
684.265	0.0155203
684.343	0.0156109
684.422	0.0155227
684.500	0.0155193
684.578	0.0154488
684.656	0.0155226
684.734	0.0156183
684.812	0.0154665
684.890	0.0154219
684.968	0.0154776
685.047	0.0155006
685.125	0.0154054
685.203	0.0155477
685.281	0.0155685
685.359	0.0155084
685.437	0.0155046
685.515	0.0154474
685.593	0.0154395
685.672	0.0154030
685.750	0.0155524
685.828	0.0154412
685.906	0.0154564
685.984	0.0155190
686.062	0.0155103
686.140	0.0155759
686.218	0.0154692
686.297	0.0155508
686.375	0.0154588
686.453	0.0156639
686.531	0.0155278
686.609	0.0155170
686.687	0.0155243
686.765	0.0154967
686.843	0.0156428
686.922	0.0155298
687.000	0.0154575
687.078	0.0156239
687.156	0.0155125
687.234	0.0155623
687.312	0.0153959
687.390	0.0154806
687.468	0.0155292
687.547	0.0155326
687.625	0.0155301
687.703	0.0156008
687.781	0.0154556
687.859	0.0154098
687.937	0.0155784
688.015	0.0155698
688.093	0.0154577
688.172	0.0155125
688.250	0.0154368
688.328	0.0154559
688.406	0.0156154
688.484	0.0154910
688.562	0.0154726
688.640	0.0154966
688.718	0.0155662
688.797	0.0154483
688.875	0.0156065
688.953	0.0154049
689.031	0.0154049
689.109	0.0154967
689.187	0.0155116
689.265	0.0153758
689.343	0.0155278
689.422	0.0155579
689.500	0.0153857
689.578	0.0154422
689.656	0.0155521
689.734	0.0155176
689.812	0.0153701
689.890	0.0155400
689.968	0.0154550
690.047	0.0155042
690.125	0.0156136
690.203	0.0156739
690.281	0.0155197
690.359	0.0155220
690.437	0.0155508
690.515	0.0154179
690.593	0.0156560
690.672	0.0153899
690.750	0.0154674
690.828	0.0156056
690.906	0.0156002
690.984	0.0155447
691.062	0.0155902
691.140	0.0154594
691.218	0.0155260
691.297	0.0154989
691.375	0.0155582
691.453	0.0154018
691.531	0.0155611
691.609	0.0154378
691.687	0.0153941
691.765	0.0155175
691.843	0.0155813
691.922	0.0155485
692.000	0.0155498
692.078	0.0156277
692.156	0.0154144
692.234	0.0154861
692.312	0.0155063
692.390	0.0153612
692.468	0.0155486
692.547	0.0155569
692.625	0.0155372
692.703	0.0155025
692.781	0.0155241
692.859	0.0155297
692.937	0.0155022
693.015	0.0156013
693.093	0.0155567
693.172	0.0155849
693.250	0.0155111
693.328	0.0155338
693.406	0.0156529
693.484	0.0154910
693.562	0.0155550
693.640	0.0155715
693.718	0.0155062
693.797	0.0155746
693.875	0.0155433
693.953	0.0155773
694.031	0.0154950
694.109	0.0156102
694.187	0.0154967
694.265	0.0155021
694.343	0.0154992
694.422	0.0156499
694.500	0.0154694
694.578	0.0154506
694.656	0.0154704
694.734	0.0155429
694.812	0.0154348
694.890	0.0157346
694.968	0.0155766
695.047	0.0154294
695.125	0.0154912
695.203	0.0154356
695.281	0.0153376
695.359	0.0155998
695.437	0.0153211
695.515	0.0154425
695.593	0.0154192
695.672	0.0154705
695.750	0.0154709
695.828	0.0154596
695.906	0.0153983
695.984	0.0155281
696.062	0.0155359
696.140	0.0155303
696.218	0.0155657
696.297	0.0154850
696.375	0.0156078
696.453	0.0155260
696.531	0.0154862
696.609	0.0156522
696.687	0.0155385
696.765	0.0154490
696.843	0.0155136
696.922	0.0154688
697.000	0.0154856
697.078	0.0154857
697.156	0.0155037
697.234	0.0156010
697.312	0.0154113
697.390	0.0155605
697.468	0.0155907
697.547	0.0155711
697.625	0.0155364
697.703	0.0156552
697.781	0.0155981
697.859	0.0155720
697.937	0.0155274
698.015	0.0155424
698.093	0.0155834
698.172	0.0155373
698.250	0.0155252
698.328	0.0154352
698.406	0.0154142
698.484	0.0155917
698.562	0.0155458
698.640	0.0155997
698.718	0.0155854
698.797	0.0154588
698.875	0.0155032
698.953	0.0155349
699.031	0.0155482
699.109	0.0154218
699.187	0.0155933
699.265	0.0155671
699.343	0.0155811
699.422	0.0156001
699.500	0.0155225
699.578	0.0155767
699.656	0.0155284
699.734	0.0154900
699.812	0.0154396
699.890	0.0154216
699.968	0.0154684
700.047	0.0155881
700.125	0.0155632
700.203	0.0156076
700.281	0.0155103
700.359	0.0155051
700.437	0.0155814
700.515	0.0154922
700.593	0.0155405
700.672	0.0154727
700.750	0.0154996
700.828	0.0156160
700.906	0.0156126
700.984	0.0154904
701.062	0.0156028
701.140	0.0156407
701.218	0.0155927
701.297	0.0155326
701.375	0.0155814
701.453	0.0154877
701.531	0.0154617
701.609	0.0155226
701.687	0.0155762
701.765	0.0153773
701.843	0.0154176
701.922	0.0154929
702.000	0.0155401
702.078	0.0155247
702.156	0.0154755
702.234	0.0154198
702.312	0.0155303
702.390	0.0155296
702.468	0.0154397
702.547	0.0156104
702.625	0.0155953
702.703	0.0155769
702.781	0.0155214
702.859	0.0155577
702.937	0.0155183
703.015	0.0156059
703.093	0.0155486
703.172	0.0155737
703.250	0.0156451
703.328	0.0155060
703.406	0.0154581
703.484	0.0154448
703.562	0.0155996
703.640	0.0156564
703.718	0.0154498
703.797	0.0155003
703.875	0.0155377
703.953	0.0155704
704.031	0.0155598
704.109	0.0154095
704.187	0.0156326
704.265	0.0156110
704.343	0.0155048
704.422	0.0155226
704.500	0.0155676
704.578	0.0155479
704.656	0.0156015
704.734	0.0154791
704.812	0.0154668
704.890	0.0155680
704.968	0.0155528
705.047	0.0154569
705.125	0.0156411
705.203	0.0155313
705.281	0.0155097
705.359	0.0155618
705.437	0.0154999
705.515	0.0155450
705.593	0.0155947
705.672	0.0155266
705.750	0.0154858
705.828	0.0154173
705.906	0.0154083
705.984	0.0154024
706.062	0.0153737
706.140	0.0154211
706.218	0.0155877
706.297	0.0155373
706.375	0.0155331
706.453	0.0157407
706.531	0.0156404
706.609	0.0155919
706.687	0.0155989
706.765	0.0155450
706.843	0.0155545
706.922	0.0154316
707.000	0.0154470
707.078	0.0155688
707.156	0.0154146
707.234	0.0155485
707.312	0.0155778
707.390	0.0154730
707.468	0.0154938
707.547	0.0154337
707.625	0.0154511
707.703	0.0154092
707.781	0.0155986
707.859	0.0155649
707.937	0.0155654
708.015	0.0155766
708.093	0.0155428
708.172	0.0156036
708.250	0.0156011
708.328	0.0154377
708.406	0.0155279
708.484	0.0155193
708.562	0.0155628
708.640	0.0155167
708.718	0.0154957
708.797	0.0154825
708.875	0.0154778
708.953	0.0154826
709.031	0.0155107
709.109	0.0155920
709.187	0.0154422
709.265	0.0154581
709.343	0.0153862
709.422	0.0154650
709.500	0.0155452
709.578	0.0156154
709.656	0.0154317
709.734	0.0155775
709.812	0.0154869
709.890	0.0154465
709.968	0.0155100
710.047	0.0156742
710.125	0.0154692
710.203	0.0155466
710.281	0.0155536
710.359	0.0155147
710.437	0.0155424
710.515	0.0155186
710.593	0.0154925
710.672	0.0155573
710.750	0.0155446
710.828	0.0155377
710.906	0.0155616
710.984	0.0156128
711.062	0.0154333
711.140	0.0154284
711.218	0.0154929
711.297	0.0154852
711.375	0.0155799
711.453	0.0154963
711.531	0.0154916
711.609	0.0155831
711.687	0.0156085
711.765	0.0154294
711.843	0.0153890
711.922	0.0153784
712.000	0.0155513
712.078	0.0154303
712.156	0.0154429
712.234	0.0154617
712.312	0.0155259
712.390	0.0153925
712.468	0.0154440
712.547	0.0154287
712.625	0.0154993
712.703	0.0155178
712.781	0.0154653
712.859	0.0154683
712.937	0.0155472
713.015	0.0154472
713.093	0.0155276
713.172	0.0154037
713.250	0.0154789
713.328	0.0154772
713.406	0.0154298
713.484	0.0156082
713.562	0.0155662
713.640	0.0155437
713.718	0.0154316
713.797	0.0154151
713.875	0.0154686
713.953	0.0155457
714.031	0.0154174
714.109	0.0155426
714.187	0.0156071
714.265	0.0155037
714.343	0.0153227
714.422	0.0153635
714.500	0.0155421
714.578	0.0155526
714.656	0.0155209
714.734	0.0155563
714.812	0.0155103
714.890	0.0155390
714.968	0.0154207
715.047	0.0155269
715.125	0.0153589
715.203	0.0155807
715.281	0.0155143
715.359	0.0155077
715.437	0.0154959
715.515	0.0154641
715.593	0.0153722
715.672	0.0154515
715.750	0.0155338
715.828	0.0154216
715.906	0.0154375
715.984	0.0155133
716.062	0.0154971
716.140	0.0154749
716.218	0.0155089
716.297	0.0156411
716.375	0.0154480
716.453	0.0154604
716.531	0.0155807
716.609	0.0155156
716.687	0.0155415
716.765	0.0153659
716.843	0.0153752
716.922	0.0156157
717.000	0.0155551
717.078	0.0155145
717.156	0.0154648
717.234	0.0154449
717.312	0.0153776
717.390	0.0154273
717.468	0.0154823
717.547	0.0154009
717.625	0.0155738
717.703	0.0155761
717.781	0.0154104
717.859	0.0154963
717.937	0.0154730
718.015	0.0156449
718.093	0.0155069
718.172	0.0154131
718.250	0.0155287
718.328	0.0154032
718.406	0.0153663
718.484	0.0154810
718.562	0.0156161
718.640	0.0154428
718.718	0.0154534
718.797	0.0156190
718.875	0.0155721
718.953	0.0155168
719.031	0.0154533
719.109	0.0155366
719.187	0.0155313
719.265	0.0155114
719.343	0.0153139
719.422	0.0155909
719.500	0.0154101
719.578	0.0154502
719.656	0.0154401
719.734	0.0154594
719.812	0.0154408
719.890	0.0155168
719.968	0.0154742
720.047	0.0154531
720.125	0.0154536
720.203	0.0155075
720.281	0.0154549
720.359	0.0153842
720.437	0.0153937
720.515	0.0153909
720.593	0.0156008
720.672	0.0154868
720.750	0.0155211
720.828	0.0154985
720.906	0.0154448
720.984	0.0153905
721.062	0.0155674
721.140	0.0154971
721.218	0.0154697
721.297	0.0156046
721.375	0.0155546
721.453	0.0154759
721.531	0.0155357
721.609	0.0154774
721.687	0.0156268
721.765	0.0154536
721.843	0.0154701
721.922	0.0155550
722.000	0.0154607
722.078	0.0155991
722.156	0.0155091
722.234	0.0155247
722.312	0.0155267
722.390	0.0154646
722.468	0.0154542
722.547	0.0155787
722.625	0.0154889
722.703	0.0154534
722.781	0.0154745
722.859	0.0154285
722.937	0.0154963
723.015	0.0155273
723.093	0.0155701
723.172	0.0155983
723.250	0.0155474
723.328	0.0154532
723.406	0.0155150
723.484	0.0155363
723.562	0.0155817
723.640	0.0155190
723.718	0.0154675
723.797	0.0155211
723.875	0.0156188
723.953	0.0153436
724.031	0.0154332
724.109	0.0155233
724.187	0.0155211
724.265	0.0155243
724.343	0.0155400
724.422	0.0155743
724.500	0.0155223
724.578	0.0155064
724.656	0.0155625
724.734	0.0155429
724.812	0.0156223
724.890	0.0155381
724.968	0.0155729
725.047	0.0155368
725.125	0.0155208
725.203	0.0155315
725.281	0.0156166
725.359	0.0155405
725.437	0.0155393
725.515	0.0155767
725.593	0.0155881
725.672	0.0155746
725.750	0.0156394
725.828	0.0156179
725.906	0.0155463
725.984	0.0155180
726.062	0.0155216
726.140	0.0154519
726.218	0.0154615
726.297	0.0155483
726.375	0.0154922
726.453	0.0155835
726.531	0.0155840
726.609	0.0155530
726.687	0.0156458
726.765	0.0154537
726.843	0.0155421
726.922	0.0155184
727.000	0.0154768
727.078	0.0155149
727.156	0.0156800
727.234	0.0156280
727.312	0.0156146
727.390	0.0155270
727.468	0.0154123
727.547	0.0154784
727.625	0.0154932
727.703	0.0155141
727.781	0.0154850
727.859	0.0155791
727.937	0.0156481
728.015	0.0153912
728.093	0.0155047
728.172	0.0154098
728.250	0.0155489
728.328	0.0156744
728.406	0.0156140
728.484	0.0155682
728.562	0.0155132
728.640	0.0156217
728.718	0.0155075
728.797	0.0155397
728.875	0.0155924
728.953	0.0155515
729.031	0.0154230
729.109	0.0155080
729.187	0.0155290
729.265	0.0155161
729.343	0.0154777
729.422	0.0155203
729.500	0.0154363
729.578	0.0155458
729.656	0.0156162
729.734	0.0155592
729.812	0.0154985
729.890	0.0156236
729.968	0.0155719
730.047	0.0153729
730.125	0.0154779
730.203	0.0154696
730.281	0.0154125
730.359	0.0155628
730.437	0.0156006
730.515	0.0156098
730.593	0.0156210
730.672	0.0155008
730.750	0.0154986
730.828	0.0155589
730.906	0.0155044
730.984	0.0154604
731.062	0.0154108
731.140	0.0154671
731.218	0.0156635
731.297	0.0155359
731.375	0.0155003
731.453	0.0155334
731.531	0.0156501
731.609	0.0155045
731.687	0.0153617
731.765	0.0154850
731.843	0.0155456
731.922	0.0154573
732.000	0.0154301
732.078	0.0154662
732.156	0.0155110
732.234	0.0153899
732.312	0.0154471
732.390	0.0154617
732.468	0.0153146
732.547	0.0154906
732.625	0.0154704
732.703	0.0156343
732.781	0.0154939
732.859	0.0155354
732.937	0.0154234
733.015	0.0154142
733.093	0.0155775
733.172	0.0154838
733.250	0.0155052
733.328	0.0154564
733.406	0.0154936
733.484	0.0155164
733.562	0.0155172
733.640	0.0155134
733.718	0.0154649
733.797	0.0153598
733.875	0.0154889
733.953	0.0155646
734.031	0.0155363
734.109	0.0155402
734.187	0.0154697
734.265	0.0154720
734.343	0.0155482
734.422	0.0155273
734.500	0.0155070
734.578	0.0154965
734.656	0.0156095
734.734	0.0154143
734.812	0.0154419
734.890	0.0155331
734.968	0.0154395
735.047	0.0155717
735.125	0.0154559
735.203	0.0155295
735.281	0.0154258
735.359	0.0155601
735.437	0.0154346
735.515	0.0154833
735.593	0.0154717
735.672	0.0153493
735.750	0.0155022
735.828	0.0154520
735.906	0.0154399
735.984	0.0154958
736.062	0.0154301
736.140	0.0155808
736.218	0.0154424
736.297	0.0153089
736.375	0.0155370
736.453	0.0155638
736.531	0.0153793
736.609	0.0153410
736.687	0.0155185
736.765	0.0155321
736.843	0.0153809
736.922	0.0153999
737.000	0.0156189
737.078	0.0154707
737.156	0.0152038
737.234	0.0154436
737.312	0.0156076
737.390	0.0155571
737.468	0.0155099
737.547	0.0153968
737.625	0.0154709
737.703	0.0154850
737.781	0.0155247
737.859	0.0153560
737.937	0.0153468
738.015	0.0155240
738.093	0.0155333
738.172	0.0155414
738.250	0.0155565
738.328	0.0154954
738.406	0.0157382
738.484	0.0155532
738.562	0.0154747
738.640	0.0156137
738.718	0.0155119
738.797	0.0155326
738.875	0.0153391
738.953	0.0154704
739.031	0.0155070
739.109	0.0154314
739.187	0.0155273
739.265	0.0155930
739.343	0.0155594
739.422	0.0156847
739.500	0.0155531
739.578	0.0154678
739.656	0.0154630
739.734	0.0153228
739.812	0.0155150
739.890	0.0154990
739.968	0.0153076
740.047	0.0153592
740.125	0.0153331
740.203	0.0154033
740.281	0.0154767
740.359	0.0155293
740.437	0.0155625
740.515	0.0154420
740.593	0.0154724
740.672	0.0155573
740.750	0.0156587
740.828	0.0157176
740.906	0.0155340
740.984	0.0154044
741.062	0.0154763
741.140	0.0154530
741.218	0.0154565
741.297	0.0154619
741.375	0.0155119
741.453	0.0154779
741.531	0.0155227
741.609	0.0155096
741.687	0.0154691
741.765	0.0156120
741.843	0.0155225
741.922	0.0155235
742.000	0.0155349
742.078	0.0156201
742.156	0.0156483
742.234	0.0155976
742.312	0.0157420
742.390	0.0157680
742.468	0.0156975
742.547	0.0156654
742.625	0.0155718
742.703	0.0155647
742.781	0.0155012
742.859	0.0154881
742.937	0.0152958
743.015	0.0152627
743.093	0.0153075
743.172	0.0151691
743.250	0.0152157
743.328	0.0150540
743.406	0.0152127
743.484	0.0152762
743.562	0.0153255
743.640	0.0154293
743.718	0.0155000
743.797	0.0156003
743.875	0.0156544
743.953	0.0158369
744.031	0.0157747
744.109	0.0160258
744.187	0.0159947
744.265	0.0159119
744.343	0.0158296
744.422	0.0159155
744.500	0.0158722
744.578	0.0157666
744.656	0.0156178
744.734	0.0154169
744.812	0.0153114
744.890	0.0152731
744.968	0.0151965
745.047	0.0151054
745.125	0.0150843
745.203	0.0152238
745.281	0.0150925
745.359	0.0151079
745.437	0.0150801
745.515	0.0152481
745.593	0.0152831
745.672	0.0152442
745.750	0.0153878
745.828	0.0152930
745.906	0.0151488
745.984	0.0151672
746.062	0.0151666
746.140	0.0151839
746.218	0.0153043
746.297	0.0152757
746.375	0.0154430
746.453	0.0153971
746.531	0.0155167
746.609	0.0157117
746.687	0.0158005
746.765	0.0158820
746.843	0.0160049
746.922	0.0159574
747.000	0.0160842
747.078	0.0161754
747.156	0.0164445
747.234	0.0165025
747.312	0.0167490
747.390	0.0168288
747.468	0.0168710
747.547	0.0169209
747.625	0.0169454
747.703	0.0168238
747.781	0.0166896
747.859	0.0165200
747.937	0.0163255
748.015	0.0159778
748.093	0.0156368
748.172	0.0151842
748.250	0.0147520
748.328	0.0142962
748.406	0.0136515
748.484	0.0132097
748.562	0.0128266
748.640	0.0126254
748.718	0.0122821
748.797	0.0122294
748.875	0.0123116
748.953	0.0124569
749.031	0.0124773
749.109	0.0128896
749.187	0.0132652
749.265	0.0136642
749.343	0.0141740
749.422	0.0149078
749.500	0.0155223
749.578	0.0160705
749.656	0.0167271
749.734	0.0176550
749.812	0.0181938
749.890	0.0187099
749.968	0.0192165
750.047	0.0196375
750.125	0.0197412
750.203	0.0197559
750.281	0.0200791
750.359	0.0198736
750.437	0.0198449
750.515	0.0196912
750.593	0.0193632
750.672	0.0188325
750.750	0.0184514
750.828	0.0181839
750.906	0.0174411
750.984	0.0167391
751.062	0.0162046
751.140	0.0152108
751.218	0.0143759
751.297	0.0134092
751.375	0.0125336
751.453	0.0115800
751.531	0.0108265
751.609	0.00985184
751.687	0.00927055
751.765	0.00868042
751.843	0.00825333
751.922	0.00812340
752.000	0.00809891
752.078	0.00839539
752.156	0.00883453
752.234	0.00965157
752.312	0.0106487
752.390	0.0116290
752.468	0.0127608
752.547	0.0141722
752.625	0.0156268
752.703	0.0169903
752.781	0.0183411
752.859	0.0196056
752.937	0.0207890
753.015	0.0218612
753.093	0.0226727
753.172	0.0230572
753.250	0.0235611
753.328	0.0236478
753.406	0.0236604
753.484	0.0234594
753.562	0.0230905
753.640	0.0225845
753.718	0.0220733
753.797	0.0213673
753.875	0.0204501
753.953	0.0195516
754.031	0.0186191
754.109	0.0175471
754.187	0.0165561
754.265	0.0154563
754.343	0.0145238
754.422	0.0135509
754.500	0.0125050
754.578	0.0116670
754.656	0.0107257
754.734	0.00984482
754.812	0.00904106
754.890	0.00837090
754.968	0.00783539
755.047	0.00733849
755.125	0.00704414
755.203	0.00693451
755.281	0.00715675
755.359	0.00732727
755.437	0.00789314
755.515	0.00865417
755.593	0.00949722
755.672	0.0105238
755.750	0.0116817
755.828	0.0129913
755.906	0.0143546
755.984	0.0157942
756.062	0.0172523
756.140	0.0185892
756.218	0.0197959
756.297	0.0210025
756.375	0.0218604
756.453	0.0224268
756.531	0.0230740
756.609	0.0234480
756.687	0.0237193
756.765	0.0235858
756.843	0.0235384
756.922	0.0232355
757.000	0.0229040
757.078	0.0222172
757.156	0.0216830
757.234	0.0210339
757.312	0.0203334
757.390	0.0196536
757.468	0.0190166
757.547	0.0180852
757.625	0.0172809
757.703	0.0166042
757.781	0.0155216
757.859	0.0144508
757.937	0.0134135
758.015	0.0124056
758.093	0.0113492
758.172	0.0101208
758.250	0.00902397
758.328	0.00804672
758.406	0.00719124
758.484	0.00633652
758.562	0.00583878
758.640	0.00552780
758.718	0.00554497
758.797	0.00587585
758.875	0.00649712
758.953	0.00726219
759.031	0.00864349
759.109	0.0101657
759.187	0.0120164
759.265	0.0139275
759.343	0.0159240
759.422	0.0180834
759.500	0.0199780
759.578	0.0216188
759.656	0.0230457
759.734	0.0243739
759.812	0.0252210
759.890	0.0255487
759.968	0.0256769
760.047	0.0253071
760.125	0.0245374
760.203	0.0236696
760.281	0.0225016
760.359	0.0212204
760.437	0.0197362
760.515	0.0182835
760.593	0.0170335
760.672	0.0157533
760.750	0.0145697
760.828	0.0135921
760.906	0.0127684
760.984	0.0121333
761.062	0.0115701
761.140	0.0114032
761.218	0.0112649
761.297	0.0109888
761.375	0.0108440
761.453	0.0108052
761.531	0.0107098
761.609	0.0104817
761.687	0.0103283
761.765	0.0101505
761.843	0.0100497
761.922	0.00985069
762.000	0.0100113
762.078	0.0101528
762.156	0.0107019
762.234	0.0112461
762.312	0.0120069
762.390	0.0129568
762.468	0.0141335
762.547	0.0154718
762.625	0.0169924
762.703	0.0184740
762.781	0.0200380
762.859	0.0215062
762.937	0.0229353
763.015	0.0241592
763.093	0.0251161
763.172	0.0258491
763.250	0.0262807
763.328	0.0262300
763.406	0.0258157
763.484	0.0249390
763.562	0.0238623
763.640	0.0223253
763.718	0.0206785
763.797	0.0188414
763.875	0.0169191
763.953	0.0149880
764.031	0.0132191
764.109	0.0115122
764.187	0.0100121
764.265	0.00858681
764.343	0.00742134
764.422	0.00654503
764.500	0.00606010
764.578	0.00575821
764.656	0.00568199
764.734	0.00582382
764.812	0.00608017
764.890	0.00663246
764.968	0.00734474
765.047	0.00822922
765.125	0.00922150
765.203	0.0100528
765.281	0.0111542
765.359	0.0123424
765.437	0.0135472
765.515	0.0145277
765.593	0.0158283
765.672	0.0170658
765.750	0.0181805
765.828	0.0192245
765.906	0.0204714
765.984	0.0216397
766.062	0.0225730
766.140	0.0232288
766.218	0.0239405
766.297	0.0241901
766.375	0.0242989
766.453	0.0243587
766.531	0.0241992
766.609	0.0236726
766.687	0.0230990
766.765	0.0223788
766.843	0.0214122
766.922	0.0202283
767.000	0.0190986
767.078	0.0177838
767.156	0.0164064
767.234	0.0153466
767.312	0.0139886
767.390	0.0130881
767.468	0.0121630
767.547	0.0113058
767.625	0.0106609
767.703	0.0103318
767.781	0.00987305
767.859	0.00963928
767.937	0.00940414
768.015	0.00955238
768.093	0.00952690
768.172	0.00973892
768.250	0.0100521
768.328	0.0102016
768.406	0.0106693
768.484	0.0109465
768.562	0.0114531
768.640	0.0119100
768.718	0.0125281
768.797	0.0133622
768.875	0.0141169
768.953	0.0149386
769.031	0.0157465
769.109	0.0164813
769.187	0.0173869
769.265	0.0180813
769.343	0.0187923
769.422	0.0195916
769.500	0.0201214
769.578	0.0208268
769.656	0.0211308
769.734	0.0211826
769.812	0.0211836
769.890	0.0209933
769.968	0.0206184
770.047	0.0199532
770.125	0.0192895
770.203	0.0184444
770.281	0.0174407
770.359	0.0163879
770.437	0.0156139
770.515	0.0147114
770.593	0.0137994
770.672	0.0131415
770.750	0.0125697
770.828	0.0121200
770.906	0.0118256
770.984	0.0117390
771.062	0.0115420
771.140	0.0116956
771.218	0.0117524
771.297	0.0119194
771.375	0.0121333
771.453	0.0126854
771.531	0.0130858
771.609	0.0134293
771.687	0.0138024
771.765	0.0141772
771.843	0.0146774
771.922	0.0151126
772.000	0.0156261
772.078	0.0160471
772.156	0.0164613
772.234	0.0167051
772.312	0.0170623
772.390	0.0173789
772.468	0.0177161
772.547	0.0180441
772.625	0.0182882
772.703	0.0186472
772.781	0.0189487
772.859	0.0192294
772.937	0.0192358
773.015	0.0191650
773.093	0.0191183
773.172	0.0188766
773.250	0.0183532
773.328	0.0178895
773.406	0.0173861
773.484	0.0167985
773.562	0.0159753
773.640	0.0153262
773.718	0.0146678
773.797	0.0139682
773.875	0.0133769
773.953	0.0128289
774.031	0.0122635
774.109	0.0120572
774.187	0.0118981
774.265	0.0116939
774.343	0.0116457
774.422	0.0118782
774.500	0.0121825
774.578	0.0125443
774.656	0.0128634
774.734	0.0134053
774.812	0.0138958
774.890	0.0143159
774.968	0.0146060
775.047	0.0149181
775.125	0.0152480
775.203	0.0156527
775.281	0.0157913
775.359	0.0161115
775.437	0.0163212
775.515	0.0164020
775.593	0.0165231
775.672	0.0166585
775.750	0.0165446
775.828	0.0165960
775.906	0.0166933
775.984	0.0166509
776.062	0.0168320
776.140	0.0169447
776.218	0.0169431
776.297	0.0170334
776.375	0.0170666
776.453	0.0170940
776.531	0.0170242
776.609	0.0170592
776.687	0.0169997
776.765	0.0168957
776.843	0.0166994
776.922	0.0164691
777.000	0.0161143
777.078	0.0158887
777.156	0.0157072
777.234	0.0154089
777.312	0.0151953
777.390	0.0149532
777.468	0.0147346
777.547	0.0145086
777.625	0.0144778
777.703	0.0144705
777.781	0.0144907
777.859	0.0144047
777.937	0.0144756
778.015	0.0145348
778.093	0.0147200
778.172	0.0149122
778.250	0.0148985
778.328	0.0151533
778.406	0.0154417
778.484	0.0156021
778.562	0.0156914
778.640	0.0158286
778.718	0.0159833
778.797	0.0161636
778.875	0.0162353
778.953	0.0162444
779.031	0.0162546
779.109	0.0162485
779.187	0.0161720
779.265	0.0159135
779.343	0.0159435
779.422	0.0158531
779.500	0.0157204
779.578	0.0156695
779.656	0.0156234
779.734	0.0154172
779.812	0.0153461
779.890	0.0154266
779.968	0.0154201
780.047	0.0154070
780.125	0.0154631
780.203	0.0154736
780.281	0.0156125
780.359	0.0156511
780.437	0.0156364
780.515	0.0156770
780.593	0.0156461
780.672	0.0154658
780.750	0.0153836
780.828	0.0153017
780.906	0.0151308
780.984	0.0151614
781.062	0.0147359
781.140	0.0148457
781.218	0.0146375
781.297	0.0144789
781.375	0.0144028
781.453	0.0144427
781.531	0.0145061
781.609	0.0146761
781.687	0.0147814
781.765	0.0148630
781.843	0.0150450
781.922	0.0153146
782.000	0.0153325
782.078	0.0156740
782.156	0.0158684
782.234	0.0159035
782.312	0.0161613
782.390	0.0161495
782.468	0.0162434
782.547	0.0163880
782.625	0.0162884
782.703	0.0161318
782.781	0.0161564
782.859	0.0161310
782.937	0.0159447
783.015	0.0161234
783.093	0.0160403
783.172	0.0158918
783.250	0.0159069
783.328	0.0160502
783.406	0.0160735
783.484	0.0160514
783.562	0.0159977
783.640	0.0162426
783.718	0.0160972
783.797	0.0160532
783.875	0.0161848
783.953	0.0161919
784.031	0.0160352
784.109	0.0159249
784.187	0.0156973
784.265	0.0156365
784.343	0.0155824
784.422	0.0152124
784.500	0.0150197
784.578	0.0150496
784.656	0.0148074
784.734	0.0147007
784.812	0.0147572
784.890	0.0146156
784.968	0.0148286
785.047	0.0148595
785.125	0.0149929
785.203	0.0149815
785.281	0.0151741
785.359	0.0152493
785.437	0.0154346
785.515	0.0154738
785.593	0.0155195
785.672	0.0155600
785.750	0.0156016
785.828	0.0156822
785.906	0.0156538
785.984	0.0155859
786.062	0.0154707
786.140	0.0156416
786.218	0.0153815
786.297	0.0153120
786.375	0.0153191
786.453	0.0151860
786.531	0.0150500
786.609	0.0150879
786.687	0.0150115
786.765	0.0150556
786.843	0.0151954
786.922	0.0150217
787.000	0.0153954
787.078	0.0155322
787.156	0.0157545
787.234	0.0156894
787.312	0.0157684
787.390	0.0159252
787.468	0.0159613
787.547	0.0160324
787.625	0.0158511
787.703	0.0157933
787.781	0.0157016
787.859	0.0155556
787.937	0.0155621
788.015	0.0152290
788.093	0.0150203
788.172	0.0149296
788.250	0.0147694
788.328	0.0146577
788.406	0.0147397
788.484	0.0147845
788.562	0.0148477
788.640	0.0149216
788.718	0.0148724
788.797	0.0151713
788.875	0.0153864
788.953	0.0155893
789.031	0.0158797
789.109	0.0159262
789.187	0.0159454
789.265	0.0163076
789.343	0.0163972
789.422	0.0163852
789.500	0.0163348
789.578	0.0162402
789.656	0.0163625
789.734	0.0161532
789.812	0.0160697
789.890	0.0159820
789.968	0.0161439
790.047	0.0159968
790.125	0.0158771
790.203	0.0157536
790.281	0.0158213
790.359	0.0156311
790.437	0.0154738
790.515	0.0155811
790.593	0.0155676
790.672	0.0155587
790.750	0.0154018
790.828	0.0154631
790.906	0.0154074
790.984	0.0152760
791.062	0.0151118
791.140	0.0150877
791.218	0.0152509
791.297	0.0151900
791.375	0.0150890
791.453	0.0150528
791.531	0.0150314
791.609	0.0148833
791.687	0.0148217
791.765	0.0149480
791.843	0.0147686
791.922	0.0149447
792.000	0.0149067
792.078	0.0148945
792.156	0.0149714
792.234	0.0149687
792.312	0.0152380
792.390	0.0151965
792.468	0.0154265
792.547	0.0154355
792.625	0.0155161
792.703	0.0157672
792.781	0.0157481
792.859	0.0157609
792.937	0.0157312
793.015	0.0159399
793.093	0.0159994
793.172	0.0159834
793.250	0.0158396
793.328	0.0158393
793.406	0.0156814
793.484	0.0155323
793.562	0.0154701
793.640	0.0153922
793.718	0.0152484
793.797	0.0152775
793.875	0.0152899
793.953	0.0152199
794.031	0.0151159
794.109	0.0151510
794.187	0.0151823
794.265	0.0154837
794.343	0.0154558
794.422	0.0154194
794.500	0.0154953
794.578	0.0158456
794.656	0.0157537
794.734	0.0158778
794.812	0.0159008
794.890	0.0160255
794.968	0.0160323
795.047	0.0159611
795.125	0.0160025
795.203	0.0159553
795.281	0.0159905
795.359	0.0157908
795.437	0.0158408
795.515	0.0157271
795.593	0.0156501
795.672	0.0155904
795.750	0.0156427
795.828	0.0155318
795.906	0.0154462
795.984	0.0155719
796.062	0.0155618
796.140	0.0154571
796.218	0.0157236
796.297	0.0156128
796.375	0.0156230
796.453	0.0154607
796.531	0.0157159
796.609	0.0154789
796.687	0.0156276
796.765	0.0153879
796.843	0.0151630
796.922	0.0151929
797.000	0.0151365
797.078	0.0151567
797.156	0.0150312
797.234	0.0149728
797.312	0.0150523
797.390	0.0149005
797.468	0.0149001
797.547	0.0150405
797.625	0.0151567
797.703	0.0151099
797.781	0.0152552
797.859	0.0152493
797.937	0.0154621
798.015	0.0155861
798.093	0.0154587
798.172	0.0157268
798.250	0.0156701
798.328	0.0155637
798.406	0.0156137
798.484	0.0158018
798.562	0.0157006
798.640	0.0156458
798.718	0.0155170
798.797	0.0154187
798.875	0.0152911
798.953	0.0151994
799.031	0.0151370
799.109	0.0150301
799.187	0.0150800
799.265	0.0150968
799.343	0.0150400
799.422	0.0152246
799.500	0.0151545
799.578	0.0152914
799.656	0.0153770
799.734	0.0153947
799.812	0.0155769
799.890	0.0157354
799.968	0.0158717
800.047	0.0157970
800.125	0.0159892
800.203	0.0159867
800.281	0.0160310
800.359	0.0161123
800.437	0.0159367
800.515	0.0160210
800.593	0.0161139
800.672	0.0157806
800.750	0.0157581
800.828	0.0157399
800.906	0.0156316
800.984	0.0156239
801.062	0.0156183
801.140	0.0155614
801.218	0.0155051
801.297	0.0155305
801.375	0.0155265
801.453	0.0155262
801.531	0.0156029
801.609	0.0156551
801.687	0.0155553
801.765	0.0156383
801.843	0.0155976
801.922	0.0156566
802.000	0.0157217
802.078	0.0157765
802.156	0.0157759
802.234	0.0156800
802.312	0.0156634
802.390	0.0156335
802.468	0.0156775
802.547	0.0154404
802.625	0.0154039
802.703	0.0156194
802.781	0.0155343
802.859	0.0154638
802.937	0.0154607
803.015	0.0153596
803.093	0.0155792
803.172	0.0154534
803.250	0.0152353
803.328	0.0153969
803.406	0.0154604
803.484	0.0154387
803.562	0.0155719
803.640	0.0155487
803.718	0.0153365
803.797	0.0154375
803.875	0.0154149
803.953	0.0156604
804.031	0.0154939
804.109	0.0154463
804.187	0.0153974
804.265	0.0153057
804.343	0.0153408
804.422	0.0152814
804.500	0.0153222
804.578	0.0152100
804.656	0.0150832
804.734	0.0152158
804.812	0.0153707
804.890	0.0154543
804.968	0.0154139
805.047	0.0153529
805.125	0.0154182
805.203	0.0155790
805.281	0.0155161
805.359	0.0156216
805.437	0.0156105
805.515	0.0157491
805.593	0.0157822
805.672	0.0156594
805.750	0.0158707
805.828	0.0157967
805.906	0.0157567
805.984	0.0157456
806.062	0.0158708
806.140	0.0157619
806.218	0.0158283
806.297	0.0157408
806.375	0.0157074
806.453	0.0158398
806.531	0.0158758
806.609	0.0158154
806.687	0.0158533
806.765	0.0157231
806.843	0.0156747
806.922	0.0157966
807.000	0.0156380
807.078	0.0156004
807.156	0.0155179
807.234	0.0155121
807.312	0.0154111
807.390	0.0154868
807.468	0.0155985
807.547	0.0152764
807.625	0.0153038
807.703	0.0153978
807.781	0.0153612
807.859	0.0153045
807.937	0.0153432
808.015	0.0153487
808.093	0.0154953
808.172	0.0153490
808.250	0.0156037
808.328	0.0155724
808.406	0.0155772
808.484	0.0155928
808.562	0.0154977
808.640	0.0155057
808.718	0.0155336
808.797	0.0155652
808.875	0.0156516
808.953	0.0156797
809.031	0.0154346
809.109	0.0155760
809.187	0.0157199
809.265	0.0156255
809.343	0.0155693
809.422	0.0156038
809.500	0.0155418
809.578	0.0156850
809.656	0.0157345
809.734	0.0156612
809.812	0.0155606
809.890	0.0156716
809.968	0.0154690
810.047	0.0156657
810.125	0.0156480
810.203	0.0156681
810.281	0.0156354
810.359	0.0155852
810.437	0.0156441
810.515	0.0157507
810.593	0.0154655
810.672	0.0154662
810.750	0.0154365
810.828	0.0155545
810.906	0.0154671
810.984	0.0154802
811.062	0.0155994
811.140	0.0152915
811.218	0.0152872
811.297	0.0153196
811.375	0.0153185
811.453	0.0153320
811.531	0.0152052
811.609	0.0151993
811.687	0.0152532
811.765	0.0151624
811.843	0.0153469
811.922	0.0153307
812.000	0.0152590
812.078	0.0153411
812.156	0.0155305
812.234	0.0155467
812.312	0.0155835
812.390	0.0154630
812.468	0.0155697
812.547	0.0157202
812.625	0.0158342
812.703	0.0156917
812.781	0.0157718
812.859	0.0156831
812.937	0.0158235
813.015	0.0158719
813.093	0.0156805
813.172	0.0155756
813.250	0.0156880
813.328	0.0156627
813.406	0.0155740
813.484	0.0155389
813.562	0.0153271
813.640	0.0154777
813.718	0.0154972
813.797	0.0155184
813.875	0.0155205
813.953	0.0155359
814.031	0.0155875
814.109	0.0154469
814.187	0.0155084
814.265	0.0156407
814.343	0.0154459
814.422	0.0155658
814.500	0.0154164
814.578	0.0153947
814.656	0.0154797
814.734	0.0155723
814.812	0.0155547
814.890	0.0156696
814.968	0.0155162
815.047	0.0153834
815.125	0.0156141
815.203	0.0153989
815.281	0.0153412
815.359	0.0154984
815.437	0.0154141
815.515	0.0154247
815.593	0.0156589
815.672	0.0155502
815.750	0.0154485
815.828	0.0155045
815.906	0.0156036
815.984	0.0154021
816.062	0.0155226
816.140	0.0156028
816.218	0.0154798
816.297	0.0155537
816.375	0.0155576
816.453	0.0155090
816.531	0.0154333
816.609	0.0154540
816.687	0.0154776
816.765	0.0152940
816.843	0.0153421
816.922	0.0152993
817.000	0.0152278
817.078	0.0152609
817.156	0.0153423
817.234	0.0152636
817.312	0.0152169
817.390	0.0153983
817.468	0.0152288
817.547	0.0154361
817.625	0.0153941
817.703	0.0153528
817.781	0.0153477
817.859	0.0153741
817.937	0.0155075
818.015	0.0154891
818.093	0.0154337
818.172	0.0155157
818.250	0.0155141
818.328	0.0157114
818.406	0.0155672
818.484	0.0155383
818.562	0.0157100
818.640	0.0155207
818.718	0.0155014
818.797	0.0155836
818.875	0.0155692
818.953	0.0155526
819.031	0.0155797
819.109	0.0155940
819.187	0.0157043
819.265	0.0155466
819.343	0.0155869
819.422	0.0154600
819.500	0.0155544
819.578	0.0156108
819.656	0.0154924
819.734	0.0153633
819.812	0.0153860
819.890	0.0155865
819.968	0.0154526
820.047	0.0153467
820.125	0.0153280
820.203	0.0154289
820.281	0.0153145
820.359	0.0153079
820.437	0.0154742
820.515	0.0154228
820.593	0.0154070
820.672	0.0154082
820.750	0.0155192
820.828	0.0153735
820.906	0.0155193
820.984	0.0156502
821.062	0.0156410
821.140	0.0157134
821.218	0.0157031
821.297	0.0157434
821.375	0.0156959
821.453	0.0156335
821.531	0.0157438
821.609	0.0156820
821.687	0.0157530
821.765	0.0156594
821.843	0.0156126
821.922	0.0156426
822.000	0.0156232
822.078	0.0156232
822.156	0.0155605
822.234	0.0155988
822.312	0.0154883
822.390	0.0155936
822.468	0.0155308
822.547	0.0155730
822.625	0.0155399
822.703	0.0154487
822.781	0.0156087
822.859	0.0154625
822.937	0.0155526
823.015	0.0154167
823.093	0.0155240
823.172	0.0156233
823.250	0.0156094
823.328	0.0156036
823.406	0.0155870
823.484	0.0156037
823.562	0.0155469
823.640	0.0157082
823.718	0.0156463
823.797	0.0155010
823.875	0.0154478
823.953	0.0154449
824.031	0.0153115
824.109	0.0153956
824.187	0.0155387
824.265	0.0153788
824.343	0.0153428
824.422	0.0152046
824.500	0.0152101
824.578	0.0152713
824.656	0.0154026
824.734	0.0152489
824.812	0.0153530
824.890	0.0153378
824.968	0.0152652
825.047	0.0152570
825.125	0.0155090
825.203	0.0155775
825.281	0.0154756
825.359	0.0154781
825.437	0.0155434
825.515	0.0156850
825.593	0.0156792
825.672	0.0155613
825.750	0.0154887
825.828	0.0156176
825.906	0.0155837
825.984	0.0156174
826.062	0.0156663
826.140	0.0156495
826.218	0.0156072
826.297	0.0157471
826.375	0.0157224
826.453	0.0156668
826.531	0.0157295
826.609	0.0156801
826.687	0.0157798
826.765	0.0156805
826.843	0.0157771
826.922	0.0157679
827.000	0.0156779
827.078	0.0156601
827.156	0.0158401
827.234	0.0156411
827.312	0.0157790
827.390	0.0157091
827.468	0.0157360
827.547	0.0156562
827.625	0.0155452
827.703	0.0155492
827.781	0.0154522
827.859	0.0153365
827.937	0.0153703
828.015	0.0153291
828.093	0.0152223
828.172	0.0152466
828.250	0.0151412
828.328	0.0151094
828.406	0.0153152
828.484	0.0152807
828.562	0.0152184
828.640	0.0152872
828.718	0.0153355
828.797	0.0153997
828.875	0.0153680
828.953	0.0154201
829.031	0.0155177
829.109	0.0155809
829.187	0.0155872
829.265	0.0155804
829.343	0.0155952
829.422	0.0156087
829.500	0.0156569
829.578	0.0156539
829.656	0.0156855
829.734	0.0156870
829.812	0.0156523
829.890	0.0156164
829.968	0.0156542
830.047	0.0158155
830.125	0.0155308
830.203	0.0154913
830.281	0.0155668
830.359	0.0156902
830.437	0.0155162
830.515	0.0156477
830.593	0.0154559
830.672	0.0156461
830.750	0.0156305
830.828	0.0156746
830.906	0.0154573
830.984	0.0155516
831.062	0.0154913
831.140	0.0154303
831.218	0.0155861
831.297	0.0155405
831.375	0.0155569
831.453	0.0157214
831.531	0.0154812
831.609	0.0155744
831.687	0.0156968
831.765	0.0155781
831.843	0.0155545
831.922	0.0155801
832.000	0.0156457
832.078	0.0156152
832.156	0.0156196
832.234	0.0154537
832.312	0.0156655
832.390	0.0156242
832.468	0.0155650
832.547	0.0156057
832.625	0.0156229
832.703	0.0156630
832.781	0.0155754
832.859	0.0156459
832.937	0.0155297
833.015	0.0156361
833.093	0.0156300
833.172	0.0155409
833.250	0.0155392
833.328	0.0157870
833.406	0.0156724
833.484	0.0156525
833.562	0.0156555
833.640	0.0155982
833.718	0.0156056
833.797	0.0155811
833.875	0.0156052
833.953	0.0155854
834.031	0.0156875
834.109	0.0154815
834.187	0.0155173
834.265	0.0155315
834.343	0.0155111
834.422	0.0153799
834.500	0.0157102
834.578	0.0155628
834.656	0.0152998
834.734	0.0152708
834.812	0.0154026
834.890	0.0154375
834.968	0.0154453
835.047	0.0152665
835.125	0.0153266
835.203	0.0154151
835.281	0.0154599
835.359	0.0154763
835.437	0.0153562
835.515	0.0154645
835.593	0.0155337
835.672	0.0154049
835.750	0.0154590
835.828	0.0155188
835.906	0.0152950
835.984	0.0154230
836.062	0.0154918
836.140	0.0156070
836.218	0.0155550
836.297	0.0155151
836.375	0.0156010
836.453	0.0155263
836.531	0.0155840
836.609	0.0156380
836.687	0.0155455
836.765	0.0156001
836.843	0.0155519
836.922	0.0155183
837.000	0.0154472
837.078	0.0153921
837.156	0.0154377
837.234	0.0156187
837.312	0.0154153
837.390	0.0155596
837.468	0.0154684
837.547	0.0153396
837.625	0.0154147
837.703	0.0153905
837.781	0.0154420
837.859	0.0153481
837.937	0.0154181
838.015	0.0153934
838.093	0.0153755
838.172	0.0154040
838.250	0.0154639
838.328	0.0155191
838.406	0.0155640
838.484	0.0156310
838.562	0.0156027
838.640	0.0155643
838.718	0.0156534
838.797	0.0156430
838.875	0.0157244
838.953	0.0156277
839.031	0.0156539
839.109	0.0156828
839.187	0.0156050
839.265	0.0156374
839.343	0.0156846
839.422	0.0155664
839.500	0.0155986
839.578	0.0157147
839.656	0.0156239
839.734	0.0156489
839.812	0.0156628
839.890	0.0154506
839.968	0.0153885
840.047	0.0155549
840.125	0.0155944
840.203	0.0155807
840.281	0.0154338
840.359	0.0155973
840.437	0.0154787
840.515	0.0155121
840.593	0.0155154
840.672	0.0153838
840.750	0.0153177
840.828	0.0155441
840.906	0.0156177
840.984	0.0154745
841.062	0.0155016
841.140	0.0154903
841.218	0.0154702
841.297	0.0155180
841.375	0.0154570
841.453	0.0155341
841.531	0.0155183
841.609	0.0155180
841.687	0.0154600
841.765	0.0154341
841.843	0.0155486
841.922	0.0155164
842.000	0.0154709
842.078	0.0155138
842.156	0.0155127
842.234	0.0154467
842.312	0.0153840
842.390	0.0154774
842.468	0.0153162
842.547	0.0153802
842.625	0.0153996
842.703	0.0155305
842.781	0.0156001
842.859	0.0155038
842.937	0.0154496
843.015	0.0155455
843.093	0.0155952
843.172	0.0155434
843.250	0.0155075
843.328	0.0154802
843.406	0.0153582
843.484	0.0154839
843.562	0.0156398
843.640	0.0154890
843.718	0.0154267
843.797	0.0154906
843.875	0.0155276
843.953	0.0156317
844.031	0.0155492
844.109	0.0155506
844.187	0.0156483
844.265	0.0156259
844.343	0.0156943
844.422	0.0155094
844.500	0.0155399
844.578	0.0155002
844.656	0.0154784
844.734	0.0155217
844.812	0.0156158
844.890	0.0157365
844.968	0.0154715
845.047	0.0154292
845.125	0.0153745
845.203	0.0152792
845.281	0.0152369
845.359	0.0154240
845.437	0.0152904
845.515	0.0152177
845.593	0.0153842
845.672	0.0152581
845.750	0.0152192
845.828	0.0154212
845.906	0.0152991
845.984	0.0154841
846.062	0.0154719
846.140	0.0153139
846.218	0.0154472
846.297	0.0157034
846.375	0.0156395
846.453	0.0156589
846.531	0.0158037
846.609	0.0158459
846.687	0.0159061
846.765	0.0160201
846.843	0.0160696
846.922	0.0159749
847.000	0.0161009
847.078	0.0160523
847.156	0.0160598
847.234	0.0159678
847.312	0.0160394
847.390	0.0160627
847.468	0.0158893
847.547	0.0158551
847.625	0.0158782
847.703	0.0155919
847.781	0.0155240
847.859	0.0155308
847.937	0.0155048
848.015	0.0153026
848.093	0.0151419
848.172	0.0150418
848.250	0.0147433
848.328	0.0147541
848.406	0.0146273
848.484	0.0144657
848.562	0.0144567
848.640	0.0144425
848.718	0.0144714
848.797	0.0145011
848.875	0.0146835
848.953	0.0147720
849.031	0.0147588
849.109	0.0148658
849.187	0.0150333
849.265	0.0152644
849.343	0.0154253
849.422	0.0154901
849.500	0.0157067
849.578	0.0158388
849.656	0.0161407
849.734	0.0161003
849.812	0.0162224
849.890	0.0163756
849.968	0.0164536
850.047	0.0164940
850.125	0.0165688
850.203	0.0165356
850.281	0.0166447
850.359	0.0166900
850.437	0.0166067
850.515	0.0166136
850.593	0.0163898
850.672	0.0161771
850.750	0.0160164
850.828	0.0160694
850.906	0.0158674
850.984	0.0155314
851.062	0.0155561
851.140	0.0154401
851.218	0.0152325
851.297	0.0150432
851.375	0.0150583
851.453	0.0149178
851.531	0.0146467
851.609	0.0146923
851.687	0.0144600
851.765	0.0143729
851.843	0.0144712
851.922	0.0143549
852.000	0.0142101
852.078	0.0143848
852.156	0.0143179
852.234	0.0144009
852.312	0.0145043
852.390	0.0146347
852.468	0.0148267
852.547	0.0149747
852.625	0.0150739
852.703	0.0152676
852.781	0.0155289
852.859	0.0157036
852.937	0.0158605
853.015	0.0159048
853.093	0.0160574
853.172	0.0161995
853.250	0.0163787
853.328	0.0164842
853.406	0.0165516
853.484	0.0165632
853.562	0.0168044
853.640	0.0166545
853.718	0.0165840
853.797	0.0167743
853.875	0.0167058
853.953	0.0165151
854.031	0.0166260
854.109	0.0164689
854.187	0.0163391
854.265	0.0161192
854.343	0.0158656
854.422	0.0159801
854.500	0.0158030
854.578	0.0154337
854.656	0.0153241
854.734	0.0152010
854.812	0.0151151
854.890	0.0148749
854.968	0.0146737
855.047	0.0147215
855.125	0.0143773
855.203	0.0143539
855.281	0.0143211
855.359	0.0141467
855.437	0.0143341
855.515	0.0143340
855.593	0.0143954
855.672	0.0145573
855.750	0.0145066
855.828	0.0149274
855.906	0.0149380
855.984	0.0149687
856.062	0.0153685
856.140	0.0155009
856.218	0.0156933
856.297	0.0157681
856.375	0.0159282
856.453	0.0161726
856.531	0.0162943
856.609	0.0163107
856.687	0.0163912
856.765	0.0162642
856.843	0.0161674
856.922	0.0164311
857.000	0.0162832
857.078	0.0162008
857.156	0.0162217
857.234	0.0160712
857.312	0.0162283
857.390	0.0162353
857.468	0.0159957
857.547	0.0159249
857.625	0.0157700
857.703	0.0158107
857.781	0.0157054
857.859	0.0153644
857.937	0.0155319
858.015	0.0154559
858.093	0.0151649
858.172	0.0152103
858.250	0.0150916
858.328	0.0150253
858.406	0.0150056
858.484	0.0148578
858.562	0.0149779
858.640	0.0149184
858.718	0.0148605
858.797	0.0147663
858.875	0.0149270
858.953	0.0148896
859.031	0.0150747
859.109	0.0151764
859.187	0.0153141
859.265	0.0154450
859.343	0.0155084
859.422	0.0158061
859.500	0.0159377
859.578	0.0159747
859.656	0.0161633
859.734	0.0162148
859.812	0.0162117
859.890	0.0163506
859.968	0.0164108
860.047	0.0163353
860.125	0.0163845
860.203	0.0163325
860.281	0.0161992
860.359	0.0161761
860.437	0.0161555
860.515	0.0160243
860.593	0.0158453
860.672	0.0156152
860.750	0.0154868
860.828	0.0155280
860.906	0.0152290
860.984	0.0151706
861.062	0.0150435
861.140	0.0149334
861.218	0.0146836
861.297	0.0147148
861.375	0.0145992
861.453	0.0146544
861.531	0.0145600
861.609	0.0145567
861.687	0.0144856
861.765	0.0145928
861.843	0.0145294
861.922	0.0146316
862.000	0.0147671
862.078	0.0148673
862.156	0.0149213
862.234	0.0150887
862.312	0.0151167
862.390	0.0152543
862.468	0.0154012
862.547	0.0156056
862.625	0.0156847
862.703	0.0158358
862.781	0.0160268
862.859	0.0162218
862.937	0.0163818
863.015	0.0164338
863.093	0.0164119
863.172	0.0163650
863.250	0.0163474
863.328	0.0162953
863.406	0.0163573
863.484	0.0163448
863.562	0.0163411
863.640	0.0162146
863.718	0.0160176
863.797	0.0159574
863.875	0.0157127
863.953	0.0157691
864.031	0.0156275
864.109	0.0154554
864.187	0.0154979
864.265	0.0152243
864.343	0.0151651
864.422	0.0150031
864.500	0.0149599
864.578	0.0151009
864.656	0.0151147
864.734	0.0150226
864.812	0.0150424
864.890	0.0150924
864.968	0.0150350
865.047	0.0151503
865.125	0.0151115
865.203	0.0150676
865.281	0.0152418
865.359	0.0151010
865.437	0.0152155
865.515	0.0152909
865.593	0.0152753
865.672	0.0151901
865.750	0.0154238
865.828	0.0154577
865.906	0.0154380
865.984	0.0154752
866.062	0.0155076
866.140	0.0155520
866.218	0.0154871
866.297	0.0156105
866.375	0.0156445
866.453	0.0157608
866.531	0.0156728
866.609	0.0156196
866.687	0.0156777
866.765	0.0157236
866.843	0.0157954
866.922	0.0154890
867.000	0.0154894
867.078	0.0156982
867.156	0.0157497
867.234	0.0156139
867.312	0.0155099
867.390	0.0154541
867.468	0.0154739
867.547	0.0154243
867.625	0.0153481
867.703	0.0153824
867.781	0.0153770
867.859	0.0154668
867.937	0.0153287
868.015	0.0152723
868.093	0.0152410
868.172	0.0153265
868.250	0.0154001
868.328	0.0154114
868.406	0.0153606
868.484	0.0153819
868.562	0.0156261
868.640	0.0157046
868.718	0.0154120
868.797	0.0156940
868.875	0.0157586
868.953	0.0157477
869.031	0.0157164
869.109	0.0158953
869.187	0.0160234
869.265	0.0158652
869.343	0.0157502
869.422	0.0158236
869.500	0.0157586
869.578	0.0157964
869.656	0.0158838
869.734	0.0158453
869.812	0.0157491
869.890	0.0155548
869.968	0.0156465
870.047	0.0157533
870.125	0.0156936
870.203	0.0155907
870.281	0.0154235
870.359	0.0153622
870.437	0.0153547
870.515	0.0153198
870.593	0.0152480
870.672	0.0151894
870.750	0.0151846
870.828	0.0152087
870.906	0.0152028
870.984	0.0152395
871.062	0.0151889
871.140	0.0151654
871.218	0.0152733
871.297	0.0152714
871.375	0.0151711
871.453	0.0153139
871.531	0.0153924
871.609	0.0153042
871.687	0.0153082
871.765	0.0155252
871.843	0.0153230
871.922	0.0153922
872.000	0.0155784
872.078	0.0156050
872.156	0.0155085
872.234	0.0154315
872.312	0.0155119
872.390	0.0155271
872.468	0.0155164
872.547	0.0155112
872.625	0.0154206
872.703	0.0155453
872.781	0.0156001
872.859	0.0154714
872.937	0.0156548
873.015	0.0155032
873.093	0.0157821
873.172	0.0156835
873.250	0.0155379
873.328	0.0156433
873.406	0.0156414
873.484	0.0156163
873.562	0.0156166
873.640	0.0156237
873.718	0.0156779
873.797	0.0154631
873.875	0.0155449
873.953	0.0157196
874.031	0.0156948
874.109	0.0154903
874.187	0.0154118
874.265	0.0155485
874.343	0.0155942
874.422	0.0154814
874.500	0.0156258
874.578	0.0157012
874.656	0.0156267
874.734	0.0156387
874.812	0.0158119
874.890	0.0157964
874.968	0.0159366
875.047	0.0157834
875.125	0.0158470
875.203	0.0159776
875.281	0.0157503
875.359	0.0157607
875.437	0.0157630
875.515	0.0156039
875.593	0.0153934
875.672	0.0154977
875.750	0.0155171
875.828	0.0155374
875.906	0.0153896
875.984	0.0153147
876.062	0.0153271
876.140	0.0152800
876.218	0.0152103
876.297	0.0151874
876.375	0.0152237
876.453	0.0151392
876.531	0.0152436
876.609	0.0151942
876.687	0.0151648
876.765	0.0152679
876.843	0.0152559
876.922	0.0151734
877.000	0.0153985
877.078	0.0153851
877.156	0.0154563
877.234	0.0154237
877.312	0.0156400
877.390	0.0155054
877.468	0.0154594
877.547	0.0155408
877.625	0.0155958
877.703	0.0156123
877.781	0.0156698
877.859	0.0156559
877.937	0.0157520
878.015	0.0156378
878.093	0.0156673
878.172	0.0156844
878.250	0.0155910
878.328	0.0156589
878.406	0.0154993
878.484	0.0155662
878.562	0.0157417
878.640	0.0157452
878.718	0.0156792
878.797	0.0155384
878.875	0.0154987
878.953	0.0155614
879.031	0.0154724
879.109	0.0153654
879.187	0.0153236
879.265	0.0154554
879.343	0.0152884
879.422	0.0154370
879.500	0.0153645
879.578	0.0152691
879.656	0.0154408
879.734	0.0154588
879.812	0.0154813
879.890	0.0155093
879.968	0.0154272
880.047	0.0155172
880.125	0.0156499
880.203	0.0156596
880.281	0.0155979
880.359	0.0155412
880.437	0.0156980
880.515	0.0156701
880.593	0.0157404
880.672	0.0157109
880.750	0.0158627
880.828	0.0158997
880.906	0.0157668
880.984	0.0158918
881.062	0.0158968
881.140	0.0158369
881.218	0.0158295
881.297	0.0158243
881.375	0.0156757
881.453	0.0157821
881.531	0.0156346
881.609	0.0156139
881.687	0.0155802
881.765	0.0155448
881.843	0.0155165
881.922	0.0154308
882.000	0.0153962
882.078	0.0153149
882.156	0.0154369
882.234	0.0151928
882.312	0.0151230
882.390	0.0151436
882.468	0.0152481
882.547	0.0152512
882.625	0.0151437
882.703	0.0152004
882.781	0.0152852
882.859	0.0152199
882.937	0.0151971
883.015	0.0153572
883.093	0.0154071
883.172	0.0153203
883.250	0.0154065
883.328	0.0155483
883.406	0.0154639
883.484	0.0155779
883.562	0.0156089
883.640	0.0155803
883.718	0.0155797
883.797	0.0156711
883.875	0.0155270
883.953	0.0156201
884.031	0.0155698
884.109	0.0157781
884.187	0.0157556
884.265	0.0156311
884.343	0.0155754
884.422	0.0154925
884.500	0.0157578
884.578	0.0157888
884.656	0.0158789
884.734	0.0156238
884.812	0.0156475
884.890	0.0156461
884.968	0.0156192
885.047	0.0155814
885.125	0.0155447
885.203	0.0156097
885.281	0.0154960
885.359	0.0153986
885.437	0.0154800
885.515	0.0155173
885.593	0.0153814
885.672	0.0152413
885.750	0.0152729
885.828	0.0154156
885.906	0.0153658
885.984	0.0152515
886.062	0.0154308
886.140	0.0154005
886.218	0.0154501
886.297	0.0154826
886.375	0.0156062
886.453	0.0155299
886.531	0.0156316
886.609	0.0157291
886.687	0.0157485
886.765	0.0155738
886.843	0.0156341
886.922	0.0157504
887.000	0.0157330
887.078	0.0157125
887.156	0.0156944
887.234	0.0156677
887.312	0.0156181
887.390	0.0156067
887.468	0.0155798
887.547	0.0155354
887.625	0.0156411
887.703	0.0156084
887.781	0.0154410
887.859	0.0156400
887.937	0.0156236
888.015	0.0155348
888.093	0.0154607
888.172	0.0155673
888.250	0.0154680
888.328	0.0153302
888.406	0.0154164
888.484	0.0154377
888.562	0.0154530
888.640	0.0153316
888.718	0.0154130
888.797	0.0154901
888.875	0.0153175
888.953	0.0153957
889.031	0.0154026
889.109	0.0154234
889.187	0.0152481
889.265	0.0152545
889.343	0.0152692
889.422	0.0154683
889.500	0.0153980
889.578	0.0152473
889.656	0.0153683
889.734	0.0152672
889.812	0.0153416
889.890	0.0154350
889.968	0.0154562
890.047	0.0155058
890.125	0.0154561
890.203	0.0153574
890.281	0.0153965
890.359	0.0153210
890.437	0.0152980
890.515	0.0154591
890.593	0.0154802
890.672	0.0156397
890.750	0.0154911
890.828	0.0155898
890.906	0.0156456
890.984	0.0155139
891.062	0.0155047
891.140	0.0157553
891.218	0.0157816
891.297	0.0157412
891.375	0.0156741
891.453	0.0157852
891.531	0.0156616
891.609	0.0156258
891.687	0.0156592
891.765	0.0156300
891.843	0.0155106
891.922	0.0156437
892.000	0.0155739
892.078	0.0154495
892.156	0.0155809
892.234	0.0155394
892.312	0.0154265
892.390	0.0153658
892.468	0.0153806
892.547	0.0153313
892.625	0.0153957
892.703	0.0154518
892.781	0.0154638
892.859	0.0152973
892.937	0.0152986
893.015	0.0153427
893.093	0.0154017
893.172	0.0153724
893.250	0.0153162
893.328	0.0153344
893.406	0.0153573
893.484	0.0153402
893.562	0.0154498
893.640	0.0155648
893.718	0.0154829
893.797	0.0153147
893.875	0.0153751
893.953	0.0154338
894.031	0.0155328
894.109	0.0154089
894.187	0.0154980
894.265	0.0155589
894.343	0.0155545
894.422	0.0155600
894.500	0.0155830
894.578	0.0156584
894.656	0.0155607
894.734	0.0156554
894.812	0.0155200
894.890	0.0154317
894.968	0.0154366
895.047	0.0154854
895.125	0.0155564
895.203	0.0155078
895.281	0.0155334
895.359	0.0155027
895.437	0.0155114
895.515	0.0155009
895.593	0.0155377
895.672	0.0153943
895.750	0.0154049
895.828	0.0155169
895.906	0.0153970
895.984	0.0154370
896.062	0.0154103
896.140	0.0153694
896.218	0.0154019
896.297	0.0154418
896.375	0.0154112
896.453	0.0153508
896.531	0.0155508
896.609	0.0155180
896.687	0.0156490
896.765	0.0154552
896.843	0.0155533
896.922	0.0155190
897.000	0.0156058
897.078	0.0155479
897.156	0.0155340
897.234	0.0154784
897.312	0.0155758
897.390	0.0155555
897.468	0.0154675
897.547	0.0155233
897.625	0.0155771
897.703	0.0154526
897.781	0.0155643
897.859	0.0156367
897.937	0.0155482
898.015	0.0156095
898.093	0.0157182
898.172	0.0155968
898.250	0.0154579
898.328	0.0156902
898.406	0.0155130
898.484	0.0155770
898.562	0.0156133
898.640	0.0155171
898.718	0.0155698
898.797	0.0155843
898.875	0.0154381
898.953	0.0156341
899.031	0.0156358
899.109	0.0154564
899.187	0.0153938
899.265	0.0154423
899.343	0.0155762
899.422	0.0155279
899.500	0.0155115
899.578	0.0155608
899.656	0.0154666
899.734	0.0155727
899.812	0.0154868
899.890	0.0155766
899.968	0.0154794
900.047	0.0154945
900.125	0.0154800
900.203	0.0155939
900.281	0.0156342
900.359	0.0154979
900.437	0.0155049
900.515	0.0156532
900.593	0.0155354
900.672	0.0155783
900.750	0.0156543
900.828	0.0156271
900.906	0.0154646
900.984	0.0154955
901.062	0.0154904
901.140	0.0153209
901.218	0.0154366
901.297	0.0155495
901.375	0.0155923
901.453	0.0154035
901.531	0.0154336
901.609	0.0154687
901.687	0.0152916
901.765	0.0153778
901.843	0.0153980
901.922	0.0154313
902.000	0.0154279
902.078	0.0154601
902.156	0.0153261
902.234	0.0154435
902.312	0.0155009
902.390	0.0154384
902.468	0.0153291
902.547	0.0154691
902.625	0.0155206
902.703	0.0154122
902.781	0.0154687
902.859	0.0154626
902.937	0.0153897
903.015	0.0155375
903.093	0.0154961
903.172	0.0156021
903.250	0.0155129
903.328	0.0153856
903.406	0.0156055
903.484	0.0156527
903.562	0.0155206
903.640	0.0154926
903.718	0.0155928
903.797	0.0155033
903.875	0.0154649
903.953	0.0155818
904.031	0.0156321
904.109	0.0154816
904.187	0.0154727
904.265	0.0153361
904.343	0.0155888
904.422	0.0155831
904.500	0.0154174
904.578	0.0154173
904.656	0.0155217
904.734	0.0154399
904.812	0.0154649
904.890	0.0156214
904.968	0.0154567
905.047	0.0154925
905.125	0.0156110
905.203	0.0155907
905.281	0.0156664
905.359	0.0155225
905.437	0.0154485
905.515	0.0155032
905.593	0.0154591
905.672	0.0156102
905.750	0.0155148
905.828	0.0154523
905.906	0.0155399
905.984	0.0154474
906.062	0.0154553
906.140	0.0153871
906.218	0.0155598
906.297	0.0155017
906.375	0.0154999
906.453	0.0156268
906.531	0.0154563
906.609	0.0154701
906.687	0.0154700
906.765	0.0152845
906.843	0.0155153
906.922	0.0153484
907.000	0.0155264
907.078	0.0154546
907.156	0.0154369
907.234	0.0153775
907.312	0.0154881
907.390	0.0154611
907.468	0.0154662
907.547	0.0154304
907.625	0.0154874
907.703	0.0154364
907.781	0.0154264
907.859	0.0154132
907.937	0.0154934
908.015	0.0155089
908.093	0.0155906
908.172	0.0156068
908.250	0.0156548
908.328	0.0155226
908.406	0.0156119
908.484	0.0155360
908.562	0.0156055
908.640	0.0156302
908.718	0.0157382
908.797	0.0155420
908.875	0.0155952
908.953	0.0157551
909.031	0.0155971
909.109	0.0156731
909.187	0.0155366
909.265	0.0155556
909.343	0.0155840
909.422	0.0156254
909.500	0.0155319
909.578	0.0155075
909.656	0.0155122
909.734	0.0155377
909.812	0.0155219
909.890	0.0154230
909.968	0.0155151
910.047	0.0154063
910.125	0.0153627
910.203	0.0153677
910.281	0.0154659
910.359	0.0156182
910.437	0.0154934
910.515	0.0153745
910.593	0.0154482
910.672	0.0154620
910.750	0.0155383
910.828	0.0155563
910.906	0.0155643
910.984	0.0154164
911.062	0.0154468
911.140	0.0154332
911.218	0.0156072
911.297	0.0156145
911.375	0.0154931
911.453	0.0155760
911.531	0.0154322
911.609	0.0154514
911.687	0.0156081
911.765	0.0155644
911.843	0.0155598
911.922	0.0154350
912.000	0.0154567
912.078	0.0155315
912.156	0.0155565
912.234	0.0154741
912.312	0.0155344
912.390	0.0155593
912.468	0.0153540
912.547	0.0154705
912.625	0.0155630
912.703	0.0155092
912.781	0.0155574
912.859	0.0154736
912.937	0.0152850
913.015	0.0153236
913.093	0.0154530
913.172	0.0153931
913.250	0.0154166
913.328	0.0153260
913.406	0.0153465
913.484	0.0153665
913.562	0.0153863
913.640	0.0152159
913.718	0.0152482
913.797	0.0153561
913.875	0.0154865
913.953	0.0154893
914.031	0.0155345
914.109	0.0155219
914.187	0.0156146
914.265	0.0154807
914.343	0.0155508
914.422	0.0154686
914.500	0.0155327
914.578	0.0155830
914.656	0.0154855
914.734	0.0155058
914.812	0.0154473
914.890	0.0154578
914.968	0.0155526
915.047	0.0154207
915.125	0.0155105
915.203	0.0155221
915.281	0.0155344
915.359	0.0155453
915.437	0.0154928
915.515	0.0153490
915.593	0.0154469
915.672	0.0154913
915.750	0.0155576
915.828	0.0156487
915.906	0.0153828
915.984	0.0155627
916.062	0.0155978
916.140	0.0154453
916.218	0.0156504
916.297	0.0156510
916.375	0.0154377
916.453	0.0156417
916.531	0.0155665
916.609	0.0154298
916.687	0.0154665
916.765	0.0156445
916.843	0.0155325
916.922	0.0154945
917.000	0.0153693
917.078	0.0153778
917.156	0.0155245
917.234	0.0154460
917.312	0.0153047
917.390	0.0154814
917.468	0.0153944
917.547	0.0153651
917.625	0.0153065
917.703	0.0152562
917.781	0.0154040
917.859	0.0152354
917.937	0.0153454
918.015	0.0155159
918.093	0.0152836
918.172	0.0153313
918.250	0.0153845
918.328	0.0154477
918.406	0.0154682
918.484	0.0154755
918.562	0.0155723
918.640	0.0155070
918.718	0.0155350
918.797	0.0156509
918.875	0.0156427
918.953	0.0154785
919.031	0.0155453
919.109	0.0155134
919.187	0.0155054
919.265	0.0155901
919.343	0.0153965
919.422	0.0155814
919.500	0.0153893
919.578	0.0156211
919.656	0.0154852
919.734	0.0154769
919.812	0.0154382
919.890	0.0154573
