06/13/2022	14:42:08	Ver.	4.1	UNKNOWN
Optical Delay	599.968395	Delta X		0.078125	Sweeps	1	Scan Rate	0/0
Coordinates	Axis 1	NaN	Axis 2	NaN	Axis 3	NaN	Axis 4	NaN	Axis 5	NaN	Axis 6	0.000000
TX Power	0.000000	RX Power	0.000000

599.968	0.0155305
600.047	0.0156906
600.125	0.0156249
600.203	0.0155260
600.281	0.0156119
600.359	0.0156273
600.437	0.0156078
600.515	0.0155973
600.593	0.0155518
600.672	0.0154221
600.750	0.0155145
600.828	0.0155840
600.906	0.0154422
600.984	0.0154400
601.062	0.0155530
601.140	0.0153958
601.218	0.0155669
601.297	0.0157005
601.375	0.0156804
601.453	0.0155618
601.531	0.0155578
601.609	0.0156367
601.687	0.0154941
601.765	0.0153693
601.843	0.0156456
601.922	0.0155989
602.000	0.0154638
602.078	0.0155283
602.156	0.0155511
602.234	0.0155238
602.312	0.0155878
602.390	0.0155732
602.468	0.0154859
602.547	0.0155164
602.625	0.0154501
602.703	0.0154778
602.781	0.0155162
602.859	0.0155552
602.937	0.0155415
603.015	0.0154747
603.093	0.0156297
603.172	0.0155556
603.250	0.0156777
603.328	0.0155924
603.406	0.0155813
603.484	0.0154735
603.562	0.0155172
603.640	0.0157158
603.718	0.0156926
603.797	0.0157635
603.875	0.0155442
603.953	0.0154874
604.031	0.0155779
604.109	0.0154875
604.187	0.0154677
604.265	0.0155484
604.343	0.0156114
604.422	0.0155730
604.500	0.0155318
604.578	0.0155579
604.656	0.0156096
604.734	0.0155479
604.812	0.0155061
604.890	0.0155645
604.968	0.0154890
605.047	0.0154309
605.125	0.0156184
605.203	0.0156190
605.281	0.0157038
605.359	0.0155801
605.437	0.0154614
605.515	0.0154869
605.593	0.0156694
605.672	0.0155099
605.750	0.0154847
605.828	0.0155418
605.906	0.0156126
605.984	0.0157115
606.062	0.0157131
606.140	0.0156024
606.218	0.0155286
606.297	0.0155942
606.375	0.0155537
606.453	0.0155351
606.531	0.0155550
606.609	0.0155647
606.687	0.0154563
606.765	0.0154956
606.843	0.0155730
606.922	0.0154807
607.000	0.0154133
607.078	0.0155988
607.156	0.0155460
607.234	0.0155380
607.312	0.0154350
607.390	0.0155856
607.468	0.0155921
607.547	0.0157015
607.625	0.0154977
607.703	0.0154310
607.781	0.0154983
607.859	0.0155266
607.937	0.0156937
608.015	0.0156157
608.093	0.0155614
608.172	0.0155545
608.250	0.0154245
608.328	0.0155755
608.406	0.0155681
608.484	0.0155404
608.562	0.0156512
608.640	0.0155592
608.718	0.0155881
608.797	0.0156408
608.875	0.0156083
608.953	0.0155933
609.031	0.0156961
609.109	0.0154028
609.187	0.0153944
609.265	0.0156203
609.343	0.0156734
609.422	0.0155634
609.500	0.0156328
609.578	0.0155112
609.656	0.0154812
609.734	0.0155846
609.812	0.0157334
609.890	0.0154678
609.968	0.0153806
610.047	0.0156139
610.125	0.0154923
610.203	0.0155941
610.281	0.0154858
610.359	0.0155325
610.437	0.0156215
610.515	0.0154801
610.593	0.0155545
610.672	0.0154723
610.750	0.0156210
610.828	0.0154937
610.906	0.0154415
610.984	0.0153912
611.062	0.0155379
611.140	0.0154993
611.218	0.0156319
611.297	0.0154977
611.375	0.0153470
611.453	0.0155069
611.531	0.0155702
611.609	0.0155409
611.687	0.0154478
611.765	0.0154436
611.843	0.0154826
611.922	0.0156054
612.000	0.0156227
612.078	0.0155847
612.156	0.0156142
612.234	0.0155380
612.312	0.0156275
612.390	0.0154797
612.468	0.0154764
612.547	0.0155293
612.625	0.0155024
612.703	0.0156489
612.781	0.0156041
612.859	0.0154625
612.937	0.0154934
613.015	0.0153305
613.093	0.0154371
613.172	0.0155379
613.250	0.0156214
613.328	0.0156195
613.406	0.0154662
613.484	0.0154738
613.562	0.0155299
613.640	0.0156852
613.718	0.0155631
613.797	0.0155550
613.875	0.0155345
613.953	0.0155607
614.031	0.0155630
614.109	0.0155141
614.187	0.0155470
614.265	0.0155035
614.343	0.0155096
614.422	0.0155608
614.500	0.0156277
614.578	0.0154462
614.656	0.0154595
614.734	0.0155222
614.812	0.0155475
614.890	0.0153369
614.968	0.0154961
615.047	0.0154410
615.125	0.0154766
615.203	0.0154678
615.281	0.0154710
615.359	0.0155189
615.437	0.0155703
615.515	0.0154308
615.593	0.0154894
615.672	0.0156306
615.750	0.0155734
615.828	0.0155169
615.906	0.0154224
615.984	0.0154312
616.062	0.0154762
616.140	0.0155327
616.218	0.0154173
616.297	0.0153305
616.375	0.0154897
616.453	0.0154678
616.531	0.0155689
616.609	0.0156155
616.687	0.0154946
616.765	0.0155269
616.843	0.0154060
616.922	0.0155235
617.000	0.0155534
617.078	0.0156284
617.156	0.0155393
617.234	0.0155107
617.312	0.0154739
617.390	0.0155558
617.468	0.0155899
617.547	0.0155470
617.625	0.0155449
617.703	0.0155151
617.781	0.0155509
617.859	0.0155907
617.937	0.0155466
618.015	0.0155194
618.093	0.0156100
618.172	0.0154921
618.250	0.0155685
618.328	0.0155228
618.406	0.0155927
618.484	0.0156027
618.562	0.0154768
618.640	0.0156107
618.718	0.0155225
618.797	0.0155328
618.875	0.0154430
618.953	0.0154681
619.031	0.0155827
619.109	0.0155046
619.187	0.0154219
619.265	0.0154566
619.343	0.0154306
619.422	0.0154351
619.500	0.0154477
619.578	0.0154956
619.656	0.0154361
619.734	0.0155286
619.812	0.0154957
619.890	0.0153894
619.968	0.0155508
620.047	0.0154313
620.125	0.0154332
620.203	0.0156341
620.281	0.0155386
620.359	0.0155897
620.437	0.0153592
620.515	0.0155236
620.593	0.0155341
620.672	0.0155514
620.750	0.0154954
620.828	0.0155677
620.906	0.0155790
620.984	0.0154999
621.062	0.0155867
621.140	0.0155874
621.218	0.0155243
621.297	0.0155459
621.375	0.0154050
621.453	0.0154144
621.531	0.0155323
621.609	0.0155189
621.687	0.0155723
621.765	0.0155528
621.843	0.0154732
621.922	0.0155347
622.000	0.0155516
622.078	0.0154170
622.156	0.0155254
622.234	0.0154456
622.312	0.0155758
622.390	0.0155724
622.468	0.0155682
622.547	0.0154796
622.625	0.0155058
622.703	0.0156236
622.781	0.0154435
622.859	0.0155190
622.937	0.0155231
623.015	0.0157063
623.093	0.0156709
623.172	0.0154582
623.250	0.0155326
623.328	0.0154916
623.406	0.0155373
623.484	0.0155192
623.562	0.0155460
623.640	0.0155362
623.718	0.0156158
623.797	0.0156554
623.875	0.0154291
623.953	0.0155883
624.031	0.0154783
624.109	0.0155107
624.187	0.0155512
624.265	0.0155743
624.343	0.0157220
624.422	0.0154533
624.500	0.0154220
624.578	0.0153944
624.656	0.0156434
624.734	0.0155611
624.812	0.0155622
624.890	0.0156654
624.968	0.0156529
625.047	0.0154927
625.125	0.0155264
625.203	0.0155247
625.281	0.0153979
625.359	0.0154415
625.437	0.0154745
625.515	0.0155441
625.593	0.0155013
625.672	0.0155158
625.750	0.0155155
625.828	0.0154250
625.906	0.0156215
625.984	0.0155436
626.062	0.0154710
626.140	0.0154202
626.218	0.0155074
626.297	0.0155588
626.375	0.0155639
626.453	0.0155653
626.531	0.0153719
626.609	0.0154699
626.687	0.0155926
626.765	0.0155361
626.843	0.0153773
626.922	0.0154148
627.000	0.0155774
627.078	0.0154903
627.156	0.0154184
627.234	0.0156107
627.312	0.0156488
627.390	0.0156601
627.468	0.0155515
627.547	0.0155807
627.625	0.0155992
627.703	0.0156453
627.781	0.0155327
627.859	0.0155451
627.937	0.0155615
628.015	0.0155444
628.093	0.0154770
628.172	0.0155868
628.250	0.0155418
628.328	0.0154893
628.406	0.0154918
628.484	0.0156299
628.562	0.0153862
628.640	0.0155055
628.718	0.0154824
628.797	0.0155228
628.875	0.0155735
628.953	0.0155118
629.031	0.0156422
629.109	0.0155710
629.187	0.0155135
629.265	0.0155187
629.343	0.0154565
629.422	0.0155396
629.500	0.0154681
629.578	0.0155470
629.656	0.0155538
629.734	0.0154367
629.812	0.0155804
629.890	0.0155800
629.968	0.0154890
630.047	0.0156435
630.125	0.0155763
630.203	0.0155163
630.281	0.0154767
630.359	0.0155920
630.437	0.0154687
630.515	0.0155425
630.593	0.0155216
630.672	0.0154480
630.750	0.0155031
630.828	0.0155367
630.906	0.0155277
630.984	0.0156073
631.062	0.0155420
631.140	0.0154304
631.218	0.0156027
631.297	0.0154662
631.375	0.0155717
631.453	0.0155205
631.531	0.0156174
631.609	0.0154947
631.687	0.0155147
631.765	0.0156270
631.843	0.0156184
631.922	0.0154903
632.000	0.0155376
632.078	0.0154179
632.156	0.0155650
632.234	0.0155653
632.312	0.0155775
632.390	0.0156086
632.468	0.0156029
632.547	0.0155716
632.625	0.0156383
632.703	0.0155093
632.781	0.0156758
632.859	0.0154252
632.937	0.0154418
633.015	0.0154527
633.093	0.0154984
633.172	0.0155553
633.250	0.0155747
633.328	0.0155605
633.406	0.0154741
633.484	0.0155395
633.562	0.0155876
633.640	0.0155630
633.718	0.0155797
633.797	0.0155563
633.875	0.0155975
633.953	0.0155504
634.031	0.0154937
634.109	0.0156934
634.187	0.0156156
634.265	0.0155618
634.343	0.0155392
634.422	0.0154462
634.500	0.0156267
634.578	0.0155076
634.656	0.0155505
634.734	0.0155853
634.812	0.0155128
634.890	0.0157027
634.968	0.0154578
635.047	0.0154164
635.125	0.0155682
635.203	0.0155874
635.281	0.0154898
635.359	0.0156207
635.437	0.0155264
635.515	0.0154533
635.593	0.0156249
635.672	0.0155227
635.750	0.0155322
635.828	0.0156922
635.906	0.0154987
635.984	0.0156322
636.062	0.0154624
636.140	0.0154727
636.218	0.0156462
636.297	0.0154913
636.375	0.0156593
636.453	0.0156181
636.531	0.0155910
636.609	0.0155798
636.687	0.0156183
636.765	0.0155291
636.843	0.0155132
636.922	0.0156625
637.000	0.0155987
637.078	0.0155633
637.156	0.0155627
637.234	0.0155746
637.312	0.0156298
637.390	0.0153889
637.468	0.0155953
637.547	0.0155984
637.625	0.0155554
637.703	0.0154987
637.781	0.0156221
637.859	0.0155195
637.937	0.0157021
638.015	0.0155202
638.093	0.0154429
638.172	0.0154886
638.250	0.0155722
638.328	0.0155333
638.406	0.0156651
638.484	0.0156166
638.562	0.0155298
638.640	0.0155653
638.718	0.0155637
638.797	0.0153753
638.875	0.0154805
638.953	0.0156301
639.031	0.0155409
639.109	0.0155643
639.187	0.0156026
639.265	0.0156094
639.343	0.0155183
639.422	0.0155449
639.500	0.0156291
639.578	0.0155489
639.656	0.0154847
639.734	0.0156477
639.812	0.0154449
639.890	0.0155875
639.968	0.0154758
640.047	0.0155425
640.125	0.0156529
640.203	0.0154604
640.281	0.0156050
640.359	0.0156264
640.437	0.0155276
640.515	0.0154661
640.593	0.0156096
640.672	0.0156210
640.750	0.0155348
640.828	0.0155933
640.906	0.0155329
640.984	0.0156699
641.062	0.0155659
641.140	0.0154092
641.218	0.0155983
641.297	0.0156459
641.375	0.0156622
641.453	0.0156463
641.531	0.0155361
641.609	0.0155306
641.687	0.0156959
641.765	0.0156394
641.843	0.0154962
641.922	0.0156197
642.000	0.0156663
642.078	0.0155388
642.156	0.0154904
642.234	0.0155215
642.312	0.0156550
642.390	0.0156158
642.468	0.0155937
642.547	0.0155787
642.625	0.0154298
642.703	0.0155392
642.781	0.0156391
642.859	0.0154898
642.937	0.0153629
643.015	0.0154737
643.093	0.0154905
643.172	0.0154592
643.250	0.0155296
643.328	0.0157114
643.406	0.0156493
643.484	0.0155017
643.562	0.0154713
643.640	0.0154988
643.718	0.0156551
643.797	0.0155051
643.875	0.0155091
643.953	0.0155469
644.031	0.0155804
644.109	0.0154938
644.187	0.0154646
644.265	0.0156026
644.343	0.0155374
644.422	0.0154319
644.500	0.0155650
644.578	0.0154668
644.656	0.0156232
644.734	0.0155035
644.812	0.0155604
644.890	0.0154375
644.968	0.0153619
645.047	0.0154964
645.125	0.0155955
645.203	0.0155931
645.281	0.0156290
645.359	0.0154987
645.437	0.0155916
645.515	0.0156580
645.593	0.0155379
645.672	0.0155148
645.750	0.0155686
645.828	0.0156064
645.906	0.0155464
645.984	0.0155299
646.062	0.0155780
646.140	0.0155139
646.218	0.0155191
646.297	0.0155625
646.375	0.0155793
646.453	0.0154971
646.531	0.0154974
646.609	0.0156489
646.687	0.0155677
646.765	0.0154354
646.843	0.0155402
646.922	0.0154989
647.000	0.0155779
647.078	0.0155364
647.156	0.0154020
647.234	0.0155455
647.312	0.0155830
647.390	0.0154290
647.468	0.0154796
647.547	0.0155466
647.625	0.0155828
647.703	0.0156245
647.781	0.0154944
647.859	0.0154191
647.937	0.0155627
648.015	0.0155605
648.093	0.0156351
648.172	0.0155134
648.250	0.0156419
648.328	0.0155675
648.406	0.0154539
648.484	0.0155314
648.562	0.0155065
648.640	0.0155980
648.718	0.0153629
648.797	0.0155627
648.875	0.0156699
648.953	0.0156728
649.031	0.0155695
649.109	0.0155264
649.187	0.0156197
649.265	0.0154907
649.343	0.0154716
649.422	0.0155492
649.500	0.0156178
649.578	0.0155172
649.656	0.0156151
649.734	0.0156819
649.812	0.0156340
649.890	0.0155351
649.968	0.0156371
650.047	0.0154407
650.125	0.0156557
650.203	0.0156695
650.281	0.0157092
650.359	0.0156375
650.437	0.0156181
650.515	0.0155605
650.593	0.0156198
650.672	0.0155019
650.750	0.0154382
650.828	0.0155649
650.906	0.0156947
650.984	0.0155533
651.062	0.0155482
651.140	0.0156164
651.218	0.0155881
651.297	0.0156902
651.375	0.0155457
651.453	0.0155827
651.531	0.0156075
651.609	0.0156159
651.687	0.0155931
651.765	0.0156165
651.843	0.0155811
651.922	0.0155473
652.000	0.0155302
652.078	0.0155705
652.156	0.0155892
652.234	0.0155302
652.312	0.0155685
652.390	0.0156770
652.468	0.0156535
652.547	0.0155096
652.625	0.0154876
652.703	0.0155753
652.781	0.0154815
652.859	0.0155494
652.937	0.0155495
653.015	0.0154979
653.093	0.0155729
653.172	0.0156180
653.250	0.0156132
653.328	0.0155965
653.406	0.0156526
653.484	0.0155522
653.562	0.0155582
653.640	0.0155530
653.718	0.0155555
653.797	0.0156052
653.875	0.0156947
653.953	0.0155401
654.031	0.0154977
654.109	0.0155026
654.187	0.0154803
654.265	0.0155510
654.343	0.0155497
654.422	0.0155273
654.500	0.0154134
654.578	0.0155328
654.656	0.0155511
654.734	0.0155248
654.812	0.0156266
654.890	0.0155136
654.968	0.0155277
655.047	0.0156474
655.125	0.0155485
655.203	0.0154973
655.281	0.0154784
655.359	0.0155714
655.437	0.0155937
655.515	0.0154334
655.593	0.0155507
655.672	0.0155602
655.750	0.0156572
655.828	0.0153487
655.906	0.0155251
655.984	0.0156781
656.062	0.0155955
656.140	0.0155925
656.218	0.0156063
656.297	0.0154860
656.375	0.0155046
656.453	0.0156151
656.531	0.0154589
656.609	0.0155751
656.687	0.0155013
656.765	0.0155051
656.843	0.0155104
656.922	0.0155917
657.000	0.0156075
657.078	0.0155672
657.156	0.0155373
657.234	0.0156468
657.312	0.0155544
657.390	0.0154909
657.468	0.0155767
657.547	0.0155631
657.625	0.0154868
657.703	0.0155651
657.781	0.0156054
657.859	0.0155563
657.937	0.0155428
658.015	0.0155387
658.093	0.0155638
658.172	0.0156721
658.250	0.0155176
658.328	0.0155191
658.406	0.0154530
658.484	0.0156223
658.562	0.0155541
658.640	0.0155482
658.718	0.0155920
658.797	0.0154945
658.875	0.0154875
658.953	0.0156714
659.031	0.0155917
659.109	0.0155042
659.187	0.0155341
659.265	0.0155967
659.343	0.0155307
659.422	0.0155315
659.500	0.0154653
659.578	0.0156824
659.656	0.0154246
659.734	0.0155154
659.812	0.0156974
659.890	0.0153705
659.968	0.0155611
660.047	0.0156029
660.125	0.0156245
660.203	0.0155237
660.281	0.0154460
660.359	0.0156209
660.437	0.0154928
660.515	0.0155386
660.593	0.0155321
660.672	0.0155646
660.750	0.0154686
660.828	0.0155999
660.906	0.0155805
660.984	0.0155363
661.062	0.0155228
661.140	0.0155831
661.218	0.0154267
661.297	0.0155231
661.375	0.0155702
661.453	0.0155434
661.531	0.0154813
661.609	0.0156377
661.687	0.0154823
661.765	0.0155533
661.843	0.0155914
661.922	0.0156308
662.000	0.0154652
662.078	0.0155172
662.156	0.0155882
662.234	0.0155643
662.312	0.0157115
662.390	0.0156094
662.468	0.0155364
662.547	0.0155888
662.625	0.0155013
662.703	0.0154948
662.781	0.0153332
662.859	0.0156408
662.937	0.0154868
663.015	0.0156593
663.093	0.0156543
663.172	0.0155829
663.250	0.0155917
663.328	0.0155709
663.406	0.0154820
663.484	0.0154624
663.562	0.0156427
663.640	0.0156413
663.718	0.0156113
663.797	0.0155276
663.875	0.0155679
663.953	0.0154760
664.031	0.0154873
664.109	0.0156345
664.187	0.0156839
664.265	0.0155224
664.343	0.0154859
664.422	0.0155315
664.500	0.0155594
664.578	0.0157106
664.656	0.0155667
664.734	0.0154977
664.812	0.0156218
664.890	0.0154295
664.968	0.0155391
665.047	0.0154786
665.125	0.0156136
665.203	0.0157050
665.281	0.0155180
665.359	0.0154684
665.437	0.0155932
665.515	0.0154337
665.593	0.0156318
665.672	0.0157051
665.750	0.0154500
665.828	0.0156174
665.906	0.0155414
665.984	0.0155878
666.062	0.0155478
666.140	0.0157600
666.218	0.0155891
666.297	0.0154871
666.375	0.0154886
666.453	0.0156564
666.531	0.0155650
666.609	0.0156208
666.687	0.0154921
666.765	0.0156240
666.843	0.0157208
666.922	0.0155042
667.000	0.0155162
667.078	0.0156097
667.156	0.0155742
667.234	0.0156118
667.312	0.0155701
667.390	0.0155759
667.468	0.0156010
667.547	0.0156566
667.625	0.0155034
667.703	0.0156440
667.781	0.0155623
667.859	0.0154458
667.937	0.0156104
668.015	0.0155241
668.093	0.0155652
668.172	0.0154570
668.250	0.0155798
668.328	0.0156586
668.406	0.0155611
668.484	0.0155222
668.562	0.0155405
668.640	0.0156434
668.718	0.0156401
668.797	0.0154247
668.875	0.0154014
668.953	0.0155663
669.031	0.0154922
669.109	0.0155272
669.187	0.0155357
669.265	0.0155457
669.343	0.0154176
669.422	0.0155205
669.500	0.0156264
669.578	0.0154579
669.656	0.0153808
669.734	0.0155526
669.812	0.0155354
669.890	0.0154397
669.968	0.0156008
670.047	0.0155125
670.125	0.0154760
670.203	0.0155624
670.281	0.0154684
670.359	0.0155227
670.437	0.0154427
670.515	0.0157179
670.593	0.0155795
670.672	0.0155109
670.750	0.0155176
670.828	0.0155318
670.906	0.0155286
670.984	0.0154050
671.062	0.0155817
671.140	0.0155853
671.218	0.0155582
671.297	0.0154563
671.375	0.0155489
671.453	0.0155162
671.531	0.0155474
671.609	0.0154182
671.687	0.0155022
671.765	0.0156017
671.843	0.0154729
671.922	0.0155604
672.000	0.0156651
672.078	0.0155256
672.156	0.0155170
672.234	0.0154760
672.312	0.0155966
672.390	0.0155526
672.468	0.0154993
672.547	0.0155379
672.625	0.0154016
672.703	0.0154303
672.781	0.0154534
672.859	0.0155676
672.937	0.0155226
673.015	0.0154649
673.093	0.0154575
673.172	0.0154520
673.250	0.0156013
673.328	0.0155012
673.406	0.0155273
673.484	0.0154981
673.562	0.0155532
673.640	0.0155722
673.718	0.0155335
673.797	0.0155145
673.875	0.0155421
673.953	0.0154610
674.031	0.0155276
674.109	0.0155206
674.187	0.0154524
674.265	0.0155028
674.343	0.0154968
674.422	0.0155222
674.500	0.0154896
674.578	0.0153843
674.656	0.0154638
674.734	0.0154027
674.812	0.0156474
674.890	0.0156169
674.968	0.0154801
675.047	0.0154961
675.125	0.0154015
675.203	0.0154443
675.281	0.0154404
675.359	0.0156232
675.437	0.0155688
675.515	0.0155785
675.593	0.0156538
675.672	0.0155460
675.750	0.0156229
675.828	0.0154652
675.906	0.0155556
675.984	0.0154644
676.062	0.0155912
676.140	0.0156145
676.218	0.0155054
676.297	0.0156907
676.375	0.0155903
676.453	0.0155284
676.531	0.0155888
676.609	0.0155275
676.687	0.0155561
676.765	0.0157329
676.843	0.0155975
676.922	0.0154494
677.000	0.0155251
677.078	0.0154012
677.156	0.0155424
677.234	0.0156860
677.312	0.0156186
677.390	0.0154934
677.468	0.0155664
677.547	0.0156776
677.625	0.0156644
677.703	0.0155845
677.781	0.0156223
677.859	0.0156133
677.937	0.0156388
678.015	0.0156018
678.093	0.0155609
678.172	0.0155319
678.250	0.0156345
678.328	0.0155196
678.406	0.0155488
678.484	0.0156197
678.562	0.0156658
678.640	0.0155226
678.718	0.0156858
678.797	0.0154927
678.875	0.0155817
678.953	0.0155813
679.031	0.0155508
679.109	0.0156796
679.187	0.0156419
679.265	0.0156174
679.343	0.0155436
679.422	0.0155624
679.500	0.0154977
679.578	0.0154462
679.656	0.0156095
679.734	0.0154925
679.812	0.0156955
679.890	0.0156529
679.968	0.0154468
680.047	0.0155508
680.125	0.0156735
680.203	0.0156170
680.281	0.0155878
680.359	0.0153916
680.437	0.0154960
680.515	0.0154619
680.593	0.0155885
680.672	0.0155980
680.750	0.0154186
680.828	0.0154887
680.906	0.0156610
680.984	0.0156333
681.062	0.0155351
681.140	0.0153842
681.218	0.0155302
681.297	0.0155389
681.375	0.0156693
681.453	0.0156253
681.531	0.0153815
681.609	0.0155164
681.687	0.0156057
681.765	0.0155109
681.843	0.0154652
681.922	0.0157108
682.000	0.0155254
682.078	0.0154900
682.156	0.0154699
682.234	0.0155039
682.312	0.0155858
682.390	0.0155592
682.468	0.0155680
682.547	0.0155044
682.625	0.0155190
682.703	0.0155650
682.781	0.0155756
682.859	0.0156503
682.937	0.0155698
683.015	0.0154606
683.093	0.0155875
683.172	0.0154581
683.250	0.0155764
683.328	0.0153619
683.406	0.0154138
683.484	0.0154232
683.562	0.0156001
683.640	0.0156454
683.718	0.0155871
683.797	0.0156400
683.875	0.0154752
683.953	0.0154393
684.031	0.0155457
684.109	0.0154344
684.187	0.0154659
684.265	0.0154657
684.343	0.0156300
684.422	0.0155968
684.500	0.0155560
684.578	0.0155030
684.656	0.0154415
684.734	0.0155688
684.812	0.0156391
684.890	0.0156911
684.968	0.0155681
685.047	0.0155821
685.125	0.0157017
685.203	0.0156619
685.281	0.0155221
685.359	0.0154767
685.437	0.0156412
685.515	0.0156140
685.593	0.0155354
685.672	0.0156126
685.750	0.0156956
685.828	0.0157164
685.906	0.0156265
685.984	0.0155485
686.062	0.0154784
686.140	0.0155643
686.218	0.0156054
686.297	0.0155444
686.375	0.0155058
686.453	0.0154745
686.531	0.0155188
686.609	0.0155283
686.687	0.0154652
686.765	0.0155555
686.843	0.0155352
686.922	0.0154926
687.000	0.0155682
687.078	0.0154101
687.156	0.0155036
687.234	0.0154638
687.312	0.0155357
687.390	0.0155345
687.468	0.0154308
687.547	0.0156845
687.625	0.0156576
687.703	0.0154340
687.781	0.0155416
687.859	0.0156139
687.937	0.0154819
688.015	0.0155344
688.093	0.0156029
688.172	0.0155371
688.250	0.0156039
688.328	0.0155434
688.406	0.0155326
688.484	0.0157409
688.562	0.0154774
688.640	0.0156410
688.718	0.0156349
688.797	0.0155218
688.875	0.0155589
688.953	0.0154576
689.031	0.0154790
689.109	0.0156602
689.187	0.0154536
689.265	0.0156261
689.343	0.0155548
689.422	0.0156075
689.500	0.0154614
689.578	0.0156533
689.656	0.0157333
689.734	0.0155557
689.812	0.0154454
689.890	0.0155770
689.968	0.0156574
690.047	0.0155424
690.125	0.0156064
690.203	0.0155270
690.281	0.0155199
690.359	0.0156660
690.437	0.0154554
690.515	0.0155984
690.593	0.0155915
690.672	0.0157099
690.750	0.0155640
690.828	0.0154724
690.906	0.0155157
690.984	0.0155825
691.062	0.0156017
691.140	0.0154865
691.218	0.0155136
691.297	0.0156268
691.375	0.0155653
691.453	0.0155389
691.531	0.0155084
691.609	0.0155964
691.687	0.0155894
691.765	0.0154051
691.843	0.0154288
691.922	0.0155005
692.000	0.0155237
692.078	0.0154532
692.156	0.0155582
692.234	0.0155486
692.312	0.0155098
692.390	0.0155477
692.468	0.0154778
692.547	0.0155687
692.625	0.0154709
692.703	0.0154891
692.781	0.0153793
692.859	0.0155348
692.937	0.0156132
693.015	0.0156174
693.093	0.0155206
693.172	0.0154994
693.250	0.0155887
693.328	0.0154991
693.406	0.0154366
693.484	0.0153935
693.562	0.0155032
693.640	0.0156595
693.718	0.0155093
693.797	0.0155521
693.875	0.0155060
693.953	0.0155596
694.031	0.0155545
694.109	0.0155447
694.187	0.0155890
694.265	0.0155218
694.343	0.0156648
694.422	0.0156423
694.500	0.0156352
694.578	0.0155802
694.656	0.0154861
694.734	0.0154886
694.812	0.0154729
694.890	0.0155205
694.968	0.0154595
695.047	0.0154971
695.125	0.0155112
695.203	0.0155328
695.281	0.0155797
695.359	0.0157146
695.437	0.0157082
695.515	0.0154465
695.593	0.0155697
695.672	0.0156470
695.750	0.0156223
695.828	0.0155891
695.906	0.0155827
695.984	0.0156635
696.062	0.0157013
696.140	0.0156389
696.218	0.0154243
696.297	0.0154619
696.375	0.0154598
696.453	0.0155000
696.531	0.0155392
696.609	0.0155379
696.687	0.0156066
696.765	0.0155514
696.843	0.0155731
696.922	0.0153971
697.000	0.0154865
697.078	0.0155657
697.156	0.0154720
697.234	0.0154175
697.312	0.0156210
697.390	0.0155859
697.468	0.0155049
697.547	0.0156089
697.625	0.0155847
697.703	0.0154874
697.781	0.0155756
697.859	0.0155518
697.937	0.0154205
698.015	0.0155149
698.093	0.0155717
698.172	0.0152579
698.250	0.0154963
698.328	0.0156366
698.406	0.0156467
698.484	0.0155799
698.562	0.0156306
698.640	0.0155965
698.718	0.0156851
698.797	0.0154467
698.875	0.0154521
698.953	0.0155468
699.031	0.0154970
699.109	0.0157104
699.187	0.0154720
699.265	0.0156371
699.343	0.0156051
699.422	0.0155505
699.500	0.0155981
699.578	0.0155580
699.656	0.0154699
699.734	0.0156556
699.812	0.0156731
699.890	0.0154691
699.968	0.0154369
700.047	0.0153915
700.125	0.0155418
700.203	0.0154848
700.281	0.0155076
700.359	0.0156554
700.437	0.0154741
700.515	0.0155331
700.593	0.0155700
700.672	0.0155828
700.750	0.0154459
700.828	0.0155856
700.906	0.0154747
700.984	0.0153835
701.062	0.0155616
701.140	0.0155637
701.218	0.0155592
701.297	0.0155710
701.375	0.0155485
701.453	0.0154776
701.531	0.0154755
701.609	0.0156351
701.687	0.0155006
701.765	0.0155941
701.843	0.0155839
701.922	0.0155077
702.000	0.0154823
702.078	0.0155278
702.156	0.0155330
702.234	0.0154658
702.312	0.0154415
702.390	0.0153865
702.468	0.0154826
702.547	0.0154974
702.625	0.0154524
702.703	0.0155009
702.781	0.0155278
702.859	0.0155196
702.937	0.0155637
703.015	0.0155462
703.093	0.0155768
703.172	0.0154927
703.250	0.0155947
703.328	0.0155341
703.406	0.0155775
703.484	0.0156550
703.562	0.0155720
703.640	0.0154725
703.718	0.0155769
703.797	0.0155205
703.875	0.0155184
703.953	0.0155209
704.031	0.0155209
704.109	0.0155146
704.187	0.0155408
704.265	0.0155000
704.343	0.0154328
704.422	0.0155970
704.500	0.0155283
704.578	0.0156377
704.656	0.0156322
704.734	0.0155405
704.812	0.0154315
704.890	0.0153968
704.968	0.0155009
705.047	0.0157114
705.125	0.0153954
705.203	0.0155101
705.281	0.0156083
705.359	0.0155637
705.437	0.0156107
705.515	0.0154827
705.593	0.0153999
705.672	0.0154832
705.750	0.0154388
705.828	0.0155111
705.906	0.0155571
705.984	0.0155502
706.062	0.0155547
706.140	0.0155196
706.218	0.0154302
706.297	0.0155578
706.375	0.0154254
706.453	0.0155420
706.531	0.0156216
706.609	0.0154689
706.687	0.0156214
706.765	0.0156271
706.843	0.0155518
706.922	0.0155286
707.000	0.0154184
707.078	0.0154198
707.156	0.0155804
707.234	0.0155765
707.312	0.0155676
707.390	0.0154536
707.468	0.0155723
707.547	0.0154118
707.625	0.0154931
707.703	0.0155617
707.781	0.0155361
707.859	0.0154528
707.937	0.0156430
708.015	0.0155463
708.093	0.0154762
708.172	0.0156103
708.250	0.0156558
708.328	0.0154413
708.406	0.0155255
708.484	0.0155981
708.562	0.0154778
708.640	0.0155429
708.718	0.0155542
708.797	0.0155758
708.875	0.0154287
708.953	0.0155480
709.031	0.0154504
709.109	0.0154118
709.187	0.0155243
709.265	0.0154384
709.343	0.0155699
709.422	0.0155302
709.500	0.0157317
709.578	0.0154387
709.656	0.0156045
709.734	0.0155402
709.812	0.0155102
709.890	0.0155807
709.968	0.0155426
710.047	0.0154761
710.125	0.0154905
710.203	0.0155617
710.281	0.0154659
710.359	0.0155736
710.437	0.0155739
710.515	0.0155470
710.593	0.0155916
710.672	0.0155124
710.750	0.0154967
710.828	0.0155895
710.906	0.0154675
710.984	0.0155888
711.062	0.0155308
711.140	0.0155451
711.218	0.0155135
711.297	0.0155574
711.375	0.0155862
711.453	0.0156290
711.531	0.0154961
711.609	0.0156053
711.687	0.0155756
711.765	0.0154617
711.843	0.0154957
711.922	0.0155399
712.000	0.0155212
712.078	0.0155160
712.156	0.0154269
712.234	0.0153896
712.312	0.0155146
712.390	0.0157631
712.468	0.0155209
712.547	0.0155310
712.625	0.0155999
712.703	0.0156020
712.781	0.0154927
712.859	0.0156079
712.937	0.0155199
713.015	0.0156111
713.093	0.0153905
713.172	0.0155335
713.250	0.0154796
713.328	0.0155793
713.406	0.0156627
713.484	0.0155097
713.562	0.0154255
713.640	0.0155518
713.718	0.0155856
713.797	0.0155264
713.875	0.0154275
713.953	0.0155688
714.031	0.0156186
714.109	0.0156026
714.187	0.0155518
714.265	0.0155527
714.343	0.0155473
714.422	0.0155875
714.500	0.0155793
714.578	0.0154771
714.656	0.0155074
714.734	0.0156358
714.812	0.0155980
714.890	0.0155388
714.968	0.0156116
715.047	0.0156161
715.125	0.0156444
715.203	0.0155507
715.281	0.0155725
715.359	0.0156309
715.437	0.0155415
715.515	0.0155854
715.593	0.0155146
715.672	0.0155394
715.750	0.0156615
715.828	0.0155502
715.906	0.0157253
715.984	0.0156136
716.062	0.0156142
716.140	0.0155847
716.218	0.0155628
716.297	0.0155740
716.375	0.0156472
716.453	0.0156776
716.531	0.0155013
716.609	0.0154186
716.687	0.0156160
716.765	0.0155936
716.843	0.0155654
716.922	0.0156309
717.000	0.0156683
717.078	0.0155578
717.156	0.0156661
717.234	0.0155965
717.312	0.0156374
717.390	0.0157041
717.468	0.0156215
717.547	0.0156197
717.625	0.0155930
717.703	0.0156300
717.781	0.0155146
717.859	0.0156820
717.937	0.0155138
718.015	0.0156696
718.093	0.0155449
718.172	0.0156164
718.250	0.0154773
718.328	0.0155055
718.406	0.0156547
718.484	0.0155090
718.562	0.0156052
718.640	0.0155361
718.718	0.0155289
718.797	0.0155950
718.875	0.0155362
718.953	0.0156529
719.031	0.0156158
719.109	0.0155694
719.187	0.0155184
719.265	0.0155605
719.343	0.0155434
719.422	0.0156546
719.500	0.0155916
719.578	0.0156210
719.656	0.0155593
719.734	0.0155563
719.812	0.0155333
719.890	0.0157428
719.968	0.0156674
720.047	0.0156300
720.125	0.0156040
720.203	0.0154292
720.281	0.0155826
720.359	0.0156538
720.437	0.0156363
720.515	0.0155524
720.593	0.0155259
720.672	0.0155804
720.750	0.0155206
720.828	0.0155193
720.906	0.0155104
720.984	0.0157160
721.062	0.0155448
721.140	0.0156066
721.218	0.0154552
721.297	0.0155202
721.375	0.0154878
721.453	0.0154692
721.531	0.0155571
721.609	0.0155811
721.687	0.0154782
721.765	0.0155925
721.843	0.0155962
721.922	0.0153600
722.000	0.0155009
722.078	0.0154553
722.156	0.0155726
722.234	0.0156114
722.312	0.0154665
722.390	0.0154871
722.468	0.0155113
722.547	0.0155161
722.625	0.0156225
722.703	0.0155383
722.781	0.0156081
722.859	0.0154324
722.937	0.0154782
723.015	0.0155409
723.093	0.0155882
723.172	0.0155300
723.250	0.0155991
723.328	0.0155671
723.406	0.0155399
723.484	0.0155424
723.562	0.0154556
723.640	0.0156728
723.718	0.0154000
723.797	0.0155808
723.875	0.0156039
723.953	0.0155397
724.031	0.0155251
724.109	0.0153779
724.187	0.0155118
724.265	0.0155974
724.343	0.0155322
724.422	0.0155743
724.500	0.0155098
724.578	0.0155042
724.656	0.0156177
724.734	0.0154786
724.812	0.0154352
724.890	0.0156121
724.968	0.0154758
725.047	0.0154589
725.125	0.0156124
725.203	0.0155436
725.281	0.0155381
725.359	0.0155970
725.437	0.0155611
725.515	0.0155199
725.593	0.0155850
725.672	0.0154653
725.750	0.0154723
725.828	0.0155930
725.906	0.0155764
725.984	0.0154589
726.062	0.0154675
726.140	0.0154826
726.218	0.0154367
726.297	0.0156175
726.375	0.0155146
726.453	0.0155441
726.531	0.0156151
726.609	0.0156215
726.687	0.0153201
726.765	0.0155250
726.843	0.0156727
726.922	0.0156604
727.000	0.0155698
727.078	0.0156060
727.156	0.0155007
727.234	0.0156386
727.312	0.0155676
727.390	0.0155939
727.468	0.0154590
727.547	0.0155099
727.625	0.0154548
727.703	0.0155270
727.781	0.0156580
727.859	0.0155895
727.937	0.0155332
728.015	0.0154635
728.093	0.0155935
728.172	0.0154663
728.250	0.0155355
728.328	0.0154880
728.406	0.0156213
728.484	0.0154488
728.562	0.0155880
728.640	0.0154678
728.718	0.0155995
728.797	0.0155995
728.875	0.0155401
728.953	0.0154287
729.031	0.0156744
729.109	0.0156828
729.187	0.0154633
729.265	0.0155740
729.343	0.0156068
729.422	0.0155978
729.500	0.0155428
729.578	0.0154208
729.656	0.0154543
729.734	0.0155489
729.812	0.0155164
729.890	0.0154514
729.968	0.0155520
730.047	0.0156159
730.125	0.0154945
730.203	0.0155188
730.281	0.0156310
730.359	0.0155357
730.437	0.0155196
730.515	0.0156092
730.593	0.0156356
730.672	0.0155577
730.750	0.0156305
730.828	0.0155331
730.906	0.0156635
730.984	0.0155029
731.062	0.0155054
731.140	0.0156233
731.218	0.0156265
731.297	0.0155224
731.375	0.0156126
731.453	0.0155338
731.531	0.0155333
731.609	0.0155405
731.687	0.0156493
731.765	0.0156606
731.843	0.0155928
731.922	0.0156873
732.000	0.0155659
732.078	0.0155706
732.156	0.0155698
732.234	0.0154267
732.312	0.0155396
732.390	0.0155424
732.468	0.0154086
732.547	0.0155272
732.625	0.0155775
732.703	0.0155628
732.781	0.0154370
732.859	0.0156082
732.937	0.0156141
733.015	0.0154793
733.093	0.0155595
733.172	0.0157176
733.250	0.0154476
733.328	0.0155444
733.406	0.0156843
733.484	0.0154294
733.562	0.0156048
733.640	0.0156178
733.718	0.0156380
733.797	0.0155951
733.875	0.0155320
733.953	0.0156646
734.031	0.0155746
734.109	0.0157037
734.187	0.0156400
734.265	0.0155543
734.343	0.0154507
734.422	0.0155500
734.500	0.0155568
734.578	0.0155859
734.656	0.0156807
734.734	0.0156247
734.812	0.0157070
734.890	0.0155649
734.968	0.0154664
735.047	0.0156294
735.125	0.0157631
735.203	0.0155734
735.281	0.0156190
735.359	0.0157298
735.437	0.0157354
735.515	0.0156399
735.593	0.0155566
735.672	0.0157339
735.750	0.0155470
735.828	0.0155019
735.906	0.0155397
735.984	0.0154477
736.062	0.0157019
736.140	0.0156471
736.218	0.0155457
736.297	0.0156924
736.375	0.0156516
736.453	0.0155624
736.531	0.0157549
736.609	0.0156697
736.687	0.0156261
736.765	0.0155546
736.843	0.0155913
736.922	0.0156548
737.000	0.0155596
737.078	0.0154685
737.156	0.0155512
737.234	0.0155120
737.312	0.0156451
737.390	0.0156197
737.468	0.0157115
737.547	0.0155341
737.625	0.0154547
737.703	0.0155138
737.781	0.0156385
737.859	0.0156276
737.937	0.0156324
738.015	0.0156978
738.093	0.0155746
738.172	0.0155245
738.250	0.0156293
738.328	0.0156462
738.406	0.0156698
738.484	0.0156253
738.562	0.0156371
738.640	0.0156037
738.718	0.0155022
738.797	0.0155347
738.875	0.0153077
738.953	0.0154412
739.031	0.0155341
739.109	0.0156129
739.187	0.0154543
739.265	0.0155170
739.343	0.0154603
739.422	0.0156567
739.500	0.0156799
739.578	0.0156414
739.656	0.0154493
739.734	0.0156007
739.812	0.0155686
739.890	0.0156157
739.968	0.0157272
740.047	0.0156156
740.125	0.0156416
740.203	0.0156229
740.281	0.0155883
740.359	0.0154689
740.437	0.0155334
740.515	0.0155025
740.593	0.0154781
740.672	0.0154092
740.750	0.0153963
740.828	0.0153896
740.906	0.0154893
740.984	0.0155365
741.062	0.0155392
741.140	0.0155783
741.218	0.0155751
741.297	0.0156041
741.375	0.0157493
741.453	0.0157384
741.531	0.0157009
741.609	0.0157596
741.687	0.0156832
741.765	0.0155352
741.843	0.0155128
741.922	0.0154957
742.000	0.0155392
742.078	0.0155643
742.156	0.0155969
742.234	0.0157446
742.312	0.0154991
742.390	0.0155642
742.468	0.0154470
742.547	0.0155601
742.625	0.0155667
742.703	0.0155549
742.781	0.0154656
742.859	0.0155804
742.937	0.0154721
743.015	0.0156391
743.093	0.0156342
743.172	0.0155642
743.250	0.0155886
743.328	0.0156278
743.406	0.0154948
743.484	0.0155431
743.562	0.0156771
743.640	0.0156894
743.718	0.0155948
743.797	0.0154741
743.875	0.0155317
743.953	0.0155098
744.031	0.0154127
744.109	0.0153716
744.187	0.0153531
744.265	0.0154149
744.343	0.0154157
744.422	0.0153293
744.500	0.0155013
744.578	0.0155000
744.656	0.0154167
744.734	0.0156818
744.812	0.0155261
744.890	0.0156714
744.968	0.0155661
745.047	0.0157655
745.125	0.0156839
745.203	0.0156076
745.281	0.0156369
745.359	0.0154942
745.437	0.0155877
745.515	0.0156114
745.593	0.0154591
745.672	0.0154495
745.750	0.0153819
745.828	0.0154997
745.906	0.0153601
745.984	0.0152684
746.062	0.0155054
746.140	0.0153906
746.218	0.0154836
746.297	0.0155169
746.375	0.0156946
746.453	0.0156017
746.531	0.0156680
746.609	0.0156776
746.687	0.0157240
746.765	0.0157037
746.843	0.0157178
746.922	0.0158373
747.000	0.0156435
747.078	0.0155963
747.156	0.0155813
747.234	0.0155067
747.312	0.0154757
747.390	0.0154667
747.468	0.0153263
747.547	0.0153698
747.625	0.0153502
747.703	0.0152882
747.781	0.0150964
747.859	0.0151987
747.937	0.0151242
748.015	0.0152299
748.093	0.0153268
748.172	0.0153756
748.250	0.0154648
748.328	0.0154234
748.406	0.0154580
748.484	0.0154526
748.562	0.0155638
748.640	0.0155492
748.718	0.0156049
748.797	0.0156907
748.875	0.0157005
748.953	0.0158556
749.031	0.0157618
749.109	0.0156619
749.187	0.0156480
749.265	0.0156726
749.343	0.0157227
749.422	0.0156204
749.500	0.0154455
749.578	0.0155676
749.656	0.0154932
749.734	0.0153706
749.812	0.0156077
749.890	0.0154948
749.968	0.0154374
750.047	0.0155105
750.125	0.0155991
750.203	0.0155829
750.281	0.0154147
750.359	0.0155112
750.437	0.0156903
750.515	0.0157958
750.593	0.0155540
750.672	0.0155139
750.750	0.0155180
750.828	0.0154367
750.906	0.0152079
750.984	0.0150955
751.062	0.0150520
751.140	0.0149847
751.218	0.0149500
751.297	0.0147799
751.375	0.0147871
751.453	0.0147892
751.531	0.0150381
751.609	0.0149701
751.687	0.0151479
751.765	0.0153243
751.843	0.0155326
751.922	0.0156133
752.000	0.0157069
752.078	0.0158453
752.156	0.0160521
752.234	0.0158585
752.312	0.0159616
752.390	0.0159535
752.468	0.0159493
752.547	0.0161084
752.625	0.0158868
752.703	0.0159885
752.781	0.0160877
752.859	0.0162080
752.937	0.0162702
753.015	0.0161806
753.093	0.0161301
753.172	0.0162742
753.250	0.0163223
753.328	0.0162391
753.406	0.0164236
753.484	0.0161604
753.562	0.0160262
753.640	0.0161163
753.718	0.0161090
753.797	0.0158440
753.875	0.0158086
753.953	0.0158170
754.031	0.0154755
754.109	0.0151646
754.187	0.0150236
754.265	0.0147255
754.343	0.0144930
754.422	0.0143504
754.500	0.0142288
754.578	0.0140144
754.656	0.0140346
754.734	0.0140941
754.812	0.0139601
754.890	0.0141621
754.968	0.0143118
755.047	0.0144437
755.125	0.0147383
755.203	0.0148780
755.281	0.0150536
755.359	0.0154114
755.437	0.0155403
755.515	0.0156817
755.593	0.0158219
755.672	0.0160963
755.750	0.0161376
755.828	0.0162845
755.906	0.0164177
755.984	0.0163966
756.062	0.0161230
756.140	0.0161444
756.218	0.0161231
756.297	0.0162786
756.375	0.0162409
756.453	0.0162733
756.531	0.0163742
756.609	0.0164228
756.687	0.0165791
756.765	0.0166449
756.843	0.0168623
756.922	0.0170720
757.000	0.0170895
757.078	0.0170291
757.156	0.0171772
757.234	0.0170845
757.312	0.0167354
757.390	0.0168669
757.468	0.0168635
757.547	0.0166503
757.625	0.0164361
757.703	0.0162653
757.781	0.0160936
757.859	0.0158535
757.937	0.0155183
758.015	0.0151685
758.093	0.0147827
758.172	0.0143378
758.250	0.0139149
758.328	0.0136033
758.406	0.0137775
758.484	0.0133865
758.562	0.0132619
758.640	0.0134225
758.718	0.0133020
758.797	0.0134528
758.875	0.0135996
758.953	0.0134708
759.031	0.0135610
759.109	0.0134792
759.187	0.0136064
759.265	0.0136585
759.343	0.0135235
759.422	0.0136554
759.500	0.0138986
759.578	0.0139993
759.656	0.0139879
759.734	0.0143388
759.812	0.0146066
759.890	0.0149909
759.968	0.0153012
760.047	0.0158295
760.125	0.0160717
760.203	0.0164723
760.281	0.0169865
760.359	0.0174850
760.437	0.0179224
760.515	0.0183394
760.593	0.0187852
760.672	0.0191557
760.750	0.0195435
760.828	0.0197826
760.906	0.0198908
760.984	0.0199548
761.062	0.0198164
761.140	0.0196097
761.218	0.0195270
761.297	0.0192753
761.375	0.0189065
761.453	0.0185751
761.531	0.0181859
761.609	0.0177637
761.687	0.0174384
761.765	0.0168951
761.843	0.0164919
761.922	0.0160213
762.000	0.0156169
762.078	0.0150616
762.156	0.0145864
762.234	0.0141314
762.312	0.0137646
762.390	0.0131509
762.468	0.0125720
762.547	0.0121915
762.625	0.0115827
762.703	0.0110705
762.781	0.0105157
762.859	0.00997025
762.937	0.00949715
763.015	0.00903473
763.093	0.00878204
763.172	0.00862190
763.250	0.00873833
763.328	0.00887825
763.406	0.00935059
763.484	0.00997406
763.562	0.0108215
763.640	0.0116489
763.718	0.0124632
763.797	0.0137540
763.875	0.0148141
763.953	0.0157654
764.031	0.0170394
764.109	0.0180521
764.187	0.0190323
764.265	0.0198314
764.343	0.0207510
764.422	0.0214497
764.500	0.0221109
764.578	0.0224030
764.656	0.0227033
764.734	0.0230012
764.812	0.0228733
764.890	0.0227708
764.968	0.0227283
765.047	0.0222823
765.125	0.0218288
765.203	0.0211859
765.281	0.0203431
765.359	0.0196149
765.437	0.0188037
765.515	0.0179495
765.593	0.0169853
765.672	0.0160857
765.750	0.0153646
765.828	0.0144465
765.906	0.0135442
765.984	0.0129731
766.062	0.0122717
766.140	0.0118003
766.218	0.0115113
766.297	0.0114179
766.375	0.0113896
766.453	0.0115250
766.531	0.0117631
766.609	0.0122980
766.687	0.0126272
766.765	0.0128715
766.843	0.0134935
766.922	0.0138267
767.000	0.0139915
767.078	0.0143465
767.156	0.0144973
767.234	0.0143661
767.312	0.0143765
767.390	0.0139760
767.468	0.0134985
767.547	0.0130122
767.625	0.0123881
767.703	0.0118964
767.781	0.0114235
767.859	0.0109832
767.937	0.0107993
768.015	0.0107236
768.093	0.0108573
768.172	0.0112560
768.250	0.0119302
768.328	0.0126794
768.406	0.0134227
768.484	0.0144514
768.562	0.0155865
768.640	0.0167024
768.718	0.0177059
768.797	0.0186044
768.875	0.0195615
768.953	0.0204008
769.031	0.0211124
769.109	0.0216396
769.187	0.0220210
769.265	0.0222082
769.343	0.0221358
769.422	0.0220840
769.500	0.0218241
769.578	0.0214475
769.656	0.0210329
769.734	0.0203168
769.812	0.0197562
769.890	0.0192530
769.968	0.0186461
770.047	0.0179870
770.125	0.0175584
770.203	0.0170216
770.281	0.0165154
770.359	0.0159866
770.437	0.0157334
770.515	0.0154050
770.593	0.0148519
770.672	0.0145640
770.750	0.0142609
770.828	0.0138908
770.906	0.0133713
770.984	0.0131114
771.062	0.0129056
771.140	0.0128028
771.218	0.0126635
771.297	0.0126292
771.375	0.0125742
771.453	0.0126241
771.531	0.0125885
771.609	0.0123763
771.687	0.0125917
771.765	0.0125453
771.843	0.0125649
771.922	0.0124947
772.000	0.0123162
772.078	0.0121828
772.156	0.0121422
772.234	0.0119786
772.312	0.0119378
772.390	0.0120335
772.468	0.0121153
772.547	0.0123307
772.625	0.0125578
772.703	0.0126077
772.781	0.0128694
772.859	0.0133760
772.937	0.0138133
773.015	0.0143050
773.093	0.0147782
773.172	0.0154530
773.250	0.0159464
773.328	0.0166073
773.406	0.0170748
773.484	0.0177246
773.562	0.0180785
773.640	0.0187196
773.718	0.0190576
773.797	0.0192542
773.875	0.0195624
773.953	0.0197289
774.031	0.0199007
774.109	0.0199467
774.187	0.0199222
774.265	0.0199015
774.343	0.0196578
774.422	0.0195364
774.500	0.0193610
774.578	0.0193603
774.656	0.0190623
774.734	0.0188751
774.812	0.0187625
774.890	0.0184225
774.968	0.0182865
775.047	0.0182593
775.125	0.0177544
775.203	0.0175108
775.281	0.0172013
775.359	0.0167337
775.437	0.0164778
775.515	0.0159300
775.593	0.0154919
775.672	0.0150079
775.750	0.0145679
775.828	0.0139102
775.906	0.0133295
775.984	0.0127912
776.062	0.0121783
776.140	0.0116074
776.218	0.0110175
776.297	0.0105139
776.375	0.0100097
776.453	0.00966553
776.531	0.00938408
776.609	0.00905060
776.687	0.00880852
776.765	0.00879974
776.843	0.00881264
776.922	0.00919350
777.000	0.00952744
777.078	0.0101243
777.156	0.0108805
777.234	0.0116472
777.312	0.0125867
777.390	0.0137038
777.468	0.0148039
777.547	0.0157507
777.625	0.0169083
777.703	0.0179616
777.781	0.0191325
777.859	0.0198773
777.937	0.0206634
778.015	0.0212872
778.093	0.0218062
778.172	0.0220568
778.250	0.0220373
778.328	0.0219296
778.406	0.0217081
778.484	0.0212713
778.562	0.0207585
778.640	0.0201534
778.718	0.0195238
778.797	0.0189275
778.875	0.0180744
778.953	0.0174583
779.031	0.0167604
779.109	0.0162831
779.187	0.0157655
779.265	0.0155021
779.343	0.0151272
779.422	0.0150440
779.500	0.0150362
779.578	0.0148549
779.656	0.0147357
779.734	0.0148234
779.812	0.0147736
779.890	0.0147797
779.968	0.0149833
780.047	0.0145830
780.125	0.0144600
780.203	0.0143509
780.281	0.0143071
780.359	0.0140730
780.437	0.0139175
780.515	0.0136326
780.593	0.0133888
780.672	0.0133468
780.750	0.0130451
780.828	0.0128374
780.906	0.0129368
780.984	0.0125886
781.062	0.0123346
781.140	0.0123954
781.218	0.0123347
781.297	0.0124707
781.375	0.0126315
781.453	0.0127444
781.531	0.0129627
781.609	0.0133572
781.687	0.0137968
781.765	0.0142535
781.843	0.0148005
781.922	0.0153465
782.000	0.0159949
782.078	0.0165235
782.156	0.0171218
782.234	0.0177581
782.312	0.0183516
782.390	0.0189413
782.468	0.0193320
782.547	0.0198823
782.625	0.0200716
782.703	0.0201186
782.781	0.0201437
782.859	0.0200214
782.937	0.0198230
783.015	0.0192951
783.093	0.0188007
783.172	0.0183472
783.250	0.0178561
783.328	0.0172465
783.406	0.0166564
783.484	0.0162228
783.562	0.0157795
783.640	0.0152338
783.718	0.0147831
783.797	0.0144664
783.875	0.0141698
783.953	0.0137870
784.031	0.0137082
784.109	0.0136617
784.187	0.0135092
784.265	0.0133659
784.343	0.0132713
784.422	0.0133064
784.500	0.0131695
784.578	0.0131296
784.656	0.0131571
784.734	0.0130887
784.812	0.0131379
784.890	0.0131432
784.968	0.0131360
785.047	0.0132616
785.125	0.0133835
785.203	0.0134371
785.281	0.0135295
785.359	0.0138799
785.437	0.0142493
785.515	0.0144299
785.593	0.0148569
785.672	0.0152395
785.750	0.0154678
785.828	0.0158807
785.906	0.0161604
785.984	0.0163591
786.062	0.0164342
786.140	0.0165955
786.218	0.0166120
786.297	0.0167549
786.375	0.0169315
786.453	0.0169786
786.531	0.0171468
786.609	0.0173012
786.687	0.0174315
786.765	0.0176540
786.843	0.0177636
786.922	0.0180560
787.000	0.0181903
787.078	0.0182652
787.156	0.0184106
787.234	0.0185184
787.312	0.0183329
787.390	0.0183582
787.468	0.0183421
787.547	0.0183672
787.625	0.0181947
787.703	0.0179359
787.781	0.0176634
787.859	0.0172805
787.937	0.0167922
788.015	0.0163226
788.093	0.0158720
788.172	0.0152572
788.250	0.0146922
788.328	0.0141870
788.406	0.0138586
788.484	0.0133424
788.562	0.0128674
788.640	0.0125998
788.718	0.0120965
788.797	0.0117410
788.875	0.0116680
788.953	0.0115669
789.031	0.0115508
789.109	0.0117255
789.187	0.0117640
789.265	0.0117937
789.343	0.0121505
789.422	0.0125351
789.500	0.0125886
789.578	0.0127814
789.656	0.0134403
789.734	0.0137639
789.812	0.0141628
789.890	0.0144212
789.968	0.0149244
790.047	0.0155135
790.125	0.0158640
790.203	0.0162621
790.281	0.0166422
790.359	0.0171011
790.437	0.0175288
790.515	0.0176904
790.593	0.0177934
790.672	0.0182286
790.750	0.0182277
790.828	0.0181940
790.906	0.0182967
790.984	0.0182349
791.062	0.0181670
791.140	0.0180718
791.218	0.0179720
791.297	0.0178056
791.375	0.0175365
791.453	0.0173734
791.531	0.0171664
791.609	0.0169793
791.687	0.0168862
791.765	0.0165418
791.843	0.0163265
791.922	0.0160876
792.000	0.0160398
792.078	0.0160012
792.156	0.0158510
792.234	0.0158184
792.312	0.0156763
792.390	0.0157684
792.468	0.0158396
792.547	0.0156605
792.625	0.0156831
792.703	0.0155541
792.781	0.0155238
792.859	0.0154004
792.937	0.0152316
793.015	0.0149648
793.093	0.0146288
793.172	0.0145819
793.250	0.0143669
793.328	0.0141444
793.406	0.0138261
793.484	0.0136806
793.562	0.0134171
793.640	0.0132527
793.718	0.0130769
793.797	0.0128558
793.875	0.0129913
793.953	0.0128692
794.031	0.0129813
794.109	0.0130476
794.187	0.0132611
794.265	0.0134743
794.343	0.0137170
794.422	0.0141312
794.500	0.0143954
794.578	0.0149621
794.656	0.0154345
794.734	0.0158241
794.812	0.0162215
794.890	0.0164990
794.968	0.0169331
795.047	0.0173747
795.125	0.0175495
795.203	0.0177148
795.281	0.0178960
795.359	0.0177695
795.437	0.0176346
795.515	0.0176673
795.593	0.0174847
795.672	0.0171658
795.750	0.0169759
795.828	0.0166005
795.906	0.0162433
795.984	0.0158868
796.062	0.0156373
796.140	0.0154205
796.218	0.0151542
796.297	0.0150099
796.375	0.0148794
796.453	0.0148975
796.531	0.0148099
796.609	0.0148219
796.687	0.0149055
796.765	0.0149676
796.843	0.0150938
796.922	0.0152995
797.000	0.0153857
797.078	0.0154384
797.156	0.0154687
797.234	0.0156435
797.312	0.0157988
797.390	0.0159327
797.468	0.0158849
797.547	0.0159953
797.625	0.0159325
797.703	0.0157535
797.781	0.0158231
797.859	0.0156030
797.937	0.0155723
798.015	0.0153586
798.093	0.0152242
798.172	0.0151228
798.250	0.0148521
798.328	0.0147690
798.406	0.0148908
798.484	0.0147614
798.562	0.0144887
798.640	0.0143766
798.718	0.0145206
798.797	0.0145994
798.875	0.0147303
798.953	0.0148200
799.031	0.0151112
799.109	0.0152151
799.187	0.0151702
799.265	0.0156207
799.343	0.0157502
799.422	0.0159496
799.500	0.0161148
799.578	0.0163942
799.656	0.0165431
799.734	0.0166480
799.812	0.0166782
799.890	0.0166737
799.968	0.0166470
800.047	0.0165572
800.125	0.0164656
800.203	0.0162814
800.281	0.0162940
800.359	0.0159711
800.437	0.0158010
800.515	0.0156776
800.593	0.0153852
800.672	0.0151913
800.750	0.0151689
800.828	0.0148877
800.906	0.0148678
800.984	0.0146310
801.062	0.0145837
801.140	0.0145784
801.218	0.0147108
801.297	0.0146129
801.375	0.0146172
801.453	0.0148018
801.531	0.0148625
801.609	0.0149362
801.687	0.0151611
801.765	0.0152457
801.843	0.0153638
801.922	0.0155118
802.000	0.0155083
802.078	0.0157765
802.156	0.0158182
802.234	0.0156691
802.312	0.0159363
802.390	0.0159389
802.468	0.0157089
802.547	0.0157026
802.625	0.0155561
802.703	0.0157384
802.781	0.0157970
802.859	0.0157028
802.937	0.0156348
803.015	0.0157659
803.093	0.0156117
803.172	0.0155550
803.250	0.0156886
803.328	0.0158638
803.406	0.0157994
803.484	0.0157810
803.562	0.0159814
803.640	0.0160242
803.718	0.0160458
803.797	0.0159406
803.875	0.0159026
803.953	0.0159914
804.031	0.0159206
804.109	0.0159185
804.187	0.0157976
804.265	0.0159444
804.343	0.0156990
804.422	0.0155428
804.500	0.0157080
804.578	0.0155109
804.656	0.0154973
804.734	0.0154594
804.812	0.0154681
804.890	0.0153613
804.968	0.0153181
805.047	0.0152978
805.125	0.0152804
805.203	0.0151857
805.281	0.0152158
805.359	0.0152702
805.437	0.0151679
805.515	0.0153398
805.593	0.0153181
805.672	0.0152414
805.750	0.0153804
805.828	0.0152297
805.906	0.0153761
805.984	0.0153858
806.062	0.0154005
806.140	0.0156172
806.218	0.0154206
806.297	0.0155415
806.375	0.0155387
806.453	0.0155811
806.531	0.0155747
806.609	0.0156103
806.687	0.0156181
806.765	0.0156056
806.843	0.0155263
806.922	0.0156573
807.000	0.0156308
807.078	0.0155534
807.156	0.0155677
807.234	0.0156718
807.312	0.0156407
807.390	0.0155349
807.468	0.0153735
807.547	0.0155715
807.625	0.0154943
807.703	0.0154890
807.781	0.0153974
807.859	0.0155177
807.937	0.0155946
808.015	0.0154486
808.093	0.0156042
808.172	0.0155577
808.250	0.0156035
808.328	0.0155120
808.406	0.0154588
808.484	0.0154329
808.562	0.0154401
808.640	0.0153297
808.718	0.0151848
808.797	0.0149595
808.875	0.0151096
808.953	0.0152336
809.031	0.0149295
809.109	0.0149388
809.187	0.0149897
809.265	0.0151647
809.343	0.0152700
809.422	0.0154378
809.500	0.0156213
809.578	0.0156857
809.656	0.0158329
809.734	0.0159293
809.812	0.0161181
809.890	0.0162028
809.968	0.0161336
810.047	0.0161684
810.125	0.0163936
810.203	0.0164458
810.281	0.0163606
810.359	0.0163211
810.437	0.0163025
810.515	0.0162486
810.593	0.0162643
810.672	0.0161105
810.750	0.0159763
810.828	0.0157866
810.906	0.0158257
810.984	0.0158015
811.062	0.0156403
811.140	0.0154081
811.218	0.0153989
811.297	0.0153208
811.375	0.0152037
811.453	0.0152206
811.531	0.0151312
811.609	0.0152552
811.687	0.0151662
811.765	0.0149537
811.843	0.0150497
811.922	0.0148991
812.000	0.0149873
812.078	0.0150873
812.156	0.0151757
812.234	0.0152434
812.312	0.0153046
812.390	0.0154132
812.468	0.0154723
812.547	0.0153643
812.625	0.0156821
812.703	0.0155592
812.781	0.0155956
812.859	0.0156360
812.937	0.0158529
813.015	0.0156129
813.093	0.0156652
813.172	0.0156012
813.250	0.0155495
813.328	0.0154466
813.406	0.0154137
813.484	0.0152332
813.562	0.0153252
813.640	0.0152278
813.718	0.0151177
813.797	0.0150576
813.875	0.0152293
813.953	0.0153246
814.031	0.0152608
814.109	0.0154665
814.187	0.0155074
814.265	0.0155759
814.343	0.0158140
814.422	0.0158685
814.500	0.0157718
814.578	0.0160120
814.656	0.0160499
814.734	0.0160761
814.812	0.0160438
814.890	0.0159231
814.968	0.0159613
815.047	0.0158652
815.125	0.0158614
815.203	0.0158001
815.281	0.0157239
815.359	0.0155829
815.437	0.0154963
815.515	0.0156290
815.593	0.0155220
815.672	0.0153063
815.750	0.0152867
815.828	0.0154055
815.906	0.0153254
815.984	0.0154034
816.062	0.0152083
816.140	0.0153043
816.218	0.0152104
816.297	0.0152639
816.375	0.0152304
816.453	0.0152463
816.531	0.0153030
816.609	0.0154082
816.687	0.0152958
816.765	0.0153564
816.843	0.0154470
816.922	0.0154972
817.000	0.0156680
817.078	0.0156459
817.156	0.0156586
817.234	0.0156415
817.312	0.0156840
817.390	0.0158440
817.468	0.0157735
817.547	0.0156807
817.625	0.0157204
817.703	0.0155661
817.781	0.0156113
817.859	0.0156768
817.937	0.0156771
818.015	0.0155214
818.093	0.0155067
818.172	0.0156899
818.250	0.0156010
818.328	0.0155866
818.406	0.0156606
818.484	0.0157535
818.562	0.0157613
818.640	0.0158079
818.718	0.0156630
818.797	0.0156863
818.875	0.0158007
818.953	0.0158755
819.031	0.0157414
819.109	0.0156772
819.187	0.0155709
819.265	0.0156394
819.343	0.0155219
819.422	0.0155190
819.500	0.0155379
819.578	0.0155282
819.656	0.0153137
819.734	0.0153159
819.812	0.0153280
819.890	0.0151490
819.968	0.0151393
820.047	0.0151655
820.125	0.0151782
820.203	0.0150974
820.281	0.0151343
820.359	0.0150046
820.437	0.0149305
820.515	0.0149654
820.593	0.0150640
820.672	0.0148688
820.750	0.0150066
820.828	0.0150733
820.906	0.0150648
820.984	0.0152182
821.062	0.0152097
821.140	0.0152608
821.218	0.0153207
821.297	0.0154089
821.375	0.0154100
821.453	0.0155552
821.531	0.0157502
821.609	0.0157646
821.687	0.0156998
821.765	0.0158497
821.843	0.0158251
821.922	0.0160252
822.000	0.0159538
822.078	0.0157350
822.156	0.0158394
822.234	0.0160287
822.312	0.0159571
822.390	0.0159289
822.468	0.0158691
822.547	0.0157895
822.625	0.0158627
822.703	0.0159507
822.781	0.0158131
822.859	0.0158024
822.937	0.0159521
823.015	0.0160443
823.093	0.0159734
823.172	0.0158081
823.250	0.0159256
823.328	0.0159184
823.406	0.0159190
823.484	0.0158719
823.562	0.0159436
823.640	0.0158476
823.718	0.0156345
823.797	0.0156291
823.875	0.0156033
823.953	0.0155338
824.031	0.0154112
824.109	0.0153159
824.187	0.0152855
824.265	0.0150770
824.343	0.0150816
824.422	0.0151772
824.500	0.0150098
824.578	0.0149904
824.656	0.0150462
824.734	0.0149705
824.812	0.0149734
824.890	0.0149290
824.968	0.0149692
825.047	0.0147980
825.125	0.0148922
825.203	0.0150191
825.281	0.0149980
825.359	0.0150501
825.437	0.0152215
825.515	0.0153571
825.593	0.0152751
825.672	0.0154605
825.750	0.0155917
825.828	0.0156786
825.906	0.0155552
825.984	0.0156245
826.062	0.0157415
826.140	0.0157763
826.218	0.0156777
826.297	0.0156654
826.375	0.0157006
826.453	0.0155896
826.531	0.0156274
826.609	0.0155544
826.687	0.0156554
826.765	0.0155595
826.843	0.0156093
826.922	0.0156476
827.000	0.0154444
827.078	0.0154826
827.156	0.0157104
827.234	0.0157298
827.312	0.0157477
827.390	0.0156598
827.468	0.0158474
827.547	0.0157961
827.625	0.0158884
827.703	0.0159502
827.781	0.0160317
827.859	0.0160618
827.937	0.0161222
828.015	0.0159032
828.093	0.0157914
828.172	0.0158029
828.250	0.0158430
828.328	0.0156824
828.406	0.0157229
828.484	0.0154520
828.562	0.0154621
828.640	0.0153691
828.718	0.0152511
828.797	0.0152855
828.875	0.0152837
828.953	0.0153098
829.031	0.0151435
829.109	0.0152753
829.187	0.0154723
829.265	0.0153868
829.343	0.0150628
829.422	0.0153793
829.500	0.0153230
829.578	0.0154596
829.656	0.0155006
829.734	0.0155908
829.812	0.0155411
829.890	0.0156207
829.968	0.0157914
830.047	0.0158509
830.125	0.0156842
830.203	0.0157983
830.281	0.0158670
830.359	0.0159301
830.437	0.0158871
830.515	0.0158266
830.593	0.0158424
830.672	0.0158129
830.750	0.0157230
830.828	0.0157413
830.906	0.0157476
830.984	0.0157808
831.062	0.0156098
831.140	0.0156921
831.218	0.0156774
831.297	0.0155305
831.375	0.0155360
831.453	0.0154782
831.531	0.0155132
831.609	0.0155200
831.687	0.0154224
831.765	0.0154953
831.843	0.0155956
831.922	0.0154696
832.000	0.0154603
832.078	0.0153996
832.156	0.0153055
832.234	0.0153365
832.312	0.0153493
832.390	0.0152966
832.468	0.0152393
832.547	0.0152837
832.625	0.0152483
832.703	0.0153518
832.781	0.0152911
832.859	0.0151007
832.937	0.0153239
833.015	0.0153564
833.093	0.0153349
833.172	0.0152888
833.250	0.0153606
833.328	0.0153419
833.406	0.0155401
833.484	0.0154548
833.562	0.0155039
833.640	0.0155126
833.718	0.0155695
833.797	0.0155595
833.875	0.0155655
833.953	0.0157144
834.031	0.0157870
834.109	0.0157764
834.187	0.0158571
834.265	0.0158022
834.343	0.0159366
834.422	0.0156907
834.500	0.0156872
834.578	0.0157398
834.656	0.0158198
834.734	0.0158138
834.812	0.0158073
834.890	0.0160044
834.968	0.0158401
835.047	0.0157008
835.125	0.0159523
835.203	0.0159212
835.281	0.0158656
835.359	0.0158908
835.437	0.0157423
835.515	0.0158867
835.593	0.0159667
835.672	0.0158448
835.750	0.0157311
835.828	0.0157470
835.906	0.0157583
835.984	0.0156847
836.062	0.0157718
836.140	0.0157262
836.218	0.0156088
836.297	0.0155431
836.375	0.0155122
836.453	0.0154391
836.531	0.0154842
836.609	0.0154414
836.687	0.0154800
836.765	0.0152350
836.843	0.0153435
836.922	0.0153084
837.000	0.0151715
837.078	0.0151370
837.156	0.0151605
837.234	0.0152503
837.312	0.0152237
837.390	0.0151132
837.468	0.0151563
837.547	0.0152636
837.625	0.0152291
837.703	0.0151441
837.781	0.0151989
837.859	0.0153116
837.937	0.0152289
838.015	0.0152669
838.093	0.0154292
838.172	0.0155492
838.250	0.0156479
838.328	0.0155488
838.406	0.0155993
838.484	0.0156927
838.562	0.0158636
838.640	0.0157698
838.718	0.0158755
838.797	0.0159673
838.875	0.0159232
838.953	0.0159673
839.031	0.0160405
839.109	0.0159860
839.187	0.0159898
839.265	0.0160461
839.343	0.0159882
839.422	0.0160532
839.500	0.0157901
839.578	0.0158801
839.656	0.0158508
839.734	0.0156852
839.812	0.0157162
839.890	0.0157227
839.968	0.0155593
840.047	0.0155878
840.125	0.0155798
840.203	0.0155894
840.281	0.0155686
840.359	0.0154037
840.437	0.0152839
840.515	0.0152888
840.593	0.0153226
840.672	0.0154063
840.750	0.0152927
840.828	0.0153192
840.906	0.0153764
840.984	0.0153108
841.062	0.0152368
841.140	0.0152799
841.218	0.0153895
841.297	0.0155482
841.375	0.0154253
841.453	0.0155702
841.531	0.0155767
841.609	0.0155022
841.687	0.0154546
841.765	0.0155730
841.843	0.0154976
841.922	0.0154173
842.000	0.0154858
842.078	0.0154853
842.156	0.0154453
842.234	0.0155025
842.312	0.0154490
842.390	0.0154981
842.468	0.0154339
842.547	0.0153379
842.625	0.0155326
842.703	0.0157032
842.781	0.0156313
842.859	0.0156768
842.937	0.0157227
843.015	0.0158092
843.093	0.0156598
843.172	0.0156884
843.250	0.0157921
843.328	0.0157300
843.406	0.0156998
843.484	0.0156603
843.562	0.0156113
843.640	0.0156016
843.718	0.0156588
843.797	0.0157792
843.875	0.0157655
843.953	0.0156973
844.031	0.0156953
844.109	0.0156106
844.187	0.0155451
844.265	0.0155396
844.343	0.0154762
844.422	0.0155909
844.500	0.0154378
844.578	0.0155856
844.656	0.0153731
844.734	0.0154977
844.812	0.0154765
844.890	0.0153502
844.968	0.0154187
845.047	0.0152620
845.125	0.0151175
845.203	0.0152087
845.281	0.0152525
845.359	0.0152148
845.437	0.0152608
845.515	0.0151047
845.593	0.0152170
845.672	0.0152921
845.750	0.0153745
845.828	0.0154136
845.906	0.0153992
845.984	0.0154758
846.062	0.0154829
846.140	0.0155505
846.218	0.0154623
846.297	0.0154945
846.375	0.0155800
846.453	0.0154670
846.531	0.0155152
846.609	0.0156718
846.687	0.0156683
846.765	0.0155392
846.843	0.0157041
846.922	0.0155754
847.000	0.0157489
847.078	0.0158158
847.156	0.0157130
847.234	0.0155267
847.312	0.0156249
847.390	0.0157928
847.468	0.0157148
847.547	0.0157920
847.625	0.0157120
847.703	0.0156544
847.781	0.0157343
847.859	0.0155096
847.937	0.0158430
848.015	0.0156287
848.093	0.0155860
848.172	0.0157647
848.250	0.0156638
848.328	0.0156658
848.406	0.0155545
848.484	0.0155949
848.562	0.0154694
848.640	0.0154159
848.718	0.0155612
848.797	0.0155623
848.875	0.0155933
848.953	0.0154918
849.031	0.0154980
849.109	0.0155463
849.187	0.0154102
849.265	0.0155432
849.343	0.0155940
849.422	0.0156187
849.500	0.0155637
849.578	0.0153246
849.656	0.0153646
849.734	0.0154881
849.812	0.0153442
849.890	0.0153175
849.968	0.0154478
850.047	0.0154166
850.125	0.0154639
850.203	0.0154930
850.281	0.0156505
850.359	0.0154058
850.437	0.0154412
850.515	0.0155444
850.593	0.0155363
850.672	0.0154628
850.750	0.0154881
850.828	0.0154626
850.906	0.0155705
850.984	0.0154993
851.062	0.0154465
851.140	0.0153260
851.218	0.0154544
851.297	0.0155633
851.375	0.0154412
851.453	0.0153573
851.531	0.0154751
851.609	0.0154428
851.687	0.0155981
851.765	0.0154813
851.843	0.0154964
851.922	0.0155712
852.000	0.0155019
852.078	0.0157145
852.156	0.0156030
852.234	0.0155551
852.312	0.0155605
852.390	0.0155997
852.468	0.0157317
852.547	0.0155688
852.625	0.0155929
852.703	0.0155310
852.781	0.0155459
852.859	0.0156860
852.937	0.0156248
853.015	0.0155373
853.093	0.0155556
853.172	0.0156671
853.250	0.0157157
853.328	0.0157623
853.406	0.0156356
853.484	0.0156669
853.562	0.0156258
853.640	0.0156249
853.718	0.0157594
853.797	0.0156235
853.875	0.0158237
853.953	0.0158765
854.031	0.0158096
854.109	0.0157423
854.187	0.0157795
854.265	0.0156323
854.343	0.0156635
854.422	0.0156087
854.500	0.0156626
854.578	0.0156030
854.656	0.0155528
854.734	0.0155872
854.812	0.0155780
854.890	0.0155855
854.968	0.0154267
855.047	0.0154616
855.125	0.0153781
855.203	0.0154667
855.281	0.0153902
855.359	0.0152633
855.437	0.0152561
855.515	0.0151974
855.593	0.0153436
855.672	0.0151917
855.750	0.0151508
855.828	0.0149937
855.906	0.0151283
855.984	0.0151627
856.062	0.0152730
856.140	0.0152905
856.218	0.0151389
856.297	0.0152023
856.375	0.0152203
856.453	0.0153929
856.531	0.0153796
856.609	0.0154181
856.687	0.0154724
856.765	0.0155170
856.843	0.0156226
856.922	0.0154756
857.000	0.0156453
857.078	0.0157773
857.156	0.0158980
857.234	0.0158927
857.312	0.0162419
857.390	0.0159621
857.468	0.0160796
857.547	0.0160352
857.625	0.0161454
857.703	0.0162232
857.781	0.0159201
857.859	0.0159768
857.937	0.0159917
858.015	0.0159502
858.093	0.0160016
858.172	0.0160352
858.250	0.0159652
858.328	0.0158289
858.406	0.0159232
858.484	0.0159003
858.562	0.0159085
858.640	0.0158731
858.718	0.0157842
858.797	0.0155716
858.875	0.0155626
858.953	0.0155493
859.031	0.0153174
859.109	0.0154063
859.187	0.0151992
859.265	0.0151183
859.343	0.0151620
859.422	0.0150349
859.500	0.0150053
859.578	0.0148676
859.656	0.0148055
859.734	0.0147402
859.812	0.0147087
859.890	0.0147572
859.968	0.0148173
860.047	0.0148489
860.125	0.0147903
860.203	0.0149014
860.281	0.0149252
860.359	0.0148587
860.437	0.0150005
860.515	0.0152804
860.593	0.0152589
860.672	0.0153551
860.750	0.0155030
860.828	0.0155837
860.906	0.0157236
860.984	0.0158253
861.062	0.0160885
861.140	0.0161905
861.218	0.0163498
861.297	0.0163192
861.375	0.0162901
861.453	0.0164249
861.531	0.0163795
861.609	0.0166911
861.687	0.0167253
861.765	0.0165327
861.843	0.0165666
861.922	0.0165224
862.000	0.0163987
862.078	0.0163226
862.156	0.0162411
862.234	0.0163084
862.312	0.0160769
862.390	0.0161169
862.468	0.0158909
862.547	0.0158038
862.625	0.0158323
862.703	0.0156068
862.781	0.0156926
862.859	0.0153771
862.937	0.0154536
863.015	0.0153426
863.093	0.0153316
863.172	0.0152911
863.250	0.0151870
863.328	0.0152347
863.406	0.0150288
863.484	0.0151017
863.562	0.0150854
863.640	0.0149732
863.718	0.0149535
863.797	0.0149373
863.875	0.0149323
863.953	0.0148878
864.031	0.0149651
864.109	0.0149390
864.187	0.0148399
864.265	0.0147812
864.343	0.0148929
864.422	0.0147909
864.500	0.0149640
864.578	0.0149425
864.656	0.0149737
864.734	0.0150642
864.812	0.0151846
864.890	0.0152540
864.968	0.0152703
865.047	0.0152512
865.125	0.0155202
865.203	0.0155795
865.281	0.0156186
865.359	0.0158197
865.437	0.0158619
865.515	0.0160998
865.593	0.0160769
865.672	0.0160776
865.750	0.0161561
865.828	0.0161410
865.906	0.0163113
865.984	0.0163635
866.062	0.0164263
866.140	0.0162777
866.218	0.0163570
866.297	0.0163439
866.375	0.0164408
866.453	0.0164275
866.531	0.0162430
866.609	0.0161272
866.687	0.0160345
866.765	0.0159709
866.843	0.0160569
866.922	0.0159718
867.000	0.0156309
867.078	0.0156161
867.156	0.0156695
867.234	0.0155582
867.312	0.0154459
867.390	0.0152602
867.468	0.0151936
867.547	0.0151768
867.625	0.0152359
867.703	0.0151815
867.781	0.0150914
867.859	0.0150075
867.937	0.0150123
868.015	0.0149388
868.093	0.0149337
868.172	0.0150697
868.250	0.0151070
868.328	0.0150185
868.406	0.0148586
868.484	0.0149875
868.562	0.0150475
868.640	0.0150092
868.718	0.0150424
868.797	0.0150797
868.875	0.0151350
868.953	0.0150515
869.031	0.0151891
869.109	0.0150750
869.187	0.0150452
869.265	0.0150336
869.343	0.0153086
869.422	0.0152161
869.500	0.0152412
869.578	0.0152096
869.656	0.0154156
869.734	0.0154712
869.812	0.0155190
869.890	0.0154816
869.968	0.0155587
870.047	0.0155491
870.125	0.0157845
870.203	0.0158382
870.281	0.0159021
870.359	0.0159724
870.437	0.0160224
870.515	0.0161745
870.593	0.0161804
870.672	0.0162748
870.750	0.0163615
870.828	0.0164672
870.906	0.0164678
870.984	0.0163937
871.062	0.0162955
871.140	0.0162598
871.218	0.0164000
871.297	0.0163879
871.375	0.0162919
871.453	0.0161843
871.531	0.0160143
871.609	0.0159359
871.687	0.0159534
871.765	0.0155852
871.843	0.0155537
871.922	0.0154116
872.000	0.0153159
872.078	0.0152635
872.156	0.0151173
872.234	0.0148730
872.312	0.0149877
872.390	0.0150310
872.468	0.0149917
872.547	0.0149536
872.625	0.0149564
872.703	0.0149454
872.781	0.0149123
872.859	0.0147400
872.937	0.0148097
873.015	0.0148877
873.093	0.0148646
873.172	0.0148267
873.250	0.0147254
873.328	0.0146944
873.406	0.0147017
873.484	0.0147671
873.562	0.0148236
873.640	0.0150073
873.718	0.0150169
873.797	0.0149512
873.875	0.0151358
873.953	0.0150871
874.031	0.0152235
874.109	0.0154410
874.187	0.0154145
874.265	0.0155096
874.343	0.0158618
874.422	0.0158101
874.500	0.0160109
874.578	0.0160610
874.656	0.0160609
874.734	0.0164078
874.812	0.0163658
874.890	0.0164062
874.968	0.0165597
875.047	0.0166566
875.125	0.0166881
875.203	0.0165704
875.281	0.0164950
875.359	0.0164522
875.437	0.0164030
875.515	0.0164883
875.593	0.0162844
875.672	0.0161641
875.750	0.0161031
875.828	0.0160212
875.906	0.0157716
875.984	0.0157612
876.062	0.0157087
876.140	0.0155766
876.218	0.0156072
876.297	0.0154554
876.375	0.0152675
876.453	0.0152812
876.531	0.0152034
876.609	0.0153412
876.687	0.0151428
876.765	0.0149419
876.843	0.0152360
876.922	0.0152638
877.000	0.0149663
877.078	0.0151107
877.156	0.0151443
877.234	0.0151564
877.312	0.0151418
877.390	0.0151701
877.468	0.0152310
877.547	0.0151902
877.625	0.0151662
877.703	0.0152299
877.781	0.0152276
877.859	0.0152460
877.937	0.0152621
878.015	0.0152011
878.093	0.0152352
878.172	0.0152232
878.250	0.0152981
878.328	0.0152339
878.406	0.0152267
878.484	0.0152554
878.562	0.0154709
878.640	0.0156384
878.718	0.0155110
878.797	0.0156465
878.875	0.0157860
878.953	0.0158658
879.031	0.0158447
879.109	0.0159711
879.187	0.0160748
879.265	0.0161716
879.343	0.0160887
879.422	0.0162051
879.500	0.0161913
879.578	0.0162054
879.656	0.0161456
879.734	0.0161700
879.812	0.0160558
879.890	0.0160417
879.968	0.0159605
880.047	0.0159554
880.125	0.0158134
880.203	0.0158514
880.281	0.0157124
880.359	0.0155913
880.437	0.0154809
880.515	0.0152824
880.593	0.0153312
880.672	0.0153053
880.750	0.0152825
880.828	0.0151373
880.906	0.0151908
880.984	0.0150802
881.062	0.0150933
881.140	0.0150925
881.218	0.0149405
881.297	0.0149879
881.375	0.0151694
881.453	0.0151009
881.531	0.0150951
881.609	0.0150598
881.687	0.0150098
881.765	0.0151806
881.843	0.0152822
881.922	0.0154445
882.000	0.0153910
882.078	0.0153514
882.156	0.0155401
882.234	0.0157018
882.312	0.0157166
882.390	0.0157838
882.468	0.0157778
882.547	0.0158698
882.625	0.0158334
882.703	0.0160262
882.781	0.0158865
882.859	0.0160526
882.937	0.0160371
883.015	0.0160595
883.093	0.0159069
883.172	0.0160188
883.250	0.0159185
883.328	0.0160507
883.406	0.0161489
883.484	0.0159595
883.562	0.0159130
883.640	0.0158992
883.718	0.0159496
883.797	0.0159985
883.875	0.0159187
883.953	0.0158022
884.031	0.0157072
884.109	0.0156310
884.187	0.0157245
884.265	0.0157726
884.343	0.0157224
884.422	0.0157814
884.500	0.0156033
884.578	0.0154695
884.656	0.0154735
884.734	0.0154311
884.812	0.0153871
884.890	0.0154520
884.968	0.0153546
885.047	0.0153297
885.125	0.0152724
885.203	0.0153360
885.281	0.0152634
885.359	0.0152318
885.437	0.0151300
885.515	0.0152531
885.593	0.0153045
885.672	0.0152432
885.750	0.0152470
885.828	0.0151547
885.906	0.0152143
885.984	0.0152630
886.062	0.0152570
886.140	0.0151496
886.218	0.0152309
886.297	0.0153033
886.375	0.0154057
886.453	0.0154546
886.531	0.0153214
886.609	0.0154117
886.687	0.0154246
886.765	0.0155273
886.843	0.0155829
886.922	0.0155782
887.000	0.0156828
887.078	0.0157394
887.156	0.0158543
887.234	0.0158772
887.312	0.0158147
887.390	0.0158723
887.468	0.0159412
887.547	0.0159810
887.625	0.0158087
887.703	0.0158856
887.781	0.0157935
887.859	0.0157992
887.937	0.0159898
888.015	0.0157550
888.093	0.0156012
888.172	0.0156300
888.250	0.0155291
888.328	0.0155540
888.406	0.0156325
888.484	0.0155672
888.562	0.0154478
888.640	0.0156190
888.718	0.0154446
888.797	0.0155450
888.875	0.0154296
888.953	0.0155257
889.031	0.0154782
889.109	0.0155832
889.187	0.0155419
889.265	0.0155030
889.343	0.0156878
889.422	0.0154796
889.500	0.0155961
889.578	0.0154969
889.656	0.0153835
889.734	0.0155286
889.812	0.0154927
889.890	0.0155865
889.968	0.0154757
890.047	0.0153837
890.125	0.0152878
890.203	0.0152509
890.281	0.0154093
890.359	0.0152814
890.437	0.0152612
890.515	0.0152745
890.593	0.0152098
890.672	0.0151041
890.750	0.0151246
890.828	0.0154607
890.906	0.0153411
890.984	0.0153873
891.062	0.0154282
891.140	0.0155061
891.218	0.0154544
891.297	0.0155106
891.375	0.0156030
891.453	0.0156171
891.531	0.0154889
891.609	0.0155455
891.687	0.0156457
891.765	0.0156863
891.843	0.0157071
891.922	0.0156084
892.000	0.0156845
892.078	0.0156882
892.156	0.0155517
892.234	0.0155775
892.312	0.0156273
892.390	0.0156306
892.468	0.0155277
892.547	0.0155063
892.625	0.0155518
892.703	0.0154084
892.781	0.0154587
892.859	0.0154308
892.937	0.0154177
893.015	0.0154919
893.093	0.0154716
893.172	0.0154515
893.250	0.0154290
893.328	0.0154725
893.406	0.0155483
893.484	0.0155522
893.562	0.0155547
893.640	0.0155412
893.718	0.0156988
893.797	0.0157466
893.875	0.0156908
893.953	0.0155376
894.031	0.0157023
894.109	0.0158052
894.187	0.0157324
894.265	0.0157804
894.343	0.0156287
894.422	0.0156342
894.500	0.0154967
894.578	0.0154801
894.656	0.0155037
894.734	0.0155267
894.812	0.0154502
894.890	0.0152471
894.968	0.0153873
895.047	0.0152592
895.125	0.0154414
895.203	0.0153864
895.281	0.0154709
895.359	0.0155553
895.437	0.0153621
895.515	0.0155408
895.593	0.0153992
895.672	0.0154443
895.750	0.0154600
895.828	0.0155175
895.906	0.0155152
895.984	0.0155419
896.062	0.0155042
896.140	0.0155611
896.218	0.0154379
896.297	0.0155491
896.375	0.0155801
896.453	0.0156145
896.531	0.0156110
896.609	0.0154900
896.687	0.0155961
896.765	0.0157108
896.843	0.0156168
896.922	0.0155836
897.000	0.0156876
897.078	0.0156759
897.156	0.0156413
897.234	0.0156590
897.312	0.0155927
897.390	0.0155633
897.468	0.0156120
897.547	0.0155798
897.625	0.0154984
897.703	0.0154462
897.781	0.0155201
897.859	0.0154884
897.937	0.0154449
898.015	0.0153175
898.093	0.0155653
898.172	0.0155468
898.250	0.0154175
898.328	0.0154055
898.406	0.0155256
898.484	0.0156219
898.562	0.0155557
898.640	0.0156519
898.718	0.0155292
898.797	0.0157304
898.875	0.0156324
898.953	0.0157185
899.031	0.0156963
899.109	0.0156132
899.187	0.0157340
899.265	0.0157247
899.343	0.0156982
899.422	0.0157854
899.500	0.0158323
899.578	0.0157011
899.656	0.0155872
899.734	0.0157325
899.812	0.0155878
899.890	0.0156252
899.968	0.0155010
900.047	0.0155523
900.125	0.0155226
900.203	0.0156159
900.281	0.0155296
900.359	0.0154511
900.437	0.0154248
900.515	0.0154030
900.593	0.0154979
900.672	0.0154415
900.750	0.0155540
900.828	0.0154119
900.906	0.0154263
900.984	0.0154665
901.062	0.0155704
901.140	0.0156178
901.218	0.0155547
901.297	0.0155845
901.375	0.0156416
901.453	0.0155424
901.531	0.0156699
901.609	0.0156778
901.687	0.0156487
901.765	0.0156412
901.843	0.0157156
901.922	0.0156236
902.000	0.0155812
902.078	0.0156581
902.156	0.0156351
902.234	0.0156224
902.312	0.0156034
902.390	0.0155788
902.468	0.0155946
902.547	0.0156942
902.625	0.0156808
902.703	0.0156025
902.781	0.0156487
902.859	0.0157191
902.937	0.0156209
903.015	0.0156252
903.093	0.0157767
903.172	0.0156470
903.250	0.0156432
903.328	0.0157870
903.406	0.0155741
903.484	0.0156908
903.562	0.0155639
903.640	0.0157400
903.718	0.0156344
903.797	0.0155849
903.875	0.0154522
903.953	0.0156145
904.031	0.0155093
904.109	0.0154665
904.187	0.0155772
904.265	0.0153885
904.343	0.0154755
904.422	0.0154088
904.500	0.0154151
904.578	0.0153562
904.656	0.0154137
904.734	0.0154475
904.812	0.0153951
904.890	0.0153024
904.968	0.0154018
905.047	0.0154494
905.125	0.0154035
905.203	0.0155392
905.281	0.0153785
905.359	0.0154280
905.437	0.0154397
905.515	0.0155675
905.593	0.0154567
905.672	0.0154797
905.750	0.0154911
905.828	0.0154547
905.906	0.0154597
905.984	0.0156223
906.062	0.0154891
906.140	0.0154990
906.218	0.0155614
906.297	0.0155698
906.375	0.0155463
906.453	0.0154900
906.531	0.0156050
906.609	0.0155965
906.687	0.0156422
906.765	0.0156604
906.843	0.0157245
906.922	0.0156827
907.000	0.0157494
907.078	0.0157462
907.156	0.0157841
907.234	0.0158301
907.312	0.0156915
907.390	0.0158209
907.468	0.0158559
907.547	0.0157606
907.625	0.0157040
907.703	0.0157854
907.781	0.0158252
907.859	0.0157967
907.937	0.0158384
908.015	0.0157722
908.093	0.0156735
908.172	0.0157923
908.250	0.0156099
908.328	0.0154495
908.406	0.0155927
908.484	0.0156049
908.562	0.0153838
908.640	0.0155339
908.718	0.0153386
908.797	0.0154273
908.875	0.0153179
908.953	0.0154637
909.031	0.0152946
909.109	0.0153178
909.187	0.0154079
909.265	0.0152330
909.343	0.0151022
909.422	0.0152731
909.500	0.0153662
909.578	0.0152058
909.656	0.0152885
909.734	0.0153735
909.812	0.0153251
909.890	0.0152211
909.968	0.0153487
910.047	0.0153899
910.125	0.0153686
910.203	0.0152839
910.281	0.0153338
910.359	0.0155377
910.437	0.0154692
910.515	0.0155772
910.593	0.0154449
910.672	0.0156266
910.750	0.0156481
910.828	0.0154623
910.906	0.0155571
910.984	0.0156931
911.062	0.0155670
911.140	0.0156347
911.218	0.0156211
911.297	0.0156115
911.375	0.0159179
911.453	0.0156976
911.531	0.0156722
911.609	0.0157688
911.687	0.0158474
911.765	0.0158650
911.843	0.0157740
911.922	0.0157264
912.000	0.0156670
912.078	0.0157355
912.156	0.0156683
912.234	0.0156364
912.312	0.0157095
912.390	0.0155704
912.468	0.0156732
912.547	0.0156423
912.625	0.0155736
912.703	0.0154852
912.781	0.0154493
912.859	0.0155720
912.937	0.0154864
913.015	0.0155024
913.093	0.0153776
913.172	0.0154165
913.250	0.0155839
913.328	0.0154868
913.406	0.0154230
913.484	0.0153606
913.562	0.0153049
913.640	0.0155230
913.718	0.0154834
913.797	0.0155275
913.875	0.0155344
913.953	0.0155412
914.031	0.0154997
914.109	0.0154502
914.187	0.0153005
914.265	0.0155341
914.343	0.0155112
914.422	0.0155285
914.500	0.0153905
914.578	0.0154478
914.656	0.0155027
914.734	0.0155420
914.812	0.0155338
914.890	0.0155345
914.968	0.0155179
915.047	0.0155276
915.125	0.0154488
915.203	0.0155702
915.281	0.0154317
915.359	0.0154983
915.437	0.0156239
915.515	0.0156913
915.593	0.0156094
915.672	0.0157323
915.750	0.0157117
915.828	0.0155943
915.906	0.0156420
915.984	0.0157185
916.062	0.0155309
916.140	0.0156302
916.218	0.0156237
916.297	0.0156575
916.375	0.0157233
916.453	0.0156702
916.531	0.0157258
916.609	0.0156078
916.687	0.0156199
916.765	0.0155067
916.843	0.0155273
916.922	0.0155735
917.000	0.0153240
917.078	0.0154362
917.156	0.0154727
917.234	0.0153655
917.312	0.0154486
917.390	0.0153919
917.468	0.0153537
917.547	0.0153706
917.625	0.0153421
917.703	0.0154342
917.781	0.0154492
917.859	0.0153873
917.937	0.0153510
918.015	0.0152577
918.093	0.0153643
918.172	0.0152798
918.250	0.0154518
918.328	0.0153320
918.406	0.0153673
918.484	0.0154708
918.562	0.0155112
918.640	0.0155068
918.718	0.0154685
918.797	0.0156142
918.875	0.0155476
918.953	0.0155927
919.031	0.0156179
919.109	0.0156188
919.187	0.0156048
919.265	0.0155774
919.343	0.0156332
919.422	0.0155931
919.500	0.0158472
919.578	0.0157621
919.656	0.0156491
919.734	0.0158669
919.812	0.0157390
919.890	0.0156736
