06/13/2022	14:45:28	Ver.	4.1	UNKNOWN
Optical Delay	599.968395	Delta X		0.078125	Sweeps	1	Scan Rate	0/0
Coordinates	Axis 1	NaN	Axis 2	NaN	Axis 3	NaN	Axis 4	NaN	Axis 5	NaN	Axis 6	0.000000
TX Power	0.000000	RX Power	0.000000

599.968	0.0158438
600.047	0.0158294
600.125	0.0157684
600.203	0.0158546
600.281	0.0159101
600.359	0.0158546
600.437	0.0157233
600.515	0.0158303
600.593	0.0159055
600.672	0.0157518
600.750	0.0159007
600.828	0.0159093
600.906	0.0158278
600.984	0.0158209
601.062	0.0159141
601.140	0.0157273
601.218	0.0159258
601.297	0.0158642
601.375	0.0156676
601.453	0.0157894
601.531	0.0158935
601.609	0.0159373
601.687	0.0158170
601.765	0.0159443
601.843	0.0158391
601.922	0.0157967
602.000	0.0158707
602.078	0.0158116
602.156	0.0157941
602.234	0.0158547
602.312	0.0158119
602.390	0.0158164
602.468	0.0158365
602.547	0.0157858
602.625	0.0159390
602.703	0.0159650
602.781	0.0159586
602.859	0.0158735
602.937	0.0157580
603.015	0.0158192
603.093	0.0158430
603.172	0.0158324
603.250	0.0158434
603.328	0.0158990
603.406	0.0159323
603.484	0.0158615
603.562	0.0159462
603.640	0.0158830
603.718	0.0158104
603.797	0.0159075
603.875	0.0157002
603.953	0.0158757
604.031	0.0159307
604.109	0.0159364
604.187	0.0157509
604.265	0.0159872
604.343	0.0157692
604.422	0.0158425
604.500	0.0157565
604.578	0.0159391
604.656	0.0158559
604.734	0.0157568
604.812	0.0158475
604.890	0.0158167
604.968	0.0158833
605.047	0.0157596
605.125	0.0158756
605.203	0.0158173
605.281	0.0157867
605.359	0.0158899
605.437	0.0157931
605.515	0.0157940
605.593	0.0158058
605.672	0.0158230
605.750	0.0159517
605.828	0.0159624
605.906	0.0158574
605.984	0.0157855
606.062	0.0158687
606.140	0.0158414
606.218	0.0157856
606.297	0.0158965
606.375	0.0158186
606.453	0.0157545
606.531	0.0157749
606.609	0.0158558
606.687	0.0159792
606.765	0.0157298
606.843	0.0158313
606.922	0.0158508
607.000	0.0157755
607.078	0.0159023
607.156	0.0158271
607.234	0.0157655
607.312	0.0158851
607.390	0.0159785
607.468	0.0157613
607.547	0.0158311
607.625	0.0161140
607.703	0.0159061
607.781	0.0159602
607.859	0.0159639
607.937	0.0157986
608.015	0.0158088
608.093	0.0157726
608.172	0.0160806
608.250	0.0158189
608.328	0.0158841
608.406	0.0158463
608.484	0.0158806
608.562	0.0158944
608.640	0.0158566
608.718	0.0157861
608.797	0.0158103
608.875	0.0158283
608.953	0.0159321
609.031	0.0158678
609.109	0.0157697
609.187	0.0157932
609.265	0.0159380
609.343	0.0158029
609.422	0.0159167
609.500	0.0158814
609.578	0.0159253
609.656	0.0160110
609.734	0.0156869
609.812	0.0158502
609.890	0.0158483
609.968	0.0158526
610.047	0.0157587
610.125	0.0157974
610.203	0.0157759
610.281	0.0158205
610.359	0.0159940
610.437	0.0159254
610.515	0.0157696
610.593	0.0159277
610.672	0.0158894
610.750	0.0157501
610.828	0.0158035
610.906	0.0157526
610.984	0.0158709
611.062	0.0158808
611.140	0.0159748
611.218	0.0159109
611.297	0.0159412
611.375	0.0157870
611.453	0.0158834
611.531	0.0159782
611.609	0.0157797
611.687	0.0157964
611.765	0.0158337
611.843	0.0159661
611.922	0.0159092
612.000	0.0158737
612.078	0.0158540
612.156	0.0157730
612.234	0.0159019
612.312	0.0158499
612.390	0.0159344
612.468	0.0159103
612.547	0.0159191
612.625	0.0159151
612.703	0.0157684
612.781	0.0157439
612.859	0.0158643
612.937	0.0158607
613.015	0.0159621
613.093	0.0158768
613.172	0.0157701
613.250	0.0159505
613.328	0.0158495
613.406	0.0158799
613.484	0.0158863
613.562	0.0158678
613.640	0.0159289
613.718	0.0157903
613.797	0.0159506
613.875	0.0158057
613.953	0.0157578
614.031	0.0157986
614.109	0.0158370
614.187	0.0159356
614.265	0.0159743
614.343	0.0158608
614.422	0.0158244
614.500	0.0160146
614.578	0.0157847
614.656	0.0159267
614.734	0.0159407
614.812	0.0158102
614.890	0.0158903
614.968	0.0158978
615.047	0.0158205
615.125	0.0159155
615.203	0.0157836
615.281	0.0159109
615.359	0.0158075
615.437	0.0159586
615.515	0.0159709
615.593	0.0157888
615.672	0.0158640
615.750	0.0158607
615.828	0.0157465
615.906	0.0159023
615.984	0.0158309
616.062	0.0158255
616.140	0.0157935
616.218	0.0159719
616.297	0.0158768
616.375	0.0159051
616.453	0.0159061
616.531	0.0158248
616.609	0.0158615
616.687	0.0158532
616.765	0.0158895
616.843	0.0159566
616.922	0.0158862
617.000	0.0157908
617.078	0.0159987
617.156	0.0159062
617.234	0.0157475
617.312	0.0157796
617.390	0.0159332
617.468	0.0159922
617.547	0.0159798
617.625	0.0158215
617.703	0.0158465
617.781	0.0157870
617.859	0.0159277
617.937	0.0159124
618.015	0.0158241
618.093	0.0157455
618.172	0.0158144
618.250	0.0159290
618.328	0.0159451
618.406	0.0158128
618.484	0.0158784
618.562	0.0159462
618.640	0.0159365
618.718	0.0156952
618.797	0.0158437
618.875	0.0159422
618.953	0.0157700
619.031	0.0159760
619.109	0.0157784
619.187	0.0158611
619.265	0.0159187
619.343	0.0158420
619.422	0.0158513
619.500	0.0159143
619.578	0.0159116
619.656	0.0157839
619.734	0.0157912
619.812	0.0157461
619.890	0.0157542
619.968	0.0157948
620.047	0.0158603
620.125	0.0158797
620.203	0.0159089
620.281	0.0158787
620.359	0.0159157
620.437	0.0159040
620.515	0.0157729
620.593	0.0159123
620.672	0.0158180
620.750	0.0156728
620.828	0.0158986
620.906	0.0159366
620.984	0.0157937
621.062	0.0158698
621.140	0.0158253
621.218	0.0158686
621.297	0.0157104
621.375	0.0157373
621.453	0.0158356
621.531	0.0158235
621.609	0.0158543
621.687	0.0158795
621.765	0.0158881
621.843	0.0158977
621.922	0.0159180
622.000	0.0158245
622.078	0.0158024
622.156	0.0158282
622.234	0.0157774
622.312	0.0157886
622.390	0.0159299
622.468	0.0159415
622.547	0.0159029
622.625	0.0158613
622.703	0.0159232
622.781	0.0159345
622.859	0.0158528
622.937	0.0158569
623.015	0.0157566
623.093	0.0158280
623.172	0.0158682
623.250	0.0158012
623.328	0.0160236
623.406	0.0157693
623.484	0.0158134
623.562	0.0158625
623.640	0.0158923
623.718	0.0159944
623.797	0.0158445
623.875	0.0158785
623.953	0.0158303
624.031	0.0159311
624.109	0.0159268
624.187	0.0159443
624.265	0.0159245
624.343	0.0159168
624.422	0.0157875
624.500	0.0157821
624.578	0.0159299
624.656	0.0158994
624.734	0.0159503
624.812	0.0159112
624.890	0.0158652
624.968	0.0160006
625.047	0.0158018
625.125	0.0158624
625.203	0.0159177
625.281	0.0157727
625.359	0.0158258
625.437	0.0158144
625.515	0.0158587
625.593	0.0158331
625.672	0.0159183
625.750	0.0160194
625.828	0.0158742
625.906	0.0157927
625.984	0.0158753
626.062	0.0159403
626.140	0.0158023
626.218	0.0159084
626.297	0.0159112
626.375	0.0158599
626.453	0.0158376
626.531	0.0159778
626.609	0.0158978
626.687	0.0158588
626.765	0.0159468
626.843	0.0157825
626.922	0.0156582
627.000	0.0159164
627.078	0.0159521
627.156	0.0158626
627.234	0.0158039
627.312	0.0158939
627.390	0.0158594
627.468	0.0159132
627.547	0.0157127
627.625	0.0157764
627.703	0.0159305
627.781	0.0160019
627.859	0.0159014
627.937	0.0158541
628.015	0.0159174
628.093	0.0159431
628.172	0.0157690
628.250	0.0157481
628.328	0.0158676
628.406	0.0158503
628.484	0.0159133
628.562	0.0159338
628.640	0.0157887
628.718	0.0158448
628.797	0.0158008
628.875	0.0157587
628.953	0.0159628
629.031	0.0159064
629.109	0.0157063
629.187	0.0158212
629.265	0.0158304
629.343	0.0157485
629.422	0.0158670
629.500	0.0157641
629.578	0.0157491
629.656	0.0158524
629.734	0.0159888
629.812	0.0158972
629.890	0.0158587
629.968	0.0159207
630.047	0.0159000
630.125	0.0159669
630.203	0.0158641
630.281	0.0159050
630.359	0.0159042
630.437	0.0158864
630.515	0.0157980
630.593	0.0159048
630.672	0.0159319
630.750	0.0157363
630.828	0.0158340
630.906	0.0158730
630.984	0.0158404
631.062	0.0158808
631.140	0.0158855
631.218	0.0159565
631.297	0.0158276
631.375	0.0158644
631.453	0.0160047
631.531	0.0158677
631.609	0.0160027
631.687	0.0158693
631.765	0.0158554
631.843	0.0158111
631.922	0.0157079
632.000	0.0158051
632.078	0.0158233
632.156	0.0159135
632.234	0.0158877
632.312	0.0157858
632.390	0.0158727
632.468	0.0157775
632.547	0.0158289
632.625	0.0157982
632.703	0.0158402
632.781	0.0157941
632.859	0.0159097
632.937	0.0158588
633.015	0.0158485
633.093	0.0157465
633.172	0.0157581
633.250	0.0158730
633.328	0.0158720
633.406	0.0159957
633.484	0.0156775
633.562	0.0158519
633.640	0.0158549
633.718	0.0157625
633.797	0.0158023
633.875	0.0159531
633.953	0.0159260
634.031	0.0159000
634.109	0.0158076
634.187	0.0157764
634.265	0.0159302
634.343	0.0158849
634.422	0.0159506
634.500	0.0158583
634.578	0.0158154
634.656	0.0159568
634.734	0.0159019
634.812	0.0158224
634.890	0.0158665
634.968	0.0157898
635.047	0.0157498
635.125	0.0158661
635.203	0.0158172
635.281	0.0157318
635.359	0.0158599
635.437	0.0158420
635.515	0.0158939
635.593	0.0158964
635.672	0.0157684
635.750	0.0157752
635.828	0.0158526
635.906	0.0158868
635.984	0.0159001
636.062	0.0157883
636.140	0.0157453
636.218	0.0158481
636.297	0.0158083
636.375	0.0159743
636.453	0.0158102
636.531	0.0158514
636.609	0.0158802
636.687	0.0159852
636.765	0.0158787
636.843	0.0158271
636.922	0.0157695
637.000	0.0158572
637.078	0.0158510
637.156	0.0158278
637.234	0.0159515
637.312	0.0157518
637.390	0.0158115
637.468	0.0159391
637.547	0.0159057
637.625	0.0157522
637.703	0.0159112
637.781	0.0158101
637.859	0.0158008
637.937	0.0157580
638.015	0.0158644
638.093	0.0156402
638.172	0.0158584
638.250	0.0157462
638.328	0.0158241
638.406	0.0157134
638.484	0.0158411
638.562	0.0159127
638.640	0.0158508
638.718	0.0157832
638.797	0.0158928
638.875	0.0158540
638.953	0.0158868
639.031	0.0158727
639.109	0.0160459
639.187	0.0158360
639.265	0.0157455
639.343	0.0157936
639.422	0.0158297
639.500	0.0159329
639.578	0.0158450
639.656	0.0158040
639.734	0.0158791
639.812	0.0159171
639.890	0.0157072
639.968	0.0158530
640.047	0.0159167
640.125	0.0160096
640.203	0.0157555
640.281	0.0158569
640.359	0.0159499
640.437	0.0158396
640.515	0.0158469
640.593	0.0158287
640.672	0.0157873
640.750	0.0157722
640.828	0.0158858
640.906	0.0159871
640.984	0.0159706
641.062	0.0158596
641.140	0.0158361
641.218	0.0158046
641.297	0.0158659
641.375	0.0158601
641.453	0.0159354
641.531	0.0158344
641.609	0.0159842
641.687	0.0159042
641.765	0.0157939
641.843	0.0158375
641.922	0.0160130
642.000	0.0159132
642.078	0.0159344
642.156	0.0159622
642.234	0.0160575
642.312	0.0158546
642.390	0.0158533
642.468	0.0160090
642.547	0.0159293
642.625	0.0160387
642.703	0.0159052
642.781	0.0160023
642.859	0.0159176
642.937	0.0156939
643.015	0.0158961
643.093	0.0160244
643.172	0.0157764
643.250	0.0158896
643.328	0.0160786
643.406	0.0159193
643.484	0.0158253
643.562	0.0159075
643.640	0.0158585
643.718	0.0158680
643.797	0.0159483
643.875	0.0159993
643.953	0.0158903
644.031	0.0158755
644.109	0.0158558
644.187	0.0158781
644.265	0.0157859
644.343	0.0159676
644.422	0.0158183
644.500	0.0160352
644.578	0.0159191
644.656	0.0158883
644.734	0.0159367
644.812	0.0159431
644.890	0.0157990
644.968	0.0159401
645.047	0.0160590
645.125	0.0158599
645.203	0.0158674
645.281	0.0158989
645.359	0.0159113
645.437	0.0160417
645.515	0.0158645
645.593	0.0158739
645.672	0.0158615
645.750	0.0160201
645.828	0.0159962
645.906	0.0158324
645.984	0.0158671
646.062	0.0158865
646.140	0.0158781
646.218	0.0159543
646.297	0.0158710
646.375	0.0158987
646.453	0.0158105
646.531	0.0158822
646.609	0.0158370
646.687	0.0158735
646.765	0.0159164
646.843	0.0159840
646.922	0.0159017
647.000	0.0158429
647.078	0.0158789
647.156	0.0158497
647.234	0.0157928
647.312	0.0158490
647.390	0.0160096
647.468	0.0158652
647.547	0.0158659
647.625	0.0159115
647.703	0.0160222
647.781	0.0157680
647.859	0.0158128
647.937	0.0159836
648.015	0.0158298
648.093	0.0159307
648.172	0.0158406
648.250	0.0159786
648.328	0.0158408
648.406	0.0159210
648.484	0.0160493
648.562	0.0158965
648.640	0.0157650
648.718	0.0157714
648.797	0.0159372
648.875	0.0158600
648.953	0.0157925
649.031	0.0158068
649.109	0.0157738
649.187	0.0157862
649.265	0.0158650
649.343	0.0159135
649.422	0.0158074
649.500	0.0160440
649.578	0.0159522
649.656	0.0160679
649.734	0.0157779
649.812	0.0159236
649.890	0.0157967
649.968	0.0158009
650.047	0.0159245
650.125	0.0158988
650.203	0.0160379
650.281	0.0158041
650.359	0.0157361
650.437	0.0158387
650.515	0.0158275
650.593	0.0159644
650.672	0.0158701
650.750	0.0159354
650.828	0.0159035
650.906	0.0158613
650.984	0.0159184
651.062	0.0158535
651.140	0.0159642
651.218	0.0158751
651.297	0.0158271
651.375	0.0158745
651.453	0.0158268
651.531	0.0157877
651.609	0.0158900
651.687	0.0158270
651.765	0.0159247
651.843	0.0157830
651.922	0.0157572
652.000	0.0157581
652.078	0.0158228
652.156	0.0158215
652.234	0.0157946
652.312	0.0158556
652.390	0.0158887
652.468	0.0158059
652.547	0.0158251
652.625	0.0158302
652.703	0.0159001
652.781	0.0158103
652.859	0.0159452
652.937	0.0157556
653.015	0.0157838
653.093	0.0158482
653.172	0.0159170
653.250	0.0157830
653.328	0.0158757
653.406	0.0159100
653.484	0.0158681
653.562	0.0158666
653.640	0.0158753
653.718	0.0158827
653.797	0.0157986
653.875	0.0157446
653.953	0.0158017
654.031	0.0160191
654.109	0.0158185
654.187	0.0158088
654.265	0.0158720
654.343	0.0159693
654.422	0.0157809
654.500	0.0158662
654.578	0.0159992
654.656	0.0159711
654.734	0.0156973
654.812	0.0157987
654.890	0.0159091
654.968	0.0159251
655.047	0.0157578
655.125	0.0158014
655.203	0.0158667
655.281	0.0158763
655.359	0.0159097
655.437	0.0159050
655.515	0.0159412
655.593	0.0159170
655.672	0.0158128
655.750	0.0159177
655.828	0.0159270
655.906	0.0158548
655.984	0.0159229
656.062	0.0159006
656.140	0.0158059
656.218	0.0158156
656.297	0.0158170
656.375	0.0158331
656.453	0.0157728
656.531	0.0159920
656.609	0.0158599
656.687	0.0159456
656.765	0.0158932
656.843	0.0158018
656.922	0.0158796
657.000	0.0159579
657.078	0.0157692
657.156	0.0157311
657.234	0.0157501
657.312	0.0159250
657.390	0.0159045
657.468	0.0157285
657.547	0.0157565
657.625	0.0158367
657.703	0.0158447
657.781	0.0158490
657.859	0.0156744
657.937	0.0159244
658.015	0.0159609
658.093	0.0157600
658.172	0.0157307
658.250	0.0159995
658.328	0.0160061
658.406	0.0158673
658.484	0.0158689
658.562	0.0159402
658.640	0.0159773
658.718	0.0157777
658.797	0.0157391
658.875	0.0160209
658.953	0.0158826
659.031	0.0156900
659.109	0.0158663
659.187	0.0158733
659.265	0.0158181
659.343	0.0158044
659.422	0.0157772
659.500	0.0159049
659.578	0.0158981
659.656	0.0158021
659.734	0.0157631
659.812	0.0158535
659.890	0.0158245
659.968	0.0156972
660.047	0.0158339
660.125	0.0157616
660.203	0.0158884
660.281	0.0159353
660.359	0.0158840
660.437	0.0158564
660.515	0.0158689
660.593	0.0157262
660.672	0.0157833
660.750	0.0158981
660.828	0.0157063
660.906	0.0158263
660.984	0.0159303
661.062	0.0159200
661.140	0.0159011
661.218	0.0157504
661.297	0.0158479
661.375	0.0157776
661.453	0.0158753
661.531	0.0158390
661.609	0.0158601
661.687	0.0157870
661.765	0.0158544
661.843	0.0158790
661.922	0.0157916
662.000	0.0158379
662.078	0.0158476
662.156	0.0158826
662.234	0.0158940
662.312	0.0158900
662.390	0.0158536
662.468	0.0158142
662.547	0.0157758
662.625	0.0158250
662.703	0.0158353
662.781	0.0158404
662.859	0.0159335
662.937	0.0157738
663.015	0.0158268
663.093	0.0158117
663.172	0.0157747
663.250	0.0157877
663.328	0.0158092
663.406	0.0159890
663.484	0.0158775
663.562	0.0157378
663.640	0.0156989
663.718	0.0158000
663.797	0.0158363
663.875	0.0158494
663.953	0.0157523
664.031	0.0158067
664.109	0.0158849
664.187	0.0158947
664.265	0.0157143
664.343	0.0158054
664.422	0.0158250
664.500	0.0158215
664.578	0.0157983
664.656	0.0158196
664.734	0.0159425
664.812	0.0159075
664.890	0.0159541
664.968	0.0158213
665.047	0.0160132
665.125	0.0157062
665.203	0.0159293
665.281	0.0158784
665.359	0.0157960
665.437	0.0157816
665.515	0.0158270
665.593	0.0158965
665.672	0.0157691
665.750	0.0158823
665.828	0.0157756
665.906	0.0158503
665.984	0.0157856
666.062	0.0157890
666.140	0.0158088
666.218	0.0158896
666.297	0.0158833
666.375	0.0159836
666.453	0.0158740
666.531	0.0158186
666.609	0.0158595
666.687	0.0157893
666.765	0.0158696
666.843	0.0159423
666.922	0.0159825
667.000	0.0158070
667.078	0.0158248
667.156	0.0157768
667.234	0.0157718
667.312	0.0158209
667.390	0.0158633
667.468	0.0158852
667.547	0.0157913
667.625	0.0159416
667.703	0.0158170
667.781	0.0159499
667.859	0.0159472
667.937	0.0158356
668.015	0.0157285
668.093	0.0158620
668.172	0.0158401
668.250	0.0158208
668.328	0.0158385
668.406	0.0158328
668.484	0.0160563
668.562	0.0158876
668.640	0.0159895
668.718	0.0157822
668.797	0.0158698
668.875	0.0158640
668.953	0.0158730
669.031	0.0158702
669.109	0.0159021
669.187	0.0158221
669.265	0.0159702
669.343	0.0158176
669.422	0.0158184
669.500	0.0157917
669.578	0.0158638
669.656	0.0159324
669.734	0.0158959
669.812	0.0158076
669.890	0.0158240
669.968	0.0158060
670.047	0.0157983
670.125	0.0158486
670.203	0.0159384
670.281	0.0158730
670.359	0.0158994
670.437	0.0159596
670.515	0.0158708
670.593	0.0158928
670.672	0.0160699
670.750	0.0158533
670.828	0.0157346
670.906	0.0159086
670.984	0.0158427
671.062	0.0159016
671.140	0.0158102
671.218	0.0159629
671.297	0.0160693
671.375	0.0158862
671.453	0.0157593
671.531	0.0158844
671.609	0.0159269
671.687	0.0158288
671.765	0.0157968
671.843	0.0158021
671.922	0.0159000
672.000	0.0158899
672.078	0.0159403
672.156	0.0159675
672.234	0.0160046
672.312	0.0157555
672.390	0.0157816
672.468	0.0159591
672.547	0.0159205
672.625	0.0157485
672.703	0.0158811
672.781	0.0159115
672.859	0.0159909
672.937	0.0158728
673.015	0.0158349
673.093	0.0159228
673.172	0.0159528
673.250	0.0159184
673.328	0.0159398
673.406	0.0159267
673.484	0.0158877
673.562	0.0157438
673.640	0.0159097
673.718	0.0157524
673.797	0.0158383
673.875	0.0159777
673.953	0.0158683
674.031	0.0159147
674.109	0.0157867
674.187	0.0156766
674.265	0.0156945
674.343	0.0159479
674.422	0.0159196
674.500	0.0157945
674.578	0.0158102
674.656	0.0158013
674.734	0.0156494
674.812	0.0158995
674.890	0.0156232
674.968	0.0158944
675.047	0.0159293
675.125	0.0158253
675.203	0.0158585
675.281	0.0157954
675.359	0.0159107
675.437	0.0158475
675.515	0.0159149
675.593	0.0159638
675.672	0.0159496
675.750	0.0158507
675.828	0.0157941
675.906	0.0158614
675.984	0.0159545
676.062	0.0157678
676.140	0.0158186
676.218	0.0159908
676.297	0.0158649
676.375	0.0159185
676.453	0.0158434
676.531	0.0158430
676.609	0.0159329
676.687	0.0159021
676.765	0.0158117
676.843	0.0157562
676.922	0.0159103
677.000	0.0160331
677.078	0.0158051
677.156	0.0159242
677.234	0.0159769
677.312	0.0157696
677.390	0.0158458
677.468	0.0159278
677.547	0.0159219
677.625	0.0159859
677.703	0.0158723
677.781	0.0159447
677.859	0.0160177
677.937	0.0158775
678.015	0.0159206
678.093	0.0158371
678.172	0.0158452
678.250	0.0160036
678.328	0.0158013
678.406	0.0159206
678.484	0.0158419
678.562	0.0160909
678.640	0.0160636
678.718	0.0157957
678.797	0.0158320
678.875	0.0159921
678.953	0.0159724
679.031	0.0159669
679.109	0.0158958
679.187	0.0157885
679.265	0.0158482
679.343	0.0159731
679.422	0.0159036
679.500	0.0157807
679.578	0.0157458
679.656	0.0157442
679.734	0.0159580
679.812	0.0159669
679.890	0.0159801
679.968	0.0160237
680.047	0.0159461
680.125	0.0159327
680.203	0.0158327
680.281	0.0159631
680.359	0.0159586
680.437	0.0159465
680.515	0.0158599
680.593	0.0158746
680.672	0.0159406
680.750	0.0158232
680.828	0.0158121
680.906	0.0159341
680.984	0.0160330
681.062	0.0158242
681.140	0.0159351
681.218	0.0158987
681.297	0.0158840
681.375	0.0158598
681.453	0.0158836
681.531	0.0158197
681.609	0.0159126
681.687	0.0159601
681.765	0.0159676
681.843	0.0159307
681.922	0.0158745
682.000	0.0159233
682.078	0.0159096
682.156	0.0159536
682.234	0.0159454
682.312	0.0159423
682.390	0.0158256
682.468	0.0160103
682.547	0.0159473
682.625	0.0158707
682.703	0.0159161
682.781	0.0159438
682.859	0.0159021
682.937	0.0160130
683.015	0.0160048
683.093	0.0159524
683.172	0.0158958
683.250	0.0160658
683.328	0.0159992
683.406	0.0159290
683.484	0.0159719
683.562	0.0159948
683.640	0.0158990
683.718	0.0160038
683.797	0.0160625
683.875	0.0160007
683.953	0.0157707
684.031	0.0159416
684.109	0.0159984
684.187	0.0159702
684.265	0.0158144
684.343	0.0159430
684.422	0.0158904
684.500	0.0158404
684.578	0.0159824
684.656	0.0159449
684.734	0.0159879
684.812	0.0159251
684.890	0.0159576
684.968	0.0158530
685.047	0.0157885
685.125	0.0159833
685.203	0.0158363
685.281	0.0158591
685.359	0.0159738
685.437	0.0158471
685.515	0.0158119
685.593	0.0159039
685.672	0.0158630
685.750	0.0158115
685.828	0.0159560
685.906	0.0158858
685.984	0.0158810
686.062	0.0158374
686.140	0.0158599
686.218	0.0157221
686.297	0.0158795
686.375	0.0158357
686.453	0.0159607
686.531	0.0159306
686.609	0.0159315
686.687	0.0158258
686.765	0.0157892
686.843	0.0158570
686.922	0.0158205
687.000	0.0156956
687.078	0.0157965
687.156	0.0157956
687.234	0.0157976
687.312	0.0159071
687.390	0.0159198
687.468	0.0158589
687.547	0.0158721
687.625	0.0158585
687.703	0.0158032
687.781	0.0160320
687.859	0.0158939
687.937	0.0158630
688.015	0.0158364
688.093	0.0157893
688.172	0.0157151
688.250	0.0156743
688.328	0.0157925
688.406	0.0159095
688.484	0.0157553
688.562	0.0158075
688.640	0.0157367
688.718	0.0157439
688.797	0.0158218
688.875	0.0157501
688.953	0.0159216
689.031	0.0157561
689.109	0.0157110
689.187	0.0158324
689.265	0.0157991
689.343	0.0157845
689.422	0.0157674
689.500	0.0157176
689.578	0.0157019
689.656	0.0157176
689.734	0.0157849
689.812	0.0157413
689.890	0.0158477
689.968	0.0158717
690.047	0.0157646
690.125	0.0158182
690.203	0.0158208
690.281	0.0156474
690.359	0.0158477
690.437	0.0157572
690.515	0.0157935
690.593	0.0157298
690.672	0.0157665
690.750	0.0157999
690.828	0.0158475
690.906	0.0157807
690.984	0.0158260
691.062	0.0156739
691.140	0.0156159
691.218	0.0156224
691.297	0.0158034
691.375	0.0157762
691.453	0.0159189
691.531	0.0157754
691.609	0.0157127
691.687	0.0158183
691.765	0.0158877
691.843	0.0156829
691.922	0.0158845
692.000	0.0157612
692.078	0.0158478
692.156	0.0158691
692.234	0.0157156
692.312	0.0157790
692.390	0.0157754
692.468	0.0158456
692.547	0.0158672
692.625	0.0157269
692.703	0.0157282
692.781	0.0158810
692.859	0.0158367
692.937	0.0156517
693.015	0.0158138
693.093	0.0158025
693.172	0.0157880
693.250	0.0155755
693.328	0.0156935
693.406	0.0157876
693.484	0.0156692
693.562	0.0158302
693.640	0.0157884
693.718	0.0156481
693.797	0.0157346
693.875	0.0159350
693.953	0.0157662
694.031	0.0157484
694.109	0.0157796
694.187	0.0158473
694.265	0.0158742
694.343	0.0158464
694.422	0.0157211
694.500	0.0158525
694.578	0.0157973
694.656	0.0158716
694.734	0.0158278
694.812	0.0158094
694.890	0.0157880
694.968	0.0158881
695.047	0.0158012
695.125	0.0158489
695.203	0.0158247
695.281	0.0158248
695.359	0.0158674
695.437	0.0157901
695.515	0.0158525
695.593	0.0158178
695.672	0.0158190
695.750	0.0158777
695.828	0.0159264
695.906	0.0158992
695.984	0.0158160
696.062	0.0158545
696.140	0.0159582
696.218	0.0159978
696.297	0.0158611
696.375	0.0158295
696.453	0.0158221
696.531	0.0158979
696.609	0.0157427
696.687	0.0157847
696.765	0.0159376
696.843	0.0159698
696.922	0.0159187
697.000	0.0159138
697.078	0.0158739
697.156	0.0158843
697.234	0.0158350
697.312	0.0157804
697.390	0.0157611
697.468	0.0159090
697.547	0.0159528
697.625	0.0159462
697.703	0.0157894
697.781	0.0159628
697.859	0.0159976
697.937	0.0158372
698.015	0.0158420
698.093	0.0157621
698.172	0.0159200
698.250	0.0158426
698.328	0.0157315
698.406	0.0158243
698.484	0.0159050
698.562	0.0158385
698.640	0.0158578
698.718	0.0158301
698.797	0.0157603
698.875	0.0160166
698.953	0.0159546
699.031	0.0158999
699.109	0.0159795
699.187	0.0158705
699.265	0.0158073
699.343	0.0159223
699.422	0.0157682
699.500	0.0157832
699.578	0.0160182
699.656	0.0159222
699.734	0.0159724
699.812	0.0159444
699.890	0.0158477
699.968	0.0159003
700.047	0.0159029
700.125	0.0160524
700.203	0.0159376
700.281	0.0159332
700.359	0.0158417
700.437	0.0159664
700.515	0.0158237
700.593	0.0158406
700.672	0.0160148
700.750	0.0159507
700.828	0.0157076
700.906	0.0158589
700.984	0.0160291
701.062	0.0159985
701.140	0.0160212
701.218	0.0159068
701.297	0.0159415
701.375	0.0159973
701.453	0.0159232
701.531	0.0160129
701.609	0.0160399
701.687	0.0158749
701.765	0.0158845
701.843	0.0159780
701.922	0.0160631
702.000	0.0160175
702.078	0.0159995
702.156	0.0159077
702.234	0.0158142
702.312	0.0159520
702.390	0.0159480
702.468	0.0159653
702.547	0.0159856
702.625	0.0159705
702.703	0.0159294
702.781	0.0159100
702.859	0.0157763
702.937	0.0159498
703.015	0.0159562
703.093	0.0159150
703.172	0.0158795
703.250	0.0159718
703.328	0.0158546
703.406	0.0159170
703.484	0.0159911
703.562	0.0158985
703.640	0.0158429
703.718	0.0158864
703.797	0.0159243
703.875	0.0159017
703.953	0.0159309
704.031	0.0159663
704.109	0.0159315
704.187	0.0159688
704.265	0.0158252
704.343	0.0158904
704.422	0.0158970
704.500	0.0158180
704.578	0.0159924
704.656	0.0159314
704.734	0.0159827
704.812	0.0159365
704.890	0.0160266
704.968	0.0158678
705.047	0.0158929
705.125	0.0159456
705.203	0.0157935
705.281	0.0159839
705.359	0.0159475
705.437	0.0160661
705.515	0.0159887
705.593	0.0158598
705.672	0.0159856
705.750	0.0159658
705.828	0.0159328
705.906	0.0160149
705.984	0.0159717
706.062	0.0159358
706.140	0.0159078
706.218	0.0159335
706.297	0.0159750
706.375	0.0159052
706.453	0.0159551
706.531	0.0160280
706.609	0.0159421
706.687	0.0158925
706.765	0.0159212
706.843	0.0159201
706.922	0.0159068
707.000	0.0158874
707.078	0.0160439
707.156	0.0158767
707.234	0.0159032
707.312	0.0159457
707.390	0.0160611
707.468	0.0157738
707.547	0.0158125
707.625	0.0158900
707.703	0.0158463
707.781	0.0158691
707.859	0.0158760
707.937	0.0158846
708.015	0.0157605
708.093	0.0157230
708.172	0.0159266
708.250	0.0156892
708.328	0.0158694
708.406	0.0157820
708.484	0.0157379
708.562	0.0158794
708.640	0.0159322
708.718	0.0158554
708.797	0.0158698
708.875	0.0156986
708.953	0.0156520
709.031	0.0156675
709.109	0.0158218
709.187	0.0158875
709.265	0.0157861
709.343	0.0158620
709.422	0.0159138
709.500	0.0157969
709.578	0.0158260
709.656	0.0158395
709.734	0.0158968
709.812	0.0157636
709.890	0.0158028
709.968	0.0158045
710.047	0.0158287
710.125	0.0157619
710.203	0.0157768
710.281	0.0157973
710.359	0.0159355
710.437	0.0157333
710.515	0.0157991
710.593	0.0157797
710.672	0.0158820
710.750	0.0158851
710.828	0.0156241
710.906	0.0155170
710.984	0.0157162
711.062	0.0157844
711.140	0.0158366
711.218	0.0158230
711.297	0.0158837
711.375	0.0157154
711.453	0.0157307
711.531	0.0156439
711.609	0.0157452
711.687	0.0157355
711.765	0.0157476
711.843	0.0157163
711.922	0.0158047
712.000	0.0157690
712.078	0.0156903
712.156	0.0158126
712.234	0.0156871
712.312	0.0158672
712.390	0.0156599
712.468	0.0156117
712.547	0.0157735
712.625	0.0157612
712.703	0.0158817
712.781	0.0156893
712.859	0.0156979
712.937	0.0157845
713.015	0.0157547
713.093	0.0157314
713.172	0.0156841
713.250	0.0156827
713.328	0.0157269
713.406	0.0159027
713.484	0.0158048
713.562	0.0157076
713.640	0.0157928
713.718	0.0156644
713.797	0.0158730
713.875	0.0157971
713.953	0.0156836
714.031	0.0157875
714.109	0.0158337
714.187	0.0157491
714.265	0.0156802
714.343	0.0156009
714.422	0.0158140
714.500	0.0156805
714.578	0.0157109
714.656	0.0158544
714.734	0.0157166
714.812	0.0157732
714.890	0.0158247
714.968	0.0158347
715.047	0.0156954
715.125	0.0157687
715.203	0.0157815
715.281	0.0157983
715.359	0.0157948
715.437	0.0157603
715.515	0.0158138
715.593	0.0158228
715.672	0.0157315
715.750	0.0156850
715.828	0.0158282
715.906	0.0157977
715.984	0.0158862
716.062	0.0158986
716.140	0.0157007
716.218	0.0157570
716.297	0.0158430
716.375	0.0158908
716.453	0.0158694
716.531	0.0158501
716.609	0.0158643
716.687	0.0157639
716.765	0.0159111
716.843	0.0159023
716.922	0.0158063
717.000	0.0158080
717.078	0.0157323
717.156	0.0159982
717.234	0.0160045
717.312	0.0159178
717.390	0.0157240
717.468	0.0157885
717.547	0.0158926
717.625	0.0157990
717.703	0.0159286
717.781	0.0159355
717.859	0.0158399
717.937	0.0159332
718.015	0.0158130
718.093	0.0158852
718.172	0.0158857
718.250	0.0158714
718.328	0.0158479
718.406	0.0158237
718.484	0.0158411
718.562	0.0159474
718.640	0.0158535
718.718	0.0158234
718.797	0.0158426
718.875	0.0158723
718.953	0.0159083
719.031	0.0157790
719.109	0.0157931
719.187	0.0158653
719.265	0.0159464
719.343	0.0158613
719.422	0.0158113
719.500	0.0159888
719.578	0.0160606
719.656	0.0158806
719.734	0.0158906
719.812	0.0158958
719.890	0.0159145
719.968	0.0158689
720.047	0.0159493
720.125	0.0159638
720.203	0.0159782
720.281	0.0158537
720.359	0.0159156
720.437	0.0159883
720.515	0.0159549
720.593	0.0159206
720.672	0.0158248
720.750	0.0159632
720.828	0.0158331
720.906	0.0158955
720.984	0.0159675
721.062	0.0158109
721.140	0.0159582
721.218	0.0158971
721.297	0.0159306
721.375	0.0159387
721.453	0.0159158
721.531	0.0159674
721.609	0.0158653
721.687	0.0158858
721.765	0.0160270
721.843	0.0159200
721.922	0.0158532
722.000	0.0159249
722.078	0.0159492
722.156	0.0159753
722.234	0.0160087
722.312	0.0158601
722.390	0.0159341
722.468	0.0158978
722.547	0.0157509
722.625	0.0157767
722.703	0.0159191
722.781	0.0159190
722.859	0.0158226
722.937	0.0159334
723.015	0.0157157
723.093	0.0158811
723.172	0.0157864
723.250	0.0157838
723.328	0.0158439
723.406	0.0158335
723.484	0.0159159
723.562	0.0158484
723.640	0.0159130
723.718	0.0158027
723.797	0.0157906
723.875	0.0158965
723.953	0.0159133
724.031	0.0160481
724.109	0.0158958
724.187	0.0158470
724.265	0.0159691
724.343	0.0158331
724.422	0.0159684
724.500	0.0159271
724.578	0.0158309
724.656	0.0157569
724.734	0.0158807
724.812	0.0159470
724.890	0.0158064
724.968	0.0158994
725.047	0.0158343
725.125	0.0159892
725.203	0.0159418
725.281	0.0158737
725.359	0.0159919
725.437	0.0159549
725.515	0.0157456
725.593	0.0157480
725.672	0.0158411
725.750	0.0157713
725.828	0.0158354
725.906	0.0158217
725.984	0.0158482
726.062	0.0158216
726.140	0.0158839
726.218	0.0159608
726.297	0.0158539
726.375	0.0158215
726.453	0.0157820
726.531	0.0159267
726.609	0.0159444
726.687	0.0159389
726.765	0.0158500
726.843	0.0158433
726.922	0.0158057
727.000	0.0159012
727.078	0.0159698
727.156	0.0157539
727.234	0.0159188
727.312	0.0158420
727.390	0.0158199
727.468	0.0159541
727.547	0.0158635
727.625	0.0158280
727.703	0.0158300
727.781	0.0158180
727.859	0.0158152
727.937	0.0157880
728.015	0.0158662
728.093	0.0157753
728.172	0.0158057
728.250	0.0158682
728.328	0.0157770
728.406	0.0157491
728.484	0.0158799
728.562	0.0159739
728.640	0.0158396
728.718	0.0157014
728.797	0.0158197
728.875	0.0159916
728.953	0.0158968
729.031	0.0159446
729.109	0.0158145
729.187	0.0158052
729.265	0.0159322
729.343	0.0159508
729.422	0.0158930
729.500	0.0159184
729.578	0.0158315
729.656	0.0159434
729.734	0.0159843
729.812	0.0157938
729.890	0.0157329
729.968	0.0159810
730.047	0.0159352
730.125	0.0159180
730.203	0.0160357
730.281	0.0159418
730.359	0.0158275
730.437	0.0158245
730.515	0.0157521
730.593	0.0159673
730.672	0.0160345
730.750	0.0157703
730.828	0.0157856
730.906	0.0158302
730.984	0.0158710
731.062	0.0157803
731.140	0.0158495
731.218	0.0158783
731.297	0.0159370
731.375	0.0159544
731.453	0.0159270
731.531	0.0158797
731.609	0.0158582
731.687	0.0158150
731.765	0.0158633
731.843	0.0158654
731.922	0.0158298
732.000	0.0159269
732.078	0.0158295
732.156	0.0158404
732.234	0.0157936
732.312	0.0158659
732.390	0.0157980
732.468	0.0157875
732.547	0.0160230
732.625	0.0158472
732.703	0.0159238
732.781	0.0158090
732.859	0.0158158
732.937	0.0159998
733.015	0.0160246
733.093	0.0159990
733.172	0.0159457
733.250	0.0159255
733.328	0.0159000
733.406	0.0157999
733.484	0.0158462
733.562	0.0158324
733.640	0.0159891
733.718	0.0157487
733.797	0.0158333
733.875	0.0157548
733.953	0.0157803
734.031	0.0157548
734.109	0.0158595
734.187	0.0157442
734.265	0.0157544
734.343	0.0157233
734.422	0.0159025
734.500	0.0158418
734.578	0.0157994
734.656	0.0158926
734.734	0.0159547
734.812	0.0159451
734.890	0.0158115
734.968	0.0158283
735.047	0.0158055
735.125	0.0156227
735.203	0.0159016
735.281	0.0159064
735.359	0.0157913
735.437	0.0156783
735.515	0.0157592
735.593	0.0158010
735.672	0.0156405
735.750	0.0157770
735.828	0.0158665
735.906	0.0157764
735.984	0.0157812
736.062	0.0157628
736.140	0.0159222
736.218	0.0160044
736.297	0.0159293
736.375	0.0160264
736.453	0.0159697
736.531	0.0159084
736.609	0.0158987
736.687	0.0157233
736.765	0.0158186
736.843	0.0159427
736.922	0.0157388
737.000	0.0157610
737.078	0.0159837
737.156	0.0156808
737.234	0.0157748
737.312	0.0157910
737.390	0.0157407
737.468	0.0158232
737.547	0.0157912
737.625	0.0159435
737.703	0.0157298
737.781	0.0157468
737.859	0.0157502
737.937	0.0159449
738.015	0.0158261
738.093	0.0158478
738.172	0.0158300
738.250	0.0159467
738.328	0.0159558
738.406	0.0159453
738.484	0.0156246
738.562	0.0160250
738.640	0.0159554
738.718	0.0158400
738.797	0.0157085
738.875	0.0157157
738.953	0.0158834
739.031	0.0158759
739.109	0.0157336
739.187	0.0157418
739.265	0.0156387
739.343	0.0157790
739.422	0.0157678
739.500	0.0158459
739.578	0.0157990
739.656	0.0158627
739.734	0.0160042
739.812	0.0159126
739.890	0.0159166
739.968	0.0159073
740.047	0.0157944
740.125	0.0159124
740.203	0.0158540
740.281	0.0159805
740.359	0.0157190
740.437	0.0158769
740.515	0.0157101
740.593	0.0157964
740.672	0.0156583
740.750	0.0157382
740.828	0.0158263
740.906	0.0159053
740.984	0.0158233
741.062	0.0157878
741.140	0.0158634
741.218	0.0159035
741.297	0.0159553
741.375	0.0158917
741.453	0.0161271
741.531	0.0160165
741.609	0.0159643
741.687	0.0160313
741.765	0.0159538
741.843	0.0159412
741.922	0.0159643
742.000	0.0159350
742.078	0.0158268
742.156	0.0157409
742.234	0.0158435
742.312	0.0158363
742.390	0.0157378
742.468	0.0157103
742.547	0.0158514
742.625	0.0158026
742.703	0.0158388
742.781	0.0158568
742.859	0.0158852
742.937	0.0159072
743.015	0.0159586
743.093	0.0159627
743.172	0.0158864
743.250	0.0160341
743.328	0.0157558
743.406	0.0158376
743.484	0.0158891
743.562	0.0160497
743.640	0.0159595
743.718	0.0160308
743.797	0.0160968
743.875	0.0161903
743.953	0.0160770
744.031	0.0160543
744.109	0.0159617
744.187	0.0159898
744.265	0.0159261
744.343	0.0158715
744.422	0.0159146
744.500	0.0157983
744.578	0.0158241
744.656	0.0158421
744.734	0.0158594
744.812	0.0158676
744.890	0.0157616
744.968	0.0158192
745.047	0.0159602
745.125	0.0159541
745.203	0.0159304
745.281	0.0159344
745.359	0.0159667
745.437	0.0160515
745.515	0.0160217
745.593	0.0160196
745.672	0.0161501
745.750	0.0158451
745.828	0.0158633
745.906	0.0158000
745.984	0.0158761
746.062	0.0157527
746.140	0.0158501
746.218	0.0158070
746.297	0.0159470
746.375	0.0159184
746.453	0.0158781
746.531	0.0159141
746.609	0.0158862
746.687	0.0158595
746.765	0.0159850
746.843	0.0158670
746.922	0.0159797
747.000	0.0159651
747.078	0.0159708
747.156	0.0158724
747.234	0.0158588
747.312	0.0158262
747.390	0.0158601
747.468	0.0158115
747.547	0.0157433
747.625	0.0159255
747.703	0.0159406
747.781	0.0159892
747.859	0.0160416
747.937	0.0160798
748.015	0.0159439
748.093	0.0160343
748.172	0.0161050
748.250	0.0159615
748.328	0.0160718
748.406	0.0159552
748.484	0.0159138
748.562	0.0159967
748.640	0.0159252
748.718	0.0160260
748.797	0.0160571
748.875	0.0159251
748.953	0.0158331
749.031	0.0157130
749.109	0.0158570
749.187	0.0159007
749.265	0.0158921
749.343	0.0158392
749.422	0.0157988
749.500	0.0159569
749.578	0.0160157
749.656	0.0160542
749.734	0.0160323
749.812	0.0161416
749.890	0.0160584
749.968	0.0160191
750.047	0.0160510
750.125	0.0160921
750.203	0.0160311
750.281	0.0158334
750.359	0.0158755
750.437	0.0157267
750.515	0.0157896
750.593	0.0156932
750.672	0.0156407
750.750	0.0156897
750.828	0.0156932
750.906	0.0156485
750.984	0.0156295
751.062	0.0158380
751.140	0.0158617
751.218	0.0159452
751.297	0.0160164
751.375	0.0158743
751.453	0.0159243
751.531	0.0159304
751.609	0.0159799
751.687	0.0159348
751.765	0.0158137
751.843	0.0157436
751.922	0.0157606
752.000	0.0157553
752.078	0.0157642
752.156	0.0158510
752.234	0.0157455
752.312	0.0157251
752.390	0.0157980
752.468	0.0158882
752.547	0.0159850
752.625	0.0159855
752.703	0.0160791
752.781	0.0160691
752.859	0.0160305
752.937	0.0161182
753.015	0.0160110
753.093	0.0159267
753.172	0.0160110
753.250	0.0160057
753.328	0.0158616
753.406	0.0159069
753.484	0.0158343
753.562	0.0159736
753.640	0.0160418
753.718	0.0158350
753.797	0.0157942
753.875	0.0159205
753.953	0.0157853
754.031	0.0156897
754.109	0.0157008
754.187	0.0156419
754.265	0.0157033
754.343	0.0156674
754.422	0.0155917
754.500	0.0157802
754.578	0.0156844
754.656	0.0158068
754.734	0.0157648
754.812	0.0159645
754.890	0.0157639
754.968	0.0159285
755.047	0.0159689
755.125	0.0159216
755.203	0.0160327
755.281	0.0158929
755.359	0.0159041
755.437	0.0156850
755.515	0.0157270
755.593	0.0158376
755.672	0.0157077
755.750	0.0157584
755.828	0.0157950
755.906	0.0156593
755.984	0.0157829
756.062	0.0156025
756.140	0.0155112
756.218	0.0154587
756.297	0.0154751
756.375	0.0153856
756.453	0.0153925
756.531	0.0153801
756.609	0.0155082
756.687	0.0155494
756.765	0.0155678
756.843	0.0159706
756.922	0.0161438
757.000	0.0163356
757.078	0.0166268
757.156	0.0167683
757.234	0.0168653
757.312	0.0168718
757.390	0.0169458
757.468	0.0168969
757.547	0.0168663
757.625	0.0167931
757.703	0.0166250
757.781	0.0164005
757.859	0.0162230
757.937	0.0161913
758.015	0.0160088
758.093	0.0159541
758.172	0.0156544
758.250	0.0156271
758.328	0.0154969
758.406	0.0153508
758.484	0.0153860
758.562	0.0152557
758.640	0.0150443
758.718	0.0150680
758.797	0.0151095
758.875	0.0150632
758.953	0.0150735
759.031	0.0152268
759.109	0.0154425
759.187	0.0154410
759.265	0.0155820
759.343	0.0155262
759.422	0.0155672
759.500	0.0157092
759.578	0.0158138
759.656	0.0156256
759.734	0.0155222
759.812	0.0153696
759.890	0.0152853
759.968	0.0151929
760.047	0.0152451
760.125	0.0151581
760.203	0.0151361
760.281	0.0151351
760.359	0.0152505
760.437	0.0154575
760.515	0.0157984
760.593	0.0157639
760.672	0.0160058
760.750	0.0163081
760.828	0.0164310
760.906	0.0166133
760.984	0.0167791
761.062	0.0169339
761.140	0.0168983
761.218	0.0170078
761.297	0.0170442
761.375	0.0171398
761.453	0.0171698
761.531	0.0171217
761.609	0.0168769
761.687	0.0167598
761.765	0.0166623
761.843	0.0163547
761.922	0.0161360
762.000	0.0159953
762.078	0.0158228
762.156	0.0156569
762.234	0.0155240
762.312	0.0155548
762.390	0.0156236
762.468	0.0155799
762.547	0.0157782
762.625	0.0158836
762.703	0.0159798
762.781	0.0160590
762.859	0.0162459
762.937	0.0162794
763.015	0.0161865
763.093	0.0162579
763.172	0.0161132
763.250	0.0162007
763.328	0.0161050
763.406	0.0158038
763.484	0.0158325
763.562	0.0156024
763.640	0.0153631
763.718	0.0148445
763.797	0.0147371
763.875	0.0144469
763.953	0.0140969
764.031	0.0140433
764.109	0.0140318
764.187	0.0139981
764.265	0.0140030
764.343	0.0141147
764.422	0.0142909
764.500	0.0144408
764.578	0.0147165
764.656	0.0150572
764.734	0.0153111
764.812	0.0154505
764.890	0.0157720
764.968	0.0160309
765.047	0.0162457
765.125	0.0163565
765.203	0.0164380
765.281	0.0165424
765.359	0.0167581
765.437	0.0168674
765.515	0.0169672
765.593	0.0168185
765.672	0.0167942
765.750	0.0167570
765.828	0.0168536
765.906	0.0167442
765.984	0.0165202
766.062	0.0168461
766.140	0.0168968
766.218	0.0171254
766.297	0.0172810
766.375	0.0174835
766.453	0.0176854
766.531	0.0178347
766.609	0.0180711
766.687	0.0181144
766.765	0.0179163
766.843	0.0179068
766.922	0.0178098
767.000	0.0174709
767.078	0.0172501
767.156	0.0168928
767.234	0.0164868
767.312	0.0163297
767.390	0.0159322
767.468	0.0155064
767.547	0.0151837
767.625	0.0148089
767.703	0.0145988
767.781	0.0144496
767.859	0.0143177
767.937	0.0142008
768.015	0.0140525
768.093	0.0140912
768.172	0.0141112
768.250	0.0140829
768.328	0.0140034
768.406	0.0139980
768.484	0.0139518
768.562	0.0139009
768.640	0.0137440
768.718	0.0137009
768.797	0.0136828
768.875	0.0136891
768.953	0.0134875
769.031	0.0136613
769.109	0.0138566
769.187	0.0138380
769.265	0.0140889
769.343	0.0144037
769.422	0.0145728
769.500	0.0149644
769.578	0.0152592
769.656	0.0156394
769.734	0.0160226
769.812	0.0163574
769.890	0.0166446
769.968	0.0169352
770.047	0.0170168
770.125	0.0173840
770.203	0.0175544
770.281	0.0177578
770.359	0.0178848
770.437	0.0179991
770.515	0.0181086
770.593	0.0180333
770.672	0.0180978
770.750	0.0179321
770.828	0.0178747
770.906	0.0179478
770.984	0.0177818
771.062	0.0179073
771.140	0.0178159
771.218	0.0177900
771.297	0.0177649
771.375	0.0177166
771.453	0.0176280
771.531	0.0176118
771.609	0.0176591
771.687	0.0174068
771.765	0.0174267
771.843	0.0172595
771.922	0.0171279
772.000	0.0170423
772.078	0.0170618
772.156	0.0168263
772.234	0.0164982
772.312	0.0163947
772.390	0.0160809
772.468	0.0157925
772.547	0.0153040
772.625	0.0150278
772.703	0.0147719
772.781	0.0143105
772.859	0.0139204
772.937	0.0135239
773.015	0.0133195
773.093	0.0131503
773.172	0.0129547
773.250	0.0127247
773.328	0.0127769
773.406	0.0124817
773.484	0.0124140
773.562	0.0124723
773.640	0.0123431
773.718	0.0124049
773.797	0.0123945
773.875	0.0123773
773.953	0.0124335
774.031	0.0125777
774.109	0.0127054
774.187	0.0128364
774.265	0.0131593
774.343	0.0134604
774.422	0.0137978
774.500	0.0142234
774.578	0.0148795
774.656	0.0155101
774.734	0.0162379
774.812	0.0168002
774.890	0.0175600
774.968	0.0180557
775.047	0.0187642
775.125	0.0193879
775.203	0.0199180
775.281	0.0204182
775.359	0.0209373
775.437	0.0212322
775.515	0.0214431
775.593	0.0217332
775.672	0.0215555
775.750	0.0215961
775.828	0.0211366
775.906	0.0209430
775.984	0.0205396
776.062	0.0200915
776.140	0.0195869
776.218	0.0190163
776.297	0.0185065
776.375	0.0179896
776.453	0.0174538
776.531	0.0169019
776.609	0.0163856
776.687	0.0157068
776.765	0.0150938
776.843	0.0144159
776.922	0.0140517
777.000	0.0136411
777.078	0.0129306
777.156	0.0125150
777.234	0.0123238
777.312	0.0122367
777.390	0.0122500
777.468	0.0121199
777.547	0.0122895
777.625	0.0126429
777.703	0.0125814
777.781	0.0130677
777.859	0.0134023
777.937	0.0135889
778.015	0.0138936
778.093	0.0142234
778.172	0.0146458
778.250	0.0147366
778.328	0.0149403
778.406	0.0152177
778.484	0.0154552
778.562	0.0154877
778.640	0.0155563
778.718	0.0155964
778.797	0.0154070
778.875	0.0153634
778.953	0.0150476
779.031	0.0148489
779.109	0.0145148
779.187	0.0143219
779.265	0.0141898
779.343	0.0140048
779.422	0.0136804
779.500	0.0135815
779.578	0.0136868
779.656	0.0138491
779.734	0.0140458
779.812	0.0145117
779.890	0.0149402
779.968	0.0156490
780.047	0.0162206
780.125	0.0169652
780.203	0.0176657
780.281	0.0184305
780.359	0.0189474
780.437	0.0195817
780.515	0.0201626
780.593	0.0206355
780.672	0.0208835
780.750	0.0211344
780.828	0.0214303
780.906	0.0215278
780.984	0.0214790
781.062	0.0213567
781.140	0.0210576
781.218	0.0206573
781.297	0.0200741
781.375	0.0195071
781.453	0.0188067
781.531	0.0181248
781.609	0.0171913
781.687	0.0164600
781.765	0.0156757
781.843	0.0149038
781.922	0.0141501
782.000	0.0134303
782.078	0.0127609
782.156	0.0125423
782.234	0.0122063
782.312	0.0119784
782.390	0.0121093
782.468	0.0120953
782.547	0.0120743
782.625	0.0123908
782.703	0.0126888
782.781	0.0129739
782.859	0.0132173
782.937	0.0136584
783.015	0.0139180
783.093	0.0143036
783.172	0.0146497
783.250	0.0149110
783.328	0.0152905
783.406	0.0151847
783.484	0.0153449
783.562	0.0154904
783.640	0.0156521
783.718	0.0155675
783.797	0.0153317
783.875	0.0154407
783.953	0.0149762
784.031	0.0148637
784.109	0.0147975
784.187	0.0147885
784.265	0.0144649
784.343	0.0144196
784.422	0.0142936
784.500	0.0142328
784.578	0.0143483
784.656	0.0145741
784.734	0.0147989
784.812	0.0150687
784.890	0.0154298
784.968	0.0157856
785.047	0.0162554
785.125	0.0166129
785.203	0.0169858
785.281	0.0173848
785.359	0.0176481
785.437	0.0177768
785.515	0.0180775
785.593	0.0183117
785.672	0.0183229
785.750	0.0185081
785.828	0.0184842
785.906	0.0184041
785.984	0.0184068
786.062	0.0184161
786.140	0.0183555
786.218	0.0183482
786.297	0.0182124
786.375	0.0182873
786.453	0.0182030
786.531	0.0180654
786.609	0.0178968
786.687	0.0178020
786.765	0.0175629
786.843	0.0172897
786.922	0.0171591
787.000	0.0169354
787.078	0.0164748
787.156	0.0161354
787.234	0.0156228
787.312	0.0153490
787.390	0.0148116
787.468	0.0145802
787.547	0.0141181
787.625	0.0138159
787.703	0.0135786
787.781	0.0133973
787.859	0.0131116
787.937	0.0129237
788.015	0.0130812
788.093	0.0132655
788.172	0.0133487
788.250	0.0137148
788.328	0.0141495
788.406	0.0146685
788.484	0.0151044
788.562	0.0157829
788.640	0.0161145
788.718	0.0164188
788.797	0.0170686
788.875	0.0169762
788.953	0.0171489
789.031	0.0171391
789.109	0.0169926
789.187	0.0165556
789.265	0.0159579
789.343	0.0156011
789.422	0.0149751
789.500	0.0142732
789.578	0.0137132
789.656	0.0131996
789.734	0.0127241
789.812	0.0122437
789.890	0.0120511
789.968	0.0118974
790.047	0.0120240
790.125	0.0124081
790.203	0.0126692
790.281	0.0131461
790.359	0.0138338
790.437	0.0144923
790.515	0.0153349
790.593	0.0160130
790.672	0.0166820
790.750	0.0173015
790.828	0.0179893
790.906	0.0185785
790.984	0.0188009
791.062	0.0192009
791.140	0.0194165
791.218	0.0194286
791.297	0.0195709
791.375	0.0194756
791.453	0.0194493
791.531	0.0191769
791.609	0.0189496
791.687	0.0186715
791.765	0.0182577
791.843	0.0178281
791.922	0.0177502
792.000	0.0174011
792.078	0.0170667
792.156	0.0169211
792.234	0.0167541
792.312	0.0165488
792.390	0.0162614
792.468	0.0161454
792.547	0.0161342
792.625	0.0162006
792.703	0.0159473
792.781	0.0157563
792.859	0.0156776
792.937	0.0156258
793.015	0.0155512
793.093	0.0152502
793.172	0.0151974
793.250	0.0151534
793.328	0.0149551
793.406	0.0147722
793.484	0.0146204
793.562	0.0144318
793.640	0.0142776
793.718	0.0140540
793.797	0.0138248
793.875	0.0137886
793.953	0.0136784
794.031	0.0134131
794.109	0.0134839
794.187	0.0134760
794.265	0.0134715
794.343	0.0136417
794.422	0.0135970
794.500	0.0136791
794.578	0.0137999
794.656	0.0138107
794.734	0.0140512
794.812	0.0141309
794.890	0.0141998
794.968	0.0145418
795.047	0.0147365
795.125	0.0148672
795.203	0.0150193
795.281	0.0155347
795.359	0.0156239
795.437	0.0159212
795.515	0.0160294
795.593	0.0164436
795.672	0.0166795
795.750	0.0169758
795.828	0.0171725
795.906	0.0174689
795.984	0.0177605
796.062	0.0179337
796.140	0.0182275
796.218	0.0182980
796.297	0.0185540
796.375	0.0187193
796.453	0.0186850
796.531	0.0188631
796.609	0.0188409
796.687	0.0187725
796.765	0.0186750
796.843	0.0185465
796.922	0.0181300
797.000	0.0177702
797.078	0.0174035
797.156	0.0171567
797.234	0.0167297
797.312	0.0163606
797.390	0.0160287
797.468	0.0155820
797.547	0.0152011
797.625	0.0150525
797.703	0.0147173
797.781	0.0147050
797.859	0.0145045
797.937	0.0143598
798.015	0.0143893
798.093	0.0144112
798.172	0.0144022
798.250	0.0145347
798.328	0.0145641
798.406	0.0146255
798.484	0.0146173
798.562	0.0146992
798.640	0.0148281
798.718	0.0147720
798.797	0.0145600
798.875	0.0146906
798.953	0.0146809
799.031	0.0146915
799.109	0.0147584
799.187	0.0146523
799.265	0.0147417
799.343	0.0149055
799.422	0.0149212
799.500	0.0150586
799.578	0.0151687
799.656	0.0153260
799.734	0.0154487
799.812	0.0157496
799.890	0.0158867
799.968	0.0159544
800.047	0.0160062
800.125	0.0161007
800.203	0.0161636
800.281	0.0162487
800.359	0.0164340
800.437	0.0164638
800.515	0.0163955
800.593	0.0164952
800.672	0.0165875
800.750	0.0165205
800.828	0.0165704
800.906	0.0167265
800.984	0.0167896
801.062	0.0166716
801.140	0.0169614
801.218	0.0170331
801.297	0.0172211
801.375	0.0173299
801.453	0.0173946
801.531	0.0175635
801.609	0.0175193
801.687	0.0174133
801.765	0.0174995
801.843	0.0173034
801.922	0.0171169
802.000	0.0170249
802.078	0.0167777
802.156	0.0168287
802.234	0.0164584
802.312	0.0161281
802.390	0.0158852
802.468	0.0155782
802.547	0.0153254
802.625	0.0149429
802.703	0.0148352
802.781	0.0145096
802.859	0.0143621
802.937	0.0143083
803.015	0.0142183
803.093	0.0142769
803.172	0.0141484
803.250	0.0142683
803.328	0.0144364
803.406	0.0144291
803.484	0.0146365
803.562	0.0146652
803.640	0.0147556
803.718	0.0148319
803.797	0.0149654
803.875	0.0150691
803.953	0.0150055
804.031	0.0150769
804.109	0.0151983
804.187	0.0154339
804.265	0.0154948
804.343	0.0156049
804.422	0.0158601
804.500	0.0158781
804.578	0.0160999
804.656	0.0160509
804.734	0.0162475
804.812	0.0163723
804.890	0.0165268
804.968	0.0167938
805.047	0.0167670
805.125	0.0168788
805.203	0.0171459
805.281	0.0170788
805.359	0.0171259
805.437	0.0171508
805.515	0.0172305
805.593	0.0171637
805.672	0.0169763
805.750	0.0170919
805.828	0.0169637
805.906	0.0167940
805.984	0.0168389
806.062	0.0168723
806.140	0.0167667
806.218	0.0165286
806.297	0.0163152
806.375	0.0162376
806.453	0.0162715
806.531	0.0163217
806.609	0.0161766
806.687	0.0161616
806.765	0.0160738
806.843	0.0160854
806.922	0.0159991
807.000	0.0159305
807.078	0.0157248
807.156	0.0158199
807.234	0.0158633
807.312	0.0158186
807.390	0.0157059
807.468	0.0155520
807.547	0.0155118
807.625	0.0153669
807.703	0.0153580
807.781	0.0152721
807.859	0.0150283
807.937	0.0151027
808.015	0.0150625
808.093	0.0149226
808.172	0.0148972
808.250	0.0148070
808.328	0.0147194
808.406	0.0146117
808.484	0.0146102
808.562	0.0143885
808.640	0.0144856
808.718	0.0143564
808.797	0.0144262
808.875	0.0145280
808.953	0.0145219
809.031	0.0146165
809.109	0.0146832
809.187	0.0147665
809.265	0.0149424
809.343	0.0151916
809.422	0.0152459
809.500	0.0154150
809.578	0.0155861
809.656	0.0158210
809.734	0.0159060
809.812	0.0162202
809.890	0.0164223
809.968	0.0166460
810.047	0.0169791
810.125	0.0170077
810.203	0.0171998
810.281	0.0175554
810.359	0.0175951
810.437	0.0176917
810.515	0.0178146
810.593	0.0179781
810.672	0.0179656
810.750	0.0179285
810.828	0.0179441
810.906	0.0176729
810.984	0.0175938
811.062	0.0174043
811.140	0.0172329
811.218	0.0167608
811.297	0.0165280
811.375	0.0165222
811.453	0.0161509
811.531	0.0158669
811.609	0.0155856
811.687	0.0154572
811.765	0.0153461
811.843	0.0152744
811.922	0.0151051
812.000	0.0151186
812.078	0.0151154
812.156	0.0149863
812.234	0.0152040
812.312	0.0151187
812.390	0.0150993
812.468	0.0151759
812.547	0.0151348
812.625	0.0152634
812.703	0.0152393
812.781	0.0152934
812.859	0.0152882
812.937	0.0153520
813.015	0.0153359
813.093	0.0152607
813.172	0.0153197
813.250	0.0153097
813.328	0.0152135
813.406	0.0153062
813.484	0.0151936
813.562	0.0152177
813.640	0.0151385
813.718	0.0151204
813.797	0.0149470
813.875	0.0149517
813.953	0.0150796
814.031	0.0149260
814.109	0.0147285
814.187	0.0147121
814.265	0.0148265
814.343	0.0146842
814.422	0.0146606
814.500	0.0148582
814.578	0.0149194
814.656	0.0148899
814.734	0.0151145
814.812	0.0151621
814.890	0.0152020
814.968	0.0154894
815.047	0.0157877
815.125	0.0161601
815.203	0.0162524
815.281	0.0164589
815.359	0.0167306
815.437	0.0170646
815.515	0.0173399
815.593	0.0175871
815.672	0.0178562
815.750	0.0180414
815.828	0.0181176
815.906	0.0179436
815.984	0.0180447
816.062	0.0179819
816.140	0.0179639
816.218	0.0178133
816.297	0.0175071
816.375	0.0173697
816.453	0.0170245
816.531	0.0167953
816.609	0.0165666
816.687	0.0162340
816.765	0.0158881
816.843	0.0157863
816.922	0.0154451
817.000	0.0151394
817.078	0.0149128
817.156	0.0148179
817.234	0.0146690
817.312	0.0146021
817.390	0.0145575
817.468	0.0143930
817.547	0.0144638
817.625	0.0145078
817.703	0.0146764
817.781	0.0148337
817.859	0.0148328
817.937	0.0149447
818.015	0.0150642
818.093	0.0152934
818.172	0.0154166
818.250	0.0153378
818.328	0.0156940
818.406	0.0159074
818.484	0.0159551
818.562	0.0159855
818.640	0.0160223
818.718	0.0161934
818.797	0.0162703
818.875	0.0162219
818.953	0.0161848
819.031	0.0161617
819.109	0.0161037
819.187	0.0158985
819.265	0.0157370
819.343	0.0156552
819.422	0.0155184
819.500	0.0153862
819.578	0.0152151
819.656	0.0149851
819.734	0.0148873
819.812	0.0148263
819.890	0.0148694
819.968	0.0146923
820.047	0.0146926
820.125	0.0148342
820.203	0.0150130
820.281	0.0150202
820.359	0.0152304
820.437	0.0156014
820.515	0.0158997
820.593	0.0161334
820.672	0.0162669
820.750	0.0165208
820.828	0.0168557
820.906	0.0171613
820.984	0.0172292
821.062	0.0174123
821.140	0.0176288
821.218	0.0176216
821.297	0.0175889
821.375	0.0175410
821.453	0.0173015
821.531	0.0171697
821.609	0.0169823
821.687	0.0167252
821.765	0.0165323
821.843	0.0163106
821.922	0.0160217
822.000	0.0157700
822.078	0.0154974
822.156	0.0152750
822.234	0.0152447
822.312	0.0149427
822.390	0.0148602
822.468	0.0148234
822.547	0.0146251
822.625	0.0147827
822.703	0.0148069
822.781	0.0147453
822.859	0.0147334
822.937	0.0150871
823.015	0.0152272
823.093	0.0152670
823.172	0.0153542
823.250	0.0156212
823.328	0.0158833
823.406	0.0159232
823.484	0.0160767
823.562	0.0163850
823.640	0.0165142
823.718	0.0167149
823.797	0.0167436
823.875	0.0168832
823.953	0.0168432
824.031	0.0170225
824.109	0.0170574
824.187	0.0171131
824.265	0.0169958
824.343	0.0168793
824.422	0.0168059
824.500	0.0165719
824.578	0.0164011
824.656	0.0161067
824.734	0.0157771
824.812	0.0154709
824.890	0.0154957
824.968	0.0152276
825.047	0.0149223
825.125	0.0147481
825.203	0.0148136
825.281	0.0145603
825.359	0.0146175
825.437	0.0145808
825.515	0.0145276
825.593	0.0146685
825.672	0.0149178
825.750	0.0151239
825.828	0.0152467
825.906	0.0154598
825.984	0.0156689
826.062	0.0160112
826.140	0.0162853
826.218	0.0164604
826.297	0.0165625
826.375	0.0167944
826.453	0.0169369
826.531	0.0168816
826.609	0.0169421
826.687	0.0167681
826.765	0.0168073
826.843	0.0167750
826.922	0.0165950
827.000	0.0164198
827.078	0.0163251
827.156	0.0162944
827.234	0.0160394
827.312	0.0160156
827.390	0.0158843
827.468	0.0156758
827.547	0.0155989
827.625	0.0153888
827.703	0.0152502
827.781	0.0152862
827.859	0.0152337
827.937	0.0151055
828.015	0.0152251
828.093	0.0152689
828.172	0.0151929
828.250	0.0153512
828.328	0.0152731
828.406	0.0154929
828.484	0.0156199
828.562	0.0158110
828.640	0.0159271
828.718	0.0159348
828.797	0.0162493
828.875	0.0163889
828.953	0.0164672
829.031	0.0167131
829.109	0.0167520
829.187	0.0168353
829.265	0.0168289
829.343	0.0169094
829.422	0.0170095
829.500	0.0170135
829.578	0.0169100
829.656	0.0168001
829.734	0.0165009
829.812	0.0162566
829.890	0.0162918
829.968	0.0160351
830.047	0.0157439
830.125	0.0156361
830.203	0.0153635
830.281	0.0150037
830.359	0.0150717
830.437	0.0149501
830.515	0.0148125
830.593	0.0146909
830.672	0.0146770
830.750	0.0146760
830.828	0.0148316
830.906	0.0150352
830.984	0.0149011
831.062	0.0150427
831.140	0.0154070
831.218	0.0155947
831.297	0.0156923
831.375	0.0158835
831.453	0.0159748
831.531	0.0160705
831.609	0.0162440
831.687	0.0162163
831.765	0.0163957
831.843	0.0164193
831.922	0.0164915
832.000	0.0164732
832.078	0.0164291
832.156	0.0165193
832.234	0.0163957
832.312	0.0162758
832.390	0.0164235
832.468	0.0163345
832.547	0.0161627
832.625	0.0160061
832.703	0.0159194
832.781	0.0160243
832.859	0.0158511
832.937	0.0156732
833.015	0.0155854
833.093	0.0154899
833.172	0.0153220
833.250	0.0153241
833.328	0.0151575
833.406	0.0153657
833.484	0.0152045
833.562	0.0152800
833.640	0.0154548
833.718	0.0154440
833.797	0.0155105
833.875	0.0156150
833.953	0.0157052
834.031	0.0157558
834.109	0.0157910
834.187	0.0159417
834.265	0.0161443
834.343	0.0161948
834.422	0.0161915
834.500	0.0163538
834.578	0.0164117
834.656	0.0164902
834.734	0.0165483
834.812	0.0164532
834.890	0.0164526
834.968	0.0163818
835.047	0.0163608
835.125	0.0162964
835.203	0.0161369
835.281	0.0160618
835.359	0.0158739
835.437	0.0156963
835.515	0.0157044
835.593	0.0155171
835.672	0.0155235
835.750	0.0154769
835.828	0.0154405
835.906	0.0152583
835.984	0.0153588
836.062	0.0154668
836.140	0.0154557
836.218	0.0154577
836.297	0.0156171
836.375	0.0156662
836.453	0.0157287
836.531	0.0157841
836.609	0.0156609
836.687	0.0158667
836.765	0.0159126
836.843	0.0159417
836.922	0.0158958
837.000	0.0158954
837.078	0.0161335
837.156	0.0159227
837.234	0.0159446
837.312	0.0160227
837.390	0.0161024
837.468	0.0160168
837.547	0.0161217
837.625	0.0158814
837.703	0.0159969
837.781	0.0160686
837.859	0.0159379
837.937	0.0159222
838.015	0.0159064
838.093	0.0157444
838.172	0.0157067
838.250	0.0155637
838.328	0.0155505
838.406	0.0155500
838.484	0.0157162
838.562	0.0155673
838.640	0.0154064
838.718	0.0154760
838.797	0.0154245
838.875	0.0155278
838.953	0.0155811
839.031	0.0156160
839.109	0.0157003
839.187	0.0154972
839.265	0.0156594
839.343	0.0159048
839.422	0.0158612
839.500	0.0158624
839.578	0.0158823
839.656	0.0160501
839.734	0.0161499
839.812	0.0161770
839.890	0.0161617
839.968	0.0163602
840.047	0.0162167
840.125	0.0161519
840.203	0.0162404
840.281	0.0161034
840.359	0.0161814
840.437	0.0160135
840.515	0.0161596
840.593	0.0161363
840.672	0.0159032
840.750	0.0158536
840.828	0.0157638
840.906	0.0160245
840.984	0.0157919
841.062	0.0159009
841.140	0.0158296
841.218	0.0157853
841.297	0.0158640
841.375	0.0157343
841.453	0.0156017
841.531	0.0156123
841.609	0.0157884
841.687	0.0156782
841.765	0.0158636
841.843	0.0159557
841.922	0.0158565
842.000	0.0157712
842.078	0.0159101
842.156	0.0158167
842.234	0.0159976
842.312	0.0159647
842.390	0.0160042
842.468	0.0159515
842.547	0.0160792
842.625	0.0160468
842.703	0.0158879
842.781	0.0159150
842.859	0.0158022
842.937	0.0158194
843.015	0.0159602
843.093	0.0158832
843.172	0.0158910
843.250	0.0158465
843.328	0.0157312
843.406	0.0157852
843.484	0.0157678
843.562	0.0157835
843.640	0.0156924
843.718	0.0156145
843.797	0.0156718
843.875	0.0156050
843.953	0.0156779
844.031	0.0157162
844.109	0.0157697
844.187	0.0157771
844.265	0.0159039
844.343	0.0158978
844.422	0.0159090
844.500	0.0161073
844.578	0.0159395
844.656	0.0159880
844.734	0.0161538
844.812	0.0159814
844.890	0.0160870
844.968	0.0160423
845.047	0.0159634
845.125	0.0161562
845.203	0.0160065
845.281	0.0160056
845.359	0.0160458
845.437	0.0159995
845.515	0.0158757
845.593	0.0158913
845.672	0.0159100
845.750	0.0159304
845.828	0.0157204
845.906	0.0157547
845.984	0.0159282
846.062	0.0158714
846.140	0.0158681
846.218	0.0159195
846.297	0.0156638
846.375	0.0158028
846.453	0.0159151
846.531	0.0158265
846.609	0.0158009
846.687	0.0159589
846.765	0.0158601
846.843	0.0158145
846.922	0.0158452
847.000	0.0157718
847.078	0.0158579
847.156	0.0157813
847.234	0.0155989
847.312	0.0156983
847.390	0.0156606
847.468	0.0156776
847.547	0.0156498
847.625	0.0156818
847.703	0.0157175
847.781	0.0156190
847.859	0.0157907
847.937	0.0158344
848.015	0.0158427
848.093	0.0158342
848.172	0.0159591
848.250	0.0159882
848.328	0.0161035
848.406	0.0161006
848.484	0.0159491
848.562	0.0159873
848.640	0.0159948
848.718	0.0161189
848.797	0.0159883
848.875	0.0160769
848.953	0.0159203
849.031	0.0160863
849.109	0.0160806
849.187	0.0159949
849.265	0.0158685
849.343	0.0158720
849.422	0.0157452
849.500	0.0159026
849.578	0.0157603
849.656	0.0160526
849.734	0.0158926
849.812	0.0159714
849.890	0.0159620
849.968	0.0158962
850.047	0.0157938
850.125	0.0158180
850.203	0.0160883
850.281	0.0160913
850.359	0.0160004
850.437	0.0160779
850.515	0.0161486
850.593	0.0160215
850.672	0.0160223
850.750	0.0160977
850.828	0.0159994
850.906	0.0160318
850.984	0.0160197
851.062	0.0159403
851.140	0.0158838
851.218	0.0158220
851.297	0.0158012
851.375	0.0157726
851.453	0.0156049
851.531	0.0157610
851.609	0.0157242
851.687	0.0157747
851.765	0.0157520
851.843	0.0156715
851.922	0.0158922
852.000	0.0157841
852.078	0.0156339
852.156	0.0156832
852.234	0.0157561
852.312	0.0157930
852.390	0.0157645
852.468	0.0157992
852.547	0.0157229
852.625	0.0157490
852.703	0.0157177
852.781	0.0157698
852.859	0.0158076
852.937	0.0157056
853.015	0.0156934
853.093	0.0157641
853.172	0.0156436
853.250	0.0157588
853.328	0.0157731
853.406	0.0157326
853.484	0.0158130
853.562	0.0157487
853.640	0.0158124
853.718	0.0159148
853.797	0.0158490
853.875	0.0159035
853.953	0.0158176
854.031	0.0160876
854.109	0.0161926
854.187	0.0161143
854.265	0.0160513
854.343	0.0160819
854.422	0.0161491
854.500	0.0160316
854.578	0.0160316
854.656	0.0161241
854.734	0.0160478
854.812	0.0159193
854.890	0.0160490
854.968	0.0158189
855.047	0.0158428
855.125	0.0157669
855.203	0.0158795
855.281	0.0157090
855.359	0.0158131
855.437	0.0156691
855.515	0.0157883
855.593	0.0157976
855.672	0.0158894
855.750	0.0159039
855.828	0.0158561
855.906	0.0158250
855.984	0.0159091
856.062	0.0159233
856.140	0.0159297
856.218	0.0159247
856.297	0.0158396
856.375	0.0158890
856.453	0.0158964
856.531	0.0158813
856.609	0.0159306
856.687	0.0158469
856.765	0.0158458
856.843	0.0159032
856.922	0.0158797
857.000	0.0158093
857.078	0.0156885
857.156	0.0157396
857.234	0.0158466
857.312	0.0157384
857.390	0.0156189
857.468	0.0156435
857.547	0.0156849
857.625	0.0159212
857.703	0.0157993
857.781	0.0156461
857.859	0.0156152
857.937	0.0157332
858.015	0.0157550
858.093	0.0158591
858.172	0.0157762
858.250	0.0156760
858.328	0.0158007
858.406	0.0157470
858.484	0.0157593
858.562	0.0156370
858.640	0.0159744
858.718	0.0157587
858.797	0.0156860
858.875	0.0157777
858.953	0.0158456
859.031	0.0157777
859.109	0.0157538
859.187	0.0157640
859.265	0.0158728
859.343	0.0159497
859.422	0.0158225
859.500	0.0158254
859.578	0.0159369
859.656	0.0159306
859.734	0.0160690
859.812	0.0160458
859.890	0.0160696
859.968	0.0160065
860.047	0.0161784
860.125	0.0160828
860.203	0.0162344
860.281	0.0159795
860.359	0.0160661
860.437	0.0161089
860.515	0.0159798
860.593	0.0159398
860.672	0.0158669
860.750	0.0158131
860.828	0.0157652
860.906	0.0157521
860.984	0.0157845
861.062	0.0157406
861.140	0.0157607
861.218	0.0157108
861.297	0.0155394
861.375	0.0157372
861.453	0.0157210
861.531	0.0155417
861.609	0.0157655
861.687	0.0159903
861.765	0.0158372
861.843	0.0158209
861.922	0.0159708
862.000	0.0159340
862.078	0.0159692
862.156	0.0158614
862.234	0.0159257
862.312	0.0159060
862.390	0.0159823
862.468	0.0158222
862.547	0.0159718
862.625	0.0159192
862.703	0.0159644
862.781	0.0159829
862.859	0.0159882
862.937	0.0159512
863.015	0.0158746
863.093	0.0159789
863.172	0.0160484
863.250	0.0159724
863.328	0.0159027
863.406	0.0159124
863.484	0.0160004
863.562	0.0158632
863.640	0.0158918
863.718	0.0159309
863.797	0.0159259
863.875	0.0158393
863.953	0.0158615
864.031	0.0159557
864.109	0.0158845
864.187	0.0158096
864.265	0.0156671
864.343	0.0155092
864.422	0.0156629
864.500	0.0157939
864.578	0.0157471
864.656	0.0156165
864.734	0.0156995
864.812	0.0156998
864.890	0.0157650
864.968	0.0157793
865.047	0.0158186
865.125	0.0158056
865.203	0.0157838
865.281	0.0159147
865.359	0.0158693
865.437	0.0158852
865.515	0.0159853
865.593	0.0161873
865.672	0.0160349
865.750	0.0159091
865.828	0.0161328
865.906	0.0159802
865.984	0.0159988
866.062	0.0159698
866.140	0.0159557
866.218	0.0157375
866.297	0.0158497
866.375	0.0158662
866.453	0.0158762
866.531	0.0157914
866.609	0.0158295
866.687	0.0158127
866.765	0.0158051
866.843	0.0159077
866.922	0.0158694
867.000	0.0160702
867.078	0.0158854
867.156	0.0159399
867.234	0.0159667
867.312	0.0160208
867.390	0.0159787
867.468	0.0158694
867.547	0.0159970
867.625	0.0160425
867.703	0.0160535
867.781	0.0161243
867.859	0.0158548
867.937	0.0160803
868.015	0.0160329
868.093	0.0160056
868.172	0.0160582
868.250	0.0159030
868.328	0.0160073
868.406	0.0159103
868.484	0.0159378
868.562	0.0159650
868.640	0.0159483
868.718	0.0158432
868.797	0.0158305
868.875	0.0158437
868.953	0.0157394
869.031	0.0157867
869.109	0.0158308
869.187	0.0157075
869.265	0.0156589
869.343	0.0158047
869.422	0.0157688
869.500	0.0156918
869.578	0.0157883
869.656	0.0156423
869.734	0.0157092
869.812	0.0156664
869.890	0.0155985
869.968	0.0156337
870.047	0.0154578
870.125	0.0154684
870.203	0.0155680
870.281	0.0153885
870.359	0.0154126
870.437	0.0154911
870.515	0.0155348
870.593	0.0156322
870.672	0.0154492
870.750	0.0155016
870.828	0.0156210
870.906	0.0155634
870.984	0.0156796
871.062	0.0157397
871.140	0.0156970
871.218	0.0158788
871.297	0.0158611
871.375	0.0159988
871.453	0.0160178
871.531	0.0160304
871.609	0.0161163
871.687	0.0161387
871.765	0.0161479
871.843	0.0162941
871.922	0.0162260
872.000	0.0162401
872.078	0.0162933
872.156	0.0163512
872.234	0.0163791
872.312	0.0162480
872.390	0.0163422
872.468	0.0162465
872.547	0.0162127
872.625	0.0162904
872.703	0.0163616
872.781	0.0162524
872.859	0.0162614
872.937	0.0160201
873.015	0.0161237
873.093	0.0160835
873.172	0.0160470
873.250	0.0158538
873.328	0.0156815
873.406	0.0158097
873.484	0.0159173
873.562	0.0155984
873.640	0.0155541
873.718	0.0156306
873.797	0.0155003
873.875	0.0154327
873.953	0.0154254
874.031	0.0154903
874.109	0.0154044
874.187	0.0155436
874.265	0.0154215
874.343	0.0155360
874.422	0.0155825
874.500	0.0153587
874.578	0.0155013
874.656	0.0155067
874.734	0.0155306
874.812	0.0155811
874.890	0.0155621
874.968	0.0155136
875.047	0.0156205
875.125	0.0155867
875.203	0.0156068
875.281	0.0156759
875.359	0.0156785
875.437	0.0157211
875.515	0.0156403
875.593	0.0157564
875.672	0.0158516
875.750	0.0158786
875.828	0.0156680
875.906	0.0156353
875.984	0.0158391
876.062	0.0158485
876.140	0.0160034
876.218	0.0158484
876.297	0.0159541
876.375	0.0159419
876.453	0.0158827
876.531	0.0159181
876.609	0.0159104
876.687	0.0160160
876.765	0.0159480
876.843	0.0159970
876.922	0.0160759
877.000	0.0160684
877.078	0.0161277
877.156	0.0162827
877.234	0.0161671
877.312	0.0162502
877.390	0.0163596
877.468	0.0164181
877.547	0.0162704
877.625	0.0163928
877.703	0.0163962
877.781	0.0162526
877.859	0.0161961
877.937	0.0163181
878.015	0.0160723
878.093	0.0160713
878.172	0.0162439
878.250	0.0159159
878.328	0.0159493
878.406	0.0158849
878.484	0.0156948
878.562	0.0158012
878.640	0.0156652
878.718	0.0156546
878.797	0.0155609
878.875	0.0154813
878.953	0.0156313
879.031	0.0155280
879.109	0.0154768
879.187	0.0155228
879.265	0.0156130
879.343	0.0156433
879.422	0.0156332
879.500	0.0156460
879.578	0.0155308
879.656	0.0155014
879.734	0.0156435
879.812	0.0156137
879.890	0.0156876
879.968	0.0156448
880.047	0.0155595
880.125	0.0157502
880.203	0.0156416
880.281	0.0155643
880.359	0.0157070
880.437	0.0157140
880.515	0.0157849
880.593	0.0157126
880.672	0.0158326
880.750	0.0157959
880.828	0.0158443
880.906	0.0158905
880.984	0.0159413
881.062	0.0160062
881.140	0.0160369
881.218	0.0160461
881.297	0.0158805
881.375	0.0161561
881.453	0.0160117
881.531	0.0160805
881.609	0.0160151
881.687	0.0160716
881.765	0.0161110
881.843	0.0160712
881.922	0.0160630
882.000	0.0160979
882.078	0.0161415
882.156	0.0161627
882.234	0.0159762
882.312	0.0159464
882.390	0.0159625
882.468	0.0159367
882.547	0.0160595
882.625	0.0161131
882.703	0.0160725
882.781	0.0159515
882.859	0.0159888
882.937	0.0160555
883.015	0.0159560
883.093	0.0159954
883.172	0.0160471
883.250	0.0160703
883.328	0.0159612
883.406	0.0158440
883.484	0.0159859
883.562	0.0159943
883.640	0.0158786
883.718	0.0158504
883.797	0.0159622
883.875	0.0158820
883.953	0.0158528
884.031	0.0157899
884.109	0.0159042
884.187	0.0158127
884.265	0.0156975
884.343	0.0157377
884.422	0.0157943
884.500	0.0157478
884.578	0.0156940
884.656	0.0156689
884.734	0.0156801
884.812	0.0156033
884.890	0.0156599
884.968	0.0156900
885.047	0.0155450
885.125	0.0157516
885.203	0.0156876
885.281	0.0156863
885.359	0.0157915
885.437	0.0157419
885.515	0.0157932
885.593	0.0156727
885.672	0.0157679
885.750	0.0156519
885.828	0.0155618
885.906	0.0156674
885.984	0.0155757
886.062	0.0156476
886.140	0.0156567
886.218	0.0155853
886.297	0.0156534
886.375	0.0154177
886.453	0.0156174
886.531	0.0156126
886.609	0.0157792
886.687	0.0157808
886.765	0.0156218
886.843	0.0158688
886.922	0.0158295
887.000	0.0159211
887.078	0.0159450
887.156	0.0159598
887.234	0.0160291
887.312	0.0161060
887.390	0.0160638
887.468	0.0159995
887.547	0.0161543
887.625	0.0161295
887.703	0.0162638
887.781	0.0161067
887.859	0.0161669
887.937	0.0163055
888.015	0.0161851
888.093	0.0163605
888.172	0.0163054
888.250	0.0162016
888.328	0.0163142
888.406	0.0162659
888.484	0.0163416
888.562	0.0162988
888.640	0.0161450
888.718	0.0161315
888.797	0.0160818
888.875	0.0162016
888.953	0.0159815
889.031	0.0157772
889.109	0.0159746
889.187	0.0159243
889.265	0.0157982
889.343	0.0157371
889.422	0.0155887
889.500	0.0157261
889.578	0.0156786
889.656	0.0155951
889.734	0.0157063
889.812	0.0155368
889.890	0.0155208
889.968	0.0155456
890.047	0.0154618
890.125	0.0153571
890.203	0.0154360
890.281	0.0154010
890.359	0.0154118
890.437	0.0154632
890.515	0.0154775
890.593	0.0152594
890.672	0.0152313
890.750	0.0153812
890.828	0.0152680
890.906	0.0152521
890.984	0.0154202
891.062	0.0153724
891.140	0.0153534
891.218	0.0152932
891.297	0.0154639
891.375	0.0155798
891.453	0.0155258
891.531	0.0156139
891.609	0.0156911
891.687	0.0158089
891.765	0.0157252
891.843	0.0157827
891.922	0.0158700
892.000	0.0157506
892.078	0.0159147
892.156	0.0158968
892.234	0.0160581
892.312	0.0159234
892.390	0.0161562
892.468	0.0161993
892.547	0.0160551
892.625	0.0160905
892.703	0.0161159
892.781	0.0162173
892.859	0.0162661
892.937	0.0163376
893.015	0.0163120
893.093	0.0163401
893.172	0.0162681
893.250	0.0164451
893.328	0.0163831
893.406	0.0163106
893.484	0.0163538
893.562	0.0164673
893.640	0.0164584
893.718	0.0161921
893.797	0.0162490
893.875	0.0160916
893.953	0.0161488
894.031	0.0161356
894.109	0.0158327
894.187	0.0158917
894.265	0.0158268
894.343	0.0157738
894.422	0.0157793
894.500	0.0155308
894.578	0.0155683
894.656	0.0156615
894.734	0.0155949
894.812	0.0153524
894.890	0.0154923
894.968	0.0154758
895.047	0.0154706
895.125	0.0153461
895.203	0.0154189
895.281	0.0154574
895.359	0.0153928
895.437	0.0154499
895.515	0.0153652
895.593	0.0153253
895.672	0.0153529
895.750	0.0154964
895.828	0.0154388
895.906	0.0155179
895.984	0.0156116
896.062	0.0156811
896.140	0.0156466
896.218	0.0156474
896.297	0.0155826
896.375	0.0157082
896.453	0.0157765
896.531	0.0159069
896.609	0.0159075
896.687	0.0158823
896.765	0.0159418
896.843	0.0159731
896.922	0.0159194
897.000	0.0159707
897.078	0.0159637
897.156	0.0159406
897.234	0.0161599
897.312	0.0159479
897.390	0.0160609
897.468	0.0161507
897.547	0.0160036
897.625	0.0160789
897.703	0.0160441
897.781	0.0160271
897.859	0.0160973
897.937	0.0161581
898.015	0.0160281
898.093	0.0159657
898.172	0.0161201
898.250	0.0161211
898.328	0.0159829
898.406	0.0158944
898.484	0.0159502
898.562	0.0159303
898.640	0.0159444
898.718	0.0159889
898.797	0.0159766
898.875	0.0159218
898.953	0.0158080
899.031	0.0158916
899.109	0.0157966
899.187	0.0159782
899.265	0.0158677
899.343	0.0158459
899.422	0.0157803
899.500	0.0158597
899.578	0.0158234
899.656	0.0156638
899.734	0.0154697
899.812	0.0156435
899.890	0.0155985
899.968	0.0155784
900.047	0.0155743
900.125	0.0155646
900.203	0.0154311
900.281	0.0154060
900.359	0.0154269
900.437	0.0154167
900.515	0.0155416
900.593	0.0154243
900.672	0.0154083
900.750	0.0153349
900.828	0.0155232
900.906	0.0156033
900.984	0.0156223
901.062	0.0156438
901.140	0.0156194
901.218	0.0157883
901.297	0.0157496
901.375	0.0156625
901.453	0.0157481
901.531	0.0158443
901.609	0.0158465
901.687	0.0158297
901.765	0.0159411
901.843	0.0161271
901.922	0.0160447
902.000	0.0158922
902.078	0.0159604
902.156	0.0161627
902.234	0.0161373
902.312	0.0160221
902.390	0.0160987
902.468	0.0160241
902.547	0.0161335
902.625	0.0161470
902.703	0.0160600
902.781	0.0161361
902.859	0.0161912
902.937	0.0161441
903.015	0.0161502
903.093	0.0160851
903.172	0.0161806
903.250	0.0161593
903.328	0.0161192
903.406	0.0161919
903.484	0.0161069
903.562	0.0160312
903.640	0.0160235
903.718	0.0158633
903.797	0.0160460
903.875	0.0158336
903.953	0.0159183
904.031	0.0159846
904.109	0.0159759
904.187	0.0158641
904.265	0.0159292
904.343	0.0159467
904.422	0.0158057
904.500	0.0157549
904.578	0.0157633
904.656	0.0157861
904.734	0.0157821
904.812	0.0158466
904.890	0.0156991
904.968	0.0156634
905.047	0.0155834
905.125	0.0156219
905.203	0.0154758
905.281	0.0154547
905.359	0.0155911
905.437	0.0155757
905.515	0.0156197
905.593	0.0156395
905.672	0.0156484
905.750	0.0154505
905.828	0.0155534
905.906	0.0155540
905.984	0.0156898
906.062	0.0156371
906.140	0.0155464
906.218	0.0154750
906.297	0.0157204
906.375	0.0157330
906.453	0.0156380
906.531	0.0157147
906.609	0.0158489
906.687	0.0158900
906.765	0.0158768
906.843	0.0158066
906.922	0.0159491
907.000	0.0159880
907.078	0.0158513
907.156	0.0160143
907.234	0.0160702
907.312	0.0159325
907.390	0.0160338
907.468	0.0161684
907.547	0.0159448
907.625	0.0160487
907.703	0.0161787
907.781	0.0161830
907.859	0.0160546
907.937	0.0161228
908.015	0.0162105
908.093	0.0161045
908.172	0.0159581
908.250	0.0161208
908.328	0.0160518
908.406	0.0160651
908.484	0.0161518
908.562	0.0159952
908.640	0.0160560
908.718	0.0161060
908.797	0.0159398
908.875	0.0159573
908.953	0.0158504
909.031	0.0159558
909.109	0.0160224
909.187	0.0159782
909.265	0.0158692
909.343	0.0160860
909.422	0.0159650
909.500	0.0158570
909.578	0.0157404
909.656	0.0158831
909.734	0.0158147
909.812	0.0159087
909.890	0.0157465
909.968	0.0157292
910.047	0.0155645
910.125	0.0156789
910.203	0.0155392
910.281	0.0155023
910.359	0.0156908
910.437	0.0154966
910.515	0.0154766
910.593	0.0155178
910.672	0.0154031
910.750	0.0153439
910.828	0.0154841
910.906	0.0153971
910.984	0.0154156
911.062	0.0154767
911.140	0.0153588
911.218	0.0155184
911.297	0.0156615
911.375	0.0155946
911.453	0.0155820
911.531	0.0156002
911.609	0.0156763
911.687	0.0157634
911.765	0.0158826
911.843	0.0158736
911.922	0.0158929
912.000	0.0160697
912.078	0.0159397
912.156	0.0160091
912.234	0.0160771
912.312	0.0162402
912.390	0.0160625
912.468	0.0162299
912.547	0.0161763
912.625	0.0160738
912.703	0.0161781
912.781	0.0162083
912.859	0.0161264
912.937	0.0161154
913.015	0.0161040
913.093	0.0160983
913.172	0.0161761
913.250	0.0160075
913.328	0.0160820
913.406	0.0160838
913.484	0.0160641
913.562	0.0160169
913.640	0.0159506
913.718	0.0160097
913.797	0.0159624
913.875	0.0160230
913.953	0.0159712
914.031	0.0160168
914.109	0.0159910
914.187	0.0159201
914.265	0.0157537
914.343	0.0158782
914.422	0.0157793
914.500	0.0157103
914.578	0.0157983
914.656	0.0157468
914.734	0.0156196
914.812	0.0156451
914.890	0.0157200
914.968	0.0155315
915.047	0.0155909
915.125	0.0155955
915.203	0.0156116
915.281	0.0154898
915.359	0.0154697
915.437	0.0154963
915.515	0.0154824
915.593	0.0155648
915.672	0.0155440
915.750	0.0155319
915.828	0.0154078
915.906	0.0153616
915.984	0.0154430
916.062	0.0154787
916.140	0.0155184
916.218	0.0155596
916.297	0.0156847
916.375	0.0156734
916.453	0.0157205
916.531	0.0157838
916.609	0.0157771
916.687	0.0158818
916.765	0.0158300
916.843	0.0158551
916.922	0.0160306
917.000	0.0160823
917.078	0.0159484
917.156	0.0159666
917.234	0.0160876
917.312	0.0161437
917.390	0.0161746
917.468	0.0161866
917.547	0.0161263
917.625	0.0159325
917.703	0.0161054
917.781	0.0162020
917.859	0.0161226
917.937	0.0162846
918.015	0.0162505
918.093	0.0161086
918.172	0.0162150
918.250	0.0160920
918.328	0.0159969
918.406	0.0160117
918.484	0.0160002
918.562	0.0159184
918.640	0.0159745
918.718	0.0159838
918.797	0.0158858
918.875	0.0158772
918.953	0.0159055
919.031	0.0158386
919.109	0.0158760
919.187	0.0158678
919.265	0.0158022
919.343	0.0157685
919.422	0.0158477
919.500	0.0158566
919.578	0.0157294
919.656	0.0157344
919.734	0.0157764
919.812	0.0157393
919.890	0.0157223
