06/13/2022	15:01:09	Ver.	4.1	UNKNOWN
Optical Delay	599.968395	Delta X		0.078125	Sweeps	1	Scan Rate	0/0
Coordinates	Axis 1	NaN	Axis 2	NaN	Axis 3	NaN	Axis 4	NaN	Axis 5	NaN	Axis 6	0.000000
TX Power	0.000000	RX Power	0.000000

599.968	0.0155510
600.047	0.0155309
600.125	0.0154943
600.203	0.0155085
600.281	0.0156485
600.359	0.0156010
600.437	0.0154191
600.515	0.0154587
600.593	0.0154723
600.672	0.0155193
600.750	0.0155017
600.828	0.0154691
600.906	0.0156138
600.984	0.0154157
601.062	0.0154051
601.140	0.0154823
601.218	0.0155796
601.297	0.0155116
601.375	0.0155627
601.453	0.0155276
601.531	0.0155074
601.609	0.0156157
601.687	0.0155038
601.765	0.0155094
601.843	0.0155331
601.922	0.0154518
602.000	0.0154921
602.078	0.0155117
602.156	0.0155643
602.234	0.0155031
602.312	0.0154845
602.390	0.0154836
602.468	0.0154620
602.547	0.0153930
602.625	0.0154261
602.703	0.0154153
602.781	0.0154018
602.859	0.0154997
602.937	0.0155322
603.015	0.0154499
603.093	0.0154312
603.172	0.0154308
603.250	0.0154254
603.328	0.0155177
603.406	0.0155585
603.484	0.0155445
603.562	0.0154513
603.640	0.0155910
603.718	0.0154252
603.797	0.0156421
603.875	0.0155158
603.953	0.0154325
604.031	0.0155266
604.109	0.0153955
604.187	0.0154919
604.265	0.0155170
604.343	0.0154061
604.422	0.0154279
604.500	0.0154476
604.578	0.0153780
604.656	0.0155560
604.734	0.0155151
604.812	0.0153900
604.890	0.0154565
604.968	0.0155825
605.047	0.0155029
605.125	0.0154187
605.203	0.0154726
605.281	0.0153928
605.359	0.0155610
605.437	0.0153598
605.515	0.0154448
605.593	0.0154988
605.672	0.0155833
605.750	0.0154456
605.828	0.0153481
605.906	0.0154633
605.984	0.0154023
606.062	0.0155099
606.140	0.0154809
606.218	0.0154552
606.297	0.0154653
606.375	0.0155274
606.453	0.0154905
606.531	0.0155460
606.609	0.0155270
606.687	0.0156108
606.765	0.0155901
606.843	0.0154478
606.922	0.0155331
607.000	0.0154111
607.078	0.0155774
607.156	0.0155089
607.234	0.0155194
607.312	0.0155146
607.390	0.0155917
607.468	0.0155550
607.547	0.0155877
607.625	0.0154179
607.703	0.0154548
607.781	0.0156899
607.859	0.0155745
607.937	0.0155058
608.015	0.0155998
608.093	0.0156150
608.172	0.0156201
608.250	0.0155428
608.328	0.0155338
608.406	0.0156524
608.484	0.0156631
608.562	0.0156209
608.640	0.0155894
608.718	0.0156364
608.797	0.0156905
608.875	0.0156197
608.953	0.0155956
609.031	0.0156723
609.109	0.0157033
609.187	0.0156029
609.265	0.0156219
609.343	0.0157804
609.422	0.0155859
609.500	0.0156667
609.578	0.0157246
609.656	0.0157064
609.734	0.0158405
609.812	0.0157648
609.890	0.0156573
609.968	0.0157144
610.047	0.0156586
610.125	0.0157400
610.203	0.0157693
610.281	0.0156528
610.359	0.0157475
610.437	0.0158231
610.515	0.0157276
610.593	0.0157327
610.672	0.0156814
610.750	0.0157346
610.828	0.0156766
610.906	0.0155424
610.984	0.0157124
611.062	0.0156297
611.140	0.0157024
611.218	0.0157280
611.297	0.0156996
611.375	0.0157143
611.453	0.0156341
611.531	0.0155988
611.609	0.0156475
611.687	0.0155831
611.765	0.0156125
611.843	0.0156451
611.922	0.0156638
612.000	0.0156086
612.078	0.0156578
612.156	0.0157290
612.234	0.0155412
612.312	0.0157024
612.390	0.0157394
612.468	0.0157158
612.547	0.0156540
612.625	0.0156113
612.703	0.0156764
612.781	0.0156778
612.859	0.0156889
612.937	0.0155432
613.015	0.0155503
613.093	0.0155720
613.172	0.0156665
613.250	0.0157506
613.328	0.0155904
613.406	0.0157044
613.484	0.0155923
613.562	0.0157111
613.640	0.0157929
613.718	0.0156479
613.797	0.0156499
613.875	0.0155621
613.953	0.0155894
614.031	0.0156502
614.109	0.0156908
614.187	0.0155831
614.265	0.0156467
614.343	0.0155375
614.422	0.0154819
614.500	0.0154848
614.578	0.0157054
614.656	0.0156779
614.734	0.0155521
614.812	0.0156287
614.890	0.0155753
614.968	0.0155729
615.047	0.0156805
615.125	0.0155362
615.203	0.0155708
615.281	0.0155454
615.359	0.0155173
615.437	0.0155679
615.515	0.0156013
615.593	0.0153930
615.672	0.0154008
615.750	0.0155740
615.828	0.0155508
615.906	0.0153755
615.984	0.0155238
616.062	0.0155901
616.140	0.0156531
616.218	0.0155004
616.297	0.0156701
616.375	0.0155376
616.453	0.0154518
616.531	0.0157066
616.609	0.0155263
616.687	0.0154742
616.765	0.0155198
616.843	0.0156134
616.922	0.0156519
617.000	0.0155332
617.078	0.0155627
617.156	0.0154611
617.234	0.0156336
617.312	0.0156706
617.390	0.0155555
617.468	0.0155788
617.547	0.0155865
617.625	0.0155663
617.703	0.0155557
617.781	0.0154600
617.859	0.0155885
617.937	0.0155088
618.015	0.0155956
618.093	0.0156924
618.172	0.0156815
618.250	0.0156862
618.328	0.0155957
618.406	0.0156228
618.484	0.0156934
618.562	0.0156793
618.640	0.0156293
618.718	0.0156184
618.797	0.0157221
618.875	0.0157555
618.953	0.0156045
619.031	0.0155767
619.109	0.0155276
619.187	0.0157539
619.265	0.0156747
619.343	0.0154895
619.422	0.0156832
619.500	0.0155672
619.578	0.0156135
619.656	0.0156580
619.734	0.0155893
619.812	0.0155419
619.890	0.0156716
619.968	0.0155826
620.047	0.0155412
620.125	0.0155916
620.203	0.0155455
620.281	0.0155433
620.359	0.0156964
620.437	0.0155547
620.515	0.0156176
620.593	0.0156447
620.672	0.0156079
620.750	0.0155550
620.828	0.0156361
620.906	0.0155188
620.984	0.0154020
621.062	0.0155141
621.140	0.0155479
621.218	0.0156285
621.297	0.0156164
621.375	0.0155345
621.453	0.0154347
621.531	0.0155563
621.609	0.0155547
621.687	0.0156059
621.765	0.0155646
621.843	0.0155295
621.922	0.0155424
622.000	0.0155379
622.078	0.0154893
622.156	0.0156213
622.234	0.0156919
622.312	0.0154640
622.390	0.0154540
622.468	0.0155506
622.547	0.0155273
622.625	0.0155521
622.703	0.0155341
622.781	0.0155845
622.859	0.0156225
622.937	0.0155838
623.015	0.0155946
623.093	0.0155437
623.172	0.0156108
623.250	0.0155512
623.328	0.0153594
623.406	0.0154980
623.484	0.0154829
623.562	0.0154099
623.640	0.0154460
623.718	0.0154475
623.797	0.0155401
623.875	0.0154047
623.953	0.0154667
624.031	0.0155753
624.109	0.0155990
624.187	0.0153840
624.265	0.0154036
624.343	0.0155111
624.422	0.0153936
624.500	0.0154594
624.578	0.0154552
624.656	0.0155286
624.734	0.0155434
624.812	0.0154137
624.890	0.0154720
624.968	0.0155337
625.047	0.0156161
625.125	0.0155080
625.203	0.0153715
625.281	0.0155024
625.359	0.0153873
625.437	0.0154258
625.515	0.0155925
625.593	0.0155511
625.672	0.0155402
625.750	0.0156256
625.828	0.0154807
625.906	0.0154888
625.984	0.0155698
626.062	0.0153970
626.140	0.0155214
626.218	0.0155668
626.297	0.0154713
626.375	0.0155344
626.453	0.0154450
626.531	0.0155741
626.609	0.0156182
626.687	0.0154274
626.765	0.0155175
626.843	0.0156120
626.922	0.0155471
627.000	0.0153654
627.078	0.0154594
627.156	0.0155211
627.234	0.0156371
627.312	0.0156095
627.390	0.0155669
627.468	0.0153739
627.547	0.0155067
627.625	0.0155007
627.703	0.0155039
627.781	0.0154848
627.859	0.0153714
627.937	0.0156380
628.015	0.0154872
628.093	0.0155172
628.172	0.0155418
628.250	0.0156277
628.328	0.0156917
628.406	0.0156302
628.484	0.0154438
628.562	0.0155784
628.640	0.0155448
628.718	0.0155605
628.797	0.0155119
628.875	0.0155593
628.953	0.0156907
629.031	0.0156069
629.109	0.0156160
629.187	0.0155275
629.265	0.0154998
629.343	0.0155625
629.422	0.0156127
629.500	0.0156634
629.578	0.0157600
629.656	0.0156185
629.734	0.0156361
629.812	0.0155487
629.890	0.0155378
629.968	0.0155209
630.047	0.0156415
630.125	0.0155883
630.203	0.0156244
630.281	0.0155309
630.359	0.0156163
630.437	0.0155126
630.515	0.0156217
630.593	0.0156419
630.672	0.0156393
630.750	0.0156488
630.828	0.0156604
630.906	0.0156490
630.984	0.0156900
631.062	0.0156099
631.140	0.0154763
631.218	0.0156677
631.297	0.0157500
631.375	0.0156744
631.453	0.0157159
631.531	0.0156939
631.609	0.0155963
631.687	0.0155825
631.765	0.0155202
631.843	0.0156346
631.922	0.0157115
632.000	0.0156364
632.078	0.0156658
632.156	0.0157562
632.234	0.0157377
632.312	0.0156905
632.390	0.0156212
632.468	0.0156603
632.547	0.0156168
632.625	0.0156519
632.703	0.0156299
632.781	0.0153964
632.859	0.0156261
632.937	0.0156843
633.015	0.0156071
633.093	0.0157011
633.172	0.0156868
633.250	0.0156646
633.328	0.0156730
633.406	0.0157655
633.484	0.0155283
633.562	0.0157355
633.640	0.0156885
633.718	0.0156387
633.797	0.0156203
633.875	0.0157281
633.953	0.0157499
634.031	0.0156715
634.109	0.0156839
634.187	0.0156100
634.265	0.0157117
634.343	0.0157180
634.422	0.0157634
634.500	0.0156793
634.578	0.0155215
634.656	0.0157249
634.734	0.0158115
634.812	0.0156697
634.890	0.0155670
634.968	0.0157310
635.047	0.0157327
635.125	0.0156758
635.203	0.0157320
635.281	0.0156316
635.359	0.0156468
635.437	0.0156674
635.515	0.0157511
635.593	0.0156399
635.672	0.0156785
635.750	0.0155645
635.828	0.0156703
635.906	0.0157775
635.984	0.0156860
636.062	0.0158079
636.140	0.0156567
636.218	0.0156310
636.297	0.0157926
636.375	0.0156880
636.453	0.0157201
636.531	0.0157397
636.609	0.0156105
636.687	0.0157214
636.765	0.0156644
636.843	0.0155791
636.922	0.0156879
637.000	0.0157028
637.078	0.0156355
637.156	0.0157452
637.234	0.0156589
637.312	0.0157649
637.390	0.0156978
637.468	0.0155762
637.547	0.0158038
637.625	0.0156709
637.703	0.0156477
637.781	0.0157346
637.859	0.0156167
637.937	0.0156392
638.015	0.0155513
638.093	0.0157248
638.172	0.0156929
638.250	0.0156744
638.328	0.0157210
638.406	0.0156602
638.484	0.0156226
638.562	0.0155737
638.640	0.0155676
638.718	0.0156840
638.797	0.0156467
638.875	0.0157085
638.953	0.0156759
639.031	0.0156833
639.109	0.0155519
639.187	0.0156445
639.265	0.0157946
639.343	0.0156387
639.422	0.0156707
639.500	0.0158148
639.578	0.0156290
639.656	0.0156371
639.734	0.0156075
639.812	0.0156853
639.890	0.0157516
639.968	0.0157423
640.047	0.0156446
640.125	0.0157806
640.203	0.0156124
640.281	0.0156208
640.359	0.0156606
640.437	0.0157328
640.515	0.0156356
640.593	0.0158626
640.672	0.0156446
640.750	0.0155836
640.828	0.0156202
640.906	0.0155675
640.984	0.0156791
641.062	0.0156894
641.140	0.0157143
641.218	0.0158125
641.297	0.0155709
641.375	0.0155587
641.453	0.0157631
641.531	0.0155839
641.609	0.0155515
641.687	0.0157162
641.765	0.0156847
641.843	0.0156043
641.922	0.0155315
642.000	0.0157580
642.078	0.0155520
642.156	0.0156328
642.234	0.0155609
642.312	0.0156759
642.390	0.0156170
642.468	0.0154927
642.547	0.0156083
642.625	0.0156605
642.703	0.0155447
642.781	0.0156197
642.859	0.0156997
642.937	0.0156686
643.015	0.0156360
643.093	0.0156573
643.172	0.0157090
643.250	0.0155542
643.328	0.0155486
643.406	0.0156530
643.484	0.0156237
643.562	0.0156114
643.640	0.0155997
643.718	0.0156248
643.797	0.0155679
643.875	0.0155853
643.953	0.0156680
644.031	0.0155914
644.109	0.0155492
644.187	0.0155256
644.265	0.0155397
644.343	0.0155375
644.422	0.0154870
644.500	0.0155910
644.578	0.0155409
644.656	0.0155151
644.734	0.0154633
644.812	0.0155811
644.890	0.0152998
644.968	0.0156115
645.047	0.0155091
645.125	0.0154482
645.203	0.0155815
645.281	0.0155624
645.359	0.0155414
645.437	0.0155995
645.515	0.0155175
645.593	0.0155080
645.672	0.0155515
645.750	0.0155751
645.828	0.0154903
645.906	0.0156254
645.984	0.0155978
646.062	0.0155724
646.140	0.0154868
646.218	0.0155202
646.297	0.0155649
646.375	0.0154897
646.453	0.0154673
646.531	0.0155356
646.609	0.0155475
646.687	0.0154005
646.765	0.0155803
646.843	0.0155094
646.922	0.0155548
647.000	0.0155955
647.078	0.0154101
647.156	0.0154873
647.234	0.0155292
647.312	0.0153975
647.390	0.0154829
647.468	0.0154097
647.547	0.0155195
647.625	0.0155046
647.703	0.0155687
647.781	0.0156264
647.859	0.0153886
647.937	0.0153112
648.015	0.0155015
648.093	0.0155298
648.172	0.0155991
648.250	0.0154597
648.328	0.0155488
648.406	0.0154409
648.484	0.0154619
648.562	0.0155421
648.640	0.0155126
648.718	0.0154687
648.797	0.0154245
648.875	0.0153629
648.953	0.0155249
649.031	0.0156055
649.109	0.0155357
649.187	0.0155366
649.265	0.0156336
649.343	0.0155975
649.422	0.0154858
649.500	0.0154720
649.578	0.0156138
649.656	0.0155347
649.734	0.0154609
649.812	0.0154863
649.890	0.0156568
649.968	0.0157239
650.047	0.0156141
650.125	0.0155824
650.203	0.0153535
650.281	0.0156657
650.359	0.0155482
650.437	0.0155185
650.515	0.0154593
650.593	0.0153443
650.672	0.0155266
650.750	0.0154973
650.828	0.0154842
650.906	0.0154635
650.984	0.0155537
651.062	0.0155338
651.140	0.0155026
651.218	0.0155685
651.297	0.0155283
651.375	0.0155154
651.453	0.0154913
651.531	0.0154362
651.609	0.0155733
651.687	0.0156545
651.765	0.0154437
651.843	0.0155276
651.922	0.0155322
652.000	0.0155701
652.078	0.0155865
652.156	0.0154713
652.234	0.0155140
652.312	0.0154357
652.390	0.0154444
652.468	0.0155215
652.547	0.0155215
652.625	0.0155194
652.703	0.0156734
652.781	0.0155750
652.859	0.0154530
652.937	0.0155936
653.015	0.0155579
653.093	0.0155820
653.172	0.0155843
653.250	0.0155354
653.328	0.0155478
653.406	0.0155735
653.484	0.0156246
653.562	0.0157666
653.640	0.0156303
653.718	0.0155489
653.797	0.0155542
653.875	0.0156612
653.953	0.0157053
654.031	0.0156554
654.109	0.0156819
654.187	0.0156133
654.265	0.0154860
654.343	0.0154931
654.422	0.0155394
654.500	0.0155946
654.578	0.0156025
654.656	0.0156770
654.734	0.0154914
654.812	0.0155262
654.890	0.0155794
654.968	0.0156816
655.047	0.0156022
655.125	0.0155949
655.203	0.0156001
655.281	0.0156915
655.359	0.0158002
655.437	0.0157446
655.515	0.0156086
655.593	0.0157134
655.672	0.0156340
655.750	0.0156297
655.828	0.0155153
655.906	0.0155447
655.984	0.0156085
656.062	0.0156069
656.140	0.0156441
656.218	0.0156290
656.297	0.0155656
656.375	0.0157709
656.453	0.0156673
656.531	0.0157869
656.609	0.0155186
656.687	0.0155542
656.765	0.0156351
656.843	0.0156282
656.922	0.0156982
657.000	0.0157114
657.078	0.0157253
657.156	0.0156624
657.234	0.0156880
657.312	0.0156609
657.390	0.0155950
657.468	0.0155717
657.547	0.0156089
657.625	0.0155212
657.703	0.0156763
657.781	0.0156042
657.859	0.0155846
657.937	0.0156338
658.015	0.0157086
658.093	0.0156411
658.172	0.0155617
658.250	0.0156353
658.328	0.0156241
658.406	0.0157331
658.484	0.0156729
658.562	0.0156333
658.640	0.0155067
658.718	0.0156845
658.797	0.0155875
658.875	0.0156780
658.953	0.0155254
659.031	0.0155180
659.109	0.0155401
659.187	0.0155599
659.265	0.0155655
659.343	0.0155923
659.422	0.0156651
659.500	0.0155965
659.578	0.0156153
659.656	0.0155962
659.734	0.0156039
659.812	0.0156914
659.890	0.0156174
659.968	0.0155137
660.047	0.0156229
660.125	0.0156355
660.203	0.0156211
660.281	0.0154861
660.359	0.0154526
660.437	0.0157061
660.515	0.0156165
660.593	0.0155596
660.672	0.0155617
660.750	0.0157104
660.828	0.0155577
660.906	0.0155575
660.984	0.0157508
661.062	0.0156171
661.140	0.0155219
661.218	0.0155602
661.297	0.0154926
661.375	0.0155540
661.453	0.0155789
661.531	0.0156072
661.609	0.0154931
661.687	0.0156303
661.765	0.0155845
661.843	0.0155600
661.922	0.0155103
662.000	0.0153761
662.078	0.0154996
662.156	0.0155553
662.234	0.0155943
662.312	0.0154253
662.390	0.0154970
662.468	0.0155128
662.547	0.0155428
662.625	0.0155027
662.703	0.0155913
662.781	0.0154812
662.859	0.0154806
662.937	0.0154714
663.015	0.0155721
663.093	0.0155344
663.172	0.0154798
663.250	0.0153630
663.328	0.0155654
663.406	0.0154980
663.484	0.0154623
663.562	0.0156493
663.640	0.0154021
663.718	0.0153920
663.797	0.0154521
663.875	0.0154371
663.953	0.0154608
664.031	0.0155419
664.109	0.0155586
664.187	0.0155543
664.265	0.0155113
664.343	0.0155301
664.422	0.0154709
664.500	0.0154937
664.578	0.0155254
664.656	0.0154778
664.734	0.0157236
664.812	0.0155886
664.890	0.0155497
664.968	0.0156062
665.047	0.0155775
665.125	0.0155001
665.203	0.0153820
665.281	0.0156185
665.359	0.0155549
665.437	0.0154929
665.515	0.0154643
665.593	0.0155698
665.672	0.0155005
665.750	0.0156184
665.828	0.0155721
665.906	0.0154844
665.984	0.0156124
666.062	0.0154922
666.140	0.0156208
666.218	0.0155160
666.297	0.0155506
666.375	0.0154211
666.453	0.0154990
666.531	0.0155142
666.609	0.0156007
666.687	0.0154948
666.765	0.0154247
666.843	0.0154370
666.922	0.0155383
667.000	0.0155383
667.078	0.0155393
667.156	0.0154558
667.234	0.0154459
667.312	0.0155340
667.390	0.0155099
667.468	0.0155266
667.547	0.0156230
667.625	0.0155930
667.703	0.0155645
667.781	0.0155103
667.859	0.0155282
667.937	0.0155304
668.015	0.0155350
668.093	0.0156052
668.172	0.0155436
668.250	0.0155490
668.328	0.0155824
668.406	0.0154933
668.484	0.0154835
668.562	0.0154722
668.640	0.0156574
668.718	0.0156315
668.797	0.0155791
668.875	0.0155885
668.953	0.0155010
669.031	0.0156794
669.109	0.0154644
669.187	0.0156045
669.265	0.0155761
669.343	0.0156627
669.422	0.0156256
669.500	0.0156177
669.578	0.0156332
669.656	0.0155378
669.734	0.0155225
669.812	0.0156383
669.890	0.0156829
669.968	0.0155191
670.047	0.0157133
670.125	0.0157121
670.203	0.0157185
670.281	0.0155299
670.359	0.0155168
670.437	0.0155249
670.515	0.0155611
670.593	0.0157208
670.672	0.0157861
670.750	0.0156797
670.828	0.0155941
670.906	0.0156309
670.984	0.0155909
671.062	0.0156657
671.140	0.0156715
671.218	0.0155437
671.297	0.0156524
671.375	0.0155852
671.453	0.0157600
671.531	0.0156585
671.609	0.0157241
671.687	0.0157024
671.765	0.0157060
671.843	0.0156620
671.922	0.0156675
672.000	0.0156912
672.078	0.0156503
672.156	0.0157755
672.234	0.0156017
672.312	0.0156701
672.390	0.0156784
672.468	0.0155875
672.547	0.0155746
672.625	0.0156174
672.703	0.0156404
672.781	0.0156812
672.859	0.0157183
672.937	0.0156412
673.015	0.0156597
673.093	0.0156199
673.172	0.0156502
673.250	0.0156194
673.328	0.0156104
673.406	0.0156051
673.484	0.0156332
673.562	0.0157387
673.640	0.0156272
673.718	0.0155611
673.797	0.0154539
673.875	0.0156744
673.953	0.0156607
674.031	0.0155488
674.109	0.0154636
674.187	0.0155111
674.265	0.0157251
674.343	0.0156290
674.422	0.0155589
674.500	0.0156095
674.578	0.0154784
674.656	0.0156296
674.734	0.0156364
674.812	0.0154617
674.890	0.0155228
674.968	0.0155312
675.047	0.0155386
675.125	0.0155378
675.203	0.0155555
675.281	0.0156319
675.359	0.0155958
675.437	0.0156319
675.515	0.0155457
675.593	0.0155435
675.672	0.0155089
675.750	0.0154864
675.828	0.0155984
675.906	0.0155041
675.984	0.0156598
676.062	0.0154843
676.140	0.0155412
676.218	0.0155820
676.297	0.0154987
676.375	0.0154650
676.453	0.0155070
676.531	0.0155601
676.609	0.0155298
676.687	0.0155495
676.765	0.0154664
676.843	0.0154875
676.922	0.0153343
677.000	0.0156103
677.078	0.0154938
677.156	0.0153860
677.234	0.0155110
677.312	0.0153439
677.390	0.0155815
677.468	0.0154297
677.547	0.0154986
677.625	0.0156320
677.703	0.0154708
677.781	0.0154324
677.859	0.0152606
677.937	0.0154359
678.015	0.0156021
678.093	0.0155242
678.172	0.0155750
678.250	0.0155141
678.328	0.0154544
678.406	0.0156017
678.484	0.0153832
678.562	0.0154781
678.640	0.0155450
678.718	0.0155889
678.797	0.0155096
678.875	0.0154630
678.953	0.0154256
679.031	0.0154189
679.109	0.0154553
679.187	0.0154657
679.265	0.0153526
679.343	0.0154237
679.422	0.0154329
679.500	0.0155446
679.578	0.0153448
679.656	0.0153329
679.734	0.0155035
679.812	0.0153765
679.890	0.0154295
679.968	0.0153219
680.047	0.0154767
680.125	0.0153941
680.203	0.0154417
680.281	0.0153905
680.359	0.0153400
680.437	0.0155969
680.515	0.0155247
680.593	0.0154332
680.672	0.0152946
680.750	0.0154701
680.828	0.0154657
680.906	0.0155606
680.984	0.0154253
681.062	0.0154720
681.140	0.0154616
681.218	0.0154834
681.297	0.0153817
681.375	0.0153748
681.453	0.0155022
681.531	0.0153840
681.609	0.0151912
681.687	0.0154159
681.765	0.0155722
681.843	0.0154056
681.922	0.0154317
682.000	0.0154530
682.078	0.0154153
682.156	0.0154037
682.234	0.0154037
682.312	0.0155207
682.390	0.0153738
682.468	0.0153732
682.547	0.0155296
682.625	0.0155611
682.703	0.0156154
682.781	0.0153712
682.859	0.0155177
682.937	0.0155258
683.015	0.0154426
683.093	0.0155061
683.172	0.0155075
683.250	0.0154746
683.328	0.0154658
683.406	0.0154548
683.484	0.0155293
683.562	0.0153863
683.640	0.0154095
683.718	0.0154943
683.797	0.0155914
683.875	0.0155106
683.953	0.0155342
684.031	0.0155856
684.109	0.0155280
684.187	0.0155408
684.265	0.0155121
684.343	0.0156332
684.422	0.0155610
684.500	0.0155218
684.578	0.0155164
684.656	0.0155701
684.734	0.0157564
684.812	0.0155469
684.890	0.0154953
684.968	0.0156822
685.047	0.0155802
685.125	0.0156991
685.203	0.0155078
685.281	0.0154094
685.359	0.0155711
685.437	0.0156122
685.515	0.0155489
685.593	0.0155585
685.672	0.0156013
685.750	0.0155573
685.828	0.0156118
685.906	0.0156827
685.984	0.0155457
686.062	0.0155714
686.140	0.0155560
686.218	0.0156773
686.297	0.0156282
686.375	0.0156602
686.453	0.0154969
686.531	0.0156423
686.609	0.0156832
686.687	0.0154949
686.765	0.0155433
686.843	0.0156156
686.922	0.0155515
687.000	0.0154805
687.078	0.0155347
687.156	0.0156977
687.234	0.0155885
687.312	0.0155605
687.390	0.0156075
687.468	0.0156773
687.547	0.0156347
687.625	0.0155429
687.703	0.0156607
687.781	0.0157437
687.859	0.0156883
687.937	0.0156207
688.015	0.0155421
688.093	0.0155761
688.172	0.0156252
688.250	0.0156248
688.328	0.0155354
688.406	0.0156263
688.484	0.0155653
688.562	0.0155648
688.640	0.0155945
688.718	0.0155134
688.797	0.0156287
688.875	0.0156570
688.953	0.0155140
689.031	0.0155354
689.109	0.0154790
689.187	0.0155869
689.265	0.0156396
689.343	0.0154262
689.422	0.0155253
689.500	0.0155533
689.578	0.0155255
689.656	0.0154820
689.734	0.0155174
689.812	0.0156606
689.890	0.0156152
689.968	0.0155536
690.047	0.0156013
690.125	0.0154486
690.203	0.0155378
690.281	0.0155004
690.359	0.0156103
690.437	0.0156346
690.515	0.0155862
690.593	0.0154819
690.672	0.0155689
690.750	0.0154997
690.828	0.0155003
690.906	0.0154744
690.984	0.0155238
691.062	0.0155006
691.140	0.0156539
691.218	0.0155256
691.297	0.0155907
691.375	0.0155170
691.453	0.0155485
691.531	0.0154546
691.609	0.0154839
691.687	0.0156235
691.765	0.0156381
691.843	0.0156022
691.922	0.0155173
692.000	0.0155511
692.078	0.0156999
692.156	0.0156713
692.234	0.0156679
692.312	0.0155246
692.390	0.0155804
692.468	0.0157166
692.547	0.0155498
692.625	0.0156015
692.703	0.0156420
692.781	0.0156718
692.859	0.0157436
692.937	0.0154884
693.015	0.0156970
693.093	0.0155769
693.172	0.0155445
693.250	0.0156109
693.328	0.0157128
693.406	0.0157124
693.484	0.0155603
693.562	0.0154619
693.640	0.0155668
693.718	0.0156410
693.797	0.0155190
693.875	0.0156991
693.953	0.0157570
694.031	0.0156416
694.109	0.0156776
694.187	0.0155282
694.265	0.0155125
694.343	0.0156747
694.422	0.0157094
694.500	0.0156910
694.578	0.0157602
694.656	0.0155984
694.734	0.0155325
694.812	0.0157626
694.890	0.0155859
694.968	0.0154913
695.047	0.0156697
695.125	0.0156852
695.203	0.0155940
695.281	0.0155695
695.359	0.0155816
695.437	0.0155858
695.515	0.0156748
695.593	0.0156211
695.672	0.0157780
695.750	0.0155225
695.828	0.0155287
695.906	0.0156638
695.984	0.0157026
696.062	0.0157080
696.140	0.0155572
696.218	0.0157204
696.297	0.0155388
696.375	0.0156366
696.453	0.0155505
696.531	0.0156542
696.609	0.0155315
696.687	0.0155258
696.765	0.0155271
696.843	0.0154673
696.922	0.0156244
697.000	0.0156452
697.078	0.0155344
697.156	0.0154710
697.234	0.0156609
697.312	0.0154791
697.390	0.0153934
697.468	0.0155057
697.547	0.0156292
697.625	0.0156004
697.703	0.0155813
697.781	0.0156158
697.859	0.0155558
697.937	0.0154535
698.015	0.0156197
698.093	0.0156102
698.172	0.0156985
698.250	0.0155951
698.328	0.0157311
698.406	0.0156883
698.484	0.0156701
698.562	0.0156052
698.640	0.0156551
698.718	0.0156015
698.797	0.0155962
698.875	0.0156476
698.953	0.0156177
699.031	0.0155193
699.109	0.0155190
699.187	0.0155447
699.265	0.0156921
699.343	0.0155397
699.422	0.0156069
699.500	0.0155594
699.578	0.0155196
699.656	0.0155775
699.734	0.0155597
699.812	0.0155102
699.890	0.0154532
699.968	0.0155495
700.047	0.0155923
700.125	0.0156059
700.203	0.0153809
700.281	0.0155291
700.359	0.0156934
700.437	0.0154814
700.515	0.0153909
700.593	0.0154500
700.672	0.0156862
700.750	0.0155615
700.828	0.0156622
700.906	0.0155285
700.984	0.0155733
701.062	0.0154618
701.140	0.0154856
701.218	0.0153947
701.297	0.0154483
701.375	0.0155341
701.453	0.0153928
701.531	0.0154829
701.609	0.0154350
701.687	0.0153969
701.765	0.0153397
701.843	0.0154538
701.922	0.0155561
702.000	0.0154253
702.078	0.0154780
702.156	0.0155524
702.234	0.0154957
702.312	0.0154417
702.390	0.0153262
702.468	0.0154207
702.547	0.0155885
702.625	0.0154988
702.703	0.0154055
702.781	0.0154939
702.859	0.0155250
702.937	0.0155856
703.015	0.0156231
703.093	0.0154867
703.172	0.0155132
703.250	0.0153101
703.328	0.0154689
703.406	0.0155200
703.484	0.0154305
703.562	0.0155440
703.640	0.0155418
703.718	0.0154383
703.797	0.0154806
703.875	0.0154295
703.953	0.0155751
704.031	0.0155275
704.109	0.0154586
704.187	0.0155322
704.265	0.0155727
704.343	0.0155021
704.422	0.0154683
704.500	0.0155012
704.578	0.0155844
704.656	0.0155048
704.734	0.0154937
704.812	0.0154461
704.890	0.0154439
704.968	0.0155621
705.047	0.0154273
705.125	0.0155952
705.203	0.0154687
705.281	0.0154208
705.359	0.0155694
705.437	0.0154391
705.515	0.0154272
705.593	0.0154099
705.672	0.0155190
705.750	0.0155692
705.828	0.0155412
705.906	0.0154939
705.984	0.0155370
706.062	0.0155019
706.140	0.0155125
706.218	0.0154777
706.297	0.0155190
706.375	0.0155266
706.453	0.0154749
706.531	0.0154768
706.609	0.0154782
706.687	0.0154227
706.765	0.0155235
706.843	0.0155688
706.922	0.0154790
707.000	0.0153820
707.078	0.0155952
707.156	0.0155460
707.234	0.0155382
707.312	0.0155898
707.390	0.0154083
707.468	0.0154875
707.547	0.0154818
707.625	0.0153935
707.703	0.0155267
707.781	0.0155222
707.859	0.0155044
707.937	0.0155301
708.015	0.0155129
708.093	0.0156136
708.172	0.0154401
708.250	0.0155550
708.328	0.0155526
708.406	0.0155103
708.484	0.0156150
708.562	0.0156163
708.640	0.0156367
708.718	0.0155493
708.797	0.0156121
708.875	0.0157051
708.953	0.0155837
709.031	0.0156445
709.109	0.0155778
709.187	0.0154666
709.265	0.0156728
709.343	0.0156158
709.422	0.0156647
709.500	0.0156992
709.578	0.0155826
709.656	0.0155920
709.734	0.0156593
709.812	0.0157565
709.890	0.0155792
709.968	0.0156024
710.047	0.0155695
710.125	0.0155013
710.203	0.0156502
710.281	0.0156242
710.359	0.0156620
710.437	0.0157053
710.515	0.0156472
710.593	0.0156094
710.672	0.0155760
710.750	0.0156828
710.828	0.0156135
710.906	0.0157030
710.984	0.0156906
711.062	0.0157898
711.140	0.0157458
711.218	0.0156786
711.297	0.0157066
711.375	0.0156564
711.453	0.0156316
711.531	0.0156989
711.609	0.0157562
711.687	0.0157121
711.765	0.0157292
711.843	0.0157487
711.922	0.0157789
712.000	0.0157047
712.078	0.0156435
712.156	0.0157415
712.234	0.0158500
712.312	0.0157249
712.390	0.0156345
712.468	0.0156779
712.547	0.0157849
712.625	0.0157560
712.703	0.0157258
712.781	0.0158462
712.859	0.0157746
712.937	0.0156977
713.015	0.0157136
713.093	0.0157555
713.172	0.0157944
713.250	0.0156267
713.328	0.0156733
713.406	0.0157373
713.484	0.0156910
713.562	0.0157851
713.640	0.0156448
713.718	0.0156400
713.797	0.0155921
713.875	0.0157301
713.953	0.0157138
714.031	0.0157433
714.109	0.0157018
714.187	0.0156131
714.265	0.0156402
714.343	0.0156584
714.422	0.0154920
714.500	0.0157365
714.578	0.0156580
714.656	0.0155834
714.734	0.0155645
714.812	0.0155875
714.890	0.0155296
714.968	0.0156342
715.047	0.0155408
715.125	0.0156515
715.203	0.0155795
715.281	0.0156645
715.359	0.0157796
715.437	0.0156585
715.515	0.0156487
715.593	0.0156520
715.672	0.0154852
715.750	0.0156068
715.828	0.0157391
715.906	0.0156792
715.984	0.0156383
716.062	0.0156266
716.140	0.0155733
716.218	0.0156465
716.297	0.0157762
716.375	0.0156223
716.453	0.0155647
716.531	0.0155880
716.609	0.0156508
716.687	0.0156530
716.765	0.0156855
716.843	0.0157009
716.922	0.0156615
717.000	0.0156042
717.078	0.0155455
717.156	0.0155776
717.234	0.0155282
717.312	0.0157226
717.390	0.0155288
717.468	0.0156118
717.547	0.0155931
717.625	0.0156546
717.703	0.0155782
717.781	0.0155486
717.859	0.0155506
717.937	0.0156565
718.015	0.0156192
718.093	0.0155299
718.172	0.0156615
718.250	0.0156105
718.328	0.0157301
718.406	0.0155899
718.484	0.0156570
718.562	0.0155225
718.640	0.0155619
718.718	0.0155074
718.797	0.0155428
718.875	0.0155199
718.953	0.0156910
719.031	0.0156398
719.109	0.0155663
719.187	0.0156678
719.265	0.0156071
719.343	0.0155179
719.422	0.0155108
719.500	0.0154980
719.578	0.0156020
719.656	0.0156268
719.734	0.0155580
719.812	0.0156909
719.890	0.0156508
719.968	0.0156779
720.047	0.0155521
720.125	0.0154564
720.203	0.0155805
720.281	0.0156627
720.359	0.0156646
720.437	0.0156181
720.515	0.0156632
720.593	0.0155524
720.672	0.0156384
720.750	0.0156040
720.828	0.0157144
720.906	0.0155148
720.984	0.0155424
721.062	0.0156705
721.140	0.0155853
721.218	0.0154642
721.297	0.0155782
721.375	0.0156406
721.453	0.0156812
721.531	0.0155500
721.609	0.0156165
721.687	0.0155804
721.765	0.0155196
721.843	0.0155484
721.922	0.0155299
722.000	0.0154073
722.078	0.0156435
722.156	0.0156565
722.234	0.0156533
722.312	0.0156483
722.390	0.0155363
722.468	0.0154856
722.547	0.0155494
722.625	0.0156036
722.703	0.0156111
722.781	0.0156470
722.859	0.0157861
722.937	0.0155564
723.015	0.0156281
723.093	0.0156318
723.172	0.0155619
723.250	0.0154774
723.328	0.0155242
723.406	0.0156371
723.484	0.0156215
723.562	0.0155145
723.640	0.0155202
723.718	0.0155638
723.797	0.0155056
723.875	0.0154281
723.953	0.0153889
724.031	0.0154064
724.109	0.0154025
724.187	0.0154826
724.265	0.0155325
724.343	0.0154887
724.422	0.0153755
724.500	0.0155213
724.578	0.0154816
724.656	0.0156532
724.734	0.0155686
724.812	0.0154164
724.890	0.0154586
724.968	0.0154140
725.047	0.0154833
725.125	0.0155219
725.203	0.0152954
725.281	0.0154177
725.359	0.0154891
725.437	0.0155025
725.515	0.0153837
725.593	0.0154201
725.672	0.0154621
725.750	0.0153843
725.828	0.0153989
725.906	0.0154738
725.984	0.0154782
726.062	0.0153387
726.140	0.0154756
726.218	0.0155057
726.297	0.0154979
726.375	0.0154731
726.453	0.0154163
726.531	0.0155441
726.609	0.0156123
726.687	0.0155231
726.765	0.0154836
726.843	0.0155926
726.922	0.0156140
727.000	0.0154658
727.078	0.0154871
727.156	0.0154369
727.234	0.0155391
727.312	0.0154694
727.390	0.0155698
727.468	0.0154821
727.547	0.0155380
727.625	0.0154936
727.703	0.0154356
727.781	0.0154540
727.859	0.0154140
727.937	0.0155502
728.015	0.0154751
728.093	0.0156439
728.172	0.0155006
728.250	0.0155083
728.328	0.0154591
728.406	0.0154254
728.484	0.0153077
728.562	0.0154862
728.640	0.0155059
728.718	0.0155212
728.797	0.0154027
728.875	0.0153558
728.953	0.0153928
729.031	0.0153637
729.109	0.0154253
729.187	0.0156911
729.265	0.0153818
729.343	0.0154153
729.422	0.0154488
729.500	0.0155592
729.578	0.0155534
729.656	0.0154890
729.734	0.0154323
729.812	0.0155580
729.890	0.0155059
729.968	0.0154105
730.047	0.0154115
730.125	0.0154755
730.203	0.0154705
730.281	0.0155811
730.359	0.0154482
730.437	0.0154617
730.515	0.0155899
730.593	0.0154645
730.672	0.0155817
730.750	0.0155815
730.828	0.0155093
730.906	0.0157206
730.984	0.0155296
731.062	0.0154842
731.140	0.0155186
731.218	0.0156470
731.297	0.0155798
731.375	0.0156313
731.453	0.0156339
731.531	0.0154716
731.609	0.0154657
731.687	0.0155464
731.765	0.0155906
731.843	0.0156619
731.922	0.0156556
732.000	0.0154738
732.078	0.0154754
732.156	0.0155029
732.234	0.0155292
732.312	0.0157133
732.390	0.0155384
732.468	0.0155453
732.547	0.0156109
732.625	0.0156285
732.703	0.0157381
732.781	0.0156190
732.859	0.0156854
732.937	0.0156108
733.015	0.0155210
733.093	0.0156463
733.172	0.0154782
733.250	0.0155418
733.328	0.0155406
733.406	0.0156951
733.484	0.0157741
733.562	0.0156528
733.640	0.0155891
733.718	0.0156804
733.797	0.0155848
733.875	0.0156333
733.953	0.0156988
734.031	0.0156776
734.109	0.0156804
734.187	0.0157729
734.265	0.0157609
734.343	0.0157226
734.422	0.0156933
734.500	0.0156601
734.578	0.0157377
734.656	0.0156710
734.734	0.0156698
734.812	0.0156457
734.890	0.0156368
734.968	0.0157333
735.047	0.0157087
735.125	0.0156854
735.203	0.0157137
735.281	0.0154513
735.359	0.0155379
735.437	0.0154639
735.515	0.0156071
735.593	0.0157672
735.672	0.0156496
735.750	0.0154990
735.828	0.0156866
735.906	0.0155159
735.984	0.0155894
736.062	0.0156538
736.140	0.0154977
736.218	0.0155979
736.297	0.0156139
736.375	0.0156537
736.453	0.0155144
736.531	0.0155833
736.609	0.0156319
736.687	0.0156111
736.765	0.0155151
736.843	0.0155139
736.922	0.0157800
737.000	0.0156977
737.078	0.0156291
737.156	0.0155396
737.234	0.0155110
737.312	0.0155367
737.390	0.0155399
737.468	0.0156803
737.547	0.0156114
737.625	0.0156161
737.703	0.0156459
737.781	0.0155861
737.859	0.0156543
737.937	0.0157264
738.015	0.0155776
738.093	0.0155193
738.172	0.0155778
738.250	0.0156783
738.328	0.0154896
738.406	0.0156833
738.484	0.0155188
738.562	0.0156228
738.640	0.0157340
738.718	0.0155392
738.797	0.0156487
738.875	0.0155545
738.953	0.0156036
739.031	0.0155691
739.109	0.0155791
739.187	0.0156062
739.265	0.0157343
739.343	0.0154754
739.422	0.0155850
739.500	0.0155071
739.578	0.0156182
739.656	0.0156249
739.734	0.0156007
739.812	0.0156020
739.890	0.0156880
739.968	0.0156630
740.047	0.0156173
740.125	0.0155495
740.203	0.0157115
740.281	0.0157370
740.359	0.0156852
740.437	0.0154743
740.515	0.0155674
740.593	0.0156430
740.672	0.0154926
740.750	0.0156498
740.828	0.0156276
740.906	0.0155717
740.984	0.0155708
741.062	0.0154789
741.140	0.0156189
741.218	0.0158035
741.297	0.0156007
741.375	0.0155681
741.453	0.0155886
741.531	0.0155774
741.609	0.0155266
741.687	0.0154845
741.765	0.0156910
741.843	0.0156087
741.922	0.0156107
742.000	0.0155858
742.078	0.0155262
742.156	0.0155940
742.234	0.0155811
742.312	0.0155798
742.390	0.0155508
742.468	0.0156912
742.547	0.0155937
742.625	0.0155109
742.703	0.0155991
742.781	0.0155975
742.859	0.0155147
742.937	0.0155728
743.015	0.0156083
743.093	0.0154971
743.172	0.0155201
743.250	0.0155764
743.328	0.0156358
743.406	0.0155975
743.484	0.0156224
743.562	0.0155386
743.640	0.0156078
743.718	0.0156461
743.797	0.0154681
743.875	0.0155766
743.953	0.0154887
744.031	0.0154886
744.109	0.0155501
744.187	0.0155545
744.265	0.0155930
744.343	0.0154244
744.422	0.0156518
744.500	0.0155167
744.578	0.0154814
744.656	0.0154325
744.734	0.0154295
744.812	0.0155412
744.890	0.0155389
744.968	0.0155251
745.047	0.0154929
745.125	0.0155091
745.203	0.0156017
745.281	0.0156064
745.359	0.0156097
745.437	0.0155592
745.515	0.0154691
745.593	0.0156252
745.672	0.0155473
745.750	0.0154601
745.828	0.0156866
745.906	0.0156175
745.984	0.0154334
746.062	0.0154421
746.140	0.0154719
746.218	0.0155963
746.297	0.0154533
746.375	0.0155575
746.453	0.0155563
746.531	0.0154530
746.609	0.0155418
746.687	0.0156104
746.765	0.0155043
746.843	0.0155586
746.922	0.0155087
747.000	0.0154250
747.078	0.0153616
747.156	0.0155668
747.234	0.0156406
747.312	0.0154849
747.390	0.0155083
747.468	0.0155370
747.547	0.0155432
747.625	0.0154432
747.703	0.0154097
747.781	0.0153723
747.859	0.0154653
747.937	0.0154417
748.015	0.0156253
748.093	0.0154410
748.172	0.0155499
748.250	0.0156246
748.328	0.0156332
748.406	0.0155084
748.484	0.0154811
748.562	0.0155747
748.640	0.0155186
748.718	0.0153614
748.797	0.0154938
748.875	0.0154173
748.953	0.0155189
749.031	0.0155569
749.109	0.0155083
749.187	0.0155564
749.265	0.0155119
749.343	0.0155096
749.422	0.0156532
749.500	0.0156498
749.578	0.0154053
749.656	0.0154927
749.734	0.0155222
749.812	0.0155152
749.890	0.0154429
749.968	0.0155528
750.047	0.0156506
750.125	0.0154379
750.203	0.0155743
750.281	0.0155163
750.359	0.0155132
750.437	0.0155642
750.515	0.0154810
750.593	0.0154969
750.672	0.0155221
750.750	0.0154630
750.828	0.0154395
750.906	0.0154097
750.984	0.0152621
751.062	0.0153969
751.140	0.0154990
751.218	0.0153976
751.297	0.0153861
751.375	0.0154382
751.453	0.0155543
751.531	0.0155671
751.609	0.0155041
751.687	0.0155066
751.765	0.0155682
751.843	0.0155779
751.922	0.0156236
752.000	0.0156435
752.078	0.0155457
752.156	0.0156033
752.234	0.0155318
752.312	0.0155301
752.390	0.0154549
752.468	0.0154316
752.547	0.0153928
752.625	0.0154297
752.703	0.0154685
752.781	0.0155456
752.859	0.0154549
752.937	0.0154309
753.015	0.0154491
753.093	0.0154449
753.172	0.0154358
753.250	0.0154035
753.328	0.0154492
753.406	0.0153998
753.484	0.0155534
753.562	0.0155244
753.640	0.0154439
753.718	0.0154805
753.797	0.0156027
753.875	0.0155213
753.953	0.0153780
754.031	0.0155714
754.109	0.0155733
754.187	0.0155035
754.265	0.0155970
754.343	0.0155952
754.422	0.0156265
754.500	0.0155750
754.578	0.0156013
754.656	0.0154831
754.734	0.0156657
754.812	0.0156145
754.890	0.0155454
754.968	0.0155995
755.047	0.0155117
755.125	0.0155064
755.203	0.0155045
755.281	0.0154857
755.359	0.0155637
755.437	0.0155186
755.515	0.0155260
755.593	0.0155076
755.672	0.0154045
755.750	0.0154331
755.828	0.0154765
755.906	0.0154594
755.984	0.0153436
756.062	0.0153486
756.140	0.0154873
756.218	0.0154973
756.297	0.0152505
756.375	0.0154137
756.453	0.0153626
756.531	0.0152921
756.609	0.0153606
756.687	0.0153730
756.765	0.0155247
756.843	0.0154934
756.922	0.0155218
757.000	0.0154276
757.078	0.0153671
757.156	0.0154887
757.234	0.0155781
757.312	0.0157014
757.390	0.0156650
757.468	0.0155551
757.547	0.0156442
757.625	0.0157137
757.703	0.0156622
757.781	0.0155762
757.859	0.0156451
757.937	0.0155915
758.015	0.0156425
758.093	0.0155377
758.172	0.0154015
758.250	0.0156496
758.328	0.0155781
758.406	0.0155450
758.484	0.0154596
758.562	0.0155175
758.640	0.0154646
758.718	0.0154765
758.797	0.0155923
758.875	0.0156091
758.953	0.0155243
759.031	0.0154835
759.109	0.0153840
759.187	0.0153133
759.265	0.0154351
759.343	0.0154622
759.422	0.0153971
759.500	0.0153709
759.578	0.0154028
759.656	0.0155192
759.734	0.0155293
759.812	0.0156850
759.890	0.0155649
759.968	0.0155616
760.047	0.0157439
760.125	0.0156130
760.203	0.0157132
760.281	0.0157144
760.359	0.0157215
760.437	0.0156213
760.515	0.0156114
760.593	0.0155988
760.672	0.0155903
760.750	0.0155038
760.828	0.0155070
760.906	0.0155869
760.984	0.0155821
761.062	0.0156266
761.140	0.0156103
761.218	0.0155758
761.297	0.0155943
761.375	0.0155693
761.453	0.0153700
761.531	0.0155272
761.609	0.0156817
761.687	0.0156252
761.765	0.0155183
761.843	0.0155836
761.922	0.0154668
762.000	0.0155714
762.078	0.0156698
762.156	0.0158140
762.234	0.0156854
762.312	0.0156683
762.390	0.0157664
762.468	0.0157830
762.547	0.0155653
762.625	0.0154991
762.703	0.0156820
762.781	0.0156306
762.859	0.0155267
762.937	0.0156313
763.015	0.0156625
763.093	0.0156651
763.172	0.0156329
763.250	0.0155044
763.328	0.0155550
763.406	0.0156496
763.484	0.0156274
763.562	0.0156264
763.640	0.0155240
763.718	0.0156670
763.797	0.0157248
763.875	0.0154374
763.953	0.0155425
764.031	0.0155579
764.109	0.0156681
764.187	0.0157277
764.265	0.0157014
764.343	0.0157998
764.422	0.0159511
764.500	0.0158014
764.578	0.0158614
764.656	0.0159745
764.734	0.0159182
764.812	0.0159893
764.890	0.0157465
764.968	0.0157588
765.047	0.0156976
765.125	0.0156328
765.203	0.0155857
765.281	0.0155617
765.359	0.0153848
765.437	0.0155614
765.515	0.0153821
765.593	0.0154567
765.672	0.0156685
765.750	0.0155266
765.828	0.0154604
765.906	0.0155165
765.984	0.0155817
766.062	0.0155241
766.140	0.0154338
766.218	0.0156372
766.297	0.0154723
766.375	0.0154000
766.453	0.0154224
766.531	0.0153217
766.609	0.0154149
766.687	0.0154405
766.765	0.0154291
766.843	0.0155909
766.922	0.0156465
767.000	0.0154865
767.078	0.0156600
767.156	0.0157443
767.234	0.0157018
767.312	0.0157710
767.390	0.0157460
767.468	0.0155634
767.547	0.0155859
767.625	0.0155975
767.703	0.0155106
767.781	0.0155499
767.859	0.0156828
767.937	0.0155692
768.015	0.0157165
768.093	0.0156412
768.172	0.0155281
768.250	0.0155132
768.328	0.0157625
768.406	0.0155869
768.484	0.0156991
768.562	0.0157967
768.640	0.0158674
768.718	0.0156839
768.797	0.0158937
768.875	0.0157563
768.953	0.0158515
769.031	0.0157458
769.109	0.0157751
769.187	0.0156989
769.265	0.0159088
769.343	0.0157687
769.422	0.0157645
769.500	0.0155920
769.578	0.0155170
769.656	0.0154770
769.734	0.0153731
769.812	0.0153370
769.890	0.0153284
769.968	0.0153736
770.047	0.0152117
770.125	0.0153124
770.203	0.0152480
770.281	0.0152924
770.359	0.0153359
770.437	0.0154377
770.515	0.0155792
770.593	0.0155275
770.672	0.0155569
770.750	0.0155265
770.828	0.0155159
770.906	0.0154901
770.984	0.0155144
771.062	0.0154591
771.140	0.0154736
771.218	0.0153944
771.297	0.0154436
771.375	0.0154185
771.453	0.0155552
771.531	0.0154427
771.609	0.0154520
771.687	0.0155186
771.765	0.0156272
771.843	0.0152460
771.922	0.0153531
772.000	0.0153625
772.078	0.0153635
772.156	0.0154690
772.234	0.0153004
772.312	0.0152989
772.390	0.0154599
772.468	0.0153890
772.547	0.0154661
772.625	0.0156106
772.703	0.0154749
772.781	0.0155705
772.859	0.0156010
772.937	0.0156448
773.015	0.0158047
773.093	0.0157162
773.172	0.0157182
773.250	0.0156777
773.328	0.0155256
773.406	0.0155687
773.484	0.0155193
773.562	0.0155138
773.640	0.0155558
773.718	0.0155480
773.797	0.0154276
773.875	0.0154039
773.953	0.0154020
774.031	0.0153491
774.109	0.0153622
774.187	0.0153158
774.265	0.0154197
774.343	0.0154691
774.422	0.0156156
774.500	0.0153663
774.578	0.0154201
774.656	0.0154630
774.734	0.0154510
774.812	0.0155318
774.890	0.0154372
774.968	0.0153925
775.047	0.0153860
775.125	0.0156326
775.203	0.0154609
775.281	0.0155944
775.359	0.0155377
775.437	0.0155895
775.515	0.0156255
775.593	0.0155207
775.672	0.0156210
775.750	0.0156037
775.828	0.0155577
775.906	0.0154804
775.984	0.0156587
776.062	0.0155883
776.140	0.0155724
776.218	0.0155923
776.297	0.0155042
776.375	0.0155513
776.453	0.0154561
776.531	0.0153393
776.609	0.0153725
776.687	0.0154063
776.765	0.0153102
776.843	0.0153157
776.922	0.0153728
777.000	0.0153434
777.078	0.0153574
777.156	0.0152679
777.234	0.0153295
777.312	0.0152159
777.390	0.0152103
777.468	0.0152879
777.547	0.0152702
777.625	0.0151855
777.703	0.0152808
777.781	0.0153733
777.859	0.0152876
777.937	0.0153671
778.015	0.0154178
778.093	0.0154381
778.172	0.0154620
778.250	0.0156418
778.328	0.0158218
778.406	0.0158901
778.484	0.0157955
778.562	0.0159062
778.640	0.0159296
778.718	0.0159975
778.797	0.0161516
778.875	0.0161597
778.953	0.0161617
779.031	0.0163260
779.109	0.0163673
779.187	0.0162346
779.265	0.0160375
779.343	0.0161227
779.422	0.0160855
779.500	0.0158951
779.578	0.0156581
779.656	0.0156989
779.734	0.0154909
779.812	0.0154159
779.890	0.0154322
779.968	0.0154731
780.047	0.0153941
780.125	0.0152437
780.203	0.0150444
780.281	0.0151981
780.359	0.0152362
780.437	0.0153007
780.515	0.0152818
780.593	0.0153305
780.672	0.0153869
780.750	0.0154127
780.828	0.0154906
780.906	0.0154804
780.984	0.0155599
781.062	0.0155566
781.140	0.0154880
781.218	0.0156197
781.297	0.0156729
781.375	0.0156239
781.453	0.0156673
781.531	0.0156638
781.609	0.0158099
781.687	0.0156915
781.765	0.0157462
781.843	0.0156410
781.922	0.0156625
782.000	0.0157516
782.078	0.0157497
782.156	0.0158597
782.234	0.0156704
782.312	0.0157050
782.390	0.0157822
782.468	0.0157767
782.547	0.0157488
782.625	0.0156407
782.703	0.0157059
782.781	0.0158635
782.859	0.0158615
782.937	0.0159070
783.015	0.0159058
783.093	0.0158290
783.172	0.0158654
783.250	0.0158582
783.328	0.0158369
783.406	0.0159846
783.484	0.0158212
783.562	0.0158924
783.640	0.0157496
783.718	0.0157086
783.797	0.0157677
783.875	0.0158733
783.953	0.0159106
784.031	0.0158601
784.109	0.0158208
784.187	0.0156535
784.265	0.0156058
784.343	0.0156277
784.422	0.0155299
784.500	0.0153671
784.578	0.0154829
784.656	0.0154672
784.734	0.0154960
784.812	0.0155303
784.890	0.0157735
784.968	0.0157661
785.047	0.0156782
785.125	0.0157539
785.203	0.0158642
785.281	0.0159216
785.359	0.0158271
785.437	0.0158537
785.515	0.0158752
785.593	0.0158577
785.672	0.0157208
785.750	0.0158074
785.828	0.0158628
785.906	0.0158354
785.984	0.0157470
786.062	0.0156685
786.140	0.0155986
786.218	0.0155798
786.297	0.0154150
786.375	0.0153828
786.453	0.0152761
786.531	0.0151626
786.609	0.0152367
786.687	0.0150018
786.765	0.0150626
786.843	0.0151051
786.922	0.0150799
787.000	0.0150416
787.078	0.0150407
787.156	0.0151928
787.234	0.0150542
787.312	0.0151948
787.390	0.0154112
787.468	0.0152773
787.547	0.0153020
787.625	0.0155165
787.703	0.0155775
787.781	0.0157091
787.859	0.0157455
787.937	0.0158089
788.015	0.0158489
788.093	0.0160100
788.172	0.0160416
788.250	0.0160760
788.328	0.0160054
788.406	0.0160478
788.484	0.0162274
788.562	0.0162720
788.640	0.0161930
788.718	0.0163394
788.797	0.0163543
788.875	0.0163792
788.953	0.0165199
789.031	0.0164161
789.109	0.0164041
789.187	0.0163215
789.265	0.0163387
789.343	0.0162103
789.422	0.0162756
789.500	0.0160788
789.578	0.0158355
789.656	0.0157275
789.734	0.0155634
789.812	0.0154053
789.890	0.0154253
789.968	0.0150957
790.047	0.0149926
790.125	0.0148627
790.203	0.0149166
790.281	0.0147076
790.359	0.0145959
790.437	0.0148544
790.515	0.0147336
790.593	0.0147736
790.672	0.0148485
790.750	0.0150768
790.828	0.0151279
790.906	0.0152088
790.984	0.0153876
791.062	0.0155009
791.140	0.0155118
791.218	0.0154874
791.297	0.0157523
791.375	0.0157452
791.453	0.0158031
791.531	0.0158833
791.609	0.0158878
791.687	0.0160570
791.765	0.0160268
791.843	0.0159496
791.922	0.0158588
792.000	0.0159961
792.078	0.0160427
792.156	0.0158282
792.234	0.0158205
792.312	0.0158870
792.390	0.0157267
792.468	0.0157301
792.547	0.0156664
792.625	0.0156010
792.703	0.0155458
792.781	0.0157110
792.859	0.0156632
792.937	0.0155469
793.015	0.0156986
793.093	0.0157114
793.172	0.0158179
793.250	0.0157946
793.328	0.0159344
793.406	0.0160768
793.484	0.0160270
793.562	0.0158736
793.640	0.0160206
793.718	0.0159676
793.797	0.0161414
793.875	0.0161322
793.953	0.0160310
794.031	0.0159189
794.109	0.0159670
794.187	0.0157678
794.265	0.0157574
794.343	0.0157447
794.422	0.0154446
794.500	0.0155737
794.578	0.0155177
794.656	0.0154034
794.734	0.0154273
794.812	0.0153677
794.890	0.0154871
794.968	0.0153491
795.047	0.0152184
795.125	0.0155093
795.203	0.0153545
795.281	0.0152545
795.359	0.0152657
795.437	0.0153213
795.515	0.0151672
795.593	0.0151961
795.672	0.0152330
795.750	0.0152982
795.828	0.0151211
795.906	0.0150961
795.984	0.0151293
796.062	0.0150800
796.140	0.0150352
796.218	0.0150054
796.297	0.0150233
796.375	0.0150292
796.453	0.0152269
796.531	0.0153535
796.609	0.0153046
796.687	0.0154140
796.765	0.0154719
796.843	0.0156026
796.922	0.0156841
797.000	0.0156788
797.078	0.0158010
797.156	0.0159064
797.234	0.0160394
797.312	0.0158447
797.390	0.0160714
797.468	0.0161163
797.547	0.0162326
797.625	0.0161740
797.703	0.0163918
797.781	0.0162730
797.859	0.0162764
797.937	0.0163116
798.015	0.0160264
798.093	0.0160024
798.172	0.0160672
798.250	0.0160761
798.328	0.0161578
798.406	0.0158821
798.484	0.0158042
798.562	0.0157874
798.640	0.0157220
798.718	0.0156786
798.797	0.0156413
798.875	0.0155862
798.953	0.0153020
799.031	0.0153761
799.109	0.0153543
799.187	0.0153572
799.265	0.0152736
799.343	0.0153054
799.422	0.0152431
799.500	0.0151523
799.578	0.0152004
799.656	0.0151696
799.734	0.0153526
799.812	0.0152883
799.890	0.0152354
799.968	0.0152854
800.047	0.0153521
800.125	0.0152872
800.203	0.0152557
800.281	0.0152644
800.359	0.0152597
800.437	0.0152213
800.515	0.0153126
800.593	0.0152220
800.672	0.0152002
800.750	0.0152612
800.828	0.0152879
800.906	0.0153841
800.984	0.0154459
801.062	0.0154978
801.140	0.0153770
801.218	0.0153927
801.297	0.0155978
801.375	0.0156557
801.453	0.0155494
801.531	0.0155331
801.609	0.0156609
801.687	0.0156312
801.765	0.0155698
801.843	0.0155631
801.922	0.0155804
802.000	0.0157459
802.078	0.0158518
802.156	0.0157348
802.234	0.0158504
802.312	0.0158299
802.390	0.0160825
802.468	0.0160383
802.547	0.0161916
802.625	0.0160059
802.703	0.0160852
802.781	0.0162193
802.859	0.0161788
802.937	0.0161758
803.015	0.0161631
803.093	0.0160665
803.172	0.0159936
803.250	0.0160581
803.328	0.0158570
803.406	0.0159077
803.484	0.0158431
803.562	0.0156939
803.640	0.0157500
803.718	0.0156095
803.797	0.0155068
803.875	0.0155901
803.953	0.0155184
804.031	0.0154128
804.109	0.0153297
804.187	0.0152838
804.265	0.0152386
804.343	0.0152200
804.422	0.0150925
804.500	0.0151678
804.578	0.0150097
804.656	0.0149062
804.734	0.0148966
804.812	0.0146329
804.890	0.0148408
804.968	0.0148920
805.047	0.0147994
805.125	0.0148436
805.203	0.0148420
805.281	0.0149120
805.359	0.0150857
805.437	0.0152181
805.515	0.0153214
805.593	0.0153541
805.672	0.0155328
805.750	0.0155979
805.828	0.0158089
805.906	0.0159170
805.984	0.0160239
806.062	0.0159625
806.140	0.0159592
806.218	0.0160575
806.297	0.0160746
806.375	0.0159274
806.453	0.0158204
806.531	0.0157581
806.609	0.0158179
806.687	0.0158596
806.765	0.0155870
806.843	0.0158007
806.922	0.0156525
807.000	0.0155489
807.078	0.0156934
807.156	0.0157188
807.234	0.0156709
807.312	0.0155768
807.390	0.0156010
807.468	0.0157114
807.547	0.0157471
807.625	0.0156180
807.703	0.0158498
807.781	0.0159050
807.859	0.0158864
807.937	0.0158904
808.015	0.0158791
808.093	0.0157195
808.172	0.0156911
808.250	0.0156931
808.328	0.0157484
808.406	0.0156164
808.484	0.0155522
808.562	0.0154922
808.640	0.0154072
808.718	0.0154096
808.797	0.0153647
808.875	0.0152309
808.953	0.0152109
809.031	0.0152985
809.109	0.0152158
809.187	0.0153646
809.265	0.0152898
809.343	0.0152818
809.422	0.0153092
809.500	0.0152840
809.578	0.0153898
809.656	0.0152546
809.734	0.0153078
809.812	0.0153677
809.890	0.0154140
809.968	0.0154349
810.047	0.0154078
810.125	0.0154970
810.203	0.0154122
810.281	0.0155028
810.359	0.0155631
810.437	0.0154710
810.515	0.0156169
810.593	0.0156526
810.672	0.0155128
810.750	0.0155388
810.828	0.0156750
810.906	0.0158573
810.984	0.0158259
811.062	0.0156974
811.140	0.0157206
811.218	0.0157118
811.297	0.0158495
811.375	0.0158435
811.453	0.0157308
811.531	0.0157862
811.609	0.0158498
811.687	0.0158534
811.765	0.0156236
811.843	0.0158051
811.922	0.0157419
812.000	0.0156100
812.078	0.0156209
812.156	0.0155437
812.234	0.0155892
812.312	0.0156277
812.390	0.0154636
812.468	0.0154733
812.547	0.0155594
812.625	0.0155793
812.703	0.0155396
812.781	0.0155285
812.859	0.0156709
812.937	0.0155968
813.015	0.0157317
813.093	0.0157842
813.172	0.0156734
813.250	0.0157751
813.328	0.0158569
813.406	0.0157885
813.484	0.0158914
813.562	0.0158128
813.640	0.0156565
813.718	0.0157094
813.797	0.0156028
813.875	0.0155307
813.953	0.0155842
814.031	0.0155099
814.109	0.0153296
814.187	0.0154121
814.265	0.0152335
814.343	0.0151462
814.422	0.0152122
814.500	0.0150356
814.578	0.0149212
814.656	0.0147292
814.734	0.0149115
814.812	0.0149916
814.890	0.0148897
814.968	0.0148923
815.047	0.0148982
815.125	0.0149972
815.203	0.0149903
815.281	0.0151360
815.359	0.0151917
815.437	0.0152782
815.515	0.0154874
815.593	0.0153983
815.672	0.0156330
815.750	0.0158765
815.828	0.0159637
815.906	0.0160624
815.984	0.0162246
816.062	0.0163087
816.140	0.0163403
816.218	0.0163725
816.297	0.0164832
816.375	0.0164448
816.453	0.0163817
816.531	0.0163061
816.609	0.0162879
816.687	0.0162980
816.765	0.0161449
816.843	0.0161607
816.922	0.0162079
817.000	0.0160674
817.078	0.0159717
817.156	0.0158652
817.234	0.0158913
817.312	0.0156149
817.390	0.0156537
817.468	0.0154808
817.547	0.0153593
817.625	0.0153842
817.703	0.0152274
817.781	0.0152683
817.859	0.0151551
817.937	0.0151533
818.015	0.0152023
818.093	0.0151712
818.172	0.0150905
818.250	0.0151146
818.328	0.0150246
818.406	0.0149519
818.484	0.0151540
818.562	0.0150639
818.640	0.0152459
818.718	0.0152755
818.797	0.0152490
818.875	0.0152679
818.953	0.0153912
819.031	0.0153440
819.109	0.0153185
819.187	0.0154102
819.265	0.0155672
819.343	0.0155186
819.422	0.0156557
819.500	0.0157497
819.578	0.0157891
819.656	0.0157265
819.734	0.0156506
819.812	0.0157237
819.890	0.0156963
819.968	0.0158675
820.047	0.0158691
820.125	0.0159061
820.203	0.0157767
820.281	0.0158031
820.359	0.0159403
820.437	0.0158594
820.515	0.0157462
820.593	0.0158174
820.672	0.0158144
820.750	0.0158503
820.828	0.0156550
820.906	0.0155048
820.984	0.0156161
821.062	0.0155715
821.140	0.0154242
821.218	0.0154151
821.297	0.0154508
821.375	0.0154124
821.453	0.0152906
821.531	0.0152331
821.609	0.0153362
821.687	0.0152779
821.765	0.0153320
821.843	0.0153232
821.922	0.0152964
822.000	0.0152954
822.078	0.0155463
822.156	0.0154901
822.234	0.0154794
822.312	0.0155692
822.390	0.0156122
822.468	0.0156507
822.547	0.0157590
822.625	0.0158241
822.703	0.0158322
822.781	0.0158979
822.859	0.0159097
822.937	0.0159635
823.015	0.0160201
823.093	0.0159921
823.172	0.0158642
823.250	0.0159566
823.328	0.0158453
823.406	0.0157685
823.484	0.0158788
823.562	0.0158056
823.640	0.0156546
823.718	0.0156709
823.797	0.0156918
823.875	0.0156278
823.953	0.0156045
824.031	0.0155717
824.109	0.0155420
824.187	0.0155373
824.265	0.0153738
824.343	0.0154374
824.422	0.0153576
824.500	0.0154229
824.578	0.0153300
824.656	0.0153889
824.734	0.0153480
824.812	0.0154522
824.890	0.0154679
824.968	0.0153312
825.047	0.0155078
825.125	0.0153310
825.203	0.0153935
825.281	0.0153962
825.359	0.0155901
825.437	0.0155441
825.515	0.0155500
825.593	0.0155343
825.672	0.0155231
825.750	0.0155624
825.828	0.0155379
825.906	0.0154621
825.984	0.0155492
826.062	0.0156310
826.140	0.0156251
826.218	0.0157668
826.297	0.0156496
826.375	0.0157138
826.453	0.0157871
826.531	0.0156958
826.609	0.0156443
826.687	0.0157668
826.765	0.0157750
826.843	0.0157038
826.922	0.0157687
827.000	0.0157037
827.078	0.0156607
827.156	0.0156279
827.234	0.0156726
827.312	0.0155956
827.390	0.0154242
827.468	0.0155511
827.547	0.0155200
827.625	0.0154183
827.703	0.0154494
827.781	0.0154614
827.859	0.0154459
827.937	0.0153574
828.015	0.0154299
828.093	0.0154918
828.172	0.0154577
828.250	0.0154361
828.328	0.0155554
828.406	0.0156210
828.484	0.0156251
828.562	0.0155377
828.640	0.0156222
828.718	0.0156415
828.797	0.0156655
828.875	0.0154463
828.953	0.0155035
829.031	0.0155058
829.109	0.0156197
829.187	0.0155666
829.265	0.0155383
829.343	0.0156085
829.422	0.0154479
829.500	0.0153978
829.578	0.0154046
829.656	0.0154646
829.734	0.0154380
829.812	0.0154518
829.890	0.0154896
829.968	0.0154943
830.047	0.0155855
830.125	0.0156506
830.203	0.0155545
830.281	0.0156577
830.359	0.0156992
830.437	0.0157499
830.515	0.0157397
830.593	0.0156017
830.672	0.0158127
830.750	0.0155936
830.828	0.0156692
830.906	0.0156629
830.984	0.0155868
831.062	0.0155960
831.140	0.0154615
831.218	0.0156047
831.297	0.0154993
831.375	0.0152943
831.453	0.0152966
831.531	0.0152217
831.609	0.0151713
831.687	0.0152633
831.765	0.0152985
831.843	0.0150774
831.922	0.0151000
832.000	0.0152293
832.078	0.0151834
832.156	0.0152175
832.234	0.0153175
832.312	0.0151554
832.390	0.0152509
832.468	0.0152836
832.547	0.0152182
832.625	0.0152821
832.703	0.0152942
832.781	0.0152512
832.859	0.0151965
832.937	0.0153140
833.015	0.0154601
833.093	0.0153968
833.172	0.0154638
833.250	0.0154658
833.328	0.0155396
833.406	0.0156376
833.484	0.0157116
833.562	0.0157758
833.640	0.0157443
833.718	0.0157918
833.797	0.0159075
833.875	0.0158347
833.953	0.0158086
834.031	0.0157421
834.109	0.0157947
834.187	0.0158412
834.265	0.0157437
834.343	0.0157796
834.422	0.0157572
834.500	0.0157323
834.578	0.0156666
834.656	0.0154522
834.734	0.0155420
834.812	0.0154651
834.890	0.0154336
834.968	0.0153036
835.047	0.0152487
835.125	0.0153169
835.203	0.0152846
835.281	0.0152914
835.359	0.0153191
835.437	0.0152959
835.515	0.0153502
835.593	0.0152175
835.672	0.0153471
835.750	0.0153424
835.828	0.0153841
835.906	0.0155075
835.984	0.0154526
836.062	0.0155738
836.140	0.0155057
836.218	0.0155714
836.297	0.0155250
836.375	0.0154982
836.453	0.0154201
836.531	0.0154762
836.609	0.0157361
836.687	0.0155166
836.765	0.0155839
836.843	0.0155584
836.922	0.0157903
837.000	0.0157655
837.078	0.0156397
837.156	0.0155545
837.234	0.0155487
837.312	0.0155874
837.390	0.0156364
837.468	0.0155138
837.547	0.0155465
837.625	0.0154520
837.703	0.0155283
837.781	0.0156109
837.859	0.0156104
837.937	0.0154767
838.015	0.0155213
838.093	0.0154739
838.172	0.0154375
838.250	0.0154313
838.328	0.0155023
838.406	0.0155462
838.484	0.0154439
838.562	0.0155992
838.640	0.0157272
838.718	0.0156023
838.797	0.0155362
838.875	0.0155213
838.953	0.0155084
839.031	0.0155540
839.109	0.0155952
839.187	0.0154854
839.265	0.0155188
839.343	0.0154458
839.422	0.0155640
839.500	0.0155457
839.578	0.0156482
839.656	0.0156280
839.734	0.0155727
839.812	0.0156713
839.890	0.0157553
839.968	0.0158590
840.047	0.0156704
840.125	0.0158920
840.203	0.0159483
840.281	0.0158156
840.359	0.0159538
840.437	0.0159518
840.515	0.0157901
840.593	0.0159227
840.672	0.0158422
840.750	0.0158783
840.828	0.0158628
840.906	0.0155980
840.984	0.0156075
841.062	0.0157231
841.140	0.0156153
841.218	0.0153902
841.297	0.0154671
841.375	0.0153091
841.453	0.0154632
841.531	0.0153054
841.609	0.0152155
841.687	0.0153114
841.765	0.0154529
841.843	0.0153225
841.922	0.0153159
842.000	0.0153428
842.078	0.0152088
842.156	0.0154575
842.234	0.0154652
842.312	0.0154015
842.390	0.0155373
842.468	0.0154317
842.547	0.0154106
842.625	0.0155295
842.703	0.0156001
842.781	0.0156639
842.859	0.0156537
842.937	0.0157326
843.015	0.0157389
843.093	0.0156316
843.172	0.0157585
843.250	0.0158265
843.328	0.0158880
843.406	0.0159061
843.484	0.0158439
843.562	0.0158886
843.640	0.0158376
843.718	0.0157648
843.797	0.0157247
843.875	0.0158057
843.953	0.0159460
844.031	0.0158332
844.109	0.0158694
844.187	0.0158689
844.265	0.0157771
844.343	0.0158906
844.422	0.0158492
844.500	0.0157544
844.578	0.0157677
844.656	0.0155392
844.734	0.0156895
844.812	0.0156709
844.890	0.0154803
844.968	0.0154910
845.047	0.0155224
845.125	0.0154589
845.203	0.0154134
845.281	0.0153735
845.359	0.0154733
845.437	0.0153883
845.515	0.0153195
845.593	0.0153872
845.672	0.0154468
845.750	0.0154916
845.828	0.0155134
845.906	0.0154856
845.984	0.0155372
846.062	0.0156004
846.140	0.0156223
846.218	0.0155879
846.297	0.0155663
846.375	0.0156358
846.453	0.0157685
846.531	0.0158141
846.609	0.0157689
846.687	0.0157693
846.765	0.0157445
846.843	0.0157475
846.922	0.0157470
847.000	0.0156902
847.078	0.0156712
847.156	0.0157853
847.234	0.0155434
847.312	0.0157297
847.390	0.0157309
847.468	0.0156223
847.547	0.0158112
847.625	0.0157267
847.703	0.0158684
847.781	0.0158160
847.859	0.0159347
847.937	0.0157194
848.015	0.0158144
848.093	0.0158604
848.172	0.0158981
848.250	0.0157769
848.328	0.0156952
848.406	0.0156792
848.484	0.0155559
848.562	0.0157542
848.640	0.0157531
848.718	0.0156951
848.797	0.0156678
848.875	0.0157243
848.953	0.0157934
849.031	0.0155804
849.109	0.0153940
849.187	0.0154703
849.265	0.0155663
849.343	0.0155958
849.422	0.0154720
849.500	0.0153888
849.578	0.0154764
849.656	0.0154494
849.734	0.0154456
849.812	0.0155404
849.890	0.0155872
849.968	0.0155923
850.047	0.0154469
850.125	0.0156455
850.203	0.0156540
850.281	0.0156371
850.359	0.0155101
850.437	0.0154896
850.515	0.0157183
850.593	0.0156564
850.672	0.0156249
850.750	0.0156675
850.828	0.0155577
850.906	0.0155915
850.984	0.0155586
851.062	0.0155493
851.140	0.0155486
851.218	0.0155627
851.297	0.0155318
851.375	0.0155025
851.453	0.0153822
851.531	0.0155547
851.609	0.0154828
851.687	0.0153855
851.765	0.0155222
851.843	0.0153101
851.922	0.0154049
852.000	0.0154295
852.078	0.0154487
852.156	0.0153783
852.234	0.0153600
852.312	0.0155686
852.390	0.0155028
852.468	0.0153665
852.547	0.0154404
852.625	0.0155908
852.703	0.0155542
852.781	0.0155236
852.859	0.0156084
852.937	0.0154619
853.015	0.0154445
853.093	0.0156345
853.172	0.0155947
853.250	0.0155323
853.328	0.0154176
853.406	0.0156387
853.484	0.0155841
853.562	0.0156046
853.640	0.0154955
853.718	0.0156964
853.797	0.0154628
853.875	0.0154910
853.953	0.0155533
854.031	0.0154565
854.109	0.0154067
854.187	0.0153387
854.265	0.0154336
854.343	0.0154786
854.422	0.0153111
854.500	0.0153429
854.578	0.0154710
854.656	0.0153847
854.734	0.0153477
854.812	0.0155273
854.890	0.0153969
854.968	0.0154125
855.047	0.0153410
855.125	0.0154792
855.203	0.0153923
855.281	0.0155256
855.359	0.0153558
855.437	0.0154263
855.515	0.0154141
855.593	0.0154329
855.672	0.0155343
855.750	0.0154382
855.828	0.0154493
855.906	0.0154442
855.984	0.0156470
856.062	0.0155089
856.140	0.0156266
856.218	0.0155310
856.297	0.0154404
856.375	0.0155555
856.453	0.0155391
856.531	0.0155740
856.609	0.0155401
856.687	0.0154652
856.765	0.0154906
856.843	0.0154729
856.922	0.0154832
857.000	0.0155183
857.078	0.0154066
857.156	0.0153793
857.234	0.0154581
857.312	0.0154787
857.390	0.0154301
857.468	0.0152908
857.547	0.0153212
857.625	0.0154073
857.703	0.0154804
857.781	0.0154623
857.859	0.0154359
857.937	0.0154179
858.015	0.0154044
858.093	0.0153656
858.172	0.0153044
858.250	0.0153598
858.328	0.0155099
858.406	0.0155923
858.484	0.0154527
858.562	0.0155318
858.640	0.0156204
858.718	0.0155881
858.797	0.0155561
858.875	0.0156226
858.953	0.0156943
859.031	0.0156518
859.109	0.0156740
859.187	0.0156347
859.265	0.0156737
859.343	0.0155578
859.422	0.0156018
859.500	0.0155701
859.578	0.0155293
859.656	0.0156377
859.734	0.0155984
859.812	0.0155934
859.890	0.0155957
859.968	0.0156463
860.047	0.0155198
860.125	0.0154877
860.203	0.0155715
860.281	0.0155058
860.359	0.0155399
860.437	0.0155015
860.515	0.0155789
860.593	0.0156048
860.672	0.0156174
860.750	0.0157011
860.828	0.0157189
860.906	0.0157740
860.984	0.0156740
861.062	0.0156577
861.140	0.0158278
861.218	0.0156934
861.297	0.0157235
861.375	0.0157021
861.453	0.0157841
861.531	0.0158185
861.609	0.0157362
861.687	0.0157526
861.765	0.0156007
861.843	0.0158170
861.922	0.0157718
862.000	0.0157086
862.078	0.0155711
862.156	0.0155871
862.234	0.0155801
862.312	0.0155143
862.390	0.0154241
862.468	0.0154045
862.547	0.0156291
862.625	0.0155278
862.703	0.0154922
862.781	0.0155764
862.859	0.0154711
862.937	0.0154538
863.015	0.0155234
863.093	0.0154697
863.172	0.0155443
863.250	0.0156785
863.328	0.0156058
863.406	0.0155393
863.484	0.0155014
863.562	0.0155841
863.640	0.0155071
863.718	0.0155956
863.797	0.0156750
863.875	0.0155963
863.953	0.0156222
864.031	0.0157973
864.109	0.0155828
864.187	0.0157095
864.265	0.0157455
864.343	0.0157501
864.422	0.0158707
864.500	0.0157188
864.578	0.0158288
864.656	0.0158495
864.734	0.0157788
864.812	0.0156619
864.890	0.0157597
864.968	0.0157028
865.047	0.0156973
865.125	0.0156427
865.203	0.0155417
865.281	0.0156722
865.359	0.0155458
865.437	0.0156517
865.515	0.0155679
865.593	0.0155304
865.672	0.0155379
865.750	0.0156719
865.828	0.0155806
865.906	0.0155058
865.984	0.0154196
866.062	0.0153876
866.140	0.0156316
866.218	0.0156902
866.297	0.0155501
866.375	0.0156719
866.453	0.0156064
866.531	0.0156139
866.609	0.0157977
866.687	0.0156772
866.765	0.0157565
866.843	0.0158173
866.922	0.0157322
867.000	0.0158066
867.078	0.0157317
867.156	0.0156108
867.234	0.0155991
867.312	0.0157155
867.390	0.0156508
867.468	0.0156673
867.547	0.0156091
867.625	0.0155325
867.703	0.0155887
867.781	0.0154790
867.859	0.0155368
867.937	0.0155381
868.015	0.0155994
868.093	0.0155244
868.172	0.0154529
868.250	0.0154012
868.328	0.0154299
868.406	0.0156329
868.484	0.0154701
868.562	0.0155531
868.640	0.0156545
868.718	0.0155446
868.797	0.0156349
868.875	0.0157986
868.953	0.0156294
869.031	0.0156356
869.109	0.0157063
869.187	0.0158562
869.265	0.0156875
869.343	0.0158511
869.422	0.0157560
869.500	0.0158717
869.578	0.0158487
869.656	0.0157285
869.734	0.0156738
869.812	0.0157177
869.890	0.0157667
869.968	0.0157357
870.047	0.0157439
870.125	0.0155684
870.203	0.0155797
870.281	0.0155193
870.359	0.0154204
870.437	0.0155319
870.515	0.0155465
870.593	0.0155059
870.672	0.0154836
870.750	0.0154285
870.828	0.0154955
870.906	0.0155082
870.984	0.0155781
871.062	0.0155060
871.140	0.0154195
871.218	0.0156301
871.297	0.0157159
871.375	0.0155638
871.453	0.0156088
871.531	0.0156101
871.609	0.0157974
871.687	0.0157984
871.765	0.0157638
871.843	0.0156798
871.922	0.0157587
872.000	0.0158820
872.078	0.0158084
872.156	0.0158361
872.234	0.0157426
872.312	0.0157726
872.390	0.0157760
872.468	0.0157149
872.547	0.0158154
872.625	0.0157175
872.703	0.0156511
872.781	0.0156650
872.859	0.0157153
872.937	0.0157855
873.015	0.0156459
873.093	0.0155910
873.172	0.0156125
873.250	0.0155866
873.328	0.0156165
873.406	0.0157722
873.484	0.0155126
873.562	0.0156182
873.640	0.0153820
873.718	0.0153841
873.797	0.0155405
873.875	0.0153837
873.953	0.0154110
874.031	0.0154965
874.109	0.0155704
874.187	0.0154852
874.265	0.0154649
874.343	0.0152802
874.422	0.0155537
874.500	0.0156152
874.578	0.0155777
874.656	0.0156139
874.734	0.0156384
874.812	0.0157474
874.890	0.0156275
874.968	0.0156232
875.047	0.0157076
875.125	0.0156403
875.203	0.0157626
875.281	0.0157593
875.359	0.0157346
875.437	0.0156914
875.515	0.0156067
875.593	0.0156826
875.672	0.0156305
875.750	0.0155946
875.828	0.0156667
875.906	0.0156957
875.984	0.0156129
876.062	0.0155687
876.140	0.0155644
876.218	0.0156484
876.297	0.0155402
876.375	0.0154902
876.453	0.0155219
876.531	0.0155506
876.609	0.0156046
876.687	0.0155015
876.765	0.0156688
876.843	0.0156446
876.922	0.0156559
877.000	0.0156798
877.078	0.0158914
877.156	0.0157288
877.234	0.0158069
877.312	0.0156847
877.390	0.0155790
877.468	0.0157117
877.547	0.0157764
877.625	0.0155280
877.703	0.0158298
877.781	0.0156561
877.859	0.0156076
877.937	0.0155257
878.015	0.0157167
878.093	0.0156375
878.172	0.0155440
878.250	0.0155859
878.328	0.0155006
878.406	0.0155067
878.484	0.0155880
878.562	0.0156882
878.640	0.0156264
878.718	0.0155564
878.797	0.0154823
878.875	0.0154676
878.953	0.0155627
879.031	0.0155258
879.109	0.0156571
879.187	0.0156149
879.265	0.0157112
879.343	0.0155955
879.422	0.0155985
879.500	0.0155935
879.578	0.0155426
879.656	0.0155552
879.734	0.0156126
879.812	0.0156434
879.890	0.0154680
879.968	0.0156513
880.047	0.0156219
880.125	0.0155876
880.203	0.0155047
880.281	0.0155166
880.359	0.0155323
880.437	0.0154964
880.515	0.0153969
880.593	0.0155654
880.672	0.0155389
880.750	0.0156005
880.828	0.0155192
880.906	0.0154763
880.984	0.0154628
881.062	0.0155663
881.140	0.0156584
881.218	0.0156334
881.297	0.0154411
881.375	0.0154550
881.453	0.0154903
881.531	0.0155854
881.609	0.0155807
881.687	0.0155076
881.765	0.0155905
881.843	0.0154550
881.922	0.0155738
882.000	0.0157463
882.078	0.0156863
882.156	0.0155327
882.234	0.0156310
882.312	0.0157053
882.390	0.0157084
882.468	0.0156799
882.547	0.0156236
882.625	0.0156492
882.703	0.0155661
882.781	0.0156470
882.859	0.0157682
882.937	0.0157024
883.015	0.0154550
883.093	0.0156113
883.172	0.0157148
883.250	0.0157499
883.328	0.0155917
883.406	0.0156401
883.484	0.0155790
883.562	0.0154755
883.640	0.0156670
883.718	0.0155325
883.797	0.0155744
883.875	0.0156261
883.953	0.0154691
884.031	0.0155891
884.109	0.0156575
884.187	0.0156966
884.265	0.0157423
884.343	0.0156275
884.422	0.0155273
884.500	0.0156367
884.578	0.0157027
884.656	0.0156046
884.734	0.0156181
884.812	0.0158247
884.890	0.0157346
884.968	0.0156686
885.047	0.0157156
885.125	0.0157134
885.203	0.0157182
885.281	0.0156763
885.359	0.0158667
885.437	0.0156491
885.515	0.0156525
885.593	0.0156173
885.672	0.0156421
885.750	0.0156494
885.828	0.0156675
885.906	0.0156794
885.984	0.0155569
886.062	0.0154795
886.140	0.0155604
886.218	0.0155996
886.297	0.0156376
886.375	0.0155858
886.453	0.0157562
886.531	0.0156476
886.609	0.0156978
886.687	0.0155532
886.765	0.0156084
886.843	0.0155637
886.922	0.0155765
887.000	0.0156242
887.078	0.0154870
887.156	0.0155650
887.234	0.0153471
887.312	0.0155783
887.390	0.0155882
887.468	0.0154766
887.547	0.0156084
887.625	0.0154364
887.703	0.0154472
887.781	0.0155476
887.859	0.0156253
887.937	0.0155962
888.015	0.0155624
888.093	0.0156535
888.172	0.0155919
888.250	0.0156906
888.328	0.0154689
888.406	0.0155720
888.484	0.0158264
888.562	0.0156975
888.640	0.0155879
888.718	0.0156442
888.797	0.0156159
888.875	0.0156052
888.953	0.0157390
889.031	0.0155539
889.109	0.0157481
889.187	0.0155666
889.265	0.0155723
889.343	0.0156298
889.422	0.0156702
889.500	0.0156615
889.578	0.0157341
889.656	0.0155753
889.734	0.0156035
889.812	0.0156964
889.890	0.0157483
889.968	0.0156284
890.047	0.0156799
890.125	0.0157541
890.203	0.0156076
890.281	0.0156776
890.359	0.0157835
890.437	0.0157243
890.515	0.0157217
890.593	0.0155146
890.672	0.0155657
890.750	0.0155779
890.828	0.0154688
890.906	0.0157037
890.984	0.0155247
891.062	0.0155088
891.140	0.0155270
891.218	0.0156004
891.297	0.0155057
891.375	0.0153875
891.453	0.0154597
891.531	0.0154630
891.609	0.0155018
891.687	0.0154241
891.765	0.0153428
891.843	0.0153261
891.922	0.0153876
892.000	0.0154854
892.078	0.0154358
892.156	0.0153082
892.234	0.0153761
892.312	0.0154336
892.390	0.0154565
892.468	0.0155836
892.547	0.0155264
892.625	0.0154581
892.703	0.0153210
892.781	0.0155429
892.859	0.0153876
892.937	0.0154810
893.015	0.0154269
893.093	0.0153438
893.172	0.0153561
893.250	0.0153672
893.328	0.0154264
893.406	0.0155840
893.484	0.0155110
893.562	0.0156135
893.640	0.0155105
893.718	0.0154642
893.797	0.0155022
893.875	0.0155470
893.953	0.0155447
894.031	0.0155293
894.109	0.0156017
894.187	0.0154296
894.265	0.0154281
894.343	0.0157377
894.422	0.0155351
894.500	0.0155054
894.578	0.0154134
894.656	0.0155814
894.734	0.0156726
894.812	0.0156694
894.890	0.0154248
894.968	0.0154909
895.047	0.0155583
895.125	0.0156311
895.203	0.0156477
895.281	0.0155688
895.359	0.0155391
895.437	0.0156908
895.515	0.0156889
895.593	0.0155470
895.672	0.0156141
895.750	0.0156100
895.828	0.0154882
895.906	0.0154746
895.984	0.0155500
896.062	0.0154920
896.140	0.0156031
896.218	0.0153682
896.297	0.0154816
896.375	0.0156339
896.453	0.0156551
896.531	0.0155126
896.609	0.0157226
896.687	0.0154757
896.765	0.0156191
896.843	0.0156296
896.922	0.0155939
897.000	0.0156475
897.078	0.0155959
897.156	0.0157377
897.234	0.0156421
897.312	0.0156278
897.390	0.0155959
897.468	0.0156259
897.547	0.0156316
897.625	0.0155712
897.703	0.0157018
897.781	0.0157131
897.859	0.0155650
897.937	0.0156712
898.015	0.0156314
898.093	0.0156583
898.172	0.0156652
898.250	0.0156857
898.328	0.0156765
898.406	0.0158200
898.484	0.0156967
898.562	0.0156416
898.640	0.0156751
898.718	0.0156075
898.797	0.0155750
898.875	0.0155812
898.953	0.0155903
899.031	0.0156254
899.109	0.0156050
899.187	0.0155748
899.265	0.0156820
899.343	0.0157286
899.422	0.0156512
899.500	0.0157980
899.578	0.0157549
899.656	0.0157344
899.734	0.0157797
899.812	0.0157676
899.890	0.0159222
899.968	0.0158369
900.047	0.0156909
900.125	0.0159267
900.203	0.0159057
900.281	0.0157765
900.359	0.0157141
900.437	0.0158096
900.515	0.0158344
900.593	0.0156661
900.672	0.0156632
900.750	0.0157480
900.828	0.0157431
900.906	0.0158191
900.984	0.0156943
901.062	0.0157900
901.140	0.0156364
901.218	0.0158053
901.297	0.0156532
901.375	0.0157304
901.453	0.0156067
901.531	0.0155655
901.609	0.0156133
901.687	0.0157294
901.765	0.0156413
901.843	0.0156435
901.922	0.0156381
902.000	0.0156751
902.078	0.0156673
902.156	0.0157307
902.234	0.0157261
902.312	0.0157864
902.390	0.0155827
902.468	0.0155933
902.547	0.0156433
902.625	0.0156264
902.703	0.0157253
902.781	0.0158430
902.859	0.0157131
902.937	0.0158092
903.015	0.0157968
903.093	0.0156855
903.172	0.0156035
903.250	0.0157111
903.328	0.0157500
903.406	0.0158189
903.484	0.0157626
903.562	0.0157643
903.640	0.0158572
903.718	0.0157006
903.797	0.0156423
903.875	0.0157102
903.953	0.0157170
904.031	0.0157086
904.109	0.0157565
904.187	0.0156239
904.265	0.0157052
904.343	0.0156586
904.422	0.0158310
904.500	0.0156638
904.578	0.0156950
904.656	0.0157297
904.734	0.0157700
904.812	0.0157388
904.890	0.0156514
904.968	0.0156920
905.047	0.0155997
905.125	0.0155241
905.203	0.0157532
905.281	0.0156926
905.359	0.0157299
905.437	0.0156242
905.515	0.0156718
905.593	0.0156831
905.672	0.0156049
905.750	0.0156007
905.828	0.0155161
905.906	0.0154609
905.984	0.0155507
906.062	0.0154738
906.140	0.0156258
906.218	0.0154205
906.297	0.0155343
906.375	0.0155038
906.453	0.0154098
906.531	0.0156100
906.609	0.0155043
906.687	0.0154414
906.765	0.0154665
906.843	0.0155930
906.922	0.0156271
907.000	0.0154725
907.078	0.0154687
907.156	0.0155871
907.234	0.0155682
907.312	0.0156832
907.390	0.0156075
907.468	0.0157346
907.547	0.0156365
907.625	0.0154893
907.703	0.0155679
907.781	0.0155990
907.859	0.0155895
907.937	0.0156773
908.015	0.0155594
908.093	0.0156627
908.172	0.0155083
908.250	0.0157508
908.328	0.0156361
908.406	0.0154900
908.484	0.0155955
908.562	0.0155801
908.640	0.0156059
908.718	0.0153399
908.797	0.0154618
908.875	0.0155207
908.953	0.0154498
909.031	0.0155681
909.109	0.0155795
909.187	0.0153898
909.265	0.0155015
909.343	0.0155221
909.422	0.0154860
909.500	0.0155666
909.578	0.0155533
909.656	0.0154552
909.734	0.0154681
909.812	0.0154520
909.890	0.0156100
909.968	0.0156224
910.047	0.0156582
910.125	0.0155386
910.203	0.0155880
910.281	0.0155177
910.359	0.0157682
910.437	0.0156922
910.515	0.0157139
910.593	0.0156044
910.672	0.0156673
910.750	0.0156752
910.828	0.0155331
910.906	0.0156548
910.984	0.0156385
911.062	0.0155017
911.140	0.0154670
911.218	0.0155238
911.297	0.0154768
911.375	0.0155212
911.453	0.0154271
911.531	0.0154538
911.609	0.0154543
911.687	0.0154176
911.765	0.0154911
911.843	0.0155052
911.922	0.0153080
912.000	0.0153370
912.078	0.0154876
912.156	0.0154239
912.234	0.0155981
912.312	0.0155125
912.390	0.0157138
912.468	0.0154895
912.547	0.0155268
912.625	0.0154706
912.703	0.0157394
912.781	0.0157497
912.859	0.0156109
912.937	0.0155885
913.015	0.0157742
913.093	0.0158161
913.172	0.0156461
913.250	0.0156383
913.328	0.0156380
913.406	0.0156337
913.484	0.0157830
913.562	0.0156618
913.640	0.0155356
913.718	0.0156062
913.797	0.0155808
913.875	0.0156296
913.953	0.0155713
914.031	0.0155960
914.109	0.0156325
914.187	0.0156264
914.265	0.0155587
914.343	0.0154514
914.422	0.0155195
914.500	0.0154662
914.578	0.0154846
914.656	0.0154305
914.734	0.0154352
914.812	0.0154469
914.890	0.0154697
914.968	0.0154292
915.047	0.0153580
915.125	0.0154427
915.203	0.0154443
915.281	0.0153984
915.359	0.0153915
915.437	0.0154380
915.515	0.0155401
915.593	0.0153580
915.672	0.0154986
915.750	0.0156446
915.828	0.0155491
915.906	0.0155505
915.984	0.0154491
916.062	0.0155338
916.140	0.0156048
916.218	0.0155824
916.297	0.0155640
916.375	0.0154541
916.453	0.0157057
916.531	0.0157758
916.609	0.0157456
916.687	0.0155265
916.765	0.0156554
916.843	0.0155466
916.922	0.0156058
917.000	0.0154808
917.078	0.0156144
917.156	0.0154901
917.234	0.0155836
917.312	0.0154599
917.390	0.0155013
917.468	0.0155839
917.547	0.0154530
917.625	0.0156021
917.703	0.0155052
917.781	0.0154366
917.859	0.0155122
917.937	0.0153918
918.015	0.0154594
918.093	0.0153619
918.172	0.0154033
918.250	0.0152689
918.328	0.0155028
918.406	0.0154989
918.484	0.0154307
918.562	0.0154672
918.640	0.0155031
918.718	0.0154877
918.797	0.0153532
918.875	0.0153413
918.953	0.0154482
919.031	0.0155128
919.109	0.0154713
919.187	0.0155401
919.265	0.0155190
919.343	0.0156417
919.422	0.0157215
919.500	0.0156187
919.578	0.0155402
919.656	0.0154964
919.734	0.0157081
919.812	0.0156469
919.890	0.0156514
