05/28/2022	14:30:42	Ver.	4.1	UNKNOWN
Optical Delay	599.988409	Delta X		0.078125	Sweeps	1	Scan Rate	0/0
Coordinates	Axis 1	NaN	Axis 2	NaN	Axis 3	NaN	Axis 4	NaN	Axis 5	NaN	Axis 6	0.000000
TX Power	0.000000	RX Power	0.000000

599.988	0.0141792
600.067	0.0140708
600.145	0.0140388
600.223	0.0139782
600.301	0.0141244
600.379	0.0140379
600.457	0.0140273
600.535	0.0140725
600.613	0.0140797
600.692	0.0140179
600.770	0.0139423
600.848	0.0140419
600.926	0.0140598
601.004	0.0139571
601.082	0.0140179
601.160	0.0139057
601.238	0.0140918
601.317	0.0140855
601.395	0.0140025
601.473	0.0140105
601.551	0.0139659
601.629	0.0138459
601.707	0.0138735
601.785	0.0138902
601.863	0.0140344
601.942	0.0138986
602.020	0.0140177
602.098	0.0138077
602.176	0.0139367
602.254	0.0139126
602.332	0.0139417
602.410	0.0141017
602.488	0.0139601
602.567	0.0140564
602.645	0.0139883
602.723	0.0138064
602.801	0.0139237
602.879	0.0141434
602.957	0.0140274
603.035	0.0137745
603.113	0.0139445
603.192	0.0140507
603.270	0.0140525
603.348	0.0139842
603.426	0.0138741
603.504	0.0138612
603.582	0.0140742
603.660	0.0140569
603.738	0.0139388
603.817	0.0139066
603.895	0.0138837
603.973	0.0139246
604.051	0.0139481
604.129	0.0140334
604.207	0.0140623
604.285	0.0139040
604.363	0.0140990
604.442	0.0141010
604.520	0.0140607
604.598	0.0139747
604.676	0.0141282
604.754	0.0139268
604.832	0.0140204
604.910	0.0140291
604.988	0.0139501
605.067	0.0139767
605.145	0.0140325
605.223	0.0138765
605.301	0.0138829
605.379	0.0141154
605.457	0.0140308
605.535	0.0140019
605.613	0.0141221
605.692	0.0141269
605.770	0.0141281
605.848	0.0140223
605.926	0.0138129
606.004	0.0139545
606.082	0.0140904
606.160	0.0139529
606.238	0.0139645
606.317	0.0138919
606.395	0.0139721
606.473	0.0140294
606.551	0.0139201
606.629	0.0139692
606.707	0.0139198
606.785	0.0140590
606.863	0.0139417
606.942	0.0139365
607.020	0.0138973
607.098	0.0138476
607.176	0.0139539
607.254	0.0140108
607.332	0.0139992
607.410	0.0138897
607.488	0.0138749
607.567	0.0139488
607.645	0.0140347
607.723	0.0139582
607.801	0.0139853
607.879	0.0138767
607.957	0.0138641
608.035	0.0139540
608.113	0.0139169
608.192	0.0139581
608.270	0.0139742
608.348	0.0138753
608.426	0.0138132
608.504	0.0139382
608.582	0.0139191
608.660	0.0139550
608.738	0.0138963
608.817	0.0139281
608.895	0.0138641
608.973	0.0138361
609.051	0.0139198
609.129	0.0138702
609.207	0.0139191
609.285	0.0139056
609.363	0.0138447
609.442	0.0139801
609.520	0.0139090
609.598	0.0139381
609.676	0.0139113
609.754	0.0139628
609.832	0.0139714
609.910	0.0140071
609.988	0.0140930
610.067	0.0139606
610.145	0.0139558
610.223	0.0141669
610.301	0.0140332
610.379	0.0140543
610.457	0.0138963
610.535	0.0140826
610.613	0.0140746
610.692	0.0141074
610.770	0.0139837
610.848	0.0139285
610.926	0.0141872
611.004	0.0140010
611.082	0.0139552
611.160	0.0138754
611.238	0.0139719
611.317	0.0141408
611.395	0.0141110
611.473	0.0141055
611.551	0.0140422
611.629	0.0139804
611.707	0.0140320
611.785	0.0142307
611.863	0.0140909
611.942	0.0140822
612.020	0.0140208
612.098	0.0141093
612.176	0.0140397
612.254	0.0140480
612.332	0.0141090
612.410	0.0141787
612.488	0.0141580
612.567	0.0140921
612.645	0.0141753
612.723	0.0141157
612.801	0.0142867
612.879	0.0140478
612.957	0.0140089
613.035	0.0142397
613.113	0.0142269
613.192	0.0140631
613.270	0.0141618
613.348	0.0141053
613.426	0.0142152
613.504	0.0141515
613.582	0.0141977
613.660	0.0142249
613.738	0.0143403
613.817	0.0142461
613.895	0.0142771
613.973	0.0142699
614.051	0.0142292
614.129	0.0141758
614.207	0.0141717
614.285	0.0142368
614.363	0.0142281
614.442	0.0142270
614.520	0.0142616
614.598	0.0143365
614.676	0.0143307
614.754	0.0141907
614.832	0.0142049
614.910	0.0143679
614.988	0.0142712
615.067	0.0143500
615.145	0.0143440
615.223	0.0144094
615.301	0.0141217
615.379	0.0142976
615.457	0.0143681
615.535	0.0142171
615.613	0.0142990
615.692	0.0142618
615.770	0.0142521
615.848	0.0142146
615.926	0.0142152
616.004	0.0142190
616.082	0.0142912
616.160	0.0143556
616.238	0.0143351
616.317	0.0142142
616.395	0.0141963
616.473	0.0142628
616.551	0.0143150
616.629	0.0142138
616.707	0.0142357
616.785	0.0142537
616.863	0.0141338
616.942	0.0142573
617.020	0.0142137
617.098	0.0142255
617.176	0.0143496
617.254	0.0142212
617.332	0.0142045
617.410	0.0142732
617.488	0.0143240
617.567	0.0140774
617.645	0.0141628
617.723	0.0141580
617.801	0.0141805
617.879	0.0141165
617.957	0.0142338
618.035	0.0141451
618.113	0.0142413
618.192	0.0139804
618.270	0.0141629
618.348	0.0141659
618.426	0.0142828
618.504	0.0142209
618.582	0.0141296
618.660	0.0140823
618.738	0.0141947
618.817	0.0140839
618.895	0.0140401
618.973	0.0140056
619.051	0.0141855
619.129	0.0142104
619.207	0.0142587
619.285	0.0141013
619.363	0.0141467
619.442	0.0140745
619.520	0.0142110
619.598	0.0140328
619.676	0.0141045
619.754	0.0141242
619.832	0.0140848
619.910	0.0140549
619.988	0.0142309
620.067	0.0142026
620.145	0.0140248
620.223	0.0139826
620.301	0.0140211
620.379	0.0142106
620.457	0.0141504
620.535	0.0141122
620.613	0.0140816
620.692	0.0142215
620.770	0.0140264
620.848	0.0141222
620.926	0.0141290
621.004	0.0140641
621.082	0.0141600
621.160	0.0142178
621.238	0.0143037
621.317	0.0142357
621.395	0.0141443
621.473	0.0140706
621.551	0.0141582
621.629	0.0142949
621.707	0.0140607
621.785	0.0140804
621.863	0.0140604
621.942	0.0142422
622.020	0.0141758
622.098	0.0140716
622.176	0.0141344
622.254	0.0141001
622.332	0.0140369
622.410	0.0140642
622.488	0.0141058
622.567	0.0140690
622.645	0.0142055
622.723	0.0142705
622.801	0.0140208
622.879	0.0141284
622.957	0.0138951
623.035	0.0140392
623.113	0.0140899
623.192	0.0142970
623.270	0.0140505
623.348	0.0142249
623.426	0.0141097
623.504	0.0141473
623.582	0.0141230
623.660	0.0141760
623.738	0.0139677
623.817	0.0142326
623.895	0.0140915
623.973	0.0141019
624.051	0.0140900
624.129	0.0141777
624.207	0.0142180
624.285	0.0140761
624.363	0.0142857
624.442	0.0141011
624.520	0.0142165
624.598	0.0141770
624.676	0.0142679
624.754	0.0141055
624.832	0.0141545
624.910	0.0141844
624.988	0.0141718
625.067	0.0141206
625.145	0.0142738
625.223	0.0141073
625.301	0.0143563
625.379	0.0141393
625.457	0.0140852
625.535	0.0141737
625.613	0.0141988
625.692	0.0141351
625.770	0.0140401
625.848	0.0140199
625.926	0.0140764
626.004	0.0140067
626.082	0.0139660
626.160	0.0140515
626.238	0.0141538
626.317	0.0140850
626.395	0.0140218
626.473	0.0140309
626.551	0.0140415
626.629	0.0140939
626.707	0.0141273
626.785	0.0141873
626.863	0.0141225
626.942	0.0140930
627.020	0.0141711
627.098	0.0142096
627.176	0.0140153
627.254	0.0141158
627.332	0.0141867
627.410	0.0143309
627.488	0.0141930
627.567	0.0141408
627.645	0.0141953
627.723	0.0141394
627.801	0.0142755
627.879	0.0141744
627.957	0.0141095
628.035	0.0142229
628.113	0.0141989
628.192	0.0141171
628.270	0.0141425
628.348	0.0139687
628.426	0.0140521
628.504	0.0141223
628.582	0.0140290
628.660	0.0138403
628.738	0.0139120
628.817	0.0139550
628.895	0.0139051
628.973	0.0138293
629.051	0.0138837
629.129	0.0139323
629.207	0.0140282
629.285	0.0137996
629.363	0.0139026
629.442	0.0139079
629.520	0.0138760
629.598	0.0139411
629.676	0.0138943
629.754	0.0138663
629.832	0.0138519
629.910	0.0139239
629.988	0.0139212
630.067	0.0138606
630.145	0.0138874
630.223	0.0138619
630.301	0.0140094
630.379	0.0140442
630.457	0.0139548
630.535	0.0139855
630.613	0.0140147
630.692	0.0138882
630.770	0.0139579
630.848	0.0140579
630.926	0.0140392
631.004	0.0138818
631.082	0.0138783
631.160	0.0139151
631.238	0.0138917
631.317	0.0138989
631.395	0.0138657
631.473	0.0138597
631.551	0.0138708
631.629	0.0138274
631.707	0.0137708
631.785	0.0138579
631.863	0.0139169
631.942	0.0139135
632.020	0.0139709
632.098	0.0139857
632.176	0.0140839
632.254	0.0141200
632.332	0.0139500
632.410	0.0141443
632.488	0.0141116
632.567	0.0140886
632.645	0.0141940
632.723	0.0142381
632.801	0.0142751
632.879	0.0143084
632.957	0.0141613
633.035	0.0143055
633.113	0.0143015
633.192	0.0141461
633.270	0.0142839
633.348	0.0141094
633.426	0.0141427
633.504	0.0143282
633.582	0.0142105
633.660	0.0141093
633.738	0.0139964
633.817	0.0142080
633.895	0.0140456
633.973	0.0140009
634.051	0.0139999
634.129	0.0138853
634.207	0.0138151
634.285	0.0138918
634.363	0.0139161
634.442	0.0137527
634.520	0.0137903
634.598	0.0137814
634.676	0.0137850
634.754	0.0136414
634.832	0.0138922
634.910	0.0138103
634.988	0.0137112
635.067	0.0139429
635.145	0.0140369
635.223	0.0141449
635.301	0.0140578
635.379	0.0141898
635.457	0.0141280
635.535	0.0141202
635.613	0.0142627
635.692	0.0143200
635.770	0.0141672
635.848	0.0141978
635.926	0.0144128
636.004	0.0143550
636.082	0.0142932
636.160	0.0143673
636.238	0.0143383
636.317	0.0142257
636.395	0.0142310
636.473	0.0141528
636.551	0.0142441
636.629	0.0143480
636.707	0.0142667
636.785	0.0142216
636.863	0.0140804
636.942	0.0142447
637.020	0.0142932
637.098	0.0142785
637.176	0.0143723
637.254	0.0143881
637.332	0.0142932
637.410	0.0143334
637.488	0.0143514
637.567	0.0143465
637.645	0.0144227
637.723	0.0143822
637.801	0.0142329
637.879	0.0143624
637.957	0.0142764
638.035	0.0142088
638.113	0.0142461
638.192	0.0143212
638.270	0.0141548
638.348	0.0142056
638.426	0.0142764
638.504	0.0141490
638.582	0.0140514
638.660	0.0139261
638.738	0.0140501
638.817	0.0139783
638.895	0.0139763
638.973	0.0140414
639.051	0.0140512
639.129	0.0138782
639.207	0.0138592
639.285	0.0140965
639.363	0.0140244
639.442	0.0139203
639.520	0.0139400
639.598	0.0137910
639.676	0.0138288
639.754	0.0139157
639.832	0.0140340
639.910	0.0140482
639.988	0.0140175
640.067	0.0139803
640.145	0.0140109
640.223	0.0139995
640.301	0.0140400
640.379	0.0142210
640.457	0.0141185
640.535	0.0141682
640.613	0.0143467
640.692	0.0143994
640.770	0.0142674
640.848	0.0143009
640.926	0.0145153
641.004	0.0145839
641.082	0.0144581
641.160	0.0146596
641.238	0.0145264
641.317	0.0144708
641.395	0.0145404
641.473	0.0143913
641.551	0.0143867
641.629	0.0143323
641.707	0.0143793
641.785	0.0144067
641.863	0.0142001
641.942	0.0143305
642.020	0.0142447
642.098	0.0142532
642.176	0.0142341
642.254	0.0140733
642.332	0.0142307
642.410	0.0142733
642.488	0.0141609
642.567	0.0140926
642.645	0.0141832
642.723	0.0142737
642.801	0.0142106
642.879	0.0140233
642.957	0.0141146
643.035	0.0140916
643.113	0.0141191
643.192	0.0141534
643.270	0.0140887
643.348	0.0140050
643.426	0.0140218
643.504	0.0138671
643.582	0.0138833
643.660	0.0139706
643.738	0.0139509
643.817	0.0139971
643.895	0.0140443
643.973	0.0139543
644.051	0.0139788
644.129	0.0141556
644.207	0.0140305
644.285	0.0140358
644.363	0.0141199
644.442	0.0140023
644.520	0.0140363
644.598	0.0140575
644.676	0.0139493
644.754	0.0140058
644.832	0.0142393
644.910	0.0141074
644.988	0.0140862
645.067	0.0141153
645.145	0.0138885
645.223	0.0138918
645.301	0.0140578
645.379	0.0141471
645.457	0.0140449
645.535	0.0142281
645.613	0.0142600
645.692	0.0141458
645.770	0.0142200
645.848	0.0143755
645.926	0.0143685
646.004	0.0142931
646.082	0.0143602
646.160	0.0143838
646.238	0.0143601
646.317	0.0144101
646.395	0.0143452
646.473	0.0144366
646.551	0.0144382
646.629	0.0143484
646.707	0.0143352
646.785	0.0142461
646.863	0.0143385
646.942	0.0143717
647.020	0.0143750
647.098	0.0142416
647.176	0.0141427
647.254	0.0141136
647.332	0.0141066
647.410	0.0141293
647.488	0.0142192
647.567	0.0140585
647.645	0.0140016
647.723	0.0139934
647.801	0.0140002
647.879	0.0139404
647.957	0.0140947
648.035	0.0141323
648.113	0.0140498
648.192	0.0140852
648.270	0.0139390
648.348	0.0140572
648.426	0.0141849
648.504	0.0141970
648.582	0.0140794
648.660	0.0142009
648.738	0.0142270
648.817	0.0142860
648.895	0.0142488
648.973	0.0142490
649.051	0.0143317
649.129	0.0142596
649.207	0.0141019
649.285	0.0141563
649.363	0.0142010
649.442	0.0142378
649.520	0.0141219
649.598	0.0142635
649.676	0.0142487
649.754	0.0142448
649.832	0.0141405
649.910	0.0142210
649.988	0.0142318
650.067	0.0141271
650.145	0.0142677
650.223	0.0143413
650.301	0.0143579
650.379	0.0142828
650.457	0.0143605
650.535	0.0143621
650.613	0.0141982
650.692	0.0142921
650.770	0.0142344
650.848	0.0141583
650.926	0.0140328
651.004	0.0140616
651.082	0.0141198
651.160	0.0141084
651.238	0.0139195
651.317	0.0139441
651.395	0.0139989
651.473	0.0139448
651.551	0.0138680
651.629	0.0139451
651.707	0.0139211
651.785	0.0138600
651.863	0.0140298
651.942	0.0140321
652.020	0.0140312
652.098	0.0138566
652.176	0.0138726
652.254	0.0140063
652.332	0.0140765
652.410	0.0140981
652.488	0.0139160
652.567	0.0140186
652.645	0.0140920
652.723	0.0140582
652.801	0.0141730
652.879	0.0140773
652.957	0.0141256
653.035	0.0140569
653.113	0.0141422
653.192	0.0141893
653.270	0.0141302
653.348	0.0141431
653.426	0.0140466
653.504	0.0140222
653.582	0.0139989
653.660	0.0141644
653.738	0.0142614
653.817	0.0139838
653.895	0.0141531
653.973	0.0142439
654.051	0.0142091
654.129	0.0140919
654.207	0.0141717
654.285	0.0143069
654.363	0.0142070
654.442	0.0142963
654.520	0.0143695
654.598	0.0144246
654.676	0.0144409
654.754	0.0145819
654.832	0.0145325
654.910	0.0144439
654.988	0.0144322
655.067	0.0144230
655.145	0.0143401
655.223	0.0142845
655.301	0.0143818
655.379	0.0142562
655.457	0.0140793
655.535	0.0141621
655.613	0.0140372
655.692	0.0140145
655.770	0.0139059
655.848	0.0139999
655.926	0.0138609
656.004	0.0138050
656.082	0.0138673
656.160	0.0140309
656.238	0.0139968
656.317	0.0139371
656.395	0.0138577
656.473	0.0140073
656.551	0.0138376
656.629	0.0139240
656.707	0.0137752
656.785	0.0140027
656.863	0.0139426
656.942	0.0139196
657.020	0.0140125
657.098	0.0139936
657.176	0.0140347
657.254	0.0138953
657.332	0.0139761
657.410	0.0138975
657.488	0.0140296
657.567	0.0140188
657.645	0.0140970
657.723	0.0141052
657.801	0.0142056
657.879	0.0141239
657.957	0.0140940
658.035	0.0140065
658.113	0.0140891
658.192	0.0141578
658.270	0.0142873
658.348	0.0143207
658.426	0.0141551
658.504	0.0141422
658.582	0.0144341
658.660	0.0145103
658.738	0.0144042
658.817	0.0143639
658.895	0.0144353
658.973	0.0145744
659.051	0.0145048
659.129	0.0145193
659.207	0.0145040
659.285	0.0143603
659.363	0.0143510
659.442	0.0145213
659.520	0.0145033
659.598	0.0144229
659.676	0.0142776
659.754	0.0143036
659.832	0.0143324
659.910	0.0143693
659.988	0.0143368
660.067	0.0143463
660.145	0.0142677
660.223	0.0142706
660.301	0.0142163
660.379	0.0142397
660.457	0.0141145
660.535	0.0142300
660.613	0.0141099
660.692	0.0141655
660.770	0.0141288
660.848	0.0141247
660.926	0.0141122
661.004	0.0141311
661.082	0.0139951
661.160	0.0139926
661.238	0.0140131
661.317	0.0138885
661.395	0.0139063
661.473	0.0139900
661.551	0.0138723
661.629	0.0139709
661.707	0.0139249
661.785	0.0138459
661.863	0.0138094
661.942	0.0137487
662.020	0.0138728
662.098	0.0138774
662.176	0.0139243
662.254	0.0138364
662.332	0.0138640
662.410	0.0138513
662.488	0.0139412
662.567	0.0140043
662.645	0.0140680
662.723	0.0140178
662.801	0.0141649
662.879	0.0142416
662.957	0.0143244
663.035	0.0142123
663.113	0.0142907
663.192	0.0145187
663.270	0.0144736
663.348	0.0145369
663.426	0.0144463
663.504	0.0147321
663.582	0.0146600
663.660	0.0145396
663.738	0.0146409
663.817	0.0146974
663.895	0.0146786
663.973	0.0145316
664.051	0.0145650
664.129	0.0144589
664.207	0.0145094
664.285	0.0143760
664.363	0.0143926
664.442	0.0144794
664.520	0.0142381
664.598	0.0142468
664.676	0.0142645
664.754	0.0141246
664.832	0.0141980
664.910	0.0140298
664.988	0.0139104
665.067	0.0138622
665.145	0.0139330
665.223	0.0137901
665.301	0.0136884
665.379	0.0136517
665.457	0.0136836
665.535	0.0135233
665.613	0.0136000
665.692	0.0135813
665.770	0.0135457
665.848	0.0135369
665.926	0.0135587
666.004	0.0135681
666.082	0.0135157
666.160	0.0135931
666.238	0.0136436
666.317	0.0137710
666.395	0.0138319
666.473	0.0137911
666.551	0.0140658
666.629	0.0140385
666.707	0.0139944
666.785	0.0140386
666.863	0.0141504
666.942	0.0143436
667.020	0.0140805
667.098	0.0143169
667.176	0.0143458
667.254	0.0144051
667.332	0.0143152
667.410	0.0143192
667.488	0.0142881
667.567	0.0144156
667.645	0.0143088
667.723	0.0143389
667.801	0.0142702
667.879	0.0142242
667.957	0.0143202
668.035	0.0141538
668.113	0.0140894
668.192	0.0139919
668.270	0.0139530
668.348	0.0139239
668.426	0.0138815
668.504	0.0138784
668.582	0.0137066
668.660	0.0136145
668.738	0.0136467
668.817	0.0136381
668.895	0.0134153
668.973	0.0137005
669.051	0.0136369
669.129	0.0135815
669.207	0.0136715
669.285	0.0136541
669.363	0.0137440
669.442	0.0137971
669.520	0.0138984
669.598	0.0141022
669.676	0.0140072
669.754	0.0140596
669.832	0.0142215
669.910	0.0143458
669.988	0.0145528
670.067	0.0145387
670.145	0.0146709
670.223	0.0146120
670.301	0.0146983
670.379	0.0147404
670.457	0.0147398
670.535	0.0146171
670.613	0.0146980
670.692	0.0147311
670.770	0.0145060
670.848	0.0143684
670.926	0.0143993
671.004	0.0143354
671.082	0.0141908
671.160	0.0140732
671.238	0.0141833
671.317	0.0140203
671.395	0.0139832
671.473	0.0138869
671.551	0.0140494
671.629	0.0140803
671.707	0.0139381
671.785	0.0140388
671.863	0.0140758
671.942	0.0140841
672.020	0.0141187
672.098	0.0142995
672.176	0.0143606
672.254	0.0143242
672.332	0.0143707
672.410	0.0145174
672.488	0.0146224
672.567	0.0146508
672.645	0.0145919
672.723	0.0143927
672.801	0.0146023
672.879	0.0146038
672.957	0.0145519
673.035	0.0145876
673.113	0.0144317
673.192	0.0142619
673.270	0.0142614
673.348	0.0142138
673.426	0.0143742
673.504	0.0141259
673.582	0.0139979
673.660	0.0139463
673.738	0.0137374
673.817	0.0137222
673.895	0.0137492
673.973	0.0137057
674.051	0.0136962
674.129	0.0135345
674.207	0.0134612
674.285	0.0135274
674.363	0.0134132
674.442	0.0135678
674.520	0.0136758
674.598	0.0137988
674.676	0.0137884
674.754	0.0138595
674.832	0.0138036
674.910	0.0139386
674.988	0.0140265
675.067	0.0140374
675.145	0.0142139
675.223	0.0145007
675.301	0.0144251
675.379	0.0144649
675.457	0.0144959
675.535	0.0146468
675.613	0.0145777
675.692	0.0145258
675.770	0.0146497
675.848	0.0146164
675.926	0.0145176
676.004	0.0145701
676.082	0.0144220
676.160	0.0144505
676.238	0.0143666
676.317	0.0142670
676.395	0.0142947
676.473	0.0142908
676.551	0.0142252
676.629	0.0142502
676.707	0.0141660
676.785	0.0141303
676.863	0.0139723
676.942	0.0139307
677.020	0.0140291
677.098	0.0139177
677.176	0.0138844
677.254	0.0139037
677.332	0.0139317
677.410	0.0139677
677.488	0.0137907
677.567	0.0138334
677.645	0.0140947
677.723	0.0140030
677.801	0.0139294
677.879	0.0140052
677.957	0.0140801
678.035	0.0139949
678.113	0.0141232
678.192	0.0140433
678.270	0.0139771
678.348	0.0139442
678.426	0.0139958
678.504	0.0140228
678.582	0.0140680
678.660	0.0139385
678.738	0.0140066
678.817	0.0139660
678.895	0.0140126
678.973	0.0140220
679.051	0.0141100
679.129	0.0141228
679.207	0.0141249
679.285	0.0139610
679.363	0.0140513
679.442	0.0141781
679.520	0.0140314
679.598	0.0141752
679.676	0.0143088
679.754	0.0139449
679.832	0.0140823
679.910	0.0141393
679.988	0.0143156
680.067	0.0141962
680.145	0.0143413
680.223	0.0142955
680.301	0.0142796
680.379	0.0144353
680.457	0.0145171
680.535	0.0145248
680.613	0.0145052
680.692	0.0146262
680.770	0.0145448
680.848	0.0145872
680.926	0.0145509
681.004	0.0146298
681.082	0.0145921
681.160	0.0144351
681.238	0.0144897
681.317	0.0144250
681.395	0.0144406
681.473	0.0145306
681.551	0.0142117
681.629	0.0142024
681.707	0.0142059
681.785	0.0142116
681.863	0.0142142
681.942	0.0138838
682.020	0.0139878
682.098	0.0138874
682.176	0.0137036
682.254	0.0137280
682.332	0.0137318
682.410	0.0136137
682.488	0.0136112
682.567	0.0134740
682.645	0.0133269
682.723	0.0133324
682.801	0.0136263
682.879	0.0133704
682.957	0.0133365
683.035	0.0134241
683.113	0.0135551
683.192	0.0136031
683.270	0.0136359
683.348	0.0137885
683.426	0.0137894
683.504	0.0138582
683.582	0.0139732
683.660	0.0140665
683.738	0.0142566
683.817	0.0142298
683.895	0.0144478
683.973	0.0145780
684.051	0.0146500
684.129	0.0147679
684.207	0.0147871
684.285	0.0148814
684.363	0.0147947
684.442	0.0148874
684.520	0.0149112
684.598	0.0148682
684.676	0.0146817
684.754	0.0147876
684.832	0.0146951
684.910	0.0145876
684.988	0.0146416
685.067	0.0144666
685.145	0.0143730
685.223	0.0144442
685.301	0.0143256
685.379	0.0140494
685.457	0.0139833
685.535	0.0140499
685.613	0.0138477
685.692	0.0138674
685.770	0.0136333
685.848	0.0137614
685.926	0.0136567
686.004	0.0136515
686.082	0.0134393
686.160	0.0136305
686.238	0.0137337
686.317	0.0136288
686.395	0.0135217
686.473	0.0135608
686.551	0.0135605
686.629	0.0135820
686.707	0.0136253
686.785	0.0136671
686.863	0.0136194
686.942	0.0135942
687.020	0.0135789
687.098	0.0136762
687.176	0.0135246
687.254	0.0137261
687.332	0.0138027
687.410	0.0138095
687.488	0.0138171
687.567	0.0139327
687.645	0.0137929
687.723	0.0139326
687.801	0.0139271
687.879	0.0140127
687.957	0.0141031
688.035	0.0142155
688.113	0.0142583
688.192	0.0143917
688.270	0.0144875
688.348	0.0144293
688.426	0.0145869
688.504	0.0145970
688.582	0.0145663
688.660	0.0148181
688.738	0.0148409
688.817	0.0147355
688.895	0.0147353
688.973	0.0148133
689.051	0.0146827
689.129	0.0145618
689.207	0.0147009
689.285	0.0147592
689.363	0.0145577
689.442	0.0145908
689.520	0.0145681
689.598	0.0146020
689.676	0.0142340
689.754	0.0143487
689.832	0.0142440
689.910	0.0143172
689.988	0.0141978
690.067	0.0142179
690.145	0.0142378
690.223	0.0139813
690.301	0.0139926
690.379	0.0140491
690.457	0.0141137
690.535	0.0139112
690.613	0.0137788
690.692	0.0138490
690.770	0.0139171
690.848	0.0137926
690.926	0.0137803
691.004	0.0136832
691.082	0.0136662
691.160	0.0135631
691.238	0.0136494
691.317	0.0135567
691.395	0.0134690
691.473	0.0134007
691.551	0.0134179
691.629	0.0136008
691.707	0.0136297
691.785	0.0136502
691.863	0.0136317
691.942	0.0136824
692.020	0.0138130
692.098	0.0138844
692.176	0.0138560
692.254	0.0141664
692.332	0.0141838
692.410	0.0142622
692.488	0.0142252
692.567	0.0143305
692.645	0.0146509
692.723	0.0146925
692.801	0.0146412
692.879	0.0147738
692.957	0.0148784
693.035	0.0149922
693.113	0.0152686
693.192	0.0150441
693.270	0.0152398
693.348	0.0153027
693.426	0.0151896
693.504	0.0151203
693.582	0.0151391
693.660	0.0152679
693.738	0.0151743
693.817	0.0150979
693.895	0.0149525
693.973	0.0149542
694.051	0.0149078
694.129	0.0147287
694.207	0.0147329
694.285	0.0146612
694.363	0.0145089
694.442	0.0145877
694.520	0.0142782
694.598	0.0142419
694.676	0.0141824
694.754	0.0141759
694.832	0.0140212
694.910	0.0139551
694.988	0.0138690
695.067	0.0138842
695.145	0.0136315
695.223	0.0137149
695.301	0.0136054
695.379	0.0135685
695.457	0.0134771
695.535	0.0133530
695.613	0.0134069
695.692	0.0134000
695.770	0.0134383
695.848	0.0132710
695.926	0.0130990
696.004	0.0131584
696.082	0.0131963
696.160	0.0132341
696.238	0.0131451
696.317	0.0132742
696.395	0.0132423
696.473	0.0132613
696.551	0.0133300
696.629	0.0133226
696.707	0.0134557
696.785	0.0134838
696.863	0.0137302
696.942	0.0137341
697.020	0.0138995
697.098	0.0138000
697.176	0.0139033
697.254	0.0140582
697.332	0.0141147
697.410	0.0142613
697.488	0.0143359
697.567	0.0146111
697.645	0.0146519
697.723	0.0147392
697.801	0.0147059
697.879	0.0146426
697.957	0.0149693
698.035	0.0149194
698.113	0.0149915
698.192	0.0150349
698.270	0.0148853
698.348	0.0150443
698.426	0.0148657
698.504	0.0149684
698.582	0.0148490
698.660	0.0148257
698.738	0.0147605
698.817	0.0145298
698.895	0.0145767
698.973	0.0142899
699.051	0.0142571
699.129	0.0142091
699.207	0.0139783
699.285	0.0139486
699.363	0.0138524
699.442	0.0137674
699.520	0.0137431
699.598	0.0137435
699.676	0.0137006
699.754	0.0134969
699.832	0.0136188
699.910	0.0134214
699.988	0.0134000
700.067	0.0134366
700.145	0.0133463
700.223	0.0134509
700.301	0.0134269
700.379	0.0134719
700.457	0.0135296
700.535	0.0135995
700.613	0.0135098
700.692	0.0136017
700.770	0.0136433
700.848	0.0136877
700.926	0.0138075
701.004	0.0137322
701.082	0.0137478
701.160	0.0137595
701.238	0.0137373
701.317	0.0137086
701.395	0.0139106
701.473	0.0138972
701.551	0.0139488
701.629	0.0140800
701.707	0.0142308
701.785	0.0140800
701.863	0.0140792
701.942	0.0142176
702.020	0.0141537
702.098	0.0144146
702.176	0.0142961
702.254	0.0144488
702.332	0.0145838
702.410	0.0145989
702.488	0.0147106
702.567	0.0145802
702.645	0.0147011
702.723	0.0148721
702.801	0.0147082
702.879	0.0147912
702.957	0.0147821
703.035	0.0147360
703.113	0.0147205
703.192	0.0147109
703.270	0.0147165
703.348	0.0145416
703.426	0.0145428
703.504	0.0144730
703.582	0.0145896
703.660	0.0144448
703.738	0.0144813
703.817	0.0144461
703.895	0.0143332
703.973	0.0143138
704.051	0.0142097
704.129	0.0142696
704.207	0.0142306
704.285	0.0141185
704.363	0.0140054
704.442	0.0139532
704.520	0.0140042
704.598	0.0139470
704.676	0.0139658
704.754	0.0138612
704.832	0.0138146
704.910	0.0137454
704.988	0.0137830
705.067	0.0138742
705.145	0.0138191
705.223	0.0136384
705.301	0.0137446
705.379	0.0138528
705.457	0.0138388
705.535	0.0138734
705.613	0.0138706
705.692	0.0139722
705.770	0.0137561
705.848	0.0137172
705.926	0.0138852
706.004	0.0138900
706.082	0.0138277
706.160	0.0137204
706.238	0.0138058
706.317	0.0138490
706.395	0.0138358
706.473	0.0139053
706.551	0.0140572
706.629	0.0141144
706.707	0.0141231
706.785	0.0140818
706.863	0.0142113
706.942	0.0143629
707.020	0.0143977
707.098	0.0144692
707.176	0.0146046
707.254	0.0145513
707.332	0.0145917
707.410	0.0144825
707.488	0.0146188
707.567	0.0148828
707.645	0.0145055
707.723	0.0145335
707.801	0.0145423
707.879	0.0145582
707.957	0.0144989
708.035	0.0145073
708.113	0.0144707
708.192	0.0143793
708.270	0.0144958
708.348	0.0143472
708.426	0.0142130
708.504	0.0143075
708.582	0.0142700
708.660	0.0143236
708.738	0.0141142
708.817	0.0140270
708.895	0.0142219
708.973	0.0141707
709.051	0.0140462
709.129	0.0140926
709.207	0.0141019
709.285	0.0140673
709.363	0.0138506
709.442	0.0140710
709.520	0.0139841
709.598	0.0137727
709.676	0.0140573
709.754	0.0139605
709.832	0.0140450
709.910	0.0140257
709.988	0.0139043
710.067	0.0137950
710.145	0.0138921
710.223	0.0137910
710.301	0.0139891
710.379	0.0137607
710.457	0.0137793
710.535	0.0139260
710.613	0.0137455
710.692	0.0135993
710.770	0.0136185
710.848	0.0139203
710.926	0.0137942
711.004	0.0136898
711.082	0.0137465
711.160	0.0137148
711.238	0.0138285
711.317	0.0138974
711.395	0.0137006
711.473	0.0138164
711.551	0.0138345
711.629	0.0138834
711.707	0.0139103
711.785	0.0141033
711.863	0.0141152
711.942	0.0139658
712.020	0.0139976
712.098	0.0143202
712.176	0.0142184
712.254	0.0141824
712.332	0.0142909
712.410	0.0142187
712.488	0.0144186
712.567	0.0142973
712.645	0.0143859
712.723	0.0143311
712.801	0.0143142
712.879	0.0142226
712.957	0.0144627
713.035	0.0143620
713.113	0.0141375
713.192	0.0143172
713.270	0.0141875
713.348	0.0142342
713.426	0.0143156
713.504	0.0143344
713.582	0.0143225
713.660	0.0143336
713.738	0.0144046
713.817	0.0142602
713.895	0.0142288
713.973	0.0142268
714.051	0.0142539
714.129	0.0142750
714.207	0.0143228
714.285	0.0141260
714.363	0.0141305
714.442	0.0141634
714.520	0.0142345
714.598	0.0142724
714.676	0.0142053
714.754	0.0142746
714.832	0.0141201
714.910	0.0142197
714.988	0.0142501
715.067	0.0142165
715.145	0.0141955
715.223	0.0140858
715.301	0.0141941
715.379	0.0141683
715.457	0.0141761
715.535	0.0141463
715.613	0.0141049
715.692	0.0141076
715.770	0.0140594
715.848	0.0140320
715.926	0.0141006
716.004	0.0141444
716.082	0.0141936
716.160	0.0142493
716.238	0.0142616
716.317	0.0143967
716.395	0.0143361
716.473	0.0143186
716.551	0.0143895
716.629	0.0143758
716.707	0.0143989
716.785	0.0144529
716.863	0.0144030
716.942	0.0144436
717.020	0.0143401
717.098	0.0143559
717.176	0.0143089
717.254	0.0142920
717.332	0.0142442
717.410	0.0141342
717.488	0.0141120
717.567	0.0139864
717.645	0.0140183
717.723	0.0140973
717.801	0.0139351
717.879	0.0140112
717.957	0.0140615
718.035	0.0139925
718.113	0.0139334
718.192	0.0140548
718.270	0.0141606
718.348	0.0141468
718.426	0.0141486
718.504	0.0142403
718.582	0.0142771
718.660	0.0143014
718.738	0.0143476
718.817	0.0143868
718.895	0.0143930
718.973	0.0143842
719.051	0.0144109
719.129	0.0143218
719.207	0.0144802
719.285	0.0144254
719.363	0.0144151
719.442	0.0145054
719.520	0.0143614
719.598	0.0144369
719.676	0.0143919
719.754	0.0143983
719.832	0.0142702
719.910	0.0144293
719.988	0.0143915
720.067	0.0143012
720.145	0.0141932
720.223	0.0142030
720.301	0.0142906
720.379	0.0141330
720.457	0.0141405
720.535	0.0142248
720.613	0.0141897
720.692	0.0142370
720.770	0.0142726
720.848	0.0140652
720.926	0.0141705
721.004	0.0140098
721.082	0.0141700
721.160	0.0142565
721.238	0.0141171
721.317	0.0143161
721.395	0.0142097
721.473	0.0142137
721.551	0.0141116
721.629	0.0141391
721.707	0.0140323
721.785	0.0142702
721.863	0.0143520
721.942	0.0141908
722.020	0.0141247
722.098	0.0140445
722.176	0.0139936
722.254	0.0139882
722.332	0.0139026
722.410	0.0138444
722.488	0.0140191
722.567	0.0138873
722.645	0.0138821
722.723	0.0138950
722.801	0.0136869
722.879	0.0137924
722.957	0.0138641
723.035	0.0136821
723.113	0.0137801
723.192	0.0139433
723.270	0.0138310
723.348	0.0137722
723.426	0.0140662
723.504	0.0140006
723.582	0.0139382
723.660	0.0140194
723.738	0.0140390
723.817	0.0140881
723.895	0.0141302
723.973	0.0142728
724.051	0.0142136
724.129	0.0141188
724.207	0.0143917
724.285	0.0142322
724.363	0.0141202
724.442	0.0141122
724.520	0.0143110
724.598	0.0141898
724.676	0.0141904
724.754	0.0143058
724.832	0.0143078
724.910	0.0142285
724.988	0.0141057
725.067	0.0141447
725.145	0.0140613
725.223	0.0141571
725.301	0.0141277
725.379	0.0140879
725.457	0.0138892
725.535	0.0140440
725.613	0.0140729
725.692	0.0141207
725.770	0.0139801
725.848	0.0140395
725.926	0.0140745
726.004	0.0140670
726.082	0.0141012
726.160	0.0140100
726.238	0.0140877
726.317	0.0139964
726.395	0.0140837
726.473	0.0139584
726.551	0.0139325
726.629	0.0140372
726.707	0.0138326
726.785	0.0139909
726.863	0.0139707
726.942	0.0139523
727.020	0.0139528
727.098	0.0139426
727.176	0.0138950
727.254	0.0141026
727.332	0.0140643
727.410	0.0139812
727.488	0.0139503
727.567	0.0140407
727.645	0.0139708
727.723	0.0140445
727.801	0.0142312
727.879	0.0142017
727.957	0.0141369
728.035	0.0140739
728.113	0.0142609
728.192	0.0142966
728.270	0.0142552
728.348	0.0142654
728.426	0.0142833
728.504	0.0142361
728.582	0.0142620
728.660	0.0142209
728.738	0.0142047
728.817	0.0142155
728.895	0.0141591
728.973	0.0141425
729.051	0.0142154
729.129	0.0141750
729.207	0.0142132
729.285	0.0141232
729.363	0.0141148
729.442	0.0142473
729.520	0.0143314
729.598	0.0141158
729.676	0.0139980
729.754	0.0141089
729.832	0.0142535
729.910	0.0142298
729.988	0.0141134
730.067	0.0141987
730.145	0.0141206
730.223	0.0140563
730.301	0.0141608
730.379	0.0140177
730.457	0.0139950
730.535	0.0141921
730.613	0.0141325
730.692	0.0139903
730.770	0.0139751
730.848	0.0141110
730.926	0.0139922
731.004	0.0140522
731.082	0.0140535
731.160	0.0141313
731.238	0.0141422
731.317	0.0142220
731.395	0.0140569
731.473	0.0141672
731.551	0.0140993
731.629	0.0141411
731.707	0.0142210
731.785	0.0140253
731.863	0.0140630
731.942	0.0141800
732.020	0.0142340
732.098	0.0142176
732.176	0.0141973
732.254	0.0142393
732.332	0.0143095
732.410	0.0141367
732.488	0.0141372
732.567	0.0141670
732.645	0.0142307
732.723	0.0140253
732.801	0.0140907
732.879	0.0141818
732.957	0.0142203
733.035	0.0142902
733.113	0.0142650
733.192	0.0141187
733.270	0.0142692
733.348	0.0143314
733.426	0.0143904
733.504	0.0143255
733.582	0.0142214
733.660	0.0142049
733.738	0.0141893
733.817	0.0141943
733.895	0.0141312
733.973	0.0141203
734.051	0.0141203
734.129	0.0140282
734.207	0.0141176
734.285	0.0141769
734.363	0.0141119
734.442	0.0140185
734.520	0.0141499
734.598	0.0140667
734.676	0.0140845
734.754	0.0141228
734.832	0.0139906
734.910	0.0140637
734.988	0.0141202
735.067	0.0142309
735.145	0.0141811
735.223	0.0141824
735.301	0.0142696
735.379	0.0142516
735.457	0.0142160
735.535	0.0140392
735.613	0.0140600
735.692	0.0141621
735.770	0.0141882
735.848	0.0142058
735.926	0.0140327
736.004	0.0139902
736.082	0.0140356
736.160	0.0140871
736.238	0.0141655
736.317	0.0141651
736.395	0.0139931
736.473	0.0140546
736.551	0.0141234
736.629	0.0139837
736.707	0.0139133
736.785	0.0139805
736.863	0.0139575
736.942	0.0139877
737.020	0.0141682
737.098	0.0141092
737.176	0.0139516
737.254	0.0139482
737.332	0.0139176
737.410	0.0140223
737.488	0.0140724
737.567	0.0140944
737.645	0.0141377
737.723	0.0140054
737.801	0.0140406
737.879	0.0140213
737.957	0.0138483
738.035	0.0139333
738.113	0.0140198
738.192	0.0139958
738.270	0.0138794
738.348	0.0138210
738.426	0.0140276
738.504	0.0140047
738.582	0.0139712
738.660	0.0139653
738.738	0.0140394
738.817	0.0141019
738.895	0.0141307
738.973	0.0140543
739.051	0.0141151
739.129	0.0141223
739.207	0.0141563
739.285	0.0141025
739.363	0.0141192
739.442	0.0139550
739.520	0.0140565
739.598	0.0141757
739.676	0.0140865
739.754	0.0140317
739.832	0.0141315
739.910	0.0140655
739.988	0.0139282
740.067	0.0140208
740.145	0.0139865
740.223	0.0140914
740.301	0.0139946
740.379	0.0141008
740.457	0.0139629
740.535	0.0141067
740.613	0.0142029
740.692	0.0141560
740.770	0.0141401
740.848	0.0142147
740.926	0.0140867
741.004	0.0140283
741.082	0.0139988
741.160	0.0140844
741.238	0.0140494
741.317	0.0139143
741.395	0.0139689
741.473	0.0139391
741.551	0.0140464
741.629	0.0140213
741.707	0.0139261
741.785	0.0140697
741.863	0.0139700
741.942	0.0139430
742.020	0.0138512
742.098	0.0138764
742.176	0.0139636
742.254	0.0139500
742.332	0.0139344
742.410	0.0139626
742.488	0.0139622
742.567	0.0139424
742.645	0.0139977
742.723	0.0140099
742.801	0.0140509
742.879	0.0140970
742.957	0.0141344
743.035	0.0141416
743.113	0.0139188
743.192	0.0140948
743.270	0.0141242
743.348	0.0140228
743.426	0.0139405
743.504	0.0140432
743.582	0.0139384
743.660	0.0139499
743.738	0.0141108
743.817	0.0139960
743.895	0.0139401
743.973	0.0139304
744.051	0.0139996
744.129	0.0138563
744.207	0.0140282
744.285	0.0138901
744.363	0.0139639
744.442	0.0140392
744.520	0.0140086
744.598	0.0138866
744.676	0.0138981
744.754	0.0142135
744.832	0.0141385
744.910	0.0139897
744.988	0.0141450
745.067	0.0139880
745.145	0.0140305
745.223	0.0141227
745.301	0.0141475
745.379	0.0141518
745.457	0.0142467
745.535	0.0141385
745.613	0.0140834
745.692	0.0142033
745.770	0.0140895
745.848	0.0143466
745.926	0.0142336
746.004	0.0141975
746.082	0.0141784
746.160	0.0142763
746.238	0.0142860
746.317	0.0142609
746.395	0.0143211
746.473	0.0143837
746.551	0.0142457
746.629	0.0143645
746.707	0.0143736
746.785	0.0143144
746.863	0.0143324
746.942	0.0142653
747.020	0.0143008
747.098	0.0142234
747.176	0.0142197
747.254	0.0142313
747.332	0.0142281
747.410	0.0142498
747.488	0.0144197
747.567	0.0142491
747.645	0.0141483
747.723	0.0141045
747.801	0.0140592
747.879	0.0141638
747.957	0.0140493
748.035	0.0139735
748.113	0.0141026
748.192	0.0141464
748.270	0.0140688
748.348	0.0140066
748.426	0.0140634
748.504	0.0141519
748.582	0.0142287
748.660	0.0141556
748.738	0.0141225
748.817	0.0140481
748.895	0.0141843
748.973	0.0142612
749.051	0.0142979
749.129	0.0144157
749.207	0.0144627
749.285	0.0144211
749.363	0.0143394
749.442	0.0142536
749.520	0.0144225
749.598	0.0143402
749.676	0.0142844
749.754	0.0143076
749.832	0.0143999
749.910	0.0143445
749.988	0.0141804
750.067	0.0144518
750.145	0.0144114
750.223	0.0142227
750.301	0.0141726
750.379	0.0142740
750.457	0.0141870
750.535	0.0143892
750.613	0.0142445
750.692	0.0141837
750.770	0.0142079
750.848	0.0142028
750.926	0.0141750
751.004	0.0140265
751.082	0.0142136
751.160	0.0141798
751.238	0.0140900
751.317	0.0143134
751.395	0.0140663
751.473	0.0141603
751.551	0.0140678
751.629	0.0141983
751.707	0.0141627
751.785	0.0140924
751.863	0.0139973
751.942	0.0139841
752.020	0.0141154
752.098	0.0141144
752.176	0.0139798
752.254	0.0139967
752.332	0.0139414
752.410	0.0139357
752.488	0.0137632
752.567	0.0140395
752.645	0.0139320
752.723	0.0140063
752.801	0.0139238
752.879	0.0139866
752.957	0.0138916
753.035	0.0138286
753.113	0.0140587
753.192	0.0141513
753.270	0.0139591
753.348	0.0139240
753.426	0.0140446
753.504	0.0139609
753.582	0.0139825
753.660	0.0141178
753.738	0.0142337
753.817	0.0141335
753.895	0.0139851
753.973	0.0140965
754.051	0.0141998
754.129	0.0141705
754.207	0.0141782
754.285	0.0142068
754.363	0.0141322
754.442	0.0141686
754.520	0.0141330
754.598	0.0141550
754.676	0.0141542
754.754	0.0141001
754.832	0.0142226
754.910	0.0140055
754.988	0.0140622
755.067	0.0140247
755.145	0.0140933
755.223	0.0141006
755.301	0.0140469
755.379	0.0141459
755.457	0.0140621
755.535	0.0139900
755.613	0.0140191
755.692	0.0140895
755.770	0.0141238
755.848	0.0139503
755.926	0.0140214
756.004	0.0139508
756.082	0.0139690
756.160	0.0140179
756.238	0.0140448
756.317	0.0140556
756.395	0.0139473
756.473	0.0142145
756.551	0.0140229
756.629	0.0140044
756.707	0.0140645
756.785	0.0141311
756.863	0.0140563
756.942	0.0141731
757.020	0.0140170
757.098	0.0140709
757.176	0.0141550
757.254	0.0141865
757.332	0.0141643
757.410	0.0141029
757.488	0.0141101
757.567	0.0141173
757.645	0.0141099
757.723	0.0140519
757.801	0.0140337
757.879	0.0141568
757.957	0.0140161
758.035	0.0140468
758.113	0.0141116
758.192	0.0141515
758.270	0.0141037
758.348	0.0140293
758.426	0.0141651
758.504	0.0142216
758.582	0.0140207
758.660	0.0140362
758.738	0.0142246
758.817	0.0140716
758.895	0.0139723
758.973	0.0141499
759.051	0.0141962
759.129	0.0140822
759.207	0.0140601
759.285	0.0140336
759.363	0.0140611
759.442	0.0140065
759.520	0.0140003
759.598	0.0140775
759.676	0.0140572
759.754	0.0141441
759.832	0.0139932
759.910	0.0141094
759.988	0.0139922
760.067	0.0139825
760.145	0.0139899
760.223	0.0139433
760.301	0.0142087
760.379	0.0141343
760.457	0.0140709
760.535	0.0141045
760.613	0.0141026
760.692	0.0141290
760.770	0.0141361
760.848	0.0141547
760.926	0.0141519
761.004	0.0140462
761.082	0.0141320
761.160	0.0141787
761.238	0.0141176
761.317	0.0141313
761.395	0.0140910
761.473	0.0142146
761.551	0.0141247
761.629	0.0140620
761.707	0.0139785
761.785	0.0140025
761.863	0.0141190
761.942	0.0140221
762.020	0.0140173
762.098	0.0140038
762.176	0.0141533
762.254	0.0140868
762.332	0.0140868
762.410	0.0138777
762.488	0.0139519
762.567	0.0141215
762.645	0.0139083
762.723	0.0140014
762.801	0.0140678
762.879	0.0140831
762.957	0.0141137
763.035	0.0140314
763.113	0.0140893
763.192	0.0140632
763.270	0.0140314
763.348	0.0140251
763.426	0.0139751
763.504	0.0140965
763.582	0.0140244
763.660	0.0140158
763.738	0.0140073
763.817	0.0139185
763.895	0.0139503
763.973	0.0140165
764.051	0.0140799
764.129	0.0140412
764.207	0.0139677
764.285	0.0139689
764.363	0.0140671
764.442	0.0141318
764.520	0.0139658
764.598	0.0139517
764.676	0.0138436
764.754	0.0138896
764.832	0.0138981
764.910	0.0140656
764.988	0.0140214
765.067	0.0140453
765.145	0.0139673
765.223	0.0140351
765.301	0.0139707
765.379	0.0139503
765.457	0.0139561
765.535	0.0139543
765.613	0.0139622
765.692	0.0138612
765.770	0.0140036
765.848	0.0139716
765.926	0.0140540
766.004	0.0138036
766.082	0.0138383
766.160	0.0137532
766.238	0.0139043
766.317	0.0139647
766.395	0.0139665
766.473	0.0140576
766.551	0.0140986
766.629	0.0140179
766.707	0.0142764
766.785	0.0139861
766.863	0.0141479
766.942	0.0141644
767.020	0.0142477
767.098	0.0142805
767.176	0.0141566
767.254	0.0141916
767.332	0.0142028
767.410	0.0142175
767.488	0.0142387
767.567	0.0143904
767.645	0.0141637
767.723	0.0142519
767.801	0.0142132
767.879	0.0141181
767.957	0.0140686
768.035	0.0141839
768.113	0.0142534
768.192	0.0141547
768.270	0.0140485
768.348	0.0141033
768.426	0.0141158
768.504	0.0141171
768.582	0.0141661
768.660	0.0139969
768.738	0.0142423
768.817	0.0138783
768.895	0.0140941
768.973	0.0140112
769.051	0.0141259
769.129	0.0139809
769.207	0.0141015
769.285	0.0140483
769.363	0.0140217
769.442	0.0139758
769.520	0.0141329
769.598	0.0141273
769.676	0.0140669
769.754	0.0139484
769.832	0.0138778
769.910	0.0141787
769.988	0.0140848
770.067	0.0140285
770.145	0.0140546
770.223	0.0140193
770.301	0.0140662
770.379	0.0141675
770.457	0.0141179
770.535	0.0141936
770.613	0.0142208
770.692	0.0141639
770.770	0.0142087
770.848	0.0142350
770.926	0.0141013
771.004	0.0142160
771.082	0.0141745
771.160	0.0143404
771.238	0.0142348
771.317	0.0143174
771.395	0.0141800
771.473	0.0142120
771.551	0.0141620
771.629	0.0141627
771.707	0.0143752
771.785	0.0142546
771.863	0.0142606
771.942	0.0141879
772.020	0.0142503
772.098	0.0141049
772.176	0.0141428
772.254	0.0141466
772.332	0.0142490
772.410	0.0142174
772.488	0.0141489
772.567	0.0141032
772.645	0.0142212
772.723	0.0143024
772.801	0.0141828
772.879	0.0141782
772.957	0.0141776
773.035	0.0142396
773.113	0.0142004
773.192	0.0141753
773.270	0.0141592
773.348	0.0142982
773.426	0.0143400
773.504	0.0142531
773.582	0.0140949
773.660	0.0141724
773.738	0.0142663
773.817	0.0142083
773.895	0.0139980
773.973	0.0142339
774.051	0.0141474
774.129	0.0141462
774.207	0.0140568
774.285	0.0140847
774.363	0.0140955
774.442	0.0140185
774.520	0.0141785
774.598	0.0141237
774.676	0.0141020
774.754	0.0141664
774.832	0.0141697
774.910	0.0142271
774.988	0.0140219
775.067	0.0142796
775.145	0.0142278
775.223	0.0141431
775.301	0.0141010
775.379	0.0140356
775.457	0.0141682
775.535	0.0142342
775.613	0.0141915
775.692	0.0142110
775.770	0.0141404
775.848	0.0142387
775.926	0.0141862
776.004	0.0140836
776.082	0.0141560
776.160	0.0141060
776.238	0.0140202
776.317	0.0141507
776.395	0.0141238
776.473	0.0140502
776.551	0.0140659
776.629	0.0141313
776.707	0.0139536
776.785	0.0140063
776.863	0.0141377
776.942	0.0140308
777.020	0.0140769
777.098	0.0141167
777.176	0.0139241
777.254	0.0139687
777.332	0.0140047
777.410	0.0140401
777.488	0.0139596
777.567	0.0139218
777.645	0.0139836
777.723	0.0139146
777.801	0.0139943
777.879	0.0138820
777.957	0.0138605
778.035	0.0139539
778.113	0.0140094
778.192	0.0140280
778.270	0.0140220
778.348	0.0140273
778.426	0.0140512
778.504	0.0139511
778.582	0.0140309
778.660	0.0140642
778.738	0.0140401
778.817	0.0140356
778.895	0.0141262
778.973	0.0140462
779.051	0.0140260
779.129	0.0140759
779.207	0.0139278
779.285	0.0141167
779.363	0.0142244
779.442	0.0140570
779.520	0.0139463
779.598	0.0141467
779.676	0.0142214
779.754	0.0140227
779.832	0.0140215
779.910	0.0141922
779.988	0.0140704
780.067	0.0139497
780.145	0.0140578
780.223	0.0141214
780.301	0.0140817
780.379	0.0140934
780.457	0.0140768
780.535	0.0141270
780.613	0.0141007
780.692	0.0141094
780.770	0.0141496
780.848	0.0142163
780.926	0.0142081
781.004	0.0140662
781.082	0.0141206
781.160	0.0141598
781.238	0.0142273
781.317	0.0143750
781.395	0.0143344
781.473	0.0141135
781.551	0.0141064
781.629	0.0141306
781.707	0.0142941
781.785	0.0141946
781.863	0.0142188
781.942	0.0140996
782.020	0.0142529
782.098	0.0143139
782.176	0.0141694
782.254	0.0141634
782.332	0.0141306
782.410	0.0142623
782.488	0.0143115
782.567	0.0141306
782.645	0.0140813
782.723	0.0141752
782.801	0.0141919
782.879	0.0141451
782.957	0.0140522
783.035	0.0141271
783.113	0.0142805
783.192	0.0142451
783.270	0.0140506
783.348	0.0140666
783.426	0.0141755
783.504	0.0142696
783.582	0.0141969
783.660	0.0141990
783.738	0.0141393
783.817	0.0140193
783.895	0.0141277
783.973	0.0141561
784.051	0.0141576
784.129	0.0141470
784.207	0.0143660
784.285	0.0142465
784.363	0.0143080
784.442	0.0143026
784.520	0.0142109
784.598	0.0143638
784.676	0.0142429
784.754	0.0142113
784.832	0.0142406
784.910	0.0142255
784.988	0.0142593
785.067	0.0141016
785.145	0.0140350
785.223	0.0141589
785.301	0.0141191
785.379	0.0142123
785.457	0.0141734
785.535	0.0140192
785.613	0.0141595
785.692	0.0141814
785.770	0.0141264
785.848	0.0140731
785.926	0.0139937
786.004	0.0140831
786.082	0.0142230
786.160	0.0141395
786.238	0.0141209
786.317	0.0140561
786.395	0.0141006
786.473	0.0141373
786.551	0.0141249
786.629	0.0141479
786.707	0.0139893
786.785	0.0141830
786.863	0.0141304
786.942	0.0141673
787.020	0.0142303
787.098	0.0142321
787.176	0.0141836
787.254	0.0141565
787.332	0.0141046
787.410	0.0142081
787.488	0.0141502
787.567	0.0142110
787.645	0.0142191
787.723	0.0141210
787.801	0.0141141
787.879	0.0141068
787.957	0.0142668
788.035	0.0141921
788.113	0.0141527
788.192	0.0141715
788.270	0.0142571
788.348	0.0140598
788.426	0.0141074
788.504	0.0141471
788.582	0.0141694
788.660	0.0142667
788.738	0.0142637
788.817	0.0141805
788.895	0.0142712
788.973	0.0141409
789.051	0.0142565
789.129	0.0141868
789.207	0.0142891
789.285	0.0142853
789.363	0.0143551
789.442	0.0143500
789.520	0.0143802
789.598	0.0144549
789.676	0.0144082
789.754	0.0144272
789.832	0.0143417
789.910	0.0143172
789.988	0.0143028
790.067	0.0143324
790.145	0.0145013
790.223	0.0143018
790.301	0.0142612
790.379	0.0142692
790.457	0.0141761
790.535	0.0143184
790.613	0.0143035
790.692	0.0142139
790.770	0.0141631
790.848	0.0142081
790.926	0.0143603
791.004	0.0141405
791.082	0.0140623
791.160	0.0142395
791.238	0.0142001
791.317	0.0141662
791.395	0.0142380
791.473	0.0141499
791.551	0.0142970
791.629	0.0142993
791.707	0.0142920
791.785	0.0142686
791.863	0.0141988
791.942	0.0141160
792.020	0.0141319
792.098	0.0143761
792.176	0.0142805
792.254	0.0142564
792.332	0.0140555
792.410	0.0142458
792.488	0.0140765
792.567	0.0140559
792.645	0.0141606
792.723	0.0142352
792.801	0.0141711
792.879	0.0140799
792.957	0.0139911
793.035	0.0140906
793.113	0.0142542
793.192	0.0141801
793.270	0.0140298
793.348	0.0141335
793.426	0.0141301
793.504	0.0140755
793.582	0.0140268
793.660	0.0140140
793.738	0.0141533
793.817	0.0140921
793.895	0.0140208
793.973	0.0141566
794.051	0.0141581
794.129	0.0141592
794.207	0.0140605
794.285	0.0140956
794.363	0.0142046
794.442	0.0141711
794.520	0.0142079
794.598	0.0142281
794.676	0.0142578
794.754	0.0141186
794.832	0.0142403
794.910	0.0143602
794.988	0.0140960
795.067	0.0142805
795.145	0.0143114
795.223	0.0140907
795.301	0.0141154
795.379	0.0142407
795.457	0.0143279
795.535	0.0141390
795.613	0.0142294
795.692	0.0141323
795.770	0.0141210
795.848	0.0141677
795.926	0.0140282
796.004	0.0138581
796.082	0.0141172
796.160	0.0139481
796.238	0.0140694
796.317	0.0140773
796.395	0.0139187
796.473	0.0139980
796.551	0.0139413
796.629	0.0139814
796.707	0.0139829
796.785	0.0140855
796.863	0.0139725
796.942	0.0140140
797.020	0.0140667
797.098	0.0140049
797.176	0.0138898
797.254	0.0138805
797.332	0.0140082
797.410	0.0139695
797.488	0.0139248
797.567	0.0139338
797.645	0.0139380
797.723	0.0141346
797.801	0.0141129
797.879	0.0139686
797.957	0.0140318
798.035	0.0140649
798.113	0.0140868
798.192	0.0139188
798.270	0.0139331
798.348	0.0140628
798.426	0.0140740
798.504	0.0139865
798.582	0.0140417
798.660	0.0141942
798.738	0.0141537
798.817	0.0140428
798.895	0.0140588
798.973	0.0141469
799.051	0.0140591
799.129	0.0141920
799.207	0.0141644
799.285	0.0142117
799.363	0.0141471
799.442	0.0140839
799.520	0.0141864
799.598	0.0141393
799.676	0.0142924
799.754	0.0142825
799.832	0.0142676
799.910	0.0142757
799.988	0.0141879
800.067	0.0142282
800.145	0.0142847
800.223	0.0141514
800.301	0.0142219
800.379	0.0143208
800.457	0.0142780
800.535	0.0141737
800.613	0.0142203
800.692	0.0141369
800.770	0.0142091
800.848	0.0142169
800.926	0.0141635
801.004	0.0140529
801.082	0.0140669
801.160	0.0141706
801.238	0.0141200
801.317	0.0140659
801.395	0.0141278
801.473	0.0139793
801.551	0.0140948
801.629	0.0142017
801.707	0.0140073
801.785	0.0140292
801.863	0.0139510
801.942	0.0142011
802.020	0.0140574
802.098	0.0139959
802.176	0.0141323
802.254	0.0142245
802.332	0.0138745
802.410	0.0139848
802.488	0.0141649
802.567	0.0142747
802.645	0.0140974
802.723	0.0141067
802.801	0.0141349
802.879	0.0142233
802.957	0.0142218
803.035	0.0141051
803.113	0.0141854
803.192	0.0143090
803.270	0.0142051
803.348	0.0142756
803.426	0.0142056
803.504	0.0142409
803.582	0.0142750
803.660	0.0143167
803.738	0.0143687
803.817	0.0142324
803.895	0.0143156
803.973	0.0143611
804.051	0.0144285
804.129	0.0141846
804.207	0.0141595
804.285	0.0144321
804.363	0.0144524
804.442	0.0144012
804.520	0.0144338
804.598	0.0143723
804.676	0.0142863
804.754	0.0142739
804.832	0.0144003
804.910	0.0144618
804.988	0.0145075
805.067	0.0143292
805.145	0.0143065
805.223	0.0143150
805.301	0.0142719
805.379	0.0142770
805.457	0.0142958
805.535	0.0142435
805.613	0.0142559
805.692	0.0142896
805.770	0.0143237
805.848	0.0142950
805.926	0.0142715
806.004	0.0142668
806.082	0.0142373
806.160	0.0142717
806.238	0.0142305
806.317	0.0141818
806.395	0.0143121
806.473	0.0141254
806.551	0.0141484
806.629	0.0142455
806.707	0.0140902
806.785	0.0141692
806.863	0.0140499
806.942	0.0140038
807.020	0.0142400
807.098	0.0140912
807.176	0.0140776
807.254	0.0141581
807.332	0.0142769
807.410	0.0140937
807.488	0.0142033
807.567	0.0142708
807.645	0.0142490
807.723	0.0141557
807.801	0.0142547
807.879	0.0141803
807.957	0.0141703
808.035	0.0142745
808.113	0.0143053
808.192	0.0142468
808.270	0.0141853
808.348	0.0142194
808.426	0.0143130
808.504	0.0143630
808.582	0.0143554
808.660	0.0141917
808.738	0.0143566
808.817	0.0143735
808.895	0.0143184
808.973	0.0143111
809.051	0.0144312
809.129	0.0143229
809.207	0.0143575
809.285	0.0143080
809.363	0.0142758
809.442	0.0142686
809.520	0.0143924
809.598	0.0142896
809.676	0.0142985
809.754	0.0143353
809.832	0.0142992
809.910	0.0141472
809.988	0.0142861
810.067	0.0142194
810.145	0.0141953
810.223	0.0141952
810.301	0.0142753
810.379	0.0143291
810.457	0.0144040
810.535	0.0142319
810.613	0.0141994
810.692	0.0143764
810.770	0.0142416
810.848	0.0141657
810.926	0.0141911
811.004	0.0142635
811.082	0.0143005
811.160	0.0143106
811.238	0.0142142
811.317	0.0143222
811.395	0.0141765
811.473	0.0142265
811.551	0.0141419
811.629	0.0141451
811.707	0.0141273
811.785	0.0141705
811.863	0.0141692
811.942	0.0141198
812.020	0.0141075
812.098	0.0142815
812.176	0.0142265
812.254	0.0141293
812.332	0.0141050
812.410	0.0141725
812.488	0.0143304
812.567	0.0142489
812.645	0.0142290
812.723	0.0141643
812.801	0.0141858
812.879	0.0142181
812.957	0.0141885
813.035	0.0142064
813.113	0.0141759
813.192	0.0142168
813.270	0.0143025
813.348	0.0142971
813.426	0.0142296
813.504	0.0143309
813.582	0.0142088
813.660	0.0142370
813.738	0.0143724
813.817	0.0144193
813.895	0.0142945
813.973	0.0143010
814.051	0.0142487
814.129	0.0142317
814.207	0.0141753
814.285	0.0143959
814.363	0.0142625
814.442	0.0142517
814.520	0.0143669
814.598	0.0142417
814.676	0.0143266
814.754	0.0141937
814.832	0.0142065
814.910	0.0142238
814.988	0.0141126
815.067	0.0142877
815.145	0.0142878
815.223	0.0141314
815.301	0.0141817
815.379	0.0142460
815.457	0.0142893
815.535	0.0141772
815.613	0.0142677
815.692	0.0141106
815.770	0.0140883
815.848	0.0141067
815.926	0.0141390
816.004	0.0141825
816.082	0.0141167
816.160	0.0139590
816.238	0.0141117
816.317	0.0141174
816.395	0.0141390
816.473	0.0139819
816.551	0.0141098
816.629	0.0141432
816.707	0.0141328
816.785	0.0140919
816.863	0.0141549
816.942	0.0140350
817.020	0.0141840
817.098	0.0141605
817.176	0.0139861
817.254	0.0139390
817.332	0.0139996
817.410	0.0141002
817.488	0.0141679
817.567	0.0139935
817.645	0.0139930
817.723	0.0141026
817.801	0.0140430
817.879	0.0139961
817.957	0.0139668
818.035	0.0141020
818.113	0.0141022
818.192	0.0139783
818.270	0.0139678
818.348	0.0140283
818.426	0.0139982
818.504	0.0139757
818.582	0.0140002
818.660	0.0140826
818.738	0.0138798
818.817	0.0139948
818.895	0.0139482
818.973	0.0137553
819.051	0.0139532
819.129	0.0140886
819.207	0.0139787
819.285	0.0139956
819.363	0.0140353
819.442	0.0140507
819.520	0.0138557
819.598	0.0139407
819.676	0.0139388
819.754	0.0140113
819.832	0.0139458
819.910	0.0139018
819.988	0.0138767
820.067	0.0139769
820.145	0.0139812
820.223	0.0139956
820.301	0.0139020
820.379	0.0138248
820.457	0.0139827
820.535	0.0139259
820.613	0.0139275
820.692	0.0140845
820.770	0.0140291
820.848	0.0139262
820.926	0.0140580
821.004	0.0140790
821.082	0.0139766
821.160	0.0139845
821.238	0.0141277
821.317	0.0140056
821.395	0.0142178
821.473	0.0141398
821.551	0.0141623
821.629	0.0141538
821.707	0.0140968
821.785	0.0141478
821.863	0.0141012
821.942	0.0142365
822.020	0.0143179
822.098	0.0141798
822.176	0.0140770
822.254	0.0140924
822.332	0.0142780
822.410	0.0142281
822.488	0.0141485
822.567	0.0141764
822.645	0.0142712
822.723	0.0141795
822.801	0.0141265
822.879	0.0141483
822.957	0.0142514
823.035	0.0142718
823.113	0.0141470
823.192	0.0141872
823.270	0.0141282
823.348	0.0142620
823.426	0.0140960
823.504	0.0142884
823.582	0.0140646
823.660	0.0140141
823.738	0.0139832
823.817	0.0140773
823.895	0.0141723
823.973	0.0140841
824.051	0.0139982
824.129	0.0139268
824.207	0.0140121
824.285	0.0140186
824.363	0.0139716
824.442	0.0139849
824.520	0.0141181
824.598	0.0141010
824.676	0.0139224
824.754	0.0140431
824.832	0.0141495
824.910	0.0140067
824.988	0.0139452
825.067	0.0140031
825.145	0.0140745
825.223	0.0139866
825.301	0.0140998
825.379	0.0139955
825.457	0.0139262
825.535	0.0140647
825.613	0.0139613
825.692	0.0140298
825.770	0.0140635
825.848	0.0140810
825.926	0.0139988
826.004	0.0139575
826.082	0.0139103
826.160	0.0141798
826.238	0.0141270
826.317	0.0140263
826.395	0.0140958
826.473	0.0140401
826.551	0.0141142
826.629	0.0140920
826.707	0.0140716
826.785	0.0142621
826.863	0.0142350
826.942	0.0143005
827.020	0.0142563
827.098	0.0141730
827.176	0.0141451
827.254	0.0143067
827.332	0.0142336
827.410	0.0142855
827.488	0.0142129
827.567	0.0143004
827.645	0.0142591
827.723	0.0142059
827.801	0.0142790
827.879	0.0142430
827.957	0.0142263
828.035	0.0141483
828.113	0.0141973
828.192	0.0143550
828.270	0.0142471
828.348	0.0141214
828.426	0.0143056
828.504	0.0142373
828.582	0.0143465
828.660	0.0141702
828.738	0.0142601
828.817	0.0142868
828.895	0.0141510
828.973	0.0141382
829.051	0.0142079
829.129	0.0143091
829.207	0.0142833
829.285	0.0142664
829.363	0.0142329
829.442	0.0142721
829.520	0.0144176
829.598	0.0143918
829.676	0.0142815
829.754	0.0143292
829.832	0.0142825
829.910	0.0142923
829.988	0.0143198
830.067	0.0142384
830.145	0.0142273
830.223	0.0142308
830.301	0.0142696
830.379	0.0143077
830.457	0.0142785
830.535	0.0143024
830.613	0.0142612
830.692	0.0141151
830.770	0.0140810
830.848	0.0142806
830.926	0.0143536
831.004	0.0143684
831.082	0.0143591
831.160	0.0142758
831.238	0.0143703
831.317	0.0142928
831.395	0.0142957
831.473	0.0143410
831.551	0.0143694
831.629	0.0143474
831.707	0.0143031
831.785	0.0143233
831.863	0.0143617
831.942	0.0143421
832.020	0.0140980
832.098	0.0143320
832.176	0.0143387
832.254	0.0143457
832.332	0.0142686
832.410	0.0142649
832.488	0.0142346
832.567	0.0141621
832.645	0.0141382
832.723	0.0142417
832.801	0.0142062
832.879	0.0143044
832.957	0.0142741
833.035	0.0142205
833.113	0.0141948
833.192	0.0143568
833.270	0.0140382
833.348	0.0143040
833.426	0.0141783
833.504	0.0142124
833.582	0.0142271
833.660	0.0142416
833.738	0.0142181
833.817	0.0141062
833.895	0.0142035
833.973	0.0140131
834.051	0.0142195
834.129	0.0142899
834.207	0.0141743
834.285	0.0142206
834.363	0.0141646
834.442	0.0141631
834.520	0.0142435
834.598	0.0141617
834.676	0.0141698
834.754	0.0141737
834.832	0.0141913
834.910	0.0140614
834.988	0.0141436
835.067	0.0140576
835.145	0.0141183
835.223	0.0140836
835.301	0.0142092
835.379	0.0140350
835.457	0.0141803
835.535	0.0141881
835.613	0.0140173
835.692	0.0140862
835.770	0.0141496
835.848	0.0140424
835.926	0.0140127
836.004	0.0140977
836.082	0.0140287
836.160	0.0139997
836.238	0.0139505
836.317	0.0141689
836.395	0.0139246
836.473	0.0140646
836.551	0.0140533
836.629	0.0140447
836.707	0.0140845
836.785	0.0141437
836.863	0.0140244
836.942	0.0138631
837.020	0.0139860
837.098	0.0139568
837.176	0.0140128
837.254	0.0139403
837.332	0.0139009
837.410	0.0139750
837.488	0.0140135
837.567	0.0140266
837.645	0.0139697
837.723	0.0139554
837.801	0.0138617
837.879	0.0139053
837.957	0.0138445
838.035	0.0139163
838.113	0.0140018
838.192	0.0140131
838.270	0.0140547
838.348	0.0139384
838.426	0.0139632
838.504	0.0140673
838.582	0.0139183
838.660	0.0137669
838.738	0.0138673
838.817	0.0138811
838.895	0.0138671
838.973	0.0140121
839.051	0.0138734
839.129	0.0138589
839.207	0.0138846
839.285	0.0139142
839.363	0.0138531
839.442	0.0138900
839.520	0.0138530
839.598	0.0139474
839.676	0.0138390
839.754	0.0139686
839.832	0.0139706
839.910	0.0138867
839.988	0.0139141
840.067	0.0138660
840.145	0.0139533
840.223	0.0140263
840.301	0.0139972
840.379	0.0139273
840.457	0.0140416
840.535	0.0140024
840.613	0.0140519
840.692	0.0140148
840.770	0.0140685
840.848	0.0141103
840.926	0.0140905
841.004	0.0141273
841.082	0.0141281
841.160	0.0140602
841.238	0.0139331
841.317	0.0139463
841.395	0.0140122
841.473	0.0140455
841.551	0.0141036
841.629	0.0140233
841.707	0.0140624
841.785	0.0141386
841.863	0.0140832
841.942	0.0139339
842.020	0.0141193
842.098	0.0139683
842.176	0.0142216
842.254	0.0140254
842.332	0.0140292
842.410	0.0140259
842.488	0.0142309
842.567	0.0141624
842.645	0.0140282
842.723	0.0140297
842.801	0.0140298
842.879	0.0141060
842.957	0.0140154
843.035	0.0141064
843.113	0.0140993
843.192	0.0140836
843.270	0.0142590
843.348	0.0141295
843.426	0.0142083
843.504	0.0141452
843.582	0.0141397
843.660	0.0141070
843.738	0.0141430
843.817	0.0142550
843.895	0.0140197
843.973	0.0141612
844.051	0.0141132
844.129	0.0141402
844.207	0.0140855
844.285	0.0141734
844.363	0.0141215
844.442	0.0139854
844.520	0.0139658
844.598	0.0142680
844.676	0.0141235
844.754	0.0141517
844.832	0.0141138
844.910	0.0140232
844.988	0.0140295
845.067	0.0142639
845.145	0.0143855
845.223	0.0140795
845.301	0.0142108
845.379	0.0141466
845.457	0.0141213
845.535	0.0142188
845.613	0.0141763
845.692	0.0141770
845.770	0.0142506
845.848	0.0142403
845.926	0.0139885
846.004	0.0142117
846.082	0.0141637
846.160	0.0142049
846.238	0.0141654
846.317	0.0142146
846.395	0.0142267
846.473	0.0140702
846.551	0.0140775
846.629	0.0142635
846.707	0.0141928
846.785	0.0141243
846.863	0.0140861
846.942	0.0140637
847.020	0.0141064
847.098	0.0140580
847.176	0.0140998
847.254	0.0140897
847.332	0.0140288
847.410	0.0141312
847.488	0.0140105
847.567	0.0139142
847.645	0.0141250
847.723	0.0142179
847.801	0.0141462
847.879	0.0141348
847.957	0.0141656
848.035	0.0140159
848.113	0.0140971
848.192	0.0141866
848.270	0.0141336
848.348	0.0142632
848.426	0.0140778
848.504	0.0141635
848.582	0.0141373
848.660	0.0140662
848.738	0.0140713
848.817	0.0143305
848.895	0.0141447
848.973	0.0139316
849.051	0.0140530
849.129	0.0141341
849.207	0.0139844
849.285	0.0141608
849.363	0.0139838
849.442	0.0140556
849.520	0.0140599
849.598	0.0140725
849.676	0.0142451
849.754	0.0141365
849.832	0.0140833
849.910	0.0140849
849.988	0.0141277
850.067	0.0140945
850.145	0.0141534
850.223	0.0140688
850.301	0.0141695
850.379	0.0141134
850.457	0.0141644
850.535	0.0140372
850.613	0.0140689
850.692	0.0141904
850.770	0.0141245
850.848	0.0140008
850.926	0.0141124
851.004	0.0140747
851.082	0.0140179
851.160	0.0141664
851.238	0.0141044
851.317	0.0141702
851.395	0.0141488
851.473	0.0141030
851.551	0.0140958
851.629	0.0141025
851.707	0.0140350
851.785	0.0141364
851.863	0.0139671
851.942	0.0140684
852.020	0.0140948
852.098	0.0140804
852.176	0.0140542
852.254	0.0141454
852.332	0.0141161
852.410	0.0140617
852.488	0.0140595
852.567	0.0140502
852.645	0.0140182
852.723	0.0139666
852.801	0.0139960
852.879	0.0139906
852.957	0.0141754
853.035	0.0139609
853.113	0.0139584
853.192	0.0139561
853.270	0.0139162
853.348	0.0139371
853.426	0.0139792
853.504	0.0141209
853.582	0.0141090
853.660	0.0141907
853.738	0.0140432
853.817	0.0141458
853.895	0.0141219
853.973	0.0141049
854.051	0.0142595
854.129	0.0140421
854.207	0.0142144
854.285	0.0141809
854.363	0.0141480
854.442	0.0141098
854.520	0.0141450
854.598	0.0141765
854.676	0.0142227
854.754	0.0142776
854.832	0.0141727
854.910	0.0141166
854.988	0.0142439
855.067	0.0141393
855.145	0.0141798
855.223	0.0142192
855.301	0.0141819
855.379	0.0140335
855.457	0.0140336
855.535	0.0139775
855.613	0.0142627
855.692	0.0140070
855.770	0.0140785
855.848	0.0140452
855.926	0.0141580
856.004	0.0140630
856.082	0.0139405
856.160	0.0139618
856.238	0.0140222
856.317	0.0140936
856.395	0.0139577
856.473	0.0138716
856.551	0.0140189
856.629	0.0139606
856.707	0.0139447
856.785	0.0141008
856.863	0.0141537
856.942	0.0139670
857.020	0.0140424
857.098	0.0139984
857.176	0.0137772
857.254	0.0139423
857.332	0.0140533
857.410	0.0138660
857.488	0.0139211
857.567	0.0139787
857.645	0.0139886
857.723	0.0139592
857.801	0.0140237
857.879	0.0142205
857.957	0.0139861
858.035	0.0140133
858.113	0.0141519
858.192	0.0141087
858.270	0.0141039
858.348	0.0140319
858.426	0.0139213
858.504	0.0140423
858.582	0.0140820
858.660	0.0141230
858.738	0.0141359
858.817	0.0140934
858.895	0.0140366
858.973	0.0141640
859.051	0.0140843
859.129	0.0140190
859.207	0.0141804
859.285	0.0142457
859.363	0.0142216
859.442	0.0141464
859.520	0.0142553
859.598	0.0141917
859.676	0.0140834
859.754	0.0142648
859.832	0.0141867
859.910	0.0142155
859.988	0.0141141
860.067	0.0142064
860.145	0.0141304
860.223	0.0140250
860.301	0.0141047
860.379	0.0141027
860.457	0.0142508
860.535	0.0140308
860.613	0.0142309
860.692	0.0140659
860.770	0.0140464
860.848	0.0140434
860.926	0.0140494
861.004	0.0139761
861.082	0.0138448
861.160	0.0141503
861.238	0.0141726
861.317	0.0142893
861.395	0.0140476
861.473	0.0139758
861.551	0.0141113
861.629	0.0141439
861.707	0.0141145
861.785	0.0141555
861.863	0.0141460
861.942	0.0140836
862.020	0.0139777
862.098	0.0140641
862.176	0.0140710
862.254	0.0140628
862.332	0.0139541
862.410	0.0140190
862.488	0.0139895
862.567	0.0138531
862.645	0.0138682
862.723	0.0140900
862.801	0.0140972
862.879	0.0139433
862.957	0.0140028
863.035	0.0141609
863.113	0.0139154
863.192	0.0141309
863.270	0.0141589
863.348	0.0141505
863.426	0.0141081
863.504	0.0140794
863.582	0.0141969
863.660	0.0142282
863.738	0.0142576
863.817	0.0142416
863.895	0.0142350
863.973	0.0142070
864.051	0.0144757
864.129	0.0142659
864.207	0.0142297
864.285	0.0142623
864.363	0.0141798
864.442	0.0141709
864.520	0.0142742
864.598	0.0142367
864.676	0.0142415
864.754	0.0141471
864.832	0.0142853
864.910	0.0141628
864.988	0.0139998
865.067	0.0141238
865.145	0.0142140
865.223	0.0142210
865.301	0.0141080
865.379	0.0140485
865.457	0.0140214
865.535	0.0142004
865.613	0.0139983
865.692	0.0141213
865.770	0.0140563
865.848	0.0140703
865.926	0.0141914
866.004	0.0140330
866.082	0.0140424
866.160	0.0140411
866.238	0.0140881
866.317	0.0140593
866.395	0.0140208
866.473	0.0141232
866.551	0.0140563
866.629	0.0139963
866.707	0.0141067
866.785	0.0141222
866.863	0.0141439
866.942	0.0140851
867.020	0.0140244
867.098	0.0141013
867.176	0.0140405
867.254	0.0140273
867.332	0.0142160
867.410	0.0142003
867.488	0.0141090
867.567	0.0141655
867.645	0.0140878
867.723	0.0140524
867.801	0.0141495
867.879	0.0141576
867.957	0.0140627
868.035	0.0141306
868.113	0.0141452
868.192	0.0141197
868.270	0.0141956
868.348	0.0141940
868.426	0.0140121
868.504	0.0140460
868.582	0.0141689
868.660	0.0143308
868.738	0.0141190
868.817	0.0140670
868.895	0.0141785
868.973	0.0142822
869.051	0.0142478
869.129	0.0142361
869.207	0.0141776
869.285	0.0141080
869.363	0.0141532
869.442	0.0142259
869.520	0.0141572
869.598	0.0139809
869.676	0.0139585
869.754	0.0140878
869.832	0.0143450
869.910	0.0141810
869.988	0.0140373
870.067	0.0140755
870.145	0.0139798
870.223	0.0141003
870.301	0.0141071
870.379	0.0141529
870.457	0.0142496
870.535	0.0142927
870.613	0.0140383
870.692	0.0141359
870.770	0.0142249
870.848	0.0142256
870.926	0.0142337
871.004	0.0140755
871.082	0.0142809
871.160	0.0143202
871.238	0.0143068
871.317	0.0141808
871.395	0.0143018
871.473	0.0141428
871.551	0.0141973
871.629	0.0142914
871.707	0.0143163
871.785	0.0143977
871.863	0.0141388
871.942	0.0143433
872.020	0.0144553
872.098	0.0142294
872.176	0.0141429
872.254	0.0142121
872.332	0.0142175
872.410	0.0141925
872.488	0.0142012
872.567	0.0141636
872.645	0.0142975
872.723	0.0142390
872.801	0.0141091
872.879	0.0143299
872.957	0.0141840
873.035	0.0141767
873.113	0.0141852
873.192	0.0142625
873.270	0.0140884
873.348	0.0142753
873.426	0.0142267
873.504	0.0142297
873.582	0.0140852
873.660	0.0140546
873.738	0.0141236
873.817	0.0140785
873.895	0.0142138
873.973	0.0140464
874.051	0.0141097
874.129	0.0140104
874.207	0.0140382
874.285	0.0140801
874.363	0.0140577
874.442	0.0141127
874.520	0.0141383
874.598	0.0141686
874.676	0.0140613
874.754	0.0141943
874.832	0.0141506
874.910	0.0141111
874.988	0.0141311
875.067	0.0139347
875.145	0.0140736
875.223	0.0141753
875.301	0.0141749
875.379	0.0141270
875.457	0.0140598
875.535	0.0140464
875.613	0.0140132
875.692	0.0141068
875.770	0.0140096
875.848	0.0140318
875.926	0.0141022
876.004	0.0141765
876.082	0.0141357
876.160	0.0140688
876.238	0.0141267
876.317	0.0139930
876.395	0.0140579
876.473	0.0141377
876.551	0.0140539
876.629	0.0141297
876.707	0.0141096
876.785	0.0141889
876.863	0.0142326
876.942	0.0141408
877.020	0.0141746
877.098	0.0142455
877.176	0.0140832
877.254	0.0141354
877.332	0.0141936
877.410	0.0141965
877.488	0.0140965
877.567	0.0140581
877.645	0.0140388
877.723	0.0141372
877.801	0.0141066
877.879	0.0140327
877.957	0.0141408
878.035	0.0142571
878.113	0.0140669
878.192	0.0142294
878.270	0.0141870
878.348	0.0142876
878.426	0.0142243
878.504	0.0140841
878.582	0.0141925
878.660	0.0140704
878.738	0.0141644
878.817	0.0141112
878.895	0.0142056
878.973	0.0140975
879.051	0.0139670
879.129	0.0141005
879.207	0.0140818
879.285	0.0139762
879.363	0.0140792
879.442	0.0140759
879.520	0.0140828
879.598	0.0141521
879.676	0.0141982
879.754	0.0141001
879.832	0.0141676
879.910	0.0142260
879.988	0.0140227
880.067	0.0140327
880.145	0.0141793
880.223	0.0141794
880.301	0.0141280
880.379	0.0140538
880.457	0.0141423
880.535	0.0142356
880.613	0.0141125
880.692	0.0140760
880.770	0.0141137
880.848	0.0141491
880.926	0.0141113
881.004	0.0140219
881.082	0.0140757
881.160	0.0140422
881.238	0.0141081
881.317	0.0141255
881.395	0.0138612
881.473	0.0139326
881.551	0.0140496
881.629	0.0141596
881.707	0.0141647
881.785	0.0141209
881.863	0.0139260
881.942	0.0141338
882.020	0.0140507
882.098	0.0141781
882.176	0.0139799
882.254	0.0140867
882.332	0.0141124
882.410	0.0141151
882.488	0.0140333
882.567	0.0141070
882.645	0.0141805
882.723	0.0140865
882.801	0.0140585
882.879	0.0140142
882.957	0.0140396
883.035	0.0139098
883.113	0.0139669
883.192	0.0140363
883.270	0.0140147
883.348	0.0140394
883.426	0.0140427
883.504	0.0138296
883.582	0.0140039
883.660	0.0140576
883.738	0.0140133
883.817	0.0140767
883.895	0.0139766
883.973	0.0140145
884.051	0.0139113
884.129	0.0140926
884.207	0.0139407
884.285	0.0141092
884.363	0.0140373
884.442	0.0140068
884.520	0.0140237
884.598	0.0140690
884.676	0.0139813
884.754	0.0139548
884.832	0.0140097
884.910	0.0140330
884.988	0.0140038
885.067	0.0140262
885.145	0.0140499
885.223	0.0139273
885.301	0.0139124
885.379	0.0139382
885.457	0.0141368
885.535	0.0140995
885.613	0.0140276
885.692	0.0140814
885.770	0.0141125
885.848	0.0141747
885.926	0.0140592
886.004	0.0140012
886.082	0.0139783
886.160	0.0141909
886.238	0.0141801
886.317	0.0141354
886.395	0.0141522
886.473	0.0141626
886.551	0.0141027
886.629	0.0140909
886.707	0.0140514
886.785	0.0141724
886.863	0.0142283
886.942	0.0141796
887.020	0.0142267
887.098	0.0141280
887.176	0.0142661
887.254	0.0142451
887.332	0.0143289
887.410	0.0144236
887.488	0.0142858
887.567	0.0142090
887.645	0.0143323
887.723	0.0144003
887.801	0.0143276
887.879	0.0142969
887.957	0.0142139
888.035	0.0142464
888.113	0.0142786
888.192	0.0144094
888.270	0.0143552
888.348	0.0143217
888.426	0.0142992
888.504	0.0143155
888.582	0.0144373
888.660	0.0144211
888.738	0.0144084
888.817	0.0143164
888.895	0.0144282
888.973	0.0144498
889.051	0.0145721
889.129	0.0143604
889.207	0.0144084
889.285	0.0144282
889.363	0.0143681
889.442	0.0143831
889.520	0.0143199
889.598	0.0143294
889.676	0.0144221
889.754	0.0143370
889.832	0.0143575
889.910	0.0142651
889.988	0.0143549
890.067	0.0143096
890.145	0.0143382
890.223	0.0142307
890.301	0.0142600
890.379	0.0140463
890.457	0.0141400
890.535	0.0142247
890.613	0.0142268
890.692	0.0143061
890.770	0.0141064
890.848	0.0139926
890.926	0.0140033
891.004	0.0141682
891.082	0.0141222
891.160	0.0142139
891.238	0.0142171
891.317	0.0139946
891.395	0.0140015
891.473	0.0140444
891.551	0.0140743
891.629	0.0142290
891.707	0.0140410
891.785	0.0140608
891.863	0.0141222
891.942	0.0141919
892.020	0.0142846
892.098	0.0142152
892.176	0.0141124
892.254	0.0140917
892.332	0.0142377
892.410	0.0141002
892.488	0.0141692
892.567	0.0141568
892.645	0.0140558
892.723	0.0142100
892.801	0.0141873
892.879	0.0141629
892.957	0.0143088
893.035	0.0140715
893.113	0.0141748
893.192	0.0141256
893.270	0.0141992
893.348	0.0142117
893.426	0.0141477
893.504	0.0142248
893.582	0.0141583
893.660	0.0141939
893.738	0.0141849
893.817	0.0141035
893.895	0.0141300
893.973	0.0140938
894.051	0.0141615
894.129	0.0139751
894.207	0.0140784
894.285	0.0140536
894.363	0.0139740
894.442	0.0138803
894.520	0.0138811
894.598	0.0140763
894.676	0.0141542
894.754	0.0139371
894.832	0.0140028
894.910	0.0140795
894.988	0.0140848
895.067	0.0140163
895.145	0.0141980
895.223	0.0142223
895.301	0.0141763
895.379	0.0141049
895.457	0.0141859
895.535	0.0141087
895.613	0.0140846
895.692	0.0140746
895.770	0.0142502
895.848	0.0141909
895.926	0.0141631
896.004	0.0142826
896.082	0.0142250
896.160	0.0141583
896.238	0.0143012
896.317	0.0143741
896.395	0.0143858
896.473	0.0142725
896.551	0.0143822
896.629	0.0143881
896.707	0.0143652
896.785	0.0143449
896.863	0.0143108
896.942	0.0143256
897.020	0.0143247
897.098	0.0143858
897.176	0.0142902
897.254	0.0142210
897.332	0.0142323
897.410	0.0142502
897.488	0.0142153
897.567	0.0142714
897.645	0.0143098
897.723	0.0140813
897.801	0.0140559
897.879	0.0141086
897.957	0.0139447
898.035	0.0141660
898.113	0.0140215
898.192	0.0140340
898.270	0.0140678
898.348	0.0140772
898.426	0.0140617
898.504	0.0139913
898.582	0.0139518
898.660	0.0140002
898.738	0.0140451
898.817	0.0141101
898.895	0.0140945
898.973	0.0139568
899.051	0.0140029
899.129	0.0139384
899.207	0.0141254
899.285	0.0140183
899.363	0.0141043
899.442	0.0140350
899.520	0.0140909
899.598	0.0139781
899.676	0.0140497
899.754	0.0141448
899.832	0.0140972
899.910	0.0141051
899.988	0.0140143
900.067	0.0140250
900.145	0.0140633
900.223	0.0140856
900.301	0.0140752
900.379	0.0141126
900.457	0.0141454
900.535	0.0139542
900.613	0.0139281
900.692	0.0140820
900.770	0.0141618
900.848	0.0141901
900.926	0.0140883
901.004	0.0140542
901.082	0.0141833
901.160	0.0140749
901.238	0.0140214
901.317	0.0140704
901.395	0.0141480
901.473	0.0140846
901.551	0.0141479
901.629	0.0140783
901.707	0.0141937
901.785	0.0140881
901.863	0.0140277
901.942	0.0142226
902.020	0.0140874
902.098	0.0141779
902.176	0.0141469
902.254	0.0140874
902.332	0.0140202
902.410	0.0142070
902.488	0.0140578
902.567	0.0140113
902.645	0.0140638
902.723	0.0140699
902.801	0.0139977
902.879	0.0141039
902.957	0.0140347
903.035	0.0141324
903.113	0.0141161
903.192	0.0141782
903.270	0.0139378
903.348	0.0138960
903.426	0.0141585
903.504	0.0139885
903.582	0.0141395
903.660	0.0139699
903.738	0.0141259
903.817	0.0142069
903.895	0.0141967
903.973	0.0141647
904.051	0.0140398
904.129	0.0142934
904.207	0.0142456
904.285	0.0142285
904.363	0.0142226
904.442	0.0141525
904.520	0.0143579
904.598	0.0143598
904.676	0.0143600
904.754	0.0143731
904.832	0.0142836
904.910	0.0144727
904.988	0.0144556
905.067	0.0144305
905.145	0.0143914
905.223	0.0144189
905.301	0.0143778
905.379	0.0144130
905.457	0.0143053
905.535	0.0144002
905.613	0.0143987
905.692	0.0143295
905.770	0.0143275
905.848	0.0144212
905.926	0.0143024
906.004	0.0142596
906.082	0.0143155
906.160	0.0143069
906.238	0.0144400
906.317	0.0143397
906.395	0.0141934
906.473	0.0143356
906.551	0.0143608
906.629	0.0142121
906.707	0.0142236
906.785	0.0141622
906.863	0.0142183
906.942	0.0142879
907.020	0.0141525
907.098	0.0142058
907.176	0.0142580
907.254	0.0141923
907.332	0.0140379
907.410	0.0140147
907.488	0.0142573
907.567	0.0140826
907.645	0.0141500
907.723	0.0142063
907.801	0.0141225
907.879	0.0139237
907.957	0.0140559
908.035	0.0140874
908.113	0.0140819
908.192	0.0139967
908.270	0.0141059
908.348	0.0140453
908.426	0.0140832
908.504	0.0140413
908.582	0.0140797
908.660	0.0139594
908.738	0.0139979
908.817	0.0139838
908.895	0.0139318
908.973	0.0140688
909.051	0.0141061
909.129	0.0138689
909.207	0.0139322
909.285	0.0140718
909.363	0.0139057
909.442	0.0140359
909.520	0.0140646
909.598	0.0139452
909.676	0.0139445
909.754	0.0140398
909.832	0.0139903
909.910	0.0141639
909.988	0.0141698
910.067	0.0141424
910.145	0.0141466
910.223	0.0140340
910.301	0.0139856
910.379	0.0140815
910.457	0.0140872
910.535	0.0141157
910.613	0.0141388
910.692	0.0142134
910.770	0.0140345
910.848	0.0141074
910.926	0.0141095
911.004	0.0140855
911.082	0.0139807
911.160	0.0141315
911.238	0.0141505
911.317	0.0140462
911.395	0.0140004
911.473	0.0140565
911.551	0.0140895
911.629	0.0141191
911.707	0.0139167
911.785	0.0140194
911.863	0.0141721
911.942	0.0140710
912.020	0.0139870
912.098	0.0140359
912.176	0.0139069
912.254	0.0140280
912.332	0.0140405
912.410	0.0140425
912.488	0.0139771
912.567	0.0140318
912.645	0.0141329
912.723	0.0140196
912.801	0.0140231
912.879	0.0140211
912.957	0.0139612
913.035	0.0140580
913.113	0.0141820
913.192	0.0141991
913.270	0.0141345
913.348	0.0140911
913.426	0.0141216
913.504	0.0140926
913.582	0.0141734
913.660	0.0141602
913.738	0.0141939
913.817	0.0141995
913.895	0.0142188
913.973	0.0141897
914.051	0.0141006
914.129	0.0141811
914.207	0.0141657
914.285	0.0140541
914.363	0.0140684
914.442	0.0140499
914.520	0.0141090
914.598	0.0141653
914.676	0.0140330
914.754	0.0141326
914.832	0.0140951
914.910	0.0140627
914.988	0.0141800
915.067	0.0140964
915.145	0.0141648
915.223	0.0140712
915.301	0.0140932
915.379	0.0142489
915.457	0.0141230
915.535	0.0141116
915.613	0.0141553
915.692	0.0141671
915.770	0.0142878
915.848	0.0141404
915.926	0.0141862
916.004	0.0142255
916.082	0.0139346
916.160	0.0140747
916.238	0.0142776
916.317	0.0142646
916.395	0.0142037
916.473	0.0142748
916.551	0.0142699
916.629	0.0141488
916.707	0.0141212
916.785	0.0141480
916.863	0.0141790
916.942	0.0143590
917.020	0.0142472
917.098	0.0141416
917.176	0.0142561
917.254	0.0141138
917.332	0.0141309
917.410	0.0142947
917.488	0.0141917
917.567	0.0142615
917.645	0.0142326
917.723	0.0141194
917.801	0.0142217
917.879	0.0142027
917.957	0.0141631
918.035	0.0141858
918.113	0.0142397
918.192	0.0141626
918.270	0.0141294
918.348	0.0140277
918.426	0.0141780
918.504	0.0141620
918.582	0.0141904
918.660	0.0140179
918.738	0.0141499
918.817	0.0142203
918.895	0.0141098
918.973	0.0142593
919.051	0.0141189
919.129	0.0141582
919.207	0.0142384
919.285	0.0143108
919.363	0.0142362
919.442	0.0143033
919.520	0.0143523
919.598	0.0142217
919.676	0.0142377
919.754	0.0142393
919.832	0.0144099
919.910	0.0143153
