05/28/2022	14:36:07	Ver.	4.1	UNKNOWN
Optical Delay	599.988409	Delta X		0.078125	Sweeps	1	Scan Rate	0/0
Coordinates	Axis 1	NaN	Axis 2	NaN	Axis 3	NaN	Axis 4	NaN	Axis 5	NaN	Axis 6	0.000000
TX Power	0.000000	RX Power	0.000000

599.988	0.0140679
600.067	0.0139915
600.145	0.0141222
600.223	0.0139878
600.301	0.0139777
600.379	0.0140690
600.457	0.0139195
600.535	0.0139155
600.613	0.0139581
600.692	0.0139409
600.770	0.0139298
600.848	0.0140425
600.926	0.0139018
601.004	0.0139181
601.082	0.0140030
601.160	0.0140355
601.238	0.0141869
601.317	0.0140761
601.395	0.0139858
601.473	0.0140247
601.551	0.0139808
601.629	0.0140250
601.707	0.0141106
601.785	0.0140483
601.863	0.0140343
601.942	0.0141046
602.020	0.0139944
602.098	0.0141035
602.176	0.0141155
602.254	0.0141662
602.332	0.0141517
602.410	0.0141245
602.488	0.0140574
602.567	0.0140327
602.645	0.0142036
602.723	0.0141233
602.801	0.0140758
602.879	0.0142542
602.957	0.0142308
603.035	0.0141895
603.113	0.0140979
603.192	0.0141396
603.270	0.0142177
603.348	0.0143400
603.426	0.0142329
603.504	0.0142454
603.582	0.0142355
603.660	0.0141518
603.738	0.0142303
603.817	0.0142047
603.895	0.0142619
603.973	0.0143405
604.051	0.0142164
604.129	0.0142545
604.207	0.0142036
604.285	0.0143456
604.363	0.0141728
604.442	0.0142838
604.520	0.0142137
604.598	0.0142794
604.676	0.0141814
604.754	0.0141944
604.832	0.0141589
604.910	0.0141295
604.988	0.0140969
605.067	0.0141548
605.145	0.0141502
605.223	0.0140996
605.301	0.0140983
605.379	0.0141651
605.457	0.0140736
605.535	0.0142032
605.613	0.0141997
605.692	0.0141388
605.770	0.0141063
605.848	0.0142666
605.926	0.0141756
606.004	0.0141660
606.082	0.0142146
606.160	0.0140589
606.238	0.0140980
606.317	0.0142279
606.395	0.0142582
606.473	0.0141563
606.551	0.0141256
606.629	0.0142228
606.707	0.0141109
606.785	0.0140711
606.863	0.0141752
606.942	0.0142700
607.020	0.0141003
607.098	0.0141122
607.176	0.0141518
607.254	0.0141069
607.332	0.0139928
607.410	0.0140982
607.488	0.0139834
607.567	0.0141019
607.645	0.0141782
607.723	0.0142719
607.801	0.0140034
607.879	0.0140090
607.957	0.0142432
608.035	0.0141142
608.113	0.0141853
608.192	0.0142610
608.270	0.0142393
608.348	0.0141124
608.426	0.0141689
608.504	0.0142268
608.582	0.0139976
608.660	0.0143391
608.738	0.0142733
608.817	0.0141898
608.895	0.0141363
608.973	0.0142810
609.051	0.0141938
609.129	0.0142032
609.207	0.0142201
609.285	0.0141650
609.363	0.0142368
609.442	0.0141676
609.520	0.0141523
609.598	0.0142539
609.676	0.0142564
609.754	0.0141586
609.832	0.0140148
609.910	0.0140171
609.988	0.0141110
610.067	0.0140507
610.145	0.0140992
610.223	0.0142152
610.301	0.0141744
610.379	0.0141656
610.457	0.0141230
610.535	0.0140566
610.613	0.0140154
610.692	0.0141095
610.770	0.0140742
610.848	0.0141164
610.926	0.0140157
611.004	0.0140363
611.082	0.0140259
611.160	0.0139489
611.238	0.0140634
611.317	0.0140612
611.395	0.0140038
611.473	0.0138820
611.551	0.0140253
611.629	0.0140615
611.707	0.0140105
611.785	0.0140344
611.863	0.0141432
611.942	0.0139637
612.020	0.0139780
612.098	0.0140360
612.176	0.0140804
612.254	0.0140099
612.332	0.0139478
612.410	0.0140926
612.488	0.0140955
612.567	0.0140333
612.645	0.0140574
612.723	0.0139868
612.801	0.0139561
612.879	0.0139840
612.957	0.0140869
613.035	0.0141259
613.113	0.0141358
613.192	0.0140784
613.270	0.0140775
613.348	0.0141518
613.426	0.0139583
613.504	0.0139450
613.582	0.0141682
613.660	0.0139494
613.738	0.0139403
613.817	0.0140546
613.895	0.0140915
613.973	0.0140294
614.051	0.0140038
614.129	0.0141380
614.207	0.0140974
614.285	0.0139842
614.363	0.0139880
614.442	0.0140059
614.520	0.0142017
614.598	0.0141128
614.676	0.0139874
614.754	0.0140790
614.832	0.0140327
614.910	0.0140335
614.988	0.0139880
615.067	0.0141251
615.145	0.0140983
615.223	0.0140108
615.301	0.0139831
615.379	0.0140423
615.457	0.0140635
615.535	0.0139823
615.613	0.0141633
615.692	0.0140420
615.770	0.0141492
615.848	0.0140324
615.926	0.0140179
616.004	0.0140319
616.082	0.0139584
616.160	0.0140643
616.238	0.0139144
616.317	0.0139951
616.395	0.0140109
616.473	0.0139723
616.551	0.0141494
616.629	0.0140663
616.707	0.0142044
616.785	0.0140835
616.863	0.0142657
616.942	0.0141612
617.020	0.0140096
617.098	0.0142532
617.176	0.0142429
617.254	0.0141797
617.332	0.0140520
617.410	0.0139978
617.488	0.0139822
617.567	0.0140967
617.645	0.0141827
617.723	0.0140273
617.801	0.0141805
617.879	0.0140315
617.957	0.0141355
618.035	0.0141630
618.113	0.0141209
618.192	0.0141701
618.270	0.0141163
618.348	0.0140166
618.426	0.0141912
618.504	0.0142120
618.582	0.0140813
618.660	0.0141170
618.738	0.0141025
618.817	0.0139907
618.895	0.0139576
618.973	0.0140086
619.051	0.0139809
619.129	0.0140187
619.207	0.0139132
619.285	0.0140585
619.363	0.0140208
619.442	0.0139629
619.520	0.0139930
619.598	0.0139966
619.676	0.0139365
619.754	0.0140725
619.832	0.0140565
619.910	0.0141099
619.988	0.0141080
620.067	0.0140250
620.145	0.0142175
620.223	0.0141371
620.301	0.0141621
620.379	0.0141138
620.457	0.0141089
620.535	0.0140754
620.613	0.0140945
620.692	0.0140534
620.770	0.0140597
620.848	0.0140327
620.926	0.0140263
621.004	0.0138753
621.082	0.0139396
621.160	0.0139880
621.238	0.0141166
621.317	0.0139037
621.395	0.0138966
621.473	0.0139140
621.551	0.0138146
621.629	0.0139822
621.707	0.0137873
621.785	0.0138042
621.863	0.0138821
621.942	0.0140932
622.020	0.0140376
622.098	0.0138896
622.176	0.0139478
622.254	0.0141780
622.332	0.0140858
622.410	0.0141763
622.488	0.0140305
622.567	0.0141341
622.645	0.0141270
622.723	0.0140380
622.801	0.0141219
622.879	0.0142963
622.957	0.0141711
623.035	0.0141452
623.113	0.0141222
623.192	0.0141499
623.270	0.0140570
623.348	0.0139760
623.426	0.0140874
623.504	0.0139597
623.582	0.0140396
623.660	0.0141217
623.738	0.0140379
623.817	0.0139604
623.895	0.0139808
623.973	0.0140756
624.051	0.0139568
624.129	0.0139938
624.207	0.0139660
624.285	0.0138362
624.363	0.0139356
624.442	0.0139117
624.520	0.0137949
624.598	0.0139018
624.676	0.0139766
624.754	0.0141277
624.832	0.0140720
624.910	0.0140714
624.988	0.0140130
625.067	0.0142197
625.145	0.0144128
625.223	0.0143404
625.301	0.0142587
625.379	0.0144170
625.457	0.0143617
625.535	0.0144502
625.613	0.0144744
625.692	0.0144185
625.770	0.0143616
625.848	0.0145451
625.926	0.0144746
626.004	0.0143928
626.082	0.0144809
626.160	0.0142192
626.238	0.0143368
626.317	0.0142374
626.395	0.0141842
626.473	0.0141640
626.551	0.0141546
626.629	0.0141996
626.707	0.0140483
626.785	0.0141090
626.863	0.0139359
626.942	0.0140481
627.020	0.0139919
627.098	0.0138969
627.176	0.0138559
627.254	0.0139943
627.332	0.0141785
627.410	0.0140598
627.488	0.0138474
627.567	0.0141330
627.645	0.0139806
627.723	0.0140283
627.801	0.0142327
627.879	0.0140147
627.957	0.0141614
628.035	0.0142270
628.113	0.0141325
628.192	0.0141382
628.270	0.0141312
628.348	0.0140899
628.426	0.0140491
628.504	0.0140876
628.582	0.0141150
628.660	0.0139757
628.738	0.0140736
628.817	0.0140880
628.895	0.0140350
628.973	0.0140645
629.051	0.0138284
629.129	0.0138773
629.207	0.0139113
629.285	0.0139288
629.363	0.0138863
629.442	0.0138264
629.520	0.0138647
629.598	0.0139741
629.676	0.0139352
629.754	0.0138475
629.832	0.0139388
629.910	0.0139373
629.988	0.0141529
630.067	0.0140784
630.145	0.0140367
630.223	0.0141637
630.301	0.0142567
630.379	0.0142712
630.457	0.0141965
630.535	0.0143114
630.613	0.0143509
630.692	0.0142677
630.770	0.0145794
630.848	0.0145131
630.926	0.0145656
631.004	0.0144701
631.082	0.0146204
631.160	0.0145097
631.238	0.0145189
631.317	0.0144939
631.395	0.0143886
631.473	0.0144518
631.551	0.0142510
631.629	0.0142441
631.707	0.0142262
631.785	0.0140532
631.863	0.0139114
631.942	0.0140460
632.020	0.0140131
632.098	0.0139543
632.176	0.0140405
632.254	0.0140020
632.332	0.0139782
632.410	0.0137794
632.488	0.0138514
632.567	0.0140713
632.645	0.0140542
632.723	0.0140900
632.801	0.0140171
632.879	0.0140668
632.957	0.0141248
633.035	0.0141293
633.113	0.0142699
633.192	0.0141964
633.270	0.0142814
633.348	0.0144292
633.426	0.0142850
633.504	0.0142971
633.582	0.0142899
633.660	0.0141945
633.738	0.0141522
633.817	0.0141672
633.895	0.0141940
633.973	0.0142277
634.051	0.0142272
634.129	0.0142283
634.207	0.0141779
634.285	0.0142295
634.363	0.0141901
634.442	0.0141805
634.520	0.0141615
634.598	0.0141948
634.676	0.0141489
634.754	0.0142044
634.832	0.0141295
634.910	0.0141955
634.988	0.0143039
635.067	0.0141302
635.145	0.0141100
635.223	0.0141981
635.301	0.0142550
635.379	0.0142257
635.457	0.0142432
635.535	0.0141000
635.613	0.0141521
635.692	0.0142440
635.770	0.0140860
635.848	0.0141079
635.926	0.0140990
636.004	0.0140382
636.082	0.0141167
636.160	0.0139870
636.238	0.0140953
636.317	0.0140024
636.395	0.0140462
636.473	0.0140607
636.551	0.0140705
636.629	0.0140018
636.707	0.0138216
636.785	0.0139795
636.863	0.0139097
636.942	0.0139663
637.020	0.0139835
637.098	0.0138768
637.176	0.0138618
637.254	0.0138582
637.332	0.0138350
637.410	0.0138788
637.488	0.0137844
637.567	0.0138666
637.645	0.0137230
637.723	0.0136612
637.801	0.0136932
637.879	0.0138426
637.957	0.0138587
638.035	0.0137402
638.113	0.0137736
638.192	0.0136640
638.270	0.0138194
638.348	0.0138689
638.426	0.0136677
638.504	0.0137670
638.582	0.0138081
638.660	0.0138203
638.738	0.0138163
638.817	0.0139137
638.895	0.0138174
638.973	0.0139117
639.051	0.0139935
639.129	0.0139968
639.207	0.0139058
639.285	0.0139324
639.363	0.0139931
639.442	0.0140091
639.520	0.0139865
639.598	0.0141973
639.676	0.0139619
639.754	0.0140428
639.832	0.0141000
639.910	0.0139234
639.988	0.0139712
640.067	0.0140359
640.145	0.0139516
640.223	0.0139709
640.301	0.0139977
640.379	0.0140025
640.457	0.0140113
640.535	0.0139175
640.613	0.0139696
640.692	0.0138854
640.770	0.0140036
640.848	0.0139812
640.926	0.0139182
641.004	0.0139642
641.082	0.0139364
641.160	0.0139446
641.238	0.0138879
641.317	0.0137932
641.395	0.0137425
641.473	0.0138312
641.551	0.0137634
641.629	0.0138488
641.707	0.0137515
641.785	0.0138879
641.863	0.0138463
641.942	0.0138728
642.020	0.0138992
642.098	0.0138702
642.176	0.0139130
642.254	0.0138798
642.332	0.0139066
642.410	0.0140321
642.488	0.0140004
642.567	0.0141435
642.645	0.0140927
642.723	0.0141821
642.801	0.0143040
642.879	0.0143909
642.957	0.0142891
643.035	0.0142406
643.113	0.0144367
643.192	0.0144911
643.270	0.0143208
643.348	0.0144396
643.426	0.0142086
643.504	0.0144741
643.582	0.0144163
643.660	0.0141835
643.738	0.0142713
643.817	0.0142128
643.895	0.0141497
643.973	0.0141346
644.051	0.0140346
644.129	0.0138651
644.207	0.0141292
644.285	0.0139893
644.363	0.0139252
644.442	0.0140187
644.520	0.0139975
644.598	0.0139334
644.676	0.0139339
644.754	0.0141736
644.832	0.0142663
644.910	0.0140861
644.988	0.0141206
645.067	0.0141904
645.145	0.0141090
645.223	0.0142544
645.301	0.0142444
645.379	0.0142522
645.457	0.0142918
645.535	0.0143433
645.613	0.0142513
645.692	0.0142825
645.770	0.0142731
645.848	0.0143202
645.926	0.0141997
646.004	0.0141614
646.082	0.0144092
646.160	0.0142910
646.238	0.0142909
646.317	0.0141483
646.395	0.0142113
646.473	0.0141068
646.551	0.0141498
646.629	0.0140519
646.707	0.0140585
646.785	0.0140693
646.863	0.0139759
646.942	0.0140478
647.020	0.0139563
647.098	0.0140673
647.176	0.0138680
647.254	0.0139398
647.332	0.0139056
647.410	0.0139183
647.488	0.0140833
647.567	0.0139832
647.645	0.0141438
647.723	0.0140204
647.801	0.0142274
647.879	0.0139725
647.957	0.0141286
648.035	0.0142632
648.113	0.0142445
648.192	0.0142241
648.270	0.0141724
648.348	0.0141965
648.426	0.0142470
648.504	0.0144184
648.582	0.0142444
648.660	0.0141569
648.738	0.0142140
648.817	0.0141037
648.895	0.0140576
648.973	0.0140867
649.051	0.0139748
649.129	0.0139436
649.207	0.0139439
649.285	0.0139481
649.363	0.0138412
649.442	0.0140227
649.520	0.0140060
649.598	0.0139664
649.676	0.0140501
649.754	0.0139676
649.832	0.0139188
649.910	0.0140170
649.988	0.0141350
650.067	0.0139598
650.145	0.0140731
650.223	0.0140406
650.301	0.0141715
650.379	0.0142115
650.457	0.0140512
650.535	0.0142109
650.613	0.0141828
650.692	0.0141419
650.770	0.0141061
650.848	0.0141926
650.926	0.0140354
651.004	0.0141358
651.082	0.0141467
651.160	0.0141274
651.238	0.0141512
651.317	0.0141571
651.395	0.0141664
651.473	0.0142139
651.551	0.0141476
651.629	0.0142091
651.707	0.0139991
651.785	0.0139890
651.863	0.0140092
651.942	0.0139923
652.020	0.0138655
652.098	0.0139325
652.176	0.0139787
652.254	0.0138263
652.332	0.0138053
652.410	0.0136539
652.488	0.0136906
652.567	0.0137791
652.645	0.0138730
652.723	0.0138442
652.801	0.0137539
652.879	0.0138515
652.957	0.0139243
653.035	0.0138354
653.113	0.0138792
653.192	0.0139587
653.270	0.0140807
653.348	0.0140897
653.426	0.0142470
653.504	0.0142408
653.582	0.0142165
653.660	0.0142741
653.738	0.0142665
653.817	0.0143909
653.895	0.0144270
653.973	0.0144186
654.051	0.0143864
654.129	0.0142414
654.207	0.0143143
654.285	0.0143927
654.363	0.0144096
654.442	0.0142825
654.520	0.0142974
654.598	0.0143272
654.676	0.0141698
654.754	0.0142725
654.832	0.0143036
654.910	0.0142746
654.988	0.0143736
655.067	0.0143190
655.145	0.0142648
655.223	0.0142738
655.301	0.0143570
655.379	0.0143616
655.457	0.0142196
655.535	0.0142610
655.613	0.0141444
655.692	0.0141566
655.770	0.0141959
655.848	0.0139948
655.926	0.0140395
656.004	0.0141354
656.082	0.0139433
656.160	0.0137610
656.238	0.0139431
656.317	0.0139063
656.395	0.0139311
656.473	0.0138539
656.551	0.0138566
656.629	0.0138350
656.707	0.0139010
656.785	0.0139432
656.863	0.0140623
656.942	0.0139720
657.020	0.0140869
657.098	0.0139409
657.176	0.0140315
657.254	0.0140017
657.332	0.0140290
657.410	0.0142484
657.488	0.0141459
657.567	0.0141666
657.645	0.0142632
657.723	0.0141727
657.801	0.0143063
657.879	0.0143439
657.957	0.0141150
658.035	0.0141119
658.113	0.0141772
658.192	0.0141014
658.270	0.0140551
658.348	0.0141138
658.426	0.0140680
658.504	0.0140353
658.582	0.0140924
658.660	0.0140005
658.738	0.0140640
658.817	0.0140802
658.895	0.0140513
658.973	0.0140695
659.051	0.0140124
659.129	0.0140419
659.207	0.0140768
659.285	0.0141817
659.363	0.0141223
659.442	0.0140620
659.520	0.0141908
659.598	0.0140852
659.676	0.0139761
659.754	0.0138667
659.832	0.0139497
659.910	0.0140587
659.988	0.0138935
660.067	0.0141313
660.145	0.0140214
660.223	0.0139709
660.301	0.0139745
660.379	0.0139632
660.457	0.0141016
660.535	0.0139899
660.613	0.0140075
660.692	0.0141177
660.770	0.0140579
660.848	0.0141600
660.926	0.0140816
661.004	0.0140876
661.082	0.0142284
661.160	0.0142531
661.238	0.0142639
661.317	0.0140813
661.395	0.0141389
661.473	0.0142569
661.551	0.0141548
661.629	0.0141711
661.707	0.0141026
661.785	0.0140792
661.863	0.0140820
661.942	0.0140393
662.020	0.0141584
662.098	0.0140366
662.176	0.0140368
662.254	0.0139861
662.332	0.0139909
662.410	0.0139544
662.488	0.0139681
662.567	0.0140465
662.645	0.0140454
662.723	0.0141313
662.801	0.0141191
662.879	0.0141098
662.957	0.0140620
663.035	0.0140208
663.113	0.0140099
663.192	0.0140024
663.270	0.0140414
663.348	0.0138688
663.426	0.0138198
663.504	0.0139151
663.582	0.0139252
663.660	0.0138412
663.738	0.0138358
663.817	0.0138535
663.895	0.0136979
663.973	0.0137848
664.051	0.0138680
664.129	0.0137049
664.207	0.0139234
664.285	0.0138810
664.363	0.0138802
664.442	0.0139449
664.520	0.0139983
664.598	0.0139550
664.676	0.0139653
664.754	0.0139471
664.832	0.0140314
664.910	0.0140669
664.988	0.0140601
665.067	0.0139680
665.145	0.0139654
665.223	0.0140287
665.301	0.0140945
665.379	0.0139924
665.457	0.0140697
665.535	0.0140041
665.613	0.0140746
665.692	0.0139742
665.770	0.0141080
665.848	0.0140269
665.926	0.0140987
666.004	0.0141174
666.082	0.0141269
666.160	0.0139566
666.238	0.0140414
666.317	0.0140078
666.395	0.0140022
666.473	0.0142219
666.551	0.0141562
666.629	0.0141514
666.707	0.0140645
666.785	0.0140907
666.863	0.0142818
666.942	0.0142570
667.020	0.0140474
667.098	0.0141850
667.176	0.0141568
667.254	0.0142142
667.332	0.0142735
667.410	0.0141839
667.488	0.0141960
667.567	0.0142796
667.645	0.0142874
667.723	0.0144624
667.801	0.0144424
667.879	0.0143958
667.957	0.0143773
668.035	0.0144137
668.113	0.0143477
668.192	0.0142960
668.270	0.0141637
668.348	0.0143041
668.426	0.0144421
668.504	0.0141561
668.582	0.0141991
668.660	0.0141122
668.738	0.0139663
668.817	0.0140218
668.895	0.0141779
668.973	0.0139862
669.051	0.0139075
669.129	0.0140637
669.207	0.0140085
669.285	0.0140104
669.363	0.0140267
669.442	0.0138442
669.520	0.0138955
669.598	0.0139003
669.676	0.0141873
669.754	0.0138548
669.832	0.0139835
669.910	0.0138864
669.988	0.0139467
670.067	0.0139318
670.145	0.0140266
670.223	0.0140308
670.301	0.0140759
670.379	0.0141030
670.457	0.0140939
670.535	0.0141430
670.613	0.0140672
670.692	0.0138963
670.770	0.0140269
670.848	0.0140052
670.926	0.0139420
671.004	0.0139410
671.082	0.0139405
671.160	0.0138494
671.238	0.0136802
671.317	0.0138901
671.395	0.0140162
671.473	0.0138499
671.551	0.0138413
671.629	0.0137734
671.707	0.0140392
671.785	0.0141527
671.863	0.0139656
671.942	0.0140364
672.020	0.0141217
672.098	0.0143461
672.176	0.0143583
672.254	0.0143644
672.332	0.0144919
672.410	0.0146756
672.488	0.0147056
672.567	0.0147044
672.645	0.0147229
672.723	0.0149442
672.801	0.0147581
672.879	0.0147373
672.957	0.0148053
673.035	0.0147427
673.113	0.0146825
673.192	0.0145196
673.270	0.0145305
673.348	0.0145345
673.426	0.0143962
673.504	0.0142651
673.582	0.0142313
673.660	0.0141901
673.738	0.0140779
673.817	0.0139485
673.895	0.0138685
673.973	0.0138567
674.051	0.0138927
674.129	0.0137644
674.207	0.0137165
674.285	0.0137377
674.363	0.0138257
674.442	0.0138628
674.520	0.0135657
674.598	0.0136389
674.676	0.0137129
674.754	0.0135354
674.832	0.0134822
674.910	0.0136439
674.988	0.0135314
675.067	0.0135667
675.145	0.0136230
675.223	0.0136833
675.301	0.0136597
675.379	0.0138375
675.457	0.0138927
675.535	0.0137233
675.613	0.0139285
675.692	0.0139407
675.770	0.0140691
675.848	0.0142358
675.926	0.0142085
676.004	0.0142510
676.082	0.0143694
676.160	0.0143983
676.238	0.0144755
676.317	0.0143761
676.395	0.0144361
676.473	0.0144621
676.551	0.0144357
676.629	0.0143257
676.707	0.0144284
676.785	0.0143388
676.863	0.0144056
676.942	0.0142989
677.020	0.0142021
677.098	0.0142057
677.176	0.0142171
677.254	0.0141843
677.332	0.0140171
677.410	0.0140125
677.488	0.0139843
677.567	0.0139014
677.645	0.0138618
677.723	0.0138863
677.801	0.0138908
677.879	0.0139400
677.957	0.0139899
678.035	0.0136915
678.113	0.0138210
678.192	0.0138392
678.270	0.0138538
678.348	0.0137923
678.426	0.0136480
678.504	0.0138090
678.582	0.0138145
678.660	0.0138036
678.738	0.0137412
678.817	0.0139210
678.895	0.0138282
678.973	0.0139401
679.051	0.0138523
679.129	0.0138498
679.207	0.0139085
679.285	0.0138740
679.363	0.0139295
679.442	0.0139578
679.520	0.0139373
679.598	0.0138928
679.676	0.0140057
679.754	0.0140800
679.832	0.0140772
679.910	0.0139937
679.988	0.0140370
680.067	0.0141729
680.145	0.0140234
680.223	0.0140243
680.301	0.0141068
680.379	0.0141033
680.457	0.0140833
680.535	0.0141074
680.613	0.0140706
680.692	0.0141240
680.770	0.0140521
680.848	0.0140359
680.926	0.0139433
681.004	0.0140115
681.082	0.0140060
681.160	0.0140034
681.238	0.0139529
681.317	0.0140388
681.395	0.0139639
681.473	0.0140301
681.551	0.0140028
681.629	0.0140340
681.707	0.0142041
681.785	0.0142406
681.863	0.0143509
681.942	0.0142065
682.020	0.0143777
682.098	0.0143085
682.176	0.0143901
682.254	0.0142604
682.332	0.0144068
682.410	0.0143591
682.488	0.0143821
682.567	0.0142258
682.645	0.0141221
682.723	0.0141508
682.801	0.0140369
682.879	0.0141000
682.957	0.0141335
683.035	0.0140149
683.113	0.0140701
683.192	0.0140253
683.270	0.0140428
683.348	0.0140985
683.426	0.0140744
683.504	0.0141389
683.582	0.0141142
683.660	0.0141241
683.738	0.0141386
683.817	0.0139909
683.895	0.0140862
683.973	0.0141776
684.051	0.0140569
684.129	0.0142004
684.207	0.0141766
684.285	0.0141367
684.363	0.0142151
684.442	0.0141899
684.520	0.0140314
684.598	0.0140833
684.676	0.0141786
684.754	0.0140932
684.832	0.0140880
684.910	0.0140252
684.988	0.0140480
685.067	0.0140677
685.145	0.0139806
685.223	0.0138655
685.301	0.0139053
685.379	0.0139319
685.457	0.0137747
685.535	0.0138763
685.613	0.0138322
685.692	0.0137792
685.770	0.0136341
685.848	0.0136484
685.926	0.0137001
686.004	0.0137789
686.082	0.0135666
686.160	0.0137197
686.238	0.0136740
686.317	0.0137065
686.395	0.0138657
686.473	0.0136677
686.551	0.0138300
686.629	0.0137943
686.707	0.0138812
686.785	0.0138483
686.863	0.0139032
686.942	0.0138649
687.020	0.0141601
687.098	0.0142332
687.176	0.0141418
687.254	0.0142651
687.332	0.0142760
687.410	0.0142151
687.488	0.0143120
687.567	0.0143205
687.645	0.0144424
687.723	0.0143590
687.801	0.0142836
687.879	0.0143552
687.957	0.0142506
688.035	0.0142752
688.113	0.0143125
688.192	0.0143575
688.270	0.0142809
688.348	0.0142563
688.426	0.0144740
688.504	0.0143282
688.582	0.0141591
688.660	0.0142934
688.738	0.0142573
688.817	0.0141740
688.895	0.0142631
688.973	0.0141517
689.051	0.0140830
689.129	0.0139059
689.207	0.0138918
689.285	0.0138982
689.363	0.0139719
689.442	0.0139418
689.520	0.0139928
689.598	0.0138469
689.676	0.0137907
689.754	0.0138457
689.832	0.0137689
689.910	0.0138424
689.988	0.0137499
690.067	0.0139437
690.145	0.0137927
690.223	0.0138255
690.301	0.0137453
690.379	0.0138342
690.457	0.0139028
690.535	0.0138902
690.613	0.0139349
690.692	0.0138938
690.770	0.0140732
690.848	0.0140628
690.926	0.0139728
691.004	0.0140298
691.082	0.0141251
691.160	0.0142276
691.238	0.0141729
691.317	0.0141122
691.395	0.0140115
691.473	0.0140169
691.551	0.0140635
691.629	0.0141187
691.707	0.0142566
691.785	0.0140718
691.863	0.0140306
691.942	0.0140497
692.020	0.0140325
692.098	0.0140510
692.176	0.0140961
692.254	0.0139492
692.332	0.0141423
692.410	0.0140618
692.488	0.0142431
692.567	0.0141959
692.645	0.0143555
692.723	0.0142741
692.801	0.0141906
692.879	0.0142953
692.957	0.0143999
693.035	0.0144884
693.113	0.0145335
693.192	0.0144469
693.270	0.0145879
693.348	0.0143943
693.426	0.0144784
693.504	0.0144989
693.582	0.0146244
693.660	0.0144353
693.738	0.0143578
693.817	0.0143867
693.895	0.0144894
693.973	0.0143861
694.051	0.0143622
694.129	0.0144363
694.207	0.0143836
694.285	0.0143612
694.363	0.0144153
694.442	0.0143671
694.520	0.0143062
694.598	0.0142149
694.676	0.0143622
694.754	0.0141476
694.832	0.0141940
694.910	0.0141541
694.988	0.0141526
695.067	0.0142719
695.145	0.0140391
695.223	0.0140162
695.301	0.0138614
695.379	0.0137967
695.457	0.0137957
695.535	0.0139811
695.613	0.0139412
695.692	0.0138359
695.770	0.0138825
695.848	0.0137540
695.926	0.0137691
696.004	0.0138657
696.082	0.0137959
696.160	0.0137479
696.238	0.0137085
696.317	0.0137998
696.395	0.0138338
696.473	0.0137296
696.551	0.0138071
696.629	0.0137811
696.707	0.0139178
696.785	0.0139223
696.863	0.0139466
696.942	0.0141849
697.020	0.0140877
697.098	0.0140289
697.176	0.0141995
697.254	0.0142760
697.332	0.0142387
697.410	0.0141631
697.488	0.0143278
697.567	0.0145132
697.645	0.0144572
697.723	0.0145612
697.801	0.0145258
697.879	0.0145119
697.957	0.0144303
698.035	0.0146649
698.113	0.0145712
698.192	0.0145623
698.270	0.0146613
698.348	0.0145712
698.426	0.0146130
698.504	0.0146835
698.582	0.0145170
698.660	0.0146909
698.738	0.0145728
698.817	0.0145146
698.895	0.0146270
698.973	0.0144649
699.051	0.0143230
699.129	0.0143607
699.207	0.0143686
699.285	0.0141772
699.363	0.0141831
699.442	0.0142471
699.520	0.0141680
699.598	0.0140055
699.676	0.0140811
699.754	0.0137782
699.832	0.0137199
699.910	0.0136752
699.988	0.0135911
700.067	0.0135240
700.145	0.0136451
700.223	0.0134924
700.301	0.0133369
700.379	0.0134917
700.457	0.0135496
700.535	0.0135691
700.613	0.0135501
700.692	0.0135467
700.770	0.0136504
700.848	0.0135625
700.926	0.0136509
701.004	0.0137610
701.082	0.0138506
701.160	0.0138731
701.238	0.0140006
701.317	0.0141241
701.395	0.0141347
701.473	0.0141327
701.551	0.0140566
701.629	0.0141206
701.707	0.0141680
701.785	0.0140542
701.863	0.0141922
701.942	0.0141938
702.020	0.0143430
702.098	0.0143662
702.176	0.0143016
702.254	0.0142303
702.332	0.0142728
702.410	0.0142479
702.488	0.0143300
702.567	0.0142464
702.645	0.0143356
702.723	0.0142431
702.801	0.0142079
702.879	0.0142393
702.957	0.0141462
703.035	0.0142011
703.113	0.0142245
703.192	0.0140913
703.270	0.0141792
703.348	0.0141647
703.426	0.0141418
703.504	0.0141576
703.582	0.0141026
703.660	0.0140539
703.738	0.0140588
703.817	0.0141212
703.895	0.0141295
703.973	0.0139339
704.051	0.0140224
704.129	0.0141248
704.207	0.0139160
704.285	0.0138951
704.363	0.0138151
704.442	0.0137238
704.520	0.0140745
704.598	0.0139799
704.676	0.0139539
704.754	0.0140228
704.832	0.0139983
704.910	0.0140565
704.988	0.0140940
705.067	0.0139287
705.145	0.0139266
705.223	0.0140344
705.301	0.0139370
705.379	0.0139098
705.457	0.0138505
705.535	0.0139650
705.613	0.0138361
705.692	0.0138029
705.770	0.0140195
705.848	0.0139793
705.926	0.0138943
706.004	0.0139302
706.082	0.0139278
706.160	0.0138534
706.238	0.0139370
706.317	0.0139659
706.395	0.0139260
706.473	0.0138465
706.551	0.0138177
706.629	0.0139782
706.707	0.0140591
706.785	0.0141040
706.863	0.0140964
706.942	0.0140084
707.020	0.0139362
707.098	0.0140332
707.176	0.0139857
707.254	0.0140905
707.332	0.0141483
707.410	0.0140353
707.488	0.0140868
707.567	0.0141730
707.645	0.0141659
707.723	0.0141338
707.801	0.0140776
707.879	0.0139889
707.957	0.0140466
708.035	0.0139543
708.113	0.0141422
708.192	0.0140961
708.270	0.0140514
708.348	0.0139870
708.426	0.0139960
708.504	0.0141366
708.582	0.0140119
708.660	0.0140436
708.738	0.0139513
708.817	0.0138792
708.895	0.0141441
708.973	0.0142298
709.051	0.0140223
709.129	0.0140571
709.207	0.0140525
709.285	0.0141712
709.363	0.0142055
709.442	0.0140917
709.520	0.0143970
709.598	0.0141719
709.676	0.0141639
709.754	0.0141535
709.832	0.0142069
709.910	0.0142561
709.988	0.0142551
710.067	0.0143233
710.145	0.0141910
710.223	0.0140842
710.301	0.0140711
710.379	0.0142657
710.457	0.0142736
710.535	0.0143110
710.613	0.0141019
710.692	0.0142233
710.770	0.0142780
710.848	0.0141698
710.926	0.0140958
711.004	0.0141452
711.082	0.0140453
711.160	0.0141477
711.238	0.0139719
711.317	0.0139864
711.395	0.0140824
711.473	0.0140067
711.551	0.0139290
711.629	0.0140324
711.707	0.0138487
711.785	0.0139330
711.863	0.0139124
711.942	0.0139530
712.020	0.0138963
712.098	0.0138736
712.176	0.0140067
712.254	0.0139531
712.332	0.0139315
712.410	0.0139951
712.488	0.0140414
712.567	0.0140703
712.645	0.0139495
712.723	0.0141389
712.801	0.0142153
712.879	0.0142169
712.957	0.0139982
713.035	0.0141384
713.113	0.0141415
713.192	0.0141602
713.270	0.0142300
713.348	0.0141850
713.426	0.0142033
713.504	0.0140947
713.582	0.0141002
713.660	0.0142180
713.738	0.0141539
713.817	0.0140491
713.895	0.0140313
713.973	0.0140730
714.051	0.0140926
714.129	0.0139757
714.207	0.0140277
714.285	0.0140493
714.363	0.0140725
714.442	0.0140182
714.520	0.0138962
714.598	0.0140504
714.676	0.0139515
714.754	0.0139780
714.832	0.0139989
714.910	0.0140634
714.988	0.0140405
715.067	0.0141537
715.145	0.0141892
715.223	0.0143368
715.301	0.0143710
715.379	0.0142805
715.457	0.0143040
715.535	0.0142545
715.613	0.0142307
715.692	0.0142874
715.770	0.0143524
715.848	0.0142885
715.926	0.0142961
716.004	0.0143498
716.082	0.0141834
716.160	0.0142636
716.238	0.0142255
716.317	0.0141846
716.395	0.0141264
716.473	0.0141174
716.551	0.0141084
716.629	0.0141469
716.707	0.0140191
716.785	0.0141675
716.863	0.0140307
716.942	0.0141400
717.020	0.0139989
717.098	0.0140248
717.176	0.0141486
717.254	0.0141263
717.332	0.0141590
717.410	0.0141526
717.488	0.0141138
717.567	0.0140626
717.645	0.0141659
717.723	0.0142399
717.801	0.0142083
717.879	0.0141024
717.957	0.0141987
718.035	0.0141779
718.113	0.0142287
718.192	0.0140773
718.270	0.0141458
718.348	0.0141368
718.426	0.0140946
718.504	0.0140216
718.582	0.0140417
718.660	0.0142467
718.738	0.0141351
718.817	0.0141380
718.895	0.0140598
718.973	0.0140819
719.051	0.0140090
719.129	0.0140943
719.207	0.0140253
719.285	0.0140114
719.363	0.0139392
719.442	0.0140335
719.520	0.0139197
719.598	0.0139615
719.676	0.0139945
719.754	0.0139762
719.832	0.0139436
719.910	0.0139740
719.988	0.0138777
720.067	0.0139970
720.145	0.0138943
720.223	0.0140101
720.301	0.0139328
720.379	0.0140375
720.457	0.0138990
720.535	0.0138901
720.613	0.0139828
720.692	0.0141016
720.770	0.0139640
720.848	0.0141551
720.926	0.0139617
721.004	0.0140070
721.082	0.0139852
721.160	0.0140356
721.238	0.0141357
721.317	0.0140405
721.395	0.0139479
721.473	0.0139732
721.551	0.0139888
721.629	0.0141251
721.707	0.0141914
721.785	0.0141615
721.863	0.0141326
721.942	0.0141508
722.020	0.0141366
722.098	0.0141677
722.176	0.0142193
722.254	0.0141280
722.332	0.0140970
722.410	0.0141600
722.488	0.0140471
722.567	0.0141389
722.645	0.0140978
722.723	0.0140582
722.801	0.0142079
722.879	0.0140524
722.957	0.0141942
723.035	0.0140195
723.113	0.0140385
723.192	0.0140188
723.270	0.0140118
723.348	0.0141416
723.426	0.0143790
723.504	0.0140132
723.582	0.0140752
723.660	0.0141872
723.738	0.0141259
723.817	0.0141638
723.895	0.0141962
723.973	0.0141264
724.051	0.0142462
724.129	0.0141875
724.207	0.0141087
724.285	0.0140276
724.363	0.0141298
724.442	0.0140584
724.520	0.0140865
724.598	0.0142591
724.676	0.0140563
724.754	0.0141647
724.832	0.0141299
724.910	0.0141173
724.988	0.0141160
725.067	0.0142451
725.145	0.0143007
725.223	0.0141495
725.301	0.0141398
725.379	0.0141280
725.457	0.0141697
725.535	0.0142017
725.613	0.0142494
725.692	0.0141884
725.770	0.0142448
725.848	0.0143269
725.926	0.0142518
726.004	0.0140813
726.082	0.0141444
726.160	0.0142789
726.238	0.0143110
726.317	0.0143353
726.395	0.0142152
726.473	0.0140982
726.551	0.0141949
726.629	0.0141390
726.707	0.0141380
726.785	0.0142491
726.863	0.0144012
726.942	0.0141650
727.020	0.0142343
727.098	0.0141346
727.176	0.0142318
727.254	0.0142200
727.332	0.0142020
727.410	0.0141642
727.488	0.0142649
727.567	0.0142764
727.645	0.0142691
727.723	0.0141821
727.801	0.0142080
727.879	0.0142675
727.957	0.0141540
728.035	0.0140382
728.113	0.0141644
728.192	0.0141477
728.270	0.0141558
728.348	0.0141314
728.426	0.0140704
728.504	0.0141603
728.582	0.0140398
728.660	0.0140202
728.738	0.0140940
728.817	0.0141852
728.895	0.0140677
728.973	0.0138606
729.051	0.0139599
729.129	0.0141454
729.207	0.0141302
729.285	0.0139980
729.363	0.0140872
729.442	0.0141676
729.520	0.0141761
729.598	0.0141608
729.676	0.0140956
729.754	0.0140509
729.832	0.0141225
729.910	0.0140955
729.988	0.0140854
730.067	0.0140972
730.145	0.0141015
730.223	0.0141096
730.301	0.0140708
730.379	0.0140448
730.457	0.0142209
730.535	0.0140533
730.613	0.0142240
730.692	0.0141902
730.770	0.0141537
730.848	0.0141551
730.926	0.0141711
731.004	0.0141064
731.082	0.0140282
731.160	0.0140239
731.238	0.0140939
731.317	0.0140671
731.395	0.0138601
731.473	0.0139792
731.551	0.0141566
731.629	0.0142274
731.707	0.0141427
731.785	0.0140621
731.863	0.0141579
731.942	0.0141465
732.020	0.0141437
732.098	0.0141093
732.176	0.0140883
732.254	0.0140956
732.332	0.0140750
732.410	0.0141342
732.488	0.0139978
732.567	0.0140741
732.645	0.0140890
732.723	0.0140413
732.801	0.0140067
732.879	0.0141101
732.957	0.0140194
733.035	0.0139874
733.113	0.0139714
733.192	0.0140040
733.270	0.0140376
733.348	0.0140208
733.426	0.0138403
733.504	0.0139453
733.582	0.0140091
733.660	0.0139317
733.738	0.0139452
733.817	0.0140021
733.895	0.0140710
733.973	0.0140171
734.051	0.0140013
734.129	0.0138655
734.207	0.0139317
734.285	0.0139194
734.363	0.0137826
734.442	0.0140550
734.520	0.0140092
734.598	0.0141234
734.676	0.0139799
734.754	0.0139582
734.832	0.0139592
734.910	0.0141125
734.988	0.0140888
735.067	0.0140270
735.145	0.0139732
735.223	0.0140642
735.301	0.0140091
735.379	0.0139981
735.457	0.0140884
735.535	0.0140256
735.613	0.0140662
735.692	0.0140824
735.770	0.0141624
735.848	0.0139661
735.926	0.0140500
736.004	0.0140887
736.082	0.0142091
736.160	0.0142079
736.238	0.0140843
736.317	0.0141332
736.395	0.0142156
736.473	0.0142263
736.551	0.0141050
736.629	0.0141116
736.707	0.0142968
736.785	0.0142126
736.863	0.0142645
736.942	0.0142573
737.020	0.0142588
737.098	0.0142419
737.176	0.0141938
737.254	0.0142452
737.332	0.0140765
737.410	0.0141008
737.488	0.0141264
737.567	0.0141968
737.645	0.0142115
737.723	0.0141833
737.801	0.0141734
737.879	0.0141772
737.957	0.0142002
738.035	0.0141976
738.113	0.0142688
738.192	0.0142722
738.270	0.0143317
738.348	0.0142044
738.426	0.0143459
738.504	0.0141232
738.582	0.0141687
738.660	0.0141962
738.738	0.0141598
738.817	0.0142002
738.895	0.0141998
738.973	0.0141388
739.051	0.0141040
739.129	0.0141474
739.207	0.0141423
739.285	0.0142316
739.363	0.0142535
739.442	0.0140551
739.520	0.0142149
739.598	0.0140503
739.676	0.0140894
739.754	0.0140986
739.832	0.0142095
739.910	0.0142329
739.988	0.0140737
740.067	0.0140924
740.145	0.0141237
740.223	0.0140795
740.301	0.0139567
740.379	0.0140938
740.457	0.0138853
740.535	0.0139700
740.613	0.0141077
740.692	0.0140108
740.770	0.0138554
740.848	0.0140379
740.926	0.0139049
741.004	0.0140503
741.082	0.0139342
741.160	0.0141100
741.238	0.0140176
741.317	0.0138688
741.395	0.0139538
741.473	0.0138471
741.551	0.0139529
741.629	0.0138816
741.707	0.0139574
741.785	0.0138602
741.863	0.0139915
741.942	0.0139688
742.020	0.0138969
742.098	0.0140513
742.176	0.0139693
742.254	0.0139103
742.332	0.0139052
742.410	0.0139784
742.488	0.0139718
742.567	0.0139526
742.645	0.0138755
742.723	0.0139509
742.801	0.0138744
742.879	0.0140773
742.957	0.0138850
743.035	0.0139117
743.113	0.0138789
743.192	0.0139186
743.270	0.0140573
743.348	0.0139893
743.426	0.0140752
743.504	0.0140083
743.582	0.0139819
743.660	0.0139742
743.738	0.0140480
743.817	0.0139833
743.895	0.0139712
743.973	0.0141644
744.051	0.0140424
744.129	0.0141519
744.207	0.0141119
744.285	0.0141036
744.363	0.0140733
744.442	0.0141171
744.520	0.0141051
744.598	0.0141100
744.676	0.0140848
744.754	0.0141595
744.832	0.0142583
744.910	0.0141043
744.988	0.0140926
745.067	0.0141301
745.145	0.0140034
745.223	0.0139623
745.301	0.0140192
745.379	0.0141225
745.457	0.0140557
745.535	0.0140775
745.613	0.0140716
745.692	0.0140676
745.770	0.0139713
745.848	0.0140985
745.926	0.0140908
746.004	0.0141004
746.082	0.0141264
746.160	0.0140391
746.238	0.0140676
746.317	0.0140577
746.395	0.0139095
746.473	0.0141212
746.551	0.0139680
746.629	0.0141145
746.707	0.0141696
746.785	0.0141248
746.863	0.0143258
746.942	0.0141142
747.020	0.0140478
747.098	0.0140183
747.176	0.0140137
747.254	0.0140977
747.332	0.0141266
747.410	0.0140855
747.488	0.0141837
747.567	0.0140183
747.645	0.0141444
747.723	0.0139568
747.801	0.0139936
747.879	0.0140443
747.957	0.0140356
748.035	0.0142108
748.113	0.0140912
748.192	0.0139844
748.270	0.0139899
748.348	0.0141271
748.426	0.0140802
748.504	0.0141215
748.582	0.0141345
748.660	0.0141307
748.738	0.0140498
748.817	0.0141499
748.895	0.0141653
748.973	0.0142209
749.051	0.0140685
749.129	0.0141869
749.207	0.0142157
749.285	0.0142435
749.363	0.0141285
749.442	0.0142343
749.520	0.0143009
749.598	0.0142516
749.676	0.0142735
749.754	0.0140852
749.832	0.0142444
749.910	0.0142419
749.988	0.0142538
750.067	0.0141637
750.145	0.0140633
750.223	0.0143224
750.301	0.0142857
750.379	0.0141528
750.457	0.0141951
750.535	0.0141357
750.613	0.0141612
750.692	0.0142186
750.770	0.0141744
750.848	0.0141437
750.926	0.0141167
751.004	0.0140604
751.082	0.0142757
751.160	0.0140825
751.238	0.0140209
751.317	0.0141791
751.395	0.0141078
751.473	0.0139968
751.551	0.0140003
751.629	0.0140958
751.707	0.0140272
751.785	0.0139250
751.863	0.0141113
751.942	0.0141659
752.020	0.0139601
752.098	0.0139013
752.176	0.0139398
752.254	0.0139785
752.332	0.0139616
752.410	0.0139822
752.488	0.0140771
752.567	0.0138544
752.645	0.0139046
752.723	0.0139945
752.801	0.0138709
752.879	0.0138998
752.957	0.0139323
753.035	0.0138339
753.113	0.0140361
753.192	0.0138919
753.270	0.0139767
753.348	0.0138162
753.426	0.0137669
753.504	0.0140620
753.582	0.0139719
753.660	0.0138833
753.738	0.0139622
753.817	0.0139477
753.895	0.0139965
753.973	0.0139420
754.051	0.0139143
754.129	0.0140798
754.207	0.0140752
754.285	0.0139128
754.363	0.0139790
754.442	0.0140071
754.520	0.0140456
754.598	0.0140987
754.676	0.0142697
754.754	0.0139555
754.832	0.0141267
754.910	0.0143094
754.988	0.0142612
755.067	0.0142207
755.145	0.0140485
755.223	0.0141364
755.301	0.0142461
755.379	0.0141866
755.457	0.0143712
755.535	0.0143868
755.613	0.0143311
755.692	0.0141766
755.770	0.0142654
755.848	0.0143373
755.926	0.0141237
756.004	0.0142603
756.082	0.0141524
756.160	0.0141307
756.238	0.0141145
756.317	0.0141662
756.395	0.0143516
756.473	0.0142709
756.551	0.0142157
756.629	0.0140948
756.707	0.0142665
756.785	0.0141711
756.863	0.0142249
756.942	0.0142206
757.020	0.0144238
757.098	0.0142432
757.176	0.0141059
757.254	0.0142904
757.332	0.0143642
757.410	0.0142027
757.488	0.0143108
757.567	0.0143658
757.645	0.0142908
757.723	0.0143086
757.801	0.0142521
757.879	0.0143667
757.957	0.0142937
758.035	0.0144823
758.113	0.0143745
758.192	0.0144333
758.270	0.0143859
758.348	0.0143633
758.426	0.0144048
758.504	0.0142139
758.582	0.0142825
758.660	0.0142853
758.738	0.0142715
758.817	0.0143214
758.895	0.0143062
758.973	0.0143401
759.051	0.0141991
759.129	0.0141685
759.207	0.0141244
759.285	0.0141084
759.363	0.0141205
759.442	0.0140489
759.520	0.0140543
759.598	0.0140056
759.676	0.0141627
759.754	0.0140575
759.832	0.0139536
759.910	0.0140357
759.988	0.0138126
760.067	0.0139541
760.145	0.0140652
760.223	0.0139132
760.301	0.0139532
760.379	0.0139345
760.457	0.0138297
760.535	0.0138452
760.613	0.0139565
760.692	0.0139311
760.770	0.0139261
760.848	0.0138700
760.926	0.0138924
761.004	0.0139079
761.082	0.0139293
761.160	0.0138872
761.238	0.0138383
761.317	0.0138235
761.395	0.0139878
761.473	0.0138836
761.551	0.0139384
761.629	0.0137600
761.707	0.0138856
761.785	0.0138593
761.863	0.0140896
761.942	0.0139582
762.020	0.0138509
762.098	0.0138470
762.176	0.0137121
762.254	0.0139131
762.332	0.0141135
762.410	0.0138393
762.488	0.0139020
762.567	0.0138918
762.645	0.0137513
762.723	0.0138755
762.801	0.0137471
762.879	0.0137405
762.957	0.0138518
763.035	0.0137180
763.113	0.0137129
763.192	0.0137402
763.270	0.0137711
763.348	0.0138039
763.426	0.0137785
763.504	0.0137266
763.582	0.0137720
763.660	0.0137431
763.738	0.0139047
763.817	0.0138306
763.895	0.0139294
763.973	0.0138865
764.051	0.0139219
764.129	0.0139206
764.207	0.0139567
764.285	0.0139414
764.363	0.0140396
764.442	0.0140018
764.520	0.0139948
764.598	0.0138715
764.676	0.0140181
764.754	0.0140421
764.832	0.0139826
764.910	0.0141953
764.988	0.0140961
765.067	0.0140678
765.145	0.0139983
765.223	0.0140722
765.301	0.0141285
765.379	0.0139742
765.457	0.0140157
765.535	0.0140364
765.613	0.0140678
765.692	0.0140375
765.770	0.0141222
765.848	0.0140649
765.926	0.0142142
766.004	0.0140970
766.082	0.0142213
766.160	0.0141801
766.238	0.0142191
766.317	0.0142140
766.395	0.0142609
766.473	0.0140768
766.551	0.0142239
766.629	0.0141411
766.707	0.0141955
766.785	0.0142486
766.863	0.0140314
766.942	0.0142120
767.020	0.0141755
767.098	0.0141438
767.176	0.0141932
767.254	0.0141684
767.332	0.0142757
767.410	0.0141895
767.488	0.0140839
767.567	0.0140842
767.645	0.0142000
767.723	0.0143071
767.801	0.0141589
767.879	0.0141276
767.957	0.0140588
768.035	0.0140696
768.113	0.0140511
768.192	0.0142484
768.270	0.0141066
768.348	0.0140739
768.426	0.0141488
768.504	0.0140952
768.582	0.0141376
768.660	0.0139665
768.738	0.0141820
768.817	0.0141003
768.895	0.0140561
768.973	0.0140813
769.051	0.0140668
769.129	0.0139312
769.207	0.0139725
769.285	0.0140878
769.363	0.0140523
769.442	0.0141580
769.520	0.0139912
769.598	0.0141518
769.676	0.0140414
769.754	0.0140356
769.832	0.0140215
769.910	0.0140276
769.988	0.0140922
770.067	0.0140913
770.145	0.0137951
770.223	0.0139241
770.301	0.0140411
770.379	0.0140032
770.457	0.0139717
770.535	0.0139881
770.613	0.0141340
770.692	0.0138087
770.770	0.0138838
770.848	0.0139252
770.926	0.0139767
771.004	0.0138026
771.082	0.0138557
771.160	0.0138827
771.238	0.0140160
771.317	0.0138872
771.395	0.0138731
771.473	0.0138774
771.551	0.0139195
771.629	0.0139665
771.707	0.0139673
771.785	0.0139443
771.863	0.0138643
771.942	0.0140031
772.020	0.0139447
772.098	0.0139794
772.176	0.0139846
772.254	0.0139867
772.332	0.0139119
772.410	0.0140378
772.488	0.0140039
772.567	0.0139948
772.645	0.0140112
772.723	0.0139621
772.801	0.0140312
772.879	0.0140220
772.957	0.0139958
773.035	0.0140849
773.113	0.0139624
773.192	0.0140254
773.270	0.0141549
773.348	0.0139974
773.426	0.0139651
773.504	0.0143036
773.582	0.0141025
773.660	0.0141073
773.738	0.0140559
773.817	0.0139941
773.895	0.0140661
773.973	0.0140086
774.051	0.0141335
774.129	0.0141219
774.207	0.0141527
774.285	0.0140358
774.363	0.0142563
774.442	0.0141599
774.520	0.0141534
774.598	0.0141710
774.676	0.0141235
774.754	0.0142159
774.832	0.0140529
774.910	0.0142463
774.988	0.0141427
775.067	0.0141313
775.145	0.0142355
775.223	0.0142148
775.301	0.0139858
775.379	0.0141432
775.457	0.0141010
775.535	0.0140194
775.613	0.0141195
775.692	0.0142680
775.770	0.0141445
775.848	0.0140533
775.926	0.0140591
776.004	0.0142767
776.082	0.0142540
776.160	0.0141815
776.238	0.0142488
776.317	0.0141740
776.395	0.0142022
776.473	0.0142665
776.551	0.0141319
776.629	0.0141286
776.707	0.0140694
776.785	0.0142257
776.863	0.0140669
776.942	0.0142095
777.020	0.0142537
777.098	0.0141255
777.176	0.0141285
777.254	0.0142793
777.332	0.0141980
777.410	0.0141370
777.488	0.0141928
777.567	0.0141737
777.645	0.0140966
777.723	0.0141267
777.801	0.0140763
777.879	0.0141337
777.957	0.0140744
778.035	0.0140810
778.113	0.0140874
778.192	0.0140593
778.270	0.0141768
778.348	0.0140964
778.426	0.0142547
778.504	0.0140990
778.582	0.0141177
778.660	0.0141375
778.738	0.0140467
778.817	0.0140191
778.895	0.0141960
778.973	0.0140643
779.051	0.0142250
779.129	0.0141245
779.207	0.0141381
779.285	0.0141215
779.363	0.0141084
779.442	0.0140540
779.520	0.0141220
779.598	0.0140661
779.676	0.0141503
779.754	0.0141009
779.832	0.0140134
779.910	0.0139164
779.988	0.0141728
780.067	0.0140961
780.145	0.0139690
780.223	0.0140792
780.301	0.0140788
780.379	0.0139711
780.457	0.0141340
780.535	0.0140474
780.613	0.0139977
780.692	0.0140843
780.770	0.0140253
780.848	0.0139531
780.926	0.0140861
781.004	0.0141460
781.082	0.0141049
781.160	0.0141766
781.238	0.0141451
781.317	0.0140671
781.395	0.0141077
781.473	0.0140845
781.551	0.0138744
781.629	0.0140833
781.707	0.0140385
781.785	0.0141061
781.863	0.0140630
781.942	0.0140810
782.020	0.0139596
782.098	0.0140388
782.176	0.0140110
782.254	0.0138966
782.332	0.0140414
782.410	0.0139703
782.488	0.0140467
782.567	0.0140567
782.645	0.0141222
782.723	0.0140096
782.801	0.0140527
782.879	0.0140263
782.957	0.0140037
783.035	0.0140288
783.113	0.0140718
783.192	0.0140579
783.270	0.0140707
783.348	0.0141286
783.426	0.0141773
783.504	0.0141212
783.582	0.0141130
783.660	0.0141379
783.738	0.0141761
783.817	0.0142780
783.895	0.0142388
783.973	0.0140987
784.051	0.0140844
784.129	0.0140452
784.207	0.0142842
784.285	0.0141100
784.363	0.0141553
784.442	0.0141830
784.520	0.0140829
784.598	0.0141547
784.676	0.0142596
784.754	0.0141644
784.832	0.0141474
784.910	0.0139674
784.988	0.0140832
785.067	0.0141009
785.145	0.0140459
785.223	0.0140217
785.301	0.0139831
785.379	0.0140037
785.457	0.0139646
785.535	0.0140285
785.613	0.0142397
785.692	0.0138860
785.770	0.0140182
785.848	0.0139982
785.926	0.0138029
786.004	0.0139365
786.082	0.0138166
786.160	0.0139544
786.238	0.0138734
786.317	0.0139043
786.395	0.0138409
786.473	0.0139088
786.551	0.0140844
786.629	0.0139719
786.707	0.0139716
786.785	0.0140360
786.863	0.0139790
786.942	0.0139194
787.020	0.0139841
787.098	0.0140820
787.176	0.0141615
787.254	0.0141859
787.332	0.0140759
787.410	0.0141253
787.488	0.0140525
787.567	0.0141421
787.645	0.0141529
787.723	0.0141857
787.801	0.0141371
787.879	0.0141992
787.957	0.0142255
788.035	0.0142040
788.113	0.0141224
788.192	0.0140836
788.270	0.0141212
788.348	0.0140397
788.426	0.0141156
788.504	0.0140910
788.582	0.0141419
788.660	0.0141983
788.738	0.0142268
788.817	0.0141561
788.895	0.0141849
788.973	0.0142025
789.051	0.0142944
789.129	0.0142780
789.207	0.0141169
789.285	0.0141004
789.363	0.0141987
789.442	0.0143641
789.520	0.0141084
789.598	0.0140512
789.676	0.0142162
789.754	0.0141650
789.832	0.0142120
789.910	0.0142709
789.988	0.0142031
790.067	0.0141326
790.145	0.0142606
790.223	0.0142244
790.301	0.0142480
790.379	0.0143302
790.457	0.0143423
790.535	0.0143217
790.613	0.0141798
790.692	0.0141648
790.770	0.0139828
790.848	0.0141261
790.926	0.0141702
791.004	0.0142649
791.082	0.0140737
791.160	0.0142380
791.238	0.0140412
791.317	0.0141521
791.395	0.0141298
791.473	0.0141812
791.551	0.0141312
791.629	0.0140253
791.707	0.0141142
791.785	0.0141187
791.863	0.0141399
791.942	0.0142530
792.020	0.0140514
792.098	0.0140747
792.176	0.0142364
792.254	0.0142567
792.332	0.0142751
792.410	0.0143594
792.488	0.0142059
792.567	0.0141412
792.645	0.0142187
792.723	0.0141495
792.801	0.0143330
792.879	0.0144436
792.957	0.0143832
793.035	0.0142879
793.113	0.0142693
793.192	0.0142163
793.270	0.0141605
793.348	0.0140987
793.426	0.0141928
793.504	0.0140663
793.582	0.0139673
793.660	0.0140530
793.738	0.0141389
793.817	0.0140561
793.895	0.0141876
793.973	0.0141537
794.051	0.0140267
794.129	0.0140151
794.207	0.0139732
794.285	0.0140621
794.363	0.0139953
794.442	0.0141014
794.520	0.0141343
794.598	0.0140935
794.676	0.0141486
794.754	0.0142101
794.832	0.0140690
794.910	0.0139713
794.988	0.0141749
795.067	0.0141772
795.145	0.0142210
795.223	0.0142725
795.301	0.0142245
795.379	0.0141949
795.457	0.0141647
795.535	0.0140863
795.613	0.0142300
795.692	0.0141412
795.770	0.0142348
795.848	0.0142633
795.926	0.0142267
796.004	0.0142941
796.082	0.0141612
796.160	0.0140752
796.238	0.0142979
796.317	0.0141741
796.395	0.0141654
796.473	0.0141866
796.551	0.0140853
796.629	0.0142873
796.707	0.0142586
796.785	0.0140283
796.863	0.0142462
796.942	0.0142464
797.020	0.0142220
797.098	0.0141814
797.176	0.0142486
797.254	0.0143095
797.332	0.0142982
797.410	0.0142500
797.488	0.0142892
797.567	0.0142623
797.645	0.0143232
797.723	0.0142250
797.801	0.0142590
797.879	0.0143223
797.957	0.0144669
798.035	0.0143002
798.113	0.0143066
798.192	0.0144112
798.270	0.0144389
798.348	0.0143889
798.426	0.0143732
798.504	0.0144202
798.582	0.0142740
798.660	0.0143253
798.738	0.0142972
798.817	0.0141277
798.895	0.0143283
798.973	0.0142101
799.051	0.0142558
799.129	0.0142520
799.207	0.0141302
799.285	0.0140630
799.363	0.0141675
799.442	0.0141403
799.520	0.0140628
799.598	0.0142269
799.676	0.0140787
799.754	0.0139317
799.832	0.0140872
799.910	0.0141637
799.988	0.0141472
800.067	0.0140729
800.145	0.0141508
800.223	0.0140582
800.301	0.0139610
800.379	0.0140902
800.457	0.0141696
800.535	0.0140888
800.613	0.0142467
800.692	0.0141138
800.770	0.0141164
800.848	0.0141009
800.926	0.0141568
801.004	0.0141540
801.082	0.0141426
801.160	0.0140620
801.238	0.0141262
801.317	0.0140675
801.395	0.0139906
801.473	0.0139185
801.551	0.0140926
801.629	0.0139975
801.707	0.0140786
801.785	0.0138570
801.863	0.0139285
801.942	0.0139087
802.020	0.0138858
802.098	0.0138503
802.176	0.0137955
802.254	0.0138592
802.332	0.0139890
802.410	0.0140078
802.488	0.0139944
802.567	0.0139264
802.645	0.0140482
802.723	0.0139444
802.801	0.0139261
802.879	0.0140214
802.957	0.0140293
803.035	0.0140751
803.113	0.0140798
803.192	0.0139930
803.270	0.0140434
803.348	0.0139291
803.426	0.0141354
803.504	0.0141232
803.582	0.0140596
803.660	0.0140242
803.738	0.0141309
803.817	0.0139753
803.895	0.0138268
803.973	0.0140523
804.051	0.0140923
804.129	0.0143047
804.207	0.0140624
804.285	0.0141227
804.363	0.0140649
804.442	0.0141557
804.520	0.0140495
804.598	0.0140842
804.676	0.0139842
804.754	0.0139753
804.832	0.0141921
804.910	0.0140546
804.988	0.0139609
805.067	0.0141083
805.145	0.0140260
805.223	0.0140008
805.301	0.0141501
805.379	0.0139687
805.457	0.0140530
805.535	0.0139976
805.613	0.0142157
805.692	0.0140281
805.770	0.0141578
805.848	0.0140650
805.926	0.0140510
806.004	0.0140530
806.082	0.0141934
806.160	0.0141640
806.238	0.0142136
806.317	0.0142477
806.395	0.0142256
806.473	0.0142276
806.551	0.0142020
806.629	0.0142054
806.707	0.0142808
806.785	0.0144341
806.863	0.0142204
806.942	0.0142095
807.020	0.0143811
807.098	0.0142635
807.176	0.0141312
807.254	0.0142515
807.332	0.0142453
807.410	0.0142257
807.488	0.0142064
807.567	0.0143365
807.645	0.0140783
807.723	0.0140830
807.801	0.0141737
807.879	0.0141660
807.957	0.0141619
808.035	0.0141635
808.113	0.0142080
808.192	0.0142597
808.270	0.0140723
808.348	0.0141476
808.426	0.0140382
808.504	0.0141483
808.582	0.0142439
808.660	0.0141301
808.738	0.0142303
808.817	0.0142377
808.895	0.0140411
808.973	0.0140130
809.051	0.0138937
809.129	0.0140685
809.207	0.0141456
809.285	0.0141911
809.363	0.0142947
809.442	0.0140968
809.520	0.0140906
809.598	0.0141039
809.676	0.0140581
809.754	0.0141095
809.832	0.0140144
809.910	0.0139794
809.988	0.0140142
810.067	0.0140553
810.145	0.0139520
810.223	0.0139098
810.301	0.0138432
810.379	0.0139976
810.457	0.0140661
810.535	0.0138786
810.613	0.0138215
810.692	0.0138913
810.770	0.0138937
810.848	0.0137669
810.926	0.0139928
811.004	0.0139204
811.082	0.0138576
811.160	0.0138961
811.238	0.0137811
811.317	0.0138858
811.395	0.0138725
811.473	0.0139647
811.551	0.0138684
811.629	0.0138692
811.707	0.0139388
811.785	0.0138517
811.863	0.0139509
811.942	0.0138662
812.020	0.0140902
812.098	0.0140587
812.176	0.0139394
812.254	0.0139221
812.332	0.0139562
812.410	0.0140988
812.488	0.0139907
812.567	0.0139835
812.645	0.0141386
812.723	0.0139116
812.801	0.0138815
812.879	0.0140083
812.957	0.0138900
813.035	0.0139164
813.113	0.0138403
813.192	0.0140322
813.270	0.0140289
813.348	0.0140331
813.426	0.0139299
813.504	0.0139860
813.582	0.0141360
813.660	0.0140213
813.738	0.0141690
813.817	0.0140864
813.895	0.0141055
813.973	0.0142338
814.051	0.0142477
814.129	0.0142055
814.207	0.0143948
814.285	0.0142110
814.363	0.0141493
814.442	0.0143021
814.520	0.0142894
814.598	0.0142834
814.676	0.0143411
814.754	0.0143706
814.832	0.0143310
814.910	0.0143465
814.988	0.0142945
815.067	0.0143006
815.145	0.0143100
815.223	0.0142097
815.301	0.0142416
815.379	0.0142907
815.457	0.0143449
815.535	0.0143234
815.613	0.0143150
815.692	0.0142737
815.770	0.0141914
815.848	0.0142623
815.926	0.0142868
816.004	0.0142164
816.082	0.0141372
816.160	0.0142298
816.238	0.0142983
816.317	0.0141012
816.395	0.0141415
816.473	0.0142231
816.551	0.0141267
816.629	0.0141923
816.707	0.0142367
816.785	0.0141586
816.863	0.0143077
816.942	0.0142484
817.020	0.0143086
817.098	0.0143712
817.176	0.0143496
817.254	0.0141817
817.332	0.0142107
817.410	0.0142632
817.488	0.0143842
817.567	0.0142908
817.645	0.0142792
817.723	0.0142847
817.801	0.0141889
817.879	0.0142486
817.957	0.0140849
818.035	0.0142561
818.113	0.0144170
818.192	0.0141937
818.270	0.0141201
818.348	0.0141962
818.426	0.0143227
818.504	0.0141214
818.582	0.0141422
818.660	0.0141461
818.738	0.0141698
818.817	0.0141319
818.895	0.0141107
818.973	0.0141695
819.051	0.0142080
819.129	0.0140331
819.207	0.0140569
819.285	0.0139899
819.363	0.0142001
819.442	0.0139767
819.520	0.0138972
819.598	0.0141955
819.676	0.0140386
819.754	0.0141193
819.832	0.0140844
819.910	0.0140987
819.988	0.0140170
820.067	0.0139571
820.145	0.0140177
820.223	0.0139130
820.301	0.0139944
820.379	0.0139876
820.457	0.0139440
820.535	0.0140147
820.613	0.0140891
820.692	0.0141094
820.770	0.0140949
820.848	0.0140414
820.926	0.0141481
821.004	0.0140327
821.082	0.0139468
821.160	0.0141909
821.238	0.0140784
821.317	0.0141064
821.395	0.0141376
821.473	0.0141874
821.551	0.0141615
821.629	0.0141647
821.707	0.0139981
821.785	0.0141549
821.863	0.0141880
821.942	0.0141066
822.020	0.0140417
822.098	0.0140286
822.176	0.0141483
822.254	0.0142497
822.332	0.0140408
822.410	0.0140368
822.488	0.0141034
822.567	0.0142165
822.645	0.0141244
822.723	0.0139844
822.801	0.0140969
822.879	0.0140545
822.957	0.0139715
823.035	0.0139896
823.113	0.0140792
823.192	0.0140305
823.270	0.0142223
823.348	0.0141395
823.426	0.0140285
823.504	0.0141354
823.582	0.0142052
823.660	0.0141024
823.738	0.0140298
823.817	0.0140045
823.895	0.0142245
823.973	0.0140486
824.051	0.0141784
824.129	0.0139235
824.207	0.0140464
824.285	0.0139552
824.363	0.0140329
824.442	0.0140834
824.520	0.0141181
824.598	0.0140641
824.676	0.0139330
824.754	0.0139997
824.832	0.0140611
824.910	0.0139884
824.988	0.0140155
825.067	0.0140276
825.145	0.0139761
825.223	0.0140892
825.301	0.0139445
825.379	0.0140421
825.457	0.0140485
825.535	0.0139203
825.613	0.0139410
825.692	0.0140318
825.770	0.0140650
825.848	0.0139444
825.926	0.0139558
826.004	0.0139448
826.082	0.0141378
826.160	0.0139704
826.238	0.0139106
826.317	0.0139217
826.395	0.0139829
826.473	0.0140461
826.551	0.0139440
826.629	0.0139944
826.707	0.0141817
826.785	0.0139863
826.863	0.0140009
826.942	0.0140115
827.020	0.0141404
827.098	0.0140861
827.176	0.0139893
827.254	0.0139563
827.332	0.0138735
827.410	0.0139548
827.488	0.0140408
827.567	0.0140231
827.645	0.0139728
827.723	0.0139427
827.801	0.0138650
827.879	0.0139351
827.957	0.0139352
828.035	0.0138844
828.113	0.0139883
828.192	0.0138467
828.270	0.0139085
828.348	0.0139920
828.426	0.0140069
828.504	0.0141605
828.582	0.0140414
828.660	0.0140685
828.738	0.0140594
828.817	0.0140038
828.895	0.0141664
828.973	0.0141483
829.051	0.0141850
829.129	0.0140060
829.207	0.0142001
829.285	0.0142117
829.363	0.0140794
829.442	0.0142876
829.520	0.0142574
829.598	0.0142383
829.676	0.0141127
829.754	0.0141772
829.832	0.0142039
829.910	0.0141985
829.988	0.0142290
830.067	0.0142508
830.145	0.0142671
830.223	0.0141982
830.301	0.0141729
830.379	0.0142265
830.457	0.0142502
830.535	0.0144079
830.613	0.0142986
830.692	0.0142191
830.770	0.0143289
830.848	0.0140707
830.926	0.0141901
831.004	0.0141470
831.082	0.0141833
831.160	0.0142280
831.238	0.0140868
831.317	0.0142708
831.395	0.0141183
831.473	0.0140112
831.551	0.0141737
831.629	0.0142937
831.707	0.0141514
831.785	0.0141350
831.863	0.0143098
831.942	0.0142108
832.020	0.0142606
832.098	0.0142972
832.176	0.0142157
832.254	0.0141589
832.332	0.0143394
832.410	0.0142872
832.488	0.0141835
832.567	0.0143478
832.645	0.0142626
832.723	0.0142025
832.801	0.0140514
832.879	0.0142725
832.957	0.0142008
833.035	0.0141998
833.113	0.0141241
833.192	0.0141830
833.270	0.0139760
833.348	0.0139864
833.426	0.0139787
833.504	0.0139981
833.582	0.0138530
833.660	0.0138390
833.738	0.0139966
833.817	0.0139080
833.895	0.0138024
833.973	0.0137961
834.051	0.0139174
834.129	0.0137881
834.207	0.0137943
834.285	0.0139808
834.363	0.0137132
834.442	0.0138126
834.520	0.0138851
834.598	0.0139069
834.676	0.0137508
834.754	0.0138010
834.832	0.0138640
834.910	0.0138009
834.988	0.0138341
835.067	0.0138781
835.145	0.0139722
835.223	0.0140019
835.301	0.0140692
835.379	0.0140849
835.457	0.0140837
835.535	0.0140604
835.613	0.0140651
835.692	0.0141501
835.770	0.0139861
835.848	0.0139362
835.926	0.0141193
836.004	0.0141122
836.082	0.0140833
836.160	0.0141769
836.238	0.0140711
836.317	0.0141867
836.395	0.0139297
836.473	0.0140425
836.551	0.0141562
836.629	0.0142093
836.707	0.0140782
836.785	0.0141082
836.863	0.0141511
836.942	0.0140550
837.020	0.0142494
837.098	0.0141606
837.176	0.0142355
837.254	0.0140755
837.332	0.0141827
837.410	0.0140955
837.488	0.0141323
837.567	0.0142027
837.645	0.0141331
837.723	0.0141656
837.801	0.0140791
837.879	0.0141376
837.957	0.0141850
838.035	0.0141802
838.113	0.0140821
838.192	0.0141062
838.270	0.0140162
838.348	0.0140005
838.426	0.0140388
838.504	0.0139576
838.582	0.0139880
838.660	0.0138485
838.738	0.0139468
838.817	0.0141521
838.895	0.0139641
838.973	0.0138847
839.051	0.0138982
839.129	0.0139925
839.207	0.0139979
839.285	0.0138972
839.363	0.0139926
839.442	0.0140303
839.520	0.0139696
839.598	0.0140062
839.676	0.0139590
839.754	0.0140313
839.832	0.0140094
839.910	0.0141254
839.988	0.0141068
840.067	0.0141866
840.145	0.0142140
840.223	0.0141257
840.301	0.0142165
840.379	0.0140532
840.457	0.0142095
840.535	0.0141953
840.613	0.0141557
840.692	0.0140830
840.770	0.0141595
840.848	0.0141663
840.926	0.0140817
841.004	0.0142171
841.082	0.0141305
841.160	0.0139594
841.238	0.0142376
841.317	0.0142495
841.395	0.0140704
841.473	0.0142055
841.551	0.0141411
841.629	0.0140592
841.707	0.0142232
841.785	0.0141721
841.863	0.0140645
841.942	0.0139853
842.020	0.0141477
842.098	0.0141022
842.176	0.0140537
842.254	0.0141833
842.332	0.0142077
842.410	0.0139679
842.488	0.0139411
842.567	0.0139733
842.645	0.0140184
842.723	0.0140308
842.801	0.0140430
842.879	0.0142610
842.957	0.0140960
843.035	0.0139421
843.113	0.0140388
843.192	0.0140247
843.270	0.0141026
843.348	0.0140887
843.426	0.0140709
843.504	0.0139010
843.582	0.0140503
843.660	0.0138860
843.738	0.0139643
843.817	0.0140601
843.895	0.0138383
843.973	0.0139722
844.051	0.0139426
844.129	0.0138685
844.207	0.0138177
844.285	0.0139207
844.363	0.0138846
844.442	0.0139049
844.520	0.0139907
844.598	0.0139592
844.676	0.0140720
844.754	0.0139400
844.832	0.0139642
844.910	0.0139466
844.988	0.0137882
845.067	0.0139927
845.145	0.0140273
845.223	0.0139613
845.301	0.0140402
845.379	0.0140767
845.457	0.0139799
845.535	0.0140671
845.613	0.0140744
845.692	0.0140546
845.770	0.0140292
845.848	0.0140507
845.926	0.0140446
846.004	0.0141634
846.082	0.0139681
846.160	0.0139886
846.238	0.0140810
846.317	0.0139442
846.395	0.0140375
846.473	0.0141403
846.551	0.0139942
846.629	0.0138265
846.707	0.0141076
846.785	0.0139639
846.863	0.0141135
846.942	0.0139666
847.020	0.0139725
847.098	0.0138739
847.176	0.0138533
847.254	0.0138617
847.332	0.0139165
847.410	0.0141138
847.488	0.0139079
847.567	0.0138618
847.645	0.0139355
847.723	0.0139234
847.801	0.0139503
847.879	0.0140894
847.957	0.0139906
848.035	0.0139883
848.113	0.0138857
848.192	0.0138885
848.270	0.0138078
848.348	0.0140308
848.426	0.0139357
848.504	0.0139270
848.582	0.0138794
848.660	0.0140216
848.738	0.0140549
848.817	0.0140392
848.895	0.0138436
848.973	0.0139558
849.051	0.0139636
849.129	0.0138793
849.207	0.0138080
849.285	0.0139635
849.363	0.0139555
849.442	0.0140070
849.520	0.0139835
849.598	0.0138971
849.676	0.0139447
849.754	0.0139503
849.832	0.0139962
849.910	0.0138902
849.988	0.0138653
850.067	0.0139919
850.145	0.0138963
850.223	0.0140089
850.301	0.0139320
850.379	0.0140276
850.457	0.0140144
850.535	0.0139720
850.613	0.0140003
850.692	0.0140351
850.770	0.0141555
850.848	0.0140858
850.926	0.0139046
851.004	0.0140296
851.082	0.0142003
851.160	0.0140466
851.238	0.0141167
851.317	0.0142821
851.395	0.0141084
851.473	0.0141497
851.551	0.0142009
851.629	0.0142181
851.707	0.0141703
851.785	0.0140361
851.863	0.0141051
851.942	0.0142983
852.020	0.0142423
852.098	0.0141584
852.176	0.0141740
852.254	0.0141399
852.332	0.0142668
852.410	0.0140495
852.488	0.0143172
852.567	0.0142398
852.645	0.0141129
852.723	0.0142604
852.801	0.0141917
852.879	0.0140914
852.957	0.0141518
853.035	0.0141879
853.113	0.0140306
853.192	0.0142207
853.270	0.0142365
853.348	0.0141497
853.426	0.0142219
853.504	0.0141335
853.582	0.0141217
853.660	0.0141419
853.738	0.0140361
853.817	0.0141409
853.895	0.0140292
853.973	0.0141174
854.051	0.0140450
854.129	0.0139411
854.207	0.0140438
854.285	0.0141319
854.363	0.0141684
854.442	0.0140472
854.520	0.0140617
854.598	0.0140829
854.676	0.0140974
854.754	0.0141668
854.832	0.0140838
854.910	0.0142760
854.988	0.0141943
855.067	0.0142271
855.145	0.0140926
855.223	0.0141406
855.301	0.0141962
855.379	0.0142351
855.457	0.0142811
855.535	0.0141740
855.613	0.0139401
855.692	0.0141118
855.770	0.0140071
855.848	0.0140664
855.926	0.0140400
856.004	0.0141185
856.082	0.0141386
856.160	0.0139094
856.238	0.0140463
856.317	0.0140297
856.395	0.0138869
856.473	0.0139755
856.551	0.0139702
856.629	0.0139864
856.707	0.0139482
856.785	0.0139458
856.863	0.0140034
856.942	0.0139159
857.020	0.0140658
857.098	0.0140509
857.176	0.0140900
857.254	0.0139458
857.332	0.0140910
857.410	0.0140598
857.488	0.0139332
857.567	0.0141006
857.645	0.0141477
857.723	0.0139931
857.801	0.0141085
857.879	0.0140742
857.957	0.0140181
858.035	0.0139478
858.113	0.0140928
858.192	0.0141261
858.270	0.0140118
858.348	0.0140218
858.426	0.0140661
858.504	0.0140059
858.582	0.0141833
858.660	0.0141833
858.738	0.0140963
858.817	0.0141822
858.895	0.0140222
858.973	0.0139513
859.051	0.0140624
859.129	0.0140768
859.207	0.0139994
859.285	0.0139320
859.363	0.0141507
859.442	0.0141816
859.520	0.0140444
859.598	0.0141582
859.676	0.0141321
859.754	0.0140412
859.832	0.0140428
859.910	0.0140462
859.988	0.0140980
860.067	0.0142031
860.145	0.0140834
860.223	0.0141938
860.301	0.0141743
860.379	0.0141416
860.457	0.0142142
860.535	0.0141851
860.613	0.0141782
860.692	0.0140704
860.770	0.0141363
860.848	0.0140988
860.926	0.0140056
861.004	0.0141641
861.082	0.0141352
861.160	0.0140754
861.238	0.0140126
861.317	0.0141029
861.395	0.0141550
861.473	0.0141743
861.551	0.0141325
861.629	0.0140131
861.707	0.0140424
861.785	0.0141875
861.863	0.0140192
861.942	0.0140501
862.020	0.0140165
862.098	0.0139980
862.176	0.0140437
862.254	0.0141487
862.332	0.0140102
862.410	0.0140269
862.488	0.0140879
862.567	0.0140736
862.645	0.0138995
862.723	0.0140215
862.801	0.0141366
862.879	0.0140326
862.957	0.0140197
863.035	0.0139558
863.113	0.0141111
863.192	0.0142424
863.270	0.0140751
863.348	0.0140302
863.426	0.0140833
863.504	0.0140955
863.582	0.0141338
863.660	0.0141462
863.738	0.0141601
863.817	0.0141295
863.895	0.0141342
863.973	0.0141100
864.051	0.0141064
864.129	0.0142152
864.207	0.0141315
864.285	0.0140144
864.363	0.0140398
864.442	0.0139771
864.520	0.0140382
864.598	0.0140800
864.676	0.0140575
864.754	0.0139503
864.832	0.0139909
864.910	0.0141683
864.988	0.0138457
865.067	0.0139787
865.145	0.0139939
865.223	0.0138622
865.301	0.0139768
865.379	0.0138990
865.457	0.0139020
865.535	0.0139914
865.613	0.0139671
865.692	0.0139301
865.770	0.0139908
865.848	0.0139169
865.926	0.0138464
866.004	0.0139352
866.082	0.0138586
866.160	0.0140112
866.238	0.0138628
866.317	0.0139240
866.395	0.0137004
866.473	0.0139235
866.551	0.0138496
866.629	0.0138171
866.707	0.0137810
866.785	0.0138083
866.863	0.0138116
866.942	0.0137706
867.020	0.0138790
867.098	0.0139023
867.176	0.0137818
867.254	0.0138887
867.332	0.0138188
867.410	0.0139003
867.488	0.0137644
867.567	0.0137633
867.645	0.0137476
867.723	0.0138181
867.801	0.0138812
867.879	0.0139684
867.957	0.0139637
868.035	0.0138374
868.113	0.0137897
868.192	0.0139511
868.270	0.0139455
868.348	0.0139342
868.426	0.0139449
868.504	0.0139905
868.582	0.0140706
868.660	0.0140257
868.738	0.0139869
868.817	0.0139724
868.895	0.0140744
868.973	0.0139112
869.051	0.0140343
869.129	0.0141022
869.207	0.0139719
869.285	0.0141260
869.363	0.0140671
869.442	0.0140080
869.520	0.0140839
869.598	0.0141594
869.676	0.0139738
869.754	0.0140659
869.832	0.0141087
869.910	0.0139942
869.988	0.0140767
870.067	0.0141441
870.145	0.0139771
870.223	0.0139729
870.301	0.0139457
870.379	0.0140971
870.457	0.0139628
870.535	0.0140930
870.613	0.0141290
870.692	0.0140438
870.770	0.0141332
870.848	0.0140212
870.926	0.0140051
871.004	0.0140344
871.082	0.0139482
871.160	0.0139870
871.238	0.0140665
871.317	0.0141418
871.395	0.0141292
871.473	0.0141019
871.551	0.0140253
871.629	0.0140474
871.707	0.0141288
871.785	0.0143421
871.863	0.0144267
871.942	0.0142289
872.020	0.0141596
872.098	0.0143143
872.176	0.0141836
872.254	0.0142703
872.332	0.0142177
872.410	0.0143194
872.488	0.0142728
872.567	0.0142489
872.645	0.0142863
872.723	0.0141038
872.801	0.0141729
872.879	0.0142358
872.957	0.0142947
873.035	0.0141936
873.113	0.0139909
873.192	0.0142212
873.270	0.0142773
873.348	0.0142200
873.426	0.0141818
873.504	0.0141222
873.582	0.0141900
873.660	0.0141858
873.738	0.0142332
873.817	0.0141185
873.895	0.0141408
873.973	0.0141875
874.051	0.0140317
874.129	0.0142243
874.207	0.0141830
874.285	0.0141914
874.363	0.0141235
874.442	0.0140779
874.520	0.0141185
874.598	0.0140810
874.676	0.0141341
874.754	0.0142174
874.832	0.0140820
874.910	0.0141953
874.988	0.0141521
875.067	0.0141382
875.145	0.0141736
875.223	0.0140504
875.301	0.0140867
875.379	0.0141125
875.457	0.0139697
875.535	0.0140638
875.613	0.0140762
875.692	0.0140018
875.770	0.0139500
875.848	0.0139600
875.926	0.0140353
876.004	0.0141007
876.082	0.0140858
876.160	0.0140104
876.238	0.0140723
876.317	0.0141179
876.395	0.0141430
876.473	0.0139922
876.551	0.0140701
876.629	0.0140952
876.707	0.0142175
876.785	0.0140665
876.863	0.0141105
876.942	0.0143029
877.020	0.0141754
877.098	0.0142087
877.176	0.0141772
877.254	0.0141673
877.332	0.0141252
877.410	0.0141329
877.488	0.0141576
877.567	0.0141987
877.645	0.0140923
877.723	0.0141034
877.801	0.0141352
877.879	0.0141623
877.957	0.0139357
878.035	0.0141344
878.113	0.0142505
878.192	0.0141408
878.270	0.0140606
878.348	0.0140047
878.426	0.0140382
878.504	0.0140954
878.582	0.0139594
878.660	0.0140274
878.738	0.0140245
878.817	0.0138844
878.895	0.0139953
878.973	0.0139748
879.051	0.0139165
879.129	0.0140285
879.207	0.0139302
879.285	0.0139513
879.363	0.0140433
879.442	0.0139920
879.520	0.0140314
879.598	0.0140710
879.676	0.0139572
879.754	0.0139217
879.832	0.0140791
879.910	0.0139873
879.988	0.0140168
880.067	0.0140393
880.145	0.0141094
880.223	0.0142068
880.301	0.0140309
880.379	0.0140432
880.457	0.0141100
880.535	0.0141126
880.613	0.0140372
880.692	0.0140162
880.770	0.0141234
880.848	0.0141692
880.926	0.0141850
881.004	0.0140827
881.082	0.0141479
881.160	0.0140936
881.238	0.0140904
881.317	0.0141810
881.395	0.0140909
881.473	0.0141097
881.551	0.0141373
881.629	0.0140815
881.707	0.0141773
881.785	0.0142317
881.863	0.0143009
881.942	0.0142033
882.020	0.0142003
882.098	0.0141580
882.176	0.0141800
882.254	0.0142661
882.332	0.0143068
882.410	0.0142976
882.488	0.0141939
882.567	0.0142976
882.645	0.0142991
882.723	0.0143361
882.801	0.0142986
882.879	0.0142273
882.957	0.0143350
883.035	0.0142912
883.113	0.0142329
883.192	0.0141203
883.270	0.0142588
883.348	0.0142236
883.426	0.0143330
883.504	0.0141680
883.582	0.0141588
883.660	0.0142309
883.738	0.0142783
883.817	0.0143382
883.895	0.0142316
883.973	0.0143415
884.051	0.0143510
884.129	0.0142696
884.207	0.0141423
884.285	0.0143119
884.363	0.0142914
884.442	0.0141063
884.520	0.0140745
884.598	0.0140120
884.676	0.0141879
884.754	0.0141367
884.832	0.0141950
884.910	0.0140694
884.988	0.0140965
885.067	0.0141144
885.145	0.0140295
885.223	0.0139702
885.301	0.0140137
885.379	0.0141848
885.457	0.0140519
885.535	0.0139554
885.613	0.0140826
885.692	0.0142036
885.770	0.0141908
885.848	0.0140842
885.926	0.0140487
886.004	0.0140191
886.082	0.0140668
886.160	0.0140962
886.238	0.0140924
886.317	0.0140344
886.395	0.0140745
886.473	0.0141844
886.551	0.0139912
886.629	0.0140395
886.707	0.0140778
886.785	0.0140968
886.863	0.0140207
886.942	0.0139978
887.020	0.0140659
887.098	0.0141364
887.176	0.0140191
887.254	0.0140499
887.332	0.0140398
887.410	0.0140624
887.488	0.0139889
887.567	0.0141584
887.645	0.0139207
887.723	0.0139116
887.801	0.0139457
887.879	0.0139890
887.957	0.0139332
888.035	0.0139308
888.113	0.0139642
888.192	0.0139972
888.270	0.0140790
888.348	0.0140904
888.426	0.0139803
888.504	0.0139361
888.582	0.0139543
888.660	0.0139837
888.738	0.0139449
888.817	0.0140371
888.895	0.0138959
888.973	0.0138985
889.051	0.0138914
889.129	0.0138338
889.207	0.0139957
889.285	0.0138705
889.363	0.0138177
889.442	0.0138438
889.520	0.0139149
889.598	0.0139490
889.676	0.0138175
889.754	0.0139345
889.832	0.0138737
889.910	0.0139994
889.988	0.0139214
890.067	0.0138373
890.145	0.0137883
890.223	0.0136938
890.301	0.0137712
890.379	0.0135899
890.457	0.0136095
890.535	0.0135946
890.613	0.0135873
890.692	0.0136880
890.770	0.0137356
890.848	0.0136745
890.926	0.0136713
891.004	0.0138155
891.082	0.0137576
891.160	0.0138393
891.238	0.0139114
891.317	0.0138095
891.395	0.0138242
891.473	0.0139930
891.551	0.0138742
891.629	0.0139349
891.707	0.0138528
891.785	0.0139248
891.863	0.0138900
891.942	0.0138723
892.020	0.0140948
892.098	0.0142068
892.176	0.0141280
892.254	0.0141149
892.332	0.0140528
892.410	0.0141655
892.488	0.0142328
892.567	0.0142593
892.645	0.0141936
892.723	0.0142440
892.801	0.0141993
892.879	0.0142250
892.957	0.0143498
893.035	0.0142774
893.113	0.0142685
893.192	0.0141966
893.270	0.0143241
893.348	0.0142016
893.426	0.0142271
893.504	0.0142735
893.582	0.0142028
893.660	0.0142968
893.738	0.0142866
893.817	0.0141222
893.895	0.0141513
893.973	0.0142120
894.051	0.0143072
894.129	0.0141224
894.207	0.0140537
894.285	0.0141401
894.363	0.0143134
894.442	0.0140993
894.520	0.0141631
894.598	0.0141154
894.676	0.0139632
894.754	0.0141553
894.832	0.0143034
894.910	0.0141907
894.988	0.0141744
895.067	0.0140208
895.145	0.0141910
895.223	0.0141618
895.301	0.0142679
895.379	0.0142293
895.457	0.0141315
895.535	0.0141540
895.613	0.0141737
895.692	0.0141793
895.770	0.0142878
895.848	0.0142300
895.926	0.0141302
896.004	0.0142065
896.082	0.0141644
896.160	0.0141060
896.238	0.0142510
896.317	0.0143617
896.395	0.0141388
896.473	0.0141815
896.551	0.0141368
896.629	0.0141792
896.707	0.0142284
896.785	0.0142297
896.863	0.0141145
896.942	0.0141640
897.020	0.0142982
897.098	0.0141353
897.176	0.0142521
897.254	0.0143563
897.332	0.0141738
897.410	0.0142193
897.488	0.0142844
897.567	0.0143143
897.645	0.0143304
897.723	0.0144254
897.801	0.0142704
897.879	0.0142448
897.957	0.0144115
898.035	0.0144204
898.113	0.0143359
898.192	0.0143182
898.270	0.0143766
898.348	0.0143487
898.426	0.0142808
898.504	0.0142722
898.582	0.0143768
898.660	0.0142364
898.738	0.0142689
898.817	0.0141593
898.895	0.0142030
898.973	0.0140683
899.051	0.0141062
899.129	0.0141428
899.207	0.0141348
899.285	0.0143040
899.363	0.0141393
899.442	0.0140171
899.520	0.0139771
899.598	0.0141378
899.676	0.0141087
899.754	0.0141514
899.832	0.0142118
899.910	0.0139261
899.988	0.0140341
900.067	0.0141621
900.145	0.0141190
900.223	0.0139699
900.301	0.0140098
900.379	0.0141851
900.457	0.0139382
900.535	0.0140564
900.613	0.0140199
900.692	0.0140754
900.770	0.0141478
900.848	0.0141747
900.926	0.0139928
901.004	0.0140472
901.082	0.0142218
901.160	0.0140481
901.238	0.0140154
901.317	0.0140543
901.395	0.0140504
901.473	0.0140713
901.551	0.0139413
901.629	0.0140347
901.707	0.0140454
901.785	0.0140824
901.863	0.0139830
901.942	0.0140483
902.020	0.0141060
902.098	0.0139645
902.176	0.0139529
902.254	0.0140399
902.332	0.0139274
902.410	0.0140607
902.488	0.0140215
902.567	0.0140060
902.645	0.0139429
902.723	0.0140649
902.801	0.0140299
902.879	0.0141116
902.957	0.0140449
903.035	0.0141362
903.113	0.0142023
903.192	0.0141864
903.270	0.0141125
903.348	0.0140913
903.426	0.0140842
903.504	0.0140757
903.582	0.0140065
903.660	0.0141300
903.738	0.0140604
903.817	0.0141206
903.895	0.0140569
903.973	0.0142609
904.051	0.0140572
904.129	0.0139297
904.207	0.0141420
904.285	0.0140845
904.363	0.0140102
904.442	0.0141586
904.520	0.0141253
904.598	0.0140533
904.676	0.0141420
904.754	0.0142018
904.832	0.0141411
904.910	0.0141888
904.988	0.0141693
905.067	0.0140681
905.145	0.0141070
905.223	0.0141266
905.301	0.0139317
905.379	0.0140535
905.457	0.0141603
905.535	0.0141130
905.613	0.0140141
905.692	0.0139874
905.770	0.0141513
905.848	0.0141251
905.926	0.0139776
906.004	0.0140680
906.082	0.0140630
906.160	0.0140961
906.238	0.0141534
906.317	0.0140331
906.395	0.0140805
906.473	0.0140674
906.551	0.0140133
906.629	0.0139790
906.707	0.0140674
906.785	0.0140085
906.863	0.0140618
906.942	0.0141857
907.020	0.0140691
907.098	0.0140567
907.176	0.0140015
907.254	0.0139175
907.332	0.0139825
907.410	0.0140094
907.488	0.0139752
907.567	0.0141279
907.645	0.0139240
907.723	0.0140429
907.801	0.0139563
907.879	0.0139817
907.957	0.0139648
908.035	0.0140038
908.113	0.0139939
908.192	0.0138469
908.270	0.0140558
908.348	0.0139749
908.426	0.0138761
908.504	0.0139590
908.582	0.0140462
908.660	0.0140996
908.738	0.0139311
908.817	0.0138155
908.895	0.0139711
908.973	0.0139417
909.051	0.0139713
909.129	0.0139135
909.207	0.0138961
909.285	0.0138792
909.363	0.0138657
909.442	0.0140586
909.520	0.0139928
909.598	0.0138531
909.676	0.0139723
909.754	0.0140497
909.832	0.0141253
909.910	0.0139549
909.988	0.0140340
910.067	0.0138918
910.145	0.0140342
910.223	0.0139865
910.301	0.0139254
910.379	0.0139885
910.457	0.0139909
910.535	0.0138353
910.613	0.0140443
910.692	0.0139846
910.770	0.0139771
910.848	0.0140855
910.926	0.0140673
911.004	0.0141469
911.082	0.0141048
911.160	0.0141254
911.238	0.0142133
911.317	0.0141827
911.395	0.0141171
911.473	0.0142618
911.551	0.0142720
911.629	0.0141296
911.707	0.0140037
911.785	0.0141229
911.863	0.0142801
911.942	0.0141546
912.020	0.0141131
912.098	0.0141380
912.176	0.0141579
912.254	0.0140307
912.332	0.0140488
912.410	0.0140720
912.488	0.0139062
912.567	0.0140211
912.645	0.0140895
912.723	0.0139892
912.801	0.0139661
912.879	0.0139293
912.957	0.0138168
913.035	0.0138554
913.113	0.0138235
913.192	0.0138180
913.270	0.0138160
913.348	0.0137952
913.426	0.0137842
913.504	0.0138541
913.582	0.0138835
913.660	0.0137170
913.738	0.0138422
913.817	0.0138995
913.895	0.0140536
913.973	0.0139291
914.051	0.0140337
914.129	0.0140190
914.207	0.0139058
914.285	0.0139737
914.363	0.0140405
914.442	0.0138831
914.520	0.0139096
914.598	0.0139234
914.676	0.0139097
914.754	0.0139616
914.832	0.0139564
914.910	0.0138912
914.988	0.0140172
915.067	0.0140663
915.145	0.0139553
915.223	0.0139532
915.301	0.0139402
915.379	0.0138940
915.457	0.0140714
915.535	0.0138779
915.613	0.0139194
915.692	0.0140871
915.770	0.0139043
915.848	0.0138962
915.926	0.0138586
916.004	0.0138473
916.082	0.0140096
916.160	0.0141316
916.238	0.0138453
916.317	0.0138463
916.395	0.0139393
916.473	0.0140371
916.551	0.0138682
916.629	0.0139306
916.707	0.0138757
916.785	0.0139168
916.863	0.0139005
916.942	0.0139809
917.020	0.0140601
917.098	0.0138998
917.176	0.0138934
917.254	0.0139835
917.332	0.0139836
917.410	0.0138970
917.488	0.0139669
917.567	0.0140644
917.645	0.0139903
917.723	0.0139096
917.801	0.0140430
917.879	0.0139804
917.957	0.0140959
918.035	0.0139587
918.113	0.0139521
918.192	0.0141616
918.270	0.0140793
918.348	0.0140160
918.426	0.0139404
918.504	0.0140696
918.582	0.0140951
918.660	0.0139143
918.738	0.0140689
918.817	0.0140297
918.895	0.0140934
918.973	0.0139034
919.051	0.0139245
919.129	0.0140570
919.207	0.0139994
919.285	0.0139552
919.363	0.0138404
919.442	0.0140581
919.520	0.0140889
919.598	0.0140639
919.676	0.0139152
919.754	0.0141086
919.832	0.0141556
919.910	0.0138616
