05/28/2022	13:53:50	Ver.	4.1	UNKNOWN
Optical Delay	599.988409	Delta X		0.078125	Sweeps	1	Scan Rate	0/0
Coordinates	Axis 1	NaN	Axis 2	NaN	Axis 3	NaN	Axis 4	NaN	Axis 5	NaN	Axis 6	0.000000
TX Power	0.000000	RX Power	0.000000

599.988	0.0144514
600.067	0.0144854
600.145	0.0144914
600.223	0.0144649
600.301	0.0143558
600.379	0.0144066
600.457	0.0143637
600.535	0.0144678
600.613	0.0143858
600.692	0.0145123
600.770	0.0144619
600.848	0.0142776
600.926	0.0145962
601.004	0.0144917
601.082	0.0146228
601.160	0.0145791
601.238	0.0143817
601.317	0.0143682
601.395	0.0144740
601.473	0.0145508
601.551	0.0144695
601.629	0.0144418
601.707	0.0145473
601.785	0.0144656
601.863	0.0144536
601.942	0.0145162
602.020	0.0145686
602.098	0.0145412
602.176	0.0143589
602.254	0.0144265
602.332	0.0144946
602.410	0.0145387
602.488	0.0145272
602.567	0.0143492
602.645	0.0145757
602.723	0.0144690
602.801	0.0145028
602.879	0.0144775
602.957	0.0144868
603.035	0.0145283
603.113	0.0144759
603.192	0.0143858
603.270	0.0143763
603.348	0.0146625
603.426	0.0144879
603.504	0.0143573
603.582	0.0144556
603.660	0.0144792
603.738	0.0144914
603.817	0.0145663
603.895	0.0144475
603.973	0.0143758
604.051	0.0144793
604.129	0.0143384
604.207	0.0146132
604.285	0.0145074
604.363	0.0144263
604.442	0.0143848
604.520	0.0143701
604.598	0.0144247
604.676	0.0145571
604.754	0.0143954
604.832	0.0145325
604.910	0.0144949
604.988	0.0145860
605.067	0.0144650
605.145	0.0144463
605.223	0.0144589
605.301	0.0145210
605.379	0.0145787
605.457	0.0144035
605.535	0.0144017
605.613	0.0144650
605.692	0.0144778
605.770	0.0144377
605.848	0.0143995
605.926	0.0143587
606.004	0.0146191
606.082	0.0146013
606.160	0.0144582
606.238	0.0144607
606.317	0.0144641
606.395	0.0145342
606.473	0.0144972
606.551	0.0144724
606.629	0.0143652
606.707	0.0144283
606.785	0.0144384
606.863	0.0145077
606.942	0.0145062
607.020	0.0145255
607.098	0.0143978
607.176	0.0143947
607.254	0.0144659
607.332	0.0144737
607.410	0.0144016
607.488	0.0145042
607.567	0.0145798
607.645	0.0144389
607.723	0.0145332
607.801	0.0144800
607.879	0.0144724
607.957	0.0145128
608.035	0.0146630
608.113	0.0143736
608.192	0.0145340
608.270	0.0145242
608.348	0.0144411
608.426	0.0144289
608.504	0.0145242
608.582	0.0145235
608.660	0.0145728
608.738	0.0145479
608.817	0.0145464
608.895	0.0144698
608.973	0.0144284
609.051	0.0145030
609.129	0.0144812
609.207	0.0144083
609.285	0.0144789
609.363	0.0144730
609.442	0.0144627
609.520	0.0144875
609.598	0.0142483
609.676	0.0145138
609.754	0.0144067
609.832	0.0144802
609.910	0.0144822
609.988	0.0144679
610.067	0.0144891
610.145	0.0143149
610.223	0.0143495
610.301	0.0144478
610.379	0.0144168
610.457	0.0144701
610.535	0.0143702
610.613	0.0143523
610.692	0.0144111
610.770	0.0143483
610.848	0.0144077
610.926	0.0145187
611.004	0.0144433
611.082	0.0144391
611.160	0.0143384
611.238	0.0144376
611.317	0.0144484
611.395	0.0145051
611.473	0.0145106
611.551	0.0144212
611.629	0.0145586
611.707	0.0145948
611.785	0.0144411
611.863	0.0144190
611.942	0.0144496
612.020	0.0145095
612.098	0.0143816
612.176	0.0144704
612.254	0.0144452
612.332	0.0143317
612.410	0.0144434
612.488	0.0143995
612.567	0.0143291
612.645	0.0144047
612.723	0.0145916
612.801	0.0145345
612.879	0.0144537
612.957	0.0144924
613.035	0.0144604
613.113	0.0145656
613.192	0.0144984
613.270	0.0144150
613.348	0.0145438
613.426	0.0145468
613.504	0.0145306
613.582	0.0144507
613.660	0.0146533
613.738	0.0145380
613.817	0.0144615
613.895	0.0143628
613.973	0.0143542
614.051	0.0145111
614.129	0.0144658
614.207	0.0145203
614.285	0.0144863
614.363	0.0144816
614.442	0.0145085
614.520	0.0145103
614.598	0.0144240
614.676	0.0144388
614.754	0.0144255
614.832	0.0144746
614.910	0.0144138
614.988	0.0144227
615.067	0.0144218
615.145	0.0144705
615.223	0.0146693
615.301	0.0143846
615.379	0.0142615
615.457	0.0145097
615.535	0.0144507
615.613	0.0145258
615.692	0.0143768
615.770	0.0144538
615.848	0.0145250
615.926	0.0144249
616.004	0.0144935
616.082	0.0144127
616.160	0.0145170
616.238	0.0144153
616.317	0.0144518
616.395	0.0144701
616.473	0.0143661
616.551	0.0143990
616.629	0.0145293
616.707	0.0146194
616.785	0.0144995
616.863	0.0144511
616.942	0.0143978
617.020	0.0145206
617.098	0.0145151
617.176	0.0144466
617.254	0.0143645
617.332	0.0146774
617.410	0.0144715
617.488	0.0144617
617.567	0.0144550
617.645	0.0143707
617.723	0.0144485
617.801	0.0144120
617.879	0.0143906
617.957	0.0145954
618.035	0.0143998
618.113	0.0143028
618.192	0.0145010
618.270	0.0145804
618.348	0.0144141
618.426	0.0144707
618.504	0.0143880
618.582	0.0145163
618.660	0.0143585
618.738	0.0145245
618.817	0.0145178
618.895	0.0144482
618.973	0.0144696
619.051	0.0145547
619.129	0.0146320
619.207	0.0144992
619.285	0.0144046
619.363	0.0144588
619.442	0.0144647
619.520	0.0143952
619.598	0.0143925
619.676	0.0145285
619.754	0.0143164
619.832	0.0144805
619.910	0.0144308
619.988	0.0143931
620.067	0.0144141
620.145	0.0143279
620.223	0.0145210
620.301	0.0144990
620.379	0.0144809
620.457	0.0143772
620.535	0.0143287
620.613	0.0144239
620.692	0.0144909
620.770	0.0145007
620.848	0.0144016
620.926	0.0144370
621.004	0.0144381
621.082	0.0142963
621.160	0.0143591
621.238	0.0144003
621.317	0.0144176
621.395	0.0143638
621.473	0.0143733
621.551	0.0144671
621.629	0.0144260
621.707	0.0144025
621.785	0.0144425
621.863	0.0144595
621.942	0.0144990
622.020	0.0145022
622.098	0.0145304
622.176	0.0143523
622.254	0.0143762
622.332	0.0144896
622.410	0.0145388
622.488	0.0143559
622.567	0.0145118
622.645	0.0145379
622.723	0.0144191
622.801	0.0143260
622.879	0.0144930
622.957	0.0144637
623.035	0.0143709
623.113	0.0144563
623.192	0.0144785
623.270	0.0144463
623.348	0.0144402
623.426	0.0145164
623.504	0.0145650
623.582	0.0145001
623.660	0.0143808
623.738	0.0145676
623.817	0.0146472
623.895	0.0142778
623.973	0.0144363
624.051	0.0145045
624.129	0.0144439
624.207	0.0143747
624.285	0.0144166
624.363	0.0145140
624.442	0.0145166
624.520	0.0145129
624.598	0.0145539
624.676	0.0145283
624.754	0.0145058
624.832	0.0144474
624.910	0.0145044
624.988	0.0144260
625.067	0.0143362
625.145	0.0144716
625.223	0.0144691
625.301	0.0144206
625.379	0.0144997
625.457	0.0144740
625.535	0.0144521
625.613	0.0146198
625.692	0.0146509
625.770	0.0144210
625.848	0.0145554
625.926	0.0144961
626.004	0.0144620
626.082	0.0143985
626.160	0.0144303
626.238	0.0145893
626.317	0.0145501
626.395	0.0144932
626.473	0.0144617
626.551	0.0144186
626.629	0.0144695
626.707	0.0145123
626.785	0.0143671
626.863	0.0143620
626.942	0.0143758
627.020	0.0145391
627.098	0.0144112
627.176	0.0143376
627.254	0.0144667
627.332	0.0145213
627.410	0.0144529
627.488	0.0145657
627.567	0.0144383
627.645	0.0144152
627.723	0.0145820
627.801	0.0146126
627.879	0.0145843
627.957	0.0144389
628.035	0.0143993
628.113	0.0146564
628.192	0.0142332
628.270	0.0144239
628.348	0.0144130
628.426	0.0144613
628.504	0.0144579
628.582	0.0143252
628.660	0.0145835
628.738	0.0144894
628.817	0.0143951
628.895	0.0143384
628.973	0.0143592
629.051	0.0143336
629.129	0.0144740
629.207	0.0145332
629.285	0.0144813
629.363	0.0144060
629.442	0.0144131
629.520	0.0144683
629.598	0.0144065
629.676	0.0144552
629.754	0.0145180
629.832	0.0146103
629.910	0.0145142
629.988	0.0144672
630.067	0.0144234
630.145	0.0144610
630.223	0.0145504
630.301	0.0145541
630.379	0.0143462
630.457	0.0144824
630.535	0.0145688
630.613	0.0143597
630.692	0.0145341
630.770	0.0145233
630.848	0.0144938
630.926	0.0144835
631.004	0.0144106
631.082	0.0143543
631.160	0.0145683
631.238	0.0146169
631.317	0.0145372
631.395	0.0145553
631.473	0.0144212
631.551	0.0145642
631.629	0.0144508
631.707	0.0144604
631.785	0.0145345
631.863	0.0144464
631.942	0.0144638
632.020	0.0143859
632.098	0.0145182
632.176	0.0143847
632.254	0.0144622
632.332	0.0144698
632.410	0.0144887
632.488	0.0144489
632.567	0.0145593
632.645	0.0145083
632.723	0.0144749
632.801	0.0144987
632.879	0.0146073
632.957	0.0146027
633.035	0.0144561
633.113	0.0146080
633.192	0.0144215
633.270	0.0144875
633.348	0.0144799
633.426	0.0145132
633.504	0.0145232
633.582	0.0145146
633.660	0.0144502
633.738	0.0143637
633.817	0.0144657
633.895	0.0144714
633.973	0.0145347
634.051	0.0146732
634.129	0.0142849
634.207	0.0145246
634.285	0.0144905
634.363	0.0145158
634.442	0.0145306
634.520	0.0144992
634.598	0.0145272
634.676	0.0144415
634.754	0.0143912
634.832	0.0146086
634.910	0.0144999
634.988	0.0143696
635.067	0.0144888
635.145	0.0144437
635.223	0.0145098
635.301	0.0142445
635.379	0.0143835
635.457	0.0144954
635.535	0.0144884
635.613	0.0144097
635.692	0.0144080
635.770	0.0144450
635.848	0.0144458
635.926	0.0143668
636.004	0.0144646
636.082	0.0144702
636.160	0.0143653
636.238	0.0145586
636.317	0.0144878
636.395	0.0145432
636.473	0.0146104
636.551	0.0144667
636.629	0.0145275
636.707	0.0144344
636.785	0.0145286
636.863	0.0143990
636.942	0.0145145
637.020	0.0145686
637.098	0.0145846
637.176	0.0144946
637.254	0.0145743
637.332	0.0145404
637.410	0.0146520
637.488	0.0144368
637.567	0.0144043
637.645	0.0145992
637.723	0.0145325
637.801	0.0144629
637.879	0.0144897
637.957	0.0144657
638.035	0.0143974
638.113	0.0145105
638.192	0.0145613
638.270	0.0145222
638.348	0.0144739
638.426	0.0145975
638.504	0.0145561
638.582	0.0144276
638.660	0.0144640
638.738	0.0143653
638.817	0.0144431
638.895	0.0145773
638.973	0.0143391
639.051	0.0143832
639.129	0.0145142
639.207	0.0144472
639.285	0.0144794
639.363	0.0144147
639.442	0.0144254
639.520	0.0144713
639.598	0.0146513
639.676	0.0145517
639.754	0.0144423
639.832	0.0145624
639.910	0.0145206
639.988	0.0145744
640.067	0.0143755
640.145	0.0145148
640.223	0.0145298
640.301	0.0144081
640.379	0.0145243
640.457	0.0145988
640.535	0.0145670
640.613	0.0144782
640.692	0.0145055
640.770	0.0144782
640.848	0.0143954
640.926	0.0144528
641.004	0.0144343
641.082	0.0144790
641.160	0.0144826
641.238	0.0145122
641.317	0.0145714
641.395	0.0145084
641.473	0.0145187
641.551	0.0144513
641.629	0.0147065
641.707	0.0145394
641.785	0.0145238
641.863	0.0144431
641.942	0.0145801
642.020	0.0145004
642.098	0.0145058
642.176	0.0144370
642.254	0.0144888
642.332	0.0144025
642.410	0.0144678
642.488	0.0144057
642.567	0.0145198
642.645	0.0145947
642.723	0.0144415
642.801	0.0144046
642.879	0.0145056
642.957	0.0144186
643.035	0.0144734
643.113	0.0145188
643.192	0.0144714
643.270	0.0145437
643.348	0.0145692
643.426	0.0144711
643.504	0.0143314
643.582	0.0143673
643.660	0.0145670
643.738	0.0144924
643.817	0.0144130
643.895	0.0144671
643.973	0.0145313
644.051	0.0145338
644.129	0.0145237
644.207	0.0143775
644.285	0.0145415
644.363	0.0144177
644.442	0.0144948
644.520	0.0143987
644.598	0.0144839
644.676	0.0145565
644.754	0.0144911
644.832	0.0143655
644.910	0.0144549
644.988	0.0144863
645.067	0.0144370
645.145	0.0144749
645.223	0.0145048
645.301	0.0145327
645.379	0.0144689
645.457	0.0145465
645.535	0.0145551
645.613	0.0145124
645.692	0.0143733
645.770	0.0143877
645.848	0.0144543
645.926	0.0144457
646.004	0.0144250
646.082	0.0144769
646.160	0.0144201
646.238	0.0142212
646.317	0.0144891
646.395	0.0144714
646.473	0.0144872
646.551	0.0145695
646.629	0.0144913
646.707	0.0144223
646.785	0.0145058
646.863	0.0144623
646.942	0.0143876
647.020	0.0143761
647.098	0.0143888
647.176	0.0144463
647.254	0.0145523
647.332	0.0145509
647.410	0.0145129
647.488	0.0145538
647.567	0.0145075
647.645	0.0145195
647.723	0.0144260
647.801	0.0144463
647.879	0.0145356
647.957	0.0144810
648.035	0.0143369
648.113	0.0143803
648.192	0.0144727
648.270	0.0144972
648.348	0.0144178
648.426	0.0145208
648.504	0.0144856
648.582	0.0144232
648.660	0.0145087
648.738	0.0143970
648.817	0.0143787
648.895	0.0143925
648.973	0.0145036
649.051	0.0144958
649.129	0.0143744
649.207	0.0144077
649.285	0.0143546
649.363	0.0144283
649.442	0.0145023
649.520	0.0144688
649.598	0.0144768
649.676	0.0144965
649.754	0.0143024
649.832	0.0144349
649.910	0.0144942
649.988	0.0144646
650.067	0.0144639
650.145	0.0145754
650.223	0.0145201
650.301	0.0143042
650.379	0.0144742
650.457	0.0145609
650.535	0.0144250
650.613	0.0145929
650.692	0.0145200
650.770	0.0143305
650.848	0.0143897
650.926	0.0145702
651.004	0.0143558
651.082	0.0143716
651.160	0.0144115
651.238	0.0144722
651.317	0.0144941
651.395	0.0144552
651.473	0.0144744
651.551	0.0143097
651.629	0.0143600
651.707	0.0144094
651.785	0.0143988
651.863	0.0143447
651.942	0.0144040
652.020	0.0143871
652.098	0.0142797
652.176	0.0144295
652.254	0.0146231
652.332	0.0143472
652.410	0.0144022
652.488	0.0143823
652.567	0.0144692
652.645	0.0144540
652.723	0.0144565
652.801	0.0144353
652.879	0.0144920
652.957	0.0143783
653.035	0.0144698
653.113	0.0145165
653.192	0.0144758
653.270	0.0143472
653.348	0.0144418
653.426	0.0144949
653.504	0.0145361
653.582	0.0145254
653.660	0.0145306
653.738	0.0145261
653.817	0.0143806
653.895	0.0143357
653.973	0.0144054
654.051	0.0145092
654.129	0.0145902
654.207	0.0144711
654.285	0.0144136
654.363	0.0144406
654.442	0.0144480
654.520	0.0143187
654.598	0.0145412
654.676	0.0144616
654.754	0.0144720
654.832	0.0144745
654.910	0.0142732
654.988	0.0145156
655.067	0.0143751
655.145	0.0142625
655.223	0.0143384
655.301	0.0144807
655.379	0.0144528
655.457	0.0144493
655.535	0.0144669
655.613	0.0144163
655.692	0.0144022
655.770	0.0145599
655.848	0.0143919
655.926	0.0143392
656.004	0.0145206
656.082	0.0144151
656.160	0.0142699
656.238	0.0144012
656.317	0.0145396
656.395	0.0142709
656.473	0.0142969
656.551	0.0143867
656.629	0.0142852
656.707	0.0144032
656.785	0.0143368
656.863	0.0144061
656.942	0.0144494
657.020	0.0144311
657.098	0.0145524
657.176	0.0144900
657.254	0.0144698
657.332	0.0144717
657.410	0.0144392
657.488	0.0143774
657.567	0.0142971
657.645	0.0144318
657.723	0.0143794
657.801	0.0144027
657.879	0.0145880
657.957	0.0142911
658.035	0.0144775
658.113	0.0144984
658.192	0.0142644
658.270	0.0143779
658.348	0.0145525
658.426	0.0144733
658.504	0.0144688
658.582	0.0145162
658.660	0.0145251
658.738	0.0145199
658.817	0.0146546
658.895	0.0145161
658.973	0.0144640
659.051	0.0145384
659.129	0.0144769
659.207	0.0143411
659.285	0.0144777
659.363	0.0144235
659.442	0.0145445
659.520	0.0144956
659.598	0.0145101
659.676	0.0144678
659.754	0.0144612
659.832	0.0144977
659.910	0.0145213
659.988	0.0145595
660.067	0.0144690
660.145	0.0144355
660.223	0.0144494
660.301	0.0144047
660.379	0.0146177
660.457	0.0144936
660.535	0.0144866
660.613	0.0144863
660.692	0.0143306
660.770	0.0144701
660.848	0.0144461
660.926	0.0145436
661.004	0.0144353
661.082	0.0144640
661.160	0.0144160
661.238	0.0145004
661.317	0.0144016
661.395	0.0145320
661.473	0.0145149
661.551	0.0143081
661.629	0.0144295
661.707	0.0143534
661.785	0.0144733
661.863	0.0144675
661.942	0.0144032
662.020	0.0143176
662.098	0.0144943
662.176	0.0145423
662.254	0.0145127
662.332	0.0144611
662.410	0.0144202
662.488	0.0145226
662.567	0.0145907
662.645	0.0144681
662.723	0.0143516
662.801	0.0145602
662.879	0.0146066
662.957	0.0144576
663.035	0.0144170
663.113	0.0144996
663.192	0.0144474
663.270	0.0145192
663.348	0.0143367
663.426	0.0144707
663.504	0.0146407
663.582	0.0145419
663.660	0.0145216
663.738	0.0143912
663.817	0.0144144
663.895	0.0145359
663.973	0.0145622
664.051	0.0143990
664.129	0.0143641
664.207	0.0144874
664.285	0.0144915
664.363	0.0143304
664.442	0.0144254
664.520	0.0145094
664.598	0.0145242
664.676	0.0144856
664.754	0.0144246
664.832	0.0144571
664.910	0.0146362
664.988	0.0146187
665.067	0.0145045
665.145	0.0143768
665.223	0.0145537
665.301	0.0145372
665.379	0.0144522
665.457	0.0144652
665.535	0.0144166
665.613	0.0144600
665.692	0.0145278
665.770	0.0144265
665.848	0.0144732
665.926	0.0144650
666.004	0.0144149
666.082	0.0143247
666.160	0.0143998
666.238	0.0144337
666.317	0.0146157
666.395	0.0144359
666.473	0.0144579
666.551	0.0143804
666.629	0.0144969
666.707	0.0143931
666.785	0.0145312
666.863	0.0145690
666.942	0.0143867
667.020	0.0145888
667.098	0.0145535
667.176	0.0144545
667.254	0.0145617
667.332	0.0144815
667.410	0.0145448
667.488	0.0145052
667.567	0.0144837
667.645	0.0145262
667.723	0.0145090
667.801	0.0145068
667.879	0.0144549
667.957	0.0145080
668.035	0.0143839
668.113	0.0144740
668.192	0.0144054
668.270	0.0145566
668.348	0.0144427
668.426	0.0144086
668.504	0.0144638
668.582	0.0144008
668.660	0.0144796
668.738	0.0144468
668.817	0.0144620
668.895	0.0144325
668.973	0.0145119
669.051	0.0144878
669.129	0.0144907
669.207	0.0144025
669.285	0.0145751
669.363	0.0144222
669.442	0.0144659
669.520	0.0144035
669.598	0.0143581
669.676	0.0143810
669.754	0.0144465
669.832	0.0144389
669.910	0.0143903
669.988	0.0144451
670.067	0.0142175
670.145	0.0143298
670.223	0.0144285
670.301	0.0144120
670.379	0.0142767
670.457	0.0143542
670.535	0.0143545
670.613	0.0143998
670.692	0.0142900
670.770	0.0145336
670.848	0.0144745
670.926	0.0144341
671.004	0.0143587
671.082	0.0143414
671.160	0.0144048
671.238	0.0143744
671.317	0.0143382
671.395	0.0144904
671.473	0.0144563
671.551	0.0144009
671.629	0.0143739
671.707	0.0144273
671.785	0.0143590
671.863	0.0143746
671.942	0.0145083
672.020	0.0143996
672.098	0.0143425
672.176	0.0143096
672.254	0.0144855
672.332	0.0144091
672.410	0.0144344
672.488	0.0144389
672.567	0.0143423
672.645	0.0144422
672.723	0.0144685
672.801	0.0144901
672.879	0.0143044
672.957	0.0142056
673.035	0.0144332
673.113	0.0144034
673.192	0.0143047
673.270	0.0143741
673.348	0.0143651
673.426	0.0143485
673.504	0.0143678
673.582	0.0143554
673.660	0.0143102
673.738	0.0144509
673.817	0.0142503
673.895	0.0143650
673.973	0.0144051
674.051	0.0144434
674.129	0.0144337
674.207	0.0143213
674.285	0.0143053
674.363	0.0145766
674.442	0.0143465
674.520	0.0144283
674.598	0.0143873
674.676	0.0143612
674.754	0.0144022
674.832	0.0143998
674.910	0.0143755
674.988	0.0144344
675.067	0.0144420
675.145	0.0144336
675.223	0.0145469
675.301	0.0144974
675.379	0.0146045
675.457	0.0144722
675.535	0.0145297
675.613	0.0144693
675.692	0.0145070
675.770	0.0143961
675.848	0.0145698
675.926	0.0146315
676.004	0.0145069
676.082	0.0144224
676.160	0.0144903
676.238	0.0144097
676.317	0.0145910
676.395	0.0145567
676.473	0.0144296
676.551	0.0144753
676.629	0.0144533
676.707	0.0145013
676.785	0.0144537
676.863	0.0144817
676.942	0.0145285
677.020	0.0144811
677.098	0.0144946
677.176	0.0145420
677.254	0.0145452
677.332	0.0144233
677.410	0.0143723
677.488	0.0145568
677.567	0.0145275
677.645	0.0145593
677.723	0.0144563
677.801	0.0144935
677.879	0.0146680
677.957	0.0146091
678.035	0.0145141
678.113	0.0145851
678.192	0.0146346
678.270	0.0146153
678.348	0.0145183
678.426	0.0147028
678.504	0.0147544
678.582	0.0145208
678.660	0.0146062
678.738	0.0146656
678.817	0.0147092
678.895	0.0145811
678.973	0.0144316
679.051	0.0146461
679.129	0.0145149
679.207	0.0144739
679.285	0.0144284
679.363	0.0146764
679.442	0.0147260
679.520	0.0144951
679.598	0.0146104
679.676	0.0145222
679.754	0.0146156
679.832	0.0145109
679.910	0.0145124
679.988	0.0146946
680.067	0.0146086
680.145	0.0145783
680.223	0.0146329
680.301	0.0145283
680.379	0.0145979
680.457	0.0144462
680.535	0.0145142
680.613	0.0145880
680.692	0.0144746
680.770	0.0145450
680.848	0.0145056
680.926	0.0144611
681.004	0.0144257
681.082	0.0146178
681.160	0.0145390
681.238	0.0145904
681.317	0.0144396
681.395	0.0143484
681.473	0.0143423
681.551	0.0144607
681.629	0.0144177
681.707	0.0144650
681.785	0.0143205
681.863	0.0145116
681.942	0.0144678
682.020	0.0142738
682.098	0.0143784
682.176	0.0143529
682.254	0.0142905
682.332	0.0145061
682.410	0.0143051
682.488	0.0144482
682.567	0.0143076
682.645	0.0144648
682.723	0.0143527
682.801	0.0144586
682.879	0.0144590
682.957	0.0142632
683.035	0.0145229
683.113	0.0143709
683.192	0.0144135
683.270	0.0144083
683.348	0.0144379
683.426	0.0143713
683.504	0.0144291
683.582	0.0142611
683.660	0.0144271
683.738	0.0143270
683.817	0.0142465
683.895	0.0144486
683.973	0.0144236
684.051	0.0143687
684.129	0.0143778
684.207	0.0144169
684.285	0.0144154
684.363	0.0144267
684.442	0.0142949
684.520	0.0144376
684.598	0.0143494
684.676	0.0143455
684.754	0.0142974
684.832	0.0144993
684.910	0.0144875
684.988	0.0143272
685.067	0.0144546
685.145	0.0143948
685.223	0.0143600
685.301	0.0144730
685.379	0.0142949
685.457	0.0145093
685.535	0.0144404
685.613	0.0143150
685.692	0.0143769
685.770	0.0144868
685.848	0.0143967
685.926	0.0143260
686.004	0.0144021
686.082	0.0142836
686.160	0.0144173
686.238	0.0144651
686.317	0.0144810
686.395	0.0145739
686.473	0.0144009
686.551	0.0143320
686.629	0.0143493
686.707	0.0144233
686.785	0.0143518
686.863	0.0144411
686.942	0.0143700
687.020	0.0144531
687.098	0.0143623
687.176	0.0143601
687.254	0.0144707
687.332	0.0143068
687.410	0.0144144
687.488	0.0145265
687.567	0.0145319
687.645	0.0145361
687.723	0.0144113
687.801	0.0144635
687.879	0.0143424
687.957	0.0145237
688.035	0.0145738
688.113	0.0144475
688.192	0.0143830
688.270	0.0144152
688.348	0.0144911
688.426	0.0143723
688.504	0.0145166
688.582	0.0144649
688.660	0.0143839
688.738	0.0144636
688.817	0.0144978
688.895	0.0144341
688.973	0.0144101
689.051	0.0144556
689.129	0.0145075
689.207	0.0145591
689.285	0.0144210
689.363	0.0143676
689.442	0.0143977
689.520	0.0144136
689.598	0.0143255
689.676	0.0145323
689.754	0.0145107
689.832	0.0143990
689.910	0.0144099
689.988	0.0144176
690.067	0.0144148
690.145	0.0143896
690.223	0.0144663
690.301	0.0145892
690.379	0.0144859
690.457	0.0144505
690.535	0.0144048
690.613	0.0143916
690.692	0.0145232
690.770	0.0143682
690.848	0.0144252
690.926	0.0145712
691.004	0.0145232
691.082	0.0144244
691.160	0.0144631
691.238	0.0145636
691.317	0.0143025
691.395	0.0143451
691.473	0.0143583
691.551	0.0141599
691.629	0.0143299
691.707	0.0142667
691.785	0.0144306
691.863	0.0144559
691.942	0.0143995
692.020	0.0145797
692.098	0.0145880
692.176	0.0146557
692.254	0.0146717
692.332	0.0146671
692.410	0.0147492
692.488	0.0146062
692.567	0.0145098
692.645	0.0143610
692.723	0.0144270
692.801	0.0142181
692.879	0.0140865
692.957	0.0141531
693.035	0.0140318
693.113	0.0142236
693.192	0.0143055
693.270	0.0143188
693.348	0.0144478
693.426	0.0145428
693.504	0.0148189
693.582	0.0147624
693.660	0.0146529
693.738	0.0146572
693.817	0.0145411
693.895	0.0145203
693.973	0.0142735
694.051	0.0142972
694.129	0.0141306
694.207	0.0139427
694.285	0.0139255
694.363	0.0140981
694.442	0.0140291
694.520	0.0143245
694.598	0.0145927
694.676	0.0148273
694.754	0.0148965
694.832	0.0152586
694.910	0.0154559
694.988	0.0155906
695.067	0.0154482
695.145	0.0154662
695.223	0.0153915
695.301	0.0151262
695.379	0.0149379
695.457	0.0146912
695.535	0.0144576
695.613	0.0140187
695.692	0.0137456
695.770	0.0135661
695.848	0.0134010
695.926	0.0131712
696.004	0.0130939
696.082	0.0130533
696.160	0.0130551
696.238	0.0131342
696.317	0.0131792
696.395	0.0133836
696.473	0.0136320
696.551	0.0138908
696.629	0.0141151
696.707	0.0143449
696.785	0.0146482
696.863	0.0148454
696.942	0.0151865
697.020	0.0155524
697.098	0.0155786
697.176	0.0158299
697.254	0.0159607
697.332	0.0160544
697.410	0.0160526
697.488	0.0160542
697.567	0.0158746
697.645	0.0155766
697.723	0.0152757
697.801	0.0152123
697.879	0.0148381
697.957	0.0145631
698.035	0.0142543
698.113	0.0139007
698.192	0.0136679
698.270	0.0135194
698.348	0.0131258
698.426	0.0129707
698.504	0.0128992
698.582	0.0128085
698.660	0.0128172
698.738	0.0128041
698.817	0.0129574
698.895	0.0131586
698.973	0.0133894
699.051	0.0136594
699.129	0.0137893
699.207	0.0140733
699.285	0.0144635
699.363	0.0149140
699.442	0.0151660
699.520	0.0154013
699.598	0.0155527
699.676	0.0156306
699.754	0.0158709
699.832	0.0159000
699.910	0.0157594
699.988	0.0156917
700.067	0.0154045
700.145	0.0152407
700.223	0.0151115
700.301	0.0147115
700.379	0.0143030
700.457	0.0140455
700.535	0.0137660
700.613	0.0136050
700.692	0.0134543
700.770	0.0134154
700.848	0.0132293
700.926	0.0132308
701.004	0.0133670
701.082	0.0134376
701.160	0.0135349
701.238	0.0137893
701.317	0.0138673
701.395	0.0140447
701.473	0.0145660
701.551	0.0145980
701.629	0.0148791
701.707	0.0153197
701.785	0.0154446
701.863	0.0156850
701.942	0.0156604
702.020	0.0158090
702.098	0.0157575
702.176	0.0156506
702.254	0.0154126
702.332	0.0152507
702.410	0.0151186
702.488	0.0147275
702.567	0.0145087
702.645	0.0144037
702.723	0.0140161
702.801	0.0139005
702.879	0.0136610
702.957	0.0137690
703.035	0.0137341
703.113	0.0136594
703.192	0.0136415
703.270	0.0137577
703.348	0.0139186
703.426	0.0141285
703.504	0.0142274
703.582	0.0143213
703.660	0.0143667
703.738	0.0144614
703.817	0.0145540
703.895	0.0145932
703.973	0.0145412
704.051	0.0145644
704.129	0.0146107
704.207	0.0145237
704.285	0.0146692
704.363	0.0145503
704.442	0.0144723
704.520	0.0143459
704.598	0.0143256
704.676	0.0144930
704.754	0.0143849
704.832	0.0143751
704.910	0.0145073
704.988	0.0144691
705.067	0.0144698
705.145	0.0146967
705.223	0.0147717
705.301	0.0148150
705.379	0.0148189
705.457	0.0147032
705.535	0.0147292
705.613	0.0148889
705.692	0.0148173
705.770	0.0147935
705.848	0.0148618
705.926	0.0147493
706.004	0.0145913
706.082	0.0144562
706.160	0.0144534
706.238	0.0144843
706.317	0.0146272
706.395	0.0145737
706.473	0.0146165
706.551	0.0147569
706.629	0.0147883
706.707	0.0147855
706.785	0.0147693
706.863	0.0148440
706.942	0.0149416
707.020	0.0148771
707.098	0.0148515
707.176	0.0147115
707.254	0.0146151
707.332	0.0145699
707.410	0.0144791
707.488	0.0143537
707.567	0.0143871
707.645	0.0142042
707.723	0.0142308
707.801	0.0141572
707.879	0.0141135
707.957	0.0140230
708.035	0.0140351
708.113	0.0139140
708.192	0.0140206
708.270	0.0139140
708.348	0.0140610
708.426	0.0141759
708.504	0.0140331
708.582	0.0141288
708.660	0.0142139
708.738	0.0143246
708.817	0.0143352
708.895	0.0143687
708.973	0.0143701
709.051	0.0141592
709.129	0.0143140
709.207	0.0143004
709.285	0.0141202
709.363	0.0142634
709.442	0.0142278
709.520	0.0140453
709.598	0.0141458
709.676	0.0141936
709.754	0.0140314
709.832	0.0142204
709.910	0.0142987
709.988	0.0143802
710.067	0.0142705
710.145	0.0144544
710.223	0.0144495
710.301	0.0146080
710.379	0.0146587
710.457	0.0147592
710.535	0.0147077
710.613	0.0146680
710.692	0.0147400
710.770	0.0146701
710.848	0.0145257
710.926	0.0145679
711.004	0.0145634
711.082	0.0146399
711.160	0.0144280
711.238	0.0143890
711.317	0.0143417
711.395	0.0144129
711.473	0.0144897
711.551	0.0143620
711.629	0.0146187
711.707	0.0146066
711.785	0.0149094
711.863	0.0147841
711.942	0.0148423
712.020	0.0149969
712.098	0.0151688
712.176	0.0151127
712.254	0.0150876
712.332	0.0151342
712.410	0.0150397
712.488	0.0149595
712.567	0.0150433
712.645	0.0149017
712.723	0.0146532
712.801	0.0145962
712.879	0.0145055
712.957	0.0143147
713.035	0.0141612
713.113	0.0140308
713.192	0.0139373
713.270	0.0137842
713.348	0.0134927
713.426	0.0135867
713.504	0.0137487
713.582	0.0136172
713.660	0.0136436
713.738	0.0137743
713.817	0.0138116
713.895	0.0139966
713.973	0.0141006
714.051	0.0140952
714.129	0.0141933
714.207	0.0143517
714.285	0.0144285
714.363	0.0147082
714.442	0.0145511
714.520	0.0147232
714.598	0.0146798
714.676	0.0146198
714.754	0.0146618
714.832	0.0146854
714.910	0.0148948
714.988	0.0147818
715.067	0.0145467
715.145	0.0146049
715.223	0.0146381
715.301	0.0146638
715.379	0.0145924
715.457	0.0147111
715.535	0.0149065
715.613	0.0148153
715.692	0.0146835
715.770	0.0148651
715.848	0.0148425
715.926	0.0147958
716.004	0.0148042
716.082	0.0149578
716.160	0.0148329
716.238	0.0146667
716.317	0.0146441
716.395	0.0146758
716.473	0.0146438
716.551	0.0146275
716.629	0.0145954
716.707	0.0145169
716.785	0.0144966
716.863	0.0144768
716.942	0.0142675
717.020	0.0141927
717.098	0.0141344
717.176	0.0141017
717.254	0.0142014
717.332	0.0140917
717.410	0.0140544
717.488	0.0140330
717.567	0.0140739
717.645	0.0140665
717.723	0.0143036
717.801	0.0143150
717.879	0.0142202
717.957	0.0144196
718.035	0.0145237
718.113	0.0144579
718.192	0.0146552
718.270	0.0146634
718.348	0.0146609
718.426	0.0147572
718.504	0.0147261
718.582	0.0147505
718.660	0.0147182
718.738	0.0144887
718.817	0.0143438
718.895	0.0143319
718.973	0.0140086
719.051	0.0139806
719.129	0.0139671
719.207	0.0139905
719.285	0.0138261
719.363	0.0137806
719.442	0.0137274
719.520	0.0136201
719.598	0.0138604
719.676	0.0141441
719.754	0.0140634
719.832	0.0141891
719.910	0.0142390
719.988	0.0144234
720.067	0.0145613
720.145	0.0146242
720.223	0.0146948
720.301	0.0148887
720.379	0.0149088
720.457	0.0149209
720.535	0.0151460
720.613	0.0152715
720.692	0.0150886
720.770	0.0151434
720.848	0.0151675
720.926	0.0151512
721.004	0.0150147
721.082	0.0148382
721.160	0.0147894
721.238	0.0148371
721.317	0.0144871
721.395	0.0143274
721.473	0.0144184
721.551	0.0144013
721.629	0.0141433
721.707	0.0141396
721.785	0.0141323
721.863	0.0141422
721.942	0.0141592
722.020	0.0141835
722.098	0.0142645
722.176	0.0142464
722.254	0.0140488
722.332	0.0142222
722.410	0.0143694
722.488	0.0144566
722.567	0.0144247
722.645	0.0143362
722.723	0.0144395
722.801	0.0143393
722.879	0.0145083
722.957	0.0144279
723.035	0.0143633
723.113	0.0145432
723.192	0.0145361
723.270	0.0144780
723.348	0.0145103
723.426	0.0144701
723.504	0.0144263
723.582	0.0144688
723.660	0.0143267
723.738	0.0141577
723.817	0.0141231
723.895	0.0141354
723.973	0.0138933
724.051	0.0139014
724.129	0.0141833
724.207	0.0141947
724.285	0.0140565
724.363	0.0141715
724.442	0.0142232
724.520	0.0143375
724.598	0.0143342
724.676	0.0145183
724.754	0.0144611
724.832	0.0146790
724.910	0.0147472
724.988	0.0146496
725.067	0.0148013
725.145	0.0147727
725.223	0.0149500
725.301	0.0149161
725.379	0.0147391
725.457	0.0148115
725.535	0.0147816
725.613	0.0148377
725.692	0.0146793
725.770	0.0147433
725.848	0.0145865
725.926	0.0145676
726.004	0.0145397
726.082	0.0145463
726.160	0.0145657
726.238	0.0143713
726.317	0.0144162
726.395	0.0143689
726.473	0.0143562
726.551	0.0144302
726.629	0.0143410
726.707	0.0142565
726.785	0.0142780
726.863	0.0142716
726.942	0.0143919
727.020	0.0143790
727.098	0.0143088
727.176	0.0143301
727.254	0.0145406
727.332	0.0145343
727.410	0.0145985
727.488	0.0145483
727.567	0.0146639
727.645	0.0146394
727.723	0.0147153
727.801	0.0147990
727.879	0.0146431
727.957	0.0145352
728.035	0.0146232
728.113	0.0144299
728.192	0.0144466
728.270	0.0143706
728.348	0.0142851
728.426	0.0143884
728.504	0.0143256
728.582	0.0142026
728.660	0.0141894
728.738	0.0142292
728.817	0.0141348
728.895	0.0140118
728.973	0.0140694
729.051	0.0143121
729.129	0.0142390
729.207	0.0144185
729.285	0.0143668
729.363	0.0144572
729.442	0.0147328
729.520	0.0146349
729.598	0.0146323
729.676	0.0146646
729.754	0.0148119
729.832	0.0149728
729.910	0.0149311
729.988	0.0149075
730.067	0.0150103
730.145	0.0149993
730.223	0.0149776
730.301	0.0148064
730.379	0.0146733
730.457	0.0146484
730.535	0.0146712
730.613	0.0145273
730.692	0.0143584
730.770	0.0144353
730.848	0.0144883
730.926	0.0145467
731.004	0.0144543
731.082	0.0142859
731.160	0.0143076
731.238	0.0143964
731.317	0.0143443
731.395	0.0142068
731.473	0.0142589
731.551	0.0143011
731.629	0.0143401
731.707	0.0143134
731.785	0.0142089
731.863	0.0141492
731.942	0.0141555
732.020	0.0143196
732.098	0.0141647
732.176	0.0143370
732.254	0.0143539
732.332	0.0144004
732.410	0.0143190
732.488	0.0145093
732.567	0.0144788
732.645	0.0144858
732.723	0.0145300
732.801	0.0145267
732.879	0.0144646
732.957	0.0145348
733.035	0.0144587
733.113	0.0143941
733.192	0.0144941
733.270	0.0145222
733.348	0.0145226
733.426	0.0143823
733.504	0.0143911
733.582	0.0144078
733.660	0.0145866
733.738	0.0145484
733.817	0.0145279
733.895	0.0145525
733.973	0.0147206
734.051	0.0145569
734.129	0.0144737
734.207	0.0144541
734.285	0.0144992
734.363	0.0146045
734.442	0.0145994
734.520	0.0146425
734.598	0.0145874
734.676	0.0148364
734.754	0.0146143
734.832	0.0146580
734.910	0.0145953
734.988	0.0146902
735.067	0.0147964
735.145	0.0145571
735.223	0.0145396
735.301	0.0145315
735.379	0.0143937
735.457	0.0143587
735.535	0.0143815
735.613	0.0142863
735.692	0.0142862
735.770	0.0143742
735.848	0.0142932
735.926	0.0141216
736.004	0.0142023
736.082	0.0142422
736.160	0.0143438
736.238	0.0143571
736.317	0.0144218
736.395	0.0144381
736.473	0.0143810
736.551	0.0145409
736.629	0.0144801
736.707	0.0145596
736.785	0.0145527
736.863	0.0146316
736.942	0.0145286
737.020	0.0145214
737.098	0.0145717
737.176	0.0146308
737.254	0.0146334
737.332	0.0144722
737.410	0.0144082
737.488	0.0144260
737.567	0.0141396
737.645	0.0142298
737.723	0.0141487
737.801	0.0139117
737.879	0.0138891
737.957	0.0138599
738.035	0.0139150
738.113	0.0139648
738.192	0.0140574
738.270	0.0140233
738.348	0.0142365
738.426	0.0142271
738.504	0.0142050
738.582	0.0143907
738.660	0.0144586
738.738	0.0146210
738.817	0.0148799
738.895	0.0148152
738.973	0.0150603
739.051	0.0150772
739.129	0.0149553
739.207	0.0148779
739.285	0.0150556
739.363	0.0150951
739.442	0.0150036
739.520	0.0149348
739.598	0.0149191
739.676	0.0148650
739.754	0.0148031
739.832	0.0145391
739.910	0.0144502
739.988	0.0144080
740.067	0.0144849
740.145	0.0143140
740.223	0.0143077
740.301	0.0141537
740.379	0.0140848
740.457	0.0140530
740.535	0.0140858
740.613	0.0140829
740.692	0.0140195
740.770	0.0142599
740.848	0.0141687
740.926	0.0142070
741.004	0.0142657
741.082	0.0143676
741.160	0.0143871
741.238	0.0145091
741.317	0.0146035
741.395	0.0145192
741.473	0.0145870
741.551	0.0145712
741.629	0.0145896
741.707	0.0147808
741.785	0.0147067
741.863	0.0147864
741.942	0.0146743
742.020	0.0146875
742.098	0.0146247
742.176	0.0145518
742.254	0.0145547
742.332	0.0146722
742.410	0.0145132
742.488	0.0143550
742.567	0.0145591
742.645	0.0143628
742.723	0.0143498
742.801	0.0143990
742.879	0.0142094
742.957	0.0142585
743.035	0.0142423
743.113	0.0143909
743.192	0.0141661
743.270	0.0140546
743.348	0.0142563
743.426	0.0144691
743.504	0.0144392
743.582	0.0144395
743.660	0.0145296
743.738	0.0146611
743.817	0.0147180
743.895	0.0146597
743.973	0.0147872
744.051	0.0149619
744.129	0.0148785
744.207	0.0148778
744.285	0.0149914
744.363	0.0148204
744.442	0.0148061
744.520	0.0147482
744.598	0.0149052
744.676	0.0145967
744.754	0.0145079
744.832	0.0145828
744.910	0.0144523
744.988	0.0142304
745.067	0.0143185
745.145	0.0142706
745.223	0.0142439
745.301	0.0142395
745.379	0.0143608
745.457	0.0141887
745.535	0.0142052
745.613	0.0143468
745.692	0.0143201
745.770	0.0143764
745.848	0.0143991
745.926	0.0143542
746.004	0.0144065
746.082	0.0145144
746.160	0.0144856
746.238	0.0144447
746.317	0.0145930
746.395	0.0145088
746.473	0.0144301
746.551	0.0145301
746.629	0.0145777
746.707	0.0145077
746.785	0.0144118
746.863	0.0145023
746.942	0.0144782
747.020	0.0146204
747.098	0.0146410
747.176	0.0145036
747.254	0.0144575
747.332	0.0143884
747.410	0.0145081
747.488	0.0146248
747.567	0.0145385
747.645	0.0143291
747.723	0.0143412
747.801	0.0142000
747.879	0.0141552
747.957	0.0140974
748.035	0.0141906
748.113	0.0141602
748.192	0.0141984
748.270	0.0141200
748.348	0.0141043
748.426	0.0140646
748.504	0.0142125
748.582	0.0141934
748.660	0.0143129
748.738	0.0141474
748.817	0.0144446
748.895	0.0143835
748.973	0.0144442
749.051	0.0145134
749.129	0.0144147
749.207	0.0145848
749.285	0.0146362
749.363	0.0146708
749.442	0.0146787
749.520	0.0148751
749.598	0.0147147
749.676	0.0146838
749.754	0.0146863
749.832	0.0146865
749.910	0.0146198
749.988	0.0144475
750.067	0.0145231
750.145	0.0143923
750.223	0.0144311
750.301	0.0142419
750.379	0.0142111
750.457	0.0143046
750.535	0.0142748
750.613	0.0142980
750.692	0.0143217
750.770	0.0143272
750.848	0.0143425
750.926	0.0144804
751.004	0.0142582
751.082	0.0143834
751.160	0.0145245
751.238	0.0145872
751.317	0.0144753
751.395	0.0145806
751.473	0.0145558
751.551	0.0144853
751.629	0.0147179
751.707	0.0145158
751.785	0.0147315
751.863	0.0147219
751.942	0.0148909
752.020	0.0147094
752.098	0.0147961
752.176	0.0147724
752.254	0.0146452
752.332	0.0147521
752.410	0.0145063
752.488	0.0145475
752.567	0.0145556
752.645	0.0144300
752.723	0.0143135
752.801	0.0143172
752.879	0.0143978
752.957	0.0143246
753.035	0.0142213
753.113	0.0143627
753.192	0.0141774
753.270	0.0142467
753.348	0.0142661
753.426	0.0142220
753.504	0.0142880
753.582	0.0142473
753.660	0.0143348
753.738	0.0143709
753.817	0.0143299
753.895	0.0146420
753.973	0.0146371
754.051	0.0146159
754.129	0.0146622
754.207	0.0146365
754.285	0.0146302
754.363	0.0145199
754.442	0.0148547
754.520	0.0147678
754.598	0.0148515
754.676	0.0147897
754.754	0.0147045
754.832	0.0148097
754.910	0.0147744
754.988	0.0147227
755.067	0.0147891
755.145	0.0147887
755.223	0.0146192
755.301	0.0146481
755.379	0.0146368
755.457	0.0145825
755.535	0.0144815
755.613	0.0144876
755.692	0.0144229
755.770	0.0144613
755.848	0.0142390
755.926	0.0142126
756.004	0.0142298
756.082	0.0141385
756.160	0.0141774
756.238	0.0141299
756.317	0.0142744
756.395	0.0141857
756.473	0.0143105
756.551	0.0144179
756.629	0.0143388
756.707	0.0144305
756.785	0.0144102
756.863	0.0144906
756.942	0.0145463
757.020	0.0146312
757.098	0.0145967
757.176	0.0146109
757.254	0.0145631
757.332	0.0145602
757.410	0.0146359
757.488	0.0147057
757.567	0.0146942
757.645	0.0145567
757.723	0.0146374
757.801	0.0145937
757.879	0.0143461
757.957	0.0144757
758.035	0.0145712
758.113	0.0145352
758.192	0.0143906
758.270	0.0143760
758.348	0.0143503
758.426	0.0144502
758.504	0.0144107
758.582	0.0141668
758.660	0.0142107
758.738	0.0142344
758.817	0.0143327
758.895	0.0143177
758.973	0.0144643
759.051	0.0144973
759.129	0.0144970
759.207	0.0144724
759.285	0.0145072
759.363	0.0145460
759.442	0.0146318
759.520	0.0144563
759.598	0.0147327
759.676	0.0147299
759.754	0.0145397
759.832	0.0146513
759.910	0.0146044
759.988	0.0145692
760.067	0.0145303
760.145	0.0147737
760.223	0.0146337
760.301	0.0144452
760.379	0.0145076
760.457	0.0145263
760.535	0.0143922
760.613	0.0144645
760.692	0.0143022
760.770	0.0142665
760.848	0.0143237
760.926	0.0141636
761.004	0.0142087
761.082	0.0142487
761.160	0.0142513
761.238	0.0142315
761.317	0.0144080
761.395	0.0142001
761.473	0.0143781
761.551	0.0143665
761.629	0.0144209
761.707	0.0144748
761.785	0.0145672
761.863	0.0145607
761.942	0.0145734
762.020	0.0146568
762.098	0.0144256
762.176	0.0145797
762.254	0.0145016
762.332	0.0145413
762.410	0.0145679
762.488	0.0146161
762.567	0.0143460
762.645	0.0144408
762.723	0.0144633
762.801	0.0145952
762.879	0.0145196
762.957	0.0144029
763.035	0.0144733
763.113	0.0144549
763.192	0.0145297
763.270	0.0145586
763.348	0.0144189
763.426	0.0145381
763.504	0.0144720
763.582	0.0144617
763.660	0.0144794
763.738	0.0144295
763.817	0.0143679
763.895	0.0145499
763.973	0.0145408
764.051	0.0143353
764.129	0.0144707
764.207	0.0144109
764.285	0.0145473
764.363	0.0143835
764.442	0.0144677
764.520	0.0145161
764.598	0.0145423
764.676	0.0144978
764.754	0.0145566
764.832	0.0145923
764.910	0.0146162
764.988	0.0146569
765.067	0.0146528
765.145	0.0145338
765.223	0.0145824
765.301	0.0146245
765.379	0.0146316
765.457	0.0145450
765.535	0.0145490
765.613	0.0145230
765.692	0.0145126
765.770	0.0146088
765.848	0.0144724
765.926	0.0145437
766.004	0.0145083
766.082	0.0145050
766.160	0.0144139
766.238	0.0144082
766.317	0.0144614
766.395	0.0142294
766.473	0.0142575
766.551	0.0143957
766.629	0.0144047
766.707	0.0145023
766.785	0.0143819
766.863	0.0144765
766.942	0.0145795
767.020	0.0145863
767.098	0.0145840
767.176	0.0145507
767.254	0.0145958
767.332	0.0147416
767.410	0.0147552
767.488	0.0146389
767.567	0.0146613
767.645	0.0146206
767.723	0.0146751
767.801	0.0146348
767.879	0.0146267
767.957	0.0145278
768.035	0.0145178
768.113	0.0145412
768.192	0.0143896
768.270	0.0144659
768.348	0.0144655
768.426	0.0143298
768.504	0.0144932
768.582	0.0144376
768.660	0.0143759
768.738	0.0143682
768.817	0.0144261
768.895	0.0142979
768.973	0.0143393
769.051	0.0143488
769.129	0.0142548
769.207	0.0143490
769.285	0.0144942
769.363	0.0144740
769.442	0.0145316
769.520	0.0145321
769.598	0.0145542
769.676	0.0145649
769.754	0.0145074
769.832	0.0145844
769.910	0.0146147
769.988	0.0146096
770.067	0.0145159
770.145	0.0145567
770.223	0.0145403
770.301	0.0145194
770.379	0.0144465
770.457	0.0145457
770.535	0.0145728
770.613	0.0145179
770.692	0.0143480
770.770	0.0143923
770.848	0.0144908
770.926	0.0143709
771.004	0.0144011
771.082	0.0144241
771.160	0.0143998
771.238	0.0143760
771.317	0.0143478
771.395	0.0141821
771.473	0.0142471
771.551	0.0144323
771.629	0.0143748
771.707	0.0143835
771.785	0.0143691
771.863	0.0144174
771.942	0.0141843
772.020	0.0144430
772.098	0.0145184
772.176	0.0144849
772.254	0.0143719
772.332	0.0146610
772.410	0.0144822
772.488	0.0144846
772.567	0.0144582
772.645	0.0145293
772.723	0.0144704
772.801	0.0143692
772.879	0.0143762
772.957	0.0144763
773.035	0.0144421
773.113	0.0145499
773.192	0.0144043
773.270	0.0142597
773.348	0.0143472
773.426	0.0143136
773.504	0.0143800
773.582	0.0143768
773.660	0.0144383
773.738	0.0145734
773.817	0.0143951
773.895	0.0145587
773.973	0.0145237
774.051	0.0145151
774.129	0.0145959
774.207	0.0145973
774.285	0.0145892
774.363	0.0143866
774.442	0.0145572
774.520	0.0144763
774.598	0.0145547
774.676	0.0144732
774.754	0.0145431
774.832	0.0145132
774.910	0.0145302
774.988	0.0145042
775.067	0.0144763
775.145	0.0145024
775.223	0.0145995
775.301	0.0144887
775.379	0.0144875
775.457	0.0146064
775.535	0.0145063
775.613	0.0145961
775.692	0.0143330
775.770	0.0143671
775.848	0.0145730
775.926	0.0144045
776.004	0.0144915
776.082	0.0142479
776.160	0.0143159
776.238	0.0144916
776.317	0.0144405
776.395	0.0144790
776.473	0.0142408
776.551	0.0142464
776.629	0.0144542
776.707	0.0145303
776.785	0.0144720
776.863	0.0144115
776.942	0.0143957
777.020	0.0145248
777.098	0.0144934
777.176	0.0145110
777.254	0.0145585
777.332	0.0145343
777.410	0.0145516
777.488	0.0146715
777.567	0.0145784
777.645	0.0145512
777.723	0.0145547
777.801	0.0145665
777.879	0.0145845
777.957	0.0146431
778.035	0.0145029
778.113	0.0144703
778.192	0.0144819
778.270	0.0144646
778.348	0.0145637
778.426	0.0145418
778.504	0.0145988
778.582	0.0144879
778.660	0.0144853
778.738	0.0144800
778.817	0.0143806
778.895	0.0143645
778.973	0.0143529
779.051	0.0143821
779.129	0.0142408
779.207	0.0143772
779.285	0.0143674
779.363	0.0145245
779.442	0.0144552
779.520	0.0143989
779.598	0.0144398
779.676	0.0144611
779.754	0.0145100
779.832	0.0145387
779.910	0.0145836
779.988	0.0146339
780.067	0.0145612
780.145	0.0145920
780.223	0.0145327
780.301	0.0146299
780.379	0.0147406
780.457	0.0146101
780.535	0.0145982
780.613	0.0145140
780.692	0.0146883
780.770	0.0145591
780.848	0.0145925
780.926	0.0144781
781.004	0.0144083
781.082	0.0143661
781.160	0.0145103
781.238	0.0144262
781.317	0.0143119
781.395	0.0143049
781.473	0.0142908
781.551	0.0142574
781.629	0.0143317
781.707	0.0142645
781.785	0.0142712
781.863	0.0142711
781.942	0.0142486
782.020	0.0142015
782.098	0.0142759
782.176	0.0141840
782.254	0.0142874
782.332	0.0143741
782.410	0.0145663
782.488	0.0143907
782.567	0.0143418
782.645	0.0143951
782.723	0.0145590
782.801	0.0144810
782.879	0.0144553
782.957	0.0144293
783.035	0.0144990
783.113	0.0144945
783.192	0.0144854
783.270	0.0145638
783.348	0.0146402
783.426	0.0145870
783.504	0.0145599
783.582	0.0145497
783.660	0.0146100
783.738	0.0146105
783.817	0.0145486
783.895	0.0145511
783.973	0.0143147
784.051	0.0145028
784.129	0.0143817
784.207	0.0144330
784.285	0.0145761
784.363	0.0145916
784.442	0.0144038
784.520	0.0143745
784.598	0.0145546
784.676	0.0144698
784.754	0.0144382
784.832	0.0145829
784.910	0.0145132
784.988	0.0142718
785.067	0.0146636
785.145	0.0146202
785.223	0.0146373
785.301	0.0146769
785.379	0.0146223
785.457	0.0146375
785.535	0.0146885
785.613	0.0146109
785.692	0.0147014
785.770	0.0144909
785.848	0.0146415
785.926	0.0144672
786.004	0.0145050
786.082	0.0145802
786.160	0.0145377
786.238	0.0145870
786.317	0.0144122
786.395	0.0144398
786.473	0.0144039
786.551	0.0144486
786.629	0.0143792
786.707	0.0145235
786.785	0.0145367
786.863	0.0142902
786.942	0.0145141
787.020	0.0143876
787.098	0.0143420
787.176	0.0145622
787.254	0.0143970
787.332	0.0144333
787.410	0.0144290
787.488	0.0143598
787.567	0.0143887
787.645	0.0143180
787.723	0.0144399
787.801	0.0144123
787.879	0.0143216
787.957	0.0144325
788.035	0.0143727
788.113	0.0144543
788.192	0.0143785
788.270	0.0145652
788.348	0.0146256
788.426	0.0144427
788.504	0.0144717
788.582	0.0146644
788.660	0.0146128
788.738	0.0146055
788.817	0.0145625
788.895	0.0147589
788.973	0.0145190
789.051	0.0145567
789.129	0.0146474
789.207	0.0146906
789.285	0.0147131
789.363	0.0145622
789.442	0.0145729
789.520	0.0145885
789.598	0.0144885
789.676	0.0144102
789.754	0.0144816
789.832	0.0144819
789.910	0.0144958
789.988	0.0143502
790.067	0.0143328
790.145	0.0143104
790.223	0.0143845
790.301	0.0143746
790.379	0.0144833
790.457	0.0144699
790.535	0.0143324
790.613	0.0143092
790.692	0.0144972
790.770	0.0144975
790.848	0.0146523
790.926	0.0144690
791.004	0.0144303
791.082	0.0145621
791.160	0.0146234
791.238	0.0146264
791.317	0.0146885
791.395	0.0147755
791.473	0.0146349
791.551	0.0146989
791.629	0.0146304
791.707	0.0145557
791.785	0.0144891
791.863	0.0144872
791.942	0.0145141
792.020	0.0144453
792.098	0.0143036
792.176	0.0143900
792.254	0.0144241
792.332	0.0142976
792.410	0.0143066
792.488	0.0142678
792.567	0.0142803
792.645	0.0143170
792.723	0.0144136
792.801	0.0143280
792.879	0.0141829
792.957	0.0144744
793.035	0.0144854
793.113	0.0144289
793.192	0.0146272
793.270	0.0145673
793.348	0.0145759
793.426	0.0145852
793.504	0.0145630
793.582	0.0146481
793.660	0.0147084
793.738	0.0147321
793.817	0.0147878
793.895	0.0148135
793.973	0.0147563
794.051	0.0147202
794.129	0.0147324
794.207	0.0146317
794.285	0.0147014
794.363	0.0145311
794.442	0.0145220
794.520	0.0145087
794.598	0.0144048
794.676	0.0144772
794.754	0.0144848
794.832	0.0143455
794.910	0.0143187
794.988	0.0143276
795.067	0.0143188
795.145	0.0143235
795.223	0.0142017
795.301	0.0142317
795.379	0.0144529
795.457	0.0143950
795.535	0.0143613
795.613	0.0143976
795.692	0.0142532
795.770	0.0145094
795.848	0.0145222
795.926	0.0145074
796.004	0.0143797
796.082	0.0144980
796.160	0.0146469
796.238	0.0144258
796.317	0.0145081
796.395	0.0145139
796.473	0.0144547
796.551	0.0145557
796.629	0.0145635
796.707	0.0144908
796.785	0.0144137
796.863	0.0144857
796.942	0.0146060
797.020	0.0144696
797.098	0.0145480
797.176	0.0141708
797.254	0.0144417
797.332	0.0144565
797.410	0.0144819
797.488	0.0143453
797.567	0.0143623
797.645	0.0144104
797.723	0.0144206
797.801	0.0143703
797.879	0.0143777
797.957	0.0144487
798.035	0.0143951
798.113	0.0144241
798.192	0.0144687
798.270	0.0145344
798.348	0.0144328
798.426	0.0143393
798.504	0.0145560
798.582	0.0146061
798.660	0.0144614
798.738	0.0146402
798.817	0.0147799
798.895	0.0146897
798.973	0.0146223
799.051	0.0148090
799.129	0.0147974
799.207	0.0147250
799.285	0.0146253
799.363	0.0146408
799.442	0.0147198
799.520	0.0146073
799.598	0.0146534
799.676	0.0146525
799.754	0.0146506
799.832	0.0144438
799.910	0.0144449
799.988	0.0145282
800.067	0.0144720
800.145	0.0143471
800.223	0.0143014
800.301	0.0143154
800.379	0.0143081
800.457	0.0143023
800.535	0.0144412
800.613	0.0144630
800.692	0.0143334
800.770	0.0144073
800.848	0.0143407
800.926	0.0144803
801.004	0.0144613
801.082	0.0143767
801.160	0.0142518
801.238	0.0144110
801.317	0.0145615
801.395	0.0145004
801.473	0.0144187
801.551	0.0143687
801.629	0.0143637
801.707	0.0143497
801.785	0.0144333
801.863	0.0143507
801.942	0.0144213
802.020	0.0144312
802.098	0.0145910
802.176	0.0144850
802.254	0.0144640
802.332	0.0144055
802.410	0.0146037
802.488	0.0145684
802.567	0.0147251
802.645	0.0146248
802.723	0.0145451
802.801	0.0146557
802.879	0.0145461
802.957	0.0145938
803.035	0.0145971
803.113	0.0146323
803.192	0.0145181
803.270	0.0146449
803.348	0.0146580
803.426	0.0144877
803.504	0.0144749
803.582	0.0145953
803.660	0.0145811
803.738	0.0145441
803.817	0.0145083
803.895	0.0143562
803.973	0.0143540
804.051	0.0142861
804.129	0.0142693
804.207	0.0143349
804.285	0.0143160
804.363	0.0143338
804.442	0.0143548
804.520	0.0143066
804.598	0.0144556
804.676	0.0145466
804.754	0.0144188
804.832	0.0143182
804.910	0.0144217
804.988	0.0145994
805.067	0.0144781
805.145	0.0146268
805.223	0.0145569
805.301	0.0144694
805.379	0.0144521
805.457	0.0145797
805.535	0.0146291
805.613	0.0146232
805.692	0.0144647
805.770	0.0145113
805.848	0.0144805
805.926	0.0144450
806.004	0.0143876
806.082	0.0144709
806.160	0.0144679
806.238	0.0144280
806.317	0.0144361
806.395	0.0143068
806.473	0.0142522
806.551	0.0143324
806.629	0.0142957
806.707	0.0143755
806.785	0.0143419
806.863	0.0142565
806.942	0.0142672
807.020	0.0143943
807.098	0.0144054
807.176	0.0142700
807.254	0.0145531
807.332	0.0144764
807.410	0.0144495
807.488	0.0146214
807.567	0.0146646
807.645	0.0146961
807.723	0.0146771
807.801	0.0146552
807.879	0.0145805
807.957	0.0146300
808.035	0.0147073
808.113	0.0144416
808.192	0.0145443
808.270	0.0146065
808.348	0.0146062
808.426	0.0144996
808.504	0.0144690
808.582	0.0143723
808.660	0.0144351
808.738	0.0144863
808.817	0.0144283
808.895	0.0144151
808.973	0.0145106
809.051	0.0143639
809.129	0.0144697
809.207	0.0145121
809.285	0.0144295
809.363	0.0143946
809.442	0.0144355
809.520	0.0144598
809.598	0.0143638
809.676	0.0143698
809.754	0.0144824
809.832	0.0144257
809.910	0.0144319
809.988	0.0143829
810.067	0.0145538
810.145	0.0144709
810.223	0.0145206
810.301	0.0144916
810.379	0.0143856
810.457	0.0144588
810.535	0.0145049
810.613	0.0144109
810.692	0.0145125
810.770	0.0143752
810.848	0.0143552
810.926	0.0144773
811.004	0.0143459
811.082	0.0143873
811.160	0.0146087
811.238	0.0144901
811.317	0.0144180
811.395	0.0145601
811.473	0.0145380
811.551	0.0145033
811.629	0.0144325
811.707	0.0145001
811.785	0.0145773
811.863	0.0144028
811.942	0.0145459
812.020	0.0146536
812.098	0.0145927
812.176	0.0146232
812.254	0.0144909
812.332	0.0145293
812.410	0.0146454
812.488	0.0146911
812.567	0.0146493
812.645	0.0145321
812.723	0.0145198
812.801	0.0146145
812.879	0.0145990
812.957	0.0145401
813.035	0.0145139
813.113	0.0145813
813.192	0.0146018
813.270	0.0146733
813.348	0.0145463
813.426	0.0144309
813.504	0.0145669
813.582	0.0145345
813.660	0.0146484
813.738	0.0146529
813.817	0.0145096
813.895	0.0145831
813.973	0.0146083
814.051	0.0144229
814.129	0.0144999
814.207	0.0145254
814.285	0.0146410
814.363	0.0145280
814.442	0.0144580
814.520	0.0142992
814.598	0.0144711
814.676	0.0144991
814.754	0.0144780
814.832	0.0143824
814.910	0.0143404
814.988	0.0145300
815.067	0.0143274
815.145	0.0144071
815.223	0.0144186
815.301	0.0143847
815.379	0.0144356
815.457	0.0144354
815.535	0.0144035
815.613	0.0144830
815.692	0.0144277
815.770	0.0145575
815.848	0.0144726
815.926	0.0143804
816.004	0.0144527
816.082	0.0144363
816.160	0.0143895
816.238	0.0145161
816.317	0.0144999
816.395	0.0144827
816.473	0.0146041
816.551	0.0144786
816.629	0.0145190
816.707	0.0146259
816.785	0.0145155
816.863	0.0145642
816.942	0.0145798
817.020	0.0145164
817.098	0.0146105
817.176	0.0144898
817.254	0.0145748
817.332	0.0146793
817.410	0.0144524
817.488	0.0145068
817.567	0.0145416
817.645	0.0145667
817.723	0.0145705
817.801	0.0145692
817.879	0.0145864
817.957	0.0144084
818.035	0.0145376
818.113	0.0145411
818.192	0.0144483
818.270	0.0142969
818.348	0.0143462
818.426	0.0145397
818.504	0.0143835
818.582	0.0143909
818.660	0.0144138
818.738	0.0145369
818.817	0.0143828
818.895	0.0144239
818.973	0.0144016
819.051	0.0144378
819.129	0.0145264
819.207	0.0146204
819.285	0.0145310
819.363	0.0145026
819.442	0.0145914
819.520	0.0146353
819.598	0.0144272
819.676	0.0145588
819.754	0.0146584
819.832	0.0144895
819.910	0.0144147
819.988	0.0143440
820.067	0.0144861
820.145	0.0145697
820.223	0.0143594
820.301	0.0143137
820.379	0.0144075
820.457	0.0143766
820.535	0.0143565
820.613	0.0143330
820.692	0.0142012
820.770	0.0142825
820.848	0.0143752
820.926	0.0143642
821.004	0.0143205
821.082	0.0142966
821.160	0.0143327
821.238	0.0144805
821.317	0.0145547
821.395	0.0144369
821.473	0.0144497
821.551	0.0144691
821.629	0.0145510
821.707	0.0145856
821.785	0.0145319
821.863	0.0144930
821.942	0.0145662
822.020	0.0147575
822.098	0.0145599
822.176	0.0145645
822.254	0.0145663
822.332	0.0144905
822.410	0.0144884
822.488	0.0144926
822.567	0.0144298
822.645	0.0144192
822.723	0.0145669
822.801	0.0142876
822.879	0.0143812
822.957	0.0142455
823.035	0.0143456
823.113	0.0143605
823.192	0.0143457
823.270	0.0144041
823.348	0.0143600
823.426	0.0142287
823.504	0.0144551
823.582	0.0146126
823.660	0.0144781
823.738	0.0145342
823.817	0.0144232
823.895	0.0146042
823.973	0.0144596
824.051	0.0145241
824.129	0.0145050
824.207	0.0145856
824.285	0.0146350
824.363	0.0145815
824.442	0.0145295
824.520	0.0146130
824.598	0.0145813
824.676	0.0144377
824.754	0.0144517
824.832	0.0146030
824.910	0.0145473
824.988	0.0144676
825.067	0.0145564
825.145	0.0143605
825.223	0.0143342
825.301	0.0142922
825.379	0.0144154
825.457	0.0143574
825.535	0.0144185
825.613	0.0143127
825.692	0.0141496
825.770	0.0143055
825.848	0.0144617
825.926	0.0143501
826.004	0.0143156
826.082	0.0142039
826.160	0.0142136
826.238	0.0145438
826.317	0.0143777
826.395	0.0145669
826.473	0.0145936
826.551	0.0145277
826.629	0.0144878
826.707	0.0143765
826.785	0.0145068
826.863	0.0144759
826.942	0.0146946
827.020	0.0144714
827.098	0.0146558
827.176	0.0146477
827.254	0.0146868
827.332	0.0146429
827.410	0.0147322
827.488	0.0147045
827.567	0.0146461
827.645	0.0146689
827.723	0.0146381
827.801	0.0145665
827.879	0.0146211
827.957	0.0147816
828.035	0.0145599
828.113	0.0146086
828.192	0.0144702
828.270	0.0145031
828.348	0.0144190
828.426	0.0144523
828.504	0.0144437
828.582	0.0146162
828.660	0.0144319
828.738	0.0143714
828.817	0.0143678
828.895	0.0143491
828.973	0.0144260
829.051	0.0144244
829.129	0.0145013
829.207	0.0142702
829.285	0.0144100
829.363	0.0145300
829.442	0.0144581
829.520	0.0144584
829.598	0.0144124
829.676	0.0145438
829.754	0.0145103
829.832	0.0144204
829.910	0.0145249
829.988	0.0145249
830.067	0.0146023
830.145	0.0144545
830.223	0.0145319
830.301	0.0145061
830.379	0.0145623
830.457	0.0146122
830.535	0.0144678
830.613	0.0144910
830.692	0.0145752
830.770	0.0145002
830.848	0.0144724
830.926	0.0145377
831.004	0.0145090
831.082	0.0145209
831.160	0.0145279
831.238	0.0143787
831.317	0.0145475
831.395	0.0145386
831.473	0.0145976
831.551	0.0146233
831.629	0.0145480
831.707	0.0145204
831.785	0.0146762
831.863	0.0145899
831.942	0.0144867
832.020	0.0145976
832.098	0.0144316
832.176	0.0146713
832.254	0.0145982
832.332	0.0144608
832.410	0.0144269
832.488	0.0145173
832.567	0.0144711
832.645	0.0145949
832.723	0.0145777
832.801	0.0145324
832.879	0.0145162
832.957	0.0145673
833.035	0.0144647
833.113	0.0144370
833.192	0.0144801
833.270	0.0147404
833.348	0.0145705
833.426	0.0145104
833.504	0.0145118
833.582	0.0144698
833.660	0.0144062
833.738	0.0144862
833.817	0.0145459
833.895	0.0144361
833.973	0.0144208
834.051	0.0144608
834.129	0.0143431
834.207	0.0143923
834.285	0.0143786
834.363	0.0143179
834.442	0.0143900
834.520	0.0144580
834.598	0.0144238
834.676	0.0142606
834.754	0.0142655
834.832	0.0144067
834.910	0.0143436
834.988	0.0143473
835.067	0.0142986
835.145	0.0144646
835.223	0.0145148
835.301	0.0144866
835.379	0.0145213
835.457	0.0145684
835.535	0.0145319
835.613	0.0143965
835.692	0.0144910
835.770	0.0146091
835.848	0.0146333
835.926	0.0144764
836.004	0.0144798
836.082	0.0145974
836.160	0.0145638
836.238	0.0144807
836.317	0.0144422
836.395	0.0145831
836.473	0.0144685
836.551	0.0145666
836.629	0.0144508
836.707	0.0144834
836.785	0.0145236
836.863	0.0145686
836.942	0.0145020
837.020	0.0144473
837.098	0.0143977
837.176	0.0145731
837.254	0.0145168
837.332	0.0145028
837.410	0.0144960
837.488	0.0145181
837.567	0.0144501
837.645	0.0145477
837.723	0.0146236
837.801	0.0144188
837.879	0.0144117
837.957	0.0145768
838.035	0.0146624
838.113	0.0145496
838.192	0.0144458
838.270	0.0145467
838.348	0.0145458
838.426	0.0145244
838.504	0.0144228
838.582	0.0144303
838.660	0.0146069
838.738	0.0146085
838.817	0.0145227
838.895	0.0145101
838.973	0.0145111
839.051	0.0145748
839.129	0.0144601
839.207	0.0144711
839.285	0.0145119
839.363	0.0144812
839.442	0.0145715
839.520	0.0144752
839.598	0.0143619
839.676	0.0144964
839.754	0.0142818
839.832	0.0145083
839.910	0.0144844
839.988	0.0145143
840.067	0.0145182
840.145	0.0145734
840.223	0.0146369
840.301	0.0144761
840.379	0.0144569
840.457	0.0145564
840.535	0.0144627
840.613	0.0144886
840.692	0.0145488
840.770	0.0145598
840.848	0.0145374
840.926	0.0146077
841.004	0.0145026
841.082	0.0144591
841.160	0.0144556
841.238	0.0144518
841.317	0.0144279
841.395	0.0144598
841.473	0.0145303
841.551	0.0145097
841.629	0.0145094
841.707	0.0144330
841.785	0.0144028
841.863	0.0143614
841.942	0.0145509
842.020	0.0146487
842.098	0.0144099
842.176	0.0144417
842.254	0.0144712
842.332	0.0144374
842.410	0.0145148
842.488	0.0144559
842.567	0.0144971
842.645	0.0143288
842.723	0.0145417
842.801	0.0144530
842.879	0.0145399
842.957	0.0144440
843.035	0.0144206
843.113	0.0145103
843.192	0.0144737
843.270	0.0142617
843.348	0.0142917
843.426	0.0143636
843.504	0.0144120
843.582	0.0144088
843.660	0.0144080
843.738	0.0144458
843.817	0.0145028
843.895	0.0143441
843.973	0.0142834
844.051	0.0145259
844.129	0.0146947
844.207	0.0144733
844.285	0.0145172
844.363	0.0145876
844.442	0.0146261
844.520	0.0144457
844.598	0.0145985
844.676	0.0146348
844.754	0.0145143
844.832	0.0144006
844.910	0.0146986
844.988	0.0145564
845.067	0.0145230
845.145	0.0144521
845.223	0.0145050
845.301	0.0143504
845.379	0.0144893
845.457	0.0145361
845.535	0.0144851
845.613	0.0144611
845.692	0.0143130
845.770	0.0143251
845.848	0.0143417
845.926	0.0143352
846.004	0.0144676
846.082	0.0145160
846.160	0.0144290
846.238	0.0144392
846.317	0.0143848
846.395	0.0142992
846.473	0.0144664
846.551	0.0144738
846.629	0.0145337
846.707	0.0144064
846.785	0.0144043
846.863	0.0143634
846.942	0.0143826
847.020	0.0144101
847.098	0.0144441
847.176	0.0144201
847.254	0.0143236
847.332	0.0144904
847.410	0.0144455
847.488	0.0145361
847.567	0.0144971
847.645	0.0142948
847.723	0.0145209
847.801	0.0144490
847.879	0.0143904
847.957	0.0143557
848.035	0.0143011
848.113	0.0144971
848.192	0.0144738
848.270	0.0144387
848.348	0.0143761
848.426	0.0144372
848.504	0.0145960
848.582	0.0145580
848.660	0.0144947
848.738	0.0144324
848.817	0.0145900
848.895	0.0144854
848.973	0.0144610
849.051	0.0146252
849.129	0.0145048
849.207	0.0144502
849.285	0.0144416
849.363	0.0145514
849.442	0.0144632
849.520	0.0145834
849.598	0.0144699
849.676	0.0145350
849.754	0.0145096
849.832	0.0144732
849.910	0.0145383
849.988	0.0144365
850.067	0.0144522
850.145	0.0145049
850.223	0.0145090
850.301	0.0145201
850.379	0.0143731
850.457	0.0144671
850.535	0.0145577
850.613	0.0145258
850.692	0.0145207
850.770	0.0144836
850.848	0.0144492
850.926	0.0145339
851.004	0.0146088
851.082	0.0144952
851.160	0.0143871
851.238	0.0143778
851.317	0.0144776
851.395	0.0144865
851.473	0.0146017
851.551	0.0146403
851.629	0.0146250
851.707	0.0145901
851.785	0.0145304
851.863	0.0146024
851.942	0.0145793
852.020	0.0146304
852.098	0.0145895
852.176	0.0145162
852.254	0.0145076
852.332	0.0145024
852.410	0.0144056
852.488	0.0144576
852.567	0.0145555
852.645	0.0145987
852.723	0.0144297
852.801	0.0143896
852.879	0.0145539
852.957	0.0144238
853.035	0.0145714
853.113	0.0143376
853.192	0.0143932
853.270	0.0144647
853.348	0.0142970
853.426	0.0142751
853.504	0.0143815
853.582	0.0144093
853.660	0.0143565
853.738	0.0144090
853.817	0.0144514
853.895	0.0144627
853.973	0.0145393
854.051	0.0144209
854.129	0.0144441
854.207	0.0143758
854.285	0.0143904
854.363	0.0144498
854.442	0.0143877
854.520	0.0143217
854.598	0.0144215
854.676	0.0145758
854.754	0.0145254
854.832	0.0144070
854.910	0.0144650
854.988	0.0145238
855.067	0.0144198
855.145	0.0144545
855.223	0.0145610
855.301	0.0145908
855.379	0.0145161
855.457	0.0145647
855.535	0.0144719
855.613	0.0145545
855.692	0.0145232
855.770	0.0146423
855.848	0.0145009
855.926	0.0145260
856.004	0.0146833
856.082	0.0146262
856.160	0.0147100
856.238	0.0146685
856.317	0.0147311
856.395	0.0146139
856.473	0.0145932
856.551	0.0145943
856.629	0.0146773
856.707	0.0147274
856.785	0.0144991
856.863	0.0145894
856.942	0.0146239
857.020	0.0146034
857.098	0.0144535
857.176	0.0144669
857.254	0.0142802
857.332	0.0142944
857.410	0.0143622
857.488	0.0143235
857.567	0.0143195
857.645	0.0143607
857.723	0.0143787
857.801	0.0143719
857.879	0.0144092
857.957	0.0144456
858.035	0.0142064
858.113	0.0142426
858.192	0.0144169
858.270	0.0144216
858.348	0.0142760
858.426	0.0143877
858.504	0.0144191
858.582	0.0143621
858.660	0.0143595
858.738	0.0144413
858.817	0.0144936
858.895	0.0145565
858.973	0.0144717
859.051	0.0144141
859.129	0.0145184
859.207	0.0146032
859.285	0.0145915
859.363	0.0145331
859.442	0.0146127
859.520	0.0146803
859.598	0.0146429
859.676	0.0145023
859.754	0.0146031
859.832	0.0145732
859.910	0.0145864
859.988	0.0146500
860.067	0.0146039
860.145	0.0146160
860.223	0.0147055
860.301	0.0146726
860.379	0.0146143
860.457	0.0145587
860.535	0.0145404
860.613	0.0145414
860.692	0.0146677
860.770	0.0145409
860.848	0.0146025
860.926	0.0146212
861.004	0.0145813
861.082	0.0145307
861.160	0.0146571
861.238	0.0145380
861.317	0.0144989
861.395	0.0145375
861.473	0.0146146
861.551	0.0145171
861.629	0.0145081
861.707	0.0145303
861.785	0.0145296
861.863	0.0143208
861.942	0.0143494
862.020	0.0144525
862.098	0.0144433
862.176	0.0143940
862.254	0.0144422
862.332	0.0145055
862.410	0.0143844
862.488	0.0143074
862.567	0.0143227
862.645	0.0144760
862.723	0.0145882
862.801	0.0145618
862.879	0.0145122
862.957	0.0144326
863.035	0.0144628
863.113	0.0145144
863.192	0.0146329
863.270	0.0144535
863.348	0.0145236
863.426	0.0144456
863.504	0.0144643
863.582	0.0144311
863.660	0.0144627
863.738	0.0144482
863.817	0.0144296
863.895	0.0145161
863.973	0.0145832
864.051	0.0145315
864.129	0.0146030
864.207	0.0143642
864.285	0.0144459
864.363	0.0146634
864.442	0.0144771
864.520	0.0144402
864.598	0.0145654
864.676	0.0143876
864.754	0.0146799
864.832	0.0146404
864.910	0.0145377
864.988	0.0145192
865.067	0.0145099
865.145	0.0145818
865.223	0.0146464
865.301	0.0145796
865.379	0.0146619
865.457	0.0145438
865.535	0.0146756
865.613	0.0145860
865.692	0.0145732
865.770	0.0144936
865.848	0.0145934
865.926	0.0144740
866.004	0.0144945
866.082	0.0145659
866.160	0.0144899
866.238	0.0145604
866.317	0.0144028
866.395	0.0143594
866.473	0.0145016
866.551	0.0145315
866.629	0.0144612
866.707	0.0144150
866.785	0.0144164
866.863	0.0144491
866.942	0.0142742
867.020	0.0142496
867.098	0.0144370
867.176	0.0144251
867.254	0.0144950
867.332	0.0143224
867.410	0.0142587
867.488	0.0143898
867.567	0.0143781
867.645	0.0143921
867.723	0.0143063
867.801	0.0144740
867.879	0.0144773
867.957	0.0144371
868.035	0.0144803
868.113	0.0144462
868.192	0.0144389
868.270	0.0144229
868.348	0.0145074
868.426	0.0143660
868.504	0.0144986
868.582	0.0143974
868.660	0.0144679
868.738	0.0143830
868.817	0.0143745
868.895	0.0145051
868.973	0.0144194
869.051	0.0144164
869.129	0.0144533
869.207	0.0144530
869.285	0.0143961
869.363	0.0144950
869.442	0.0144643
869.520	0.0143398
869.598	0.0144662
869.676	0.0142459
869.754	0.0144592
869.832	0.0146405
869.910	0.0144466
869.988	0.0145325
870.067	0.0145747
870.145	0.0145081
870.223	0.0145129
870.301	0.0146362
870.379	0.0145661
870.457	0.0146141
870.535	0.0145577
870.613	0.0146210
870.692	0.0145462
870.770	0.0144762
870.848	0.0145920
870.926	0.0145380
871.004	0.0145257
871.082	0.0146725
871.160	0.0145296
871.238	0.0144640
871.317	0.0144781
871.395	0.0143950
871.473	0.0143704
871.551	0.0145901
871.629	0.0143930
871.707	0.0141589
871.785	0.0144540
871.863	0.0144571
871.942	0.0143993
872.020	0.0142956
872.098	0.0143301
872.176	0.0143761
872.254	0.0143643
872.332	0.0144279
872.410	0.0144102
872.488	0.0144980
872.567	0.0144609
872.645	0.0144260
872.723	0.0144361
872.801	0.0145170
872.879	0.0144728
872.957	0.0146429
873.035	0.0145883
873.113	0.0145834
873.192	0.0145927
873.270	0.0145693
873.348	0.0145556
873.426	0.0146630
873.504	0.0146830
873.582	0.0146749
873.660	0.0145675
873.738	0.0145404
873.817	0.0145966
873.895	0.0145570
873.973	0.0146790
874.051	0.0145668
874.129	0.0145540
874.207	0.0146005
874.285	0.0145280
874.363	0.0145732
874.442	0.0146343
874.520	0.0146169
874.598	0.0143973
874.676	0.0143843
874.754	0.0145351
874.832	0.0144513
874.910	0.0144647
874.988	0.0145413
875.067	0.0145213
875.145	0.0145293
875.223	0.0145029
875.301	0.0145237
875.379	0.0145325
875.457	0.0145364
875.535	0.0145266
875.613	0.0146267
875.692	0.0145468
875.770	0.0146360
875.848	0.0145286
875.926	0.0145548
876.004	0.0143409
876.082	0.0144495
876.160	0.0145530
876.238	0.0144407
876.317	0.0143941
876.395	0.0144117
876.473	0.0144238
876.551	0.0144219
876.629	0.0145119
876.707	0.0142443
876.785	0.0142974
876.863	0.0144422
876.942	0.0144238
877.020	0.0143627
877.098	0.0143566
877.176	0.0144723
877.254	0.0144569
877.332	0.0145026
877.410	0.0144238
877.488	0.0145037
877.567	0.0145386
877.645	0.0144132
877.723	0.0145424
877.801	0.0144997
877.879	0.0145895
877.957	0.0144601
878.035	0.0143832
878.113	0.0144662
878.192	0.0144850
878.270	0.0147351
878.348	0.0146637
878.426	0.0144142
878.504	0.0144770
878.582	0.0144087
878.660	0.0143349
878.738	0.0143439
878.817	0.0145425
878.895	0.0143886
878.973	0.0144823
879.051	0.0143326
879.129	0.0144884
879.207	0.0143367
879.285	0.0144511
879.363	0.0143250
879.442	0.0144276
879.520	0.0144713
879.598	0.0145004
879.676	0.0144199
879.754	0.0144054
879.832	0.0144324
879.910	0.0145348
879.988	0.0145901
880.067	0.0145171
880.145	0.0145926
880.223	0.0146696
880.301	0.0145309
880.379	0.0144553
880.457	0.0143788
880.535	0.0144504
880.613	0.0145325
880.692	0.0144718
880.770	0.0145502
880.848	0.0144010
880.926	0.0142927
881.004	0.0144724
881.082	0.0145488
881.160	0.0143378
881.238	0.0142846
881.317	0.0143887
881.395	0.0145940
881.473	0.0145252
881.551	0.0144150
881.629	0.0143824
881.707	0.0144069
881.785	0.0145501
881.863	0.0146736
881.942	0.0145768
882.020	0.0145113
882.098	0.0145133
882.176	0.0144718
882.254	0.0144744
882.332	0.0145072
882.410	0.0146387
882.488	0.0144307
882.567	0.0144733
882.645	0.0145770
882.723	0.0146128
882.801	0.0144461
882.879	0.0144858
882.957	0.0144664
883.035	0.0144789
883.113	0.0143793
883.192	0.0143877
883.270	0.0144645
883.348	0.0144344
883.426	0.0144339
883.504	0.0147117
883.582	0.0145415
883.660	0.0144440
883.738	0.0145521
883.817	0.0146408
883.895	0.0145965
883.973	0.0146519
884.051	0.0146373
884.129	0.0146648
884.207	0.0145573
884.285	0.0146094
884.363	0.0145508
884.442	0.0144762
884.520	0.0145109
884.598	0.0144695
884.676	0.0145180
884.754	0.0145106
884.832	0.0143940
884.910	0.0144492
884.988	0.0146034
885.067	0.0144568
885.145	0.0144761
885.223	0.0146815
885.301	0.0146162
885.379	0.0145879
885.457	0.0145201
885.535	0.0143626
885.613	0.0143628
885.692	0.0145478
885.770	0.0144936
885.848	0.0144440
885.926	0.0144193
886.004	0.0144803
886.082	0.0144638
886.160	0.0144128
886.238	0.0143758
886.317	0.0146077
886.395	0.0145444
886.473	0.0145329
886.551	0.0143380
886.629	0.0145522
886.707	0.0145432
886.785	0.0145969
886.863	0.0144799
886.942	0.0146459
887.020	0.0145464
887.098	0.0144067
887.176	0.0143650
887.254	0.0144258
887.332	0.0141627
887.410	0.0142645
887.488	0.0142471
887.567	0.0143951
887.645	0.0143784
887.723	0.0143221
887.801	0.0143696
887.879	0.0144003
887.957	0.0145264
888.035	0.0145307
888.113	0.0146265
888.192	0.0146943
888.270	0.0145786
888.348	0.0145071
888.426	0.0145493
888.504	0.0146766
888.582	0.0147909
888.660	0.0145435
888.738	0.0147140
888.817	0.0148132
888.895	0.0146194
888.973	0.0146810
889.051	0.0146600
889.129	0.0146360
889.207	0.0145167
889.285	0.0144221
889.363	0.0145235
889.442	0.0144919
889.520	0.0144671
889.598	0.0143924
889.676	0.0143983
889.754	0.0143580
889.832	0.0143738
889.910	0.0143626
889.988	0.0144244
890.067	0.0143569
890.145	0.0142673
890.223	0.0143247
890.301	0.0142088
890.379	0.0144076
890.457	0.0145107
890.535	0.0144239
890.613	0.0144296
890.692	0.0143785
890.770	0.0144651
890.848	0.0146114
890.926	0.0145934
891.004	0.0146028
891.082	0.0146270
891.160	0.0145213
891.238	0.0145208
891.317	0.0147060
891.395	0.0147147
891.473	0.0145921
891.551	0.0146193
891.629	0.0145325
891.707	0.0143525
891.785	0.0144100
891.863	0.0145078
891.942	0.0144533
892.020	0.0144214
892.098	0.0143116
892.176	0.0143264
892.254	0.0144118
892.332	0.0143282
892.410	0.0145197
892.488	0.0144019
892.567	0.0141856
892.645	0.0143911
892.723	0.0143768
892.801	0.0143198
892.879	0.0142445
892.957	0.0144135
893.035	0.0145345
893.113	0.0145043
893.192	0.0146371
893.270	0.0145696
893.348	0.0145083
893.426	0.0145202
893.504	0.0144110
893.582	0.0146642
893.660	0.0146938
893.738	0.0145627
893.817	0.0144832
893.895	0.0145560
893.973	0.0147544
894.051	0.0144441
894.129	0.0143531
894.207	0.0145563
894.285	0.0145049
894.363	0.0144358
894.442	0.0144637
894.520	0.0143349
894.598	0.0142745
894.676	0.0143117
894.754	0.0143649
894.832	0.0143846
894.910	0.0145194
894.988	0.0144395
895.067	0.0142291
895.145	0.0144806
895.223	0.0144764
895.301	0.0144553
895.379	0.0144830
895.457	0.0144467
895.535	0.0144408
895.613	0.0144751
895.692	0.0145226
895.770	0.0146439
895.848	0.0144901
895.926	0.0144938
896.004	0.0144382
896.082	0.0144194
896.160	0.0144682
896.238	0.0144868
896.317	0.0144913
896.395	0.0146054
896.473	0.0144379
896.551	0.0143684
896.629	0.0144691
896.707	0.0144913
896.785	0.0144922
896.863	0.0144604
896.942	0.0144086
897.020	0.0145339
897.098	0.0144595
897.176	0.0144181
897.254	0.0144431
897.332	0.0145481
897.410	0.0142719
897.488	0.0144884
897.567	0.0142139
897.645	0.0143999
897.723	0.0144501
897.801	0.0143887
897.879	0.0144750
897.957	0.0145971
898.035	0.0145711
898.113	0.0145378
898.192	0.0144601
898.270	0.0145787
898.348	0.0145343
898.426	0.0145087
898.504	0.0146600
898.582	0.0145487
898.660	0.0144169
898.738	0.0145348
898.817	0.0146429
898.895	0.0144939
898.973	0.0144831
899.051	0.0145942
899.129	0.0144915
899.207	0.0143940
899.285	0.0144470
899.363	0.0144274
899.442	0.0144743
899.520	0.0142059
899.598	0.0143759
899.676	0.0145492
899.754	0.0144585
899.832	0.0144561
899.910	0.0142967
899.988	0.0143208
900.067	0.0144197
900.145	0.0144131
900.223	0.0144006
900.301	0.0143394
900.379	0.0143892
900.457	0.0145136
900.535	0.0145187
900.613	0.0144032
900.692	0.0145172
900.770	0.0144389
900.848	0.0145441
900.926	0.0145231
901.004	0.0144933
901.082	0.0146202
901.160	0.0143428
901.238	0.0144203
901.317	0.0144534
901.395	0.0144303
901.473	0.0144292
901.551	0.0146111
901.629	0.0145562
901.707	0.0144090
901.785	0.0144447
901.863	0.0145109
901.942	0.0146046
902.020	0.0145227
902.098	0.0146075
902.176	0.0144785
902.254	0.0144731
902.332	0.0144482
902.410	0.0143674
902.488	0.0143828
902.567	0.0144542
902.645	0.0143909
902.723	0.0144446
902.801	0.0144189
902.879	0.0142694
902.957	0.0142432
903.035	0.0143509
903.113	0.0143204
903.192	0.0143999
903.270	0.0143649
903.348	0.0144668
903.426	0.0144072
903.504	0.0144173
903.582	0.0144941
903.660	0.0146332
903.738	0.0145192
903.817	0.0146354
903.895	0.0146455
903.973	0.0145895
904.051	0.0145367
904.129	0.0146088
904.207	0.0144370
904.285	0.0146031
904.363	0.0145330
904.442	0.0145647
904.520	0.0145289
904.598	0.0145782
904.676	0.0146124
904.754	0.0144402
904.832	0.0142664
904.910	0.0144471
904.988	0.0143153
905.067	0.0142771
905.145	0.0142627
905.223	0.0141914
905.301	0.0143107
905.379	0.0143787
905.457	0.0143525
905.535	0.0144447
905.613	0.0143760
905.692	0.0143487
905.770	0.0145628
905.848	0.0145413
905.926	0.0143765
906.004	0.0144170
906.082	0.0143979
906.160	0.0146361
906.238	0.0146664
906.317	0.0145506
906.395	0.0144624
906.473	0.0144781
906.551	0.0146288
906.629	0.0146360
906.707	0.0146236
906.785	0.0145314
906.863	0.0143520
906.942	0.0144789
907.020	0.0146207
907.098	0.0143678
907.176	0.0144085
907.254	0.0145564
907.332	0.0145206
907.410	0.0145223
907.488	0.0145268
907.567	0.0145665
907.645	0.0144485
907.723	0.0145159
907.801	0.0144732
907.879	0.0145749
907.957	0.0145277
908.035	0.0144189
908.113	0.0144971
908.192	0.0144759
908.270	0.0146078
908.348	0.0145821
908.426	0.0145505
908.504	0.0145264
908.582	0.0145130
908.660	0.0145303
908.738	0.0144754
908.817	0.0145615
908.895	0.0144425
908.973	0.0145790
909.051	0.0145289
909.129	0.0145963
909.207	0.0145437
909.285	0.0145385
909.363	0.0144897
909.442	0.0145580
909.520	0.0145885
909.598	0.0145567
909.676	0.0146698
909.754	0.0146959
909.832	0.0147247
909.910	0.0146175
909.988	0.0145754
910.067	0.0145606
910.145	0.0145098
910.223	0.0146754
910.301	0.0145367
910.379	0.0145435
910.457	0.0145923
910.535	0.0144930
910.613	0.0146634
910.692	0.0145289
910.770	0.0143553
910.848	0.0144283
910.926	0.0144770
911.004	0.0144779
911.082	0.0144439
911.160	0.0144372
911.238	0.0144586
911.317	0.0144814
911.395	0.0144743
911.473	0.0145827
911.551	0.0143748
911.629	0.0143756
911.707	0.0144969
911.785	0.0146510
911.863	0.0145339
911.942	0.0144465
912.020	0.0145335
912.098	0.0145546
912.176	0.0145734
912.254	0.0145790
912.332	0.0144759
912.410	0.0144129
912.488	0.0145820
912.567	0.0145468
912.645	0.0144946
912.723	0.0145654
912.801	0.0144593
912.879	0.0145298
912.957	0.0144627
913.035	0.0144240
913.113	0.0144129
913.192	0.0144028
913.270	0.0143959
913.348	0.0144528
913.426	0.0143979
913.504	0.0144546
913.582	0.0144064
913.660	0.0142934
913.738	0.0143589
913.817	0.0144553
913.895	0.0142994
913.973	0.0145026
914.051	0.0144025
914.129	0.0143232
914.207	0.0144765
914.285	0.0145361
914.363	0.0143926
914.442	0.0144640
914.520	0.0145230
914.598	0.0145781
914.676	0.0145718
914.754	0.0143938
914.832	0.0144136
914.910	0.0146022
914.988	0.0145204
915.067	0.0142990
915.145	0.0143349
915.223	0.0145094
915.301	0.0144974
915.379	0.0144424
915.457	0.0144879
915.535	0.0143946
915.613	0.0143951
915.692	0.0144159
915.770	0.0144150
915.848	0.0144079
915.926	0.0145358
916.004	0.0144672
916.082	0.0143626
916.160	0.0144634
916.238	0.0144313
916.317	0.0144695
916.395	0.0144032
916.473	0.0146196
916.551	0.0145586
916.629	0.0144536
916.707	0.0146073
916.785	0.0145803
916.863	0.0145943
916.942	0.0145706
917.020	0.0143619
917.098	0.0145545
917.176	0.0145267
917.254	0.0144656
917.332	0.0144323
917.410	0.0144159
917.488	0.0143866
917.567	0.0144604
917.645	0.0145029
917.723	0.0143545
917.801	0.0144685
917.879	0.0143465
917.957	0.0142439
918.035	0.0143983
918.113	0.0144937
918.192	0.0143580
918.270	0.0143595
918.348	0.0145237
918.426	0.0145422
918.504	0.0144061
918.582	0.0143897
918.660	0.0143409
918.738	0.0144045
918.817	0.0144624
918.895	0.0142776
918.973	0.0143634
919.051	0.0144729
919.129	0.0143205
919.207	0.0144192
919.285	0.0145579
919.363	0.0144244
919.442	0.0144093
919.520	0.0143862
919.598	0.0144965
919.676	0.0144657
919.754	0.0145177
919.832	0.0144026
919.910	0.0145115
