05/28/2022	14:38:57	Ver.	4.1	UNKNOWN
Optical Delay	599.988409	Delta X		0.078125	Sweeps	1	Scan Rate	0/0
Coordinates	Axis 1	NaN	Axis 2	NaN	Axis 3	NaN	Axis 4	NaN	Axis 5	NaN	Axis 6	0.000000
TX Power	0.000000	RX Power	0.000000

599.988	0.0150063
600.067	0.0149214
600.145	0.0148753
600.223	0.0149690
600.301	0.0149155
600.379	0.0148316
600.457	0.0148145
600.535	0.0149265
600.613	0.0148723
600.692	0.0149147
600.770	0.0148517
600.848	0.0151063
600.926	0.0149843
601.004	0.0150151
601.082	0.0150703
601.160	0.0149001
601.238	0.0150529
601.317	0.0149646
601.395	0.0150639
601.473	0.0150248
601.551	0.0149805
601.629	0.0151064
601.707	0.0148901
601.785	0.0147382
601.863	0.0151073
601.942	0.0148374
602.020	0.0149693
602.098	0.0149095
602.176	0.0148742
602.254	0.0149361
602.332	0.0149416
602.410	0.0149945
602.488	0.0148698
602.567	0.0147975
602.645	0.0147256
602.723	0.0149848
602.801	0.0147360
602.879	0.0148105
602.957	0.0148189
603.035	0.0148150
603.113	0.0147762
603.192	0.0149413
603.270	0.0148528
603.348	0.0147861
603.426	0.0148222
603.504	0.0148155
603.582	0.0149281
603.660	0.0149463
603.738	0.0149003
603.817	0.0148273
603.895	0.0148451
603.973	0.0148373
604.051	0.0149184
604.129	0.0148457
604.207	0.0148311
604.285	0.0148430
604.363	0.0148615
604.442	0.0148781
604.520	0.0147153
604.598	0.0147643
604.676	0.0148679
604.754	0.0148991
604.832	0.0148935
604.910	0.0148706
604.988	0.0148536
605.067	0.0149206
605.145	0.0149706
605.223	0.0149845
605.301	0.0149251
605.379	0.0149284
605.457	0.0149605
605.535	0.0150335
605.613	0.0150838
605.692	0.0151798
605.770	0.0151925
605.848	0.0150523
605.926	0.0151373
606.004	0.0150044
606.082	0.0152487
606.160	0.0152323
606.238	0.0152559
606.317	0.0151799
606.395	0.0152083
606.473	0.0152133
606.551	0.0152260
606.629	0.0152776
606.707	0.0152254
606.785	0.0153258
606.863	0.0152526
606.942	0.0153739
607.020	0.0153428
607.098	0.0152413
607.176	0.0152631
607.254	0.0153161
607.332	0.0153207
607.410	0.0152217
607.488	0.0152002
607.567	0.0152821
607.645	0.0153031
607.723	0.0154059
607.801	0.0152072
607.879	0.0152316
607.957	0.0151468
608.035	0.0151811
608.113	0.0150502
608.192	0.0151537
608.270	0.0150424
608.348	0.0151463
608.426	0.0151839
608.504	0.0151542
608.582	0.0150830
608.660	0.0149043
608.738	0.0151110
608.817	0.0151424
608.895	0.0150089
608.973	0.0149228
609.051	0.0151102
609.129	0.0149043
609.207	0.0149596
609.285	0.0148829
609.363	0.0148151
609.442	0.0148755
609.520	0.0149658
609.598	0.0148672
609.676	0.0148752
609.754	0.0148716
609.832	0.0149427
609.910	0.0149601
609.988	0.0147575
610.067	0.0148985
610.145	0.0149245
610.223	0.0149539
610.301	0.0147834
610.379	0.0149078
610.457	0.0148441
610.535	0.0147934
610.613	0.0148197
610.692	0.0147967
610.770	0.0148537
610.848	0.0147758
610.926	0.0145609
611.004	0.0147863
611.082	0.0148810
611.160	0.0146228
611.238	0.0146740
611.317	0.0147137
611.395	0.0147119
611.473	0.0147253
611.551	0.0147733
611.629	0.0147827
611.707	0.0149214
611.785	0.0148235
611.863	0.0145817
611.942	0.0148093
612.020	0.0148665
612.098	0.0148784
612.176	0.0148164
612.254	0.0148753
612.332	0.0148490
612.410	0.0148214
612.488	0.0149709
612.567	0.0148295
612.645	0.0149347
612.723	0.0149012
612.801	0.0150414
612.879	0.0149672
612.957	0.0150381
613.035	0.0151966
613.113	0.0150204
613.192	0.0151645
613.270	0.0152226
613.348	0.0152804
613.426	0.0152773
613.504	0.0152287
613.582	0.0151447
613.660	0.0153666
613.738	0.0152400
613.817	0.0151128
613.895	0.0151251
613.973	0.0150748
614.051	0.0152270
614.129	0.0151878
614.207	0.0151280
614.285	0.0151102
614.363	0.0152529
614.442	0.0151474
614.520	0.0150060
614.598	0.0149994
614.676	0.0150608
614.754	0.0149687
614.832	0.0149844
614.910	0.0150289
614.988	0.0150900
615.067	0.0149837
615.145	0.0148818
615.223	0.0150412
615.301	0.0150133
615.379	0.0151301
615.457	0.0150586
615.535	0.0147925
615.613	0.0147935
615.692	0.0149611
615.770	0.0148487
615.848	0.0149684
615.926	0.0148328
616.004	0.0147095
616.082	0.0148362
616.160	0.0149432
616.238	0.0149281
616.317	0.0149116
616.395	0.0148606
616.473	0.0148779
616.551	0.0149929
616.629	0.0150788
616.707	0.0151102
616.785	0.0150368
616.863	0.0151675
616.942	0.0149734
617.020	0.0151543
617.098	0.0152058
617.176	0.0151675
617.254	0.0154060
617.332	0.0151087
617.410	0.0151471
617.488	0.0153076
617.567	0.0152754
617.645	0.0152938
617.723	0.0151333
617.801	0.0151434
617.879	0.0153220
617.957	0.0151938
618.035	0.0150898
618.113	0.0149769
618.192	0.0148768
618.270	0.0150576
618.348	0.0150411
618.426	0.0150995
618.504	0.0148572
618.582	0.0148634
618.660	0.0148663
618.738	0.0150169
618.817	0.0149563
618.895	0.0148891
618.973	0.0148849
619.051	0.0149468
619.129	0.0149148
619.207	0.0147767
619.285	0.0147702
619.363	0.0150259
619.442	0.0150649
619.520	0.0150061
619.598	0.0149026
619.676	0.0149804
619.754	0.0148409
619.832	0.0147676
619.910	0.0148698
619.988	0.0149400
620.067	0.0150032
620.145	0.0150555
620.223	0.0148479
620.301	0.0148875
620.379	0.0148610
620.457	0.0149868
620.535	0.0147929
620.613	0.0148302
620.692	0.0149120
620.770	0.0148251
620.848	0.0148828
620.926	0.0147562
621.004	0.0149643
621.082	0.0147942
621.160	0.0147083
621.238	0.0148232
621.317	0.0147164
621.395	0.0146555
621.473	0.0147814
621.551	0.0147852
621.629	0.0148478
621.707	0.0148312
621.785	0.0147445
621.863	0.0148847
621.942	0.0147822
622.020	0.0149123
622.098	0.0149200
622.176	0.0150590
622.254	0.0150224
622.332	0.0152209
622.410	0.0152184
622.488	0.0152346
622.567	0.0152863
622.645	0.0153540
622.723	0.0154177
622.801	0.0153561
622.879	0.0152885
622.957	0.0152873
623.035	0.0152370
623.113	0.0153346
623.192	0.0154011
623.270	0.0151176
623.348	0.0151466
623.426	0.0150600
623.504	0.0152076
623.582	0.0152157
623.660	0.0151520
623.738	0.0152175
623.817	0.0150731
623.895	0.0151846
623.973	0.0151746
624.051	0.0151328
624.129	0.0151066
624.207	0.0150349
624.285	0.0150214
624.363	0.0150468
624.442	0.0150105
624.520	0.0149803
624.598	0.0150428
624.676	0.0150301
624.754	0.0149376
624.832	0.0148727
624.910	0.0150523
624.988	0.0149194
625.067	0.0150409
625.145	0.0150213
625.223	0.0151273
625.301	0.0150870
625.379	0.0150844
625.457	0.0151270
625.535	0.0151575
625.613	0.0151248
625.692	0.0151046
625.770	0.0151122
625.848	0.0151311
625.926	0.0151358
626.004	0.0152195
626.082	0.0153070
626.160	0.0151640
626.238	0.0151592
626.317	0.0151993
626.395	0.0151917
626.473	0.0150620
626.551	0.0151323
626.629	0.0151118
626.707	0.0149932
626.785	0.0150330
626.863	0.0149970
626.942	0.0149745
627.020	0.0150780
627.098	0.0151123
627.176	0.0149416
627.254	0.0149024
627.332	0.0149620
627.410	0.0150373
627.488	0.0151798
627.567	0.0150787
627.645	0.0150774
627.723	0.0150310
627.801	0.0150792
627.879	0.0152182
627.957	0.0152998
628.035	0.0152126
628.113	0.0150366
628.192	0.0151714
628.270	0.0152013
628.348	0.0150817
628.426	0.0151714
628.504	0.0152278
628.582	0.0149686
628.660	0.0151614
628.738	0.0150771
628.817	0.0150139
628.895	0.0149312
628.973	0.0150143
629.051	0.0150823
629.129	0.0149016
629.207	0.0149160
629.285	0.0147999
629.363	0.0148553
629.442	0.0148198
629.520	0.0146876
629.598	0.0148375
629.676	0.0147219
629.754	0.0148283
629.832	0.0147407
629.910	0.0147231
629.988	0.0146846
630.067	0.0146952
630.145	0.0147948
630.223	0.0149232
630.301	0.0150359
630.379	0.0149966
630.457	0.0150374
630.535	0.0150362
630.613	0.0149971
630.692	0.0150813
630.770	0.0150871
630.848	0.0151193
630.926	0.0150329
631.004	0.0152139
631.082	0.0151740
631.160	0.0151592
631.238	0.0152551
631.317	0.0150063
631.395	0.0150655
631.473	0.0151128
631.551	0.0150473
631.629	0.0149269
631.707	0.0148767
631.785	0.0148976
631.863	0.0149085
631.942	0.0150391
632.020	0.0150008
632.098	0.0148103
632.176	0.0149748
632.254	0.0148980
632.332	0.0148788
632.410	0.0149773
632.488	0.0149879
632.567	0.0149855
632.645	0.0149556
632.723	0.0148830
632.801	0.0149607
632.879	0.0149756
632.957	0.0149899
633.035	0.0151443
633.113	0.0150276
633.192	0.0151198
633.270	0.0150567
633.348	0.0149864
633.426	0.0151030
633.504	0.0152038
633.582	0.0150910
633.660	0.0149809
633.738	0.0150145
633.817	0.0151120
633.895	0.0150273
633.973	0.0149651
634.051	0.0150217
634.129	0.0149950
634.207	0.0149154
634.285	0.0147734
634.363	0.0149294
634.442	0.0149175
634.520	0.0148779
634.598	0.0148596
634.676	0.0148920
634.754	0.0148505
634.832	0.0147610
634.910	0.0149229
634.988	0.0149784
635.067	0.0149353
635.145	0.0148045
635.223	0.0148859
635.301	0.0149043
635.379	0.0148536
635.457	0.0149882
635.535	0.0149465
635.613	0.0149844
635.692	0.0149545
635.770	0.0148546
635.848	0.0150555
635.926	0.0149673
636.004	0.0151049
636.082	0.0149070
636.160	0.0150111
636.238	0.0151247
636.317	0.0149552
636.395	0.0149044
636.473	0.0149133
636.551	0.0150038
636.629	0.0149812
636.707	0.0150543
636.785	0.0149924
636.863	0.0148983
636.942	0.0148603
637.020	0.0149140
637.098	0.0149348
637.176	0.0148804
637.254	0.0149488
637.332	0.0150522
637.410	0.0151041
637.488	0.0151026
637.567	0.0150404
637.645	0.0148501
637.723	0.0149352
637.801	0.0149241
637.879	0.0147806
637.957	0.0148332
638.035	0.0148102
638.113	0.0148498
638.192	0.0147832
638.270	0.0148712
638.348	0.0148231
638.426	0.0147952
638.504	0.0146037
638.582	0.0147553
638.660	0.0146955
638.738	0.0147290
638.817	0.0146651
638.895	0.0148450
638.973	0.0148298
639.051	0.0147618
639.129	0.0146757
639.207	0.0146541
639.285	0.0148792
639.363	0.0148789
639.442	0.0147473
639.520	0.0148971
639.598	0.0148079
639.676	0.0147177
639.754	0.0148313
639.832	0.0148650
639.910	0.0148932
639.988	0.0147327
640.067	0.0148795
640.145	0.0148436
640.223	0.0148051
640.301	0.0147793
640.379	0.0147832
640.457	0.0149333
640.535	0.0148816
640.613	0.0148575
640.692	0.0149262
640.770	0.0148579
640.848	0.0147894
640.926	0.0148132
641.004	0.0148503
641.082	0.0148345
641.160	0.0148722
641.238	0.0147777
641.317	0.0147707
641.395	0.0147800
641.473	0.0148858
641.551	0.0148870
641.629	0.0149120
641.707	0.0148328
641.785	0.0148328
641.863	0.0148353
641.942	0.0150814
642.020	0.0149699
642.098	0.0148978
642.176	0.0151846
642.254	0.0149922
642.332	0.0150030
642.410	0.0150199
642.488	0.0151568
642.567	0.0150480
642.645	0.0150240
642.723	0.0150259
642.801	0.0150073
642.879	0.0150697
642.957	0.0149823
643.035	0.0148753
643.113	0.0149585
643.192	0.0149202
643.270	0.0149675
643.348	0.0150780
643.426	0.0150091
643.504	0.0151727
643.582	0.0150418
643.660	0.0150240
643.738	0.0151302
643.817	0.0151641
643.895	0.0150998
643.973	0.0152145
644.051	0.0152358
644.129	0.0152219
644.207	0.0153115
644.285	0.0153715
644.363	0.0152729
644.442	0.0153121
644.520	0.0154678
644.598	0.0154014
644.676	0.0153326
644.754	0.0153161
644.832	0.0153786
644.910	0.0153091
644.988	0.0154851
645.067	0.0155251
645.145	0.0152812
645.223	0.0154108
645.301	0.0154251
645.379	0.0154252
645.457	0.0153613
645.535	0.0154470
645.613	0.0153031
645.692	0.0153659
645.770	0.0153773
645.848	0.0154150
645.926	0.0155489
646.004	0.0153186
646.082	0.0154812
646.160	0.0153828
646.238	0.0153157
646.317	0.0152718
646.395	0.0152857
646.473	0.0153202
646.551	0.0151698
646.629	0.0152735
646.707	0.0151891
646.785	0.0151020
646.863	0.0150967
646.942	0.0151415
647.020	0.0150330
647.098	0.0150616
647.176	0.0149595
647.254	0.0150290
647.332	0.0150034
647.410	0.0150836
647.488	0.0148106
647.567	0.0150028
647.645	0.0149075
647.723	0.0148153
647.801	0.0147176
647.879	0.0147897
647.957	0.0147910
648.035	0.0147535
648.113	0.0147580
648.192	0.0145834
648.270	0.0146799
648.348	0.0146039
648.426	0.0146017
648.504	0.0145808
648.582	0.0146252
648.660	0.0145236
648.738	0.0146496
648.817	0.0146641
648.895	0.0145467
648.973	0.0146619
649.051	0.0146638
649.129	0.0147375
649.207	0.0146947
649.285	0.0147719
649.363	0.0146694
649.442	0.0146699
649.520	0.0148693
649.598	0.0146229
649.676	0.0146666
649.754	0.0147990
649.832	0.0148026
649.910	0.0149552
649.988	0.0149467
650.067	0.0150170
650.145	0.0149760
650.223	0.0149936
650.301	0.0148583
650.379	0.0149149
650.457	0.0149953
650.535	0.0149333
650.613	0.0150612
650.692	0.0149609
650.770	0.0149332
650.848	0.0149870
650.926	0.0149168
651.004	0.0148277
651.082	0.0147733
651.160	0.0149557
651.238	0.0147887
651.317	0.0148302
651.395	0.0146790
651.473	0.0147234
651.551	0.0147198
651.629	0.0148531
651.707	0.0148652
651.785	0.0148184
651.863	0.0148527
651.942	0.0147965
652.020	0.0150450
652.098	0.0149787
652.176	0.0148668
652.254	0.0149986
652.332	0.0150600
652.410	0.0150328
652.488	0.0150484
652.567	0.0150314
652.645	0.0150019
652.723	0.0150192
652.801	0.0150578
652.879	0.0148283
652.957	0.0149776
653.035	0.0150114
653.113	0.0149879
653.192	0.0149741
653.270	0.0151271
653.348	0.0148650
653.426	0.0148577
653.504	0.0149442
653.582	0.0149798
653.660	0.0150290
653.738	0.0151292
653.817	0.0150928
653.895	0.0150256
653.973	0.0151044
654.051	0.0148918
654.129	0.0149931
654.207	0.0151308
654.285	0.0150624
654.363	0.0151498
654.442	0.0151871
654.520	0.0151122
654.598	0.0150075
654.676	0.0151649
654.754	0.0151253
654.832	0.0150655
654.910	0.0150238
654.988	0.0150830
655.067	0.0149538
655.145	0.0148874
655.223	0.0149233
655.301	0.0147875
655.379	0.0147488
655.457	0.0149492
655.535	0.0147891
655.613	0.0146817
655.692	0.0148367
655.770	0.0149119
655.848	0.0146783
655.926	0.0147784
656.004	0.0148472
656.082	0.0146798
656.160	0.0146869
656.238	0.0146908
656.317	0.0149316
656.395	0.0148868
656.473	0.0147001
656.551	0.0149212
656.629	0.0146978
656.707	0.0149584
656.785	0.0149185
656.863	0.0148918
656.942	0.0149238
657.020	0.0149523
657.098	0.0149271
657.176	0.0147906
657.254	0.0149236
657.332	0.0148896
657.410	0.0148993
657.488	0.0148968
657.567	0.0150633
657.645	0.0147728
657.723	0.0148089
657.801	0.0148609
657.879	0.0148380
657.957	0.0148243
658.035	0.0149532
658.113	0.0148181
658.192	0.0148993
658.270	0.0150849
658.348	0.0149753
658.426	0.0150277
658.504	0.0149122
658.582	0.0146980
658.660	0.0149217
658.738	0.0148370
658.817	0.0149002
658.895	0.0148938
658.973	0.0149831
659.051	0.0148376
659.129	0.0147679
659.207	0.0148058
659.285	0.0148086
659.363	0.0148827
659.442	0.0146761
659.520	0.0147906
659.598	0.0148505
659.676	0.0146898
659.754	0.0147003
659.832	0.0146406
659.910	0.0146220
659.988	0.0147526
660.067	0.0147084
660.145	0.0146889
660.223	0.0146093
660.301	0.0145979
660.379	0.0146192
660.457	0.0145462
660.535	0.0145422
660.613	0.0146619
660.692	0.0146355
660.770	0.0144617
660.848	0.0145899
660.926	0.0147931
661.004	0.0145963
661.082	0.0146497
661.160	0.0146692
661.238	0.0147120
661.317	0.0146703
661.395	0.0148636
661.473	0.0148363
661.551	0.0148490
661.629	0.0148679
661.707	0.0147557
661.785	0.0148392
661.863	0.0147898
661.942	0.0147759
662.020	0.0146658
662.098	0.0148537
662.176	0.0147519
662.254	0.0150412
662.332	0.0148765
662.410	0.0149112
662.488	0.0149204
662.567	0.0148765
662.645	0.0151276
662.723	0.0149606
662.801	0.0151272
662.879	0.0149345
662.957	0.0149073
663.035	0.0150735
663.113	0.0150967
663.192	0.0149352
663.270	0.0149564
663.348	0.0149347
663.426	0.0149440
663.504	0.0149870
663.582	0.0149041
663.660	0.0148865
663.738	0.0147575
663.817	0.0149113
663.895	0.0148750
663.973	0.0149075
664.051	0.0146926
664.129	0.0147634
664.207	0.0149716
664.285	0.0148733
664.363	0.0147702
664.442	0.0148349
664.520	0.0148886
664.598	0.0150127
664.676	0.0149284
664.754	0.0150404
664.832	0.0150249
664.910	0.0149189
664.988	0.0149685
665.067	0.0150483
665.145	0.0151533
665.223	0.0149942
665.301	0.0149792
665.379	0.0149130
665.457	0.0149626
665.535	0.0149400
665.613	0.0149665
665.692	0.0150277
665.770	0.0148892
665.848	0.0148755
665.926	0.0149303
666.004	0.0149833
666.082	0.0149654
666.160	0.0149660
666.238	0.0150774
666.317	0.0151011
666.395	0.0151246
666.473	0.0151847
666.551	0.0150700
666.629	0.0151082
666.707	0.0151997
666.785	0.0150935
666.863	0.0151921
666.942	0.0151091
667.020	0.0151025
667.098	0.0150983
667.176	0.0149214
667.254	0.0151162
667.332	0.0149554
667.410	0.0149142
667.488	0.0148160
667.567	0.0151208
667.645	0.0148428
667.723	0.0148340
667.801	0.0148859
667.879	0.0150092
667.957	0.0150398
668.035	0.0149178
668.113	0.0148815
668.192	0.0149284
668.270	0.0149580
668.348	0.0148482
668.426	0.0148601
668.504	0.0149931
668.582	0.0147242
668.660	0.0148676
668.738	0.0149104
668.817	0.0149239
668.895	0.0148875
668.973	0.0150290
669.051	0.0148600
669.129	0.0149957
669.207	0.0148782
669.285	0.0148709
669.363	0.0148855
669.442	0.0147704
669.520	0.0149253
669.598	0.0148943
669.676	0.0149095
669.754	0.0146999
669.832	0.0148042
669.910	0.0150379
669.988	0.0149380
670.067	0.0149083
670.145	0.0149709
670.223	0.0147807
670.301	0.0149046
670.379	0.0149129
670.457	0.0149654
670.535	0.0148534
670.613	0.0149178
670.692	0.0149520
670.770	0.0148943
670.848	0.0148524
670.926	0.0148460
671.004	0.0149552
671.082	0.0147460
671.160	0.0146962
671.238	0.0147594
671.317	0.0146207
671.395	0.0147954
671.473	0.0149666
671.551	0.0146236
671.629	0.0146082
671.707	0.0145838
671.785	0.0146716
671.863	0.0147036
671.942	0.0148748
672.020	0.0147762
672.098	0.0147839
672.176	0.0148553
672.254	0.0148650
672.332	0.0150105
672.410	0.0148976
672.488	0.0149300
672.567	0.0149583
672.645	0.0149528
672.723	0.0149680
672.801	0.0149857
672.879	0.0148235
672.957	0.0149454
673.035	0.0149249
673.113	0.0149651
673.192	0.0150983
673.270	0.0148417
673.348	0.0149115
673.426	0.0149383
673.504	0.0148067
673.582	0.0148227
673.660	0.0148443
673.738	0.0148859
673.817	0.0149148
673.895	0.0149961
673.973	0.0148984
674.051	0.0150342
674.129	0.0149657
674.207	0.0148834
674.285	0.0151609
674.363	0.0150612
674.442	0.0150576
674.520	0.0151544
674.598	0.0151127
674.676	0.0151665
674.754	0.0152552
674.832	0.0151127
674.910	0.0151443
674.988	0.0152258
675.067	0.0151160
675.145	0.0152898
675.223	0.0151667
675.301	0.0150224
675.379	0.0150827
675.457	0.0149131
675.535	0.0150306
675.613	0.0149796
675.692	0.0149790
675.770	0.0148716
675.848	0.0149165
675.926	0.0147327
676.004	0.0148840
676.082	0.0147979
676.160	0.0148707
676.238	0.0148330
676.317	0.0146959
676.395	0.0148038
676.473	0.0147636
676.551	0.0145383
676.629	0.0146511
676.707	0.0147271
676.785	0.0148425
676.863	0.0149548
676.942	0.0148328
677.020	0.0148785
677.098	0.0147995
677.176	0.0149883
677.254	0.0149282
677.332	0.0150497
677.410	0.0151165
677.488	0.0150647
677.567	0.0151899
677.645	0.0152627
677.723	0.0152960
677.801	0.0153389
677.879	0.0152956
677.957	0.0154430
678.035	0.0153827
678.113	0.0154227
678.192	0.0155741
678.270	0.0154702
678.348	0.0154933
678.426	0.0153636
678.504	0.0153143
678.582	0.0152454
678.660	0.0152866
678.738	0.0152626
678.817	0.0151026
678.895	0.0150948
678.973	0.0150182
679.051	0.0149295
679.129	0.0149989
679.207	0.0149059
679.285	0.0148189
679.363	0.0148322
679.442	0.0147268
679.520	0.0148347
679.598	0.0146912
679.676	0.0146432
679.754	0.0146415
679.832	0.0146378
679.910	0.0146011
679.988	0.0146282
680.067	0.0147281
680.145	0.0147488
680.223	0.0146252
680.301	0.0146853
680.379	0.0147435
680.457	0.0146853
680.535	0.0146967
680.613	0.0147624
680.692	0.0147007
680.770	0.0146884
680.848	0.0147296
680.926	0.0149577
681.004	0.0148420
681.082	0.0147614
681.160	0.0148579
681.238	0.0148892
681.317	0.0149066
681.395	0.0148393
681.473	0.0147154
681.551	0.0149723
681.629	0.0148036
681.707	0.0148438
681.785	0.0151301
681.863	0.0148296
681.942	0.0149026
682.020	0.0149706
682.098	0.0151877
682.176	0.0148727
682.254	0.0150007
682.332	0.0150662
682.410	0.0151023
682.488	0.0150210
682.567	0.0149736
682.645	0.0150523
682.723	0.0149812
682.801	0.0150454
682.879	0.0149724
682.957	0.0149088
683.035	0.0149605
683.113	0.0148907
683.192	0.0147275
683.270	0.0148530
683.348	0.0148582
683.426	0.0147982
683.504	0.0148244
683.582	0.0147553
683.660	0.0146790
683.738	0.0147462
683.817	0.0146996
683.895	0.0145573
683.973	0.0145914
684.051	0.0145519
684.129	0.0144797
684.207	0.0146068
684.285	0.0145587
684.363	0.0145633
684.442	0.0145089
684.520	0.0144901
684.598	0.0144671
684.676	0.0145581
684.754	0.0145098
684.832	0.0147030
684.910	0.0144624
684.988	0.0146651
685.067	0.0148370
685.145	0.0146519
685.223	0.0146935
685.301	0.0148717
685.379	0.0148722
685.457	0.0148466
685.535	0.0150757
685.613	0.0149255
685.692	0.0150095
685.770	0.0150593
685.848	0.0151099
685.926	0.0150336
686.004	0.0150901
686.082	0.0151772
686.160	0.0151665
686.238	0.0152271
686.317	0.0151163
686.395	0.0152138
686.473	0.0153265
686.551	0.0153102
686.629	0.0151792
686.707	0.0151309
686.785	0.0152467
686.863	0.0151329
686.942	0.0152901
687.020	0.0151633
687.098	0.0150445
687.176	0.0151395
687.254	0.0150776
687.332	0.0151569
687.410	0.0151078
687.488	0.0150385
687.567	0.0151929
687.645	0.0152419
687.723	0.0149895
687.801	0.0151218
687.879	0.0149705
687.957	0.0151067
688.035	0.0151611
688.113	0.0151710
688.192	0.0150891
688.270	0.0150122
688.348	0.0150987
688.426	0.0151318
688.504	0.0151823
688.582	0.0152252
688.660	0.0151923
688.738	0.0151828
688.817	0.0151770
688.895	0.0152747
688.973	0.0152950
689.051	0.0152538
689.129	0.0152452
689.207	0.0152574
689.285	0.0153399
689.363	0.0152642
689.442	0.0151761
689.520	0.0152271
689.598	0.0153634
689.676	0.0152779
689.754	0.0152631
689.832	0.0151215
689.910	0.0150222
689.988	0.0151022
690.067	0.0152378
690.145	0.0151946
690.223	0.0150656
690.301	0.0150686
690.379	0.0150634
690.457	0.0151125
690.535	0.0151277
690.613	0.0151547
690.692	0.0150778
690.770	0.0152379
690.848	0.0151157
690.926	0.0151439
691.004	0.0152754
691.082	0.0152953
691.160	0.0151789
691.238	0.0151621
691.317	0.0152606
691.395	0.0151877
691.473	0.0152385
691.551	0.0151595
691.629	0.0151547
691.707	0.0150558
691.785	0.0151063
691.863	0.0149831
691.942	0.0151228
692.020	0.0151122
692.098	0.0150691
692.176	0.0149833
692.254	0.0149772
692.332	0.0149648
692.410	0.0149370
692.488	0.0149247
692.567	0.0148839
692.645	0.0148318
692.723	0.0149721
692.801	0.0148576
692.879	0.0147916
692.957	0.0148178
693.035	0.0149242
693.113	0.0147946
693.192	0.0147444
693.270	0.0147702
693.348	0.0147507
693.426	0.0147002
693.504	0.0147382
693.582	0.0146639
693.660	0.0146613
693.738	0.0147818
693.817	0.0147018
693.895	0.0147182
693.973	0.0148389
694.051	0.0146056
694.129	0.0146133
694.207	0.0146527
694.285	0.0147923
694.363	0.0147044
694.442	0.0147004
694.520	0.0147873
694.598	0.0148476
694.676	0.0149994
694.754	0.0149776
694.832	0.0148199
694.910	0.0148859
694.988	0.0150378
695.067	0.0148521
695.145	0.0149046
695.223	0.0150568
695.301	0.0151691
695.379	0.0151192
695.457	0.0149324
695.535	0.0147775
695.613	0.0149943
695.692	0.0149922
695.770	0.0149066
695.848	0.0149831
695.926	0.0149500
696.004	0.0149505
696.082	0.0149500
696.160	0.0148975
696.238	0.0149384
696.317	0.0149661
696.395	0.0148145
696.473	0.0150105
696.551	0.0149116
696.629	0.0150031
696.707	0.0149197
696.785	0.0150374
696.863	0.0150330
696.942	0.0149248
697.020	0.0148895
697.098	0.0149489
697.176	0.0149328
697.254	0.0149608
697.332	0.0148498
697.410	0.0147141
697.488	0.0148859
697.567	0.0148415
697.645	0.0146866
697.723	0.0147560
697.801	0.0148368
697.879	0.0148137
697.957	0.0147408
698.035	0.0148527
698.113	0.0148598
698.192	0.0149047
698.270	0.0148199
698.348	0.0148980
698.426	0.0150536
698.504	0.0150116
698.582	0.0152157
698.660	0.0151466
698.738	0.0152383
698.817	0.0153260
698.895	0.0153232
698.973	0.0153420
699.051	0.0156622
699.129	0.0155844
699.207	0.0154251
699.285	0.0154964
699.363	0.0156136
699.442	0.0157199
699.520	0.0155096
699.598	0.0155148
699.676	0.0155328
699.754	0.0157029
699.832	0.0156168
699.910	0.0155151
699.988	0.0156224
700.067	0.0154170
700.145	0.0154507
700.223	0.0153853
700.301	0.0154810
700.379	0.0152042
700.457	0.0153001
700.535	0.0153066
700.613	0.0152245
700.692	0.0151907
700.770	0.0151395
700.848	0.0150752
700.926	0.0151159
701.004	0.0151361
701.082	0.0151645
701.160	0.0150372
701.238	0.0149783
701.317	0.0150626
701.395	0.0150985
701.473	0.0151586
701.551	0.0151308
701.629	0.0150547
701.707	0.0152099
701.785	0.0149902
701.863	0.0150501
701.942	0.0152099
702.020	0.0152290
702.098	0.0152187
702.176	0.0149856
702.254	0.0152010
702.332	0.0150129
702.410	0.0151251
702.488	0.0152529
702.567	0.0150510
702.645	0.0150605
702.723	0.0151152
702.801	0.0151476
702.879	0.0150664
702.957	0.0151914
703.035	0.0150449
703.113	0.0151727
703.192	0.0150658
703.270	0.0152235
703.348	0.0150256
703.426	0.0151738
703.504	0.0150814
703.582	0.0150974
703.660	0.0150091
703.738	0.0150514
703.817	0.0152405
703.895	0.0151134
703.973	0.0150518
704.051	0.0150358
704.129	0.0151105
704.207	0.0150189
704.285	0.0149918
704.363	0.0150724
704.442	0.0150576
704.520	0.0152599
704.598	0.0151661
704.676	0.0152392
704.754	0.0151122
704.832	0.0151656
704.910	0.0151546
704.988	0.0152624
705.067	0.0151812
705.145	0.0151944
705.223	0.0150069
705.301	0.0150527
705.379	0.0151553
705.457	0.0150632
705.535	0.0149950
705.613	0.0149942
705.692	0.0150601
705.770	0.0151060
705.848	0.0147752
705.926	0.0148160
706.004	0.0147602
706.082	0.0148364
706.160	0.0148752
706.238	0.0147623
706.317	0.0147282
706.395	0.0146574
706.473	0.0146523
706.551	0.0146890
706.629	0.0145494
706.707	0.0145917
706.785	0.0147363
706.863	0.0146130
706.942	0.0145796
707.020	0.0146191
707.098	0.0146725
707.176	0.0146657
707.254	0.0148024
707.332	0.0146224
707.410	0.0145983
707.488	0.0146536
707.567	0.0146253
707.645	0.0146703
707.723	0.0146930
707.801	0.0146555
707.879	0.0147758
707.957	0.0147272
708.035	0.0147856
708.113	0.0148053
708.192	0.0147800
708.270	0.0148958
708.348	0.0147072
708.426	0.0148123
708.504	0.0149260
708.582	0.0149120
708.660	0.0150497
708.738	0.0150172
708.817	0.0150449
708.895	0.0148855
708.973	0.0150315
709.051	0.0151636
709.129	0.0152100
709.207	0.0151585
709.285	0.0152569
709.363	0.0153902
709.442	0.0154115
709.520	0.0153922
709.598	0.0152969
709.676	0.0153495
709.754	0.0153226
709.832	0.0153156
709.910	0.0153828
709.988	0.0155588
710.067	0.0154636
710.145	0.0154005
710.223	0.0155052
710.301	0.0154227
710.379	0.0154220
710.457	0.0154447
710.535	0.0154176
710.613	0.0153316
710.692	0.0155049
710.770	0.0154198
710.848	0.0154208
710.926	0.0153364
711.004	0.0152936
711.082	0.0154193
711.160	0.0153139
711.238	0.0152009
711.317	0.0151735
711.395	0.0152191
711.473	0.0152578
711.551	0.0151789
711.629	0.0151733
711.707	0.0151369
711.785	0.0150600
711.863	0.0150407
711.942	0.0151781
712.020	0.0151566
712.098	0.0150719
712.176	0.0151043
712.254	0.0150863
712.332	0.0152225
712.410	0.0151635
712.488	0.0151200
712.567	0.0149699
712.645	0.0149765
712.723	0.0148537
712.801	0.0150523
712.879	0.0150463
712.957	0.0149672
713.035	0.0150177
713.113	0.0148385
713.192	0.0148618
713.270	0.0150300
713.348	0.0149918
713.426	0.0148105
713.504	0.0149720
713.582	0.0148706
713.660	0.0149974
713.738	0.0148479
713.817	0.0148940
713.895	0.0149976
713.973	0.0149854
714.051	0.0149293
714.129	0.0149329
714.207	0.0149490
714.285	0.0150008
714.363	0.0150425
714.442	0.0149497
714.520	0.0150309
714.598	0.0149732
714.676	0.0149499
714.754	0.0147942
714.832	0.0151357
714.910	0.0150410
714.988	0.0149243
715.067	0.0150630
715.145	0.0151213
715.223	0.0149046
715.301	0.0149447
715.379	0.0149800
715.457	0.0148765
715.535	0.0149110
715.613	0.0149227
715.692	0.0149508
715.770	0.0149017
715.848	0.0146480
715.926	0.0147415
716.004	0.0146970
716.082	0.0148994
716.160	0.0147946
716.238	0.0146846
716.317	0.0145662
716.395	0.0147050
716.473	0.0145157
716.551	0.0145592
716.629	0.0147861
716.707	0.0146259
716.785	0.0146427
716.863	0.0146401
716.942	0.0146677
717.020	0.0148186
717.098	0.0146602
717.176	0.0146906
717.254	0.0148038
717.332	0.0145995
717.410	0.0146545
717.488	0.0145354
717.567	0.0147718
717.645	0.0148545
717.723	0.0147829
717.801	0.0148686
717.879	0.0148412
717.957	0.0148828
718.035	0.0148464
718.113	0.0148920
718.192	0.0149980
718.270	0.0149223
718.348	0.0148991
718.426	0.0149393
718.504	0.0150690
718.582	0.0148775
718.660	0.0149754
718.738	0.0151262
718.817	0.0151151
718.895	0.0151083
718.973	0.0150841
719.051	0.0150262
719.129	0.0148797
719.207	0.0151354
719.285	0.0150985
719.363	0.0150693
719.442	0.0151015
719.520	0.0149239
719.598	0.0149867
719.676	0.0149492
719.754	0.0149620
719.832	0.0151740
719.910	0.0151041
719.988	0.0151104
720.067	0.0150276
720.145	0.0151080
720.223	0.0151826
720.301	0.0151621
720.379	0.0151460
720.457	0.0151180
720.535	0.0152260
720.613	0.0152184
720.692	0.0152259
720.770	0.0151865
720.848	0.0151146
720.926	0.0150903
721.004	0.0151993
721.082	0.0150777
721.160	0.0150636
721.238	0.0150964
721.317	0.0150080
721.395	0.0150462
721.473	0.0150126
721.551	0.0149256
721.629	0.0150339
721.707	0.0151546
721.785	0.0150108
721.863	0.0150217
721.942	0.0151404
722.020	0.0150755
722.098	0.0150819
722.176	0.0150903
722.254	0.0150632
722.332	0.0151505
722.410	0.0151717
722.488	0.0151608
722.567	0.0152090
722.645	0.0153433
722.723	0.0153012
722.801	0.0154416
722.879	0.0153120
722.957	0.0153066
723.035	0.0153817
723.113	0.0155028
723.192	0.0153899
723.270	0.0153575
723.348	0.0152467
723.426	0.0153519
723.504	0.0153780
723.582	0.0152647
723.660	0.0153201
723.738	0.0151540
723.817	0.0150716
723.895	0.0151500
723.973	0.0151205
724.051	0.0149693
724.129	0.0149393
724.207	0.0149039
724.285	0.0148647
724.363	0.0149416
724.442	0.0149346
724.520	0.0148421
724.598	0.0149584
724.676	0.0149974
724.754	0.0148390
724.832	0.0148086
724.910	0.0148003
724.988	0.0148335
725.067	0.0148530
725.145	0.0148392
725.223	0.0148099
725.301	0.0148436
725.379	0.0146892
725.457	0.0148802
725.535	0.0148824
725.613	0.0147765
725.692	0.0147959
725.770	0.0148751
725.848	0.0149329
725.926	0.0148396
726.004	0.0148181
726.082	0.0148234
726.160	0.0149014
726.238	0.0149036
726.317	0.0149596
726.395	0.0148947
726.473	0.0148467
726.551	0.0147800
726.629	0.0148711
726.707	0.0148740
726.785	0.0148438
726.863	0.0147983
726.942	0.0148058
727.020	0.0146954
727.098	0.0147276
727.176	0.0146896
727.254	0.0148246
727.332	0.0147232
727.410	0.0147172
727.488	0.0146373
727.567	0.0147764
727.645	0.0145868
727.723	0.0146292
727.801	0.0146343
727.879	0.0147566
727.957	0.0146316
728.035	0.0146757
728.113	0.0146209
728.192	0.0147598
728.270	0.0148617
728.348	0.0148004
728.426	0.0147705
728.504	0.0148884
728.582	0.0147745
728.660	0.0145974
728.738	0.0148153
728.817	0.0148292
728.895	0.0149806
728.973	0.0149350
729.051	0.0150674
729.129	0.0149112
729.207	0.0148894
729.285	0.0149445
729.363	0.0150793
729.442	0.0149652
729.520	0.0149977
729.598	0.0149810
729.676	0.0151156
729.754	0.0152197
729.832	0.0151433
729.910	0.0150974
729.988	0.0150626
730.067	0.0151163
730.145	0.0150804
730.223	0.0151604
730.301	0.0151585
730.379	0.0152205
730.457	0.0150709
730.535	0.0153234
730.613	0.0151817
730.692	0.0150847
730.770	0.0151885
730.848	0.0152302
730.926	0.0151218
731.004	0.0152020
731.082	0.0152473
731.160	0.0152106
731.238	0.0153287
731.317	0.0153659
731.395	0.0153292
731.473	0.0152072
731.551	0.0153871
731.629	0.0153316
731.707	0.0151035
731.785	0.0151487
731.863	0.0152905
731.942	0.0152051
732.020	0.0152333
732.098	0.0151797
732.176	0.0152776
732.254	0.0151094
732.332	0.0151512
732.410	0.0152207
732.488	0.0150228
732.567	0.0151577
732.645	0.0150764
732.723	0.0151106
732.801	0.0151064
732.879	0.0150394
732.957	0.0150657
733.035	0.0150240
733.113	0.0152464
733.192	0.0149837
733.270	0.0148610
733.348	0.0149851
733.426	0.0147934
733.504	0.0148547
733.582	0.0150455
733.660	0.0149343
733.738	0.0148463
733.817	0.0148816
733.895	0.0149224
733.973	0.0148392
734.051	0.0148398
734.129	0.0149039
734.207	0.0149750
734.285	0.0148107
734.363	0.0148038
734.442	0.0147993
734.520	0.0147639
734.598	0.0148705
734.676	0.0147640
734.754	0.0149158
734.832	0.0148547
734.910	0.0146941
734.988	0.0148359
735.067	0.0149038
735.145	0.0147746
735.223	0.0146974
735.301	0.0146714
735.379	0.0146101
735.457	0.0147372
735.535	0.0147430
735.613	0.0146145
735.692	0.0148341
735.770	0.0146988
735.848	0.0146158
735.926	0.0147282
736.004	0.0148679
736.082	0.0148643
736.160	0.0147260
736.238	0.0148778
736.317	0.0148273
736.395	0.0148681
736.473	0.0148614
736.551	0.0148640
736.629	0.0148056
736.707	0.0147650
736.785	0.0147359
736.863	0.0146802
736.942	0.0147883
737.020	0.0147710
737.098	0.0147874
737.176	0.0147389
737.254	0.0147902
737.332	0.0147533
737.410	0.0148434
737.488	0.0148928
737.567	0.0147440
737.645	0.0146334
737.723	0.0148024
737.801	0.0147940
737.879	0.0146534
737.957	0.0145689
738.035	0.0146729
738.113	0.0146516
738.192	0.0147560
738.270	0.0146379
738.348	0.0146864
738.426	0.0147372
738.504	0.0147870
738.582	0.0146207
738.660	0.0146539
738.738	0.0147718
738.817	0.0147339
738.895	0.0147192
738.973	0.0148428
739.051	0.0148996
739.129	0.0147590
739.207	0.0148430
739.285	0.0149216
739.363	0.0148913
739.442	0.0148827
739.520	0.0148460
739.598	0.0149388
739.676	0.0148618
739.754	0.0149510
739.832	0.0150671
739.910	0.0150037
739.988	0.0150884
740.067	0.0151563
740.145	0.0151226
740.223	0.0151135
740.301	0.0151283
740.379	0.0150594
740.457	0.0149400
740.535	0.0150489
740.613	0.0151728
740.692	0.0151472
740.770	0.0150568
740.848	0.0151929
740.926	0.0152110
741.004	0.0150256
741.082	0.0149397
741.160	0.0149633
741.238	0.0152291
741.317	0.0150854
741.395	0.0151251
741.473	0.0150782
741.551	0.0151677
741.629	0.0151961
741.707	0.0150890
741.785	0.0151015
741.863	0.0151643
741.942	0.0151598
742.020	0.0151005
742.098	0.0151074
742.176	0.0149699
742.254	0.0150015
742.332	0.0149592
742.410	0.0150249
742.488	0.0149232
742.567	0.0149080
742.645	0.0150035
742.723	0.0149099
742.801	0.0148586
742.879	0.0150032
742.957	0.0148487
743.035	0.0146323
743.113	0.0147704
743.192	0.0148512
743.270	0.0146976
743.348	0.0148450
743.426	0.0148318
743.504	0.0147212
743.582	0.0147772
743.660	0.0147784
743.738	0.0147410
743.817	0.0148798
743.895	0.0147527
743.973	0.0148447
744.051	0.0148334
744.129	0.0149036
744.207	0.0149798
744.285	0.0148951
744.363	0.0149962
744.442	0.0148496
744.520	0.0148382
744.598	0.0150333
744.676	0.0147548
744.754	0.0147874
744.832	0.0149284
744.910	0.0148575
744.988	0.0149141
745.067	0.0149026
745.145	0.0148312
745.223	0.0148117
745.301	0.0149511
745.379	0.0148692
745.457	0.0149113
745.535	0.0148216
745.613	0.0147805
745.692	0.0149289
745.770	0.0148462
745.848	0.0148794
745.926	0.0148994
746.004	0.0147688
746.082	0.0149224
746.160	0.0149058
746.238	0.0148710
746.317	0.0147529
746.395	0.0148180
746.473	0.0148096
746.551	0.0148198
746.629	0.0148808
746.707	0.0147707
746.785	0.0147913
746.863	0.0148756
746.942	0.0149033
747.020	0.0148280
747.098	0.0148593
747.176	0.0148210
747.254	0.0147490
747.332	0.0149219
747.410	0.0149391
747.488	0.0149251
747.567	0.0148167
747.645	0.0148875
747.723	0.0148721
747.801	0.0147801
747.879	0.0147189
747.957	0.0146820
748.035	0.0148404
748.113	0.0147867
748.192	0.0148861
748.270	0.0148366
748.348	0.0148144
748.426	0.0148797
748.504	0.0146700
748.582	0.0147554
748.660	0.0148068
748.738	0.0148708
748.817	0.0146332
748.895	0.0146239
748.973	0.0148477
749.051	0.0148832
749.129	0.0146893
749.207	0.0148632
749.285	0.0147315
749.363	0.0147749
749.442	0.0149015
749.520	0.0149315
749.598	0.0147552
749.676	0.0148090
749.754	0.0149032
749.832	0.0148584
749.910	0.0148529
749.988	0.0149146
750.067	0.0149657
750.145	0.0150034
750.223	0.0148321
750.301	0.0149652
750.379	0.0149426
750.457	0.0147939
750.535	0.0148800
750.613	0.0150117
750.692	0.0149318
750.770	0.0149834
750.848	0.0150046
750.926	0.0149422
751.004	0.0148656
751.082	0.0148681
751.160	0.0148714
751.238	0.0149429
751.317	0.0147803
751.395	0.0148547
751.473	0.0147939
751.551	0.0149403
751.629	0.0149310
751.707	0.0147855
751.785	0.0148611
751.863	0.0148339
751.942	0.0149091
752.020	0.0147709
752.098	0.0148669
752.176	0.0147841
752.254	0.0149619
752.332	0.0150065
752.410	0.0149742
752.488	0.0149770
752.567	0.0149586
752.645	0.0151150
752.723	0.0149715
752.801	0.0151015
752.879	0.0151951
752.957	0.0151280
753.035	0.0150340
753.113	0.0150399
753.192	0.0150118
753.270	0.0151918
753.348	0.0151501
753.426	0.0149043
753.504	0.0149564
753.582	0.0150495
753.660	0.0150336
753.738	0.0149639
753.817	0.0149760
753.895	0.0150117
753.973	0.0150162
754.051	0.0150021
754.129	0.0149716
754.207	0.0151402
754.285	0.0150728
754.363	0.0149896
754.442	0.0151707
754.520	0.0149373
754.598	0.0150629
754.676	0.0150550
754.754	0.0150117
754.832	0.0149283
754.910	0.0151482
754.988	0.0150645
755.067	0.0148431
755.145	0.0149698
755.223	0.0151096
755.301	0.0151306
755.379	0.0150431
755.457	0.0149522
755.535	0.0149523
755.613	0.0148011
755.692	0.0150076
755.770	0.0150237
755.848	0.0151173
755.926	0.0150004
756.004	0.0148082
756.082	0.0150141
756.160	0.0148071
756.238	0.0148839
756.317	0.0148838
756.395	0.0148560
756.473	0.0148116
756.551	0.0149652
756.629	0.0149304
756.707	0.0148293
756.785	0.0148086
756.863	0.0148840
756.942	0.0148185
757.020	0.0148502
757.098	0.0147325
757.176	0.0148055
757.254	0.0148682
757.332	0.0148708
757.410	0.0149406
757.488	0.0146868
757.567	0.0147205
757.645	0.0147815
757.723	0.0148628
757.801	0.0148428
757.879	0.0147945
757.957	0.0148763
758.035	0.0148595
758.113	0.0146915
758.192	0.0147481
758.270	0.0147205
758.348	0.0147153
758.426	0.0146625
758.504	0.0148569
758.582	0.0147322
758.660	0.0148177
758.738	0.0148875
758.817	0.0147595
758.895	0.0150013
758.973	0.0148944
759.051	0.0148096
759.129	0.0148401
759.207	0.0149606
759.285	0.0148287
759.363	0.0148121
759.442	0.0149535
759.520	0.0148921
759.598	0.0150004
759.676	0.0150120
759.754	0.0149259
759.832	0.0149481
759.910	0.0149485
759.988	0.0148840
760.067	0.0149966
760.145	0.0150646
760.223	0.0150777
760.301	0.0150890
760.379	0.0148688
760.457	0.0149636
760.535	0.0150387
760.613	0.0150349
760.692	0.0149939
760.770	0.0151411
760.848	0.0151830
760.926	0.0149673
761.004	0.0149963
761.082	0.0150616
761.160	0.0151957
761.238	0.0150029
761.317	0.0149742
761.395	0.0150534
761.473	0.0149110
761.551	0.0150797
761.629	0.0151271
761.707	0.0150568
761.785	0.0149665
761.863	0.0152695
761.942	0.0151559
762.020	0.0149820
762.098	0.0150056
762.176	0.0150475
762.254	0.0150663
762.332	0.0150568
762.410	0.0150484
762.488	0.0151232
762.567	0.0150333
762.645	0.0150635
762.723	0.0150007
762.801	0.0150738
762.879	0.0151006
762.957	0.0150537
763.035	0.0151512
763.113	0.0151465
763.192	0.0150359
763.270	0.0150682
763.348	0.0152841
763.426	0.0151772
763.504	0.0151363
763.582	0.0151545
763.660	0.0150267
763.738	0.0151984
763.817	0.0151525
763.895	0.0151623
763.973	0.0150105
764.051	0.0151327
764.129	0.0151687
764.207	0.0151134
764.285	0.0152346
764.363	0.0152750
764.442	0.0150955
764.520	0.0150324
764.598	0.0152048
764.676	0.0151328
764.754	0.0150949
764.832	0.0151569
764.910	0.0150823
764.988	0.0151658
765.067	0.0150816
765.145	0.0151807
765.223	0.0151590
765.301	0.0151204
765.379	0.0150796
765.457	0.0151200
765.535	0.0151026
765.613	0.0151266
765.692	0.0152179
765.770	0.0150992
765.848	0.0151273
765.926	0.0151342
766.004	0.0150976
766.082	0.0150623
766.160	0.0150452
766.238	0.0151337
766.317	0.0148856
766.395	0.0149584
766.473	0.0150607
766.551	0.0148473
766.629	0.0149149
766.707	0.0150269
766.785	0.0149870
766.863	0.0148112
766.942	0.0148448
767.020	0.0148345
767.098	0.0148090
767.176	0.0147850
767.254	0.0149158
767.332	0.0150034
767.410	0.0149841
767.488	0.0148756
767.567	0.0148799
767.645	0.0150072
767.723	0.0149260
767.801	0.0150610
767.879	0.0150716
767.957	0.0150018
768.035	0.0148849
768.113	0.0149250
768.192	0.0149231
768.270	0.0150378
768.348	0.0149516
768.426	0.0149265
768.504	0.0149525
768.582	0.0151836
768.660	0.0150430
768.738	0.0150105
768.817	0.0150932
768.895	0.0149069
768.973	0.0149659
769.051	0.0150471
769.129	0.0151325
769.207	0.0148521
769.285	0.0150617
769.363	0.0151035
769.442	0.0149709
769.520	0.0150274
769.598	0.0149436
769.676	0.0150727
769.754	0.0150321
769.832	0.0150003
769.910	0.0148494
769.988	0.0149018
770.067	0.0150127
770.145	0.0149154
770.223	0.0148006
770.301	0.0148410
770.379	0.0150588
770.457	0.0149227
770.535	0.0149718
770.613	0.0149557
770.692	0.0150320
770.770	0.0149265
770.848	0.0148902
770.926	0.0148641
771.004	0.0148882
771.082	0.0149268
771.160	0.0147828
771.238	0.0149079
771.317	0.0148872
771.395	0.0148136
771.473	0.0148122
771.551	0.0149058
771.629	0.0147838
771.707	0.0148769
771.785	0.0148209
771.863	0.0148211
771.942	0.0148621
772.020	0.0148177
772.098	0.0147764
772.176	0.0146255
772.254	0.0146914
772.332	0.0147468
772.410	0.0149283
772.488	0.0148080
772.567	0.0149185
772.645	0.0148262
772.723	0.0148508
772.801	0.0148109
772.879	0.0148019
772.957	0.0148843
773.035	0.0149112
773.113	0.0148717
773.192	0.0149352
773.270	0.0148903
773.348	0.0149857
773.426	0.0149268
773.504	0.0151401
773.582	0.0150985
773.660	0.0150614
773.738	0.0150266
773.817	0.0150698
773.895	0.0150228
773.973	0.0150275
774.051	0.0151064
774.129	0.0150227
774.207	0.0150253
774.285	0.0151147
774.363	0.0149963
774.442	0.0150543
774.520	0.0149435
774.598	0.0151202
774.676	0.0150462
774.754	0.0149252
774.832	0.0152303
774.910	0.0151138
774.988	0.0151425
775.067	0.0150082
775.145	0.0152335
775.223	0.0151614
775.301	0.0152122
775.379	0.0150992
775.457	0.0150941
775.535	0.0151989
775.613	0.0152361
775.692	0.0151476
775.770	0.0151444
775.848	0.0152130
775.926	0.0152672
776.004	0.0151484
776.082	0.0151283
776.160	0.0151940
776.238	0.0152594
776.317	0.0153793
776.395	0.0152235
776.473	0.0151725
776.551	0.0151209
776.629	0.0152970
776.707	0.0152234
776.785	0.0150906
776.863	0.0152216
776.942	0.0150909
777.020	0.0151222
777.098	0.0151311
777.176	0.0151071
777.254	0.0150735
777.332	0.0151535
777.410	0.0150333
777.488	0.0149276
777.567	0.0151599
777.645	0.0149693
777.723	0.0150815
777.801	0.0150230
777.879	0.0147670
777.957	0.0148397
778.035	0.0148293
778.113	0.0148248
778.192	0.0148900
778.270	0.0148702
778.348	0.0148382
778.426	0.0149402
778.504	0.0148057
778.582	0.0147908
778.660	0.0149248
778.738	0.0147619
778.817	0.0147980
778.895	0.0149421
778.973	0.0148228
779.051	0.0148537
779.129	0.0149695
779.207	0.0149527
779.285	0.0148727
779.363	0.0146913
779.442	0.0149177
779.520	0.0148087
779.598	0.0149081
779.676	0.0148589
779.754	0.0148041
779.832	0.0147915
779.910	0.0148133
779.988	0.0147085
780.067	0.0147602
780.145	0.0148058
780.223	0.0147720
780.301	0.0147706
780.379	0.0149051
780.457	0.0148203
780.535	0.0147942
780.613	0.0148388
780.692	0.0147968
780.770	0.0148111
780.848	0.0148720
780.926	0.0149151
781.004	0.0149255
781.082	0.0148096
781.160	0.0148567
781.238	0.0149359
781.317	0.0149985
781.395	0.0148623
781.473	0.0149342
781.551	0.0150098
781.629	0.0148803
781.707	0.0149644
781.785	0.0149461
781.863	0.0148374
781.942	0.0149744
782.020	0.0149276
782.098	0.0149820
782.176	0.0148859
782.254	0.0148357
782.332	0.0149056
782.410	0.0148996
782.488	0.0149918
782.567	0.0148598
782.645	0.0149848
782.723	0.0150665
782.801	0.0148404
782.879	0.0149882
782.957	0.0150084
783.035	0.0151083
783.113	0.0149561
783.192	0.0149833
783.270	0.0150241
783.348	0.0150321
783.426	0.0150961
783.504	0.0149808
783.582	0.0149490
783.660	0.0149887
783.738	0.0150249
783.817	0.0149219
783.895	0.0151024
783.973	0.0149091
784.051	0.0150324
784.129	0.0149602
784.207	0.0150220
784.285	0.0149996
784.363	0.0149692
784.442	0.0149165
784.520	0.0149242
784.598	0.0149040
784.676	0.0148423
784.754	0.0148163
784.832	0.0149252
784.910	0.0149167
784.988	0.0150406
785.067	0.0149915
785.145	0.0148064
785.223	0.0149353
785.301	0.0149535
785.379	0.0150339
785.457	0.0151517
785.535	0.0149217
785.613	0.0150439
785.692	0.0150047
785.770	0.0149244
785.848	0.0152073
785.926	0.0151076
786.004	0.0151892
786.082	0.0152032
786.160	0.0151192
786.238	0.0152583
786.317	0.0152136
786.395	0.0151470
786.473	0.0152996
786.551	0.0151560
786.629	0.0150968
786.707	0.0152935
786.785	0.0152515
786.863	0.0151717
786.942	0.0151859
787.020	0.0151093
787.098	0.0151293
787.176	0.0151472
787.254	0.0153716
787.332	0.0153586
787.410	0.0152206
787.488	0.0152126
787.567	0.0152391
787.645	0.0152074
787.723	0.0152034
787.801	0.0152898
787.879	0.0151496
787.957	0.0151694
788.035	0.0152602
788.113	0.0151380
788.192	0.0152489
788.270	0.0151528
788.348	0.0151395
788.426	0.0151680
788.504	0.0151598
788.582	0.0150013
788.660	0.0151447
788.738	0.0152269
788.817	0.0150951
788.895	0.0151081
788.973	0.0151193
789.051	0.0150890
789.129	0.0151622
789.207	0.0151394
789.285	0.0151000
789.363	0.0150984
789.442	0.0150594
789.520	0.0151821
789.598	0.0152254
789.676	0.0150821
789.754	0.0150954
789.832	0.0149860
789.910	0.0150400
789.988	0.0151099
790.067	0.0150361
790.145	0.0151096
790.223	0.0150916
790.301	0.0150763
790.379	0.0150665
790.457	0.0150481
790.535	0.0148948
790.613	0.0150310
790.692	0.0149877
790.770	0.0148994
790.848	0.0149924
790.926	0.0149216
791.004	0.0148852
791.082	0.0149547
791.160	0.0148679
791.238	0.0148069
791.317	0.0148477
791.395	0.0146889
791.473	0.0148525
791.551	0.0147287
791.629	0.0146933
791.707	0.0147450
791.785	0.0148175
791.863	0.0148495
791.942	0.0146864
792.020	0.0147335
792.098	0.0146763
792.176	0.0147332
792.254	0.0147968
792.332	0.0146438
792.410	0.0146086
792.488	0.0146597
792.567	0.0145367
792.645	0.0145319
792.723	0.0146037
792.801	0.0146304
792.879	0.0147473
792.957	0.0145812
793.035	0.0146627
793.113	0.0145474
793.192	0.0145503
793.270	0.0146314
793.348	0.0146624
793.426	0.0147009
793.504	0.0147046
793.582	0.0145792
793.660	0.0146199
793.738	0.0146589
793.817	0.0147239
793.895	0.0146169
793.973	0.0147383
794.051	0.0147784
794.129	0.0147767
794.207	0.0147426
794.285	0.0147475
794.363	0.0147109
794.442	0.0149660
794.520	0.0148425
794.598	0.0149036
794.676	0.0148867
794.754	0.0148440
794.832	0.0150129
794.910	0.0149788
794.988	0.0148438
795.067	0.0148828
795.145	0.0150574
795.223	0.0150643
795.301	0.0149525
795.379	0.0149190
795.457	0.0149780
795.535	0.0149158
795.613	0.0149399
795.692	0.0151533
795.770	0.0150465
795.848	0.0150554
795.926	0.0151665
796.004	0.0150282
796.082	0.0150298
796.160	0.0150214
796.238	0.0152040
796.317	0.0151128
796.395	0.0150473
796.473	0.0151597
796.551	0.0152025
796.629	0.0151638
796.707	0.0150553
796.785	0.0151608
796.863	0.0152047
796.942	0.0151443
797.020	0.0151087
797.098	0.0151605
797.176	0.0151487
797.254	0.0150402
797.332	0.0150664
797.410	0.0151537
797.488	0.0149271
797.567	0.0151566
797.645	0.0151308
797.723	0.0150543
797.801	0.0149986
797.879	0.0151958
797.957	0.0151987
798.035	0.0150243
798.113	0.0150092
798.192	0.0151073
798.270	0.0151174
798.348	0.0149763
798.426	0.0148547
798.504	0.0149105
798.582	0.0150742
798.660	0.0151311
798.738	0.0150410
798.817	0.0150432
798.895	0.0149366
798.973	0.0151087
799.051	0.0149335
799.129	0.0148768
799.207	0.0149376
799.285	0.0151837
799.363	0.0149847
799.442	0.0149517
799.520	0.0149252
799.598	0.0149159
799.676	0.0148030
799.754	0.0148701
799.832	0.0148503
799.910	0.0148516
799.988	0.0148350
800.067	0.0148544
800.145	0.0149746
800.223	0.0149236
800.301	0.0147754
800.379	0.0149082
800.457	0.0149300
800.535	0.0147082
800.613	0.0147513
800.692	0.0147878
800.770	0.0149017
800.848	0.0148692
800.926	0.0148014
801.004	0.0146188
801.082	0.0147699
801.160	0.0149516
801.238	0.0150376
801.317	0.0148569
801.395	0.0148835
801.473	0.0148954
801.551	0.0150095
801.629	0.0149841
801.707	0.0149928
801.785	0.0150683
801.863	0.0151003
801.942	0.0151108
802.020	0.0150697
802.098	0.0150326
802.176	0.0150587
802.254	0.0150697
802.332	0.0150039
802.410	0.0151254
802.488	0.0151998
802.567	0.0149113
802.645	0.0150676
802.723	0.0151091
802.801	0.0152058
802.879	0.0149825
802.957	0.0150994
803.035	0.0151194
803.113	0.0150579
803.192	0.0151998
803.270	0.0152252
803.348	0.0151067
803.426	0.0149054
803.504	0.0149297
803.582	0.0151447
803.660	0.0150464
803.738	0.0150725
803.817	0.0150109
803.895	0.0151560
803.973	0.0151176
804.051	0.0150580
804.129	0.0150381
804.207	0.0151066
804.285	0.0150894
804.363	0.0150245
804.442	0.0151608
804.520	0.0152253
804.598	0.0151157
804.676	0.0152772
804.754	0.0152245
804.832	0.0151410
804.910	0.0151775
804.988	0.0151301
805.067	0.0151423
805.145	0.0149006
805.223	0.0152116
805.301	0.0152061
805.379	0.0150515
805.457	0.0150790
805.535	0.0150443
805.613	0.0148266
805.692	0.0148992
805.770	0.0149646
805.848	0.0148717
805.926	0.0147582
806.004	0.0148074
806.082	0.0147655
806.160	0.0147124
806.238	0.0147504
806.317	0.0147725
806.395	0.0145731
806.473	0.0145967
806.551	0.0145593
806.629	0.0146245
806.707	0.0146339
806.785	0.0145702
806.863	0.0146332
806.942	0.0147128
807.020	0.0147056
807.098	0.0146542
807.176	0.0147063
807.254	0.0148237
807.332	0.0146268
807.410	0.0146688
807.488	0.0147192
807.567	0.0148112
807.645	0.0148245
807.723	0.0148379
807.801	0.0149609
807.879	0.0148814
807.957	0.0150363
808.035	0.0149503
808.113	0.0150330
808.192	0.0149701
808.270	0.0150105
808.348	0.0149855
808.426	0.0150372
808.504	0.0151530
808.582	0.0150168
808.660	0.0151120
808.738	0.0149541
808.817	0.0150362
808.895	0.0150050
808.973	0.0151230
809.051	0.0150797
809.129	0.0149847
809.207	0.0149953
809.285	0.0147794
809.363	0.0149191
809.442	0.0149821
809.520	0.0149586
809.598	0.0150004
809.676	0.0149340
809.754	0.0148352
809.832	0.0149120
809.910	0.0148225
809.988	0.0149142
810.067	0.0149677
810.145	0.0149368
810.223	0.0150051
810.301	0.0149104
810.379	0.0150142
810.457	0.0150504
810.535	0.0149757
810.613	0.0149692
810.692	0.0150438
810.770	0.0149387
810.848	0.0150481
810.926	0.0149591
811.004	0.0149710
811.082	0.0151223
811.160	0.0150327
811.238	0.0150945
811.317	0.0149373
811.395	0.0149999
811.473	0.0151464
811.551	0.0151350
811.629	0.0149533
811.707	0.0150755
811.785	0.0150840
811.863	0.0151325
811.942	0.0150156
812.020	0.0149442
812.098	0.0150540
812.176	0.0151315
812.254	0.0149534
812.332	0.0150298
812.410	0.0150777
812.488	0.0149712
812.567	0.0150030
812.645	0.0147820
812.723	0.0149706
812.801	0.0148959
812.879	0.0149184
812.957	0.0149250
813.035	0.0149300
813.113	0.0149980
813.192	0.0150005
813.270	0.0149865
813.348	0.0151175
813.426	0.0149850
813.504	0.0149144
813.582	0.0151304
813.660	0.0150675
813.738	0.0148392
813.817	0.0149056
813.895	0.0150578
813.973	0.0150134
814.051	0.0147898
814.129	0.0148557
814.207	0.0149393
814.285	0.0149347
814.363	0.0148990
814.442	0.0148467
814.520	0.0148724
814.598	0.0149084
814.676	0.0148784
814.754	0.0147881
814.832	0.0146789
814.910	0.0147960
814.988	0.0146943
815.067	0.0147952
815.145	0.0148248
815.223	0.0147988
815.301	0.0148068
815.379	0.0148016
815.457	0.0148494
815.535	0.0146735
815.613	0.0147823
815.692	0.0151158
815.770	0.0147421
815.848	0.0148504
815.926	0.0149760
816.004	0.0149104
816.082	0.0150909
816.160	0.0149422
816.238	0.0149161
816.317	0.0149397
816.395	0.0150591
816.473	0.0151263
816.551	0.0149122
816.629	0.0149683
816.707	0.0150113
816.785	0.0150151
816.863	0.0149641
816.942	0.0149374
817.020	0.0148995
817.098	0.0150427
817.176	0.0149722
817.254	0.0148080
817.332	0.0148117
817.410	0.0148338
817.488	0.0149866
817.567	0.0148916
817.645	0.0147959
817.723	0.0148547
817.801	0.0148814
817.879	0.0149395
817.957	0.0148393
818.035	0.0148765
818.113	0.0150479
818.192	0.0149406
818.270	0.0149125
818.348	0.0149718
818.426	0.0149367
818.504	0.0148912
818.582	0.0149114
818.660	0.0148875
818.738	0.0148734
818.817	0.0148819
818.895	0.0148111
818.973	0.0149764
819.051	0.0149249
819.129	0.0148933
819.207	0.0147441
819.285	0.0148767
819.363	0.0147274
819.442	0.0148324
819.520	0.0147077
819.598	0.0148061
819.676	0.0147507
819.754	0.0145763
819.832	0.0146432
819.910	0.0146197
819.988	0.0148040
820.067	0.0146450
820.145	0.0145625
820.223	0.0146794
820.301	0.0147482
820.379	0.0146468
820.457	0.0148180
820.535	0.0146455
820.613	0.0146407
820.692	0.0147763
820.770	0.0145493
820.848	0.0145833
820.926	0.0147316
821.004	0.0147319
821.082	0.0146842
821.160	0.0148325
821.238	0.0148840
821.317	0.0147841
821.395	0.0149365
821.473	0.0148356
821.551	0.0148759
821.629	0.0147469
821.707	0.0149049
821.785	0.0148761
821.863	0.0149512
821.942	0.0150329
822.020	0.0148437
822.098	0.0150849
822.176	0.0148987
822.254	0.0148642
822.332	0.0149226
822.410	0.0150643
822.488	0.0149435
822.567	0.0150531
822.645	0.0149558
822.723	0.0150174
822.801	0.0149984
822.879	0.0150903
822.957	0.0148885
823.035	0.0150260
823.113	0.0150148
823.192	0.0149193
823.270	0.0150920
823.348	0.0150894
823.426	0.0148555
823.504	0.0150468
823.582	0.0150211
823.660	0.0150188
823.738	0.0150591
823.817	0.0151774
823.895	0.0151170
823.973	0.0150513
824.051	0.0152557
824.129	0.0151865
824.207	0.0150005
824.285	0.0152106
824.363	0.0151813
824.442	0.0152579
824.520	0.0151900
824.598	0.0151344
824.676	0.0151760
824.754	0.0151951
824.832	0.0150574
824.910	0.0152292
824.988	0.0151303
825.067	0.0151288
825.145	0.0150970
825.223	0.0149992
825.301	0.0150780
825.379	0.0151543
825.457	0.0150047
825.535	0.0149680
825.613	0.0149537
825.692	0.0150237
825.770	0.0149921
825.848	0.0148392
825.926	0.0149665
826.004	0.0149523
826.082	0.0150910
826.160	0.0149438
826.238	0.0149630
826.317	0.0149130
826.395	0.0149833
826.473	0.0149754
826.551	0.0149542
826.629	0.0150431
826.707	0.0150149
826.785	0.0150591
826.863	0.0150153
826.942	0.0148553
827.020	0.0149953
827.098	0.0149867
827.176	0.0151234
827.254	0.0150261
827.332	0.0149303
827.410	0.0149427
827.488	0.0150030
827.567	0.0149578
827.645	0.0149008
827.723	0.0149010
827.801	0.0148753
827.879	0.0150500
827.957	0.0149939
828.035	0.0148482
828.113	0.0148460
828.192	0.0147679
828.270	0.0148172
828.348	0.0147704
828.426	0.0149574
828.504	0.0149303
828.582	0.0149683
828.660	0.0149470
828.738	0.0148879
828.817	0.0148558
828.895	0.0150245
828.973	0.0147950
829.051	0.0149154
829.129	0.0148922
829.207	0.0148950
829.285	0.0149750
829.363	0.0149801
829.442	0.0149236
829.520	0.0149892
829.598	0.0148947
829.676	0.0149090
829.754	0.0149946
829.832	0.0150311
829.910	0.0149372
829.988	0.0149714
830.067	0.0149878
830.145	0.0147963
830.223	0.0148773
830.301	0.0148727
830.379	0.0149723
830.457	0.0148879
830.535	0.0149422
830.613	0.0149192
830.692	0.0148620
830.770	0.0149221
830.848	0.0149403
830.926	0.0148564
831.004	0.0149022
831.082	0.0149186
831.160	0.0148297
831.238	0.0148181
831.317	0.0150237
831.395	0.0148954
831.473	0.0149245
831.551	0.0149905
831.629	0.0149190
831.707	0.0149191
831.785	0.0148421
831.863	0.0149477
831.942	0.0148966
832.020	0.0150784
832.098	0.0149792
832.176	0.0150367
832.254	0.0150830
832.332	0.0148627
832.410	0.0149313
832.488	0.0148331
832.567	0.0148843
832.645	0.0149493
832.723	0.0148950
832.801	0.0150857
832.879	0.0149524
832.957	0.0149608
833.035	0.0150530
833.113	0.0150544
833.192	0.0148744
833.270	0.0149586
833.348	0.0148805
833.426	0.0150076
833.504	0.0150488
833.582	0.0148834
833.660	0.0148779
833.738	0.0149669
833.817	0.0151624
833.895	0.0150803
833.973	0.0148550
834.051	0.0151154
834.129	0.0151717
834.207	0.0150704
834.285	0.0151853
834.363	0.0150591
834.442	0.0152476
834.520	0.0153159
834.598	0.0151089
834.676	0.0151276
834.754	0.0152196
834.832	0.0151295
834.910	0.0151999
834.988	0.0152479
835.067	0.0152769
835.145	0.0152180
835.223	0.0152324
835.301	0.0151803
835.379	0.0152881
835.457	0.0153677
835.535	0.0152537
835.613	0.0152959
835.692	0.0153748
835.770	0.0153613
835.848	0.0153043
835.926	0.0151688
836.004	0.0152847
836.082	0.0151748
836.160	0.0153086
836.238	0.0152880
836.317	0.0152911
836.395	0.0152443
836.473	0.0151112
836.551	0.0151793
836.629	0.0151683
836.707	0.0151743
836.785	0.0150822
836.863	0.0151915
836.942	0.0149353
837.020	0.0149388
837.098	0.0150470
837.176	0.0149488
837.254	0.0149548
837.332	0.0149441
837.410	0.0148714
837.488	0.0150020
837.567	0.0148162
837.645	0.0147813
837.723	0.0148956
837.801	0.0148563
837.879	0.0149413
837.957	0.0147890
838.035	0.0147424
838.113	0.0148166
838.192	0.0148344
838.270	0.0148287
838.348	0.0148092
838.426	0.0148302
838.504	0.0147865
838.582	0.0149207
838.660	0.0147831
838.738	0.0148923
838.817	0.0148920
838.895	0.0148099
838.973	0.0149114
839.051	0.0148829
839.129	0.0147578
839.207	0.0146982
839.285	0.0148181
839.363	0.0148140
839.442	0.0147328
839.520	0.0148471
839.598	0.0148367
839.676	0.0147221
839.754	0.0148103
839.832	0.0148185
839.910	0.0147103
839.988	0.0147319
840.067	0.0147912
840.145	0.0147565
840.223	0.0148345
840.301	0.0147311
840.379	0.0147798
840.457	0.0147429
840.535	0.0147545
840.613	0.0146430
840.692	0.0147659
840.770	0.0148840
840.848	0.0146953
840.926	0.0147655
841.004	0.0148025
841.082	0.0146786
841.160	0.0147275
841.238	0.0149309
841.317	0.0149776
841.395	0.0147933
841.473	0.0147884
841.551	0.0149646
841.629	0.0149049
841.707	0.0148746
841.785	0.0148686
841.863	0.0149506
841.942	0.0149275
842.020	0.0150250
842.098	0.0149044
842.176	0.0149594
842.254	0.0150730
842.332	0.0148864
842.410	0.0149505
842.488	0.0149172
842.567	0.0149465
842.645	0.0148833
842.723	0.0149657
842.801	0.0149838
842.879	0.0150089
842.957	0.0151087
843.035	0.0150652
843.113	0.0150124
843.192	0.0151030
843.270	0.0151254
843.348	0.0151543
843.426	0.0151673
843.504	0.0150951
843.582	0.0150289
843.660	0.0152673
843.738	0.0151263
843.817	0.0152250
843.895	0.0151571
843.973	0.0152917
844.051	0.0153301
844.129	0.0152467
844.207	0.0151339
844.285	0.0152061
844.363	0.0153273
844.442	0.0152168
844.520	0.0151056
844.598	0.0151965
844.676	0.0152051
844.754	0.0151262
844.832	0.0152573
844.910	0.0152038
844.988	0.0152835
845.067	0.0152786
845.145	0.0153115
845.223	0.0152211
845.301	0.0152416
845.379	0.0153027
845.457	0.0150986
845.535	0.0153757
845.613	0.0154199
845.692	0.0151729
845.770	0.0152232
845.848	0.0153265
845.926	0.0152885
846.004	0.0154023
846.082	0.0152949
846.160	0.0152081
846.238	0.0153752
846.317	0.0152917
846.395	0.0152788
846.473	0.0151963
846.551	0.0151639
846.629	0.0152948
846.707	0.0153207
846.785	0.0152826
846.863	0.0151467
846.942	0.0152616
847.020	0.0152709
847.098	0.0151646
847.176	0.0151204
847.254	0.0152746
847.332	0.0150523
847.410	0.0151247
847.488	0.0151760
847.567	0.0152907
847.645	0.0153584
847.723	0.0151608
847.801	0.0151743
847.879	0.0151217
847.957	0.0152401
848.035	0.0152346
848.113	0.0151932
848.192	0.0149766
848.270	0.0149495
848.348	0.0150651
848.426	0.0150056
848.504	0.0149467
848.582	0.0148936
848.660	0.0148584
848.738	0.0148113
848.817	0.0148919
848.895	0.0148823
848.973	0.0147356
849.051	0.0148232
849.129	0.0148480
849.207	0.0147153
849.285	0.0148075
849.363	0.0148692
849.442	0.0148893
849.520	0.0146735
849.598	0.0146936
849.676	0.0148210
849.754	0.0146851
849.832	0.0145696
849.910	0.0145736
849.988	0.0145444
850.067	0.0146535
850.145	0.0147615
850.223	0.0147883
850.301	0.0145851
850.379	0.0146870
850.457	0.0147451
850.535	0.0144952
850.613	0.0145919
850.692	0.0147758
850.770	0.0147777
850.848	0.0146925
850.926	0.0146147
851.004	0.0148064
851.082	0.0147340
851.160	0.0147691
851.238	0.0148089
851.317	0.0147826
851.395	0.0148418
851.473	0.0147622
851.551	0.0147694
851.629	0.0147120
851.707	0.0148602
851.785	0.0148985
851.863	0.0149088
851.942	0.0148551
852.020	0.0150107
852.098	0.0149075
852.176	0.0149954
852.254	0.0151486
852.332	0.0150439
852.410	0.0149887
852.488	0.0150565
852.567	0.0151424
852.645	0.0150626
852.723	0.0151252
852.801	0.0151272
852.879	0.0150713
852.957	0.0151066
853.035	0.0151019
853.113	0.0150866
853.192	0.0150926
853.270	0.0151841
853.348	0.0151122
853.426	0.0151855
853.504	0.0151585
853.582	0.0152077
853.660	0.0151849
853.738	0.0150583
853.817	0.0151692
853.895	0.0151239
853.973	0.0151418
854.051	0.0151562
854.129	0.0150756
854.207	0.0150705
854.285	0.0152150
854.363	0.0152009
854.442	0.0150555
854.520	0.0151517
854.598	0.0151991
854.676	0.0152296
854.754	0.0151627
854.832	0.0151078
854.910	0.0150641
854.988	0.0151295
855.067	0.0151742
855.145	0.0150975
855.223	0.0149016
855.301	0.0150687
855.379	0.0150955
855.457	0.0149382
855.535	0.0150083
855.613	0.0149542
855.692	0.0150262
855.770	0.0151226
855.848	0.0149107
855.926	0.0150467
856.004	0.0151340
856.082	0.0151981
856.160	0.0150287
856.238	0.0149809
856.317	0.0151499
856.395	0.0152081
856.473	0.0151561
856.551	0.0150864
856.629	0.0149812
856.707	0.0148412
856.785	0.0150494
856.863	0.0150528
856.942	0.0150483
857.020	0.0150395
857.098	0.0149232
857.176	0.0151253
857.254	0.0151030
857.332	0.0150574
857.410	0.0149559
857.488	0.0150922
857.567	0.0152186
857.645	0.0151487
857.723	0.0150124
857.801	0.0151190
857.879	0.0151382
857.957	0.0151887
858.035	0.0151093
858.113	0.0151215
858.192	0.0149996
858.270	0.0151339
858.348	0.0151035
858.426	0.0151630
858.504	0.0150235
858.582	0.0152062
858.660	0.0150944
858.738	0.0148903
858.817	0.0150806
858.895	0.0151028
858.973	0.0150885
859.051	0.0150187
859.129	0.0150030
859.207	0.0150534
859.285	0.0150423
859.363	0.0149883
859.442	0.0149425
859.520	0.0149142
859.598	0.0150266
859.676	0.0149099
859.754	0.0149316
859.832	0.0150024
859.910	0.0148998
859.988	0.0148806
860.067	0.0148802
860.145	0.0149316
860.223	0.0150152
860.301	0.0148185
860.379	0.0149139
860.457	0.0148105
860.535	0.0147484
860.613	0.0148103
860.692	0.0148136
860.770	0.0147398
860.848	0.0148309
860.926	0.0149177
861.004	0.0148825
861.082	0.0149671
861.160	0.0149737
861.238	0.0148448
861.317	0.0149283
861.395	0.0149281
861.473	0.0149524
861.551	0.0150449
861.629	0.0149015
861.707	0.0150377
861.785	0.0151141
861.863	0.0150596
861.942	0.0149554
862.020	0.0150932
862.098	0.0150561
862.176	0.0150441
862.254	0.0149520
862.332	0.0150537
862.410	0.0151437
862.488	0.0151005
862.567	0.0151037
862.645	0.0151556
862.723	0.0151713
862.801	0.0149864
862.879	0.0149895
862.957	0.0149531
863.035	0.0149619
863.113	0.0149919
863.192	0.0149976
863.270	0.0148375
863.348	0.0149422
863.426	0.0150173
863.504	0.0149592
863.582	0.0149606
863.660	0.0150465
863.738	0.0150780
863.817	0.0151435
863.895	0.0149332
863.973	0.0150541
864.051	0.0149973
864.129	0.0149226
864.207	0.0151360
864.285	0.0150578
864.363	0.0150208
864.442	0.0150378
864.520	0.0150278
864.598	0.0149484
864.676	0.0150098
864.754	0.0150352
864.832	0.0150002
864.910	0.0150257
864.988	0.0150487
865.067	0.0150940
865.145	0.0150691
865.223	0.0151527
865.301	0.0150468
865.379	0.0150327
865.457	0.0151760
865.535	0.0152479
865.613	0.0152254
865.692	0.0152216
865.770	0.0151917
865.848	0.0152876
865.926	0.0151115
866.004	0.0153145
866.082	0.0152227
866.160	0.0152798
866.238	0.0152393
866.317	0.0151784
866.395	0.0152473
866.473	0.0152127
866.551	0.0153114
866.629	0.0151255
866.707	0.0150636
866.785	0.0152301
866.863	0.0151239
866.942	0.0151571
867.020	0.0151172
867.098	0.0152077
867.176	0.0153033
867.254	0.0152672
867.332	0.0152456
867.410	0.0152534
867.488	0.0152012
867.567	0.0153063
867.645	0.0152771
867.723	0.0152740
867.801	0.0151629
867.879	0.0151775
867.957	0.0151622
868.035	0.0151344
868.113	0.0149265
868.192	0.0150599
868.270	0.0151929
868.348	0.0150539
868.426	0.0149960
868.504	0.0149921
868.582	0.0151367
868.660	0.0151152
868.738	0.0149918
868.817	0.0149625
868.895	0.0149977
868.973	0.0150824
869.051	0.0150099
869.129	0.0149287
869.207	0.0150026
869.285	0.0148923
869.363	0.0150031
869.442	0.0149096
869.520	0.0149954
869.598	0.0150804
869.676	0.0149799
869.754	0.0148758
869.832	0.0150079
869.910	0.0150051
869.988	0.0150427
870.067	0.0150140
870.145	0.0150494
870.223	0.0147634
870.301	0.0148470
870.379	0.0149680
870.457	0.0149899
870.535	0.0149249
870.613	0.0149656
870.692	0.0150640
870.770	0.0151077
870.848	0.0150002
870.926	0.0148151
871.004	0.0149457
871.082	0.0147950
871.160	0.0149972
871.238	0.0149132
871.317	0.0148166
871.395	0.0147896
871.473	0.0148399
871.551	0.0147123
871.629	0.0147312
871.707	0.0148008
871.785	0.0147771
871.863	0.0147346
871.942	0.0147807
872.020	0.0146120
872.098	0.0146931
872.176	0.0147642
872.254	0.0148096
872.332	0.0147411
872.410	0.0145773
872.488	0.0146819
872.567	0.0146687
872.645	0.0146785
872.723	0.0146262
872.801	0.0146757
872.879	0.0147226
872.957	0.0147628
873.035	0.0146895
873.113	0.0148309
873.192	0.0147197
873.270	0.0147371
873.348	0.0148161
873.426	0.0147368
873.504	0.0146458
873.582	0.0148526
873.660	0.0149797
873.738	0.0148512
873.817	0.0149212
873.895	0.0150288
873.973	0.0148928
874.051	0.0150214
874.129	0.0148873
874.207	0.0150954
874.285	0.0149239
874.363	0.0149754
874.442	0.0151401
874.520	0.0151711
874.598	0.0152064
874.676	0.0151314
874.754	0.0151414
874.832	0.0152103
874.910	0.0152238
874.988	0.0152460
875.067	0.0152389
875.145	0.0152591
875.223	0.0154087
875.301	0.0152085
875.379	0.0153344
875.457	0.0153040
875.535	0.0151806
875.613	0.0153616
875.692	0.0153539
875.770	0.0153089
875.848	0.0154828
875.926	0.0154215
876.004	0.0153619
876.082	0.0153317
876.160	0.0155053
876.238	0.0154265
876.317	0.0155580
876.395	0.0155379
876.473	0.0154228
876.551	0.0152489
876.629	0.0152746
876.707	0.0154327
876.785	0.0153113
876.863	0.0152222
876.942	0.0152689
877.020	0.0153101
877.098	0.0153094
877.176	0.0152520
877.254	0.0152001
877.332	0.0152064
877.410	0.0153964
877.488	0.0154374
877.567	0.0153736
877.645	0.0152431
877.723	0.0152470
877.801	0.0152248
877.879	0.0151220
877.957	0.0151759
878.035	0.0152587
878.113	0.0151426
878.192	0.0151190
878.270	0.0152133
878.348	0.0150376
878.426	0.0150063
878.504	0.0151193
878.582	0.0149898
878.660	0.0149528
878.738	0.0149722
878.817	0.0149429
878.895	0.0149633
878.973	0.0150252
879.051	0.0148402
879.129	0.0148836
879.207	0.0149514
879.285	0.0148621
879.363	0.0147022
879.442	0.0148069
879.520	0.0147549
879.598	0.0148280
879.676	0.0147234
879.754	0.0148152
879.832	0.0146844
879.910	0.0149087
879.988	0.0148199
880.067	0.0145817
880.145	0.0146177
880.223	0.0146989
880.301	0.0145897
880.379	0.0146438
880.457	0.0147596
880.535	0.0148126
880.613	0.0146500
880.692	0.0146915
880.770	0.0146310
880.848	0.0146035
880.926	0.0146004
881.004	0.0146909
881.082	0.0145947
881.160	0.0146519
881.238	0.0145004
881.317	0.0146951
881.395	0.0146905
881.473	0.0146326
881.551	0.0145191
881.629	0.0147302
881.707	0.0146898
881.785	0.0148790
881.863	0.0147951
881.942	0.0149603
882.020	0.0147195
882.098	0.0147191
882.176	0.0149036
882.254	0.0148035
882.332	0.0148058
882.410	0.0149740
882.488	0.0148190
882.567	0.0147536
882.645	0.0148274
882.723	0.0147708
882.801	0.0147911
882.879	0.0147610
882.957	0.0147253
883.035	0.0146932
883.113	0.0146416
883.192	0.0147182
883.270	0.0147199
883.348	0.0148115
883.426	0.0146996
883.504	0.0146919
883.582	0.0146528
883.660	0.0148172
883.738	0.0146657
883.817	0.0147243
883.895	0.0147166
883.973	0.0147533
884.051	0.0146685
884.129	0.0147318
884.207	0.0147969
884.285	0.0147276
884.363	0.0147758
884.442	0.0147344
884.520	0.0148055
884.598	0.0147653
884.676	0.0147623
884.754	0.0148158
884.832	0.0147757
884.910	0.0147540
884.988	0.0147975
885.067	0.0146484
885.145	0.0148341
885.223	0.0147788
885.301	0.0146492
885.379	0.0147560
885.457	0.0148248
885.535	0.0147437
885.613	0.0147500
885.692	0.0147453
885.770	0.0148283
885.848	0.0147329
885.926	0.0147573
886.004	0.0147821
886.082	0.0148517
886.160	0.0148576
886.238	0.0147039
886.317	0.0146668
886.395	0.0146912
886.473	0.0147473
886.551	0.0147600
886.629	0.0148637
886.707	0.0148293
886.785	0.0147324
886.863	0.0148139
886.942	0.0148559
887.020	0.0147885
887.098	0.0148584
887.176	0.0150041
887.254	0.0151160
887.332	0.0150236
887.410	0.0151160
887.488	0.0150570
887.567	0.0149261
887.645	0.0150777
887.723	0.0150344
887.801	0.0151382
887.879	0.0150078
887.957	0.0150539
888.035	0.0150867
888.113	0.0150234
888.192	0.0150246
888.270	0.0150605
888.348	0.0150624
888.426	0.0150217
888.504	0.0152285
888.582	0.0152607
888.660	0.0151088
888.738	0.0151175
888.817	0.0150406
888.895	0.0152058
888.973	0.0151038
889.051	0.0150353
889.129	0.0149512
889.207	0.0151125
889.285	0.0150542
889.363	0.0150559
889.442	0.0151379
889.520	0.0152332
889.598	0.0149636
889.676	0.0149134
889.754	0.0150130
889.832	0.0149547
889.910	0.0150616
889.988	0.0149683
890.067	0.0149055
890.145	0.0148552
890.223	0.0149033
890.301	0.0150414
890.379	0.0148030
890.457	0.0148769
890.535	0.0149477
890.613	0.0149215
890.692	0.0147472
890.770	0.0149536
890.848	0.0149733
890.926	0.0149845
891.004	0.0150114
891.082	0.0148360
891.160	0.0149894
891.238	0.0150523
891.317	0.0148902
891.395	0.0148971
891.473	0.0149844
891.551	0.0148975
891.629	0.0148811
891.707	0.0149575
891.785	0.0149426
891.863	0.0147864
891.942	0.0149268
892.020	0.0148954
892.098	0.0147090
892.176	0.0148779
892.254	0.0148425
892.332	0.0148918
892.410	0.0148090
892.488	0.0148590
892.567	0.0146936
892.645	0.0147822
892.723	0.0147146
892.801	0.0147332
892.879	0.0147799
892.957	0.0147277
893.035	0.0147617
893.113	0.0146204
893.192	0.0147216
893.270	0.0147318
893.348	0.0145304
893.426	0.0147328
893.504	0.0146294
893.582	0.0146175
893.660	0.0147950
893.738	0.0147329
893.817	0.0146593
893.895	0.0146172
893.973	0.0147208
894.051	0.0148145
894.129	0.0148821
894.207	0.0147941
894.285	0.0147945
894.363	0.0149235
894.442	0.0147469
894.520	0.0146675
894.598	0.0147203
894.676	0.0147884
894.754	0.0148254
894.832	0.0148028
894.910	0.0148925
894.988	0.0147239
895.067	0.0148003
895.145	0.0148602
895.223	0.0148079
895.301	0.0148441
895.379	0.0148308
895.457	0.0148092
895.535	0.0147780
895.613	0.0148246
895.692	0.0147660
895.770	0.0147295
895.848	0.0147584
895.926	0.0148003
896.004	0.0146469
896.082	0.0147216
896.160	0.0146581
896.238	0.0148223
896.317	0.0149305
896.395	0.0147664
896.473	0.0146995
896.551	0.0147874
896.629	0.0148492
896.707	0.0148370
896.785	0.0148336
896.863	0.0148824
896.942	0.0149033
897.020	0.0149390
897.098	0.0149058
897.176	0.0149033
897.254	0.0149188
897.332	0.0149825
897.410	0.0150686
897.488	0.0149790
897.567	0.0150079
897.645	0.0150911
897.723	0.0151442
897.801	0.0151730
897.879	0.0151378
897.957	0.0151819
898.035	0.0152368
898.113	0.0152363
898.192	0.0152007
898.270	0.0153117
898.348	0.0152469
898.426	0.0152540
898.504	0.0152158
898.582	0.0154062
898.660	0.0152827
898.738	0.0153027
898.817	0.0152254
898.895	0.0153447
898.973	0.0152093
899.051	0.0152760
899.129	0.0151870
899.207	0.0152072
899.285	0.0152418
899.363	0.0150697
899.442	0.0153033
899.520	0.0152776
899.598	0.0153200
899.676	0.0151095
899.754	0.0150819
899.832	0.0151476
899.910	0.0150626
899.988	0.0151249
900.067	0.0152551
900.145	0.0151555
900.223	0.0152455
900.301	0.0149436
900.379	0.0151350
900.457	0.0152737
900.535	0.0150968
900.613	0.0149874
900.692	0.0150896
900.770	0.0151507
900.848	0.0150227
900.926	0.0150440
901.004	0.0150265
901.082	0.0149555
901.160	0.0150814
901.238	0.0150354
901.317	0.0151157
901.395	0.0150852
901.473	0.0151375
901.551	0.0151624
901.629	0.0151813
901.707	0.0152038
901.785	0.0151296
901.863	0.0151336
901.942	0.0150600
902.020	0.0150921
902.098	0.0152166
902.176	0.0151686
902.254	0.0150272
902.332	0.0151303
902.410	0.0150216
902.488	0.0150409
902.567	0.0150365
902.645	0.0150632
902.723	0.0149660
902.801	0.0148741
902.879	0.0150295
902.957	0.0150794
903.035	0.0149824
903.113	0.0149117
903.192	0.0149603
903.270	0.0147644
903.348	0.0149117
903.426	0.0149206
903.504	0.0148985
903.582	0.0149044
903.660	0.0146592
903.738	0.0147476
903.817	0.0148012
903.895	0.0146175
903.973	0.0148104
904.051	0.0147179
904.129	0.0145737
904.207	0.0145522
904.285	0.0146112
904.363	0.0146773
904.442	0.0146655
904.520	0.0144907
904.598	0.0147095
904.676	0.0146539
904.754	0.0147211
904.832	0.0147651
904.910	0.0145888
904.988	0.0144469
905.067	0.0145712
905.145	0.0146811
905.223	0.0146480
905.301	0.0146434
905.379	0.0146668
905.457	0.0145966
905.535	0.0146879
905.613	0.0147028
905.692	0.0145761
905.770	0.0147144
905.848	0.0147726
905.926	0.0148648
906.004	0.0149109
906.082	0.0147890
906.160	0.0147204
906.238	0.0150295
906.317	0.0148621
906.395	0.0148913
906.473	0.0148955
906.551	0.0150113
906.629	0.0151187
906.707	0.0150671
906.785	0.0149261
906.863	0.0149317
906.942	0.0148750
907.020	0.0149453
907.098	0.0149700
907.176	0.0150229
907.254	0.0149916
907.332	0.0149647
907.410	0.0149529
907.488	0.0148013
907.567	0.0149081
907.645	0.0150773
907.723	0.0149509
907.801	0.0148530
907.879	0.0148704
907.957	0.0147974
908.035	0.0148502
908.113	0.0149254
908.192	0.0148128
908.270	0.0148200
908.348	0.0149672
908.426	0.0147646
908.504	0.0149053
908.582	0.0149194
908.660	0.0148166
908.738	0.0148221
908.817	0.0148878
908.895	0.0149612
908.973	0.0148985
909.051	0.0147457
909.129	0.0149393
909.207	0.0149466
909.285	0.0147392
909.363	0.0148108
909.442	0.0150871
909.520	0.0149607
909.598	0.0150674
909.676	0.0149786
909.754	0.0150945
909.832	0.0150836
909.910	0.0149723
909.988	0.0151176
910.067	0.0150510
910.145	0.0151183
910.223	0.0150491
910.301	0.0151247
910.379	0.0150573
910.457	0.0149719
910.535	0.0151086
910.613	0.0151251
910.692	0.0150981
910.770	0.0149565
910.848	0.0150815
910.926	0.0148248
911.004	0.0149483
911.082	0.0151679
911.160	0.0150082
911.238	0.0148969
911.317	0.0149448
911.395	0.0149820
911.473	0.0150345
911.551	0.0149622
911.629	0.0148495
911.707	0.0148347
911.785	0.0147918
911.863	0.0149339
911.942	0.0148274
912.020	0.0147726
912.098	0.0146325
912.176	0.0147381
912.254	0.0147765
912.332	0.0145872
912.410	0.0145385
912.488	0.0145358
912.567	0.0145905
912.645	0.0145866
912.723	0.0143873
912.801	0.0145530
912.879	0.0144859
912.957	0.0145348
913.035	0.0146319
913.113	0.0145490
913.192	0.0146824
913.270	0.0146664
913.348	0.0148755
913.426	0.0147137
913.504	0.0146609
913.582	0.0147386
913.660	0.0147195
913.738	0.0148640
913.817	0.0148421
913.895	0.0147930
913.973	0.0148570
914.051	0.0147702
914.129	0.0147204
914.207	0.0149514
914.285	0.0148720
914.363	0.0147169
914.442	0.0146535
914.520	0.0147095
914.598	0.0145590
914.676	0.0147400
914.754	0.0148607
914.832	0.0146326
914.910	0.0146587
914.988	0.0146244
915.067	0.0144967
915.145	0.0144083
915.223	0.0145161
915.301	0.0143550
915.379	0.0143067
915.457	0.0144212
915.535	0.0144918
915.613	0.0144332
915.692	0.0143948
915.770	0.0145247
915.848	0.0144822
915.926	0.0146262
916.004	0.0146378
916.082	0.0146114
916.160	0.0146324
916.238	0.0146104
916.317	0.0147057
916.395	0.0147186
916.473	0.0147175
916.551	0.0147122
916.629	0.0147791
916.707	0.0147716
916.785	0.0148053
916.863	0.0148121
916.942	0.0148042
917.020	0.0149815
917.098	0.0150526
917.176	0.0149348
917.254	0.0149046
917.332	0.0149545
917.410	0.0150642
917.488	0.0151328
917.567	0.0149804
917.645	0.0149531
917.723	0.0150992
917.801	0.0150255
917.879	0.0149533
917.957	0.0149850
918.035	0.0148515
918.113	0.0149236
918.192	0.0147828
918.270	0.0148357
918.348	0.0149279
918.426	0.0149195
918.504	0.0148259
918.582	0.0149717
918.660	0.0147741
918.738	0.0149125
918.817	0.0147447
918.895	0.0148503
918.973	0.0148488
919.051	0.0148013
919.129	0.0148346
919.207	0.0148496
919.285	0.0148451
919.363	0.0149626
919.442	0.0148717
919.520	0.0149791
919.598	0.0149374
919.676	0.0149696
919.754	0.0148913
919.832	0.0150276
919.910	0.0150140
