05/28/2022	14:41:32	Ver.	4.1	UNKNOWN
Optical Delay	559.987403	Delta X		0.078125	Sweeps	1	Scan Rate	0/0
Coordinates	Axis 1	NaN	Axis 2	NaN	Axis 3	NaN	Axis 4	NaN	Axis 5	NaN	Axis 6	0.000000
TX Power	0.000000	RX Power	0.000000

559.987	0.0143533
560.066	0.0141497
560.144	0.0141890
560.222	0.0141027
560.300	0.0142659
560.378	0.0142243
560.456	0.0142120
560.534	0.0142467
560.612	0.0142760
560.691	0.0142429
560.769	0.0142809
560.847	0.0143502
560.925	0.0142338
561.003	0.0143777
561.081	0.0143947
561.159	0.0142452
561.237	0.0142331
561.316	0.0143847
561.394	0.0143842
561.472	0.0143301
561.550	0.0143951
561.628	0.0143281
561.706	0.0144627
561.784	0.0145148
561.862	0.0145037
561.941	0.0143550
562.019	0.0143828
562.097	0.0144778
562.175	0.0144014
562.253	0.0143642
562.331	0.0144649
562.409	0.0143539
562.487	0.0144123
562.566	0.0144429
562.644	0.0143702
562.722	0.0143893
562.800	0.0144534
562.878	0.0144756
562.956	0.0143448
563.034	0.0144102
563.112	0.0143180
563.191	0.0144176
563.269	0.0145030
563.347	0.0144174
563.425	0.0144451
563.503	0.0144577
563.581	0.0144646
563.659	0.0144594
563.737	0.0144080
563.816	0.0143893
563.894	0.0144100
563.972	0.0144342
564.050	0.0145241
564.128	0.0144382
564.206	0.0144140
564.284	0.0145031
564.362	0.0145923
564.441	0.0145640
564.519	0.0146404
564.597	0.0145723
564.675	0.0146371
564.753	0.0146309
564.831	0.0146297
564.909	0.0146189
564.987	0.0147556
565.066	0.0146795
565.144	0.0146014
565.222	0.0146868
565.300	0.0146855
565.378	0.0146062
565.456	0.0147601
565.534	0.0148010
565.612	0.0146786
565.691	0.0147740
565.769	0.0147586
565.847	0.0145584
565.925	0.0147631
566.003	0.0146722
566.081	0.0147516
566.159	0.0148441
566.237	0.0148223
566.316	0.0147449
566.394	0.0149345
566.472	0.0147148
566.550	0.0146876
566.628	0.0148336
566.706	0.0148158
566.784	0.0147272
566.862	0.0147131
566.941	0.0148737
567.019	0.0147690
567.097	0.0147337
567.175	0.0147422
567.253	0.0148110
567.331	0.0147690
567.409	0.0148640
567.487	0.0148856
567.566	0.0147051
567.644	0.0148472
567.722	0.0148370
567.800	0.0148152
567.878	0.0147462
567.956	0.0148349
568.034	0.0146954
568.112	0.0147691
568.191	0.0147766
568.269	0.0146024
568.347	0.0148063
568.425	0.0148235
568.503	0.0146822
568.581	0.0147318
568.659	0.0147540
568.737	0.0147670
568.816	0.0146546
568.894	0.0147465
568.972	0.0146488
569.050	0.0147162
569.128	0.0148695
569.206	0.0147130
569.284	0.0147124
569.362	0.0147363
569.441	0.0146526
569.519	0.0147069
569.597	0.0146339
569.675	0.0146026
569.753	0.0146709
569.831	0.0147200
569.909	0.0146162
569.987	0.0146027
570.066	0.0146416
570.144	0.0147692
570.222	0.0146995
570.300	0.0145330
570.378	0.0145874
570.456	0.0147319
570.534	0.0146005
570.612	0.0146793
570.691	0.0145612
570.769	0.0145561
570.847	0.0146446
570.925	0.0146333
571.003	0.0145807
571.081	0.0145305
571.159	0.0145822
571.237	0.0145474
571.316	0.0145124
571.394	0.0146283
571.472	0.0144897
571.550	0.0144987
571.628	0.0145864
571.706	0.0145941
571.784	0.0144993
571.862	0.0146620
571.941	0.0146055
572.019	0.0146718
572.097	0.0146294
572.175	0.0146581
572.253	0.0146369
572.331	0.0145345
572.409	0.0146976
572.487	0.0147176
572.566	0.0145583
572.644	0.0145834
572.722	0.0146804
572.800	0.0145499
572.878	0.0145906
572.956	0.0145865
573.034	0.0146983
573.112	0.0147526
573.191	0.0146640
573.269	0.0147765
573.347	0.0147828
573.425	0.0147137
573.503	0.0145477
573.581	0.0147396
573.659	0.0147349
573.737	0.0147157
573.816	0.0147191
573.894	0.0149603
573.972	0.0146667
574.050	0.0147252
574.128	0.0147617
574.206	0.0146526
574.284	0.0147841
574.362	0.0148241
574.441	0.0149062
574.519	0.0148088
574.597	0.0146798
574.675	0.0148000
574.753	0.0147443
574.831	0.0147390
574.909	0.0147025
574.987	0.0147603
575.066	0.0147208
575.144	0.0147945
575.222	0.0146265
575.300	0.0147340
575.378	0.0147591
575.456	0.0147620
575.534	0.0146793
575.612	0.0147910
575.691	0.0148965
575.769	0.0148444
575.847	0.0147223
575.925	0.0149134
576.003	0.0148306
576.081	0.0147973
576.159	0.0147057
576.237	0.0147041
576.316	0.0147501
576.394	0.0147083
576.472	0.0148940
576.550	0.0148428
576.628	0.0147499
576.706	0.0147031
576.784	0.0146476
576.862	0.0147858
576.941	0.0147009
577.019	0.0148003
577.097	0.0147726
577.175	0.0147564
577.253	0.0148814
577.331	0.0148234
577.409	0.0148956
577.487	0.0147897
577.566	0.0148074
577.644	0.0149312
577.722	0.0149451
577.800	0.0148715
577.878	0.0149694
577.956	0.0149780
578.034	0.0149818
578.112	0.0148020
578.191	0.0147755
578.269	0.0148365
578.347	0.0148467
578.425	0.0148875
578.503	0.0147628
578.581	0.0148520
578.659	0.0149044
578.737	0.0148801
578.816	0.0149010
578.894	0.0149557
578.972	0.0149010
579.050	0.0150244
579.128	0.0150932
579.206	0.0148793
579.284	0.0148721
579.362	0.0150520
579.441	0.0149750
579.519	0.0150203
579.597	0.0148791
579.675	0.0148798
579.753	0.0148003
579.831	0.0149364
579.909	0.0149854
579.987	0.0149306
580.066	0.0148441
580.144	0.0148629
580.222	0.0147618
580.300	0.0149526
580.378	0.0148792
580.456	0.0148534
580.534	0.0146925
580.612	0.0148936
580.691	0.0148431
580.769	0.0147272
580.847	0.0146654
580.925	0.0145039
581.003	0.0145779
581.081	0.0147556
581.159	0.0147875
581.237	0.0146490
581.316	0.0145486
581.394	0.0146323
581.472	0.0146465
581.550	0.0146262
581.628	0.0144243
581.706	0.0143388
581.784	0.0142681
581.862	0.0145784
581.941	0.0145062
582.019	0.0144842
582.097	0.0145325
582.175	0.0144537
582.253	0.0144570
582.331	0.0145055
582.409	0.0142765
582.487	0.0144481
582.566	0.0144033
582.644	0.0143690
582.722	0.0144135
582.800	0.0144370
582.878	0.0143988
582.956	0.0144691
583.034	0.0144633
583.112	0.0143926
583.191	0.0144714
583.269	0.0144678
583.347	0.0144016
583.425	0.0143739
583.503	0.0145479
583.581	0.0144781
583.659	0.0144642
583.737	0.0144370
583.816	0.0144778
583.894	0.0146828
583.972	0.0145050
584.050	0.0142955
584.128	0.0144341
584.206	0.0143953
584.284	0.0144688
584.362	0.0144605
584.441	0.0144606
584.519	0.0143845
584.597	0.0143471
584.675	0.0143730
584.753	0.0144232
584.831	0.0142701
584.909	0.0143493
584.987	0.0142810
585.066	0.0143076
585.144	0.0143541
585.222	0.0142448
585.300	0.0142230
585.378	0.0145042
585.456	0.0144840
585.534	0.0142875
585.612	0.0142877
585.691	0.0144516
585.769	0.0144385
585.847	0.0142668
585.925	0.0142689
586.003	0.0144582
586.081	0.0145095
586.159	0.0143444
586.237	0.0144817
586.316	0.0144199
586.394	0.0145063
586.472	0.0144515
586.550	0.0145446
586.628	0.0144557
586.706	0.0144648
586.784	0.0144995
586.862	0.0145383
586.941	0.0145798
587.019	0.0144315
587.097	0.0145908
587.175	0.0144533
587.253	0.0145797
587.331	0.0147208
587.409	0.0146668
587.487	0.0146114
587.566	0.0146449
587.644	0.0145114
587.722	0.0145242
587.800	0.0147060
587.878	0.0147492
587.956	0.0147497
588.034	0.0147855
588.112	0.0147826
588.191	0.0148372
588.269	0.0145914
588.347	0.0147453
588.425	0.0148225
588.503	0.0147704
588.581	0.0146926
588.659	0.0147168
588.737	0.0147244
588.816	0.0146551
588.894	0.0147393
588.972	0.0146804
589.050	0.0147086
589.128	0.0147637
589.206	0.0148005
589.284	0.0147688
589.362	0.0148891
589.441	0.0148320
589.519	0.0147647
589.597	0.0147626
589.675	0.0148154
589.753	0.0148714
589.831	0.0148872
589.909	0.0148700
589.987	0.0149570
590.066	0.0148251
590.144	0.0148388
590.222	0.0148578
590.300	0.0148569
590.378	0.0148178
590.456	0.0147664
590.534	0.0146138
590.612	0.0147058
590.691	0.0148215
590.769	0.0147058
590.847	0.0147414
590.925	0.0146709
591.003	0.0146457
591.081	0.0146981
591.159	0.0147446
591.237	0.0147250
591.316	0.0146241
591.394	0.0145164
591.472	0.0146514
591.550	0.0146407
591.628	0.0146738
591.706	0.0146992
591.784	0.0146839
591.862	0.0146201
591.941	0.0146309
592.019	0.0144481
592.097	0.0147033
592.175	0.0146751
592.253	0.0146953
592.331	0.0145844
592.409	0.0147679
592.487	0.0145605
592.566	0.0146334
592.644	0.0146420
592.722	0.0147668
592.800	0.0146146
592.878	0.0146906
592.956	0.0147237
593.034	0.0145481
593.112	0.0145057
593.191	0.0145158
593.269	0.0146455
593.347	0.0144871
593.425	0.0144528
593.503	0.0144604
593.581	0.0144970
593.659	0.0144610
593.737	0.0143554
593.816	0.0144934
593.894	0.0143008
593.972	0.0144132
594.050	0.0144646
594.128	0.0144032
594.206	0.0143469
594.284	0.0143149
594.362	0.0145010
594.441	0.0144447
594.519	0.0144649
594.597	0.0145042
594.675	0.0144418
594.753	0.0145699
594.831	0.0145894
594.909	0.0145886
594.987	0.0145612
595.066	0.0145834
595.144	0.0145819
595.222	0.0145555
595.300	0.0143485
595.378	0.0146626
595.456	0.0145503
595.534	0.0145863
595.612	0.0147265
595.691	0.0147272
595.769	0.0146193
595.847	0.0146433
595.925	0.0146040
596.003	0.0147177
596.081	0.0146825
596.159	0.0146040
596.237	0.0145806
596.316	0.0145342
596.394	0.0145982
596.472	0.0146561
596.550	0.0145446
596.628	0.0146038
596.706	0.0145288
596.784	0.0146803
596.862	0.0146101
596.941	0.0146713
597.019	0.0145412
597.097	0.0146490
597.175	0.0147417
597.253	0.0146280
597.331	0.0146747
597.409	0.0145300
597.487	0.0147690
597.566	0.0147482
597.644	0.0146893
597.722	0.0146733
597.800	0.0147426
597.878	0.0148251
597.956	0.0147449
598.034	0.0146195
598.112	0.0147765
598.191	0.0146828
598.269	0.0148177
598.347	0.0147061
598.425	0.0147553
598.503	0.0146525
598.581	0.0147168
598.659	0.0147810
598.737	0.0147730
598.816	0.0147724
598.894	0.0147294
598.972	0.0146220
599.050	0.0145762
599.128	0.0146507
599.206	0.0146121
599.284	0.0147214
599.362	0.0145819
599.441	0.0144954
599.519	0.0146127
599.597	0.0146176
599.675	0.0147018
599.753	0.0148357
599.831	0.0146629
599.909	0.0147892
599.987	0.0148895
600.066	0.0147958
600.144	0.0148907
600.222	0.0148170
600.300	0.0148809
600.378	0.0148647
600.456	0.0149734
600.534	0.0150400
600.612	0.0148261
600.691	0.0148472
600.769	0.0149899
600.847	0.0150544
600.925	0.0148919
601.003	0.0148689
601.081	0.0150274
601.159	0.0149707
601.237	0.0149103
601.316	0.0149014
601.394	0.0147197
601.472	0.0148605
601.550	0.0148392
601.628	0.0148678
601.706	0.0148758
601.784	0.0148069
601.862	0.0148153
601.941	0.0147549
602.019	0.0147678
602.097	0.0147396
602.175	0.0147329
602.253	0.0146474
602.331	0.0146957
602.409	0.0147813
602.487	0.0148210
602.566	0.0147251
602.644	0.0147027
602.722	0.0147468
602.800	0.0146535
602.878	0.0147391
602.956	0.0146714
603.034	0.0147223
603.112	0.0147356
603.191	0.0147031
603.269	0.0144728
603.347	0.0145450
603.425	0.0145599
603.503	0.0144966
603.581	0.0144823
603.659	0.0145058
603.737	0.0145819
603.816	0.0143485
603.894	0.0142950
603.972	0.0142680
604.050	0.0144175
604.128	0.0143913
604.206	0.0141203
604.284	0.0142001
604.362	0.0142746
604.441	0.0143300
604.519	0.0142909
604.597	0.0141648
604.675	0.0142880
604.753	0.0141481
604.831	0.0142503
604.909	0.0143131
604.987	0.0143855
605.066	0.0143163
605.144	0.0142721
605.222	0.0142998
605.300	0.0144261
605.378	0.0142295
605.456	0.0144103
605.534	0.0143178
605.612	0.0144106
605.691	0.0144553
605.769	0.0144331
605.847	0.0144149
605.925	0.0144411
606.003	0.0145488
606.081	0.0145164
606.159	0.0146136
606.237	0.0144885
606.316	0.0146160
606.394	0.0145638
606.472	0.0146368
606.550	0.0146229
606.628	0.0147327
606.706	0.0147013
606.784	0.0147810
606.862	0.0147437
606.941	0.0147042
607.019	0.0147248
607.097	0.0146726
607.175	0.0147267
607.253	0.0148160
607.331	0.0145907
607.409	0.0147806
607.487	0.0147697
607.566	0.0147845
607.644	0.0149493
607.722	0.0146732
607.800	0.0146644
607.878	0.0148672
607.956	0.0149332
608.034	0.0149097
608.112	0.0148649
608.191	0.0147606
608.269	0.0147462
608.347	0.0148463
608.425	0.0149036
608.503	0.0148318
608.581	0.0149478
608.659	0.0148692
608.737	0.0147943
608.816	0.0147108
608.894	0.0147558
608.972	0.0148536
609.050	0.0148212
609.128	0.0148337
609.206	0.0147929
609.284	0.0148656
609.362	0.0148099
609.441	0.0148627
609.519	0.0147517
609.597	0.0147791
609.675	0.0148326
609.753	0.0148091
609.831	0.0149006
609.909	0.0148373
609.987	0.0148436
610.066	0.0148759
610.144	0.0148022
610.222	0.0148583
610.300	0.0148585
610.378	0.0148460
610.456	0.0150388
610.534	0.0148629
610.612	0.0149083
610.691	0.0149538
610.769	0.0149857
610.847	0.0149345
610.925	0.0149782
611.003	0.0149142
611.081	0.0148692
611.159	0.0148080
611.237	0.0149986
611.316	0.0148678
611.394	0.0148136
611.472	0.0147132
611.550	0.0148771
611.628	0.0148925
611.706	0.0147506
611.784	0.0147028
611.862	0.0146468
611.941	0.0147446
612.019	0.0147481
612.097	0.0146554
612.175	0.0146042
612.253	0.0144923
612.331	0.0145782
612.409	0.0145307
612.487	0.0146493
612.566	0.0144573
612.644	0.0143689
612.722	0.0144761
612.800	0.0145203
612.878	0.0143275
612.956	0.0143222
613.034	0.0143819
613.112	0.0144671
613.191	0.0143613
613.269	0.0143429
613.347	0.0143740
613.425	0.0143164
613.503	0.0144444
613.581	0.0144810
613.659	0.0145831
613.737	0.0146185
613.816	0.0144759
613.894	0.0144713
613.972	0.0145492
614.050	0.0145174
614.128	0.0145739
614.206	0.0145614
614.284	0.0146620
614.362	0.0146674
614.441	0.0146437
614.519	0.0146864
614.597	0.0146790
614.675	0.0145641
614.753	0.0145406
614.831	0.0145069
614.909	0.0143678
614.987	0.0145039
615.066	0.0145709
615.144	0.0146003
615.222	0.0144221
615.300	0.0143684
615.378	0.0144202
615.456	0.0143941
615.534	0.0144601
615.612	0.0144040
615.691	0.0145557
615.769	0.0143964
615.847	0.0142773
615.925	0.0144655
616.003	0.0145007
616.081	0.0144366
616.159	0.0143948
616.237	0.0142796
616.316	0.0144537
616.394	0.0145210
616.472	0.0143623
616.550	0.0145253
616.628	0.0144237
616.706	0.0144761
616.784	0.0144392
616.862	0.0146104
616.941	0.0144215
617.019	0.0145444
617.097	0.0145447
617.175	0.0144166
617.253	0.0144971
617.331	0.0144865
617.409	0.0143679
617.487	0.0146578
617.566	0.0145877
617.644	0.0145306
617.722	0.0145685
617.800	0.0145422
617.878	0.0145174
617.956	0.0146492
618.034	0.0146458
618.112	0.0147466
618.191	0.0145569
618.269	0.0145064
618.347	0.0147857
618.425	0.0148259
618.503	0.0147128
618.581	0.0147616
618.659	0.0147977
618.737	0.0147426
618.816	0.0146869
618.894	0.0147061
618.972	0.0147930
619.050	0.0147918
619.128	0.0146973
619.206	0.0146835
619.284	0.0147180
619.362	0.0146137
619.441	0.0146793
619.519	0.0147313
619.597	0.0145539
619.675	0.0146946
619.753	0.0147243
619.831	0.0146698
619.909	0.0146196
619.987	0.0145744
620.066	0.0145728
620.144	0.0146287
620.222	0.0147459
620.300	0.0146793
620.378	0.0147334
620.456	0.0146456
620.534	0.0146326
620.612	0.0146075
620.691	0.0145073
620.769	0.0145345
620.847	0.0145311
620.925	0.0146098
621.003	0.0144556
621.081	0.0146339
621.159	0.0145726
621.237	0.0146010
621.316	0.0146671
621.394	0.0146195
621.472	0.0147018
621.550	0.0145918
621.628	0.0146143
621.706	0.0146563
621.784	0.0147881
621.862	0.0146178
621.941	0.0147048
622.019	0.0146782
622.097	0.0145404
622.175	0.0148129
622.253	0.0147604
622.331	0.0147662
622.409	0.0146818
622.487	0.0146918
622.566	0.0145993
622.644	0.0147127
622.722	0.0146680
622.800	0.0147562
622.878	0.0146745
622.956	0.0144677
623.034	0.0146043
623.112	0.0147800
623.191	0.0145898
623.269	0.0145377
623.347	0.0146217
623.425	0.0145718
623.503	0.0145314
623.581	0.0145396
623.659	0.0145821
623.737	0.0146664
623.816	0.0146606
623.894	0.0144879
623.972	0.0145788
624.050	0.0146814
624.128	0.0146301
624.206	0.0145449
624.284	0.0145419
624.362	0.0146677
624.441	0.0145831
624.519	0.0147255
624.597	0.0145472
624.675	0.0146467
624.753	0.0145878
624.831	0.0144966
624.909	0.0143658
624.987	0.0145250
625.066	0.0144202
625.144	0.0143159
625.222	0.0144064
625.300	0.0143542
625.378	0.0143656
625.456	0.0143706
625.534	0.0142661
625.612	0.0145319
625.691	0.0144816
625.769	0.0144433
625.847	0.0143867
625.925	0.0143990
626.003	0.0145027
626.081	0.0144314
626.159	0.0143264
626.237	0.0142065
626.316	0.0144363
626.394	0.0143352
626.472	0.0143610
626.550	0.0143449
626.628	0.0142061
626.706	0.0142494
626.784	0.0141995
626.862	0.0144287
626.941	0.0141721
627.019	0.0142696
627.097	0.0142732
627.175	0.0143442
627.253	0.0144322
627.331	0.0143654
627.409	0.0143527
627.487	0.0143110
627.566	0.0143327
627.644	0.0144913
627.722	0.0144694
627.800	0.0144328
627.878	0.0145313
627.956	0.0146238
628.034	0.0144644
628.112	0.0143134
628.191	0.0143720
628.269	0.0144696
628.347	0.0145969
628.425	0.0145218
628.503	0.0144283
628.581	0.0144584
628.659	0.0146156
628.737	0.0145222
628.816	0.0145668
628.894	0.0144933
628.972	0.0146062
629.050	0.0146478
629.128	0.0147107
629.206	0.0147171
629.284	0.0146624
629.362	0.0148272
629.441	0.0147994
629.519	0.0147368
629.597	0.0148837
629.675	0.0148672
629.753	0.0149439
629.831	0.0148701
629.909	0.0148943
629.987	0.0149029
630.066	0.0148177
630.144	0.0148087
630.222	0.0148851
630.300	0.0148183
630.378	0.0147454
630.456	0.0147733
630.534	0.0148341
630.612	0.0150482
630.691	0.0150200
630.769	0.0149188
630.847	0.0150542
630.925	0.0150134
631.003	0.0149780
631.081	0.0149967
631.159	0.0149034
631.237	0.0149794
631.316	0.0149578
631.394	0.0149191
631.472	0.0149799
631.550	0.0150220
631.628	0.0149886
631.706	0.0149984
631.784	0.0148281
631.862	0.0149431
631.941	0.0149918
632.019	0.0149481
632.097	0.0148715
632.175	0.0149158
632.253	0.0147590
632.331	0.0147620
632.409	0.0147435
632.487	0.0146449
632.566	0.0147421
632.644	0.0147372
632.722	0.0145790
632.800	0.0145036
632.878	0.0144704
632.956	0.0146059
633.034	0.0145473
633.112	0.0144478
633.191	0.0143444
633.269	0.0144241
633.347	0.0143512
633.425	0.0144855
633.503	0.0143672
633.581	0.0143913
633.659	0.0144582
633.737	0.0143745
633.816	0.0143751
633.894	0.0143176
633.972	0.0143333
634.050	0.0143137
634.128	0.0145584
634.206	0.0145888
634.284	0.0144183
634.362	0.0143547
634.441	0.0143451
634.519	0.0143404
634.597	0.0144168
634.675	0.0144920
634.753	0.0143616
634.831	0.0144620
634.909	0.0144599
634.987	0.0144009
635.066	0.0144080
635.144	0.0144645
635.222	0.0145835
635.300	0.0144440
635.378	0.0145328
635.456	0.0144918
635.534	0.0144492
635.612	0.0145721
635.691	0.0146877
635.769	0.0145779
635.847	0.0145416
635.925	0.0145612
636.003	0.0146325
636.081	0.0147102
636.159	0.0144688
636.237	0.0144716
636.316	0.0145726
636.394	0.0145503
636.472	0.0145860
636.550	0.0144946
636.628	0.0145895
636.706	0.0144702
636.784	0.0144880
636.862	0.0144443
636.941	0.0143925
637.019	0.0144416
637.097	0.0144292
637.175	0.0142737
637.253	0.0145123
637.331	0.0144782
637.409	0.0143755
637.487	0.0143555
637.566	0.0143541
637.644	0.0144954
637.722	0.0146001
637.800	0.0143654
637.878	0.0145011
637.956	0.0144277
638.034	0.0144918
638.112	0.0145010
638.191	0.0145441
638.269	0.0144002
638.347	0.0145142
638.425	0.0143919
638.503	0.0145527
638.581	0.0144936
638.659	0.0145546
638.737	0.0144178
638.816	0.0145658
638.894	0.0145638
638.972	0.0145740
639.050	0.0144930
639.128	0.0144696
639.206	0.0145789
639.284	0.0145352
639.362	0.0146014
639.441	0.0145073
639.519	0.0146039
639.597	0.0146264
639.675	0.0145681
639.753	0.0145022
639.831	0.0147307
639.909	0.0146841
639.987	0.0145902
640.066	0.0144833
640.144	0.0145419
640.222	0.0145053
640.300	0.0145881
640.378	0.0147372
640.456	0.0145381
640.534	0.0145689
640.612	0.0147132
640.691	0.0146498
640.769	0.0145918
640.847	0.0147054
640.925	0.0146251
641.003	0.0146243
641.081	0.0146997
641.159	0.0147282
641.237	0.0145818
641.316	0.0146626
641.394	0.0146973
641.472	0.0146422
641.550	0.0145087
641.628	0.0145613
641.706	0.0145464
641.784	0.0147028
641.862	0.0146263
641.941	0.0146793
642.019	0.0146609
642.097	0.0146377
642.175	0.0146217
642.253	0.0146106
642.331	0.0143494
642.409	0.0145110
642.487	0.0144360
642.566	0.0144798
642.644	0.0145741
642.722	0.0144010
642.800	0.0143458
642.878	0.0145098
642.956	0.0145663
643.034	0.0145042
643.112	0.0145075
643.191	0.0145900
643.269	0.0143793
643.347	0.0145049
643.425	0.0145751
643.503	0.0144484
643.581	0.0145604
643.659	0.0147219
643.737	0.0144484
643.816	0.0145757
643.894	0.0145406
643.972	0.0144323
644.050	0.0143301
644.128	0.0145569
644.206	0.0146219
644.284	0.0144863
644.362	0.0144569
644.441	0.0146183
644.519	0.0144780
644.597	0.0144080
644.675	0.0144529
644.753	0.0144130
644.831	0.0144897
644.909	0.0144467
644.987	0.0144029
645.066	0.0144941
645.144	0.0143565
645.222	0.0143841
645.300	0.0144907
645.378	0.0143922
645.456	0.0143034
645.534	0.0143137
645.612	0.0143740
645.691	0.0143388
645.769	0.0143059
645.847	0.0142361
645.925	0.0143159
646.003	0.0141221
646.081	0.0141422
646.159	0.0142175
646.237	0.0142999
646.316	0.0143113
646.394	0.0143037
646.472	0.0144107
646.550	0.0143617
646.628	0.0143327
646.706	0.0144219
646.784	0.0144242
646.862	0.0143124
646.941	0.0144733
647.019	0.0144290
647.097	0.0143291
647.175	0.0143932
647.253	0.0145266
647.331	0.0144344
647.409	0.0145704
647.487	0.0144501
647.566	0.0143442
647.644	0.0143754
647.722	0.0143098
647.800	0.0142917
647.878	0.0144533
647.956	0.0143385
648.034	0.0142692
648.112	0.0141661
648.191	0.0142750
648.269	0.0142400
648.347	0.0143070
648.425	0.0141814
648.503	0.0143587
648.581	0.0143465
648.659	0.0142088
648.737	0.0142960
648.816	0.0144211
648.894	0.0142937
648.972	0.0144516
649.050	0.0143658
649.128	0.0145100
649.206	0.0146346
649.284	0.0145367
649.362	0.0145818
649.441	0.0146330
649.519	0.0147075
649.597	0.0146939
649.675	0.0147216
649.753	0.0146690
649.831	0.0147388
649.909	0.0147419
649.987	0.0148708
650.066	0.0148756
650.144	0.0147909
650.222	0.0148347
650.300	0.0147311
650.378	0.0146516
650.456	0.0148241
650.534	0.0149270
650.612	0.0147855
650.691	0.0146481
650.769	0.0147475
650.847	0.0147118
650.925	0.0147609
651.003	0.0147514
651.081	0.0148499
651.159	0.0147782
651.237	0.0147021
651.316	0.0146626
651.394	0.0149212
651.472	0.0148598
651.550	0.0147828
651.628	0.0147655
651.706	0.0148518
651.784	0.0149236
651.862	0.0149006
651.941	0.0149078
652.019	0.0150137
652.097	0.0151041
652.175	0.0148685
652.253	0.0148978
652.331	0.0150952
652.409	0.0149852
652.487	0.0149565
652.566	0.0149303
652.644	0.0149774
652.722	0.0149276
652.800	0.0149306
652.878	0.0148909
652.956	0.0148533
653.034	0.0149736
653.112	0.0149688
653.191	0.0147351
653.269	0.0147860
653.347	0.0147865
653.425	0.0147475
653.503	0.0147531
653.581	0.0148542
653.659	0.0146838
653.737	0.0146269
653.816	0.0147302
653.894	0.0146221
653.972	0.0145167
654.050	0.0146389
654.128	0.0146432
654.206	0.0145918
654.284	0.0146291
654.362	0.0145918
654.441	0.0145905
654.519	0.0144279
654.597	0.0144337
654.675	0.0144978
654.753	0.0143931
654.831	0.0145465
654.909	0.0144163
654.987	0.0145918
655.066	0.0144745
655.144	0.0145676
655.222	0.0143789
655.300	0.0145930
655.378	0.0144658
655.456	0.0144334
655.534	0.0142676
655.612	0.0144948
655.691	0.0144008
655.769	0.0143679
655.847	0.0142713
655.925	0.0141735
656.003	0.0141505
656.081	0.0142504
656.159	0.0140226
656.237	0.0141027
656.316	0.0142215
656.394	0.0142474
656.472	0.0142575
656.550	0.0142475
656.628	0.0142297
656.706	0.0141810
656.784	0.0143037
656.862	0.0143740
656.941	0.0143238
657.019	0.0143868
657.097	0.0143935
657.175	0.0143237
657.253	0.0145242
657.331	0.0144585
657.409	0.0146661
657.487	0.0145388
657.566	0.0146561
657.644	0.0144478
657.722	0.0144720
657.800	0.0144940
657.878	0.0146606
657.956	0.0145055
658.034	0.0143923
658.112	0.0144660
658.191	0.0145320
658.269	0.0146467
658.347	0.0144952
658.425	0.0145358
658.503	0.0145162
658.581	0.0145270
658.659	0.0145140
658.737	0.0146814
658.816	0.0145468
658.894	0.0144186
658.972	0.0144678
659.050	0.0146564
659.128	0.0144847
659.206	0.0146157
659.284	0.0145586
659.362	0.0145385
659.441	0.0144889
659.519	0.0144423
659.597	0.0145029
659.675	0.0145181
659.753	0.0145058
659.831	0.0144354
659.909	0.0144665
659.987	0.0144689
660.066	0.0142978
660.144	0.0144486
660.222	0.0144839
660.300	0.0146455
660.378	0.0145031
660.456	0.0144228
660.534	0.0145069
660.612	0.0144846
660.691	0.0145397
660.769	0.0145734
660.847	0.0145730
660.925	0.0146680
661.003	0.0145782
661.081	0.0146339
661.159	0.0147618
661.237	0.0146925
661.316	0.0146887
661.394	0.0148083
661.472	0.0148877
661.550	0.0148577
661.628	0.0148906
661.706	0.0148218
661.784	0.0148182
661.862	0.0149823
661.941	0.0148433
662.019	0.0149698
662.097	0.0149881
662.175	0.0148929
662.253	0.0150311
662.331	0.0149969
662.409	0.0150835
662.487	0.0148366
662.566	0.0148402
662.644	0.0149673
662.722	0.0149150
662.800	0.0149124
662.878	0.0149477
662.956	0.0148010
663.034	0.0147666
663.112	0.0148073
663.191	0.0148494
663.269	0.0146980
663.347	0.0147126
663.425	0.0148603
663.503	0.0147812
663.581	0.0147651
663.659	0.0146748
663.737	0.0146928
663.816	0.0145936
663.894	0.0145930
663.972	0.0146996
664.050	0.0146156
664.128	0.0144838
664.206	0.0146013
664.284	0.0146339
664.362	0.0145281
664.441	0.0146242
664.519	0.0145721
664.597	0.0144691
664.675	0.0145779
664.753	0.0147501
664.831	0.0146850
664.909	0.0145650
664.987	0.0146629
665.066	0.0146857
665.144	0.0145929
665.222	0.0146636
665.300	0.0147942
665.378	0.0147832
665.456	0.0146790
665.534	0.0147629
665.612	0.0147165
665.691	0.0147406
665.769	0.0147021
665.847	0.0146865
665.925	0.0148049
666.003	0.0147988
666.081	0.0146703
666.159	0.0147765
666.237	0.0146970
666.316	0.0147244
666.394	0.0146268
666.472	0.0146870
666.550	0.0146960
666.628	0.0147334
666.706	0.0146644
666.784	0.0147121
666.862	0.0146247
666.941	0.0147272
667.019	0.0145779
667.097	0.0145706
667.175	0.0147278
667.253	0.0147836
667.331	0.0145630
667.409	0.0146345
667.487	0.0146378
667.566	0.0145269
667.644	0.0145736
667.722	0.0147341
667.800	0.0145870
667.878	0.0147025
667.956	0.0146124
668.034	0.0145622
668.112	0.0146967
668.191	0.0146197
668.269	0.0146835
668.347	0.0144041
668.425	0.0144398
668.503	0.0145908
668.581	0.0144318
668.659	0.0144580
668.737	0.0144094
668.816	0.0144691
668.894	0.0145001
668.972	0.0145982
669.050	0.0145721
669.128	0.0146778
669.206	0.0145986
669.284	0.0147789
669.362	0.0145718
669.441	0.0146178
669.519	0.0145715
669.597	0.0144799
669.675	0.0145941
669.753	0.0145600
669.831	0.0146627
669.909	0.0146761
669.987	0.0146146
670.066	0.0144540
670.144	0.0145521
670.222	0.0146482
670.300	0.0145847
670.378	0.0146353
670.456	0.0146317
670.534	0.0145588
670.612	0.0146596
670.691	0.0145778
670.769	0.0147184
670.847	0.0145930
670.925	0.0147396
671.003	0.0146037
671.081	0.0144732
671.159	0.0144672
671.237	0.0144578
671.316	0.0145763
671.394	0.0146137
671.472	0.0145882
671.550	0.0146397
671.628	0.0146678
671.706	0.0147042
671.784	0.0145921
671.862	0.0144557
671.941	0.0145844
672.019	0.0144862
672.097	0.0146057
672.175	0.0146230
672.253	0.0145338
672.331	0.0144063
672.409	0.0145383
672.487	0.0145137
672.566	0.0144629
672.644	0.0146555
672.722	0.0147381
672.800	0.0144958
672.878	0.0146109
672.956	0.0146387
673.034	0.0146007
673.112	0.0146661
673.191	0.0146472
673.269	0.0146233
673.347	0.0147279
673.425	0.0147082
673.503	0.0146161
673.581	0.0147014
673.659	0.0146751
673.737	0.0146017
673.816	0.0147752
673.894	0.0147355
673.972	0.0146535
674.050	0.0146942
674.128	0.0147266
674.206	0.0146469
674.284	0.0145173
674.362	0.0146265
674.441	0.0145828
674.519	0.0145078
674.597	0.0145540
674.675	0.0145634
674.753	0.0143992
674.831	0.0144878
674.909	0.0144565
674.987	0.0143721
675.066	0.0143739
675.144	0.0144000
675.222	0.0144429
675.300	0.0144405
675.378	0.0144276
675.456	0.0144345
675.534	0.0145245
675.612	0.0144781
675.691	0.0146013
675.769	0.0144302
675.847	0.0146774
675.925	0.0146682
676.003	0.0146621
676.081	0.0146355
676.159	0.0145856
676.237	0.0148341
676.316	0.0147136
676.394	0.0146976
676.472	0.0147208
676.550	0.0146680
676.628	0.0146030
676.706	0.0147244
676.784	0.0148216
676.862	0.0147285
676.941	0.0145883
677.019	0.0146272
677.097	0.0146922
677.175	0.0147574
677.253	0.0146235
677.331	0.0146644
677.409	0.0146035
677.487	0.0147076
677.566	0.0145591
677.644	0.0147511
677.722	0.0147013
677.800	0.0148270
677.878	0.0147064
677.956	0.0148162
678.034	0.0147470
678.112	0.0149271
678.191	0.0150134
678.269	0.0149619
678.347	0.0149654
678.425	0.0149670
678.503	0.0149523
678.581	0.0149903
678.659	0.0149911
678.737	0.0150587
678.816	0.0149403
678.894	0.0149783
678.972	0.0150509
679.050	0.0148857
679.128	0.0147639
679.206	0.0149544
679.284	0.0148615
679.362	0.0148179
679.441	0.0147395
679.519	0.0147673
679.597	0.0147537
679.675	0.0146812
679.753	0.0147749
679.831	0.0146346
679.909	0.0145947
679.987	0.0146475
680.066	0.0144921
680.144	0.0145353
680.222	0.0145905
680.300	0.0146505
680.378	0.0144620
680.456	0.0145570
680.534	0.0145821
680.612	0.0145516
680.691	0.0144900
680.769	0.0145538
680.847	0.0145701
680.925	0.0145848
681.003	0.0148701
681.081	0.0147395
681.159	0.0148409
681.237	0.0147850
681.316	0.0148093
681.394	0.0147934
681.472	0.0146451
681.550	0.0147714
681.628	0.0148811
681.706	0.0146455
681.784	0.0147461
681.862	0.0147838
681.941	0.0148969
682.019	0.0148834
682.097	0.0148956
682.175	0.0148856
682.253	0.0147710
682.331	0.0149570
682.409	0.0149799
682.487	0.0148553
682.566	0.0148650
682.644	0.0150344
682.722	0.0151052
682.800	0.0149419
682.878	0.0149942
682.956	0.0149882
683.034	0.0150464
683.112	0.0150690
683.191	0.0150584
683.269	0.0150876
683.347	0.0149660
683.425	0.0150135
683.503	0.0151534
683.581	0.0150185
683.659	0.0150852
683.737	0.0148756
683.816	0.0149294
683.894	0.0150086
683.972	0.0149703
684.050	0.0149602
684.128	0.0148964
684.206	0.0149250
684.284	0.0146416
684.362	0.0147928
684.441	0.0147120
684.519	0.0147961
684.597	0.0146573
684.675	0.0146584
684.753	0.0147011
684.831	0.0145277
684.909	0.0145551
684.987	0.0144607
685.066	0.0144818
685.144	0.0143710
685.222	0.0145931
685.300	0.0144206
685.378	0.0143742
685.456	0.0143289
685.534	0.0144077
685.612	0.0144652
685.691	0.0145285
685.769	0.0144907
685.847	0.0144524
685.925	0.0145395
686.003	0.0146692
686.081	0.0144940
686.159	0.0145836
686.237	0.0145709
686.316	0.0144780
686.394	0.0145773
686.472	0.0146545
686.550	0.0145856
686.628	0.0145402
686.706	0.0145457
686.784	0.0144965
686.862	0.0146155
686.941	0.0145307
687.019	0.0145664
687.097	0.0146022
687.175	0.0144205
687.253	0.0146496
687.331	0.0146277
687.409	0.0146797
687.487	0.0145473
687.566	0.0148131
687.644	0.0149499
687.722	0.0149617
687.800	0.0148363
687.878	0.0150822
687.956	0.0150198
688.034	0.0150867
688.112	0.0149905
688.191	0.0151021
688.269	0.0152592
688.347	0.0149630
688.425	0.0149509
688.503	0.0151335
688.581	0.0151352
688.659	0.0150553
688.737	0.0147634
688.816	0.0149361
688.894	0.0148492
688.972	0.0148267
689.050	0.0148678
689.128	0.0147140
689.206	0.0146605
689.284	0.0147102
689.362	0.0147495
689.441	0.0147898
689.519	0.0146162
689.597	0.0146889
689.675	0.0144949
689.753	0.0146291
689.831	0.0145985
689.909	0.0144998
689.987	0.0145479
690.066	0.0146268
690.144	0.0144241
690.222	0.0145129
690.300	0.0146516
690.378	0.0144598
690.456	0.0144933
690.534	0.0145772
690.612	0.0147594
690.691	0.0146957
690.769	0.0145912
690.847	0.0145014
690.925	0.0146710
691.003	0.0146818
691.081	0.0147240
691.159	0.0146941
691.237	0.0146823
691.316	0.0146362
691.394	0.0147321
691.472	0.0146539
691.550	0.0148524
691.628	0.0147781
691.706	0.0148176
691.784	0.0147215
691.862	0.0147629
691.941	0.0147208
692.019	0.0146720
692.097	0.0148426
692.175	0.0147089
692.253	0.0146674
692.331	0.0147440
692.409	0.0147018
692.487	0.0147247
692.566	0.0149496
692.644	0.0149352
692.722	0.0151196
692.800	0.0148614
692.878	0.0147807
692.956	0.0150973
693.034	0.0149474
693.112	0.0148901
693.191	0.0146679
693.269	0.0149421
693.347	0.0150321
693.425	0.0148064
693.503	0.0146513
693.581	0.0147591
693.659	0.0146736
693.737	0.0146886
693.816	0.0146201
693.894	0.0146397
693.972	0.0146575
694.050	0.0146080
694.128	0.0147363
694.206	0.0146759
694.284	0.0146669
694.362	0.0146606
694.441	0.0145875
694.519	0.0146810
694.597	0.0145634
694.675	0.0146597
694.753	0.0145960
694.831	0.0146228
694.909	0.0145977
694.987	0.0144794
695.066	0.0144290
695.144	0.0144532
695.222	0.0143961
695.300	0.0144733
695.378	0.0144826
695.456	0.0143909
695.534	0.0144241
695.612	0.0144610
695.691	0.0144370
695.769	0.0145611
695.847	0.0145312
695.925	0.0146281
696.003	0.0146614
696.081	0.0146171
696.159	0.0147472
696.237	0.0148043
696.316	0.0145904
696.394	0.0147150
696.472	0.0147807
696.550	0.0148612
696.628	0.0145694
696.706	0.0147485
696.784	0.0147826
696.862	0.0146893
696.941	0.0145877
697.019	0.0149330
697.097	0.0147692
697.175	0.0147320
697.253	0.0147414
697.331	0.0148405
697.409	0.0147708
697.487	0.0148076
697.566	0.0147913
697.644	0.0147124
697.722	0.0147788
697.800	0.0147220
697.878	0.0146368
697.956	0.0145587
698.034	0.0145117
698.112	0.0143908
698.191	0.0144572
698.269	0.0142284
698.347	0.0141691
698.425	0.0143158
698.503	0.0141328
698.581	0.0141617
698.659	0.0140636
698.737	0.0142085
698.816	0.0141147
698.894	0.0140440
698.972	0.0140657
699.050	0.0141479
699.128	0.0143405
699.206	0.0143651
699.284	0.0143239
699.362	0.0142397
699.441	0.0144888
699.519	0.0144659
699.597	0.0144495
699.675	0.0144519
699.753	0.0146403
699.831	0.0145722
699.909	0.0146278
699.987	0.0147558
700.066	0.0148948
700.144	0.0147649
700.222	0.0149563
700.300	0.0148370
700.378	0.0149255
700.456	0.0148525
700.534	0.0148199
700.612	0.0149878
700.691	0.0147932
700.769	0.0148914
700.847	0.0148899
700.925	0.0148029
701.003	0.0148418
701.081	0.0149490
701.159	0.0148776
701.237	0.0148191
701.316	0.0147986
701.394	0.0148668
701.472	0.0147637
701.550	0.0147736
701.628	0.0147189
701.706	0.0147150
701.784	0.0147803
701.862	0.0147092
701.941	0.0148518
702.019	0.0147193
702.097	0.0146608
702.175	0.0146745
702.253	0.0145971
702.331	0.0144432
702.409	0.0146449
702.487	0.0146259
702.566	0.0145729
702.644	0.0145432
702.722	0.0144221
702.800	0.0144707
702.878	0.0143700
702.956	0.0144418
703.034	0.0143604
703.112	0.0143671
703.191	0.0142770
703.269	0.0144456
703.347	0.0143855
703.425	0.0143224
703.503	0.0143227
703.581	0.0143385
703.659	0.0143482
703.737	0.0144588
703.816	0.0143780
703.894	0.0143418
703.972	0.0144221
704.050	0.0143965
704.128	0.0145191
704.206	0.0147556
704.284	0.0145804
704.362	0.0145871
704.441	0.0148162
704.519	0.0146552
704.597	0.0147128
704.675	0.0147271
704.753	0.0147346
704.831	0.0148395
704.909	0.0146262
704.987	0.0147641
705.066	0.0148096
705.144	0.0147337
705.222	0.0147376
705.300	0.0147521
705.378	0.0147275
705.456	0.0148411
705.534	0.0148703
705.612	0.0146747
705.691	0.0148202
705.769	0.0147433
705.847	0.0148791
705.925	0.0149320
706.003	0.0148764
706.081	0.0148689
706.159	0.0149562
706.237	0.0148087
706.316	0.0148143
706.394	0.0148606
706.472	0.0149359
706.550	0.0148846
706.628	0.0148046
706.706	0.0148243
706.784	0.0146994
706.862	0.0147366
706.941	0.0148283
707.019	0.0148274
707.097	0.0147927
707.175	0.0146513
707.253	0.0145958
707.331	0.0144633
707.409	0.0145613
707.487	0.0145845
707.566	0.0144636
707.644	0.0144982
707.722	0.0145598
707.800	0.0145894
707.878	0.0144028
707.956	0.0145567
708.034	0.0145388
708.112	0.0143851
708.191	0.0144629
708.269	0.0143730
708.347	0.0143871
708.425	0.0144698
708.503	0.0144591
708.581	0.0144675
708.659	0.0145082
708.737	0.0144939
708.816	0.0145735
708.894	0.0145673
708.972	0.0146780
709.050	0.0146097
709.128	0.0145300
709.206	0.0146954
709.284	0.0146377
709.362	0.0145802
709.441	0.0145707
709.519	0.0145879
709.597	0.0146926
709.675	0.0145788
709.753	0.0147295
709.831	0.0146641
709.909	0.0145600
709.987	0.0146516
710.066	0.0148591
710.144	0.0146400
710.222	0.0146805
710.300	0.0148070
710.378	0.0147576
710.456	0.0146548
710.534	0.0146944
710.612	0.0147557
710.691	0.0148727
710.769	0.0148348
710.847	0.0148318
710.925	0.0147440
711.003	0.0147233
711.081	0.0148093
711.159	0.0147578
711.237	0.0146482
711.316	0.0145897
711.394	0.0145815
711.472	0.0147393
711.550	0.0146870
711.628	0.0147192
711.706	0.0146989
711.784	0.0146633
711.862	0.0147185
711.941	0.0145715
712.019	0.0146457
712.097	0.0146752
712.175	0.0145753
712.253	0.0146897
712.331	0.0147521
712.409	0.0146461
712.487	0.0146461
712.566	0.0145576
712.644	0.0145782
712.722	0.0145405
712.800	0.0144991
712.878	0.0144760
712.956	0.0146030
713.034	0.0145852
713.112	0.0144630
713.191	0.0145082
713.269	0.0145116
713.347	0.0145511
713.425	0.0145307
713.503	0.0144482
713.581	0.0144770
713.659	0.0144529
713.737	0.0145461
713.816	0.0144614
713.894	0.0144640
713.972	0.0144256
714.050	0.0143704
714.128	0.0144861
714.206	0.0144437
714.284	0.0144154
714.362	0.0145014
714.441	0.0144093
714.519	0.0144322
714.597	0.0146226
714.675	0.0145648
714.753	0.0142895
714.831	0.0145307
714.909	0.0145887
714.987	0.0144413
715.066	0.0145093
715.144	0.0144356
715.222	0.0143759
715.300	0.0143970
715.378	0.0146957
715.456	0.0147117
715.534	0.0145361
715.612	0.0144823
715.691	0.0146616
715.769	0.0145258
715.847	0.0146198
715.925	0.0146024
716.003	0.0144481
716.081	0.0146462
716.159	0.0144535
716.237	0.0144395
716.316	0.0144524
716.394	0.0145464
716.472	0.0145361
716.550	0.0145319
716.628	0.0145030
716.706	0.0145786
716.784	0.0145074
716.862	0.0144911
716.941	0.0146412
717.019	0.0146412
717.097	0.0146857
717.175	0.0145784
717.253	0.0144861
717.331	0.0145552
717.409	0.0146326
717.487	0.0145181
717.566	0.0144573
717.644	0.0144619
717.722	0.0146243
717.800	0.0146632
717.878	0.0145157
717.956	0.0146029
718.034	0.0146978
718.112	0.0145721
718.191	0.0144608
718.269	0.0145000
718.347	0.0145363
718.425	0.0145351
718.503	0.0144714
718.581	0.0143665
718.659	0.0144892
718.737	0.0144447
718.816	0.0143844
718.894	0.0143060
718.972	0.0143431
719.050	0.0143407
719.128	0.0143796
719.206	0.0143608
719.284	0.0144601
719.362	0.0143301
719.441	0.0144019
719.519	0.0144112
719.597	0.0145255
719.675	0.0144939
719.753	0.0146348
719.831	0.0147294
719.909	0.0146450
719.987	0.0146850
720.066	0.0146217
720.144	0.0146115
720.222	0.0147224
720.300	0.0148100
720.378	0.0148282
720.456	0.0149026
720.534	0.0148470
720.612	0.0147855
720.691	0.0148045
720.769	0.0147472
720.847	0.0148332
720.925	0.0148473
721.003	0.0147787
721.081	0.0148333
721.159	0.0147259
721.237	0.0147270
721.316	0.0147032
721.394	0.0148067
721.472	0.0148529
721.550	0.0149198
721.628	0.0148634
721.706	0.0147271
721.784	0.0147092
721.862	0.0147544
721.941	0.0147502
722.019	0.0148122
722.097	0.0149014
722.175	0.0147850
722.253	0.0146281
722.331	0.0148058
722.409	0.0147361
722.487	0.0147073
722.566	0.0146869
722.644	0.0146482
722.722	0.0147517
722.800	0.0146152
722.878	0.0145970
722.956	0.0146058
723.034	0.0146956
723.112	0.0145226
723.191	0.0144265
723.269	0.0144812
723.347	0.0143114
723.425	0.0143596
723.503	0.0144066
723.581	0.0144053
723.659	0.0143900
723.737	0.0144462
723.816	0.0142830
723.894	0.0142818
723.972	0.0141985
724.050	0.0144172
724.128	0.0142390
724.206	0.0144209
724.284	0.0144540
724.362	0.0143709
724.441	0.0143259
724.519	0.0144611
724.597	0.0144570
724.675	0.0146268
724.753	0.0145457
724.831	0.0146175
724.909	0.0144804
724.987	0.0145045
725.066	0.0146571
725.144	0.0147417
725.222	0.0147360
725.300	0.0146746
725.378	0.0146790
725.456	0.0146564
725.534	0.0146612
725.612	0.0146752
725.691	0.0145670
725.769	0.0145047
725.847	0.0145051
725.925	0.0145875
726.003	0.0144691
726.081	0.0145716
726.159	0.0145524
726.237	0.0144865
726.316	0.0144547
726.394	0.0143797
726.472	0.0144438
726.550	0.0142646
726.628	0.0144691
726.706	0.0145275
726.784	0.0142833
726.862	0.0143945
726.941	0.0143563
727.019	0.0143069
727.097	0.0142790
727.175	0.0143301
727.253	0.0143241
727.331	0.0143138
727.409	0.0144682
727.487	0.0143308
727.566	0.0143400
727.644	0.0143909
727.722	0.0144785
727.800	0.0144724
727.878	0.0143494
727.956	0.0145374
728.034	0.0144779
728.112	0.0145622
728.191	0.0143314
728.269	0.0146152
728.347	0.0145604
728.425	0.0144990
728.503	0.0145974
728.581	0.0146495
728.659	0.0146489
728.737	0.0146417
728.816	0.0146678
728.894	0.0146355
728.972	0.0144925
729.050	0.0146149
729.128	0.0146385
729.206	0.0145976
729.284	0.0145991
729.362	0.0145112
729.441	0.0146243
729.519	0.0147230
729.597	0.0145785
729.675	0.0147240
729.753	0.0148221
729.831	0.0149033
729.909	0.0147726
729.987	0.0147584
730.066	0.0147518
730.144	0.0148631
730.222	0.0147781
730.300	0.0148579
730.378	0.0148176
730.456	0.0147643
730.534	0.0146359
730.612	0.0146066
730.691	0.0146490
730.769	0.0146772
730.847	0.0145578
730.925	0.0144655
731.003	0.0144756
731.081	0.0144601
731.159	0.0145904
731.237	0.0144836
731.316	0.0143159
731.394	0.0145364
731.472	0.0143315
731.550	0.0144470
731.628	0.0144086
731.706	0.0143849
731.784	0.0144128
731.862	0.0143044
731.941	0.0143472
732.019	0.0143446
732.097	0.0143307
732.175	0.0142885
732.253	0.0142319
732.331	0.0142371
732.409	0.0142756
732.487	0.0143055
732.566	0.0142220
732.644	0.0140772
732.722	0.0141783
732.800	0.0143242
732.878	0.0141588
732.956	0.0141631
733.034	0.0141854
733.112	0.0142087
733.191	0.0143478
733.269	0.0142971
733.347	0.0143941
733.425	0.0144615
733.503	0.0142279
733.581	0.0141872
733.659	0.0144250
733.737	0.0143149
733.816	0.0144103
733.894	0.0143240
733.972	0.0145157
734.050	0.0143596
734.128	0.0143327
734.206	0.0143016
734.284	0.0143986
734.362	0.0143949
734.441	0.0144532
734.519	0.0145310
734.597	0.0144054
734.675	0.0145014
734.753	0.0145252
734.831	0.0145811
734.909	0.0144826
734.987	0.0143880
735.066	0.0144239
735.144	0.0144565
735.222	0.0143996
735.300	0.0143620
735.378	0.0144537
735.456	0.0144617
735.534	0.0144899
735.612	0.0145040
735.691	0.0144173
735.769	0.0144456
735.847	0.0144181
735.925	0.0144933
736.003	0.0145237
736.081	0.0145345
736.159	0.0143834
736.237	0.0145928
736.316	0.0144196
736.394	0.0143690
736.472	0.0144680
736.550	0.0144644
736.628	0.0146725
736.706	0.0145794
736.784	0.0145083
736.862	0.0145332
736.941	0.0145943
737.019	0.0145978
737.097	0.0145646
737.175	0.0146507
737.253	0.0145222
737.331	0.0145513
737.409	0.0146765
737.487	0.0146109
737.566	0.0146781
737.644	0.0146451
737.722	0.0146531
737.800	0.0146525
737.878	0.0146188
737.956	0.0148585
738.034	0.0148090
738.112	0.0147818
738.191	0.0147348
738.269	0.0147151
738.347	0.0146378
738.425	0.0147840
738.503	0.0148739
738.581	0.0146627
738.659	0.0147658
738.737	0.0147305
738.816	0.0146359
738.894	0.0147025
738.972	0.0147242
739.050	0.0147607
739.128	0.0146087
739.206	0.0145238
739.284	0.0146046
739.362	0.0146674
739.441	0.0145160
739.519	0.0145063
739.597	0.0145630
739.675	0.0145391
739.753	0.0146265
739.831	0.0145761
739.909	0.0146391
739.987	0.0146342
740.066	0.0146951
740.144	0.0147682
740.222	0.0145645
740.300	0.0145600
740.378	0.0147861
740.456	0.0148272
740.534	0.0147646
740.612	0.0147157
740.691	0.0147555
740.769	0.0148961
740.847	0.0147498
740.925	0.0147637
741.003	0.0148479
741.081	0.0146521
741.159	0.0148416
741.237	0.0147691
741.316	0.0148207
741.394	0.0147838
741.472	0.0146378
741.550	0.0148133
741.628	0.0148205
741.706	0.0149205
741.784	0.0147733
741.862	0.0148327
741.941	0.0148755
742.019	0.0147708
742.097	0.0148255
742.175	0.0149355
742.253	0.0148505
742.331	0.0148304
742.409	0.0147221
742.487	0.0146734
742.566	0.0147411
742.644	0.0148141
742.722	0.0147488
742.800	0.0148663
742.878	0.0146832
742.956	0.0146106
743.034	0.0147723
743.112	0.0146635
743.191	0.0146461
743.269	0.0146809
743.347	0.0146096
743.425	0.0145620
743.503	0.0145380
743.581	0.0145595
743.659	0.0147795
743.737	0.0145799
743.816	0.0145911
743.894	0.0146626
743.972	0.0145984
744.050	0.0145555
744.128	0.0145499
744.206	0.0144376
744.284	0.0143954
744.362	0.0143742
744.441	0.0143504
744.519	0.0142952
744.597	0.0143404
744.675	0.0144236
744.753	0.0142590
744.831	0.0142839
744.909	0.0141945
744.987	0.0142865
745.066	0.0145004
745.144	0.0144386
745.222	0.0144305
745.300	0.0141942
745.378	0.0143552
745.456	0.0144116
745.534	0.0145100
745.612	0.0143195
745.691	0.0143990
745.769	0.0144854
745.847	0.0144029
745.925	0.0144866
746.003	0.0144594
746.081	0.0142458
746.159	0.0145531
746.237	0.0144681
746.316	0.0144609
746.394	0.0144257
746.472	0.0145185
746.550	0.0145804
746.628	0.0144724
746.706	0.0146856
746.784	0.0146384
746.862	0.0146947
746.941	0.0145802
747.019	0.0146217
747.097	0.0147823
747.175	0.0147089
747.253	0.0147157
747.331	0.0147312
747.409	0.0146945
747.487	0.0145577
747.566	0.0147195
747.644	0.0148150
747.722	0.0147121
747.800	0.0147285
747.878	0.0147851
747.956	0.0147195
748.034	0.0148271
748.112	0.0146670
748.191	0.0147332
748.269	0.0147224
748.347	0.0148764
748.425	0.0149011
748.503	0.0146980
748.581	0.0148989
748.659	0.0146695
748.737	0.0148506
748.816	0.0148008
748.894	0.0148106
748.972	0.0149667
749.050	0.0148196
749.128	0.0146937
749.206	0.0148198
749.284	0.0148817
749.362	0.0147634
749.441	0.0147200
749.519	0.0147183
749.597	0.0147141
749.675	0.0147761
749.753	0.0146372
749.831	0.0147566
749.909	0.0147798
749.987	0.0147400
750.066	0.0145821
750.144	0.0145892
750.222	0.0146294
750.300	0.0145532
750.378	0.0146555
750.456	0.0146608
750.534	0.0146818
750.612	0.0146748
750.691	0.0145721
750.769	0.0145532
750.847	0.0145761
750.925	0.0146494
751.003	0.0145793
751.081	0.0145720
751.159	0.0145763
751.237	0.0145874
751.316	0.0145874
751.394	0.0147032
751.472	0.0146797
751.550	0.0147568
751.628	0.0145444
751.706	0.0145665
751.784	0.0147066
751.862	0.0145725
751.941	0.0144948
752.019	0.0146642
752.097	0.0146103
752.175	0.0145677
752.253	0.0146818
752.331	0.0146996
752.409	0.0146329
752.487	0.0147256
752.566	0.0147803
752.644	0.0148369
752.722	0.0145855
752.800	0.0145408
752.878	0.0145859
752.956	0.0146787
753.034	0.0145522
753.112	0.0146339
753.191	0.0145943
753.269	0.0146800
753.347	0.0145945
753.425	0.0145670
753.503	0.0144260
753.581	0.0144422
753.659	0.0144685
753.737	0.0144493
753.816	0.0144883
753.894	0.0144678
753.972	0.0144859
754.050	0.0143212
754.128	0.0141689
754.206	0.0142658
754.284	0.0143324
754.362	0.0144908
754.441	0.0143819
754.519	0.0143087
754.597	0.0143382
754.675	0.0143734
754.753	0.0142276
754.831	0.0143978
754.909	0.0142383
754.987	0.0144101
755.066	0.0144411
755.144	0.0142633
755.222	0.0143906
755.300	0.0143488
755.378	0.0143204
755.456	0.0143735
755.534	0.0144680
755.612	0.0145752
755.691	0.0143420
755.769	0.0143887
755.847	0.0145492
755.925	0.0145234
756.003	0.0144884
756.081	0.0144749
756.159	0.0144906
756.237	0.0144963
756.316	0.0145334
756.394	0.0143644
756.472	0.0145102
756.550	0.0146079
756.628	0.0145504
756.706	0.0144241
756.784	0.0145240
756.862	0.0143114
756.941	0.0144279
757.019	0.0145493
757.097	0.0144847
757.175	0.0144867
757.253	0.0145832
757.331	0.0146019
757.409	0.0145665
757.487	0.0143536
757.566	0.0146952
757.644	0.0147080
757.722	0.0145263
757.800	0.0146973
757.878	0.0146481
757.956	0.0146355
758.034	0.0144435
758.112	0.0144676
758.191	0.0145047
758.269	0.0146993
758.347	0.0144886
758.425	0.0144759
758.503	0.0145432
758.581	0.0145419
758.659	0.0143984
758.737	0.0146024
758.816	0.0145599
758.894	0.0145793
758.972	0.0145116
759.050	0.0145951
759.128	0.0146816
759.206	0.0147182
759.284	0.0145324
759.362	0.0146867
759.441	0.0147449
759.519	0.0145293
759.597	0.0146170
759.675	0.0144950
759.753	0.0146095
759.831	0.0147379
759.909	0.0146307
759.987	0.0147588
760.066	0.0145938
760.144	0.0146753
760.222	0.0145084
760.300	0.0145186
760.378	0.0146563
760.456	0.0146574
760.534	0.0146290
760.612	0.0147019
760.691	0.0146438
760.769	0.0145943
760.847	0.0145776
760.925	0.0145379
761.003	0.0146049
761.081	0.0146063
761.159	0.0146111
761.237	0.0146351
761.316	0.0145860
761.394	0.0146362
761.472	0.0146705
761.550	0.0146660
761.628	0.0147720
761.706	0.0145978
761.784	0.0148515
761.862	0.0147002
761.941	0.0148434
762.019	0.0146532
762.097	0.0146733
762.175	0.0147100
762.253	0.0146717
762.331	0.0147467
762.409	0.0148068
762.487	0.0147282
762.566	0.0146936
762.644	0.0147265
762.722	0.0147699
762.800	0.0147446
762.878	0.0147703
762.956	0.0148391
763.034	0.0146459
763.112	0.0146223
763.191	0.0149114
763.269	0.0149214
763.347	0.0148225
763.425	0.0147105
763.503	0.0147474
763.581	0.0149052
763.659	0.0147775
763.737	0.0146581
763.816	0.0148042
763.894	0.0148145
763.972	0.0148042
764.050	0.0149408
764.128	0.0148396
764.206	0.0148923
764.284	0.0148632
764.362	0.0148321
764.441	0.0148292
764.519	0.0147281
764.597	0.0147330
764.675	0.0149207
764.753	0.0146854
764.831	0.0148888
764.909	0.0147265
764.987	0.0147283
765.066	0.0146814
765.144	0.0146879
765.222	0.0146909
765.300	0.0145995
765.378	0.0146914
765.456	0.0147033
765.534	0.0148230
765.612	0.0147960
765.691	0.0146902
765.769	0.0147084
765.847	0.0145991
765.925	0.0146456
766.003	0.0146638
766.081	0.0147257
766.159	0.0146902
766.237	0.0145798
766.316	0.0147934
766.394	0.0146016
766.472	0.0145879
766.550	0.0147626
766.628	0.0146758
766.706	0.0145615
766.784	0.0146234
766.862	0.0146103
766.941	0.0145861
767.019	0.0144731
767.097	0.0145391
767.175	0.0146555
767.253	0.0145164
767.331	0.0145142
767.409	0.0147094
767.487	0.0145393
767.566	0.0145234
767.644	0.0146052
767.722	0.0145811
767.800	0.0145815
767.878	0.0146425
767.956	0.0145323
768.034	0.0145870
768.112	0.0146505
768.191	0.0146495
768.269	0.0148270
768.347	0.0145146
768.425	0.0146909
768.503	0.0146999
768.581	0.0148209
768.659	0.0147047
768.737	0.0147634
768.816	0.0148223
768.894	0.0147330
768.972	0.0148622
769.050	0.0149609
769.128	0.0148342
769.206	0.0147825
769.284	0.0149230
769.362	0.0149519
769.441	0.0148622
769.519	0.0148699
769.597	0.0148288
769.675	0.0148767
769.753	0.0150150
769.831	0.0148556
769.909	0.0149677
769.987	0.0148283
770.066	0.0147943
770.144	0.0149608
770.222	0.0148351
770.300	0.0148199
770.378	0.0147247
770.456	0.0148200
770.534	0.0147791
770.612	0.0146124
770.691	0.0147371
770.769	0.0147160
770.847	0.0145934
770.925	0.0146622
771.003	0.0144626
771.081	0.0145807
771.159	0.0147205
771.237	0.0145191
771.316	0.0144949
771.394	0.0145187
771.472	0.0144287
771.550	0.0146280
771.628	0.0146883
771.706	0.0147046
771.784	0.0146386
771.862	0.0145647
771.941	0.0146140
772.019	0.0145911
772.097	0.0147171
772.175	0.0146336
772.253	0.0145836
772.331	0.0145392
772.409	0.0145707
772.487	0.0145530
772.566	0.0146203
772.644	0.0146303
772.722	0.0146697
772.800	0.0145479
772.878	0.0146250
772.956	0.0146191
773.034	0.0147291
773.112	0.0146216
773.191	0.0146386
773.269	0.0147517
773.347	0.0147204
773.425	0.0146294
773.503	0.0147600
773.581	0.0149451
773.659	0.0148193
773.737	0.0147677
773.816	0.0147600
773.894	0.0147787
773.972	0.0147170
774.050	0.0147559
774.128	0.0148915
774.206	0.0148159
774.284	0.0148528
774.362	0.0148134
774.441	0.0147858
774.519	0.0147736
774.597	0.0148797
774.675	0.0147644
774.753	0.0147966
774.831	0.0148783
774.909	0.0147539
774.987	0.0148018
775.066	0.0146792
775.144	0.0147763
775.222	0.0147477
775.300	0.0146583
775.378	0.0146515
775.456	0.0145626
775.534	0.0145473
775.612	0.0145290
775.691	0.0145718
775.769	0.0145193
775.847	0.0145555
775.925	0.0144443
776.003	0.0142854
776.081	0.0144704
776.159	0.0144203
776.237	0.0144699
776.316	0.0144658
776.394	0.0143745
776.472	0.0142856
776.550	0.0144375
776.628	0.0144705
776.706	0.0145014
776.784	0.0143921
776.862	0.0143516
776.941	0.0144263
777.019	0.0144849
777.097	0.0145171
777.175	0.0145035
777.253	0.0143055
777.331	0.0144248
777.409	0.0145306
777.487	0.0146891
777.566	0.0145959
777.644	0.0146074
777.722	0.0145335
777.800	0.0143314
777.878	0.0144490
777.956	0.0145954
778.034	0.0145531
778.112	0.0145719
778.191	0.0145529
778.269	0.0145428
778.347	0.0145358
778.425	0.0146075
778.503	0.0146080
778.581	0.0146354
778.659	0.0145677
778.737	0.0145963
778.816	0.0147253
778.894	0.0146658
778.972	0.0146571
779.050	0.0147023
779.128	0.0145905
779.206	0.0145290
779.284	0.0146681
779.362	0.0147224
779.441	0.0146035
779.519	0.0145769
779.597	0.0146767
779.675	0.0145795
779.753	0.0147641
779.831	0.0146614
779.909	0.0145348
779.987	0.0145564
780.066	0.0146962
780.144	0.0146660
780.222	0.0146663
780.300	0.0146104
780.378	0.0146064
780.456	0.0146323
780.534	0.0144853
780.612	0.0145995
780.691	0.0145827
780.769	0.0145963
780.847	0.0145653
780.925	0.0146493
781.003	0.0146609
781.081	0.0146452
781.159	0.0145596
781.237	0.0145206
781.316	0.0145154
781.394	0.0144212
781.472	0.0144388
781.550	0.0144723
781.628	0.0144167
781.706	0.0144501
781.784	0.0144460
781.862	0.0142981
781.941	0.0143674
782.019	0.0143262
782.097	0.0143377
782.175	0.0145161
782.253	0.0144128
782.331	0.0143374
782.409	0.0143692
782.487	0.0143002
782.566	0.0144283
782.644	0.0144701
782.722	0.0144941
782.800	0.0144786
782.878	0.0146282
782.956	0.0144988
783.034	0.0145937
783.112	0.0147356
783.191	0.0146966
783.269	0.0145823
783.347	0.0146349
783.425	0.0145786
783.503	0.0146231
783.581	0.0147123
783.659	0.0145399
783.737	0.0145644
783.816	0.0145988
783.894	0.0144363
783.972	0.0147301
784.050	0.0145629
784.128	0.0144838
784.206	0.0145347
784.284	0.0145142
784.362	0.0145275
784.441	0.0145651
784.519	0.0146251
784.597	0.0146030
784.675	0.0145483
784.753	0.0146128
784.831	0.0144946
784.909	0.0144987
784.987	0.0146230
785.066	0.0146137
785.144	0.0145463
785.222	0.0146445
785.300	0.0146526
785.378	0.0146468
785.456	0.0147661
785.534	0.0148124
785.612	0.0148544
785.691	0.0146833
785.769	0.0146831
785.847	0.0148226
785.925	0.0147974
786.003	0.0149017
786.081	0.0148558
786.159	0.0148605
786.237	0.0148605
786.316	0.0148324
786.394	0.0148335
786.472	0.0148371
786.550	0.0147967
786.628	0.0147892
786.706	0.0147696
786.784	0.0148935
786.862	0.0149131
786.941	0.0149718
787.019	0.0148851
787.097	0.0148946
787.175	0.0148710
787.253	0.0149619
787.331	0.0150499
787.409	0.0148930
787.487	0.0149558
787.566	0.0149079
787.644	0.0149228
787.722	0.0149178
787.800	0.0148817
787.878	0.0149715
787.956	0.0147868
788.034	0.0147929
788.112	0.0148214
788.191	0.0148466
788.269	0.0146818
788.347	0.0147578
788.425	0.0147583
788.503	0.0147796
788.581	0.0146826
788.659	0.0148782
788.737	0.0147381
788.816	0.0146993
788.894	0.0145897
788.972	0.0145975
789.050	0.0146554
789.128	0.0146510
789.206	0.0144900
789.284	0.0145329
789.362	0.0145452
789.441	0.0145751
789.519	0.0145698
789.597	0.0146099
789.675	0.0145040
789.753	0.0146034
789.831	0.0146566
789.909	0.0144875
789.987	0.0145277
790.066	0.0145781
790.144	0.0146363
790.222	0.0146944
790.300	0.0146525
790.378	0.0145377
790.456	0.0145379
790.534	0.0145913
790.612	0.0146375
790.691	0.0146198
790.769	0.0145924
790.847	0.0145864
790.925	0.0145951
791.003	0.0146831
791.081	0.0144411
791.159	0.0144966
791.237	0.0146313
791.316	0.0144141
791.394	0.0144133
791.472	0.0144977
791.550	0.0145026
791.628	0.0144610
791.706	0.0142889
791.784	0.0144696
791.862	0.0143999
791.941	0.0144438
792.019	0.0143221
792.097	0.0144336
792.175	0.0142867
792.253	0.0144657
792.331	0.0144724
792.409	0.0144189
792.487	0.0144367
792.566	0.0144196
792.644	0.0146227
792.722	0.0145452
792.800	0.0143797
792.878	0.0144941
792.956	0.0144319
793.034	0.0144728
793.112	0.0143867
793.191	0.0144262
793.269	0.0146313
793.347	0.0144812
793.425	0.0144581
793.503	0.0145788
793.581	0.0146220
793.659	0.0147079
793.737	0.0146828
793.816	0.0146440
793.894	0.0145234
793.972	0.0145654
794.050	0.0146017
794.128	0.0146317
794.206	0.0146071
794.284	0.0146394
794.362	0.0145834
794.441	0.0146796
794.519	0.0147919
794.597	0.0146275
794.675	0.0145906
794.753	0.0145773
794.831	0.0147128
794.909	0.0145949
794.987	0.0145354
795.066	0.0145237
795.144	0.0144400
795.222	0.0145743
795.300	0.0146091
795.378	0.0145045
795.456	0.0144785
795.534	0.0145342
795.612	0.0144875
795.691	0.0144132
795.769	0.0145128
795.847	0.0145972
795.925	0.0144531
796.003	0.0143931
796.081	0.0144444
796.159	0.0144014
796.237	0.0144633
796.316	0.0144469
796.394	0.0144041
796.472	0.0143452
796.550	0.0144902
796.628	0.0144732
796.706	0.0144789
796.784	0.0143018
796.862	0.0144688
796.941	0.0145280
797.019	0.0144952
797.097	0.0144920
797.175	0.0144617
797.253	0.0145084
797.331	0.0145475
797.409	0.0144248
797.487	0.0144273
797.566	0.0146806
797.644	0.0146073
797.722	0.0146465
797.800	0.0145766
797.878	0.0144648
797.956	0.0146132
798.034	0.0146255
798.112	0.0147501
798.191	0.0146499
798.269	0.0146991
798.347	0.0145926
798.425	0.0146427
798.503	0.0147226
798.581	0.0146268
798.659	0.0146415
798.737	0.0146584
798.816	0.0145972
798.894	0.0145960
798.972	0.0147897
799.050	0.0146788
799.128	0.0146574
799.206	0.0146701
799.284	0.0144939
799.362	0.0148332
799.441	0.0147020
799.519	0.0145535
799.597	0.0146521
799.675	0.0148579
799.753	0.0146287
799.831	0.0147781
799.909	0.0147835
799.987	0.0147917
800.066	0.0148321
800.144	0.0148558
800.222	0.0147533
800.300	0.0148600
800.378	0.0148880
800.456	0.0148531
800.534	0.0149273
800.612	0.0147916
800.691	0.0148260
800.769	0.0148836
800.847	0.0147994
800.925	0.0149997
801.003	0.0147794
801.081	0.0149612
801.159	0.0149886
801.237	0.0149107
801.316	0.0149361
801.394	0.0148306
801.472	0.0148829
801.550	0.0150340
801.628	0.0149242
801.706	0.0148151
801.784	0.0148837
801.862	0.0147589
801.941	0.0149374
802.019	0.0146867
802.097	0.0146609
802.175	0.0146754
802.253	0.0145509
802.331	0.0144996
802.409	0.0144868
802.487	0.0144485
802.566	0.0144707
802.644	0.0143318
802.722	0.0144632
802.800	0.0144751
802.878	0.0143592
802.956	0.0144625
803.034	0.0146131
803.112	0.0144337
803.191	0.0143263
803.269	0.0144506
803.347	0.0144709
803.425	0.0145313
803.503	0.0143948
803.581	0.0143513
803.659	0.0141634
803.737	0.0141698
803.816	0.0142788
803.894	0.0143123
803.972	0.0141170
804.050	0.0141531
804.128	0.0143967
804.206	0.0142903
804.284	0.0143234
804.362	0.0143909
804.441	0.0143545
804.519	0.0142513
804.597	0.0142856
804.675	0.0142821
804.753	0.0142134
804.831	0.0142954
804.909	0.0142689
804.987	0.0144453
805.066	0.0141565
805.144	0.0142043
805.222	0.0142567
805.300	0.0142760
805.378	0.0142968
805.456	0.0141461
805.534	0.0141037
805.612	0.0142274
805.691	0.0142862
805.769	0.0144025
805.847	0.0144109
805.925	0.0143914
806.003	0.0143258
806.081	0.0143919
806.159	0.0143530
806.237	0.0144881
806.316	0.0145264
806.394	0.0142919
806.472	0.0144083
806.550	0.0145847
806.628	0.0146754
806.706	0.0146213
806.784	0.0144669
806.862	0.0145675
806.941	0.0146329
807.019	0.0145356
807.097	0.0145167
807.175	0.0145525
807.253	0.0146709
807.331	0.0146948
807.409	0.0145147
807.487	0.0146883
807.566	0.0147661
807.644	0.0146296
807.722	0.0147383
807.800	0.0147939
807.878	0.0146935
807.956	0.0147205
808.034	0.0146529
808.112	0.0146190
808.191	0.0147223
808.269	0.0147063
808.347	0.0147089
808.425	0.0148045
808.503	0.0146246
808.581	0.0146843
808.659	0.0145647
808.737	0.0146622
808.816	0.0147157
808.894	0.0147456
808.972	0.0147193
809.050	0.0147060
809.128	0.0147768
809.206	0.0146323
809.284	0.0147045
809.362	0.0148109
809.441	0.0147757
809.519	0.0148621
809.597	0.0147523
809.675	0.0147725
809.753	0.0146672
809.831	0.0148017
809.909	0.0147160
809.987	0.0145699
810.066	0.0147765
810.144	0.0146032
810.222	0.0146281
810.300	0.0145732
810.378	0.0147852
810.456	0.0146674
810.534	0.0146121
810.612	0.0146720
810.691	0.0146416
810.769	0.0144336
810.847	0.0144395
810.925	0.0146986
811.003	0.0146487
811.081	0.0147389
811.159	0.0145212
811.237	0.0146882
811.316	0.0145203
811.394	0.0144913
811.472	0.0145193
811.550	0.0146880
811.628	0.0146542
811.706	0.0146457
811.784	0.0145592
811.862	0.0145865
811.941	0.0145971
812.019	0.0144823
812.097	0.0145956
812.175	0.0145788
812.253	0.0144928
812.331	0.0144210
812.409	0.0143635
812.487	0.0144004
812.566	0.0145569
812.644	0.0145686
812.722	0.0145620
812.800	0.0143946
812.878	0.0144780
812.956	0.0144899
813.034	0.0145023
813.112	0.0146066
813.191	0.0146359
813.269	0.0146312
813.347	0.0145644
813.425	0.0144508
813.503	0.0144405
813.581	0.0145463
813.659	0.0144965
813.737	0.0145811
813.816	0.0144869
813.894	0.0143705
813.972	0.0144523
814.050	0.0144991
814.128	0.0144672
814.206	0.0145099
814.284	0.0144235
814.362	0.0145461
814.441	0.0145785
814.519	0.0143629
814.597	0.0143644
814.675	0.0144151
814.753	0.0145444
814.831	0.0144229
814.909	0.0144701
814.987	0.0143616
815.066	0.0145998
815.144	0.0145001
815.222	0.0143668
815.300	0.0144174
815.378	0.0144647
815.456	0.0144019
815.534	0.0145313
815.612	0.0144251
815.691	0.0145096
815.769	0.0143871
815.847	0.0143649
815.925	0.0146005
816.003	0.0146174
816.081	0.0145734
816.159	0.0145786
816.237	0.0146404
816.316	0.0145471
816.394	0.0144441
816.472	0.0144327
816.550	0.0145016
816.628	0.0145607
816.706	0.0144598
816.784	0.0144662
816.862	0.0144484
816.941	0.0145039
817.019	0.0145543
817.097	0.0144373
817.175	0.0145842
817.253	0.0144547
817.331	0.0146156
817.409	0.0145388
817.487	0.0145237
817.566	0.0145728
817.644	0.0145582
817.722	0.0145485
817.800	0.0145937
817.878	0.0146184
817.956	0.0147543
818.034	0.0146497
818.112	0.0147444
818.191	0.0147429
818.269	0.0147918
818.347	0.0145863
818.425	0.0146973
818.503	0.0146472
818.581	0.0146617
818.659	0.0148981
818.737	0.0149164
818.816	0.0147680
818.894	0.0147447
818.972	0.0147795
819.050	0.0147845
819.128	0.0147276
819.206	0.0146573
819.284	0.0147839
819.362	0.0146583
819.441	0.0146583
819.519	0.0147279
819.597	0.0147984
819.675	0.0147830
819.753	0.0146255
819.831	0.0145879
819.909	0.0147115
819.987	0.0147152
820.066	0.0147457
820.144	0.0146872
820.222	0.0148030
820.300	0.0148401
820.378	0.0148079
820.456	0.0146523
820.534	0.0146577
820.612	0.0147444
820.691	0.0147346
820.769	0.0147929
820.847	0.0147521
820.925	0.0148212
821.003	0.0146111
821.081	0.0146638
821.159	0.0148687
821.237	0.0147247
821.316	0.0146531
821.394	0.0147074
821.472	0.0147619
821.550	0.0147301
821.628	0.0147382
821.706	0.0146014
821.784	0.0147217
821.862	0.0146553
821.941	0.0147019
822.019	0.0145083
822.097	0.0146702
822.175	0.0146091
822.253	0.0147716
822.331	0.0148064
822.409	0.0145019
822.487	0.0144347
822.566	0.0146825
822.644	0.0145335
822.722	0.0145497
822.800	0.0145725
822.878	0.0146717
822.956	0.0146290
823.034	0.0145418
823.112	0.0145299
823.191	0.0146342
823.269	0.0145959
823.347	0.0146500
823.425	0.0144970
823.503	0.0146804
823.581	0.0146322
823.659	0.0146145
823.737	0.0145782
823.816	0.0144374
823.894	0.0146741
823.972	0.0146764
824.050	0.0145908
824.128	0.0145313
824.206	0.0144865
824.284	0.0146024
824.362	0.0146886
824.441	0.0145778
824.519	0.0145748
824.597	0.0145598
824.675	0.0147698
824.753	0.0147286
824.831	0.0147353
824.909	0.0145448
824.987	0.0147690
825.066	0.0147264
825.144	0.0147878
825.222	0.0147364
825.300	0.0147939
825.378	0.0148819
825.456	0.0148248
825.534	0.0149305
825.612	0.0148112
825.691	0.0149134
825.769	0.0146925
825.847	0.0148342
825.925	0.0148405
826.003	0.0147969
826.081	0.0148454
826.159	0.0148453
826.237	0.0148682
826.316	0.0148833
826.394	0.0147394
826.472	0.0147825
826.550	0.0148872
826.628	0.0147523
826.706	0.0147489
826.784	0.0147240
826.862	0.0146750
826.941	0.0147475
827.019	0.0147720
827.097	0.0148210
827.175	0.0145457
827.253	0.0148331
827.331	0.0146465
827.409	0.0146483
827.487	0.0148115
827.566	0.0147526
827.644	0.0146745
827.722	0.0147765
827.800	0.0147778
827.878	0.0148313
827.956	0.0147890
828.034	0.0149521
828.112	0.0147427
828.191	0.0147543
828.269	0.0148292
828.347	0.0147205
828.425	0.0147896
828.503	0.0148691
828.581	0.0146153
828.659	0.0147482
828.737	0.0148048
828.816	0.0145157
828.894	0.0146381
828.972	0.0145786
829.050	0.0146056
829.128	0.0145128
829.206	0.0144908
829.284	0.0145250
829.362	0.0144331
829.441	0.0143514
829.519	0.0143587
829.597	0.0145641
829.675	0.0145175
829.753	0.0144071
829.831	0.0144094
829.909	0.0145774
829.987	0.0145317
830.066	0.0144006
830.144	0.0144291
830.222	0.0145661
830.300	0.0146309
830.378	0.0144566
830.456	0.0144775
830.534	0.0145233
830.612	0.0143547
830.691	0.0144793
830.769	0.0145484
830.847	0.0144246
830.925	0.0145041
831.003	0.0144101
831.081	0.0145002
831.159	0.0145390
831.237	0.0143369
831.316	0.0144479
831.394	0.0145818
831.472	0.0144876
831.550	0.0145849
831.628	0.0144315
831.706	0.0144479
831.784	0.0145609
831.862	0.0144817
831.941	0.0143801
832.019	0.0144356
832.097	0.0145403
832.175	0.0145457
832.253	0.0143991
832.331	0.0145815
832.409	0.0145721
832.487	0.0145828
832.566	0.0144199
832.644	0.0145273
832.722	0.0145732
832.800	0.0145078
832.878	0.0145914
832.956	0.0146363
833.034	0.0146725
833.112	0.0145274
833.191	0.0144604
833.269	0.0145846
833.347	0.0146249
833.425	0.0145047
833.503	0.0145301
833.581	0.0145298
833.659	0.0147147
833.737	0.0145829
833.816	0.0147585
833.894	0.0145613
833.972	0.0145676
834.050	0.0146194
834.128	0.0145394
834.206	0.0144926
834.284	0.0145936
834.362	0.0145480
834.441	0.0145036
834.519	0.0144448
834.597	0.0144478
834.675	0.0143964
834.753	0.0145248
834.831	0.0143741
834.909	0.0144457
834.987	0.0145432
835.066	0.0143328
835.144	0.0145167
835.222	0.0144244
835.300	0.0144936
835.378	0.0142952
835.456	0.0142926
835.534	0.0143079
835.612	0.0143559
835.691	0.0142793
835.769	0.0143917
835.847	0.0144288
835.925	0.0142889
836.003	0.0142847
836.081	0.0143273
836.159	0.0145262
836.237	0.0144469
836.316	0.0144847
836.394	0.0144876
836.472	0.0143827
836.550	0.0144591
836.628	0.0144891
836.706	0.0144817
836.784	0.0146397
836.862	0.0145530
836.941	0.0144545
837.019	0.0144360
837.097	0.0144479
837.175	0.0143955
837.253	0.0143959
837.331	0.0144292
837.409	0.0145406
837.487	0.0144617
837.566	0.0144056
837.644	0.0145464
837.722	0.0144547
837.800	0.0144956
837.878	0.0144992
837.956	0.0144762
838.034	0.0144379
838.112	0.0144968
838.191	0.0145599
838.269	0.0145734
838.347	0.0145969
838.425	0.0146194
838.503	0.0145749
838.581	0.0146797
838.659	0.0146346
838.737	0.0148327
838.816	0.0147899
838.894	0.0147751
838.972	0.0147906
839.050	0.0148639
839.128	0.0147634
839.206	0.0149078
839.284	0.0148834
839.362	0.0148650
839.441	0.0148409
839.519	0.0147428
839.597	0.0147812
839.675	0.0147086
839.753	0.0148187
839.831	0.0147562
839.909	0.0147844
839.987	0.0149645
840.066	0.0148907
840.144	0.0147980
840.222	0.0148301
840.300	0.0148952
840.378	0.0147245
840.456	0.0148260
840.534	0.0147633
840.612	0.0148027
840.691	0.0147834
840.769	0.0147289
840.847	0.0147262
840.925	0.0147961
841.003	0.0148189
841.081	0.0148888
841.159	0.0148118
841.237	0.0145573
841.316	0.0146086
841.394	0.0147039
841.472	0.0147183
841.550	0.0147259
841.628	0.0147455
841.706	0.0148104
841.784	0.0147751
841.862	0.0148128
841.941	0.0148244
842.019	0.0146664
842.097	0.0146857
842.175	0.0148101
842.253	0.0147894
842.331	0.0146575
842.409	0.0146681
842.487	0.0147442
842.566	0.0146685
842.644	0.0146805
842.722	0.0146751
842.800	0.0146427
842.878	0.0146541
842.956	0.0146484
843.034	0.0148003
843.112	0.0147190
843.191	0.0145306
843.269	0.0145937
843.347	0.0145917
843.425	0.0145225
843.503	0.0146853
843.581	0.0145720
843.659	0.0145602
843.737	0.0145952
843.816	0.0145961
843.894	0.0143392
843.972	0.0145953
844.050	0.0143731
844.128	0.0144028
844.206	0.0144919
844.284	0.0145123
844.362	0.0143900
844.441	0.0143259
844.519	0.0143747
844.597	0.0143773
844.675	0.0144468
844.753	0.0144605
844.831	0.0143805
844.909	0.0143283
844.987	0.0146079
845.066	0.0145182
845.144	0.0145235
845.222	0.0145863
845.300	0.0144436
845.378	0.0145422
845.456	0.0145564
845.534	0.0145710
845.612	0.0145217
845.691	0.0147017
845.769	0.0146137
845.847	0.0146077
845.925	0.0144601
846.003	0.0146898
846.081	0.0146281
846.159	0.0145502
846.237	0.0147289
846.316	0.0146786
846.394	0.0146400
846.472	0.0147086
846.550	0.0146211
846.628	0.0146483
846.706	0.0147227
846.784	0.0147043
846.862	0.0146619
846.941	0.0147121
847.019	0.0145927
847.097	0.0147399
847.175	0.0148156
847.253	0.0145976
847.331	0.0146136
847.409	0.0146683
847.487	0.0146085
847.566	0.0145597
847.644	0.0145836
847.722	0.0145372
847.800	0.0144324
847.878	0.0145687
847.956	0.0146674
848.034	0.0145239
848.112	0.0146160
848.191	0.0145882
848.269	0.0146584
848.347	0.0145763
848.425	0.0146706
848.503	0.0147226
848.581	0.0145721
848.659	0.0146411
848.737	0.0147549
848.816	0.0148559
848.894	0.0148233
848.972	0.0148647
849.050	0.0148218
849.128	0.0147794
849.206	0.0148386
849.284	0.0148509
849.362	0.0146861
849.441	0.0148103
849.519	0.0148920
849.597	0.0149654
849.675	0.0149848
849.753	0.0147430
849.831	0.0148577
849.909	0.0147392
849.987	0.0147717
850.066	0.0149236
850.144	0.0147842
850.222	0.0148173
850.300	0.0146909
850.378	0.0148837
850.456	0.0149905
850.534	0.0148948
850.612	0.0147020
850.691	0.0148070
850.769	0.0148902
850.847	0.0148447
850.925	0.0148290
851.003	0.0147589
851.081	0.0146979
851.159	0.0147604
851.237	0.0147864
851.316	0.0146886
851.394	0.0147321
851.472	0.0146741
851.550	0.0146176
851.628	0.0144872
851.706	0.0145679
851.784	0.0146275
851.862	0.0147868
851.941	0.0146949
852.019	0.0147711
852.097	0.0146901
852.175	0.0147394
852.253	0.0147594
852.331	0.0148084
852.409	0.0148552
852.487	0.0147292
852.566	0.0147916
852.644	0.0148754
852.722	0.0148043
852.800	0.0148325
852.878	0.0148285
852.956	0.0148220
853.034	0.0148677
853.112	0.0147336
853.191	0.0146492
853.269	0.0146521
853.347	0.0145616
853.425	0.0147245
853.503	0.0147651
853.581	0.0144890
853.659	0.0147095
853.737	0.0145517
853.816	0.0146528
853.894	0.0146790
853.972	0.0146183
854.050	0.0146061
854.128	0.0145638
854.206	0.0145551
854.284	0.0145421
854.362	0.0145978
854.441	0.0146577
854.519	0.0146320
854.597	0.0145201
854.675	0.0145875
854.753	0.0144057
854.831	0.0145262
854.909	0.0146159
854.987	0.0145576
855.066	0.0146033
855.144	0.0147636
855.222	0.0147311
855.300	0.0146186
855.378	0.0145567
855.456	0.0145979
855.534	0.0147283
855.612	0.0146774
855.691	0.0146130
855.769	0.0145515
855.847	0.0146277
855.925	0.0145792
856.003	0.0145950
856.081	0.0145721
856.159	0.0145328
856.237	0.0144611
856.316	0.0145364
856.394	0.0144087
856.472	0.0144478
856.550	0.0144215
856.628	0.0143343
856.706	0.0144296
856.784	0.0142466
856.862	0.0142705
856.941	0.0142579
857.019	0.0143293
857.097	0.0144975
857.175	0.0144275
857.253	0.0144861
857.331	0.0145998
857.409	0.0145713
857.487	0.0144884
857.566	0.0144706
857.644	0.0144035
857.722	0.0146224
857.800	0.0146922
857.878	0.0145141
857.956	0.0145148
858.034	0.0143799
858.112	0.0144097
858.191	0.0143922
858.269	0.0143133
858.347	0.0143386
858.425	0.0144217
858.503	0.0144199
858.581	0.0144445
858.659	0.0144234
858.737	0.0143896
858.816	0.0144430
858.894	0.0144197
858.972	0.0145049
859.050	0.0143314
859.128	0.0144836
859.206	0.0144625
859.284	0.0145004
859.362	0.0145295
859.441	0.0146038
859.519	0.0145399
859.597	0.0146721
859.675	0.0147832
859.753	0.0147108
859.831	0.0146715
859.909	0.0146893
859.987	0.0147667
860.066	0.0147645
860.144	0.0146512
860.222	0.0146635
860.300	0.0146489
860.378	0.0146492
860.456	0.0146327
860.534	0.0148057
860.612	0.0147474
860.691	0.0146320
860.769	0.0145669
860.847	0.0147507
860.925	0.0147784
861.003	0.0145922
861.081	0.0145656
861.159	0.0144995
861.237	0.0147078
861.316	0.0145454
861.394	0.0146074
861.472	0.0145228
861.550	0.0145868
861.628	0.0144802
861.706	0.0146128
861.784	0.0147215
861.862	0.0147275
861.941	0.0146695
862.019	0.0147934
862.097	0.0147157
862.175	0.0146407
862.253	0.0146297
862.331	0.0146712
862.409	0.0147133
862.487	0.0148353
862.566	0.0147149
862.644	0.0147276
862.722	0.0147470
862.800	0.0147642
862.878	0.0146468
862.956	0.0146119
863.034	0.0147513
863.112	0.0146407
863.191	0.0146758
863.269	0.0146194
863.347	0.0146355
863.425	0.0146967
863.503	0.0146671
863.581	0.0146515
863.659	0.0147130
863.737	0.0146877
863.816	0.0147706
863.894	0.0147430
863.972	0.0147752
864.050	0.0146780
864.128	0.0147172
864.206	0.0146873
864.284	0.0147230
864.362	0.0145776
864.441	0.0145478
864.519	0.0145770
864.597	0.0144423
864.675	0.0144785
864.753	0.0145128
864.831	0.0144796
864.909	0.0144842
864.987	0.0144138
865.066	0.0145407
865.144	0.0145061
865.222	0.0144209
865.300	0.0144754
865.378	0.0143632
865.456	0.0143075
865.534	0.0143708
865.612	0.0144328
865.691	0.0142977
865.769	0.0143917
865.847	0.0144086
865.925	0.0143423
866.003	0.0143098
866.081	0.0143481
866.159	0.0143916
866.237	0.0143754
866.316	0.0143282
866.394	0.0143597
866.472	0.0144152
866.550	0.0143871
866.628	0.0143324
866.706	0.0143075
866.784	0.0144193
866.862	0.0143613
866.941	0.0143836
867.019	0.0145580
867.097	0.0145170
867.175	0.0144713
867.253	0.0145753
867.331	0.0145081
867.409	0.0146082
867.487	0.0144543
867.566	0.0144758
867.644	0.0144687
867.722	0.0143413
867.800	0.0144508
867.878	0.0144021
867.956	0.0145495
868.034	0.0143909
868.112	0.0144765
868.191	0.0144388
868.269	0.0143849
868.347	0.0145358
868.425	0.0145706
868.503	0.0145393
868.581	0.0145818
868.659	0.0145157
868.737	0.0144249
868.816	0.0144778
868.894	0.0145898
868.972	0.0145380
869.050	0.0144073
869.128	0.0144038
869.206	0.0144894
869.284	0.0145898
869.362	0.0145127
869.441	0.0144400
869.519	0.0144032
869.597	0.0144001
869.675	0.0144032
869.753	0.0145260
869.831	0.0145753
869.909	0.0144359
869.987	0.0144931
870.066	0.0144820
870.144	0.0145123
870.222	0.0146555
870.300	0.0146770
870.378	0.0145943
870.456	0.0147067
870.534	0.0146198
870.612	0.0146478
870.691	0.0147284
870.769	0.0146223
870.847	0.0146344
870.925	0.0146825
871.003	0.0145660
871.081	0.0145523
871.159	0.0144321
871.237	0.0144682
871.316	0.0146083
871.394	0.0145687
871.472	0.0144945
871.550	0.0145003
871.628	0.0145398
871.706	0.0146238
871.784	0.0145064
871.862	0.0145296
871.941	0.0146116
872.019	0.0145770
872.097	0.0145167
872.175	0.0144940
872.253	0.0145062
872.331	0.0144453
872.409	0.0144745
872.487	0.0143543
872.566	0.0144196
872.644	0.0144897
872.722	0.0144090
872.800	0.0143400
872.878	0.0143436
872.956	0.0144482
873.034	0.0143321
873.112	0.0144404
873.191	0.0144626
873.269	0.0144237
873.347	0.0145095
873.425	0.0144885
873.503	0.0145383
873.581	0.0144588
873.659	0.0144876
873.737	0.0145181
873.816	0.0144759
873.894	0.0146455
873.972	0.0144114
874.050	0.0144436
874.128	0.0143356
874.206	0.0143850
874.284	0.0144350
874.362	0.0144021
874.441	0.0145306
874.519	0.0144167
874.597	0.0144769
874.675	0.0142844
874.753	0.0143443
874.831	0.0143134
874.909	0.0143357
874.987	0.0144049
875.066	0.0145287
875.144	0.0143573
875.222	0.0144379
875.300	0.0145092
875.378	0.0142940
875.456	0.0143087
875.534	0.0144179
875.612	0.0142969
875.691	0.0146011
875.769	0.0143973
875.847	0.0143965
875.925	0.0145322
876.003	0.0145117
876.081	0.0145266
876.159	0.0142735
876.237	0.0143620
876.316	0.0144193
876.394	0.0144740
876.472	0.0144118
876.550	0.0144894
876.628	0.0144433
876.706	0.0144247
876.784	0.0144693
876.862	0.0142863
876.941	0.0143298
877.019	0.0143082
877.097	0.0143113
877.175	0.0142243
877.253	0.0143128
877.331	0.0142168
877.409	0.0143971
877.487	0.0143613
877.566	0.0143017
877.644	0.0145252
877.722	0.0144766
877.800	0.0143719
877.878	0.0144267
877.956	0.0145281
878.034	0.0144966
878.112	0.0144999
878.191	0.0145836
878.269	0.0145748
878.347	0.0145621
878.425	0.0146842
878.503	0.0146902
878.581	0.0146054
878.659	0.0146808
878.737	0.0147460
878.816	0.0146902
878.894	0.0146732
878.972	0.0147323
879.050	0.0146440
879.128	0.0147583
879.206	0.0148285
879.284	0.0147321
879.362	0.0147655
879.441	0.0148249
879.519	0.0148194
879.597	0.0149625
879.675	0.0148628
879.753	0.0149461
879.831	0.0148456
879.909	0.0149784
