05/28/2022	14:44:03	Ver.	4.1	UNKNOWN
Optical Delay	559.987403	Delta X		0.078125	Sweeps	1	Scan Rate	0/0
Coordinates	Axis 1	NaN	Axis 2	NaN	Axis 3	NaN	Axis 4	NaN	Axis 5	NaN	Axis 6	0.000000
TX Power	0.000000	RX Power	0.000000

559.987	0.0149188
560.066	0.0148497
560.144	0.0150291
560.222	0.0149575
560.300	0.0150913
560.378	0.0151286
560.456	0.0151803
560.534	0.0149860
560.612	0.0150899
560.691	0.0153694
560.769	0.0152990
560.847	0.0151762
560.925	0.0152603
561.003	0.0151994
561.081	0.0152530
561.159	0.0153905
561.237	0.0152944
561.316	0.0150679
561.394	0.0150321
561.472	0.0151472
561.550	0.0150928
561.628	0.0150121
561.706	0.0148695
561.784	0.0149220
561.862	0.0149879
561.941	0.0149209
562.019	0.0148164
562.097	0.0149229
562.175	0.0148764
562.253	0.0147966
562.331	0.0147421
562.409	0.0146964
562.487	0.0146730
562.566	0.0147047
562.644	0.0146124
562.722	0.0145409
562.800	0.0146604
562.878	0.0146096
562.956	0.0144772
563.034	0.0144963
563.112	0.0143940
563.191	0.0144746
563.269	0.0145572
563.347	0.0145499
563.425	0.0146506
563.503	0.0146231
563.581	0.0145860
563.659	0.0143404
563.737	0.0145441
563.816	0.0145821
563.894	0.0145271
563.972	0.0146271
564.050	0.0145521
564.128	0.0144789
564.206	0.0147120
564.284	0.0146440
564.362	0.0145312
564.441	0.0145128
564.519	0.0145831
564.597	0.0146483
564.675	0.0144929
564.753	0.0145987
564.831	0.0145015
564.909	0.0145322
564.987	0.0146718
565.066	0.0147803
565.144	0.0146267
565.222	0.0146252
565.300	0.0148245
565.378	0.0147565
565.456	0.0146542
565.534	0.0147529
565.612	0.0147977
565.691	0.0147852
565.769	0.0146784
565.847	0.0147038
565.925	0.0149042
566.003	0.0148571
566.081	0.0148419
566.159	0.0148736
566.237	0.0148494
566.316	0.0147887
566.394	0.0147688
566.472	0.0147775
566.550	0.0147655
566.628	0.0148330
566.706	0.0147849
566.784	0.0146568
566.862	0.0147202
566.941	0.0146526
567.019	0.0148061
567.097	0.0147494
567.175	0.0147260
567.253	0.0146896
567.331	0.0147210
567.409	0.0148460
567.487	0.0146330
567.566	0.0148133
567.644	0.0146163
567.722	0.0147416
567.800	0.0147559
567.878	0.0147064
567.956	0.0147778
568.034	0.0147335
568.112	0.0145750
568.191	0.0146391
568.269	0.0146930
568.347	0.0146718
568.425	0.0147482
568.503	0.0147424
568.581	0.0146836
568.659	0.0147952
568.737	0.0147714
568.816	0.0147318
568.894	0.0146799
568.972	0.0148173
569.050	0.0148270
569.128	0.0148777
569.206	0.0146914
569.284	0.0147434
569.362	0.0146502
569.441	0.0147261
569.519	0.0149084
569.597	0.0147903
569.675	0.0147529
569.753	0.0147411
569.831	0.0146352
569.909	0.0145775
569.987	0.0148657
570.066	0.0147018
570.144	0.0146805
570.222	0.0146050
570.300	0.0146666
570.378	0.0147546
570.456	0.0147150
570.534	0.0146922
570.612	0.0147711
570.691	0.0147536
570.769	0.0147703
570.847	0.0148652
570.925	0.0146278
571.003	0.0146919
571.081	0.0146319
571.159	0.0147111
571.237	0.0147633
571.316	0.0145774
571.394	0.0146304
571.472	0.0146989
571.550	0.0146569
571.628	0.0146101
571.706	0.0147057
571.784	0.0145313
571.862	0.0145533
571.941	0.0144530
572.019	0.0145295
572.097	0.0146713
572.175	0.0144809
572.253	0.0145161
572.331	0.0145367
572.409	0.0145177
572.487	0.0146468
572.566	0.0144434
572.644	0.0144499
572.722	0.0145480
572.800	0.0144598
572.878	0.0145057
572.956	0.0145510
573.034	0.0144686
573.112	0.0144370
573.191	0.0144238
573.269	0.0144521
573.347	0.0144350
573.425	0.0144701
573.503	0.0145128
573.581	0.0146796
573.659	0.0147044
573.737	0.0147299
573.816	0.0146781
573.894	0.0146820
573.972	0.0148369
574.050	0.0148087
574.128	0.0147274
574.206	0.0147292
574.284	0.0147261
574.362	0.0148420
574.441	0.0148199
574.519	0.0147776
574.597	0.0148829
574.675	0.0148772
574.753	0.0147536
574.831	0.0147723
574.909	0.0148656
574.987	0.0148981
575.066	0.0147584
575.144	0.0148620
575.222	0.0147585
575.300	0.0146465
575.378	0.0147894
575.456	0.0148848
575.534	0.0150499
575.612	0.0149079
575.691	0.0149532
575.769	0.0149312
575.847	0.0150021
575.925	0.0150306
576.003	0.0150317
576.081	0.0149013
576.159	0.0150465
576.237	0.0152229
576.316	0.0150269
576.394	0.0150149
576.472	0.0150454
576.550	0.0151270
576.628	0.0150390
576.706	0.0148936
576.784	0.0149458
576.862	0.0148402
576.941	0.0149632
577.019	0.0149328
577.097	0.0148336
577.175	0.0147643
577.253	0.0148090
577.331	0.0148120
577.409	0.0146030
577.487	0.0146827
577.566	0.0146604
577.644	0.0144879
577.722	0.0145547
577.800	0.0145449
577.878	0.0144669
577.956	0.0145242
578.034	0.0143360
578.112	0.0142943
578.191	0.0143295
578.269	0.0144484
578.347	0.0145252
578.425	0.0143970
578.503	0.0143044
578.581	0.0144698
578.659	0.0144915
578.737	0.0144962
578.816	0.0143568
578.894	0.0144816
578.972	0.0143507
579.050	0.0143456
579.128	0.0144544
579.206	0.0143677
579.284	0.0143812
579.362	0.0145368
579.441	0.0143068
579.519	0.0143802
579.597	0.0143995
579.675	0.0143376
579.753	0.0143161
579.831	0.0144126
579.909	0.0144601
579.987	0.0143627
580.066	0.0142689
580.144	0.0143433
580.222	0.0143837
580.300	0.0143950
580.378	0.0144927
580.456	0.0145789
580.534	0.0144577
580.612	0.0145088
580.691	0.0145518
580.769	0.0146128
580.847	0.0145492
580.925	0.0146062
581.003	0.0146020
581.081	0.0145776
581.159	0.0146440
581.237	0.0148013
581.316	0.0147002
581.394	0.0147828
581.472	0.0146819
581.550	0.0148870
581.628	0.0149083
581.706	0.0148772
581.784	0.0149055
581.862	0.0148470
581.941	0.0148077
582.019	0.0148878
582.097	0.0147799
582.175	0.0147649
582.253	0.0146980
582.331	0.0147278
582.409	0.0148095
582.487	0.0147610
582.566	0.0146352
582.644	0.0145727
582.722	0.0145937
582.800	0.0146640
582.878	0.0146472
582.956	0.0146210
583.034	0.0146301
583.112	0.0146738
583.191	0.0145023
583.269	0.0147337
583.347	0.0144785
583.425	0.0144910
583.503	0.0145945
583.581	0.0146413
583.659	0.0145953
583.737	0.0146976
583.816	0.0145223
583.894	0.0146258
583.972	0.0147185
584.050	0.0146870
584.128	0.0146321
584.206	0.0144884
584.284	0.0145711
584.362	0.0144755
584.441	0.0145694
584.519	0.0144554
584.597	0.0144676
584.675	0.0144032
584.753	0.0143548
584.831	0.0143199
584.909	0.0143823
584.987	0.0141293
585.066	0.0142148
585.144	0.0141254
585.222	0.0141862
585.300	0.0142919
585.378	0.0142776
585.456	0.0143507
585.534	0.0144402
585.612	0.0144537
585.691	0.0143513
585.769	0.0145286
585.847	0.0144614
585.925	0.0145322
586.003	0.0145607
586.081	0.0145201
586.159	0.0146470
586.237	0.0145340
586.316	0.0146461
586.394	0.0147040
586.472	0.0145169
586.550	0.0145351
586.628	0.0145068
586.706	0.0144463
586.784	0.0144014
586.862	0.0144981
586.941	0.0146311
587.019	0.0145221
587.097	0.0146011
587.175	0.0145443
587.253	0.0145691
587.331	0.0145713
587.409	0.0145160
587.487	0.0146250
587.566	0.0147232
587.644	0.0147703
587.722	0.0149698
587.800	0.0149161
587.878	0.0147951
587.956	0.0149033
588.034	0.0149619
588.112	0.0149594
588.191	0.0151005
588.269	0.0151948
588.347	0.0150919
588.425	0.0150148
588.503	0.0150340
588.581	0.0150336
588.659	0.0151967
588.737	0.0151552
588.816	0.0150597
588.894	0.0151421
588.972	0.0152635
589.050	0.0151380
589.128	0.0151051
589.206	0.0150609
589.284	0.0150995
589.362	0.0149538
589.441	0.0150250
589.519	0.0149844
589.597	0.0150356
589.675	0.0149755
589.753	0.0149408
589.831	0.0150286
589.909	0.0150486
589.987	0.0150027
590.066	0.0150990
590.144	0.0149309
590.222	0.0148695
590.300	0.0148560
590.378	0.0149677
590.456	0.0148206
590.534	0.0147468
590.612	0.0147910
590.691	0.0147428
590.769	0.0147495
590.847	0.0147630
590.925	0.0147342
591.003	0.0146320
591.081	0.0146411
591.159	0.0146248
591.237	0.0145736
591.316	0.0146319
591.394	0.0145843
591.472	0.0145280
591.550	0.0146638
591.628	0.0146739
591.706	0.0147852
591.784	0.0147340
591.862	0.0147733
591.941	0.0148182
592.019	0.0147146
592.097	0.0147276
592.175	0.0148598
592.253	0.0147985
592.331	0.0149249
592.409	0.0149250
592.487	0.0148185
592.566	0.0150031
592.644	0.0149944
592.722	0.0149072
592.800	0.0148051
592.878	0.0148590
592.956	0.0148556
593.034	0.0149516
593.112	0.0147161
593.191	0.0146501
593.269	0.0148077
593.347	0.0148089
593.425	0.0147996
593.503	0.0146489
593.581	0.0145084
593.659	0.0144699
593.737	0.0145107
593.816	0.0145583
593.894	0.0145730
593.972	0.0144883
594.050	0.0143182
594.128	0.0143586
594.206	0.0144565
594.284	0.0144241
594.362	0.0142291
594.441	0.0143221
594.519	0.0143541
594.597	0.0143679
594.675	0.0143243
594.753	0.0142096
594.831	0.0142535
594.909	0.0144589
594.987	0.0144019
595.066	0.0143968
595.144	0.0142446
595.222	0.0143641
595.300	0.0143475
595.378	0.0142950
595.456	0.0141470
595.534	0.0143987
595.612	0.0144052
595.691	0.0143250
595.769	0.0143794
595.847	0.0144979
595.925	0.0143627
596.003	0.0143078
596.081	0.0144077
596.159	0.0143996
596.237	0.0143850
596.316	0.0144484
596.394	0.0142815
596.472	0.0143366
596.550	0.0143237
596.628	0.0143252
596.706	0.0143840
596.784	0.0142838
596.862	0.0141454
596.941	0.0142834
597.019	0.0141991
597.097	0.0142232
597.175	0.0143097
597.253	0.0143904
597.331	0.0144088
597.409	0.0144292
597.487	0.0144310
597.566	0.0144327
597.644	0.0145341
597.722	0.0145697
597.800	0.0146989
597.878	0.0146906
597.956	0.0146997
598.034	0.0145627
598.112	0.0148109
598.191	0.0147681
598.269	0.0147726
598.347	0.0148072
598.425	0.0149062
598.503	0.0148792
598.581	0.0148840
598.659	0.0150475
598.737	0.0150661
598.816	0.0149067
598.894	0.0150079
598.972	0.0150040
599.050	0.0150208
599.128	0.0149044
599.206	0.0149933
599.284	0.0150113
599.362	0.0148471
599.441	0.0147472
599.519	0.0148482
599.597	0.0148820
599.675	0.0145841
599.753	0.0147545
599.831	0.0146127
599.909	0.0145470
599.987	0.0145021
600.066	0.0145597
600.144	0.0145283
600.222	0.0145718
600.300	0.0146720
600.378	0.0145725
600.456	0.0146635
600.534	0.0145039
600.612	0.0148996
600.691	0.0147492
600.769	0.0148827
600.847	0.0148923
600.925	0.0148887
601.003	0.0149049
601.081	0.0148388
601.159	0.0147724
601.237	0.0149564
601.316	0.0150500
601.394	0.0148303
601.472	0.0148276
601.550	0.0150044
601.628	0.0151111
601.706	0.0150587
601.784	0.0148569
601.862	0.0149815
601.941	0.0149187
602.019	0.0150343
602.097	0.0149132
602.175	0.0148961
602.253	0.0149525
602.331	0.0148766
602.409	0.0148788
602.487	0.0148506
602.566	0.0148097
602.644	0.0147797
602.722	0.0148234
602.800	0.0149368
602.878	0.0146877
602.956	0.0148391
603.034	0.0149279
603.112	0.0148120
603.191	0.0148804
603.269	0.0147553
603.347	0.0147217
603.425	0.0148497
603.503	0.0148016
603.581	0.0147041
603.659	0.0148069
603.737	0.0147747
603.816	0.0146831
603.894	0.0148470
603.972	0.0148087
604.050	0.0147604
604.128	0.0148273
604.206	0.0148592
604.284	0.0148566
604.362	0.0150234
604.441	0.0149158
604.519	0.0150254
604.597	0.0150168
604.675	0.0150214
604.753	0.0149889
604.831	0.0149961
604.909	0.0150261
604.987	0.0149201
605.066	0.0148885
605.144	0.0148454
605.222	0.0147641
605.300	0.0147497
605.378	0.0147284
605.456	0.0147676
605.534	0.0147809
605.612	0.0147610
605.691	0.0147717
605.769	0.0147221
605.847	0.0147804
605.925	0.0147080
606.003	0.0146825
606.081	0.0146819
606.159	0.0147682
606.237	0.0146937
606.316	0.0146109
606.394	0.0146075
606.472	0.0146367
606.550	0.0145451
606.628	0.0146065
606.706	0.0144205
606.784	0.0145139
606.862	0.0143803
606.941	0.0144002
607.019	0.0144180
607.097	0.0142928
607.175	0.0143902
607.253	0.0142617
607.331	0.0142022
607.409	0.0143314
607.487	0.0141808
607.566	0.0141294
607.644	0.0141644
607.722	0.0142389
607.800	0.0141903
607.878	0.0141949
607.956	0.0141264
608.034	0.0142915
608.112	0.0142906
608.191	0.0141718
608.269	0.0142903
608.347	0.0143972
608.425	0.0143149
608.503	0.0142442
608.581	0.0143628
608.659	0.0143970
608.737	0.0145486
608.816	0.0145824
608.894	0.0145151
608.972	0.0145450
609.050	0.0146693
609.128	0.0148351
609.206	0.0147922
609.284	0.0148150
609.362	0.0148557
609.441	0.0148499
609.519	0.0149136
609.597	0.0148895
609.675	0.0147924
609.753	0.0147937
609.831	0.0148578
609.909	0.0149275
609.987	0.0147734
610.066	0.0147806
610.144	0.0147461
610.222	0.0148283
610.300	0.0148661
610.378	0.0149720
610.456	0.0149879
610.534	0.0149509
610.612	0.0148343
610.691	0.0148686
610.769	0.0149148
610.847	0.0149985
610.925	0.0150379
611.003	0.0149245
611.081	0.0150544
611.159	0.0151015
611.237	0.0149911
611.316	0.0150726
611.394	0.0150184
611.472	0.0149771
611.550	0.0149064
611.628	0.0147173
611.706	0.0148067
611.784	0.0148643
611.862	0.0149651
611.941	0.0147192
612.019	0.0146478
612.097	0.0147368
612.175	0.0146753
612.253	0.0148263
612.331	0.0148029
612.409	0.0149819
612.487	0.0149375
612.566	0.0148451
612.644	0.0149561
612.722	0.0150800
612.800	0.0150082
612.878	0.0148998
612.956	0.0150465
613.034	0.0149815
613.112	0.0149517
613.191	0.0148167
613.269	0.0148162
613.347	0.0148013
613.425	0.0146474
613.503	0.0148080
613.581	0.0148725
613.659	0.0149983
613.737	0.0148744
613.816	0.0148764
613.894	0.0147746
613.972	0.0147863
614.050	0.0147134
614.128	0.0147201
614.206	0.0147594
614.284	0.0148176
614.362	0.0146638
614.441	0.0145532
614.519	0.0145753
614.597	0.0146172
614.675	0.0146266
614.753	0.0145916
614.831	0.0146191
614.909	0.0147221
614.987	0.0146807
615.066	0.0144779
615.144	0.0145712
615.222	0.0145983
615.300	0.0146546
615.378	0.0146680
615.456	0.0146582
615.534	0.0147462
615.612	0.0147392
615.691	0.0148055
615.769	0.0147839
615.847	0.0148920
615.925	0.0147087
616.003	0.0148041
616.081	0.0148383
616.159	0.0148813
616.237	0.0148560
616.316	0.0147721
616.394	0.0146212
616.472	0.0146848
616.550	0.0146119
616.628	0.0146898
616.706	0.0147276
616.784	0.0145116
616.862	0.0145768
616.941	0.0145333
617.019	0.0144245
617.097	0.0145153
617.175	0.0144939
617.253	0.0144785
617.331	0.0145674
617.409	0.0145634
617.487	0.0145271
617.566	0.0144686
617.644	0.0146159
617.722	0.0144980
617.800	0.0145805
617.878	0.0147438
617.956	0.0146106
618.034	0.0146154
618.112	0.0146095
618.191	0.0147552
618.269	0.0145930
618.347	0.0147009
618.425	0.0145785
618.503	0.0145775
618.581	0.0146707
618.659	0.0146955
618.737	0.0145906
618.816	0.0146205
618.894	0.0145986
618.972	0.0144779
619.050	0.0147329
619.128	0.0147416
619.206	0.0146253
619.284	0.0146306
619.362	0.0147243
619.441	0.0146487
619.519	0.0146105
619.597	0.0148241
619.675	0.0147179
619.753	0.0147555
619.831	0.0147779
619.909	0.0147562
619.987	0.0147842
620.066	0.0148773
620.144	0.0147546
620.222	0.0149646
620.300	0.0148377
620.378	0.0148421
620.456	0.0150014
620.534	0.0148930
620.612	0.0147812
620.691	0.0148263
620.769	0.0149433
620.847	0.0146112
620.925	0.0147428
621.003	0.0148672
621.081	0.0147851
621.159	0.0146550
621.237	0.0148299
621.316	0.0147404
621.394	0.0146118
621.472	0.0148524
621.550	0.0145814
621.628	0.0145208
621.706	0.0146232
621.784	0.0146688
621.862	0.0145916
621.941	0.0148001
622.019	0.0149548
622.097	0.0148051
622.175	0.0147811
622.253	0.0148920
622.331	0.0148474
622.409	0.0149987
622.487	0.0150562
622.566	0.0150484
622.644	0.0150739
622.722	0.0152683
622.800	0.0151037
622.878	0.0151250
622.956	0.0150990
623.034	0.0151106
623.112	0.0151920
623.191	0.0152525
623.269	0.0152548
623.347	0.0153126
623.425	0.0154144
623.503	0.0151183
623.581	0.0151528
623.659	0.0152237
623.737	0.0150755
623.816	0.0152072
623.894	0.0152369
623.972	0.0151022
624.050	0.0150326
624.128	0.0150682
624.206	0.0150613
624.284	0.0149688
624.362	0.0150881
624.441	0.0149880
624.519	0.0149458
624.597	0.0149376
624.675	0.0148849
624.753	0.0148027
624.831	0.0147058
624.909	0.0148090
624.987	0.0147729
625.066	0.0146915
625.144	0.0147578
625.222	0.0146868
625.300	0.0147608
625.378	0.0146931
625.456	0.0147460
625.534	0.0147478
625.612	0.0146957
625.691	0.0147507
625.769	0.0148817
625.847	0.0148874
625.925	0.0148093
626.003	0.0147809
626.081	0.0149033
626.159	0.0149577
626.237	0.0149084
626.316	0.0148787
626.394	0.0152158
626.472	0.0151179
626.550	0.0149065
626.628	0.0149451
626.706	0.0149406
626.784	0.0148618
626.862	0.0148474
626.941	0.0149070
627.019	0.0148918
627.097	0.0147755
627.175	0.0148354
627.253	0.0146978
627.331	0.0148734
627.409	0.0148093
627.487	0.0146335
627.566	0.0145493
627.644	0.0146732
627.722	0.0147060
627.800	0.0147789
627.878	0.0148385
627.956	0.0148826
628.034	0.0149455
628.112	0.0148862
628.191	0.0148444
628.269	0.0149216
628.347	0.0149834
628.425	0.0150267
628.503	0.0150440
628.581	0.0150223
628.659	0.0150983
628.737	0.0149090
628.816	0.0151653
628.894	0.0150718
628.972	0.0149874
629.050	0.0151071
629.128	0.0150101
629.206	0.0150514
629.284	0.0150690
629.362	0.0149244
629.441	0.0148415
629.519	0.0149367
629.597	0.0150189
629.675	0.0149186
629.753	0.0149319
629.831	0.0149628
629.909	0.0148843
629.987	0.0149550
630.066	0.0150974
630.144	0.0149922
630.222	0.0149476
630.300	0.0149203
630.378	0.0148528
630.456	0.0150352
630.534	0.0149782
630.612	0.0150002
630.691	0.0149751
630.769	0.0147975
630.847	0.0149616
630.925	0.0150005
631.003	0.0150671
631.081	0.0149566
631.159	0.0151426
631.237	0.0151512
631.316	0.0149656
631.394	0.0151553
631.472	0.0151232
631.550	0.0151521
631.628	0.0150785
631.706	0.0151411
631.784	0.0151495
631.862	0.0151857
631.941	0.0151127
632.019	0.0151308
632.097	0.0151310
632.175	0.0149854
632.253	0.0151097
632.331	0.0151672
632.409	0.0150830
632.487	0.0150202
632.566	0.0149893
632.644	0.0150794
632.722	0.0149545
632.800	0.0148555
632.878	0.0149703
632.956	0.0149621
633.034	0.0150453
633.112	0.0148369
633.191	0.0148524
633.269	0.0150510
633.347	0.0148971
633.425	0.0148283
633.503	0.0148276
633.581	0.0149242
633.659	0.0148054
633.737	0.0148066
633.816	0.0148698
633.894	0.0148400
633.972	0.0146764
634.050	0.0147119
634.128	0.0147204
634.206	0.0147232
634.284	0.0146394
634.362	0.0147520
634.441	0.0145704
634.519	0.0145730
634.597	0.0146716
634.675	0.0147439
634.753	0.0145722
634.831	0.0145449
634.909	0.0146069
634.987	0.0146480
635.066	0.0146454
635.144	0.0146428
635.222	0.0144993
635.300	0.0146691
635.378	0.0145595
635.456	0.0145379
635.534	0.0146359
635.612	0.0147231
635.691	0.0146098
635.769	0.0145619
635.847	0.0145054
635.925	0.0145051
636.003	0.0144111
636.081	0.0143289
636.159	0.0143494
636.237	0.0143652
636.316	0.0143022
636.394	0.0143394
636.472	0.0143607
636.550	0.0142902
636.628	0.0143433
636.706	0.0143259
636.784	0.0143446
636.862	0.0144460
636.941	0.0143603
637.019	0.0143991
637.097	0.0145355
637.175	0.0144757
637.253	0.0145486
637.331	0.0145245
637.409	0.0145971
637.487	0.0146887
637.566	0.0146619
637.644	0.0146645
637.722	0.0146900
637.800	0.0146297
637.878	0.0148214
637.956	0.0147107
638.034	0.0146588
638.112	0.0147019
638.191	0.0147494
638.269	0.0146470
638.347	0.0147215
638.425	0.0147912
638.503	0.0147332
638.581	0.0146721
638.659	0.0145209
638.737	0.0147740
638.816	0.0148640
638.894	0.0148454
638.972	0.0147078
639.050	0.0146397
639.128	0.0148388
639.206	0.0149041
639.284	0.0149455
639.362	0.0149224
639.441	0.0148699
639.519	0.0148038
639.597	0.0149014
639.675	0.0149043
639.753	0.0149506
639.831	0.0150211
639.909	0.0148767
639.987	0.0147585
640.066	0.0148808
640.144	0.0147790
640.222	0.0149030
640.300	0.0148605
640.378	0.0147890
640.456	0.0147917
640.534	0.0148925
640.612	0.0149789
640.691	0.0149661
640.769	0.0148518
640.847	0.0149498
640.925	0.0149049
641.003	0.0148256
641.081	0.0148878
641.159	0.0151210
641.237	0.0150403
641.316	0.0150983
641.394	0.0149532
641.472	0.0149802
641.550	0.0150755
641.628	0.0148532
641.706	0.0149068
641.784	0.0150436
641.862	0.0147694
641.941	0.0148480
642.019	0.0149282
642.097	0.0148675
642.175	0.0146880
642.253	0.0148006
642.331	0.0147736
642.409	0.0148074
642.487	0.0149899
642.566	0.0147748
642.644	0.0147765
642.722	0.0148205
642.800	0.0146743
642.878	0.0147202
642.956	0.0149858
643.034	0.0148602
643.112	0.0146435
643.191	0.0147736
643.269	0.0149932
643.347	0.0147948
643.425	0.0148022
643.503	0.0150319
643.581	0.0149210
643.659	0.0148018
643.737	0.0150104
643.816	0.0149734
643.894	0.0148955
643.972	0.0149739
644.050	0.0149535
644.128	0.0149294
644.206	0.0148476
644.284	0.0147179
644.362	0.0147234
644.441	0.0149414
644.519	0.0147454
644.597	0.0146969
644.675	0.0149146
644.753	0.0148609
644.831	0.0147547
644.909	0.0148044
644.987	0.0148029
645.066	0.0148064
645.144	0.0149710
645.222	0.0149515
645.300	0.0148798
645.378	0.0148295
645.456	0.0150539
645.534	0.0150537
645.612	0.0149825
645.691	0.0149428
645.769	0.0148862
645.847	0.0150569
645.925	0.0150281
646.003	0.0149914
646.081	0.0149387
646.159	0.0149849
646.237	0.0150571
646.316	0.0148539
646.394	0.0150368
646.472	0.0149725
646.550	0.0149302
646.628	0.0148315
646.706	0.0149742
646.784	0.0149434
646.862	0.0150344
646.941	0.0148649
647.019	0.0148097
647.097	0.0149220
647.175	0.0149184
647.253	0.0150371
647.331	0.0149075
647.409	0.0147975
647.487	0.0149635
647.566	0.0149928
647.644	0.0149858
647.722	0.0149970
647.800	0.0149186
647.878	0.0149697
647.956	0.0149285
648.034	0.0150552
648.112	0.0151178
648.191	0.0149422
648.269	0.0148860
648.347	0.0149476
648.425	0.0149254
648.503	0.0148763
648.581	0.0149455
648.659	0.0149017
648.737	0.0148148
648.816	0.0148257
648.894	0.0148282
648.972	0.0147793
649.050	0.0147342
649.128	0.0146598
649.206	0.0147021
649.284	0.0145553
649.362	0.0146283
649.441	0.0147814
649.519	0.0145926
649.597	0.0146193
649.675	0.0146865
649.753	0.0147267
649.831	0.0145796
649.909	0.0146306
649.987	0.0147384
650.066	0.0145496
650.144	0.0144973
650.222	0.0146362
650.300	0.0146693
650.378	0.0144412
650.456	0.0145114
650.534	0.0144862
650.612	0.0144719
650.691	0.0143410
650.769	0.0143829
650.847	0.0143044
650.925	0.0141437
651.003	0.0141841
651.081	0.0141897
651.159	0.0143499
651.237	0.0142099
651.316	0.0140561
651.394	0.0142056
651.472	0.0144561
651.550	0.0142160
651.628	0.0142480
651.706	0.0142007
651.784	0.0143273
651.862	0.0142237
651.941	0.0143996
652.019	0.0143886
652.097	0.0142381
652.175	0.0144870
652.253	0.0144346
652.331	0.0144963
652.409	0.0145054
652.487	0.0144441
652.566	0.0143631
652.644	0.0144358
652.722	0.0146140
652.800	0.0144559
652.878	0.0144549
652.956	0.0144128
653.034	0.0143783
653.112	0.0145262
653.191	0.0145058
653.269	0.0146310
653.347	0.0145488
653.425	0.0146091
653.503	0.0144543
653.581	0.0145987
653.659	0.0146787
653.737	0.0147069
653.816	0.0145668
653.894	0.0147210
653.972	0.0146347
654.050	0.0146655
654.128	0.0147597
654.206	0.0147596
654.284	0.0145271
654.362	0.0146209
654.441	0.0147177
654.519	0.0146404
654.597	0.0145910
654.675	0.0146102
654.753	0.0147681
654.831	0.0146729
654.909	0.0145853
654.987	0.0146287
655.066	0.0145305
655.144	0.0147281
655.222	0.0146201
655.300	0.0147202
655.378	0.0147897
655.456	0.0146723
655.534	0.0148515
655.612	0.0148804
655.691	0.0147894
655.769	0.0150231
655.847	0.0149854
655.925	0.0149982
656.003	0.0150367
656.081	0.0150510
656.159	0.0149911
656.237	0.0150922
656.316	0.0151453
656.394	0.0151007
656.472	0.0150236
656.550	0.0149943
656.628	0.0148273
656.706	0.0150458
656.784	0.0149720
656.862	0.0149203
656.941	0.0149992
657.019	0.0148790
657.097	0.0149831
657.175	0.0149065
657.253	0.0149337
657.331	0.0151011
657.409	0.0148629
657.487	0.0149266
657.566	0.0150893
657.644	0.0149551
657.722	0.0150614
657.800	0.0150588
657.878	0.0152048
657.956	0.0151675
658.034	0.0150868
658.112	0.0151455
658.191	0.0150295
658.269	0.0149545
658.347	0.0147993
658.425	0.0150741
658.503	0.0150545
658.581	0.0149564
658.659	0.0149441
658.737	0.0149444
658.816	0.0148849
658.894	0.0150035
658.972	0.0147503
659.050	0.0148756
659.128	0.0147755
659.206	0.0146026
659.284	0.0147105
659.362	0.0148621
659.441	0.0146263
659.519	0.0147227
659.597	0.0146528
659.675	0.0147038
659.753	0.0147785
659.831	0.0147057
659.909	0.0147235
659.987	0.0145886
660.066	0.0146194
660.144	0.0147662
660.222	0.0146642
660.300	0.0146760
660.378	0.0146828
660.456	0.0147256
660.534	0.0145892
660.612	0.0145775
660.691	0.0146471
660.769	0.0146477
660.847	0.0145455
660.925	0.0145641
661.003	0.0146183
661.081	0.0145448
661.159	0.0146024
661.237	0.0144627
661.316	0.0144672
661.394	0.0145683
661.472	0.0146255
661.550	0.0146323
661.628	0.0145780
661.706	0.0145595
661.784	0.0144641
661.862	0.0144476
661.941	0.0146724
662.019	0.0147174
662.097	0.0146788
662.175	0.0147161
662.253	0.0146067
662.331	0.0146333
662.409	0.0147383
662.487	0.0146758
662.566	0.0147050
662.644	0.0145723
662.722	0.0145809
662.800	0.0146338
662.878	0.0144900
662.956	0.0145683
663.034	0.0146582
663.112	0.0146083
663.191	0.0147736
663.269	0.0146142
663.347	0.0145957
663.425	0.0146654
663.503	0.0146258
663.581	0.0147116
663.659	0.0147298
663.737	0.0147385
663.816	0.0147168
663.894	0.0147787
663.972	0.0147254
664.050	0.0146046
664.128	0.0146237
664.206	0.0145822
664.284	0.0147777
664.362	0.0146664
664.441	0.0146991
664.519	0.0147569
664.597	0.0146973
664.675	0.0147968
664.753	0.0147083
664.831	0.0148405
664.909	0.0145592
664.987	0.0144598
665.066	0.0146366
665.144	0.0146880
665.222	0.0146066
665.300	0.0148922
665.378	0.0147779
665.456	0.0146302
665.534	0.0145697
665.612	0.0146236
665.691	0.0147598
665.769	0.0146795
665.847	0.0145590
665.925	0.0147271
666.003	0.0146014
666.081	0.0146027
666.159	0.0146227
666.237	0.0146043
666.316	0.0145692
666.394	0.0145681
666.472	0.0146431
666.550	0.0145198
666.628	0.0146117
666.706	0.0145691
666.784	0.0146196
666.862	0.0145322
666.941	0.0147127
667.019	0.0147233
667.097	0.0147321
667.175	0.0147667
667.253	0.0146307
667.331	0.0147166
667.409	0.0148011
667.487	0.0148230
667.566	0.0146974
667.644	0.0148779
667.722	0.0148062
667.800	0.0148545
667.878	0.0148252
667.956	0.0148428
668.034	0.0146606
668.112	0.0147675
668.191	0.0146509
668.269	0.0146480
668.347	0.0146805
668.425	0.0147177
668.503	0.0147614
668.581	0.0147092
668.659	0.0147240
668.737	0.0147306
668.816	0.0146764
668.894	0.0148524
668.972	0.0150727
669.050	0.0148621
669.128	0.0148330
669.206	0.0148731
669.284	0.0149522
669.362	0.0149664
669.441	0.0149979
669.519	0.0148655
669.597	0.0149587
669.675	0.0147077
669.753	0.0148045
669.831	0.0146736
669.909	0.0147410
669.987	0.0146926
670.066	0.0145728
670.144	0.0146072
670.222	0.0145750
670.300	0.0146648
670.378	0.0147800
670.456	0.0146867
670.534	0.0147157
670.612	0.0147963
670.691	0.0147886
670.769	0.0146911
670.847	0.0147414
670.925	0.0148218
671.003	0.0148242
671.081	0.0147560
671.159	0.0148402
671.237	0.0148812
671.316	0.0147696
671.394	0.0147438
671.472	0.0147031
671.550	0.0146342
671.628	0.0147632
671.706	0.0146734
671.784	0.0144717
671.862	0.0146771
671.941	0.0145976
672.019	0.0145671
672.097	0.0147337
672.175	0.0146910
672.253	0.0147655
672.331	0.0146361
672.409	0.0148108
672.487	0.0147567
672.566	0.0149445
672.644	0.0149532
672.722	0.0149364
672.800	0.0150092
672.878	0.0150053
672.956	0.0150024
673.034	0.0149919
673.112	0.0148606
673.191	0.0150769
673.269	0.0148862
673.347	0.0149270
673.425	0.0149536
673.503	0.0148982
673.581	0.0149437
673.659	0.0148049
673.737	0.0147624
673.816	0.0148303
673.894	0.0147854
673.972	0.0146110
674.050	0.0146825
674.128	0.0147070
674.206	0.0145434
674.284	0.0145924
674.362	0.0145985
674.441	0.0145850
674.519	0.0147297
674.597	0.0146368
674.675	0.0145807
674.753	0.0146727
674.831	0.0146857
674.909	0.0146365
674.987	0.0146881
675.066	0.0147375
675.144	0.0148994
675.222	0.0147788
675.300	0.0147623
675.378	0.0149353
675.456	0.0149345
675.534	0.0148967
675.612	0.0149642
675.691	0.0148145
675.769	0.0147877
675.847	0.0147964
675.925	0.0148462
676.003	0.0148141
676.081	0.0149107
676.159	0.0147398
676.237	0.0146786
676.316	0.0146428
676.394	0.0146658
676.472	0.0145309
676.550	0.0144764
676.628	0.0145419
676.706	0.0146260
676.784	0.0145871
676.862	0.0145485
676.941	0.0144711
677.019	0.0145404
677.097	0.0144707
677.175	0.0145492
677.253	0.0144847
677.331	0.0145787
677.409	0.0144556
677.487	0.0145659
677.566	0.0145481
677.644	0.0146143
677.722	0.0144473
677.800	0.0144614
677.878	0.0146516
677.956	0.0145547
678.034	0.0146485
678.112	0.0146392
678.191	0.0146073
678.269	0.0145937
678.347	0.0146841
678.425	0.0146632
678.503	0.0145905
678.581	0.0145879
678.659	0.0147005
678.737	0.0146165
678.816	0.0146260
678.894	0.0147248
678.972	0.0146288
679.050	0.0145905
679.128	0.0145517
679.206	0.0146657
679.284	0.0146681
679.362	0.0147719
679.441	0.0145964
679.519	0.0146546
679.597	0.0146922
679.675	0.0148444
679.753	0.0146696
679.831	0.0146027
679.909	0.0147155
679.987	0.0147684
680.066	0.0147668
680.144	0.0147406
680.222	0.0147641
680.300	0.0146780
680.378	0.0149118
680.456	0.0147857
680.534	0.0148779
680.612	0.0147926
680.691	0.0148833
680.769	0.0148442
680.847	0.0147154
680.925	0.0148653
681.003	0.0149927
681.081	0.0148634
681.159	0.0149324
681.237	0.0149260
681.316	0.0150337
681.394	0.0150214
681.472	0.0149818
681.550	0.0149704
681.628	0.0148583
681.706	0.0149131
681.784	0.0150234
681.862	0.0149145
681.941	0.0149660
682.019	0.0148339
682.097	0.0149902
682.175	0.0149085
682.253	0.0149897
682.331	0.0149216
682.409	0.0150275
682.487	0.0149191
682.566	0.0147134
682.644	0.0148697
682.722	0.0148963
682.800	0.0148539
682.878	0.0150011
682.956	0.0148006
683.034	0.0148192
683.112	0.0148853
683.191	0.0147984
683.269	0.0149332
683.347	0.0149171
683.425	0.0149825
683.503	0.0148590
683.581	0.0148036
683.659	0.0147687
683.737	0.0148278
683.816	0.0147345
683.894	0.0147447
683.972	0.0148895
684.050	0.0148396
684.128	0.0147832
684.206	0.0148251
684.284	0.0147635
684.362	0.0146314
684.441	0.0146243
684.519	0.0146316
684.597	0.0146432
684.675	0.0145478
684.753	0.0145145
684.831	0.0144693
684.909	0.0146954
684.987	0.0145069
685.066	0.0143706
685.144	0.0145473
685.222	0.0146458
685.300	0.0146257
685.378	0.0145820
685.456	0.0146128
685.534	0.0145422
685.612	0.0145152
685.691	0.0145506
685.769	0.0146288
685.847	0.0146571
685.925	0.0146346
686.003	0.0146121
686.081	0.0147926
686.159	0.0148137
686.237	0.0147588
686.316	0.0147095
686.394	0.0145940
686.472	0.0147184
686.550	0.0148209
686.628	0.0146915
686.706	0.0145395
686.784	0.0146578
686.862	0.0147031
686.941	0.0144741
687.019	0.0144510
687.097	0.0145651
687.175	0.0143842
687.253	0.0142960
687.331	0.0142760
687.409	0.0143411
687.487	0.0143125
687.566	0.0144474
687.644	0.0144714
687.722	0.0143897
687.800	0.0142090
687.878	0.0145110
687.956	0.0145444
688.034	0.0145978
688.112	0.0145827
688.191	0.0144958
688.269	0.0143042
688.347	0.0145975
688.425	0.0146537
688.503	0.0145389
688.581	0.0147009
688.659	0.0146792
688.737	0.0145849
688.816	0.0146182
688.894	0.0146121
688.972	0.0147900
689.050	0.0146300
689.128	0.0147034
689.206	0.0148231
689.284	0.0148127
689.362	0.0146893
689.441	0.0148857
689.519	0.0148406
689.597	0.0146909
689.675	0.0149492
689.753	0.0148598
689.831	0.0146971
689.909	0.0147923
689.987	0.0148371
690.066	0.0147701
690.144	0.0148799
690.222	0.0147176
690.300	0.0147027
690.378	0.0149195
690.456	0.0148046
690.534	0.0148943
690.612	0.0147943
690.691	0.0148428
690.769	0.0148890
690.847	0.0148077
690.925	0.0147735
691.003	0.0148082
691.081	0.0147786
691.159	0.0148575
691.237	0.0149280
691.316	0.0150827
691.394	0.0150479
691.472	0.0149708
691.550	0.0150571
691.628	0.0150217
691.706	0.0149516
691.784	0.0150180
691.862	0.0150787
691.941	0.0150542
692.019	0.0151258
692.097	0.0151482
692.175	0.0150548
692.253	0.0151322
692.331	0.0149482
692.409	0.0150701
692.487	0.0150872
692.566	0.0150991
692.644	0.0150229
692.722	0.0150053
692.800	0.0150434
692.878	0.0150713
692.956	0.0150175
693.034	0.0149559
693.112	0.0147733
693.191	0.0147624
693.269	0.0148010
693.347	0.0147531
693.425	0.0148573
693.503	0.0148246
693.581	0.0148498
693.659	0.0148299
693.737	0.0149406
693.816	0.0148746
693.894	0.0149992
693.972	0.0149728
694.050	0.0148338
694.128	0.0149838
694.206	0.0150713
694.284	0.0148278
694.362	0.0150561
694.441	0.0147999
694.519	0.0147739
694.597	0.0147763
694.675	0.0149622
694.753	0.0148508
694.831	0.0146893
694.909	0.0147057
694.987	0.0148094
695.066	0.0146690
695.144	0.0147502
695.222	0.0147433
695.300	0.0144682
695.378	0.0146314
695.456	0.0145964
695.534	0.0147181
695.612	0.0146523
695.691	0.0147152
695.769	0.0146949
695.847	0.0147105
695.925	0.0147032
696.003	0.0146608
696.081	0.0147935
696.159	0.0147680
696.237	0.0147351
696.316	0.0147195
696.394	0.0145248
696.472	0.0147923
696.550	0.0150273
696.628	0.0148002
696.706	0.0149467
696.784	0.0150114
696.862	0.0148083
696.941	0.0150124
697.019	0.0149274
697.097	0.0149387
697.175	0.0149837
697.253	0.0149371
697.331	0.0150101
697.409	0.0149113
697.487	0.0150557
697.566	0.0149527
697.644	0.0149620
697.722	0.0148775
697.800	0.0147939
697.878	0.0149141
697.956	0.0148938
698.034	0.0149391
698.112	0.0149335
698.191	0.0149108
698.269	0.0148808
698.347	0.0149327
698.425	0.0148708
698.503	0.0148956
698.581	0.0150741
698.659	0.0151069
698.737	0.0151922
698.816	0.0152644
698.894	0.0151422
698.972	0.0152990
699.050	0.0150760
699.128	0.0151699
699.206	0.0152735
699.284	0.0152856
699.362	0.0151736
699.441	0.0149952
699.519	0.0149445
699.597	0.0149754
699.675	0.0149609
699.753	0.0148938
699.831	0.0149607
699.909	0.0147979
699.987	0.0148063
700.066	0.0149405
700.144	0.0147945
700.222	0.0147402
700.300	0.0147378
700.378	0.0147646
700.456	0.0147430
700.534	0.0148188
700.612	0.0148650
700.691	0.0147062
700.769	0.0148086
700.847	0.0148563
700.925	0.0147218
701.003	0.0148753
701.081	0.0146126
701.159	0.0146957
701.237	0.0148674
701.316	0.0148114
701.394	0.0146690
701.472	0.0147717
701.550	0.0147305
701.628	0.0147527
701.706	0.0146064
701.784	0.0145796
701.862	0.0148353
701.941	0.0148277
702.019	0.0148122
702.097	0.0147431
702.175	0.0148797
702.253	0.0146348
702.331	0.0148199
702.409	0.0147671
702.487	0.0151135
702.566	0.0149108
702.644	0.0150017
702.722	0.0149151
702.800	0.0151152
702.878	0.0149722
702.956	0.0150397
703.034	0.0150411
703.112	0.0150277
703.191	0.0149737
703.269	0.0151396
703.347	0.0152341
703.425	0.0151769
703.503	0.0149764
703.581	0.0149992
703.659	0.0150150
703.737	0.0149907
703.816	0.0150326
703.894	0.0149442
703.972	0.0150465
704.050	0.0150151
704.128	0.0149113
704.206	0.0150906
704.284	0.0149593
704.362	0.0148792
704.441	0.0150471
704.519	0.0150743
704.597	0.0149529
704.675	0.0149142
704.753	0.0148933
704.831	0.0148515
704.909	0.0147866
704.987	0.0149221
705.066	0.0149171
705.144	0.0147436
705.222	0.0147466
705.300	0.0149432
705.378	0.0147156
705.456	0.0147221
705.534	0.0145603
705.612	0.0144791
705.691	0.0145190
705.769	0.0144050
705.847	0.0144642
705.925	0.0142876
706.003	0.0143929
706.081	0.0143870
706.159	0.0145269
706.237	0.0145647
706.316	0.0144714
706.394	0.0145790
706.472	0.0147771
706.550	0.0146702
706.628	0.0146894
706.706	0.0147088
706.784	0.0147445
706.862	0.0148763
706.941	0.0148664
707.019	0.0148352
707.097	0.0148696
707.175	0.0147432
707.253	0.0149501
707.331	0.0147922
707.409	0.0146606
707.487	0.0146589
707.566	0.0146994
707.644	0.0146782
707.722	0.0145348
707.800	0.0143969
707.878	0.0144869
707.956	0.0145483
708.034	0.0144813
708.112	0.0145647
708.191	0.0143039
708.269	0.0142457
708.347	0.0142664
708.425	0.0143703
708.503	0.0143696
708.581	0.0142526
708.659	0.0143176
708.737	0.0144430
708.816	0.0143840
708.894	0.0143507
708.972	0.0142776
709.050	0.0144339
709.128	0.0144623
709.206	0.0144382
709.284	0.0142404
709.362	0.0142997
709.441	0.0143004
709.519	0.0143723
709.597	0.0142856
709.675	0.0142346
709.753	0.0142320
709.831	0.0140681
709.909	0.0142104
709.987	0.0141641
710.066	0.0141765
710.144	0.0140966
710.222	0.0142432
710.300	0.0143333
710.378	0.0143850
710.456	0.0143040
710.534	0.0143537
710.612	0.0144221
710.691	0.0144992
710.769	0.0147951
710.847	0.0147354
710.925	0.0147517
711.003	0.0147233
711.081	0.0147439
711.159	0.0146375
711.237	0.0145373
711.316	0.0148671
711.394	0.0147924
711.472	0.0146619
711.550	0.0146279
711.628	0.0145477
711.706	0.0145223
711.784	0.0144259
711.862	0.0144785
711.941	0.0145176
712.019	0.0143931
712.097	0.0146592
712.175	0.0145602
712.253	0.0145262
712.331	0.0146432
712.409	0.0146945
712.487	0.0147211
712.566	0.0148824
712.644	0.0148915
712.722	0.0149651
712.800	0.0150855
712.878	0.0151817
712.956	0.0151672
713.034	0.0152912
713.112	0.0152826
713.191	0.0152051
713.269	0.0151765
713.347	0.0153062
713.425	0.0152835
713.503	0.0153226
713.581	0.0154996
713.659	0.0152670
713.737	0.0153055
713.816	0.0152888
713.894	0.0152514
713.972	0.0151730
714.050	0.0151637
714.128	0.0149926
714.206	0.0151559
714.284	0.0151373
714.362	0.0150156
714.441	0.0149951
714.519	0.0149370
714.597	0.0149021
714.675	0.0148098
714.753	0.0147849
714.831	0.0147604
714.909	0.0146828
714.987	0.0146996
715.066	0.0145618
715.144	0.0144995
715.222	0.0145402
715.300	0.0145596
715.378	0.0148042
715.456	0.0146422
715.534	0.0148400
715.612	0.0151086
715.691	0.0151207
715.769	0.0153407
715.847	0.0153218
715.925	0.0155368
716.003	0.0154445
716.081	0.0155551
716.159	0.0156821
716.237	0.0155348
716.316	0.0153825
716.394	0.0151003
716.472	0.0150295
716.550	0.0149168
716.628	0.0145947
716.706	0.0144888
716.784	0.0144012
716.862	0.0142479
716.941	0.0139949
717.019	0.0140736
717.097	0.0139976
717.175	0.0138831
717.253	0.0139146
717.331	0.0138556
717.409	0.0141362
717.487	0.0142262
717.566	0.0143385
717.644	0.0145921
717.722	0.0146302
717.800	0.0146625
717.878	0.0148486
717.956	0.0149429
718.034	0.0147021
718.112	0.0148394
718.191	0.0149139
718.269	0.0148589
718.347	0.0150477
718.425	0.0148035
718.503	0.0149105
718.581	0.0148470
718.659	0.0149512
718.737	0.0149080
718.816	0.0148105
718.894	0.0149742
718.972	0.0147763
719.050	0.0147931
719.128	0.0148091
719.206	0.0147207
719.284	0.0147330
719.362	0.0146805
719.441	0.0148399
719.519	0.0147068
719.597	0.0146078
719.675	0.0147684
719.753	0.0146943
719.831	0.0144655
719.909	0.0145764
719.987	0.0147263
720.066	0.0146394
720.144	0.0147569
720.222	0.0148006
720.300	0.0148812
720.378	0.0148290
720.456	0.0148509
720.534	0.0149007
720.612	0.0148408
720.691	0.0148275
720.769	0.0151337
720.847	0.0148127
720.925	0.0150021
721.003	0.0149806
721.081	0.0150893
721.159	0.0149180
721.237	0.0148438
721.316	0.0148804
721.394	0.0147987
721.472	0.0149191
721.550	0.0148304
721.628	0.0148423
721.706	0.0149676
721.784	0.0147250
721.862	0.0149762
721.941	0.0149934
722.019	0.0148800
722.097	0.0150398
722.175	0.0148773
722.253	0.0148531
722.331	0.0148553
722.409	0.0149719
722.487	0.0148930
722.566	0.0147847
722.644	0.0149656
722.722	0.0149667
722.800	0.0149187
722.878	0.0148624
722.956	0.0146506
723.034	0.0148569
723.112	0.0148108
723.191	0.0148538
723.269	0.0147842
723.347	0.0147615
723.425	0.0148014
723.503	0.0148556
723.581	0.0148717
723.659	0.0148310
723.737	0.0150131
723.816	0.0146900
723.894	0.0147630
723.972	0.0148823
724.050	0.0147955
724.128	0.0149490
724.206	0.0149718
724.284	0.0148174
724.362	0.0148993
724.441	0.0147939
724.519	0.0149088
724.597	0.0148406
724.675	0.0146492
724.753	0.0147649
724.831	0.0146987
724.909	0.0144807
724.987	0.0146540
725.066	0.0146831
725.144	0.0147322
725.222	0.0147653
725.300	0.0146718
725.378	0.0145458
725.456	0.0145715
725.534	0.0147350
725.612	0.0145190
725.691	0.0147504
725.769	0.0146014
725.847	0.0145691
725.925	0.0147167
726.003	0.0147544
726.081	0.0146547
726.159	0.0146689
726.237	0.0146876
726.316	0.0148294
726.394	0.0147586
726.472	0.0146955
726.550	0.0147385
726.628	0.0147573
726.706	0.0146543
726.784	0.0144489
726.862	0.0147391
726.941	0.0147218
727.019	0.0146767
727.097	0.0146063
727.175	0.0146941
727.253	0.0146127
727.331	0.0148038
727.409	0.0147184
727.487	0.0146748
727.566	0.0146600
727.644	0.0147906
727.722	0.0147871
727.800	0.0147515
727.878	0.0147750
727.956	0.0148460
728.034	0.0147910
728.112	0.0148005
728.191	0.0149335
728.269	0.0149117
728.347	0.0148699
728.425	0.0148553
728.503	0.0147382
728.581	0.0147858
728.659	0.0147778
728.737	0.0149226
728.816	0.0146895
728.894	0.0147790
728.972	0.0148429
729.050	0.0147382
729.128	0.0146494
729.206	0.0146986
729.284	0.0147108
729.362	0.0147895
729.441	0.0147339
729.519	0.0146581
729.597	0.0147109
729.675	0.0146610
729.753	0.0147124
729.831	0.0148199
729.909	0.0146376
729.987	0.0145731
730.066	0.0147601
730.144	0.0147128
730.222	0.0147001
730.300	0.0145480
730.378	0.0145435
730.456	0.0146536
730.534	0.0147329
730.612	0.0146046
730.691	0.0145834
730.769	0.0144714
730.847	0.0145186
730.925	0.0145497
731.003	0.0144465
731.081	0.0143726
731.159	0.0146294
731.237	0.0146622
731.316	0.0144656
731.394	0.0144776
731.472	0.0146193
731.550	0.0147765
731.628	0.0145180
731.706	0.0144469
731.784	0.0146407
731.862	0.0146990
731.941	0.0146307
732.019	0.0145549
732.097	0.0147375
732.175	0.0147979
732.253	0.0145953
732.331	0.0146439
732.409	0.0146983
732.487	0.0147738
732.566	0.0148565
732.644	0.0147579
732.722	0.0149152
732.800	0.0148129
732.878	0.0148571
732.956	0.0147385
733.034	0.0149287
733.112	0.0149520
733.191	0.0149298
733.269	0.0148067
733.347	0.0147804
733.425	0.0148716
733.503	0.0148093
733.581	0.0145869
733.659	0.0147177
733.737	0.0147739
733.816	0.0147866
733.894	0.0147322
733.972	0.0148055
734.050	0.0147594
734.128	0.0148641
734.206	0.0147115
734.284	0.0148859
734.362	0.0148238
734.441	0.0148257
734.519	0.0149377
734.597	0.0149559
734.675	0.0148427
734.753	0.0148193
734.831	0.0146895
734.909	0.0148264
734.987	0.0148771
735.066	0.0148611
735.144	0.0148306
735.222	0.0148048
735.300	0.0148889
735.378	0.0148586
735.456	0.0148469
735.534	0.0148413
735.612	0.0147473
735.691	0.0146324
735.769	0.0146900
735.847	0.0149495
735.925	0.0148685
736.003	0.0147264
736.081	0.0149745
736.159	0.0149114
736.237	0.0147369
736.316	0.0148228
736.394	0.0147787
736.472	0.0148598
736.550	0.0150008
736.628	0.0148511
736.706	0.0147440
736.784	0.0147831
736.862	0.0147553
736.941	0.0145855
737.019	0.0145875
737.097	0.0146842
737.175	0.0146539
737.253	0.0144959
737.331	0.0145374
737.409	0.0146830
737.487	0.0145975
737.566	0.0144633
737.644	0.0147606
737.722	0.0145312
737.800	0.0146185
737.878	0.0147078
737.956	0.0146926
738.034	0.0147424
738.112	0.0146235
738.191	0.0148244
738.269	0.0146561
738.347	0.0145438
738.425	0.0146575
738.503	0.0147652
738.581	0.0144322
738.659	0.0145009
738.737	0.0147003
738.816	0.0146607
738.894	0.0145143
738.972	0.0146566
739.050	0.0146327
739.128	0.0145393
739.206	0.0147158
739.284	0.0146152
739.362	0.0146740
739.441	0.0147308
739.519	0.0146888
739.597	0.0145926
739.675	0.0146822
739.753	0.0146836
739.831	0.0146553
739.909	0.0145501
739.987	0.0146475
740.066	0.0145721
740.144	0.0143888
740.222	0.0145172
740.300	0.0144658
740.378	0.0143867
740.456	0.0142175
740.534	0.0143509
740.612	0.0142129
740.691	0.0141689
740.769	0.0141996
740.847	0.0143005
740.925	0.0140284
741.003	0.0139774
741.081	0.0140179
741.159	0.0141428
741.237	0.0140583
741.316	0.0140952
741.394	0.0140226
741.472	0.0141576
741.550	0.0141276
741.628	0.0140855
741.706	0.0142646
741.784	0.0141325
741.862	0.0143776
741.941	0.0144352
742.019	0.0144621
742.097	0.0142599
742.175	0.0143944
742.253	0.0144622
742.331	0.0143817
742.409	0.0144655
742.487	0.0145414
742.566	0.0144618
742.644	0.0145437
742.722	0.0145840
742.800	0.0144025
742.878	0.0146509
742.956	0.0145734
743.034	0.0145647
743.112	0.0144966
743.191	0.0146882
743.269	0.0147040
743.347	0.0146935
743.425	0.0147334
743.503	0.0147131
743.581	0.0147340
743.659	0.0147368
743.737	0.0147407
743.816	0.0147405
743.894	0.0147723
743.972	0.0148454
744.050	0.0149126
744.128	0.0147922
744.206	0.0149403
744.284	0.0147543
744.362	0.0148038
744.441	0.0149117
744.519	0.0149440
744.597	0.0149165
744.675	0.0148289
744.753	0.0148958
744.831	0.0149389
744.909	0.0148661
744.987	0.0148814
745.066	0.0149034
745.144	0.0148390
745.222	0.0149635
745.300	0.0149896
745.378	0.0149744
745.456	0.0148888
745.534	0.0150667
745.612	0.0149880
745.691	0.0150510
745.769	0.0149921
745.847	0.0148541
745.925	0.0149564
746.003	0.0150257
746.081	0.0149941
746.159	0.0149836
746.237	0.0148524
746.316	0.0150066
746.394	0.0149731
746.472	0.0150100
746.550	0.0150118
746.628	0.0148792
746.706	0.0150149
746.784	0.0150002
746.862	0.0150761
746.941	0.0150257
747.019	0.0150980
747.097	0.0150359
747.175	0.0150514
747.253	0.0149918
747.331	0.0151296
747.409	0.0150881
747.487	0.0151082
747.566	0.0152561
747.644	0.0151753
747.722	0.0150883
747.800	0.0151671
747.878	0.0150677
747.956	0.0149617
748.034	0.0149950
748.112	0.0150074
748.191	0.0148892
748.269	0.0148937
748.347	0.0148740
748.425	0.0146331
748.503	0.0147826
748.581	0.0148270
748.659	0.0147060
748.737	0.0146408
748.816	0.0145908
748.894	0.0146694
748.972	0.0146992
749.050	0.0147894
749.128	0.0147872
749.206	0.0148123
749.284	0.0147780
749.362	0.0149414
749.441	0.0149377
749.519	0.0148635
749.597	0.0148585
749.675	0.0148318
749.753	0.0148029
749.831	0.0148048
749.909	0.0147937
749.987	0.0148159
750.066	0.0148839
750.144	0.0147439
750.222	0.0147189
750.300	0.0146542
750.378	0.0145209
750.456	0.0145298
750.534	0.0145940
750.612	0.0145882
750.691	0.0145882
750.769	0.0146460
750.847	0.0145531
750.925	0.0144823
751.003	0.0145169
751.081	0.0145757
751.159	0.0146774
751.237	0.0146442
751.316	0.0145278
751.394	0.0146267
751.472	0.0145882
751.550	0.0145234
751.628	0.0146822
751.706	0.0146156
751.784	0.0144879
751.862	0.0147012
751.941	0.0145129
752.019	0.0144562
752.097	0.0144662
752.175	0.0145731
752.253	0.0144096
752.331	0.0143116
752.409	0.0142884
752.487	0.0144400
752.566	0.0144077
752.644	0.0145280
752.722	0.0143269
752.800	0.0145235
752.878	0.0145566
752.956	0.0143978
753.034	0.0145361
753.112	0.0143681
753.191	0.0145226
753.269	0.0145586
753.347	0.0146706
753.425	0.0144717
753.503	0.0145665
753.581	0.0144979
753.659	0.0145241
753.737	0.0146072
753.816	0.0147000
753.894	0.0146448
753.972	0.0145097
754.050	0.0146119
754.128	0.0146935
754.206	0.0145232
754.284	0.0146281
754.362	0.0147775
754.441	0.0147520
754.519	0.0146259
754.597	0.0147250
754.675	0.0146274
754.753	0.0145856
754.831	0.0146950
754.909	0.0148464
754.987	0.0146914
755.066	0.0148022
755.144	0.0147188
755.222	0.0146441
755.300	0.0148928
755.378	0.0147781
755.456	0.0148073
755.534	0.0148418
755.612	0.0148493
755.691	0.0147533
755.769	0.0148336
755.847	0.0147633
755.925	0.0147173
756.003	0.0148470
756.081	0.0148309
756.159	0.0148218
756.237	0.0147182
756.316	0.0148655
756.394	0.0148808
756.472	0.0149335
756.550	0.0147372
756.628	0.0149841
756.706	0.0147963
756.784	0.0148615
756.862	0.0149135
756.941	0.0148164
757.019	0.0148691
757.097	0.0148603
757.175	0.0147090
757.253	0.0149152
757.331	0.0148819
757.409	0.0147446
757.487	0.0148491
757.566	0.0147543
757.644	0.0146893
757.722	0.0147284
757.800	0.0148079
757.878	0.0148068
757.956	0.0145593
758.034	0.0148214
758.112	0.0147952
758.191	0.0148389
758.269	0.0148341
758.347	0.0146724
758.425	0.0146802
758.503	0.0145753
758.581	0.0147028
758.659	0.0146575
758.737	0.0147911
758.816	0.0147192
758.894	0.0148007
758.972	0.0147736
759.050	0.0149017
759.128	0.0149472
759.206	0.0149780
759.284	0.0150787
759.362	0.0149435
759.441	0.0148880
759.519	0.0149349
759.597	0.0149257
759.675	0.0149997
759.753	0.0149509
759.831	0.0149545
759.909	0.0149563
759.987	0.0149565
760.066	0.0149323
760.144	0.0147984
760.222	0.0148779
760.300	0.0147916
760.378	0.0148891
760.456	0.0148962
760.534	0.0147675
760.612	0.0146973
760.691	0.0148238
760.769	0.0147680
760.847	0.0148297
760.925	0.0145876
761.003	0.0147424
761.081	0.0148212
761.159	0.0147165
761.237	0.0148032
761.316	0.0147713
761.394	0.0145875
761.472	0.0147160
761.550	0.0147703
761.628	0.0147297
761.706	0.0147495
761.784	0.0148246
761.862	0.0145949
761.941	0.0146360
762.019	0.0145220
762.097	0.0145364
762.175	0.0145193
762.253	0.0145657
762.331	0.0145827
762.409	0.0146207
762.487	0.0145567
762.566	0.0145212
762.644	0.0145575
762.722	0.0146243
762.800	0.0145562
762.878	0.0145175
762.956	0.0144299
763.034	0.0144622
763.112	0.0145191
763.191	0.0144716
763.269	0.0146468
763.347	0.0145583
763.425	0.0146204
763.503	0.0144252
763.581	0.0146169
763.659	0.0144553
763.737	0.0145588
763.816	0.0146047
763.894	0.0146604
763.972	0.0146939
764.050	0.0146408
764.128	0.0147559
764.206	0.0147626
764.284	0.0147633
764.362	0.0145847
764.441	0.0145564
764.519	0.0148309
764.597	0.0147769
764.675	0.0147073
764.753	0.0147572
764.831	0.0146114
764.909	0.0147925
764.987	0.0146719
765.066	0.0144956
765.144	0.0147224
765.222	0.0147289
765.300	0.0146384
765.378	0.0146985
765.456	0.0147650
765.534	0.0147628
765.612	0.0146678
765.691	0.0148101
765.769	0.0148923
765.847	0.0146949
765.925	0.0150360
766.003	0.0149268
766.081	0.0148817
766.159	0.0149505
766.237	0.0149658
766.316	0.0150407
766.394	0.0151470
766.472	0.0150884
766.550	0.0150685
766.628	0.0151350
766.706	0.0150400
766.784	0.0148019
766.862	0.0149722
766.941	0.0149547
767.019	0.0148681
767.097	0.0149982
767.175	0.0150149
767.253	0.0148763
767.331	0.0150132
767.409	0.0148130
767.487	0.0148190
767.566	0.0147492
767.644	0.0148328
767.722	0.0147976
767.800	0.0147570
767.878	0.0148016
767.956	0.0147554
768.034	0.0146338
768.112	0.0148036
768.191	0.0147344
768.269	0.0147000
768.347	0.0147325
768.425	0.0146433
768.503	0.0146954
768.581	0.0148121
768.659	0.0147140
768.737	0.0146581
768.816	0.0148895
768.894	0.0146676
768.972	0.0146859
769.050	0.0147032
769.128	0.0146489
769.206	0.0146037
769.284	0.0147581
769.362	0.0146478
769.441	0.0145929
769.519	0.0147099
769.597	0.0147067
769.675	0.0148212
769.753	0.0146679
769.831	0.0147113
769.909	0.0147890
769.987	0.0146895
770.066	0.0147574
770.144	0.0147860
770.222	0.0148176
770.300	0.0147652
770.378	0.0147820
770.456	0.0149949
770.534	0.0149409
770.612	0.0147694
770.691	0.0148571
770.769	0.0149020
770.847	0.0150580
770.925	0.0149758
771.003	0.0149363
771.081	0.0148873
771.159	0.0150446
771.237	0.0149009
771.316	0.0150544
771.394	0.0149222
771.472	0.0147345
771.550	0.0148019
771.628	0.0147987
771.706	0.0146729
771.784	0.0146467
771.862	0.0146721
771.941	0.0146648
772.019	0.0148235
772.097	0.0147846
772.175	0.0145672
772.253	0.0146494
772.331	0.0146751
772.409	0.0145910
772.487	0.0146700
772.566	0.0145998
772.644	0.0146659
772.722	0.0145371
772.800	0.0147511
772.878	0.0147948
772.956	0.0146328
773.034	0.0146847
773.112	0.0146848
773.191	0.0147021
773.269	0.0148536
773.347	0.0147024
773.425	0.0148186
773.503	0.0146549
773.581	0.0146960
773.659	0.0147648
773.737	0.0147935
773.816	0.0149315
773.894	0.0147929
773.972	0.0148079
774.050	0.0147787
774.128	0.0148006
774.206	0.0148701
774.284	0.0149033
774.362	0.0147433
774.441	0.0147188
774.519	0.0148561
774.597	0.0147388
774.675	0.0147937
774.753	0.0147524
774.831	0.0148462
774.909	0.0147276
774.987	0.0147850
775.066	0.0146492
775.144	0.0146273
775.222	0.0147128
775.300	0.0146948
775.378	0.0145667
775.456	0.0148010
775.534	0.0147675
775.612	0.0144674
775.691	0.0145248
775.769	0.0146535
775.847	0.0146426
775.925	0.0145528
776.003	0.0145827
776.081	0.0145911
776.159	0.0145126
776.237	0.0146574
776.316	0.0145715
776.394	0.0144823
776.472	0.0145337
776.550	0.0145914
776.628	0.0147066
776.706	0.0146646
776.784	0.0148296
776.862	0.0147958
776.941	0.0147639
777.019	0.0149257
777.097	0.0148606
777.175	0.0147389
777.253	0.0148071
777.331	0.0148830
777.409	0.0148023
777.487	0.0146827
777.566	0.0148174
777.644	0.0147278
777.722	0.0148097
777.800	0.0147622
777.878	0.0147077
777.956	0.0146991
778.034	0.0148115
778.112	0.0147088
778.191	0.0146673
778.269	0.0145918
778.347	0.0148629
778.425	0.0147327
778.503	0.0146383
778.581	0.0146653
778.659	0.0146443
778.737	0.0146384
778.816	0.0149226
778.894	0.0147624
778.972	0.0150008
779.050	0.0148917
779.128	0.0149155
779.206	0.0149018
779.284	0.0149564
779.362	0.0150872
779.441	0.0151190
779.519	0.0150698
779.597	0.0149515
779.675	0.0150662
779.753	0.0153365
779.831	0.0151389
779.909	0.0150286
779.987	0.0152483
780.066	0.0150608
780.144	0.0150053
780.222	0.0149818
780.300	0.0149538
780.378	0.0150426
780.456	0.0149892
780.534	0.0148155
780.612	0.0149105
780.691	0.0149193
780.769	0.0148505
780.847	0.0147223
780.925	0.0148010
781.003	0.0147809
781.081	0.0148540
781.159	0.0147727
781.237	0.0149302
781.316	0.0148450
781.394	0.0149188
781.472	0.0148212
781.550	0.0148611
781.628	0.0149822
781.706	0.0150614
781.784	0.0148995
781.862	0.0147856
781.941	0.0148088
782.019	0.0148399
782.097	0.0149451
782.175	0.0148661
782.253	0.0148514
782.331	0.0148715
782.409	0.0148652
782.487	0.0148152
782.566	0.0148668
782.644	0.0149897
782.722	0.0149849
782.800	0.0148950
782.878	0.0149167
782.956	0.0148485
783.034	0.0148952
783.112	0.0149252
783.191	0.0148661
783.269	0.0148501
783.347	0.0148621
783.425	0.0147280
783.503	0.0146623
783.581	0.0147597
783.659	0.0148072
783.737	0.0146938
783.816	0.0145657
783.894	0.0146491
783.972	0.0145390
784.050	0.0145409
784.128	0.0146006
784.206	0.0144572
784.284	0.0146628
784.362	0.0145306
784.441	0.0144526
784.519	0.0144711
784.597	0.0146199
784.675	0.0145712
784.753	0.0145950
784.831	0.0145156
784.909	0.0145714
784.987	0.0146440
785.066	0.0146109
785.144	0.0147392
785.222	0.0147099
785.300	0.0146861
785.378	0.0147301
785.456	0.0147026
785.534	0.0148324
785.612	0.0148933
785.691	0.0148615
785.769	0.0148943
785.847	0.0149829
785.925	0.0149626
786.003	0.0147929
786.081	0.0147855
786.159	0.0149432
786.237	0.0149099
786.316	0.0149271
786.394	0.0148199
786.472	0.0148290
786.550	0.0148470
786.628	0.0148934
786.706	0.0147564
786.784	0.0148601
786.862	0.0147376
786.941	0.0147954
787.019	0.0147684
787.097	0.0148089
787.175	0.0148170
787.253	0.0147646
787.331	0.0147544
787.409	0.0148841
787.487	0.0146992
787.566	0.0147650
787.644	0.0148490
787.722	0.0148345
787.800	0.0148241
787.878	0.0150009
787.956	0.0150523
788.034	0.0150314
788.112	0.0150328
788.191	0.0151834
788.269	0.0151383
788.347	0.0152885
788.425	0.0152594
788.503	0.0151598
788.581	0.0150230
788.659	0.0151573
788.737	0.0150266
788.816	0.0150824
788.894	0.0150349
788.972	0.0149417
789.050	0.0149420
789.128	0.0150864
789.206	0.0149024
789.284	0.0150209
789.362	0.0151454
789.441	0.0150491
789.519	0.0149081
789.597	0.0150730
789.675	0.0151253
789.753	0.0150444
789.831	0.0150482
789.909	0.0148999
789.987	0.0150237
790.066	0.0149551
790.144	0.0150239
790.222	0.0149488
790.300	0.0147756
790.378	0.0148171
790.456	0.0149397
790.534	0.0148531
790.612	0.0148816
790.691	0.0148611
790.769	0.0149917
790.847	0.0149543
790.925	0.0148899
791.003	0.0149310
791.081	0.0149289
791.159	0.0148510
791.237	0.0148894
791.316	0.0148754
791.394	0.0149940
791.472	0.0148704
791.550	0.0148315
791.628	0.0149186
791.706	0.0148676
791.784	0.0148421
791.862	0.0150803
791.941	0.0150340
792.019	0.0150182
792.097	0.0149067
792.175	0.0149339
792.253	0.0148535
792.331	0.0149585
792.409	0.0150282
792.487	0.0150461
792.566	0.0149305
792.644	0.0148430
792.722	0.0150269
792.800	0.0148435
792.878	0.0146983
792.956	0.0146916
793.034	0.0148232
793.112	0.0148689
793.191	0.0147712
793.269	0.0146017
793.347	0.0146296
793.425	0.0146597
793.503	0.0145375
793.581	0.0145540
793.659	0.0146845
793.737	0.0144252
793.816	0.0145310
793.894	0.0145071
793.972	0.0144038
794.050	0.0146059
794.128	0.0144933
794.206	0.0146052
794.284	0.0145189
794.362	0.0144142
794.441	0.0144004
794.519	0.0145886
794.597	0.0145194
794.675	0.0144578
794.753	0.0144549
794.831	0.0144907
794.909	0.0143649
794.987	0.0145072
795.066	0.0145309
795.144	0.0145161
795.222	0.0145633
795.300	0.0145795
795.378	0.0146497
795.456	0.0145866
795.534	0.0146236
795.612	0.0144984
795.691	0.0146021
795.769	0.0145586
795.847	0.0144712
795.925	0.0144968
796.003	0.0146629
796.081	0.0145723
796.159	0.0145005
796.237	0.0145247
796.316	0.0145690
796.394	0.0145243
796.472	0.0145613
796.550	0.0145020
796.628	0.0144938
796.706	0.0144238
796.784	0.0144048
796.862	0.0145641
796.941	0.0146179
797.019	0.0144694
797.097	0.0145193
797.175	0.0146152
797.253	0.0145600
797.331	0.0144987
797.409	0.0144967
797.487	0.0145508
797.566	0.0144857
797.644	0.0144947
797.722	0.0145590
797.800	0.0146091
797.878	0.0145272
797.956	0.0143820
798.034	0.0145657
798.112	0.0147462
798.191	0.0145876
798.269	0.0146945
798.347	0.0147147
798.425	0.0147633
798.503	0.0148471
798.581	0.0148956
798.659	0.0149123
798.737	0.0150033
798.816	0.0149157
798.894	0.0151059
798.972	0.0150271
799.050	0.0151356
799.128	0.0150348
799.206	0.0149681
799.284	0.0148508
799.362	0.0150649
799.441	0.0149973
799.519	0.0149722
799.597	0.0149666
799.675	0.0150010
799.753	0.0149848
799.831	0.0150347
799.909	0.0150227
799.987	0.0150525
800.066	0.0150743
800.144	0.0150092
800.222	0.0151112
800.300	0.0151597
800.378	0.0150996
800.456	0.0151433
800.534	0.0151836
800.612	0.0151258
800.691	0.0151353
800.769	0.0151984
800.847	0.0150832
800.925	0.0150285
801.003	0.0150924
801.081	0.0151157
801.159	0.0150584
801.237	0.0149754
801.316	0.0150953
801.394	0.0151014
801.472	0.0149631
801.550	0.0149819
801.628	0.0150713
801.706	0.0152138
801.784	0.0150803
801.862	0.0150214
801.941	0.0149986
802.019	0.0150296
802.097	0.0150602
802.175	0.0150866
802.253	0.0150931
802.331	0.0149387
802.409	0.0148872
802.487	0.0148356
802.566	0.0147880
802.644	0.0149557
802.722	0.0149516
802.800	0.0147174
802.878	0.0148406
802.956	0.0149681
803.034	0.0149250
803.112	0.0148513
803.191	0.0148913
803.269	0.0148724
803.347	0.0148226
803.425	0.0148064
803.503	0.0148671
803.581	0.0148312
803.659	0.0148115
803.737	0.0148369
803.816	0.0147680
803.894	0.0147496
803.972	0.0147366
804.050	0.0147101
804.128	0.0147791
804.206	0.0146498
804.284	0.0146296
804.362	0.0147774
804.441	0.0147540
804.519	0.0146025
804.597	0.0146832
804.675	0.0147197
804.753	0.0147858
804.831	0.0145636
804.909	0.0146040
804.987	0.0146765
805.066	0.0147048
805.144	0.0146196
805.222	0.0145848
805.300	0.0145109
805.378	0.0143835
805.456	0.0145400
805.534	0.0145883
805.612	0.0145665
805.691	0.0144934
805.769	0.0143932
805.847	0.0144927
805.925	0.0144586
806.003	0.0144109
806.081	0.0146059
806.159	0.0145793
806.237	0.0145213
806.316	0.0144577
806.394	0.0145287
806.472	0.0145986
806.550	0.0146202
806.628	0.0147063
806.706	0.0147205
806.784	0.0145954
806.862	0.0147619
806.941	0.0147243
807.019	0.0148335
807.097	0.0148083
807.175	0.0147344
807.253	0.0147842
807.331	0.0148214
807.409	0.0149777
807.487	0.0149057
807.566	0.0149367
807.644	0.0150301
807.722	0.0148825
807.800	0.0149746
807.878	0.0150277
807.956	0.0150414
808.034	0.0149783
808.112	0.0149183
808.191	0.0149665
808.269	0.0150227
808.347	0.0150460
808.425	0.0148958
808.503	0.0149552
808.581	0.0148442
808.659	0.0149470
808.737	0.0148065
808.816	0.0149288
808.894	0.0149831
808.972	0.0149841
809.050	0.0148054
809.128	0.0149617
809.206	0.0151283
809.284	0.0148631
809.362	0.0149837
809.441	0.0149967
809.519	0.0150761
809.597	0.0149904
809.675	0.0150520
809.753	0.0150742
809.831	0.0150488
809.909	0.0149318
809.987	0.0150171
810.066	0.0149384
810.144	0.0147855
810.222	0.0147399
810.300	0.0148584
810.378	0.0148064
810.456	0.0148167
810.534	0.0148347
810.612	0.0147123
810.691	0.0149715
810.769	0.0149992
810.847	0.0149327
810.925	0.0150753
811.003	0.0150349
811.081	0.0149952
811.159	0.0150685
811.237	0.0152143
811.316	0.0150805
811.394	0.0150534
811.472	0.0151124
811.550	0.0149830
811.628	0.0152161
811.706	0.0151146
811.784	0.0151450
811.862	0.0152361
811.941	0.0150327
812.019	0.0149629
812.097	0.0151811
812.175	0.0151062
812.253	0.0151237
812.331	0.0150156
812.409	0.0150179
812.487	0.0151125
812.566	0.0150829
812.644	0.0150686
812.722	0.0150228
812.800	0.0150494
812.878	0.0149763
812.956	0.0149007
813.034	0.0149409
813.112	0.0150398
813.191	0.0149021
813.269	0.0149158
813.347	0.0148819
813.425	0.0147863
813.503	0.0148040
813.581	0.0148451
813.659	0.0148765
813.737	0.0149239
813.816	0.0147940
813.894	0.0147392
813.972	0.0147167
814.050	0.0146703
814.128	0.0148042
814.206	0.0148751
814.284	0.0148219
814.362	0.0147615
814.441	0.0147538
814.519	0.0149899
814.597	0.0148254
814.675	0.0147946
814.753	0.0148632
814.831	0.0148231
814.909	0.0147701
814.987	0.0149180
815.066	0.0147578
815.144	0.0148919
815.222	0.0149030
815.300	0.0149252
815.378	0.0149049
815.456	0.0149204
815.534	0.0149760
815.612	0.0148297
815.691	0.0149131
815.769	0.0148402
815.847	0.0148988
815.925	0.0148625
816.003	0.0146896
816.081	0.0148413
816.159	0.0147518
816.237	0.0146600
816.316	0.0147039
816.394	0.0147136
816.472	0.0147252
816.550	0.0145506
816.628	0.0146738
816.706	0.0145219
816.784	0.0145657
816.862	0.0146143
816.941	0.0145824
817.019	0.0145812
817.097	0.0145200
817.175	0.0145731
817.253	0.0145798
817.331	0.0144489
817.409	0.0144143
817.487	0.0144382
817.566	0.0143734
817.644	0.0144895
817.722	0.0143465
817.800	0.0142500
817.878	0.0143874
817.956	0.0144734
818.034	0.0143799
818.112	0.0144385
818.191	0.0142658
818.269	0.0142683
818.347	0.0143884
818.425	0.0142168
818.503	0.0142654
818.581	0.0140993
818.659	0.0141833
818.737	0.0143456
818.816	0.0141807
818.894	0.0143533
818.972	0.0144062
819.050	0.0144305
819.128	0.0144771
819.206	0.0144308
819.284	0.0144585
819.362	0.0145805
819.441	0.0146093
819.519	0.0146259
819.597	0.0147290
819.675	0.0147240
819.753	0.0145715
819.831	0.0146634
819.909	0.0146320
819.987	0.0145387
820.066	0.0147688
820.144	0.0146716
820.222	0.0145140
820.300	0.0145689
820.378	0.0146523
820.456	0.0145554
820.534	0.0144299
820.612	0.0145947
820.691	0.0144547
820.769	0.0145553
820.847	0.0145064
820.925	0.0145238
821.003	0.0147758
821.081	0.0145244
821.159	0.0146709
821.237	0.0145478
821.316	0.0147201
821.394	0.0147836
821.472	0.0147676
821.550	0.0147964
821.628	0.0147345
821.706	0.0148519
821.784	0.0148083
821.862	0.0148774
821.941	0.0147928
822.019	0.0149918
822.097	0.0149898
822.175	0.0149660
822.253	0.0148941
822.331	0.0149171
822.409	0.0149469
822.487	0.0149745
822.566	0.0150207
822.644	0.0149615
822.722	0.0149952
822.800	0.0148101
822.878	0.0150052
822.956	0.0150192
823.034	0.0150385
823.112	0.0150420
823.191	0.0149740
823.269	0.0149606
823.347	0.0149441
823.425	0.0148222
823.503	0.0148816
823.581	0.0151022
823.659	0.0149382
823.737	0.0148893
823.816	0.0148819
823.894	0.0149190
823.972	0.0149850
824.050	0.0149059
824.128	0.0150391
824.206	0.0148769
824.284	0.0148158
824.362	0.0149975
824.441	0.0149649
824.519	0.0149721
824.597	0.0149620
824.675	0.0150157
824.753	0.0147112
824.831	0.0147794
824.909	0.0149416
824.987	0.0148711
825.066	0.0147982
825.144	0.0148134
825.222	0.0147269
825.300	0.0146862
825.378	0.0147641
825.456	0.0147511
825.534	0.0147968
825.612	0.0147676
825.691	0.0148302
825.769	0.0147789
825.847	0.0146299
825.925	0.0147518
826.003	0.0146803
826.081	0.0147044
826.159	0.0147479
826.237	0.0146357
826.316	0.0146211
826.394	0.0146696
826.472	0.0148077
826.550	0.0145937
826.628	0.0147827
826.706	0.0148350
826.784	0.0147874
826.862	0.0148472
826.941	0.0148408
827.019	0.0148505
827.097	0.0147092
827.175	0.0148371
827.253	0.0147925
827.331	0.0148990
827.409	0.0146922
827.487	0.0147890
827.566	0.0149075
827.644	0.0148656
827.722	0.0146708
827.800	0.0148367
827.878	0.0148092
827.956	0.0147406
828.034	0.0148106
828.112	0.0147974
828.191	0.0147295
828.269	0.0146869
828.347	0.0147265
828.425	0.0147492
828.503	0.0147154
828.581	0.0147551
828.659	0.0145602
828.737	0.0147488
828.816	0.0146200
828.894	0.0146677
828.972	0.0145647
829.050	0.0146275
829.128	0.0147604
829.206	0.0146775
829.284	0.0147624
829.362	0.0147768
829.441	0.0145496
829.519	0.0146918
829.597	0.0146030
829.675	0.0146867
829.753	0.0147478
829.831	0.0147826
829.909	0.0147034
829.987	0.0144402
830.066	0.0147176
830.144	0.0147456
830.222	0.0146227
830.300	0.0145043
830.378	0.0145226
830.456	0.0144910
830.534	0.0145179
830.612	0.0144643
830.691	0.0143775
830.769	0.0144373
830.847	0.0143173
830.925	0.0143599
831.003	0.0144093
831.081	0.0143269
831.159	0.0143304
831.237	0.0143810
831.316	0.0144896
831.394	0.0143111
831.472	0.0142565
831.550	0.0144273
831.628	0.0146211
831.706	0.0144042
831.784	0.0144579
831.862	0.0144073
831.941	0.0144548
832.019	0.0143631
832.097	0.0144028
832.175	0.0145899
832.253	0.0143603
832.331	0.0141905
832.409	0.0143504
832.487	0.0142706
832.566	0.0143410
832.644	0.0143414
832.722	0.0144263
832.800	0.0144592
832.878	0.0144435
832.956	0.0144164
833.034	0.0144588
833.112	0.0145743
833.191	0.0144351
833.269	0.0145245
833.347	0.0146514
833.425	0.0146046
833.503	0.0147209
833.581	0.0146305
833.659	0.0146778
833.737	0.0146589
833.816	0.0147339
833.894	0.0147443
833.972	0.0146714
834.050	0.0147176
834.128	0.0147412
834.206	0.0146756
834.284	0.0147274
834.362	0.0146873
834.441	0.0147488
834.519	0.0147898
834.597	0.0147861
834.675	0.0147787
834.753	0.0148054
834.831	0.0149557
834.909	0.0149585
834.987	0.0148749
835.066	0.0148132
835.144	0.0146249
835.222	0.0147810
835.300	0.0149126
835.378	0.0147833
835.456	0.0148180
835.534	0.0147221
835.612	0.0148594
835.691	0.0147367
835.769	0.0147443
835.847	0.0146725
835.925	0.0146369
836.003	0.0146985
836.081	0.0146638
836.159	0.0145638
836.237	0.0146311
836.316	0.0147657
836.394	0.0147033
836.472	0.0146232
836.550	0.0149065
836.628	0.0149185
836.706	0.0147885
836.784	0.0149109
836.862	0.0149944
836.941	0.0148901
837.019	0.0148160
837.097	0.0149102
837.175	0.0149024
837.253	0.0147714
837.331	0.0147823
837.409	0.0147571
837.487	0.0146683
837.566	0.0148186
837.644	0.0147880
837.722	0.0146185
837.800	0.0146825
837.878	0.0146600
837.956	0.0147810
838.034	0.0148866
838.112	0.0146989
838.191	0.0146344
838.269	0.0146767
838.347	0.0147712
838.425	0.0147308
838.503	0.0147488
838.581	0.0146606
838.659	0.0146454
838.737	0.0146513
838.816	0.0146117
838.894	0.0145381
838.972	0.0145611
839.050	0.0146253
839.128	0.0144069
839.206	0.0145524
839.284	0.0145309
839.362	0.0143959
839.441	0.0144102
839.519	0.0145569
839.597	0.0145450
839.675	0.0146130
839.753	0.0146329
839.831	0.0146203
839.909	0.0146777
839.987	0.0145967
840.066	0.0145989
840.144	0.0144730
840.222	0.0145457
840.300	0.0148847
840.378	0.0146878
840.456	0.0146497
840.534	0.0147536
840.612	0.0147305
840.691	0.0148443
840.769	0.0146419
840.847	0.0147440
840.925	0.0146829
841.003	0.0146531
841.081	0.0148328
841.159	0.0147378
841.237	0.0148059
841.316	0.0147520
841.394	0.0147055
841.472	0.0146579
841.550	0.0146819
841.628	0.0147348
841.706	0.0146991
841.784	0.0146982
841.862	0.0145619
841.941	0.0143958
842.019	0.0147868
842.097	0.0147608
842.175	0.0145904
842.253	0.0145782
842.331	0.0146191
842.409	0.0147599
842.487	0.0146828
842.566	0.0146708
842.644	0.0146019
842.722	0.0146600
842.800	0.0146585
842.878	0.0146331
842.956	0.0145681
843.034	0.0144691
843.112	0.0146009
843.191	0.0147108
843.269	0.0146204
843.347	0.0145844
843.425	0.0145583
843.503	0.0146786
843.581	0.0146108
843.659	0.0146857
843.737	0.0146946
843.816	0.0146462
843.894	0.0147045
843.972	0.0147030
844.050	0.0147509
844.128	0.0147176
844.206	0.0147058
844.284	0.0145682
844.362	0.0145617
844.441	0.0146741
844.519	0.0146637
844.597	0.0145274
844.675	0.0145907
844.753	0.0147100
844.831	0.0146320
844.909	0.0146350
844.987	0.0146795
845.066	0.0146667
845.144	0.0147355
845.222	0.0148622
845.300	0.0149826
845.378	0.0148935
845.456	0.0148129
845.534	0.0149000
845.612	0.0149186
845.691	0.0149136
845.769	0.0149943
845.847	0.0151463
845.925	0.0149748
846.003	0.0148997
846.081	0.0149741
846.159	0.0149826
846.237	0.0150223
846.316	0.0149780
846.394	0.0149294
846.472	0.0149022
846.550	0.0147829
846.628	0.0146782
846.706	0.0146851
846.784	0.0146550
846.862	0.0146217
846.941	0.0145752
847.019	0.0144746
847.097	0.0144363
847.175	0.0145572
847.253	0.0144732
847.331	0.0143147
847.409	0.0144883
847.487	0.0144298
847.566	0.0145528
847.644	0.0144780
847.722	0.0145479
847.800	0.0146137
847.878	0.0145750
847.956	0.0144396
848.034	0.0146771
848.112	0.0146694
848.191	0.0147233
848.269	0.0146988
848.347	0.0146894
848.425	0.0145563
848.503	0.0144991
848.581	0.0146562
848.659	0.0146399
848.737	0.0145361
848.816	0.0146026
848.894	0.0143863
848.972	0.0143491
849.050	0.0144632
849.128	0.0144827
849.206	0.0145222
849.284	0.0146234
849.362	0.0145214
849.441	0.0144394
849.519	0.0146817
849.597	0.0146672
849.675	0.0144823
849.753	0.0147172
849.831	0.0148411
849.909	0.0147900
849.987	0.0147707
850.066	0.0146556
850.144	0.0146127
850.222	0.0148010
850.300	0.0148154
850.378	0.0147103
850.456	0.0146625
850.534	0.0145316
850.612	0.0147499
850.691	0.0147595
850.769	0.0147122
850.847	0.0145643
850.925	0.0147015
851.003	0.0147051
851.081	0.0146944
851.159	0.0145729
851.237	0.0147274
851.316	0.0144940
851.394	0.0145068
851.472	0.0145053
851.550	0.0146242
851.628	0.0143858
851.706	0.0144203
851.784	0.0144842
851.862	0.0144299
851.941	0.0144869
852.019	0.0146356
852.097	0.0145090
852.175	0.0144439
852.253	0.0144689
852.331	0.0144856
852.409	0.0145304
852.487	0.0145709
852.566	0.0146771
852.644	0.0145831
852.722	0.0147021
852.800	0.0147018
852.878	0.0146871
852.956	0.0146471
853.034	0.0146548
853.112	0.0147912
853.191	0.0146004
853.269	0.0145410
853.347	0.0145518
853.425	0.0145581
853.503	0.0145939
853.581	0.0145516
853.659	0.0145109
853.737	0.0145131
853.816	0.0144739
853.894	0.0144718
853.972	0.0145393
854.050	0.0144532
854.128	0.0144052
854.206	0.0144965
854.284	0.0145689
854.362	0.0144929
854.441	0.0145705
854.519	0.0145398
854.597	0.0144819
854.675	0.0145753
854.753	0.0145232
854.831	0.0145444
854.909	0.0145255
854.987	0.0145335
855.066	0.0145718
855.144	0.0144337
855.222	0.0146279
855.300	0.0145129
855.378	0.0145048
855.456	0.0145489
855.534	0.0147007
855.612	0.0144740
855.691	0.0145230
855.769	0.0146914
855.847	0.0145200
855.925	0.0145263
856.003	0.0145683
856.081	0.0146624
856.159	0.0145532
856.237	0.0146333
856.316	0.0144683
856.394	0.0146436
856.472	0.0146731
856.550	0.0147625
856.628	0.0147044
856.706	0.0147655
856.784	0.0145719
856.862	0.0146696
856.941	0.0147187
857.019	0.0146373
857.097	0.0146222
857.175	0.0146560
857.253	0.0147181
857.331	0.0148257
857.409	0.0147517
857.487	0.0147437
857.566	0.0148225
857.644	0.0149062
857.722	0.0148491
857.800	0.0147826
857.878	0.0148242
857.956	0.0147386
858.034	0.0148698
858.112	0.0148055
858.191	0.0147775
858.269	0.0147758
858.347	0.0147021
858.425	0.0147323
858.503	0.0146169
858.581	0.0147376
858.659	0.0147021
858.737	0.0146713
858.816	0.0145590
858.894	0.0145724
858.972	0.0147068
859.050	0.0146723
859.128	0.0146943
859.206	0.0148045
859.284	0.0146570
859.362	0.0148155
859.441	0.0146456
859.519	0.0147182
859.597	0.0148170
859.675	0.0147965
859.753	0.0147897
859.831	0.0148090
859.909	0.0147406
859.987	0.0147306
860.066	0.0147185
860.144	0.0147192
860.222	0.0146719
860.300	0.0148026
860.378	0.0147371
860.456	0.0147622
860.534	0.0148137
860.612	0.0149028
860.691	0.0146715
860.769	0.0147764
860.847	0.0147431
860.925	0.0149639
861.003	0.0149778
861.081	0.0150011
861.159	0.0148691
861.237	0.0149262
861.316	0.0149054
861.394	0.0148277
861.472	0.0149431
861.550	0.0147974
861.628	0.0148958
861.706	0.0149194
861.784	0.0148560
861.862	0.0147778
861.941	0.0147986
862.019	0.0148135
862.097	0.0148030
862.175	0.0148695
862.253	0.0149178
862.331	0.0147947
862.409	0.0147887
862.487	0.0149857
862.566	0.0148908
862.644	0.0148690
862.722	0.0148985
862.800	0.0149903
862.878	0.0149153
862.956	0.0149382
863.034	0.0147616
863.112	0.0148380
863.191	0.0149828
863.269	0.0148949
863.347	0.0149013
863.425	0.0148070
863.503	0.0147881
863.581	0.0146409
863.659	0.0147005
863.737	0.0145835
863.816	0.0146404
863.894	0.0147368
863.972	0.0147218
864.050	0.0145817
864.128	0.0147617
864.206	0.0147454
864.284	0.0146499
864.362	0.0147955
864.441	0.0146593
864.519	0.0148130
864.597	0.0146608
864.675	0.0148296
864.753	0.0149022
864.831	0.0147393
864.909	0.0147030
864.987	0.0148015
865.066	0.0147867
865.144	0.0147653
865.222	0.0147040
865.300	0.0148670
865.378	0.0146836
865.456	0.0148022
865.534	0.0147708
865.612	0.0146424
865.691	0.0148824
865.769	0.0149127
865.847	0.0147674
865.925	0.0148859
866.003	0.0148877
866.081	0.0147195
866.159	0.0149564
866.237	0.0149220
866.316	0.0148959
866.394	0.0148570
866.472	0.0149776
866.550	0.0149686
866.628	0.0148701
866.706	0.0149786
866.784	0.0149364
866.862	0.0148545
866.941	0.0148746
867.019	0.0149624
867.097	0.0148325
867.175	0.0149765
867.253	0.0148936
867.331	0.0149995
867.409	0.0149694
867.487	0.0148038
867.566	0.0149178
867.644	0.0149851
867.722	0.0147971
867.800	0.0150563
867.878	0.0150018
867.956	0.0149728
868.034	0.0150529
868.112	0.0149019
868.191	0.0148454
868.269	0.0148889
868.347	0.0147646
868.425	0.0148686
868.503	0.0147165
868.581	0.0147930
868.659	0.0148856
868.737	0.0148380
868.816	0.0148551
868.894	0.0147504
868.972	0.0148634
869.050	0.0148865
869.128	0.0148375
869.206	0.0148823
869.284	0.0149577
869.362	0.0148457
869.441	0.0148969
869.519	0.0149929
869.597	0.0149870
869.675	0.0150782
869.753	0.0149864
869.831	0.0149453
869.909	0.0149667
869.987	0.0149766
870.066	0.0149067
870.144	0.0148304
870.222	0.0148116
870.300	0.0149252
870.378	0.0146989
870.456	0.0147907
870.534	0.0148537
870.612	0.0147918
870.691	0.0146854
870.769	0.0147348
870.847	0.0146819
870.925	0.0146775
871.003	0.0148747
871.081	0.0147019
871.159	0.0147652
871.237	0.0148837
871.316	0.0148547
871.394	0.0147988
871.472	0.0147704
871.550	0.0147606
871.628	0.0146776
871.706	0.0148519
871.784	0.0147249
871.862	0.0145628
871.941	0.0146629
872.019	0.0148218
872.097	0.0148309
872.175	0.0148219
872.253	0.0147245
872.331	0.0148546
872.409	0.0149842
872.487	0.0149919
872.566	0.0147411
872.644	0.0148758
872.722	0.0148759
872.800	0.0149095
872.878	0.0148746
872.956	0.0148474
873.034	0.0148129
873.112	0.0150283
873.191	0.0148718
873.269	0.0148922
873.347	0.0148499
873.425	0.0149580
873.503	0.0147816
873.581	0.0149353
873.659	0.0150952
873.737	0.0150706
873.816	0.0150921
873.894	0.0150075
873.972	0.0149858
874.050	0.0150330
874.128	0.0150733
874.206	0.0150163
874.284	0.0152349
874.362	0.0152615
874.441	0.0150612
874.519	0.0151751
874.597	0.0150889
874.675	0.0152016
874.753	0.0151723
874.831	0.0153434
874.909	0.0151585
874.987	0.0151268
875.066	0.0152595
875.144	0.0153050
875.222	0.0151616
875.300	0.0152637
875.378	0.0151212
875.456	0.0150945
875.534	0.0152326
875.612	0.0150788
875.691	0.0150771
875.769	0.0150813
875.847	0.0151058
875.925	0.0148593
876.003	0.0148694
876.081	0.0150992
876.159	0.0149859
876.237	0.0148546
876.316	0.0148978
876.394	0.0150024
876.472	0.0148820
876.550	0.0148920
876.628	0.0146623
876.706	0.0147408
876.784	0.0148669
876.862	0.0148038
876.941	0.0147295
877.019	0.0147593
877.097	0.0146779
877.175	0.0146339
877.253	0.0145712
877.331	0.0145120
877.409	0.0146146
877.487	0.0144494
877.566	0.0143372
877.644	0.0145126
877.722	0.0143990
877.800	0.0143173
877.878	0.0143665
877.956	0.0144495
878.034	0.0143671
878.112	0.0143620
878.191	0.0143296
878.269	0.0144817
878.347	0.0145129
878.425	0.0146383
878.503	0.0145647
878.581	0.0145274
878.659	0.0145398
878.737	0.0144663
878.816	0.0145229
878.894	0.0145078
878.972	0.0145002
879.050	0.0145261
879.128	0.0144997
879.206	0.0145792
879.284	0.0145108
879.362	0.0145573
879.441	0.0145006
879.519	0.0145542
879.597	0.0144575
879.675	0.0144854
879.753	0.0144126
879.831	0.0144934
879.909	0.0144355
