05/28/2022	13:55:45	Ver.	4.1	UNKNOWN
Optical Delay	599.988409	Delta X		0.078125	Sweeps	1	Scan Rate	0/0
Coordinates	Axis 1	NaN	Axis 2	NaN	Axis 3	NaN	Axis 4	NaN	Axis 5	NaN	Axis 6	0.000000
TX Power	0.000000	RX Power	0.000000

599.988	0.0149023
600.067	0.0149812
600.145	0.0149898
600.223	0.0149176
600.301	0.0149388
600.379	0.0149963
600.457	0.0150501
600.535	0.0150114
600.613	0.0149075
600.692	0.0148769
600.770	0.0148292
600.848	0.0149081
600.926	0.0149971
601.004	0.0150620
601.082	0.0150308
601.160	0.0148804
601.238	0.0148996
601.317	0.0149345
601.395	0.0149310
601.473	0.0148345
601.551	0.0148223
601.629	0.0148412
601.707	0.0149200
601.785	0.0148658
601.863	0.0149225
601.942	0.0148249
602.020	0.0148514
602.098	0.0148541
602.176	0.0148903
602.254	0.0149914
602.332	0.0148635
602.410	0.0149092
602.488	0.0148911
602.567	0.0148525
602.645	0.0148905
602.723	0.0149052
602.801	0.0149328
602.879	0.0149339
602.957	0.0149965
603.035	0.0149020
603.113	0.0150446
603.192	0.0149277
603.270	0.0149181
603.348	0.0150589
603.426	0.0148772
603.504	0.0149609
603.582	0.0150457
603.660	0.0149899
603.738	0.0150429
603.817	0.0150061
603.895	0.0149576
603.973	0.0149847
604.051	0.0150018
604.129	0.0149503
604.207	0.0149593
604.285	0.0148904
604.363	0.0149163
604.442	0.0149805
604.520	0.0149241
604.598	0.0148261
604.676	0.0150622
604.754	0.0149567
604.832	0.0149251
604.910	0.0149195
604.988	0.0149274
605.067	0.0149503
605.145	0.0149200
605.223	0.0150688
605.301	0.0150030
605.379	0.0148667
605.457	0.0149835
605.535	0.0151007
605.613	0.0150008
605.692	0.0149834
605.770	0.0150397
605.848	0.0149487
605.926	0.0150260
606.004	0.0149915
606.082	0.0148691
606.160	0.0147834
606.238	0.0147292
606.317	0.0148006
606.395	0.0149744
606.473	0.0150674
606.551	0.0150335
606.629	0.0149834
606.707	0.0148948
606.785	0.0150836
606.863	0.0149349
606.942	0.0149168
607.020	0.0149754
607.098	0.0149946
607.176	0.0149049
607.254	0.0148924
607.332	0.0149723
607.410	0.0149597
607.488	0.0148887
607.567	0.0148290
607.645	0.0149088
607.723	0.0149818
607.801	0.0148940
607.879	0.0147971
607.957	0.0150452
608.035	0.0149996
608.113	0.0149813
608.192	0.0148910
608.270	0.0148737
608.348	0.0150315
608.426	0.0148526
608.504	0.0148894
608.582	0.0149601
608.660	0.0149520
608.738	0.0149437
608.817	0.0150094
608.895	0.0149360
608.973	0.0148320
609.051	0.0148249
609.129	0.0148231
609.207	0.0148867
609.285	0.0150229
609.363	0.0149581
609.442	0.0148940
609.520	0.0150299
609.598	0.0148874
609.676	0.0148949
609.754	0.0149284
609.832	0.0150632
609.910	0.0148788
609.988	0.0147691
610.067	0.0149813
610.145	0.0148309
610.223	0.0148154
610.301	0.0149092
610.379	0.0149406
610.457	0.0150128
610.535	0.0148446
610.613	0.0149552
610.692	0.0148694
610.770	0.0150430
610.848	0.0150295
610.926	0.0149574
611.004	0.0149359
611.082	0.0149117
611.160	0.0150958
611.238	0.0149837
611.317	0.0148930
611.395	0.0148709
611.473	0.0148611
611.551	0.0148478
611.629	0.0150029
611.707	0.0149705
611.785	0.0149261
611.863	0.0148610
611.942	0.0149569
612.020	0.0150217
612.098	0.0149306
612.176	0.0148621
612.254	0.0150244
612.332	0.0149553
612.410	0.0149776
612.488	0.0149238
612.567	0.0148826
612.645	0.0150246
612.723	0.0149060
612.801	0.0149400
612.879	0.0150832
612.957	0.0149017
613.035	0.0149499
613.113	0.0150255
613.192	0.0150791
613.270	0.0150186
613.348	0.0149508
613.426	0.0148962
613.504	0.0151522
613.582	0.0150152
613.660	0.0148561
613.738	0.0149747
613.817	0.0149003
613.895	0.0149451
613.973	0.0149187
614.051	0.0150556
614.129	0.0148042
614.207	0.0149037
614.285	0.0149464
614.363	0.0149504
614.442	0.0150117
614.520	0.0148653
614.598	0.0149213
614.676	0.0151203
614.754	0.0149070
614.832	0.0149104
614.910	0.0149366
614.988	0.0148792
615.067	0.0149574
615.145	0.0147746
615.223	0.0149739
615.301	0.0149910
615.379	0.0148084
615.457	0.0148698
615.535	0.0149146
615.613	0.0148688
615.692	0.0149418
615.770	0.0150250
615.848	0.0148664
615.926	0.0148879
616.004	0.0149586
616.082	0.0149204
616.160	0.0148948
616.238	0.0149924
616.317	0.0149346
616.395	0.0150062
616.473	0.0149354
616.551	0.0148125
616.629	0.0148171
616.707	0.0149008
616.785	0.0148618
616.863	0.0147981
616.942	0.0149212
617.020	0.0149454
617.098	0.0149719
617.176	0.0149328
617.254	0.0148272
617.332	0.0148228
617.410	0.0149655
617.488	0.0149196
617.567	0.0149522
617.645	0.0149385
617.723	0.0149323
617.801	0.0149545
617.879	0.0147726
617.957	0.0149351
618.035	0.0147458
618.113	0.0148409
618.192	0.0149344
618.270	0.0149172
618.348	0.0149289
618.426	0.0149902
618.504	0.0148013
618.582	0.0149166
618.660	0.0149165
618.738	0.0148103
618.817	0.0150540
618.895	0.0148596
618.973	0.0148842
619.051	0.0149069
619.129	0.0148742
619.207	0.0149811
619.285	0.0148930
619.363	0.0148242
619.442	0.0150454
619.520	0.0150293
619.598	0.0150883
619.676	0.0149272
619.754	0.0148297
619.832	0.0149710
619.910	0.0148347
619.988	0.0148080
620.067	0.0149182
620.145	0.0149757
620.223	0.0148577
620.301	0.0149664
620.379	0.0148389
620.457	0.0148706
620.535	0.0148679
620.613	0.0149706
620.692	0.0149824
620.770	0.0150114
620.848	0.0150455
620.926	0.0149712
621.004	0.0147879
621.082	0.0150845
621.160	0.0148981
621.238	0.0148197
621.317	0.0149196
621.395	0.0150188
621.473	0.0148582
621.551	0.0149710
621.629	0.0149847
621.707	0.0150974
621.785	0.0149734
621.863	0.0149919
621.942	0.0149265
622.020	0.0149452
622.098	0.0149765
622.176	0.0149200
622.254	0.0149867
622.332	0.0149718
622.410	0.0148508
622.488	0.0149770
622.567	0.0148726
622.645	0.0148328
622.723	0.0150618
622.801	0.0150759
622.879	0.0149790
622.957	0.0148740
623.035	0.0148087
623.113	0.0149503
623.192	0.0150083
623.270	0.0148290
623.348	0.0148866
623.426	0.0148582
623.504	0.0149635
623.582	0.0149385
623.660	0.0148831
623.738	0.0150706
623.817	0.0149268
623.895	0.0150147
623.973	0.0150297
624.051	0.0148312
624.129	0.0149577
624.207	0.0147662
624.285	0.0148693
624.363	0.0149753
624.442	0.0149713
624.520	0.0149580
624.598	0.0149247
624.676	0.0147799
624.754	0.0148638
624.832	0.0149228
624.910	0.0148395
624.988	0.0149240
625.067	0.0149343
625.145	0.0150272
625.223	0.0148830
625.301	0.0148000
625.379	0.0148528
625.457	0.0150224
625.535	0.0148394
625.613	0.0149461
625.692	0.0150388
625.770	0.0149918
625.848	0.0147780
625.926	0.0148541
626.004	0.0150024
626.082	0.0148832
626.160	0.0149785
626.238	0.0149789
626.317	0.0149136
626.395	0.0148513
626.473	0.0148957
626.551	0.0150910
626.629	0.0150480
626.707	0.0148088
626.785	0.0148781
626.863	0.0149400
626.942	0.0148454
627.020	0.0149717
627.098	0.0148309
627.176	0.0149042
627.254	0.0150121
627.332	0.0149858
627.410	0.0149449
627.488	0.0148402
627.567	0.0150634
627.645	0.0148452
627.723	0.0148366
627.801	0.0148688
627.879	0.0150036
627.957	0.0148680
628.035	0.0149641
628.113	0.0149224
628.192	0.0149060
628.270	0.0150482
628.348	0.0149438
628.426	0.0147781
628.504	0.0149193
628.582	0.0149557
628.660	0.0149294
628.738	0.0148975
628.817	0.0148637
628.895	0.0150832
628.973	0.0150285
629.051	0.0149900
629.129	0.0148875
629.207	0.0148046
629.285	0.0149380
629.363	0.0149426
629.442	0.0148849
629.520	0.0149226
629.598	0.0148589
629.676	0.0149513
629.754	0.0148273
629.832	0.0149531
629.910	0.0150156
629.988	0.0148698
630.067	0.0147767
630.145	0.0148780
630.223	0.0150681
630.301	0.0147377
630.379	0.0148919
630.457	0.0149184
630.535	0.0148500
630.613	0.0148531
630.692	0.0149932
630.770	0.0150163
630.848	0.0148985
630.926	0.0149362
631.004	0.0147782
631.082	0.0147301
631.160	0.0149345
631.238	0.0150542
631.317	0.0149309
631.395	0.0148617
631.473	0.0149619
631.551	0.0149375
631.629	0.0148460
631.707	0.0148212
631.785	0.0149044
631.863	0.0149059
631.942	0.0150089
632.020	0.0149200
632.098	0.0147430
632.176	0.0149781
632.254	0.0149081
632.332	0.0148647
632.410	0.0149150
632.488	0.0149792
632.567	0.0149696
632.645	0.0149920
632.723	0.0149354
632.801	0.0148214
632.879	0.0149501
632.957	0.0147278
633.035	0.0149510
633.113	0.0150024
633.192	0.0150465
633.270	0.0150195
633.348	0.0149874
633.426	0.0148290
633.504	0.0148385
633.582	0.0150031
633.660	0.0148624
633.738	0.0149332
633.817	0.0150294
633.895	0.0148994
633.973	0.0147537
634.051	0.0149286
634.129	0.0148948
634.207	0.0149224
634.285	0.0148824
634.363	0.0149748
634.442	0.0150134
634.520	0.0146622
634.598	0.0149423
634.676	0.0149677
634.754	0.0149068
634.832	0.0148518
634.910	0.0148843
634.988	0.0148783
635.067	0.0149115
635.145	0.0148476
635.223	0.0147396
635.301	0.0147607
635.379	0.0150403
635.457	0.0148826
635.535	0.0149905
635.613	0.0149489
635.692	0.0149163
635.770	0.0148645
635.848	0.0148287
635.926	0.0149792
636.004	0.0150084
636.082	0.0149710
636.160	0.0148717
636.238	0.0148682
636.317	0.0149698
636.395	0.0149313
636.473	0.0148825
636.551	0.0150094
636.629	0.0148820
636.707	0.0148498
636.785	0.0147804
636.863	0.0148552
636.942	0.0150777
637.020	0.0151405
637.098	0.0148989
637.176	0.0147002
637.254	0.0150224
637.332	0.0150150
637.410	0.0149201
637.488	0.0149471
637.567	0.0148315
637.645	0.0149332
637.723	0.0149021
637.801	0.0148569
637.879	0.0149268
637.957	0.0149483
638.035	0.0149416
638.113	0.0150897
638.192	0.0149117
638.270	0.0149169
638.348	0.0148511
638.426	0.0150653
638.504	0.0149963
638.582	0.0148192
638.660	0.0149721
638.738	0.0148442
638.817	0.0148987
638.895	0.0150665
638.973	0.0150413
639.051	0.0148682
639.129	0.0149059
639.207	0.0150696
639.285	0.0149002
639.363	0.0148508
639.442	0.0150378
639.520	0.0148702
639.598	0.0148120
639.676	0.0149507
639.754	0.0149593
639.832	0.0149876
639.910	0.0149301
639.988	0.0150468
640.067	0.0150382
640.145	0.0149178
640.223	0.0148520
640.301	0.0148252
640.379	0.0147929
640.457	0.0149841
640.535	0.0149796
640.613	0.0149202
640.692	0.0149250
640.770	0.0148671
640.848	0.0150153
640.926	0.0149790
641.004	0.0149963
641.082	0.0149629
641.160	0.0148888
641.238	0.0150476
641.317	0.0150823
641.395	0.0149548
641.473	0.0149139
641.551	0.0150591
641.629	0.0148846
641.707	0.0148651
641.785	0.0148665
641.863	0.0148743
641.942	0.0150047
642.020	0.0149659
642.098	0.0149626
642.176	0.0148699
642.254	0.0148615
642.332	0.0148516
642.410	0.0148926
642.488	0.0149014
642.567	0.0148681
642.645	0.0149783
642.723	0.0150093
642.801	0.0148242
642.879	0.0147797
642.957	0.0148901
643.035	0.0149705
643.113	0.0148888
643.192	0.0149484
643.270	0.0149466
643.348	0.0150414
643.426	0.0150477
643.504	0.0149140
643.582	0.0148196
643.660	0.0148833
643.738	0.0149201
643.817	0.0148876
643.895	0.0150526
643.973	0.0150288
644.051	0.0148840
644.129	0.0149999
644.207	0.0148050
644.285	0.0149106
644.363	0.0149968
644.442	0.0148798
644.520	0.0149651
644.598	0.0148845
644.676	0.0149337
644.754	0.0149314
644.832	0.0151106
644.910	0.0150299
644.988	0.0150063
645.067	0.0149287
645.145	0.0149814
645.223	0.0149371
645.301	0.0149074
645.379	0.0148421
645.457	0.0149662
645.535	0.0149464
645.613	0.0151089
645.692	0.0149376
645.770	0.0148473
645.848	0.0148051
645.926	0.0148654
646.004	0.0148918
646.082	0.0148990
646.160	0.0149004
646.238	0.0149287
646.317	0.0149099
646.395	0.0148908
646.473	0.0149378
646.551	0.0149019
646.629	0.0148890
646.707	0.0148639
646.785	0.0149985
646.863	0.0149443
646.942	0.0148812
647.020	0.0150966
647.098	0.0147865
647.176	0.0149129
647.254	0.0150481
647.332	0.0149245
647.410	0.0149084
647.488	0.0148660
647.567	0.0150128
647.645	0.0148948
647.723	0.0149345
647.801	0.0148538
647.879	0.0149641
647.957	0.0148649
648.035	0.0148837
648.113	0.0149503
648.192	0.0150275
648.270	0.0147954
648.348	0.0148406
648.426	0.0149015
648.504	0.0149876
648.582	0.0149927
648.660	0.0150272
648.738	0.0150381
648.817	0.0148347
648.895	0.0149548
648.973	0.0150220
649.051	0.0149323
649.129	0.0149137
649.207	0.0148774
649.285	0.0148268
649.363	0.0150787
649.442	0.0149602
649.520	0.0148315
649.598	0.0149725
649.676	0.0149609
649.754	0.0150784
649.832	0.0147900
649.910	0.0149064
649.988	0.0149821
650.067	0.0148770
650.145	0.0149366
650.223	0.0147813
650.301	0.0149444
650.379	0.0149609
650.457	0.0149497
650.535	0.0148470
650.613	0.0150300
650.692	0.0150998
650.770	0.0149353
650.848	0.0149606
650.926	0.0149587
651.004	0.0150146
651.082	0.0149361
651.160	0.0149858
651.238	0.0149493
651.317	0.0148869
651.395	0.0150497
651.473	0.0150028
651.551	0.0149197
651.629	0.0149767
651.707	0.0148761
651.785	0.0149129
651.863	0.0151402
651.942	0.0149641
652.020	0.0150451
652.098	0.0150391
652.176	0.0149306
652.254	0.0148623
652.332	0.0149924
652.410	0.0150433
652.488	0.0149510
652.567	0.0149081
652.645	0.0148879
652.723	0.0148307
652.801	0.0150047
652.879	0.0149390
652.957	0.0148459
653.035	0.0149935
653.113	0.0147662
653.192	0.0150867
653.270	0.0150205
653.348	0.0148458
653.426	0.0149243
653.504	0.0149577
653.582	0.0149513
653.660	0.0149786
653.738	0.0149336
653.817	0.0149868
653.895	0.0149248
653.973	0.0149182
654.051	0.0148827
654.129	0.0149323
654.207	0.0149557
654.285	0.0149670
654.363	0.0149628
654.442	0.0148850
654.520	0.0150462
654.598	0.0149985
654.676	0.0149733
654.754	0.0150103
654.832	0.0149103
654.910	0.0148537
654.988	0.0148945
655.067	0.0149215
655.145	0.0149239
655.223	0.0148684
655.301	0.0149245
655.379	0.0148468
655.457	0.0149968
655.535	0.0151070
655.613	0.0148779
655.692	0.0149806
655.770	0.0149298
655.848	0.0150337
655.926	0.0150755
656.004	0.0149857
656.082	0.0150362
656.160	0.0150377
656.238	0.0148771
656.317	0.0149319
656.395	0.0149402
656.473	0.0149096
656.551	0.0149356
656.629	0.0150328
656.707	0.0148820
656.785	0.0149968
656.863	0.0150403
656.942	0.0149082
657.020	0.0150211
657.098	0.0149646
657.176	0.0149690
657.254	0.0149603
657.332	0.0148209
657.410	0.0147803
657.488	0.0150285
657.567	0.0150033
657.645	0.0149622
657.723	0.0149626
657.801	0.0149248
657.879	0.0149361
657.957	0.0149569
658.035	0.0149265
658.113	0.0148949
658.192	0.0148716
658.270	0.0150151
658.348	0.0148605
658.426	0.0149725
658.504	0.0149986
658.582	0.0149390
658.660	0.0148705
658.738	0.0148303
658.817	0.0149855
658.895	0.0150594
658.973	0.0149308
659.051	0.0150159
659.129	0.0150493
659.207	0.0149480
659.285	0.0149039
659.363	0.0147886
659.442	0.0149357
659.520	0.0149059
659.598	0.0149242
659.676	0.0149117
659.754	0.0149427
659.832	0.0150237
659.910	0.0148817
659.988	0.0149463
660.067	0.0149381
660.145	0.0149018
660.223	0.0149254
660.301	0.0149551
660.379	0.0148927
660.457	0.0149837
660.535	0.0148244
660.613	0.0150058
660.692	0.0149059
660.770	0.0149375
660.848	0.0148167
660.926	0.0148713
661.004	0.0148227
661.082	0.0148715
661.160	0.0148571
661.238	0.0149606
661.317	0.0149435
661.395	0.0148856
661.473	0.0148454
661.551	0.0150970
661.629	0.0149584
661.707	0.0149158
661.785	0.0148439
661.863	0.0148830
661.942	0.0147980
662.020	0.0148402
662.098	0.0148866
662.176	0.0149753
662.254	0.0150762
662.332	0.0150452
662.410	0.0148876
662.488	0.0148692
662.567	0.0148509
662.645	0.0150295
662.723	0.0150678
662.801	0.0150187
662.879	0.0147955
662.957	0.0148509
663.035	0.0149000
663.113	0.0149743
663.192	0.0149094
663.270	0.0151167
663.348	0.0150886
663.426	0.0148267
663.504	0.0149491
663.582	0.0149456
663.660	0.0150931
663.738	0.0149907
663.817	0.0149121
663.895	0.0147955
663.973	0.0148664
664.051	0.0148071
664.129	0.0149300
664.207	0.0148875
664.285	0.0150117
664.363	0.0148473
664.442	0.0149754
664.520	0.0150636
664.598	0.0149090
664.676	0.0148212
664.754	0.0150358
664.832	0.0149915
664.910	0.0149953
664.988	0.0149390
665.067	0.0148450
665.145	0.0149081
665.223	0.0149802
665.301	0.0148978
665.379	0.0149360
665.457	0.0149513
665.535	0.0148783
665.613	0.0148401
665.692	0.0148885
665.770	0.0149158
665.848	0.0149483
665.926	0.0149216
666.004	0.0148466
666.082	0.0148598
666.160	0.0149236
666.238	0.0148997
666.317	0.0148115
666.395	0.0150278
666.473	0.0149870
666.551	0.0149728
666.629	0.0149949
666.707	0.0149725
666.785	0.0149939
666.863	0.0149824
666.942	0.0149031
667.020	0.0150091
667.098	0.0148643
667.176	0.0149081
667.254	0.0148913
667.332	0.0149993
667.410	0.0149422
667.488	0.0149503
667.567	0.0149169
667.645	0.0149403
667.723	0.0149055
667.801	0.0149003
667.879	0.0147331
667.957	0.0149679
668.035	0.0150579
668.113	0.0148505
668.192	0.0150156
668.270	0.0150086
668.348	0.0148861
668.426	0.0149355
668.504	0.0149201
668.582	0.0149404
668.660	0.0150272
668.738	0.0149969
668.817	0.0149452
668.895	0.0148625
668.973	0.0148392
669.051	0.0149861
669.129	0.0149081
669.207	0.0149790
669.285	0.0148416
669.363	0.0150108
669.442	0.0148785
669.520	0.0149793
669.598	0.0149606
669.676	0.0148011
669.754	0.0150424
669.832	0.0148006
669.910	0.0148999
669.988	0.0149298
670.067	0.0147848
670.145	0.0149268
670.223	0.0149014
670.301	0.0148882
670.379	0.0148485
670.457	0.0149476
670.535	0.0148602
670.613	0.0148859
670.692	0.0148849
670.770	0.0148856
670.848	0.0148353
670.926	0.0149631
671.004	0.0148614
671.082	0.0149898
671.160	0.0148658
671.238	0.0147588
671.317	0.0148519
671.395	0.0150657
671.473	0.0149822
671.551	0.0148431
671.629	0.0148238
671.707	0.0148782
671.785	0.0148146
671.863	0.0150005
671.942	0.0150338
672.020	0.0149361
672.098	0.0149249
672.176	0.0149785
672.254	0.0149387
672.332	0.0149584
672.410	0.0149931
672.488	0.0149504
672.567	0.0149209
672.645	0.0148919
672.723	0.0149079
672.801	0.0149294
672.879	0.0148613
672.957	0.0149451
673.035	0.0149706
673.113	0.0150089
673.192	0.0150377
673.270	0.0149865
673.348	0.0148850
673.426	0.0149638
673.504	0.0149435
673.582	0.0147030
673.660	0.0148896
673.738	0.0150908
673.817	0.0149501
673.895	0.0150181
673.973	0.0149933
674.051	0.0148598
674.129	0.0149817
674.207	0.0150935
674.285	0.0149500
674.363	0.0150246
674.442	0.0150315
674.520	0.0150233
674.598	0.0148528
674.676	0.0150262
674.754	0.0150087
674.832	0.0148603
674.910	0.0150388
674.988	0.0150356
675.067	0.0151855
675.145	0.0150858
675.223	0.0149851
675.301	0.0149381
675.379	0.0149357
675.457	0.0151083
675.535	0.0150280
675.613	0.0149423
675.692	0.0149705
675.770	0.0149893
675.848	0.0149626
675.926	0.0150706
676.004	0.0150728
676.082	0.0150028
676.160	0.0151328
676.238	0.0150425
676.317	0.0150327
676.395	0.0150524
676.473	0.0151131
676.551	0.0149780
676.629	0.0150546
676.707	0.0151436
676.785	0.0149905
676.863	0.0150607
676.942	0.0149984
677.020	0.0149742
677.098	0.0149723
677.176	0.0150476
677.254	0.0149209
677.332	0.0149289
677.410	0.0150241
677.488	0.0149792
677.567	0.0148500
677.645	0.0150256
677.723	0.0149376
677.801	0.0149616
677.879	0.0148936
677.957	0.0149694
678.035	0.0149873
678.113	0.0151219
678.192	0.0149384
678.270	0.0149937
678.348	0.0149958
678.426	0.0149575
678.504	0.0150818
678.582	0.0148952
678.660	0.0148967
678.738	0.0148619
678.817	0.0150553
678.895	0.0150156
678.973	0.0148989
679.051	0.0149751
679.129	0.0147546
679.207	0.0148930
679.285	0.0149743
679.363	0.0148957
679.442	0.0149884
679.520	0.0150751
679.598	0.0149265
679.676	0.0148550
679.754	0.0149699
679.832	0.0147682
679.910	0.0148068
679.988	0.0149937
680.067	0.0149264
680.145	0.0150132
680.223	0.0149290
680.301	0.0148485
680.379	0.0148936
680.457	0.0148139
680.535	0.0148119
680.613	0.0149339
680.692	0.0149204
680.770	0.0148972
680.848	0.0148729
680.926	0.0148878
681.004	0.0147474
681.082	0.0147778
681.160	0.0148700
681.238	0.0147217
681.317	0.0148628
681.395	0.0148502
681.473	0.0148479
681.551	0.0149139
681.629	0.0148815
681.707	0.0148408
681.785	0.0149097
681.863	0.0149560
681.942	0.0149352
682.020	0.0147944
682.098	0.0148758
682.176	0.0148152
682.254	0.0147700
682.332	0.0148774
682.410	0.0148830
682.488	0.0148440
682.567	0.0148208
682.645	0.0147977
682.723	0.0148161
682.801	0.0149642
682.879	0.0149213
682.957	0.0149489
683.035	0.0147662
683.113	0.0148670
683.192	0.0148895
683.270	0.0147609
683.348	0.0149094
683.426	0.0147013
683.504	0.0148970
683.582	0.0147578
683.660	0.0149812
683.738	0.0148286
683.817	0.0148569
683.895	0.0148139
683.973	0.0149832
684.051	0.0149066
684.129	0.0148514
684.207	0.0148901
684.285	0.0148537
684.363	0.0149168
684.442	0.0149181
684.520	0.0149075
684.598	0.0148956
684.676	0.0149060
684.754	0.0149316
684.832	0.0148171
684.910	0.0150111
684.988	0.0149554
685.067	0.0149458
685.145	0.0148339
685.223	0.0149948
685.301	0.0149178
685.379	0.0149988
685.457	0.0149698
685.535	0.0149442
685.613	0.0148559
685.692	0.0149055
685.770	0.0148656
685.848	0.0149442
685.926	0.0148421
686.004	0.0148608
686.082	0.0149036
686.160	0.0149133
686.238	0.0149795
686.317	0.0149741
686.395	0.0149174
686.473	0.0147891
686.551	0.0148621
686.629	0.0149851
686.707	0.0150192
686.785	0.0149956
686.863	0.0149244
686.942	0.0149255
687.020	0.0149040
687.098	0.0148895
687.176	0.0150493
687.254	0.0149767
687.332	0.0150343
687.410	0.0149218
687.488	0.0148016
687.567	0.0149750
687.645	0.0150158
687.723	0.0150481
687.801	0.0149010
687.879	0.0148311
687.957	0.0149460
688.035	0.0148486
688.113	0.0148605
688.192	0.0150081
688.270	0.0149046
688.348	0.0149207
688.426	0.0149993
688.504	0.0149242
688.582	0.0148686
688.660	0.0149422
688.738	0.0148727
688.817	0.0148151
688.895	0.0148039
688.973	0.0147566
689.051	0.0148287
689.129	0.0149200
689.207	0.0147361
689.285	0.0148702
689.363	0.0148788
689.442	0.0149743
689.520	0.0149842
689.598	0.0150912
689.676	0.0150763
689.754	0.0153124
689.832	0.0152120
689.910	0.0152691
689.988	0.0152810
690.067	0.0154133
690.145	0.0153835
690.223	0.0152847
690.301	0.0152113
690.379	0.0149975
690.457	0.0148116
690.535	0.0147999
690.613	0.0147210
690.692	0.0143933
690.770	0.0144449
690.848	0.0144551
690.926	0.0144550
691.004	0.0142729
691.082	0.0140852
691.160	0.0142597
691.238	0.0144550
691.317	0.0146245
691.395	0.0149017
691.473	0.0151595
691.551	0.0153307
691.629	0.0155589
691.707	0.0159769
691.785	0.0162074
691.863	0.0163098
691.942	0.0165054
692.020	0.0165239
692.098	0.0164265
692.176	0.0162073
692.254	0.0160442
692.332	0.0158575
692.410	0.0154240
692.488	0.0152160
692.567	0.0146054
692.645	0.0142373
692.723	0.0139683
692.801	0.0136625
692.879	0.0134776
692.957	0.0133614
693.035	0.0134109
693.113	0.0135821
693.192	0.0136526
693.270	0.0138416
693.348	0.0140982
693.426	0.0142274
693.504	0.0145668
693.582	0.0147383
693.660	0.0151000
693.738	0.0152737
693.817	0.0155348
693.895	0.0156848
693.973	0.0158702
694.051	0.0157813
694.129	0.0157202
694.207	0.0156251
694.285	0.0156213
694.363	0.0155715
694.442	0.0153718
694.520	0.0154170
694.598	0.0150293
694.676	0.0148679
694.754	0.0148865
694.832	0.0146233
694.910	0.0143295
694.988	0.0141165
695.067	0.0141862
695.145	0.0143343
695.223	0.0142361
695.301	0.0142549
695.379	0.0145016
695.457	0.0147224
695.535	0.0149909
695.613	0.0152164
695.692	0.0153868
695.770	0.0157887
695.848	0.0159808
695.926	0.0160622
696.004	0.0161763
696.082	0.0164678
696.160	0.0164610
696.238	0.0162786
696.317	0.0161644
696.395	0.0159491
696.473	0.0156985
696.551	0.0153434
696.629	0.0149502
696.707	0.0145007
696.785	0.0140949
696.863	0.0136517
696.942	0.0129494
697.020	0.0124696
697.098	0.0121965
697.176	0.0119870
697.254	0.0117002
697.332	0.0116004
697.410	0.0116354
697.488	0.0120749
697.567	0.0124765
697.645	0.0129216
697.723	0.0133849
697.801	0.0141727
697.879	0.0149924
697.957	0.0158555
698.035	0.0166887
698.113	0.0173531
698.192	0.0181353
698.270	0.0186354
698.348	0.0191621
698.426	0.0194482
698.504	0.0195872
698.582	0.0195998
698.660	0.0193668
698.738	0.0188400
698.817	0.0183178
698.895	0.0176769
698.973	0.0166924
699.051	0.0156938
699.129	0.0148533
699.207	0.0140258
699.285	0.0130266
699.363	0.0121851
699.442	0.0114342
699.520	0.0109564
699.598	0.0106021
699.676	0.0104279
699.754	0.0103866
699.832	0.0105901
699.910	0.0109429
699.988	0.0114710
700.067	0.0122535
700.145	0.0129853
700.223	0.0138483
700.301	0.0147826
700.379	0.0157496
700.457	0.0165212
700.535	0.0172657
700.613	0.0180307
700.692	0.0184731
700.770	0.0188007
700.848	0.0189922
700.926	0.0190842
701.004	0.0189803
701.082	0.0184956
701.160	0.0181540
701.238	0.0175688
701.317	0.0169108
701.395	0.0161104
701.473	0.0153658
701.551	0.0144936
701.629	0.0138036
701.707	0.0129960
701.785	0.0124115
701.863	0.0120432
701.942	0.0115270
702.020	0.0114768
702.098	0.0111597
702.176	0.0111546
702.254	0.0113436
702.332	0.0118602
702.410	0.0121180
702.488	0.0126595
702.567	0.0131555
702.645	0.0138138
702.723	0.0145638
702.801	0.0151192
702.879	0.0156110
702.957	0.0162216
703.035	0.0166965
703.113	0.0170688
703.192	0.0173362
703.270	0.0174578
703.348	0.0175848
703.426	0.0176833
703.504	0.0176223
703.582	0.0176379
703.660	0.0174020
703.738	0.0172445
703.817	0.0169045
703.895	0.0166228
703.973	0.0162198
704.051	0.0160709
704.129	0.0157703
704.207	0.0152589
704.285	0.0150356
704.363	0.0145992
704.442	0.0142650
704.520	0.0138529
704.598	0.0137282
704.676	0.0134674
704.754	0.0132099
704.832	0.0129845
704.910	0.0130151
704.988	0.0130237
705.067	0.0130103
705.145	0.0130554
705.223	0.0131828
705.301	0.0134763
705.379	0.0136465
705.457	0.0137568
705.535	0.0140083
705.613	0.0141293
705.692	0.0144931
705.770	0.0145590
705.848	0.0149507
705.926	0.0151493
706.004	0.0153773
706.082	0.0156372
706.160	0.0158210
706.238	0.0159966
706.317	0.0162143
706.395	0.0163059
706.473	0.0164140
706.551	0.0164098
706.629	0.0161903
706.707	0.0160361
706.785	0.0160947
706.863	0.0157259
706.942	0.0153944
707.020	0.0151364
707.098	0.0148067
707.176	0.0146397
707.254	0.0144655
707.332	0.0140910
707.410	0.0137408
707.488	0.0135213
707.567	0.0133748
707.645	0.0132004
707.723	0.0131293
707.801	0.0131213
707.879	0.0132346
707.957	0.0134367
708.035	0.0135317
708.113	0.0138114
708.192	0.0141117
708.270	0.0144247
708.348	0.0147799
708.426	0.0151588
708.504	0.0154014
708.582	0.0158042
708.660	0.0162017
708.738	0.0164600
708.817	0.0166350
708.895	0.0168155
708.973	0.0168755
709.051	0.0169940
709.129	0.0171110
709.207	0.0169480
709.285	0.0166766
709.363	0.0165588
709.442	0.0162733
709.520	0.0159868
709.598	0.0158334
709.676	0.0154329
709.754	0.0150714
709.832	0.0148267
709.910	0.0147795
709.988	0.0145025
710.067	0.0142751
710.145	0.0142434
710.223	0.0142142
710.301	0.0140186
710.379	0.0140142
710.457	0.0141048
710.535	0.0139166
710.613	0.0139857
710.692	0.0140311
710.770	0.0138630
710.848	0.0138898
710.926	0.0139215
711.004	0.0139754
711.082	0.0140547
711.160	0.0139870
711.238	0.0139726
711.317	0.0141524
711.395	0.0143589
711.473	0.0144508
711.551	0.0145354
711.629	0.0146778
711.707	0.0148326
711.785	0.0149761
711.863	0.0150231
711.942	0.0152705
712.020	0.0153326
712.098	0.0154188
712.176	0.0154876
712.254	0.0153753
712.332	0.0156902
712.410	0.0155405
712.488	0.0153934
712.567	0.0153318
712.645	0.0153716
712.723	0.0152222
712.801	0.0150954
712.879	0.0151197
712.957	0.0149883
713.035	0.0149043
713.113	0.0148579
713.192	0.0146472
713.270	0.0146275
713.348	0.0145058
713.426	0.0145638
713.504	0.0143858
713.582	0.0145376
713.660	0.0146007
713.738	0.0146502
713.817	0.0148045
713.895	0.0148142
713.973	0.0150234
714.051	0.0150416
714.129	0.0151810
714.207	0.0152491
714.285	0.0151608
714.363	0.0151775
714.442	0.0151545
714.520	0.0152068
714.598	0.0153481
714.676	0.0152801
714.754	0.0150605
714.832	0.0149501
714.910	0.0151038
714.988	0.0148492
715.067	0.0147377
715.145	0.0148286
715.223	0.0148424
715.301	0.0146115
715.379	0.0146690
715.457	0.0147597
715.535	0.0147720
715.613	0.0147159
715.692	0.0147630
715.770	0.0149419
715.848	0.0150410
715.926	0.0150648
716.004	0.0150945
716.082	0.0150900
716.160	0.0152688
716.238	0.0152122
716.317	0.0151921
716.395	0.0152294
716.473	0.0151027
716.551	0.0151183
716.629	0.0151561
716.707	0.0149731
716.785	0.0146850
716.863	0.0145905
716.942	0.0145238
717.020	0.0140664
717.098	0.0140935
717.176	0.0139922
717.254	0.0139092
717.332	0.0136796
717.410	0.0138318
717.488	0.0139603
717.567	0.0138503
717.645	0.0139375
717.723	0.0141783
717.801	0.0141500
717.879	0.0144365
717.957	0.0149012
718.035	0.0149628
718.113	0.0151670
718.192	0.0155302
718.270	0.0156680
718.348	0.0157967
718.426	0.0159556
718.504	0.0159608
718.582	0.0159827
718.660	0.0159811
718.738	0.0159689
718.817	0.0158785
718.895	0.0156676
718.973	0.0156306
719.051	0.0153615
719.129	0.0152364
719.207	0.0150548
719.285	0.0150044
719.363	0.0147117
719.442	0.0145450
719.520	0.0146624
719.598	0.0145615
719.676	0.0144823
719.754	0.0144846
719.832	0.0143269
719.910	0.0145352
719.988	0.0144991
720.067	0.0145554
720.145	0.0146801
720.223	0.0147594
720.301	0.0148434
720.379	0.0149277
720.457	0.0151772
720.535	0.0151500
720.613	0.0152222
720.692	0.0152000
720.770	0.0152658
720.848	0.0151742
720.926	0.0151823
721.004	0.0150548
721.082	0.0151582
721.160	0.0150604
721.238	0.0147626
721.317	0.0146757
721.395	0.0146414
721.473	0.0145977
721.551	0.0145026
721.629	0.0144307
721.707	0.0143565
721.785	0.0144360
721.863	0.0143471
721.942	0.0143872
722.020	0.0145337
722.098	0.0144637
722.176	0.0146854
722.254	0.0147448
722.332	0.0146249
722.410	0.0148211
722.488	0.0148013
722.567	0.0148930
722.645	0.0149567
722.723	0.0149686
722.801	0.0150256
722.879	0.0149840
722.957	0.0149675
723.035	0.0150381
723.113	0.0150214
723.192	0.0148373
723.270	0.0150436
723.348	0.0149905
723.426	0.0148123
723.504	0.0149900
723.582	0.0149656
723.660	0.0149007
723.738	0.0149225
723.817	0.0148907
723.895	0.0148296
723.973	0.0148815
724.051	0.0148316
724.129	0.0149107
724.207	0.0149696
724.285	0.0150555
724.363	0.0151609
724.442	0.0151710
724.520	0.0151340
724.598	0.0154091
724.676	0.0153252
724.754	0.0155048
724.832	0.0153423
724.910	0.0154109
724.988	0.0152949
725.067	0.0152654
725.145	0.0151186
725.223	0.0151478
725.301	0.0149654
725.379	0.0148006
725.457	0.0148225
725.535	0.0146957
725.613	0.0147473
725.692	0.0146333
725.770	0.0146787
725.848	0.0145753
725.926	0.0146054
726.004	0.0144556
726.082	0.0145770
726.160	0.0145578
726.238	0.0144267
726.317	0.0146219
726.395	0.0145121
726.473	0.0145915
726.551	0.0145193
726.629	0.0145222
726.707	0.0145568
726.785	0.0145553
726.863	0.0148836
726.942	0.0146959
727.020	0.0149050
727.098	0.0149069
727.176	0.0149123
727.254	0.0150304
727.332	0.0150803
727.410	0.0150430
727.488	0.0150263
727.567	0.0151507
727.645	0.0151263
727.723	0.0153372
727.801	0.0152013
727.879	0.0152480
727.957	0.0153072
728.035	0.0152021
728.113	0.0151961
728.192	0.0152195
728.270	0.0152706
728.348	0.0151989
728.426	0.0152574
728.504	0.0152576
728.582	0.0151112
728.660	0.0151372
728.738	0.0150930
728.817	0.0150948
728.895	0.0149100
728.973	0.0150091
729.051	0.0148093
729.129	0.0148036
729.207	0.0148657
729.285	0.0149062
729.363	0.0149011
729.442	0.0148775
729.520	0.0148919
729.598	0.0148856
729.676	0.0148490
729.754	0.0149682
729.832	0.0149679
729.910	0.0149319
729.988	0.0151714
730.067	0.0150096
730.145	0.0150590
730.223	0.0150053
730.301	0.0148417
730.379	0.0150325
730.457	0.0150624
730.535	0.0150732
730.613	0.0148603
730.692	0.0149471
730.770	0.0148005
730.848	0.0148074
730.926	0.0147977
731.004	0.0146025
731.082	0.0147140
731.160	0.0147807
731.238	0.0147539
731.317	0.0147363
731.395	0.0149168
731.473	0.0148017
731.551	0.0146180
731.629	0.0147575
731.707	0.0147953
731.785	0.0146674
731.863	0.0148688
731.942	0.0148740
732.020	0.0149842
732.098	0.0151474
732.176	0.0149792
732.254	0.0150653
732.332	0.0152348
732.410	0.0152089
732.488	0.0151149
732.567	0.0150514
732.645	0.0150710
732.723	0.0152161
732.801	0.0150295
732.879	0.0148737
732.957	0.0149190
733.035	0.0149276
733.113	0.0147578
733.192	0.0147328
733.270	0.0148532
733.348	0.0147012
733.426	0.0148081
733.504	0.0148560
733.582	0.0148659
733.660	0.0150659
733.738	0.0150193
733.817	0.0150053
733.895	0.0150014
733.973	0.0149982
734.051	0.0149282
734.129	0.0149452
734.207	0.0150535
734.285	0.0150151
734.363	0.0149864
734.442	0.0150202
734.520	0.0149261
734.598	0.0148769
734.676	0.0147343
734.754	0.0147452
734.832	0.0146010
734.910	0.0145516
734.988	0.0145454
735.067	0.0144160
735.145	0.0144949
735.223	0.0144639
735.301	0.0145379
735.379	0.0144524
735.457	0.0145934
735.535	0.0146164
735.613	0.0147050
735.692	0.0147758
735.770	0.0147064
735.848	0.0148996
735.926	0.0149053
736.004	0.0149784
736.082	0.0150835
736.160	0.0150912
736.238	0.0151229
736.317	0.0152265
736.395	0.0151460
736.473	0.0151218
736.551	0.0151302
736.629	0.0151720
736.707	0.0151637
736.785	0.0152259
736.863	0.0151147
736.942	0.0151630
737.020	0.0149877
737.098	0.0151930
737.176	0.0149409
737.254	0.0151173
737.332	0.0150957
737.410	0.0149878
737.488	0.0149591
737.567	0.0149560
737.645	0.0149075
737.723	0.0148451
737.801	0.0147457
737.879	0.0147934
737.957	0.0148305
738.035	0.0146902
738.113	0.0148306
738.192	0.0147706
738.270	0.0147950
738.348	0.0147762
738.426	0.0146707
738.504	0.0145771
738.582	0.0147401
738.660	0.0147121
738.738	0.0147997
738.817	0.0149665
738.895	0.0150458
738.973	0.0149517
739.051	0.0151215
739.129	0.0153249
739.207	0.0151439
739.285	0.0150536
739.363	0.0150431
739.442	0.0152298
739.520	0.0152480
739.598	0.0150578
739.676	0.0151913
739.754	0.0149777
739.832	0.0149547
739.910	0.0150191
739.988	0.0148994
740.067	0.0148083
740.145	0.0146615
740.223	0.0147160
740.301	0.0147010
740.379	0.0146149
740.457	0.0146706
740.535	0.0146239
740.613	0.0145979
740.692	0.0147191
740.770	0.0145502
740.848	0.0148071
740.926	0.0147797
741.004	0.0148244
741.082	0.0148893
741.160	0.0149075
741.238	0.0148224
741.317	0.0149657
741.395	0.0148388
741.473	0.0149218
741.551	0.0150952
741.629	0.0151286
741.707	0.0151302
741.785	0.0152309
741.863	0.0152421
741.942	0.0149899
742.020	0.0151022
742.098	0.0152413
742.176	0.0151391
742.254	0.0150810
742.332	0.0149940
742.410	0.0150188
742.488	0.0149729
742.567	0.0150764
742.645	0.0149550
742.723	0.0148006
742.801	0.0148619
742.879	0.0147749
742.957	0.0147173
743.035	0.0147784
743.113	0.0148214
743.192	0.0146816
743.270	0.0146064
743.348	0.0146056
743.426	0.0146493
743.504	0.0148283
743.582	0.0148257
743.660	0.0148294
743.738	0.0147379
743.817	0.0149492
743.895	0.0150566
743.973	0.0150455
744.051	0.0152345
744.129	0.0153240
744.207	0.0152816
744.285	0.0152628
744.363	0.0154359
744.442	0.0153424
744.520	0.0153085
744.598	0.0154050
744.676	0.0153327
744.754	0.0150954
744.832	0.0150690
744.910	0.0150603
744.988	0.0149233
745.067	0.0145702
745.145	0.0145607
745.223	0.0143526
745.301	0.0143135
745.379	0.0143240
745.457	0.0141737
745.535	0.0143671
745.613	0.0141777
745.692	0.0141453
745.770	0.0143182
745.848	0.0143584
745.926	0.0142623
746.004	0.0144548
746.082	0.0145364
746.160	0.0146706
746.238	0.0147632
746.317	0.0147463
746.395	0.0148800
746.473	0.0150467
746.551	0.0149747
746.629	0.0150890
746.707	0.0152090
746.785	0.0152453
746.863	0.0152657
746.942	0.0152053
747.020	0.0152728
747.098	0.0152503
747.176	0.0151215
747.254	0.0150522
747.332	0.0151495
747.410	0.0150924
747.488	0.0150415
747.567	0.0150665
747.645	0.0147727
747.723	0.0146900
747.801	0.0145525
747.879	0.0146214
747.957	0.0144775
748.035	0.0143638
748.113	0.0143177
748.192	0.0143564
748.270	0.0143571
748.348	0.0144450
748.426	0.0144204
748.504	0.0145731
748.582	0.0148476
748.660	0.0148033
748.738	0.0148113
748.817	0.0149918
748.895	0.0150552
748.973	0.0151552
749.051	0.0153386
749.129	0.0154023
749.207	0.0152711
749.285	0.0153400
749.363	0.0153120
749.442	0.0153956
749.520	0.0154816
749.598	0.0153329
749.676	0.0152402
749.754	0.0150889
749.832	0.0151628
749.910	0.0150607
749.988	0.0148975
750.067	0.0147264
750.145	0.0147476
750.223	0.0145938
750.301	0.0145863
750.379	0.0144813
750.457	0.0143861
750.535	0.0142902
750.613	0.0144841
750.692	0.0143842
750.770	0.0144468
750.848	0.0146107
750.926	0.0145940
751.004	0.0146852
751.082	0.0146321
751.160	0.0147408
751.238	0.0147195
751.317	0.0147634
751.395	0.0147179
751.473	0.0150691
751.551	0.0150487
751.629	0.0151740
751.707	0.0151588
751.785	0.0152198
751.863	0.0152824
751.942	0.0154099
752.020	0.0152958
752.098	0.0153824
752.176	0.0154853
752.254	0.0153397
752.332	0.0153571
752.410	0.0153790
752.488	0.0151782
752.567	0.0152017
752.645	0.0150729
752.723	0.0151294
752.801	0.0150577
752.879	0.0150500
752.957	0.0149774
753.035	0.0149205
753.113	0.0147625
753.192	0.0148202
753.270	0.0148363
753.348	0.0147636
753.426	0.0146162
753.504	0.0147515
753.582	0.0146782
753.660	0.0146886
753.738	0.0145598
753.817	0.0146038
753.895	0.0147234
753.973	0.0148392
754.051	0.0146249
754.129	0.0146380
754.207	0.0148960
754.285	0.0151009
754.363	0.0149570
754.442	0.0149123
754.520	0.0149541
754.598	0.0151224
754.676	0.0150896
754.754	0.0153017
754.832	0.0151655
754.910	0.0151703
754.988	0.0152370
755.067	0.0152935
755.145	0.0152438
755.223	0.0151617
755.301	0.0152187
755.379	0.0152116
755.457	0.0151197
755.535	0.0149267
755.613	0.0149041
755.692	0.0148629
755.770	0.0145688
755.848	0.0146474
755.926	0.0145901
756.004	0.0146666
756.082	0.0147034
756.160	0.0145837
756.238	0.0144771
756.317	0.0145977
756.395	0.0145893
756.473	0.0145681
756.551	0.0147328
756.629	0.0147123
756.707	0.0147069
756.785	0.0148253
756.863	0.0148803
756.942	0.0152024
757.020	0.0150987
757.098	0.0150703
757.176	0.0151355
757.254	0.0151951
757.332	0.0152040
757.410	0.0151587
757.488	0.0150764
757.567	0.0152055
757.645	0.0151208
757.723	0.0151237
757.801	0.0151546
757.879	0.0151053
757.957	0.0147389
758.035	0.0148579
758.113	0.0148394
758.192	0.0146712
758.270	0.0145515
758.348	0.0146490
758.426	0.0144855
758.504	0.0145380
758.582	0.0145520
758.660	0.0144066
758.738	0.0145707
758.817	0.0146430
758.895	0.0146632
758.973	0.0146738
759.051	0.0147301
759.129	0.0147268
759.207	0.0147987
759.285	0.0148776
759.363	0.0148704
759.442	0.0149616
759.520	0.0150387
759.598	0.0151773
759.676	0.0150740
759.754	0.0151247
759.832	0.0152329
759.910	0.0153033
759.988	0.0152877
760.067	0.0152248
760.145	0.0152883
760.223	0.0152560
760.301	0.0152278
760.379	0.0151971
760.457	0.0152622
760.535	0.0152730
760.613	0.0152039
760.692	0.0151988
760.770	0.0150800
760.848	0.0149768
760.926	0.0150684
761.004	0.0149967
761.082	0.0150530
761.160	0.0150034
761.238	0.0148697
761.317	0.0147616
761.395	0.0147002
761.473	0.0148065
761.551	0.0148173
761.629	0.0146002
761.707	0.0147859
761.785	0.0147865
761.863	0.0148058
761.942	0.0148244
762.020	0.0148239
762.098	0.0148621
762.176	0.0149281
762.254	0.0148063
762.332	0.0148497
762.410	0.0149673
762.488	0.0149642
762.567	0.0149757
762.645	0.0150439
762.723	0.0149264
762.801	0.0150841
762.879	0.0150694
762.957	0.0150336
763.035	0.0150560
763.113	0.0149517
763.192	0.0148604
763.270	0.0149731
763.348	0.0147849
763.426	0.0148515
763.504	0.0148902
763.582	0.0149241
763.660	0.0146334
763.738	0.0148242
763.817	0.0146431
763.895	0.0146384
763.973	0.0147446
764.051	0.0148537
764.129	0.0147346
764.207	0.0148313
764.285	0.0149260
764.363	0.0149249
764.442	0.0148785
764.520	0.0150031
764.598	0.0150590
764.676	0.0151349
764.754	0.0151056
764.832	0.0151125
764.910	0.0150725
764.988	0.0151411
765.067	0.0152214
765.145	0.0150998
765.223	0.0149911
765.301	0.0151385
765.379	0.0151678
765.457	0.0151152
765.535	0.0150520
765.613	0.0149993
765.692	0.0149833
765.770	0.0148958
765.848	0.0149679
765.926	0.0148931
766.004	0.0149959
766.082	0.0149433
766.160	0.0147485
766.238	0.0146397
766.317	0.0146463
766.395	0.0147031
766.473	0.0147798
766.551	0.0146716
766.629	0.0146218
766.707	0.0147118
766.785	0.0147468
766.863	0.0148003
766.942	0.0149164
767.020	0.0149833
767.098	0.0149369
767.176	0.0149392
767.254	0.0150451
767.332	0.0150475
767.410	0.0150392
767.488	0.0150716
767.567	0.0150149
767.645	0.0149309
767.723	0.0150260
767.801	0.0150695
767.879	0.0149031
767.957	0.0150007
768.035	0.0150423
768.113	0.0149545
768.192	0.0149568
768.270	0.0149508
768.348	0.0149748
768.426	0.0149742
768.504	0.0150097
768.582	0.0150513
768.660	0.0148640
768.738	0.0148968
768.817	0.0150323
768.895	0.0150497
768.973	0.0149757
769.051	0.0149480
769.129	0.0151010
769.207	0.0149901
769.285	0.0148433
769.363	0.0150217
769.442	0.0149062
769.520	0.0149171
769.598	0.0147078
769.676	0.0148688
769.754	0.0146438
769.832	0.0148800
769.910	0.0146599
769.988	0.0146922
770.067	0.0148741
770.145	0.0148396
770.223	0.0147599
770.301	0.0147569
770.379	0.0147435
770.457	0.0147382
770.535	0.0147992
770.613	0.0148666
770.692	0.0147661
770.770	0.0147776
770.848	0.0149534
770.926	0.0150235
771.004	0.0149167
771.082	0.0151060
771.160	0.0150892
771.238	0.0150097
771.317	0.0150673
771.395	0.0151582
771.473	0.0151546
771.551	0.0149859
771.629	0.0149025
771.707	0.0150374
771.785	0.0149778
771.863	0.0148818
771.942	0.0148916
772.020	0.0148316
772.098	0.0148692
772.176	0.0150015
772.254	0.0149223
772.332	0.0148813
772.410	0.0147863
772.488	0.0149725
772.567	0.0149625
772.645	0.0148861
772.723	0.0149571
772.801	0.0149181
772.879	0.0148997
772.957	0.0148971
773.035	0.0149242
773.113	0.0148374
773.192	0.0149397
773.270	0.0148520
773.348	0.0149286
773.426	0.0148740
773.504	0.0148664
773.582	0.0150033
773.660	0.0149144
773.738	0.0148743
773.817	0.0148640
773.895	0.0150992
773.973	0.0149726
774.051	0.0149670
774.129	0.0148295
774.207	0.0148494
774.285	0.0150142
774.363	0.0150769
774.442	0.0150507
774.520	0.0148260
774.598	0.0148611
774.676	0.0149357
774.754	0.0148807
774.832	0.0148835
774.910	0.0149668
774.988	0.0148607
775.067	0.0148177
775.145	0.0148390
775.223	0.0148500
775.301	0.0149393
775.379	0.0149261
775.457	0.0148633
775.535	0.0148093
775.613	0.0148539
775.692	0.0148935
775.770	0.0147578
775.848	0.0147301
775.926	0.0148951
776.004	0.0149025
776.082	0.0148597
776.160	0.0147829
776.238	0.0149069
776.317	0.0148958
776.395	0.0148631
776.473	0.0148657
776.551	0.0148274
776.629	0.0148021
776.707	0.0149249
776.785	0.0147946
776.863	0.0147546
776.942	0.0149384
777.020	0.0151037
777.098	0.0152076
777.176	0.0149960
777.254	0.0150449
777.332	0.0150965
777.410	0.0150658
777.488	0.0151945
777.567	0.0152717
777.645	0.0150651
777.723	0.0150804
777.801	0.0150130
777.879	0.0151458
777.957	0.0149438
778.035	0.0149807
778.113	0.0149850
778.192	0.0148421
778.270	0.0148792
778.348	0.0148967
778.426	0.0149304
778.504	0.0149358
778.582	0.0147672
778.660	0.0147984
778.738	0.0148129
778.817	0.0148232
778.895	0.0146757
778.973	0.0146946
779.051	0.0146447
779.129	0.0148308
779.207	0.0148933
779.285	0.0148719
779.363	0.0149731
779.442	0.0148701
779.520	0.0148829
779.598	0.0148249
779.676	0.0148380
779.754	0.0150087
779.832	0.0150163
779.910	0.0148607
779.988	0.0150270
780.067	0.0149641
780.145	0.0148872
780.223	0.0151127
780.301	0.0149579
780.379	0.0150101
780.457	0.0149343
780.535	0.0150950
780.613	0.0149909
780.692	0.0150138
780.770	0.0150806
780.848	0.0151019
780.926	0.0150403
781.004	0.0149587
781.082	0.0149354
781.160	0.0149746
781.238	0.0150574
781.317	0.0150664
781.395	0.0148224
781.473	0.0150309
781.551	0.0150185
781.629	0.0150483
781.707	0.0149768
781.785	0.0150976
781.863	0.0149906
781.942	0.0149734
782.020	0.0150758
782.098	0.0150489
782.176	0.0149741
782.254	0.0149594
782.332	0.0149569
782.410	0.0148299
782.488	0.0149917
782.567	0.0150037
782.645	0.0149568
782.723	0.0147655
782.801	0.0149687
782.879	0.0149265
782.957	0.0149670
783.035	0.0150346
783.113	0.0150498
783.192	0.0149023
783.270	0.0148005
783.348	0.0149648
783.426	0.0149123
783.504	0.0150307
783.582	0.0150767
783.660	0.0151415
783.738	0.0150851
783.817	0.0152383
783.895	0.0152203
783.973	0.0152467
784.051	0.0150796
784.129	0.0150995
784.207	0.0151308
784.285	0.0151015
784.363	0.0150492
784.442	0.0149760
784.520	0.0149120
784.598	0.0147649
784.676	0.0148142
784.754	0.0148229
784.832	0.0148759
784.910	0.0147863
784.988	0.0147445
785.067	0.0146738
785.145	0.0146749
785.223	0.0147951
785.301	0.0146315
785.379	0.0147983
785.457	0.0148624
785.535	0.0148875
785.613	0.0149288
785.692	0.0148563
785.770	0.0148891
785.848	0.0148851
785.926	0.0151115
786.004	0.0151225
786.082	0.0150425
786.160	0.0151016
786.238	0.0152809
786.317	0.0151881
786.395	0.0150809
786.473	0.0150772
786.551	0.0151357
786.629	0.0150917
786.707	0.0150535
786.785	0.0151266
786.863	0.0148819
786.942	0.0148312
787.020	0.0148751
787.098	0.0147932
787.176	0.0147147
787.254	0.0146294
787.332	0.0147173
787.410	0.0146296
787.488	0.0147653
787.567	0.0147541
787.645	0.0146400
787.723	0.0146204
787.801	0.0147848
787.879	0.0148005
787.957	0.0146932
788.035	0.0148368
788.113	0.0150474
788.192	0.0150964
788.270	0.0150292
788.348	0.0150995
788.426	0.0152677
788.504	0.0153158
788.582	0.0152265
788.660	0.0150709
788.738	0.0151711
788.817	0.0152867
788.895	0.0150336
788.973	0.0151176
789.051	0.0150165
789.129	0.0150269
789.207	0.0150769
789.285	0.0148376
789.363	0.0149316
789.442	0.0148369
789.520	0.0147157
789.598	0.0147398
789.676	0.0146690
789.754	0.0147675
789.832	0.0148932
789.910	0.0148475
789.988	0.0148226
790.067	0.0149535
790.145	0.0149179
790.223	0.0149789
790.301	0.0149282
790.379	0.0149682
790.457	0.0150122
790.535	0.0151221
790.613	0.0151016
790.692	0.0150846
790.770	0.0149855
790.848	0.0150291
790.926	0.0150590
791.004	0.0152066
791.082	0.0150479
791.160	0.0149178
791.238	0.0150284
791.317	0.0150706
791.395	0.0149279
791.473	0.0149824
791.551	0.0150497
791.629	0.0149552
791.707	0.0149107
791.785	0.0150098
791.863	0.0150011
791.942	0.0149931
792.020	0.0150043
792.098	0.0150607
792.176	0.0150165
792.254	0.0150341
792.332	0.0150702
792.410	0.0151720
792.488	0.0151089
792.567	0.0150577
792.645	0.0151335
792.723	0.0150628
792.801	0.0151221
792.879	0.0150410
792.957	0.0149602
793.035	0.0149073
793.113	0.0148819
793.192	0.0146716
793.270	0.0147807
793.348	0.0147854
793.426	0.0146014
793.504	0.0146951
793.582	0.0147078
793.660	0.0148027
793.738	0.0146951
793.817	0.0146486
793.895	0.0147565
793.973	0.0148391
794.051	0.0149277
794.129	0.0148970
794.207	0.0149471
794.285	0.0149541
794.363	0.0153003
794.442	0.0151481
794.520	0.0151316
794.598	0.0152402
794.676	0.0152318
794.754	0.0152422
794.832	0.0152371
794.910	0.0151994
794.988	0.0151266
795.067	0.0152323
795.145	0.0149789
795.223	0.0149745
795.301	0.0150398
795.379	0.0150595
795.457	0.0149135
795.535	0.0148717
795.613	0.0148904
795.692	0.0148363
795.770	0.0149664
795.848	0.0146653
795.926	0.0147336
796.004	0.0148343
796.082	0.0147388
796.160	0.0147172
796.238	0.0147157
796.317	0.0147926
796.395	0.0148286
796.473	0.0148652
796.551	0.0149086
796.629	0.0149490
796.707	0.0148499
796.785	0.0150348
796.863	0.0150166
796.942	0.0148986
797.020	0.0149989
797.098	0.0148737
797.176	0.0149338
797.254	0.0149180
797.332	0.0148277
797.410	0.0149096
797.488	0.0149364
797.567	0.0149048
797.645	0.0148491
797.723	0.0148250
797.801	0.0148150
797.879	0.0148000
797.957	0.0147747
798.035	0.0146503
798.113	0.0147532
798.192	0.0148421
798.270	0.0147416
798.348	0.0148397
798.426	0.0148750
798.504	0.0146941
798.582	0.0146682
798.660	0.0147897
798.738	0.0149352
798.817	0.0148447
798.895	0.0149282
798.973	0.0147720
799.051	0.0147456
799.129	0.0147727
799.207	0.0149668
799.285	0.0150352
799.363	0.0148804
799.442	0.0148608
799.520	0.0148627
799.598	0.0149475
799.676	0.0149005
799.754	0.0150957
799.832	0.0150736
799.910	0.0150646
799.988	0.0150844
800.067	0.0150864
800.145	0.0151373
800.223	0.0152087
800.301	0.0150211
800.379	0.0151907
800.457	0.0151926
800.535	0.0152026
800.613	0.0150854
800.692	0.0149608
800.770	0.0151014
800.848	0.0151251
800.926	0.0149918
801.004	0.0148586
801.082	0.0148985
801.160	0.0149641
801.238	0.0149655
801.317	0.0147089
801.395	0.0146939
801.473	0.0145917
801.551	0.0146274
801.629	0.0147979
801.707	0.0147126
801.785	0.0147279
801.863	0.0146288
801.942	0.0147718
802.020	0.0148189
802.098	0.0149856
802.176	0.0147319
802.254	0.0150234
802.332	0.0150624
802.410	0.0148570
802.488	0.0150734
802.567	0.0150301
802.645	0.0150375
802.723	0.0149421
802.801	0.0150820
802.879	0.0149816
802.957	0.0148203
803.035	0.0150462
803.113	0.0149594
803.192	0.0149342
803.270	0.0149972
803.348	0.0148733
803.426	0.0147903
803.504	0.0147260
803.582	0.0148058
803.660	0.0149294
803.738	0.0149462
803.817	0.0148205
803.895	0.0148857
803.973	0.0149303
804.051	0.0148767
804.129	0.0149035
804.207	0.0147504
804.285	0.0147667
804.363	0.0148573
804.442	0.0148689
804.520	0.0148553
804.598	0.0149434
804.676	0.0149287
804.754	0.0149886
804.832	0.0150150
804.910	0.0150375
804.988	0.0152026
805.067	0.0150201
805.145	0.0151132
805.223	0.0152056
805.301	0.0151365
805.379	0.0152535
805.457	0.0152461
805.535	0.0151009
805.613	0.0151826
805.692	0.0150392
805.770	0.0150127
805.848	0.0149200
805.926	0.0148981
806.004	0.0149601
806.082	0.0150383
806.160	0.0149761
806.238	0.0149239
806.317	0.0149959
806.395	0.0147508
806.473	0.0148783
806.551	0.0148907
806.629	0.0148310
806.707	0.0148038
806.785	0.0148678
806.863	0.0148432
806.942	0.0147223
807.020	0.0148592
807.098	0.0148498
807.176	0.0148494
807.254	0.0148990
807.332	0.0148061
807.410	0.0145640
807.488	0.0147234
807.567	0.0148521
807.645	0.0149336
807.723	0.0149326
807.801	0.0148138
807.879	0.0148606
807.957	0.0148336
808.035	0.0149422
808.113	0.0150214
808.192	0.0150445
808.270	0.0149222
808.348	0.0149586
808.426	0.0151917
808.504	0.0150471
808.582	0.0149792
808.660	0.0149786
808.738	0.0149377
808.817	0.0151149
808.895	0.0150996
808.973	0.0150104
809.051	0.0150604
809.129	0.0149234
809.207	0.0148067
809.285	0.0148973
809.363	0.0147998
809.442	0.0148708
809.520	0.0147634
809.598	0.0147860
809.676	0.0148070
809.754	0.0148026
809.832	0.0147936
809.910	0.0147028
809.988	0.0148139
810.067	0.0149582
810.145	0.0147329
810.223	0.0147902
810.301	0.0150082
810.379	0.0150540
810.457	0.0150342
810.535	0.0149626
810.613	0.0149745
810.692	0.0148858
810.770	0.0150077
810.848	0.0151905
810.926	0.0149392
811.004	0.0149667
811.082	0.0150488
811.160	0.0149779
811.238	0.0149914
811.317	0.0149321
811.395	0.0150506
811.473	0.0150137
811.551	0.0149334
811.629	0.0149187
811.707	0.0148402
811.785	0.0149063
811.863	0.0149770
811.942	0.0149496
812.020	0.0148362
812.098	0.0149415
812.176	0.0148389
812.254	0.0147600
812.332	0.0148154
812.410	0.0148985
812.488	0.0150412
812.567	0.0148404
812.645	0.0147890
812.723	0.0148293
812.801	0.0147512
812.879	0.0148733
812.957	0.0149191
813.035	0.0149953
813.113	0.0148315
813.192	0.0148711
813.270	0.0150476
813.348	0.0149837
813.426	0.0149590
813.504	0.0148497
813.582	0.0150065
813.660	0.0148956
813.738	0.0150018
813.817	0.0147888
813.895	0.0148882
813.973	0.0147238
814.051	0.0148524
814.129	0.0149031
814.207	0.0149007
814.285	0.0148450
814.363	0.0148731
814.442	0.0149774
814.520	0.0149393
814.598	0.0149107
814.676	0.0148174
814.754	0.0148809
814.832	0.0149073
814.910	0.0149866
814.988	0.0149668
815.067	0.0148847
815.145	0.0149715
815.223	0.0149522
815.301	0.0148300
815.379	0.0150555
815.457	0.0151485
815.535	0.0150291
815.613	0.0148798
815.692	0.0149093
815.770	0.0151160
815.848	0.0150291
815.926	0.0149908
816.004	0.0149556
816.082	0.0149877
816.160	0.0149936
816.238	0.0149471
816.317	0.0149261
816.395	0.0150479
816.473	0.0149845
816.551	0.0148775
816.629	0.0149464
816.707	0.0149708
816.785	0.0149610
816.863	0.0148421
816.942	0.0149995
817.020	0.0150038
817.098	0.0148170
817.176	0.0149547
817.254	0.0148187
817.332	0.0148098
817.410	0.0148286
817.488	0.0148402
817.567	0.0148660
817.645	0.0147949
817.723	0.0146529
817.801	0.0146461
817.879	0.0147952
817.957	0.0147522
818.035	0.0149599
818.113	0.0147814
818.192	0.0149431
818.270	0.0149335
818.348	0.0148341
818.426	0.0148046
818.504	0.0149197
818.582	0.0148550
818.660	0.0149559
818.738	0.0151221
818.817	0.0150662
818.895	0.0148994
818.973	0.0150134
819.051	0.0149975
819.129	0.0149503
819.207	0.0150066
819.285	0.0148892
819.363	0.0150653
819.442	0.0150961
819.520	0.0149541
819.598	0.0150829
819.676	0.0148726
819.754	0.0150848
819.832	0.0150146
819.910	0.0149107
819.988	0.0148991
820.067	0.0148752
820.145	0.0148436
820.223	0.0148907
820.301	0.0148686
820.379	0.0148980
820.457	0.0149272
820.535	0.0149306
820.613	0.0148934
820.692	0.0150132
820.770	0.0149287
820.848	0.0148309
820.926	0.0148671
821.004	0.0148721
821.082	0.0150110
821.160	0.0149654
821.238	0.0149019
821.317	0.0148174
821.395	0.0147372
821.473	0.0148431
821.551	0.0148753
821.629	0.0149398
821.707	0.0148030
821.785	0.0149451
821.863	0.0148562
821.942	0.0148191
822.020	0.0148335
822.098	0.0147536
822.176	0.0149103
822.254	0.0147278
822.332	0.0148529
822.410	0.0149600
822.488	0.0148259
822.567	0.0148314
822.645	0.0149166
822.723	0.0148102
822.801	0.0150540
822.879	0.0150169
822.957	0.0149907
823.035	0.0149236
823.113	0.0151164
823.192	0.0150883
823.270	0.0149759
823.348	0.0149882
823.426	0.0150073
823.504	0.0149437
823.582	0.0149712
823.660	0.0149438
823.738	0.0150395
823.817	0.0149262
823.895	0.0148741
823.973	0.0147972
824.051	0.0148286
824.129	0.0149036
824.207	0.0147719
824.285	0.0147113
824.363	0.0148810
824.442	0.0148128
824.520	0.0147295
824.598	0.0146471
824.676	0.0146159
824.754	0.0147378
824.832	0.0147100
824.910	0.0148380
824.988	0.0149300
825.067	0.0148854
825.145	0.0149900
825.223	0.0149388
825.301	0.0150040
825.379	0.0151573
825.457	0.0151011
825.535	0.0151350
825.613	0.0151071
825.692	0.0151192
825.770	0.0150873
825.848	0.0150696
825.926	0.0150618
826.004	0.0149748
826.082	0.0148566
826.160	0.0150250
826.238	0.0148912
826.317	0.0149371
826.395	0.0149020
826.473	0.0148220
826.551	0.0147894
826.629	0.0148849
826.707	0.0149082
826.785	0.0149059
826.863	0.0148882
826.942	0.0147940
827.020	0.0150186
827.098	0.0149953
827.176	0.0148310
827.254	0.0148904
827.332	0.0148528
827.410	0.0148840
827.488	0.0149627
827.567	0.0149258
827.645	0.0150584
827.723	0.0149584
827.801	0.0148197
827.879	0.0150250
827.957	0.0149132
828.035	0.0147955
828.113	0.0149252
828.192	0.0149453
828.270	0.0150603
828.348	0.0148668
828.426	0.0148302
828.504	0.0149103
828.582	0.0149792
828.660	0.0148468
828.738	0.0148468
828.817	0.0149971
828.895	0.0149329
828.973	0.0148212
829.051	0.0149089
829.129	0.0148138
829.207	0.0148978
829.285	0.0148621
829.363	0.0148988
829.442	0.0148807
829.520	0.0149029
829.598	0.0149556
829.676	0.0148228
829.754	0.0149747
829.832	0.0149943
829.910	0.0149153
829.988	0.0149849
830.067	0.0148478
830.145	0.0149392
830.223	0.0149976
830.301	0.0148071
830.379	0.0150254
830.457	0.0149986
830.535	0.0150050
830.613	0.0151013
830.692	0.0150371
830.770	0.0150252
830.848	0.0149953
830.926	0.0151456
831.004	0.0150483
831.082	0.0150111
831.160	0.0150507
831.238	0.0149474
831.317	0.0150698
831.395	0.0148824
831.473	0.0149258
831.551	0.0148079
831.629	0.0148388
831.707	0.0148327
831.785	0.0148042
831.863	0.0148093
831.942	0.0148284
832.020	0.0147108
832.098	0.0148184
832.176	0.0148138
832.254	0.0148179
832.332	0.0147552
832.410	0.0147896
832.488	0.0148241
832.567	0.0148660
832.645	0.0146756
832.723	0.0148058
832.801	0.0148289
832.879	0.0149294
832.957	0.0148727
833.035	0.0149874
833.113	0.0151247
833.192	0.0151618
833.270	0.0150435
833.348	0.0149533
833.426	0.0150613
833.504	0.0151632
833.582	0.0152494
833.660	0.0151791
833.738	0.0151927
833.817	0.0150520
833.895	0.0151682
833.973	0.0151383
834.051	0.0149599
834.129	0.0149788
834.207	0.0149577
834.285	0.0149329
834.363	0.0149396
834.442	0.0149058
834.520	0.0150047
834.598	0.0149399
834.676	0.0148757
834.754	0.0149982
834.832	0.0148755
834.910	0.0150136
834.988	0.0149759
835.067	0.0148634
835.145	0.0149339
835.223	0.0149068
835.301	0.0147644
835.379	0.0149899
835.457	0.0149432
835.535	0.0148624
835.613	0.0149265
835.692	0.0149638
835.770	0.0147850
835.848	0.0148018
835.926	0.0149521
836.004	0.0149282
836.082	0.0148750
836.160	0.0149327
836.238	0.0148272
836.317	0.0149297
836.395	0.0149392
836.473	0.0149279
836.551	0.0149110
836.629	0.0150586
836.707	0.0150649
836.785	0.0149794
836.863	0.0149642
836.942	0.0150638
837.020	0.0149632
837.098	0.0149219
837.176	0.0149365
837.254	0.0148884
837.332	0.0150672
837.410	0.0148438
837.488	0.0149692
837.567	0.0148476
837.645	0.0149746
837.723	0.0149162
837.801	0.0148980
837.879	0.0148780
837.957	0.0149139
838.035	0.0149739
838.113	0.0150010
838.192	0.0148666
838.270	0.0148328
838.348	0.0150426
838.426	0.0149458
838.504	0.0150123
838.582	0.0149847
838.660	0.0148447
838.738	0.0147694
838.817	0.0149826
838.895	0.0150205
838.973	0.0148092
839.051	0.0148552
839.129	0.0148924
839.207	0.0150541
839.285	0.0149754
839.363	0.0149668
839.442	0.0148167
839.520	0.0150169
839.598	0.0149742
839.676	0.0149944
839.754	0.0149635
839.832	0.0150040
839.910	0.0149046
839.988	0.0150579
840.067	0.0150236
840.145	0.0149700
840.223	0.0149708
840.301	0.0150375
840.379	0.0148658
840.457	0.0147879
840.535	0.0149287
840.613	0.0149434
840.692	0.0147990
840.770	0.0149434
840.848	0.0148882
840.926	0.0149549
841.004	0.0149362
841.082	0.0148328
841.160	0.0148984
841.238	0.0150035
841.317	0.0150428
841.395	0.0150988
841.473	0.0150695
841.551	0.0149546
841.629	0.0149509
841.707	0.0149614
841.785	0.0149020
841.863	0.0149625
841.942	0.0149755
842.020	0.0149941
842.098	0.0149680
842.176	0.0148647
842.254	0.0148974
842.332	0.0147168
842.410	0.0148299
842.488	0.0147623
842.567	0.0147704
842.645	0.0149543
842.723	0.0148782
842.801	0.0147486
842.879	0.0148795
842.957	0.0148586
843.035	0.0148412
843.113	0.0148019
843.192	0.0148662
843.270	0.0149597
843.348	0.0149512
843.426	0.0147597
843.504	0.0147858
843.582	0.0149023
843.660	0.0148917
843.738	0.0148210
843.817	0.0148508
843.895	0.0149107
843.973	0.0148853
844.051	0.0148667
844.129	0.0148367
844.207	0.0149190
844.285	0.0149043
844.363	0.0148816
844.442	0.0149213
844.520	0.0148541
844.598	0.0148438
844.676	0.0149689
844.754	0.0150213
844.832	0.0151134
844.910	0.0149526
844.988	0.0150565
845.067	0.0149219
845.145	0.0149900
845.223	0.0151385
845.301	0.0148774
845.379	0.0149635
845.457	0.0150335
845.535	0.0149192
845.613	0.0150174
845.692	0.0150047
845.770	0.0148335
845.848	0.0148542
845.926	0.0147694
846.004	0.0149114
846.082	0.0146524
846.160	0.0148524
846.238	0.0149642
846.317	0.0147404
846.395	0.0148222
846.473	0.0148482
846.551	0.0148071
846.629	0.0148884
846.707	0.0147993
846.785	0.0148771
846.863	0.0149992
846.942	0.0150120
847.020	0.0149114
847.098	0.0148670
847.176	0.0149432
847.254	0.0151340
847.332	0.0151411
847.410	0.0151727
847.488	0.0152565
847.567	0.0151789
847.645	0.0151125
847.723	0.0152469
847.801	0.0152013
847.879	0.0152109
847.957	0.0151682
848.035	0.0150896
848.113	0.0150345
848.192	0.0150346
848.270	0.0149292
848.348	0.0149870
848.426	0.0149044
848.504	0.0147968
848.582	0.0148804
848.660	0.0148466
848.738	0.0147213
848.817	0.0146939
848.895	0.0147070
848.973	0.0146133
849.051	0.0148131
849.129	0.0147382
849.207	0.0148042
849.285	0.0148556
849.363	0.0149149
849.442	0.0149197
849.520	0.0149796
849.598	0.0149929
849.676	0.0151477
849.754	0.0150238
849.832	0.0150227
849.910	0.0150487
849.988	0.0150786
850.067	0.0150385
850.145	0.0149635
850.223	0.0150523
850.301	0.0151058
850.379	0.0149757
850.457	0.0150090
850.535	0.0149690
850.613	0.0149129
850.692	0.0148487
850.770	0.0148753
850.848	0.0148689
850.926	0.0148280
851.004	0.0149124
851.082	0.0150397
851.160	0.0149297
851.238	0.0150510
851.317	0.0149089
851.395	0.0148490
851.473	0.0149007
851.551	0.0150984
851.629	0.0151268
851.707	0.0150851
851.785	0.0149568
851.863	0.0150014
851.942	0.0150134
852.020	0.0151167
852.098	0.0149924
852.176	0.0150278
852.254	0.0149844
852.332	0.0150067
852.410	0.0149593
852.488	0.0148802
852.567	0.0149928
852.645	0.0149306
852.723	0.0148376
852.801	0.0146578
852.879	0.0148347
852.957	0.0149504
853.035	0.0148566
853.113	0.0149146
853.192	0.0149188
853.270	0.0148299
853.348	0.0148279
853.426	0.0148405
853.504	0.0148315
853.582	0.0148399
853.660	0.0147939
853.738	0.0148278
853.817	0.0149590
853.895	0.0149986
853.973	0.0150049
854.051	0.0149774
854.129	0.0150266
854.207	0.0149311
854.285	0.0150746
854.363	0.0151518
854.442	0.0149262
854.520	0.0150961
854.598	0.0152949
854.676	0.0152075
854.754	0.0150951
854.832	0.0151475
854.910	0.0151815
854.988	0.0150375
855.067	0.0151485
855.145	0.0151025
855.223	0.0149578
855.301	0.0152190
855.379	0.0152111
855.457	0.0150552
855.535	0.0148511
855.613	0.0149154
855.692	0.0150843
855.770	0.0150440
855.848	0.0150468
855.926	0.0150915
856.004	0.0150112
856.082	0.0148966
856.160	0.0150382
856.238	0.0149976
856.317	0.0149557
856.395	0.0149603
856.473	0.0149675
856.551	0.0149776
856.629	0.0149226
856.707	0.0150238
856.785	0.0148775
856.863	0.0149438
856.942	0.0149093
857.020	0.0148948
857.098	0.0148003
857.176	0.0147523
857.254	0.0147491
857.332	0.0147167
857.410	0.0147413
857.488	0.0147791
857.567	0.0148670
857.645	0.0147557
857.723	0.0148533
857.801	0.0148897
857.879	0.0150257
857.957	0.0149789
858.035	0.0148466
858.113	0.0149310
858.192	0.0150227
858.270	0.0151782
858.348	0.0151193
858.426	0.0149673
858.504	0.0150780
858.582	0.0151694
858.660	0.0151303
858.738	0.0151249
858.817	0.0151903
858.895	0.0149958
858.973	0.0151758
859.051	0.0150876
859.129	0.0151730
859.207	0.0152018
859.285	0.0150730
859.363	0.0150513
859.442	0.0151299
859.520	0.0151237
859.598	0.0150773
859.676	0.0151051
859.754	0.0150567
859.832	0.0150668
859.910	0.0150464
859.988	0.0149462
860.067	0.0149316
860.145	0.0150134
860.223	0.0150665
860.301	0.0148992
860.379	0.0149905
860.457	0.0147826
860.535	0.0148869
860.613	0.0148745
860.692	0.0147244
860.770	0.0148577
860.848	0.0147006
860.926	0.0147940
861.004	0.0147578
861.082	0.0147009
861.160	0.0148801
861.238	0.0147536
861.317	0.0147557
861.395	0.0148801
861.473	0.0149079
861.551	0.0149491
861.629	0.0149139
861.707	0.0149290
861.785	0.0150706
861.863	0.0149237
861.942	0.0150047
862.020	0.0149530
862.098	0.0149633
862.176	0.0149493
862.254	0.0150991
862.332	0.0149793
862.410	0.0149356
862.488	0.0150133
862.567	0.0149722
862.645	0.0149274
862.723	0.0149914
862.801	0.0150238
862.879	0.0149358
862.957	0.0151072
863.035	0.0148529
863.113	0.0149970
863.192	0.0150818
863.270	0.0148667
863.348	0.0149975
863.426	0.0150065
863.504	0.0149406
863.582	0.0149026
863.660	0.0149288
863.738	0.0149762
863.817	0.0150375
863.895	0.0149324
863.973	0.0148295
864.051	0.0148162
864.129	0.0150110
864.207	0.0151292
864.285	0.0151286
864.363	0.0150342
864.442	0.0150267
864.520	0.0149653
864.598	0.0150715
864.676	0.0150964
864.754	0.0149726
864.832	0.0151352
864.910	0.0151410
864.988	0.0149671
865.067	0.0150024
865.145	0.0150309
865.223	0.0149779
865.301	0.0148515
865.379	0.0148827
865.457	0.0148225
865.535	0.0149110
865.613	0.0149311
865.692	0.0146799
865.770	0.0148349
865.848	0.0148956
865.926	0.0147897
866.004	0.0149620
866.082	0.0148545
866.160	0.0148400
866.238	0.0147882
866.317	0.0148174
866.395	0.0148854
866.473	0.0148163
866.551	0.0147954
866.629	0.0149008
866.707	0.0148147
866.785	0.0147763
866.863	0.0148902
866.942	0.0147931
867.020	0.0148528
867.098	0.0149120
867.176	0.0148971
867.254	0.0148290
867.332	0.0148308
867.410	0.0148438
867.488	0.0148587
867.567	0.0149157
867.645	0.0147604
867.723	0.0147410
867.801	0.0149824
867.879	0.0149289
867.957	0.0149231
868.035	0.0148740
868.113	0.0148557
868.192	0.0149925
868.270	0.0149172
868.348	0.0149278
868.426	0.0150379
868.504	0.0150686
868.582	0.0148869
868.660	0.0151413
868.738	0.0150813
868.817	0.0151384
868.895	0.0152208
868.973	0.0151140
869.051	0.0150149
869.129	0.0151023
869.207	0.0150886
869.285	0.0150819
869.363	0.0151388
869.442	0.0150838
869.520	0.0153083
869.598	0.0152284
869.676	0.0151659
869.754	0.0150008
869.832	0.0149209
869.910	0.0151508
869.988	0.0149286
870.067	0.0148172
870.145	0.0149000
870.223	0.0148179
870.301	0.0148771
870.379	0.0147117
870.457	0.0146702
870.535	0.0148029
870.613	0.0148019
870.692	0.0145444
870.770	0.0147669
870.848	0.0147760
870.926	0.0147264
871.004	0.0147916
871.082	0.0147584
871.160	0.0148006
871.238	0.0148962
871.317	0.0148562
871.395	0.0148925
871.473	0.0148788
871.551	0.0151025
871.629	0.0150542
871.707	0.0150400
871.785	0.0150407
871.863	0.0151183
871.942	0.0149314
872.020	0.0151007
872.098	0.0150344
872.176	0.0149529
872.254	0.0150600
872.332	0.0151406
872.410	0.0149953
872.488	0.0149775
872.567	0.0150846
872.645	0.0150475
872.723	0.0150873
872.801	0.0149704
872.879	0.0150068
872.957	0.0150246
873.035	0.0150327
873.113	0.0150445
873.192	0.0149643
873.270	0.0151263
873.348	0.0150736
873.426	0.0150002
873.504	0.0151012
873.582	0.0150854
873.660	0.0150645
873.738	0.0151246
873.817	0.0150291
873.895	0.0152621
873.973	0.0152303
874.051	0.0149814
874.129	0.0148625
874.207	0.0148933
874.285	0.0149030
874.363	0.0149231
874.442	0.0150302
874.520	0.0149751
874.598	0.0148016
874.676	0.0148382
874.754	0.0148224
874.832	0.0147875
874.910	0.0148422
874.988	0.0147569
875.067	0.0148571
875.145	0.0147417
875.223	0.0146680
875.301	0.0147368
875.379	0.0147467
875.457	0.0147131
875.535	0.0147395
875.613	0.0148000
875.692	0.0149334
875.770	0.0148228
875.848	0.0146620
875.926	0.0149334
876.004	0.0147375
876.082	0.0148878
876.160	0.0150285
876.238	0.0149458
876.317	0.0149828
876.395	0.0150587
876.473	0.0150393
876.551	0.0151312
876.629	0.0152117
876.707	0.0151056
876.785	0.0150159
876.863	0.0151036
876.942	0.0150099
877.020	0.0151657
877.098	0.0150729
877.176	0.0149657
877.254	0.0150061
877.332	0.0150672
877.410	0.0150961
877.488	0.0151540
877.567	0.0151485
877.645	0.0150981
877.723	0.0148798
877.801	0.0149908
877.879	0.0150313
877.957	0.0149644
878.035	0.0148384
878.113	0.0149942
878.192	0.0150872
878.270	0.0148779
878.348	0.0149233
878.426	0.0149738
878.504	0.0148909
878.582	0.0148164
878.660	0.0148816
878.738	0.0150271
878.817	0.0149397
878.895	0.0148707
878.973	0.0148795
879.051	0.0149184
879.129	0.0149047
879.207	0.0148816
879.285	0.0150157
879.363	0.0149645
879.442	0.0149544
879.520	0.0150672
879.598	0.0150580
879.676	0.0151033
879.754	0.0150234
879.832	0.0149886
879.910	0.0150381
879.988	0.0149619
880.067	0.0150174
880.145	0.0149611
880.223	0.0150983
880.301	0.0150662
880.379	0.0149731
880.457	0.0151070
880.535	0.0148566
880.613	0.0148731
880.692	0.0148574
880.770	0.0148951
880.848	0.0147865
880.926	0.0147417
881.004	0.0148551
881.082	0.0148814
881.160	0.0149411
881.238	0.0148411
881.317	0.0148562
881.395	0.0147543
881.473	0.0149004
881.551	0.0149419
881.629	0.0147575
881.707	0.0148005
881.785	0.0149993
881.863	0.0148750
881.942	0.0147308
882.020	0.0148357
882.098	0.0149361
882.176	0.0149197
882.254	0.0150043
882.332	0.0148412
882.410	0.0149744
882.488	0.0149822
882.567	0.0149140
882.645	0.0149148
882.723	0.0149232
882.801	0.0149405
882.879	0.0150581
882.957	0.0149904
883.035	0.0150726
883.113	0.0151418
883.192	0.0150629
883.270	0.0150236
883.348	0.0150723
883.426	0.0151273
883.504	0.0150452
883.582	0.0151704
883.660	0.0149670
883.738	0.0149182
883.817	0.0151617
883.895	0.0149917
883.973	0.0148943
884.051	0.0148648
884.129	0.0148046
884.207	0.0147956
884.285	0.0148920
884.363	0.0147111
884.442	0.0148522
884.520	0.0148271
884.598	0.0147686
884.676	0.0148381
884.754	0.0148025
884.832	0.0148337
884.910	0.0148515
884.988	0.0149831
885.067	0.0148561
885.145	0.0149472
885.223	0.0149714
885.301	0.0150460
885.379	0.0151883
885.457	0.0151544
885.535	0.0150858
885.613	0.0151228
885.692	0.0150605
885.770	0.0151636
885.848	0.0151329
885.926	0.0150317
886.004	0.0151624
886.082	0.0148971
886.160	0.0148730
886.238	0.0149197
886.317	0.0149032
886.395	0.0149226
886.473	0.0147574
886.551	0.0148875
886.629	0.0147687
886.707	0.0147770
886.785	0.0148596
886.863	0.0148108
886.942	0.0148714
887.020	0.0149319
887.098	0.0149290
887.176	0.0149813
887.254	0.0150488
887.332	0.0151705
887.410	0.0150055
887.488	0.0151389
887.567	0.0151183
887.645	0.0152876
887.723	0.0152648
887.801	0.0152833
887.879	0.0152473
887.957	0.0153007
888.035	0.0150737
888.113	0.0149895
888.192	0.0150385
888.270	0.0150172
888.348	0.0149129
888.426	0.0148856
888.504	0.0148468
888.582	0.0146717
888.660	0.0146679
888.738	0.0148051
888.817	0.0147549
888.895	0.0147061
888.973	0.0147646
889.051	0.0147729
889.129	0.0148904
889.207	0.0148077
889.285	0.0147854
889.363	0.0148653
889.442	0.0148940
889.520	0.0151009
889.598	0.0152766
889.676	0.0151934
889.754	0.0151971
889.832	0.0153171
889.910	0.0153380
889.988	0.0152789
890.067	0.0152065
890.145	0.0152821
890.223	0.0152045
890.301	0.0152131
890.379	0.0151240
890.457	0.0150623
890.535	0.0150251
890.613	0.0148552
890.692	0.0148975
890.770	0.0148593
890.848	0.0147224
890.926	0.0145586
891.004	0.0145485
891.082	0.0143822
891.160	0.0143395
891.238	0.0145866
891.317	0.0144347
891.395	0.0145096
891.473	0.0146790
891.551	0.0146302
891.629	0.0147557
891.707	0.0148241
891.785	0.0150443
891.863	0.0150582
891.942	0.0151715
892.020	0.0150078
892.098	0.0152075
892.176	0.0151617
892.254	0.0154698
892.332	0.0153479
892.410	0.0153181
892.488	0.0154064
892.567	0.0154517
892.645	0.0153192
892.723	0.0152811
892.801	0.0150480
892.879	0.0150669
892.957	0.0152062
893.035	0.0149639
893.113	0.0149659
893.192	0.0149483
893.270	0.0148758
893.348	0.0147343
893.426	0.0146785
893.504	0.0146755
893.582	0.0146234
893.660	0.0144603
893.738	0.0146588
893.817	0.0145709
893.895	0.0146597
893.973	0.0146138
894.051	0.0147325
894.129	0.0147603
894.207	0.0148672
894.285	0.0148859
894.363	0.0150101
894.442	0.0149828
894.520	0.0150241
894.598	0.0150686
894.676	0.0151580
894.754	0.0150967
894.832	0.0152107
894.910	0.0151602
894.988	0.0152019
895.067	0.0152153
895.145	0.0149929
895.223	0.0151117
895.301	0.0151598
895.379	0.0150847
895.457	0.0148756
895.535	0.0150545
895.613	0.0149436
895.692	0.0147474
895.770	0.0148292
895.848	0.0148347
895.926	0.0148660
896.004	0.0147945
896.082	0.0146915
896.160	0.0146018
896.238	0.0145287
896.317	0.0146778
896.395	0.0148458
896.473	0.0148075
896.551	0.0145991
896.629	0.0148589
896.707	0.0148897
896.785	0.0150014
896.863	0.0148195
896.942	0.0148734
897.020	0.0149810
897.098	0.0149850
897.176	0.0150663
897.254	0.0150362
897.332	0.0150535
897.410	0.0149989
897.488	0.0150056
897.567	0.0150453
897.645	0.0151999
897.723	0.0151712
897.801	0.0149883
897.879	0.0149576
897.957	0.0151224
898.035	0.0151393
898.113	0.0150309
898.192	0.0150708
898.270	0.0149896
898.348	0.0149000
898.426	0.0150117
898.504	0.0147521
898.582	0.0147346
898.660	0.0147057
898.738	0.0148539
898.817	0.0146203
898.895	0.0146117
898.973	0.0148379
899.051	0.0147099
899.129	0.0145568
899.207	0.0146119
899.285	0.0147836
899.363	0.0147680
899.442	0.0145104
899.520	0.0148283
899.598	0.0148254
899.676	0.0146415
899.754	0.0148285
899.832	0.0147542
899.910	0.0149629
899.988	0.0149463
900.067	0.0148923
900.145	0.0149995
900.223	0.0150085
900.301	0.0151731
900.379	0.0151875
900.457	0.0151266
900.535	0.0151939
900.613	0.0150780
900.692	0.0152868
900.770	0.0151252
900.848	0.0149786
900.926	0.0151083
901.004	0.0152229
901.082	0.0149767
901.160	0.0148974
901.238	0.0149011
901.317	0.0148643
901.395	0.0148201
901.473	0.0147089
901.551	0.0147852
901.629	0.0147164
901.707	0.0147088
901.785	0.0148232
901.863	0.0147169
901.942	0.0147262
902.020	0.0148019
902.098	0.0147556
902.176	0.0148336
902.254	0.0147839
902.332	0.0148078
902.410	0.0149347
902.488	0.0149225
902.567	0.0149748
902.645	0.0149275
902.723	0.0149136
902.801	0.0150631
902.879	0.0151152
902.957	0.0151247
903.035	0.0150481
903.113	0.0150609
903.192	0.0149778
903.270	0.0148145
903.348	0.0150001
903.426	0.0148442
903.504	0.0149471
903.582	0.0149629
903.660	0.0149174
903.738	0.0149081
903.817	0.0149725
903.895	0.0149091
903.973	0.0149326
904.051	0.0148675
904.129	0.0149697
904.207	0.0149238
904.285	0.0148526
904.363	0.0149601
904.442	0.0151019
904.520	0.0150531
904.598	0.0148294
904.676	0.0149293
904.754	0.0147818
904.832	0.0149631
904.910	0.0149261
904.988	0.0150822
905.067	0.0149182
905.145	0.0149081
905.223	0.0149061
905.301	0.0148898
905.379	0.0150096
905.457	0.0150175
905.535	0.0149660
905.613	0.0149636
905.692	0.0150226
905.770	0.0149492
905.848	0.0149648
905.926	0.0150941
906.004	0.0150178
906.082	0.0149304
906.160	0.0149731
906.238	0.0150947
906.317	0.0151274
906.395	0.0150224
906.473	0.0152071
906.551	0.0149465
906.629	0.0150477
906.707	0.0150251
906.785	0.0149349
906.863	0.0150339
906.942	0.0150276
907.020	0.0149329
907.098	0.0149929
907.176	0.0149232
907.254	0.0148629
907.332	0.0150110
907.410	0.0149475
907.488	0.0149853
907.567	0.0148325
907.645	0.0148711
907.723	0.0148058
907.801	0.0150017
907.879	0.0149229
907.957	0.0148569
908.035	0.0149168
908.113	0.0149144
908.192	0.0149184
908.270	0.0148811
908.348	0.0148468
908.426	0.0148772
908.504	0.0148512
908.582	0.0150232
908.660	0.0148796
908.738	0.0150133
908.817	0.0149058
908.895	0.0148653
908.973	0.0149418
909.051	0.0149306
909.129	0.0149148
909.207	0.0149342
909.285	0.0149840
909.363	0.0150359
909.442	0.0150240
909.520	0.0149852
909.598	0.0150860
909.676	0.0150619
909.754	0.0149335
909.832	0.0148013
909.910	0.0149748
909.988	0.0149124
910.067	0.0148644
910.145	0.0148798
910.223	0.0149132
910.301	0.0150510
910.379	0.0149230
910.457	0.0150045
910.535	0.0150086
910.613	0.0150211
910.692	0.0150691
910.770	0.0149864
910.848	0.0150445
910.926	0.0151661
911.004	0.0150963
911.082	0.0150455
911.160	0.0150583
911.238	0.0149630
911.317	0.0150362
911.395	0.0149913
911.473	0.0150448
911.551	0.0149807
911.629	0.0150202
911.707	0.0149507
911.785	0.0150164
911.863	0.0149680
911.942	0.0149416
912.020	0.0149921
912.098	0.0149726
912.176	0.0149473
912.254	0.0149490
912.332	0.0149574
912.410	0.0148838
912.488	0.0149288
912.567	0.0150162
912.645	0.0149427
912.723	0.0149209
912.801	0.0148524
912.879	0.0148859
912.957	0.0147658
913.035	0.0148605
913.113	0.0148374
913.192	0.0147538
913.270	0.0148581
913.348	0.0149437
913.426	0.0149416
913.504	0.0149472
913.582	0.0149094
913.660	0.0148661
913.738	0.0149187
913.817	0.0149769
913.895	0.0151141
913.973	0.0149808
914.051	0.0149737
914.129	0.0149130
914.207	0.0149332
914.285	0.0150176
914.363	0.0149844
914.442	0.0151630
914.520	0.0150251
914.598	0.0150734
914.676	0.0149019
914.754	0.0149359
914.832	0.0149335
914.910	0.0149485
914.988	0.0149324
915.067	0.0149621
915.145	0.0150702
915.223	0.0149751
915.301	0.0149872
915.379	0.0148978
915.457	0.0149650
915.535	0.0151085
915.613	0.0149146
915.692	0.0149953
915.770	0.0149857
915.848	0.0149323
915.926	0.0147473
916.004	0.0148544
916.082	0.0150468
916.160	0.0149591
916.238	0.0147952
916.317	0.0149236
916.395	0.0149227
916.473	0.0148328
916.551	0.0149516
916.629	0.0148398
916.707	0.0149265
916.785	0.0150038
916.863	0.0149362
916.942	0.0147729
917.020	0.0149346
917.098	0.0148908
917.176	0.0149623
917.254	0.0148933
917.332	0.0149526
917.410	0.0149551
917.488	0.0148727
917.567	0.0149908
917.645	0.0148145
917.723	0.0149625
917.801	0.0148926
917.879	0.0148113
917.957	0.0148853
918.035	0.0149343
918.113	0.0147449
918.192	0.0149063
918.270	0.0148862
918.348	0.0148323
918.426	0.0148514
918.504	0.0149486
918.582	0.0150147
918.660	0.0149850
918.738	0.0149512
918.817	0.0149747
918.895	0.0149409
918.973	0.0150479
919.051	0.0150150
919.129	0.0151063
919.207	0.0150080
919.285	0.0150635
919.363	0.0151249
919.442	0.0150819
919.520	0.0150185
919.598	0.0151093
919.676	0.0150170
919.754	0.0150314
919.832	0.0151289
919.910	0.0148672
