05/28/2022	14:01:25	Ver.	4.1	UNKNOWN
Optical Delay	599.988409	Delta X		0.078125	Sweeps	1	Scan Rate	0/0
Coordinates	Axis 1	NaN	Axis 2	NaN	Axis 3	NaN	Axis 4	NaN	Axis 5	NaN	Axis 6	0.000000
TX Power	0.000000	RX Power	0.000000

599.988	0.0146673
600.067	0.0146905
600.145	0.0148934
600.223	0.0147057
600.301	0.0145451
600.379	0.0146431
600.457	0.0146784
600.535	0.0147260
600.613	0.0146793
600.692	0.0146451
600.770	0.0145322
600.848	0.0145134
600.926	0.0145898
601.004	0.0147286
601.082	0.0146574
601.160	0.0147386
601.238	0.0147086
601.317	0.0146954
601.395	0.0147697
601.473	0.0146172
601.551	0.0145914
601.629	0.0146516
601.707	0.0146797
601.785	0.0147240
601.863	0.0146323
601.942	0.0146172
602.020	0.0146619
602.098	0.0146673
602.176	0.0147181
602.254	0.0147228
602.332	0.0146743
602.410	0.0145441
602.488	0.0146329
602.567	0.0145651
602.645	0.0144543
602.723	0.0146040
602.801	0.0147014
602.879	0.0146688
602.957	0.0145951
603.035	0.0146366
603.113	0.0146776
603.192	0.0146722
603.270	0.0147184
603.348	0.0146864
603.426	0.0145758
603.504	0.0147665
603.582	0.0145376
603.660	0.0146674
603.738	0.0147302
603.817	0.0148077
603.895	0.0146544
603.973	0.0145538
604.051	0.0146270
604.129	0.0148679
604.207	0.0147605
604.285	0.0145928
604.363	0.0146206
604.442	0.0146262
604.520	0.0147227
604.598	0.0147293
604.676	0.0147492
604.754	0.0147710
604.832	0.0146388
604.910	0.0145863
604.988	0.0147927
605.067	0.0148399
605.145	0.0146497
605.223	0.0145373
605.301	0.0146780
605.379	0.0146233
605.457	0.0147385
605.535	0.0147466
605.613	0.0147778
605.692	0.0147133
605.770	0.0146316
605.848	0.0146445
605.926	0.0146767
606.004	0.0145291
606.082	0.0147681
606.160	0.0146943
606.238	0.0146851
606.317	0.0146664
606.395	0.0146957
606.473	0.0145501
606.551	0.0146426
606.629	0.0146870
606.707	0.0146014
606.785	0.0145634
606.863	0.0147980
606.942	0.0147533
607.020	0.0146944
607.098	0.0147719
607.176	0.0146952
607.254	0.0147051
607.332	0.0146570
607.410	0.0147581
607.488	0.0146416
607.567	0.0147985
607.645	0.0147404
607.723	0.0146340
607.801	0.0146994
607.879	0.0147131
607.957	0.0147045
608.035	0.0147292
608.113	0.0146439
608.192	0.0147016
608.270	0.0147166
608.348	0.0145702
608.426	0.0145457
608.504	0.0146469
608.582	0.0147987
608.660	0.0146480
608.738	0.0146368
608.817	0.0146914
608.895	0.0146117
608.973	0.0147268
609.051	0.0146555
609.129	0.0146223
609.207	0.0146709
609.285	0.0147115
609.363	0.0146333
609.442	0.0146983
609.520	0.0146692
609.598	0.0146238
609.676	0.0147603
609.754	0.0145898
609.832	0.0145261
609.910	0.0147662
609.988	0.0146893
610.067	0.0146593
610.145	0.0146986
610.223	0.0145969
610.301	0.0146469
610.379	0.0146677
610.457	0.0146549
610.535	0.0145463
610.613	0.0146011
610.692	0.0146175
610.770	0.0146820
610.848	0.0145973
610.926	0.0148055
611.004	0.0145273
611.082	0.0146967
611.160	0.0146659
611.238	0.0146140
611.317	0.0146452
611.395	0.0146029
611.473	0.0146336
611.551	0.0146749
611.629	0.0146564
611.707	0.0147895
611.785	0.0145686
611.863	0.0146466
611.942	0.0146288
612.020	0.0146773
612.098	0.0145623
612.176	0.0146795
612.254	0.0147346
612.332	0.0146579
612.410	0.0146312
612.488	0.0145999
612.567	0.0148227
612.645	0.0146098
612.723	0.0146003
612.801	0.0147076
612.879	0.0146272
612.957	0.0147125
613.035	0.0146663
613.113	0.0146458
613.192	0.0145834
613.270	0.0146936
613.348	0.0146609
613.426	0.0146054
613.504	0.0146694
613.582	0.0146695
613.660	0.0146877
613.738	0.0147118
613.817	0.0147471
613.895	0.0146767
613.973	0.0145828
614.051	0.0146902
614.129	0.0147575
614.207	0.0146488
614.285	0.0146452
614.363	0.0144936
614.442	0.0146458
614.520	0.0146674
614.598	0.0146446
614.676	0.0146574
614.754	0.0145927
614.832	0.0144339
614.910	0.0146738
614.988	0.0146397
615.067	0.0144672
615.145	0.0146320
615.223	0.0144986
615.301	0.0145942
615.379	0.0146437
615.457	0.0147413
615.535	0.0147078
615.613	0.0147118
615.692	0.0147969
615.770	0.0146764
615.848	0.0146858
615.926	0.0146899
616.004	0.0146718
616.082	0.0146958
616.160	0.0146359
616.238	0.0146373
616.317	0.0146029
616.395	0.0147437
616.473	0.0146514
616.551	0.0147704
616.629	0.0144403
616.707	0.0146084
616.785	0.0145281
616.863	0.0147236
616.942	0.0147863
617.020	0.0146971
617.098	0.0148244
617.176	0.0146624
617.254	0.0146032
617.332	0.0146187
617.410	0.0146469
617.488	0.0146962
617.567	0.0146033
617.645	0.0146655
617.723	0.0147049
617.801	0.0145345
617.879	0.0145783
617.957	0.0146333
618.035	0.0145994
618.113	0.0144530
618.192	0.0146228
618.270	0.0146153
618.348	0.0145843
618.426	0.0146749
618.504	0.0146288
618.582	0.0146781
618.660	0.0145566
618.738	0.0145896
618.817	0.0146247
618.895	0.0147071
618.973	0.0146769
619.051	0.0144831
619.129	0.0147102
619.207	0.0147426
619.285	0.0145460
619.363	0.0147604
619.442	0.0146416
619.520	0.0146144
619.598	0.0146582
619.676	0.0146631
619.754	0.0147556
619.832	0.0147674
619.910	0.0146960
619.988	0.0145782
620.067	0.0147282
620.145	0.0146714
620.223	0.0146403
620.301	0.0146917
620.379	0.0146013
620.457	0.0145874
620.535	0.0146316
620.613	0.0145364
620.692	0.0146934
620.770	0.0146084
620.848	0.0146707
620.926	0.0147023
621.004	0.0146219
621.082	0.0146594
621.160	0.0146210
621.238	0.0146449
621.317	0.0147520
621.395	0.0147694
621.473	0.0145677
621.551	0.0146450
621.629	0.0148096
621.707	0.0146722
621.785	0.0146648
621.863	0.0146633
621.942	0.0146567
622.020	0.0146098
622.098	0.0147495
622.176	0.0146155
622.254	0.0146591
622.332	0.0147544
622.410	0.0147620
622.488	0.0146316
622.567	0.0146562
622.645	0.0146651
622.723	0.0146032
622.801	0.0146526
622.879	0.0147036
622.957	0.0146367
623.035	0.0147459
623.113	0.0145963
623.192	0.0146722
623.270	0.0147312
623.348	0.0146684
623.426	0.0145566
623.504	0.0147182
623.582	0.0146394
623.660	0.0145708
623.738	0.0147854
623.817	0.0146577
623.895	0.0146190
623.973	0.0146514
624.051	0.0145507
624.129	0.0146375
624.207	0.0147574
624.285	0.0147295
624.363	0.0146199
624.442	0.0146330
624.520	0.0145616
624.598	0.0147340
624.676	0.0147001
624.754	0.0146227
624.832	0.0146568
624.910	0.0145962
624.988	0.0144677
625.067	0.0147237
625.145	0.0147411
625.223	0.0146878
625.301	0.0146503
625.379	0.0146537
625.457	0.0146748
625.535	0.0145977
625.613	0.0147372
625.692	0.0146512
625.770	0.0148035
625.848	0.0147208
625.926	0.0146884
626.004	0.0146559
626.082	0.0147021
626.160	0.0147801
626.238	0.0147395
626.317	0.0146783
626.395	0.0146601
626.473	0.0148623
626.551	0.0148518
626.629	0.0147392
626.707	0.0146335
626.785	0.0147400
626.863	0.0146301
626.942	0.0145116
627.020	0.0144949
627.098	0.0145841
627.176	0.0146970
627.254	0.0146336
627.332	0.0144845
627.410	0.0146415
627.488	0.0148070
627.567	0.0146078
627.645	0.0145463
627.723	0.0147189
627.801	0.0145958
627.879	0.0146534
627.957	0.0147038
628.035	0.0145816
628.113	0.0146382
628.192	0.0148172
628.270	0.0146455
628.348	0.0147041
628.426	0.0145773
628.504	0.0147314
628.582	0.0147117
628.660	0.0147177
628.738	0.0145409
628.817	0.0146838
628.895	0.0146302
628.973	0.0145975
629.051	0.0146799
629.129	0.0145853
629.207	0.0147583
629.285	0.0147242
629.363	0.0147257
629.442	0.0146881
629.520	0.0147460
629.598	0.0145819
629.676	0.0145998
629.754	0.0146905
629.832	0.0147200
629.910	0.0147285
629.988	0.0146944
630.067	0.0147292
630.145	0.0146481
630.223	0.0145715
630.301	0.0147571
630.379	0.0147495
630.457	0.0148536
630.535	0.0146146
630.613	0.0145641
630.692	0.0147649
630.770	0.0146786
630.848	0.0146164
630.926	0.0147586
631.004	0.0147110
631.082	0.0146123
631.160	0.0146965
631.238	0.0146187
631.317	0.0145756
631.395	0.0145715
631.473	0.0146976
631.551	0.0148010
631.629	0.0145215
631.707	0.0145695
631.785	0.0146728
631.863	0.0147964
631.942	0.0147104
632.020	0.0146377
632.098	0.0147637
632.176	0.0146479
632.254	0.0145824
632.332	0.0146263
632.410	0.0146102
632.488	0.0147392
632.567	0.0146773
632.645	0.0146072
632.723	0.0146838
632.801	0.0146907
632.879	0.0144444
632.957	0.0146338
633.035	0.0147425
633.113	0.0147684
633.192	0.0146336
633.270	0.0147741
633.348	0.0145801
633.426	0.0146803
633.504	0.0146611
633.582	0.0145947
633.660	0.0146854
633.738	0.0146613
633.817	0.0146753
633.895	0.0148191
633.973	0.0146394
634.051	0.0146561
634.129	0.0147381
634.207	0.0146002
634.285	0.0146626
634.363	0.0146650
634.442	0.0145992
634.520	0.0147634
634.598	0.0147987
634.676	0.0146568
634.754	0.0145648
634.832	0.0146751
634.910	0.0147232
634.988	0.0146644
635.067	0.0146513
635.145	0.0147240
635.223	0.0145184
635.301	0.0145485
635.379	0.0147024
635.457	0.0147296
635.535	0.0147156
635.613	0.0145490
635.692	0.0147173
635.770	0.0147789
635.848	0.0146076
635.926	0.0145873
636.004	0.0145530
636.082	0.0146583
636.160	0.0146741
636.238	0.0147063
636.317	0.0146968
636.395	0.0146349
636.473	0.0146671
636.551	0.0145349
636.629	0.0145467
636.707	0.0146942
636.785	0.0146812
636.863	0.0146317
636.942	0.0148219
637.020	0.0148223
637.098	0.0146886
637.176	0.0146449
637.254	0.0145827
637.332	0.0146954
637.410	0.0145183
637.488	0.0146311
637.567	0.0148325
637.645	0.0147082
637.723	0.0146879
637.801	0.0146323
637.879	0.0146719
637.957	0.0146165
638.035	0.0147771
638.113	0.0146548
638.192	0.0145134
638.270	0.0146951
638.348	0.0148325
638.426	0.0147052
638.504	0.0147903
638.582	0.0147015
638.660	0.0145882
638.738	0.0146489
638.817	0.0147334
638.895	0.0146608
638.973	0.0146726
639.051	0.0146369
639.129	0.0147439
639.207	0.0146037
639.285	0.0145377
639.363	0.0145869
639.442	0.0146332
639.520	0.0146090
639.598	0.0147149
639.676	0.0146286
639.754	0.0145128
639.832	0.0146343
639.910	0.0146729
639.988	0.0147242
640.067	0.0146997
640.145	0.0146181
640.223	0.0146741
640.301	0.0146039
640.379	0.0144309
640.457	0.0147218
640.535	0.0146635
640.613	0.0145654
640.692	0.0147017
640.770	0.0146703
640.848	0.0147451
640.926	0.0147163
641.004	0.0145306
641.082	0.0145625
641.160	0.0146970
641.238	0.0147480
641.317	0.0145652
641.395	0.0144868
641.473	0.0145526
641.551	0.0147147
641.629	0.0146302
641.707	0.0145501
641.785	0.0146980
641.863	0.0146808
641.942	0.0145828
642.020	0.0146630
642.098	0.0147456
642.176	0.0146567
642.254	0.0145455
642.332	0.0145844
642.410	0.0147774
642.488	0.0147467
642.567	0.0147667
642.645	0.0146874
642.723	0.0145699
642.801	0.0147717
642.879	0.0147150
642.957	0.0147422
643.035	0.0147407
643.113	0.0145389
643.192	0.0146719
643.270	0.0144866
643.348	0.0146479
643.426	0.0147119
643.504	0.0145972
643.582	0.0146394
643.660	0.0146470
643.738	0.0145919
643.817	0.0146197
643.895	0.0145484
643.973	0.0146237
644.051	0.0146384
644.129	0.0145598
644.207	0.0145551
644.285	0.0146640
644.363	0.0146727
644.442	0.0146569
644.520	0.0145073
644.598	0.0145560
644.676	0.0147104
644.754	0.0144933
644.832	0.0145683
644.910	0.0146817
644.988	0.0145877
645.067	0.0145642
645.145	0.0145795
645.223	0.0147373
645.301	0.0145840
645.379	0.0145522
645.457	0.0146461
645.535	0.0145826
645.613	0.0145466
645.692	0.0145560
645.770	0.0145602
645.848	0.0146680
645.926	0.0146697
646.004	0.0147040
646.082	0.0147163
646.160	0.0146881
646.238	0.0145935
646.317	0.0146262
646.395	0.0146324
646.473	0.0147303
646.551	0.0146199
646.629	0.0145644
646.707	0.0147191
646.785	0.0147870
646.863	0.0146056
646.942	0.0145274
647.020	0.0147726
647.098	0.0147034
647.176	0.0147124
647.254	0.0146215
647.332	0.0146170
647.410	0.0146046
647.488	0.0146939
647.567	0.0147234
647.645	0.0145156
647.723	0.0146265
647.801	0.0146571
647.879	0.0145612
647.957	0.0146535
648.035	0.0146330
648.113	0.0146221
648.192	0.0146395
648.270	0.0146255
648.348	0.0145325
648.426	0.0147189
648.504	0.0146355
648.582	0.0146100
648.660	0.0146053
648.738	0.0148248
648.817	0.0146623
648.895	0.0146006
648.973	0.0146737
649.051	0.0147579
649.129	0.0146931
649.207	0.0146304
649.285	0.0145981
649.363	0.0147130
649.442	0.0146986
649.520	0.0146169
649.598	0.0147014
649.676	0.0145932
649.754	0.0145805
649.832	0.0147407
649.910	0.0147226
649.988	0.0146098
650.067	0.0145889
650.145	0.0145792
650.223	0.0145596
650.301	0.0146568
650.379	0.0147249
650.457	0.0146349
650.535	0.0146861
650.613	0.0146508
650.692	0.0146535
650.770	0.0145557
650.848	0.0147714
650.926	0.0146744
651.004	0.0146401
651.082	0.0146320
651.160	0.0145956
651.238	0.0146632
651.317	0.0146011
651.395	0.0146581
651.473	0.0147308
651.551	0.0146172
651.629	0.0148074
651.707	0.0148502
651.785	0.0146243
651.863	0.0147108
651.942	0.0147255
652.020	0.0145914
652.098	0.0145790
652.176	0.0146363
652.254	0.0147517
652.332	0.0146398
652.410	0.0145308
652.488	0.0146972
652.567	0.0145734
652.645	0.0147118
652.723	0.0147453
652.801	0.0146620
652.879	0.0146291
652.957	0.0146533
653.035	0.0147187
653.113	0.0146124
653.192	0.0146969
653.270	0.0149452
653.348	0.0146411
653.426	0.0145588
653.504	0.0147587
653.582	0.0147638
653.660	0.0146943
653.738	0.0148873
653.817	0.0146951
653.895	0.0145139
653.973	0.0147286
654.051	0.0147523
654.129	0.0146964
654.207	0.0147219
654.285	0.0145910
654.363	0.0147660
654.442	0.0146402
654.520	0.0146278
654.598	0.0145914
654.676	0.0147166
654.754	0.0146236
654.832	0.0146540
654.910	0.0147277
654.988	0.0146502
655.067	0.0145906
655.145	0.0146886
655.223	0.0143731
655.301	0.0146132
655.379	0.0146517
655.457	0.0146109
655.535	0.0147141
655.613	0.0146507
655.692	0.0147463
655.770	0.0147058
655.848	0.0145498
655.926	0.0147437
656.004	0.0145319
656.082	0.0145434
656.160	0.0145202
656.238	0.0146912
656.317	0.0146657
656.395	0.0145721
656.473	0.0146490
656.551	0.0146545
656.629	0.0145962
656.707	0.0147157
656.785	0.0146888
656.863	0.0146549
656.942	0.0147727
657.020	0.0145664
657.098	0.0147205
657.176	0.0146957
657.254	0.0146701
657.332	0.0148615
657.410	0.0146513
657.488	0.0144772
657.567	0.0146545
657.645	0.0147553
657.723	0.0147305
657.801	0.0146059
657.879	0.0145937
657.957	0.0146516
658.035	0.0145693
658.113	0.0147022
658.192	0.0146442
658.270	0.0146309
658.348	0.0146375
658.426	0.0147569
658.504	0.0145830
658.582	0.0146001
658.660	0.0145674
658.738	0.0146552
658.817	0.0146404
658.895	0.0146416
658.973	0.0146207
659.051	0.0146325
659.129	0.0145227
659.207	0.0145002
659.285	0.0146233
659.363	0.0146926
659.442	0.0146500
659.520	0.0145842
659.598	0.0147297
659.676	0.0146874
659.754	0.0145598
659.832	0.0147006
659.910	0.0148506
659.988	0.0147569
660.067	0.0145655
660.145	0.0145750
660.223	0.0145980
660.301	0.0147292
660.379	0.0147253
660.457	0.0146001
660.535	0.0145082
660.613	0.0145815
660.692	0.0146461
660.770	0.0147005
660.848	0.0147129
660.926	0.0145695
661.004	0.0145992
661.082	0.0145459
661.160	0.0146814
661.238	0.0146951
661.317	0.0146907
661.395	0.0145695
661.473	0.0145012
661.551	0.0145828
661.629	0.0145966
661.707	0.0146194
661.785	0.0146159
661.863	0.0147508
661.942	0.0146597
662.020	0.0145053
662.098	0.0146281
662.176	0.0146239
662.254	0.0146733
662.332	0.0145844
662.410	0.0146099
662.488	0.0146339
662.567	0.0146760
662.645	0.0146663
662.723	0.0146889
662.801	0.0146214
662.879	0.0146196
662.957	0.0145637
663.035	0.0146288
663.113	0.0147179
663.192	0.0146454
663.270	0.0146240
663.348	0.0145906
663.426	0.0145574
663.504	0.0145819
663.582	0.0146249
663.660	0.0147257
663.738	0.0146265
663.817	0.0147330
663.895	0.0145757
663.973	0.0144772
664.051	0.0147353
664.129	0.0146340
664.207	0.0146317
664.285	0.0146012
664.363	0.0146199
664.442	0.0146879
664.520	0.0146612
664.598	0.0146346
664.676	0.0146564
664.754	0.0146385
664.832	0.0146238
664.910	0.0146220
664.988	0.0147289
665.067	0.0145972
665.145	0.0147172
665.223	0.0147485
665.301	0.0146324
665.379	0.0146384
665.457	0.0145216
665.535	0.0146436
665.613	0.0146525
665.692	0.0144938
665.770	0.0145522
665.848	0.0145187
665.926	0.0146124
666.004	0.0146564
666.082	0.0146838
666.160	0.0145949
666.238	0.0145580
666.317	0.0146677
666.395	0.0146372
666.473	0.0146907
666.551	0.0146293
666.629	0.0145576
666.707	0.0146837
666.785	0.0146413
666.863	0.0146011
666.942	0.0146296
667.020	0.0146492
667.098	0.0145245
667.176	0.0146523
667.254	0.0144926
667.332	0.0145634
667.410	0.0145337
667.488	0.0145993
667.567	0.0146294
667.645	0.0145741
667.723	0.0146885
667.801	0.0145598
667.879	0.0145455
667.957	0.0146794
668.035	0.0146805
668.113	0.0146171
668.192	0.0144891
668.270	0.0144568
668.348	0.0145859
668.426	0.0145826
668.504	0.0146844
668.582	0.0148504
668.660	0.0146243
668.738	0.0145531
668.817	0.0146396
668.895	0.0145878
668.973	0.0146247
669.051	0.0147463
669.129	0.0145853
669.207	0.0145901
669.285	0.0145484
669.363	0.0144263
669.442	0.0145906
669.520	0.0146550
669.598	0.0144439
669.676	0.0144949
669.754	0.0146474
669.832	0.0145739
669.910	0.0145924
669.988	0.0146590
670.067	0.0145638
670.145	0.0146235
670.223	0.0145850
670.301	0.0145697
670.379	0.0146575
670.457	0.0146273
670.535	0.0144955
670.613	0.0144617
670.692	0.0144897
670.770	0.0146745
670.848	0.0146355
670.926	0.0145486
671.004	0.0145255
671.082	0.0145432
671.160	0.0145997
671.238	0.0146027
671.317	0.0146844
671.395	0.0145914
671.473	0.0146411
671.551	0.0144964
671.629	0.0146459
671.707	0.0144775
671.785	0.0146452
671.863	0.0146170
671.942	0.0144579
672.020	0.0145776
672.098	0.0145923
672.176	0.0144925
672.254	0.0146337
672.332	0.0145209
672.410	0.0146116
672.488	0.0146101
672.567	0.0146162
672.645	0.0145916
672.723	0.0146415
672.801	0.0145123
672.879	0.0146369
672.957	0.0145332
673.035	0.0145859
673.113	0.0144672
673.192	0.0146927
673.270	0.0146668
673.348	0.0146320
673.426	0.0145292
673.504	0.0146356
673.582	0.0145428
673.660	0.0145876
673.738	0.0146217
673.817	0.0144878
673.895	0.0146500
673.973	0.0147086
674.051	0.0145132
674.129	0.0146230
674.207	0.0147043
674.285	0.0146204
674.363	0.0145448
674.442	0.0147124
674.520	0.0146521
674.598	0.0145695
674.676	0.0146604
674.754	0.0144910
674.832	0.0146536
674.910	0.0146457
674.988	0.0146252
675.067	0.0147058
675.145	0.0147065
675.223	0.0145731
675.301	0.0145972
675.379	0.0146750
675.457	0.0145757
675.535	0.0147253
675.613	0.0145171
675.692	0.0145657
675.770	0.0146490
675.848	0.0147980
675.926	0.0146722
676.004	0.0145186
676.082	0.0146168
676.160	0.0146381
676.238	0.0145658
676.317	0.0147401
676.395	0.0145704
676.473	0.0146343
676.551	0.0147086
676.629	0.0146954
676.707	0.0147178
676.785	0.0147479
676.863	0.0145361
676.942	0.0146466
677.020	0.0146104
677.098	0.0146186
677.176	0.0146236
677.254	0.0146833
677.332	0.0146801
677.410	0.0144556
677.488	0.0145273
677.567	0.0145961
677.645	0.0146661
677.723	0.0145606
677.801	0.0144740
677.879	0.0144346
677.957	0.0145160
678.035	0.0144716
678.113	0.0145586
678.192	0.0145502
678.270	0.0146381
678.348	0.0146185
678.426	0.0146394
678.504	0.0146502
678.582	0.0147530
678.660	0.0148020
678.738	0.0149184
678.817	0.0147181
678.895	0.0148148
678.973	0.0147648
679.051	0.0147522
679.129	0.0147455
679.207	0.0149052
679.285	0.0147527
679.363	0.0147104
679.442	0.0147069
679.520	0.0147959
679.598	0.0146761
679.676	0.0145481
679.754	0.0145313
679.832	0.0142868
679.910	0.0143169
679.988	0.0143438
680.067	0.0143884
680.145	0.0142413
680.223	0.0141497
680.301	0.0141494
680.379	0.0141693
680.457	0.0143057
680.535	0.0142160
680.613	0.0142551
680.692	0.0142423
680.770	0.0143623
680.848	0.0146056
680.926	0.0147816
681.004	0.0149472
681.082	0.0150914
681.160	0.0154503
681.238	0.0157082
681.317	0.0158192
681.395	0.0160451
681.473	0.0160256
681.551	0.0161327
681.629	0.0159830
681.707	0.0158914
681.785	0.0157444
681.863	0.0155455
681.942	0.0153837
682.020	0.0151147
682.098	0.0146606
682.176	0.0143268
682.254	0.0137980
682.332	0.0132984
682.410	0.0130833
682.488	0.0127732
682.567	0.0124859
682.645	0.0123779
682.723	0.0123313
682.801	0.0124546
682.879	0.0124880
682.957	0.0127805
683.035	0.0131915
683.113	0.0133035
683.192	0.0138774
683.270	0.0142275
683.348	0.0145787
683.426	0.0150053
683.504	0.0150773
683.582	0.0155337
683.660	0.0158287
683.738	0.0159230
683.817	0.0159326
683.895	0.0160418
683.973	0.0160424
684.051	0.0161122
684.129	0.0161684
684.207	0.0161399
684.285	0.0161231
684.363	0.0162138
684.442	0.0161013
684.520	0.0160308
684.598	0.0158612
684.676	0.0157677
684.754	0.0156680
684.832	0.0154710
684.910	0.0154827
684.988	0.0152190
685.067	0.0150072
685.145	0.0148470
685.223	0.0147735
685.301	0.0144724
685.379	0.0141121
685.457	0.0139748
685.535	0.0134611
685.613	0.0133418
685.692	0.0131701
685.770	0.0128387
685.848	0.0126442
685.926	0.0124831
686.004	0.0125056
686.082	0.0124893
686.160	0.0124715
686.238	0.0124837
686.317	0.0125967
686.395	0.0126588
686.473	0.0128603
686.551	0.0129778
686.629	0.0134373
686.707	0.0136011
686.785	0.0141578
686.863	0.0144173
686.942	0.0147090
687.020	0.0151981
687.098	0.0155103
687.176	0.0155355
687.254	0.0157841
687.332	0.0158874
687.410	0.0160528
687.488	0.0159875
687.567	0.0159399
687.645	0.0158943
687.723	0.0160036
687.801	0.0159808
687.879	0.0159007
687.957	0.0157313
688.035	0.0158459
688.113	0.0160159
688.192	0.0158408
688.270	0.0159208
688.348	0.0158907
688.426	0.0159993
688.504	0.0157972
688.582	0.0159756
688.660	0.0157440
688.738	0.0158225
688.817	0.0156441
688.895	0.0156512
688.973	0.0155572
689.051	0.0157036
689.129	0.0155248
689.207	0.0153745
689.285	0.0150997
689.363	0.0148299
689.442	0.0146613
689.520	0.0143944
689.598	0.0139820
689.676	0.0134607
689.754	0.0132638
689.832	0.0127834
689.910	0.0124545
689.988	0.0122705
690.067	0.0120109
690.145	0.0118023
690.223	0.0117066
690.301	0.0118086
690.379	0.0118048
690.457	0.0120589
690.535	0.0120694
690.613	0.0121474
690.692	0.0124886
690.770	0.0127950
690.848	0.0131046
690.926	0.0134225
691.004	0.0136866
691.082	0.0141229
691.160	0.0144601
691.238	0.0147488
691.317	0.0150474
691.395	0.0155224
691.473	0.0157143
691.551	0.0159824
691.629	0.0162511
691.707	0.0165838
691.785	0.0167215
691.863	0.0169770
691.942	0.0170441
692.020	0.0172829
692.098	0.0173284
692.176	0.0175666
692.254	0.0176801
692.332	0.0175980
692.410	0.0179191
692.488	0.0177186
692.567	0.0179334
692.645	0.0179179
692.723	0.0176355
692.801	0.0173891
692.879	0.0171507
692.957	0.0167061
693.035	0.0163160
693.113	0.0157227
693.192	0.0151602
693.270	0.0146695
693.348	0.0141037
693.426	0.0134801
693.504	0.0128313
693.582	0.0124713
693.660	0.0121934
693.738	0.0116475
693.817	0.0114506
693.895	0.0111436
693.973	0.0109630
694.051	0.0109007
694.129	0.0108005
694.207	0.0107440
694.285	0.0108445
694.363	0.0112091
694.442	0.0116970
694.520	0.0119373
694.598	0.0122939
694.676	0.0128661
694.754	0.0133193
694.832	0.0138067
694.910	0.0141319
694.988	0.0146997
695.067	0.0150398
695.145	0.0152844
695.223	0.0156026
695.301	0.0160225
695.379	0.0162037
695.457	0.0160886
695.535	0.0163153
695.613	0.0166068
695.692	0.0166346
695.770	0.0166564
695.848	0.0165018
695.926	0.0166512
696.004	0.0165534
696.082	0.0164771
696.160	0.0163756
696.238	0.0164856
696.317	0.0163387
696.395	0.0162157
696.473	0.0162442
696.551	0.0162619
696.629	0.0161371
696.707	0.0161247
696.785	0.0159886
696.863	0.0158884
696.942	0.0159863
697.020	0.0154878
697.098	0.0150690
697.176	0.0148291
697.254	0.0144537
697.332	0.0141818
697.410	0.0135309
697.488	0.0130399
697.567	0.0127644
697.645	0.0124632
697.723	0.0121780
697.801	0.0119504
697.879	0.0117490
697.957	0.0116902
698.035	0.0117560
698.113	0.0119524
698.192	0.0120126
698.270	0.0122778
698.348	0.0125004
698.426	0.0128692
698.504	0.0134436
698.582	0.0137735
698.660	0.0143708
698.738	0.0147527
698.817	0.0152143
698.895	0.0156215
698.973	0.0159444
699.051	0.0162915
699.129	0.0164616
699.207	0.0165636
699.285	0.0168011
699.363	0.0166814
699.442	0.0168134
699.520	0.0167460
699.598	0.0166627
699.676	0.0165025
699.754	0.0163351
699.832	0.0161176
699.910	0.0159733
699.988	0.0157162
700.067	0.0154401
700.145	0.0151940
700.223	0.0149784
700.301	0.0148093
700.379	0.0146628
700.457	0.0144688
700.535	0.0144627
700.613	0.0142595
700.692	0.0141951
700.770	0.0142172
700.848	0.0142719
700.926	0.0143092
701.004	0.0140629
701.082	0.0138988
701.160	0.0136539
701.238	0.0137111
701.317	0.0135203
701.395	0.0132713
701.473	0.0130845
701.551	0.0128688
701.629	0.0126644
701.707	0.0125327
701.785	0.0124029
701.863	0.0123647
701.942	0.0125101
702.020	0.0124433
702.098	0.0128749
702.176	0.0129811
702.254	0.0130548
702.332	0.0134838
702.410	0.0138861
702.488	0.0143211
702.567	0.0146141
702.645	0.0149170
702.723	0.0154751
702.801	0.0157354
702.879	0.0160350
702.957	0.0161652
703.035	0.0164891
703.113	0.0167926
703.192	0.0169477
703.270	0.0169015
703.348	0.0169839
703.426	0.0171745
703.504	0.0173333
703.582	0.0172845
703.660	0.0172084
703.738	0.0172157
703.817	0.0169746
703.895	0.0167891
703.973	0.0166380
704.051	0.0164870
704.129	0.0161533
704.207	0.0157734
704.285	0.0154670
704.363	0.0151120
704.442	0.0147626
704.520	0.0145203
704.598	0.0144199
704.676	0.0139586
704.754	0.0136505
704.832	0.0135226
704.910	0.0131276
704.988	0.0130904
705.067	0.0127900
705.145	0.0127133
705.223	0.0127428
705.301	0.0124446
705.379	0.0125584
705.457	0.0123772
705.535	0.0125683
705.613	0.0126435
705.692	0.0125204
705.770	0.0126158
705.848	0.0126450
705.926	0.0127792
706.004	0.0128336
706.082	0.0128143
706.160	0.0130056
706.238	0.0131602
706.317	0.0132694
706.395	0.0133931
706.473	0.0134171
706.551	0.0135006
706.629	0.0135965
706.707	0.0138515
706.785	0.0141341
706.863	0.0143817
706.942	0.0146091
707.020	0.0148124
707.098	0.0153705
707.176	0.0155959
707.254	0.0158186
707.332	0.0163913
707.410	0.0166644
707.488	0.0168880
707.567	0.0172062
707.645	0.0174403
707.723	0.0174556
707.801	0.0175497
707.879	0.0173989
707.957	0.0173965
708.035	0.0170345
708.113	0.0167821
708.192	0.0164216
708.270	0.0159200
708.348	0.0155161
708.426	0.0152698
708.504	0.0149142
708.582	0.0145837
708.660	0.0142037
708.738	0.0139180
708.817	0.0136550
708.895	0.0136967
708.973	0.0135676
709.051	0.0136591
709.129	0.0138200
709.207	0.0139910
709.285	0.0140833
709.363	0.0143477
709.442	0.0146437
709.520	0.0147166
709.598	0.0149230
709.676	0.0150748
709.754	0.0150983
709.832	0.0153080
709.910	0.0150788
709.988	0.0151796
710.067	0.0151179
710.145	0.0149150
710.223	0.0148966
710.301	0.0146181
710.379	0.0143650
710.457	0.0142818
710.535	0.0136579
710.613	0.0134355
710.692	0.0129581
710.770	0.0127110
710.848	0.0123504
710.926	0.0121812
711.004	0.0121123
711.082	0.0119977
711.160	0.0119217
711.238	0.0122017
711.317	0.0124453
711.395	0.0126713
711.473	0.0130534
711.551	0.0134483
711.629	0.0137172
711.707	0.0142999
711.785	0.0147241
711.863	0.0152038
711.942	0.0155177
712.020	0.0158300
712.098	0.0160992
712.176	0.0164114
712.254	0.0162908
712.332	0.0163849
712.410	0.0164207
712.488	0.0161914
712.567	0.0162250
712.645	0.0159307
712.723	0.0159050
712.801	0.0157030
712.879	0.0156229
712.957	0.0155737
713.035	0.0155326
713.113	0.0156997
713.192	0.0158100
713.270	0.0158050
713.348	0.0159071
713.426	0.0161212
713.504	0.0162415
713.582	0.0162769
713.660	0.0164588
713.738	0.0164647
713.817	0.0165903
713.895	0.0166702
713.973	0.0165974
714.051	0.0164635
714.129	0.0164428
714.207	0.0162537
714.285	0.0160482
714.363	0.0157437
714.442	0.0153485
714.520	0.0149325
714.598	0.0141693
714.676	0.0138871
714.754	0.0132239
714.832	0.0126852
714.910	0.0122704
714.988	0.0118590
715.067	0.0115988
715.145	0.0114221
715.223	0.0112151
715.301	0.0111552
715.379	0.0112015
715.457	0.0114176
715.535	0.0114581
715.613	0.0117081
715.692	0.0120468
715.770	0.0121839
715.848	0.0125566
715.926	0.0129660
716.004	0.0130624
716.082	0.0132854
716.160	0.0137392
716.238	0.0137405
716.317	0.0140466
716.395	0.0144700
716.473	0.0145055
716.551	0.0148996
716.629	0.0151421
716.707	0.0154311
716.785	0.0156391
716.863	0.0160244
716.942	0.0164444
717.020	0.0167097
717.098	0.0170541
717.176	0.0173023
717.254	0.0175565
717.332	0.0177544
717.410	0.0179630
717.488	0.0180064
717.567	0.0180209
717.645	0.0180084
717.723	0.0177885
717.801	0.0176712
717.879	0.0173799
717.957	0.0170056
718.035	0.0166784
718.113	0.0164356
718.192	0.0159545
718.270	0.0157078
718.348	0.0152306
718.426	0.0150113
718.504	0.0145477
718.582	0.0143247
718.660	0.0139965
718.738	0.0136323
718.817	0.0135386
718.895	0.0131715
718.973	0.0128430
719.051	0.0127650
719.129	0.0125866
719.207	0.0123580
719.285	0.0122581
719.363	0.0121004
719.442	0.0120576
719.520	0.0121347
719.598	0.0121407
719.676	0.0120914
719.754	0.0121514
719.832	0.0122899
719.910	0.0123545
719.988	0.0124081
720.067	0.0128411
720.145	0.0131351
720.223	0.0133669
720.301	0.0134516
720.379	0.0137981
720.457	0.0140224
720.535	0.0143212
720.613	0.0144669
720.692	0.0146352
720.770	0.0148811
720.848	0.0149355
720.926	0.0150033
721.004	0.0149873
721.082	0.0151690
721.160	0.0151520
721.238	0.0153638
721.317	0.0155037
721.395	0.0157622
721.473	0.0160043
721.551	0.0161747
721.629	0.0165624
721.707	0.0170372
721.785	0.0172199
721.863	0.0174041
721.942	0.0175425
722.020	0.0177081
722.098	0.0176315
722.176	0.0175515
722.254	0.0174431
722.332	0.0171342
722.410	0.0166520
722.488	0.0163968
722.567	0.0160033
722.645	0.0155676
722.723	0.0151617
722.801	0.0147624
722.879	0.0142226
722.957	0.0139364
723.035	0.0135783
723.113	0.0132294
723.192	0.0131126
723.270	0.0128159
723.348	0.0126475
723.426	0.0125946
723.504	0.0125555
723.582	0.0124802
723.660	0.0125652
723.738	0.0126089
723.817	0.0126638
723.895	0.0127098
723.973	0.0128306
724.051	0.0129259
724.129	0.0131523
724.207	0.0133499
724.285	0.0134682
724.363	0.0136757
724.442	0.0140952
724.520	0.0141674
724.598	0.0143495
724.676	0.0146145
724.754	0.0147299
724.832	0.0147639
724.910	0.0149171
724.988	0.0151426
725.067	0.0150618
725.145	0.0150289
725.223	0.0150444
725.301	0.0149316
725.379	0.0147142
725.457	0.0148555
725.535	0.0147609
725.613	0.0147240
725.692	0.0146766
725.770	0.0147465
725.848	0.0148455
725.926	0.0149429
726.004	0.0151223
726.082	0.0153103
726.160	0.0155469
726.238	0.0157196
726.317	0.0159344
726.395	0.0158994
726.473	0.0160014
726.551	0.0158997
726.629	0.0159563
726.707	0.0158318
726.785	0.0156606
726.863	0.0154874
726.942	0.0152912
727.020	0.0150581
727.098	0.0148287
727.176	0.0143915
727.254	0.0141055
727.332	0.0140241
727.410	0.0138392
727.488	0.0136906
727.567	0.0135453
727.645	0.0134346
727.723	0.0135823
727.801	0.0136484
727.879	0.0138410
727.957	0.0139470
728.035	0.0140624
728.113	0.0144319
728.192	0.0145473
728.270	0.0147607
728.348	0.0150493
728.426	0.0149760
728.504	0.0151090
728.582	0.0154410
728.660	0.0154193
728.738	0.0154638
728.817	0.0154812
728.895	0.0153846
728.973	0.0152634
729.051	0.0151468
729.129	0.0150229
729.207	0.0148830
729.285	0.0147076
729.363	0.0145513
729.442	0.0143998
729.520	0.0141871
729.598	0.0140700
729.676	0.0136831
729.754	0.0137318
729.832	0.0134807
729.910	0.0134214
729.988	0.0132433
730.067	0.0133386
730.145	0.0132126
730.223	0.0132735
730.301	0.0134231
730.379	0.0136389
730.457	0.0138869
730.535	0.0139765
730.613	0.0143140
730.692	0.0145485
730.770	0.0146941
730.848	0.0149004
730.926	0.0151936
731.004	0.0153604
731.082	0.0154100
731.160	0.0154722
731.238	0.0156287
731.317	0.0155540
731.395	0.0155045
731.473	0.0153974
731.551	0.0153812
731.629	0.0151299
731.707	0.0151476
731.785	0.0147234
731.863	0.0146137
731.942	0.0144250
732.020	0.0144183
732.098	0.0144550
732.176	0.0143684
732.254	0.0144550
732.332	0.0144849
732.410	0.0145657
732.488	0.0148746
732.567	0.0149342
732.645	0.0150419
732.723	0.0153036
732.801	0.0157300
732.879	0.0157335
732.957	0.0160312
733.035	0.0160857
733.113	0.0161615
733.192	0.0162622
733.270	0.0163553
733.348	0.0162415
733.426	0.0160464
733.504	0.0157494
733.582	0.0153168
733.660	0.0151781
733.738	0.0148725
733.817	0.0144937
733.895	0.0140857
733.973	0.0137850
734.051	0.0135858
734.129	0.0132825
734.207	0.0131390
734.285	0.0128848
734.363	0.0127872
734.442	0.0128070
734.520	0.0129257
734.598	0.0129823
734.676	0.0130215
734.754	0.0132069
734.832	0.0133929
734.910	0.0135127
734.988	0.0137884
735.067	0.0139099
735.145	0.0143528
735.223	0.0144097
735.301	0.0145695
735.379	0.0147385
735.457	0.0149498
735.535	0.0150629
735.613	0.0150681
735.692	0.0152487
735.770	0.0151971
735.848	0.0153025
735.926	0.0154478
736.004	0.0154692
736.082	0.0154436
736.160	0.0154123
736.238	0.0153524
736.317	0.0155691
736.395	0.0153419
736.473	0.0153491
736.551	0.0152721
736.629	0.0149106
736.707	0.0149796
736.785	0.0148732
736.863	0.0146187
736.942	0.0148268
737.020	0.0148907
737.098	0.0148272
737.176	0.0148451
737.254	0.0149973
737.332	0.0149184
737.410	0.0151205
737.488	0.0152244
737.567	0.0153804
737.645	0.0154836
737.723	0.0155563
737.801	0.0156428
737.879	0.0157542
737.957	0.0157647
738.035	0.0156050
738.113	0.0157125
738.192	0.0156435
738.270	0.0153580
738.348	0.0150430
738.426	0.0147794
738.504	0.0144019
738.582	0.0141316
738.660	0.0139071
738.738	0.0136289
738.817	0.0134839
738.895	0.0132371
738.973	0.0131149
739.051	0.0129442
739.129	0.0129493
739.207	0.0130473
739.285	0.0131065
739.363	0.0133152
739.442	0.0133692
739.520	0.0136047
739.598	0.0137434
739.676	0.0140642
739.754	0.0140811
739.832	0.0143153
739.910	0.0144677
739.988	0.0145055
740.067	0.0147749
740.145	0.0149448
740.223	0.0148870
740.301	0.0149961
740.379	0.0150809
740.457	0.0151806
740.535	0.0151961
740.613	0.0152410
740.692	0.0151985
740.770	0.0153429
740.848	0.0154372
740.926	0.0153201
741.004	0.0155778
741.082	0.0155382
741.160	0.0153142
741.238	0.0153214
741.317	0.0154065
741.395	0.0152100
741.473	0.0152087
741.551	0.0151917
741.629	0.0149310
741.707	0.0148867
741.785	0.0148594
741.863	0.0147870
741.942	0.0146062
742.020	0.0145734
742.098	0.0145042
742.176	0.0143224
742.254	0.0143837
742.332	0.0145010
742.410	0.0143333
742.488	0.0144529
742.567	0.0143783
742.645	0.0142976
742.723	0.0145743
742.801	0.0143613
742.879	0.0144595
742.957	0.0146790
743.035	0.0145863
743.113	0.0145776
743.192	0.0144355
743.270	0.0143597
743.348	0.0142699
743.426	0.0143407
743.504	0.0142084
743.582	0.0143201
743.660	0.0142388
743.738	0.0141235
743.817	0.0142237
743.895	0.0142210
743.973	0.0143505
744.051	0.0144025
744.129	0.0144823
744.207	0.0145468
744.285	0.0147986
744.363	0.0146360
744.442	0.0150135
744.520	0.0150887
744.598	0.0151209
744.676	0.0151182
744.754	0.0153126
744.832	0.0153276
744.910	0.0151377
744.988	0.0151975
745.067	0.0153090
745.145	0.0153062
745.223	0.0151418
745.301	0.0149820
745.379	0.0150232
745.457	0.0148724
745.535	0.0147688
745.613	0.0146848
745.692	0.0144315
745.770	0.0144398
745.848	0.0144605
745.926	0.0145020
746.004	0.0143980
746.082	0.0144426
746.160	0.0143687
746.238	0.0145018
746.317	0.0144497
746.395	0.0142960
746.473	0.0143394
746.551	0.0145119
746.629	0.0144522
746.707	0.0145136
746.785	0.0143257
746.863	0.0143364
746.942	0.0143313
747.020	0.0142030
747.098	0.0142840
747.176	0.0143426
747.254	0.0142371
747.332	0.0142753
747.410	0.0143880
747.488	0.0142384
747.567	0.0144601
747.645	0.0145338
747.723	0.0146995
747.801	0.0147011
747.879	0.0145789
747.957	0.0146952
748.035	0.0147276
748.113	0.0147141
748.192	0.0145908
748.270	0.0144637
748.348	0.0145838
748.426	0.0146338
748.504	0.0146104
748.582	0.0145480
748.660	0.0146267
748.738	0.0146325
748.817	0.0148042
748.895	0.0149206
748.973	0.0149753
749.051	0.0151983
749.129	0.0151602
749.207	0.0154473
749.285	0.0154476
749.363	0.0153773
749.442	0.0154610
749.520	0.0154490
749.598	0.0153544
749.676	0.0152125
749.754	0.0151830
749.832	0.0149858
749.910	0.0149541
749.988	0.0147591
750.067	0.0145898
750.145	0.0143261
750.223	0.0141522
750.301	0.0141541
750.379	0.0141708
750.457	0.0139072
750.535	0.0138689
750.613	0.0139717
750.692	0.0139167
750.770	0.0138466
750.848	0.0141679
750.926	0.0140143
751.004	0.0140412
751.082	0.0141113
751.160	0.0142911
751.238	0.0142845
751.317	0.0142372
751.395	0.0142862
751.473	0.0143282
751.551	0.0143633
751.629	0.0146755
751.707	0.0146042
751.785	0.0145774
751.863	0.0147263
751.942	0.0147923
752.020	0.0146768
752.098	0.0147826
752.176	0.0148515
752.254	0.0148366
752.332	0.0147861
752.410	0.0149038
752.488	0.0148825
752.567	0.0149742
752.645	0.0148321
752.723	0.0147975
752.801	0.0149146
752.879	0.0149138
752.957	0.0147488
753.035	0.0148336
753.113	0.0147739
753.192	0.0148221
753.270	0.0148372
753.348	0.0148983
753.426	0.0148087
753.504	0.0148424
753.582	0.0148367
753.660	0.0148685
753.738	0.0149298
753.817	0.0148942
753.895	0.0149358
753.973	0.0150163
754.051	0.0149888
754.129	0.0150968
754.207	0.0150301
754.285	0.0148669
754.363	0.0148476
754.442	0.0148252
754.520	0.0147451
754.598	0.0145896
754.676	0.0144107
754.754	0.0143681
754.832	0.0142681
754.910	0.0140703
754.988	0.0140108
755.067	0.0139793
755.145	0.0139328
755.223	0.0139690
755.301	0.0140303
755.379	0.0140185
755.457	0.0142259
755.535	0.0140424
755.613	0.0140510
755.692	0.0142224
755.770	0.0143397
755.848	0.0143524
755.926	0.0144952
756.004	0.0146154
756.082	0.0145327
756.160	0.0146817
756.238	0.0146000
756.317	0.0146010
756.395	0.0147639
756.473	0.0146664
756.551	0.0147282
756.629	0.0149936
756.707	0.0149562
756.785	0.0150372
756.863	0.0152782
756.942	0.0152238
757.020	0.0154375
757.098	0.0155264
757.176	0.0154897
757.254	0.0154719
757.332	0.0155012
757.410	0.0155188
757.488	0.0154080
757.567	0.0152819
757.645	0.0152664
757.723	0.0148965
757.801	0.0147871
757.879	0.0147063
757.957	0.0146604
758.035	0.0145530
758.113	0.0144786
758.192	0.0142614
758.270	0.0143275
758.348	0.0143778
758.426	0.0142763
758.504	0.0143544
758.582	0.0144437
758.660	0.0144324
758.738	0.0145004
758.817	0.0145330
758.895	0.0146603
758.973	0.0147520
759.051	0.0145933
759.129	0.0146011
759.207	0.0146276
759.285	0.0146955
759.363	0.0146178
759.442	0.0143539
759.520	0.0144249
759.598	0.0144398
759.676	0.0144533
759.754	0.0144244
759.832	0.0142641
759.910	0.0145486
759.988	0.0144434
760.067	0.0142966
760.145	0.0144278
760.223	0.0145266
760.301	0.0145926
760.379	0.0144212
760.457	0.0143800
760.535	0.0145503
760.613	0.0146216
760.692	0.0145660
760.770	0.0145295
760.848	0.0143914
760.926	0.0144741
761.004	0.0145735
761.082	0.0146364
761.160	0.0147737
761.238	0.0148349
761.317	0.0148537
761.395	0.0150024
761.473	0.0153373
761.551	0.0153362
761.629	0.0153851
761.707	0.0153201
761.785	0.0154630
761.863	0.0153087
761.942	0.0153471
762.020	0.0152671
762.098	0.0151832
762.176	0.0151981
762.254	0.0149429
762.332	0.0147097
762.410	0.0145901
762.488	0.0144803
762.567	0.0143956
762.645	0.0144864
762.723	0.0143105
762.801	0.0142511
762.879	0.0141742
762.957	0.0142072
763.035	0.0140708
763.113	0.0142511
763.192	0.0142168
763.270	0.0142449
763.348	0.0144305
763.426	0.0143810
763.504	0.0145168
763.582	0.0146692
763.660	0.0146521
763.738	0.0146664
763.817	0.0145441
763.895	0.0146638
763.973	0.0146281
764.051	0.0147653
764.129	0.0145538
764.207	0.0145775
764.285	0.0145154
764.363	0.0143151
764.442	0.0144699
764.520	0.0146706
764.598	0.0143729
764.676	0.0146407
764.754	0.0147057
764.832	0.0146860
764.910	0.0146221
764.988	0.0147109
765.067	0.0146505
765.145	0.0147787
765.223	0.0147019
765.301	0.0147361
765.379	0.0146211
765.457	0.0146321
765.535	0.0146888
765.613	0.0146749
765.692	0.0145306
765.770	0.0146451
765.848	0.0146269
765.926	0.0147172
766.004	0.0145047
766.082	0.0147118
766.160	0.0148312
766.238	0.0148356
766.317	0.0149080
766.395	0.0149171
766.473	0.0149877
766.551	0.0151415
766.629	0.0150778
766.707	0.0151240
766.785	0.0150203
766.863	0.0150407
766.942	0.0151561
767.020	0.0150491
767.098	0.0149481
767.176	0.0147501
767.254	0.0145990
767.332	0.0145097
767.410	0.0145425
767.488	0.0144463
767.567	0.0143807
767.645	0.0142790
767.723	0.0142503
767.801	0.0141639
767.879	0.0143362
767.957	0.0142090
768.035	0.0142914
768.113	0.0144859
768.192	0.0144314
768.270	0.0144717
768.348	0.0145934
768.426	0.0145541
768.504	0.0145408
768.582	0.0145400
768.660	0.0143729
768.738	0.0144368
768.817	0.0146798
768.895	0.0145679
768.973	0.0146021
769.051	0.0144663
769.129	0.0146318
769.207	0.0143890
769.285	0.0144720
769.363	0.0146082
769.442	0.0146283
769.520	0.0146382
769.598	0.0148569
769.676	0.0148682
769.754	0.0147803
769.832	0.0146681
769.910	0.0148387
769.988	0.0148235
770.067	0.0148081
770.145	0.0147385
770.223	0.0146854
770.301	0.0149059
770.379	0.0148394
770.457	0.0147163
770.535	0.0146170
770.613	0.0145367
770.692	0.0145227
770.770	0.0145683
770.848	0.0145568
770.926	0.0147021
771.004	0.0145496
771.082	0.0145144
771.160	0.0146833
771.238	0.0144686
771.317	0.0145078
771.395	0.0144627
771.473	0.0145661
771.551	0.0144624
771.629	0.0145692
771.707	0.0145053
771.785	0.0144203
771.863	0.0145473
771.942	0.0145149
772.020	0.0143864
772.098	0.0143750
772.176	0.0145802
772.254	0.0146377
772.332	0.0147086
772.410	0.0146326
772.488	0.0145302
772.567	0.0146969
772.645	0.0147872
772.723	0.0146423
772.801	0.0146757
772.879	0.0147176
772.957	0.0146939
773.035	0.0146763
773.113	0.0147820
773.192	0.0147735
773.270	0.0146388
773.348	0.0145468
773.426	0.0145023
773.504	0.0146726
773.582	0.0145306
773.660	0.0148063
773.738	0.0145589
773.817	0.0146220
773.895	0.0146867
773.973	0.0147601
774.051	0.0147041
774.129	0.0147689
774.207	0.0148589
774.285	0.0148103
774.363	0.0148685
774.442	0.0148757
774.520	0.0150275
774.598	0.0149232
774.676	0.0149508
774.754	0.0147945
774.832	0.0149415
774.910	0.0148661
774.988	0.0148578
775.067	0.0148794
775.145	0.0147886
775.223	0.0147616
775.301	0.0147710
775.379	0.0145142
775.457	0.0144693
775.535	0.0146564
775.613	0.0145155
775.692	0.0143655
775.770	0.0141344
775.848	0.0141781
775.926	0.0142691
776.004	0.0141339
776.082	0.0141478
776.160	0.0141860
776.238	0.0142404
776.317	0.0142275
776.395	0.0142711
776.473	0.0142368
776.551	0.0143495
776.629	0.0143563
776.707	0.0144477
776.785	0.0145551
776.863	0.0145992
776.942	0.0147131
777.020	0.0148137
777.098	0.0147487
777.176	0.0148225
777.254	0.0150023
777.332	0.0150642
777.410	0.0150804
777.488	0.0150560
777.567	0.0149976
777.645	0.0151592
777.723	0.0151048
777.801	0.0149004
777.879	0.0148409
777.957	0.0149369
778.035	0.0149544
778.113	0.0148349
778.192	0.0146088
778.270	0.0146349
778.348	0.0146410
778.426	0.0144835
778.504	0.0145226
778.582	0.0143887
778.660	0.0143505
778.738	0.0142549
778.817	0.0143855
778.895	0.0144751
778.973	0.0142862
779.051	0.0142765
779.129	0.0144450
779.207	0.0145737
779.285	0.0145453
779.363	0.0144064
779.442	0.0146070
779.520	0.0144562
779.598	0.0143780
779.676	0.0145280
779.754	0.0146162
779.832	0.0146047
779.910	0.0145827
779.988	0.0145469
780.067	0.0145005
780.145	0.0145719
780.223	0.0146380
780.301	0.0145846
780.379	0.0145955
780.457	0.0145602
780.535	0.0145428
780.613	0.0146259
780.692	0.0144928
780.770	0.0146621
780.848	0.0146484
780.926	0.0147144
781.004	0.0147580
781.082	0.0148255
781.160	0.0147830
781.238	0.0148549
781.317	0.0147635
781.395	0.0148184
781.473	0.0148055
781.551	0.0149242
781.629	0.0147633
781.707	0.0146870
781.785	0.0147546
781.863	0.0146861
781.942	0.0146713
782.020	0.0146114
782.098	0.0146779
782.176	0.0146882
782.254	0.0146139
782.332	0.0145723
782.410	0.0145284
782.488	0.0144870
782.567	0.0145874
782.645	0.0145632
782.723	0.0145243
782.801	0.0144106
782.879	0.0143879
782.957	0.0144754
783.035	0.0143907
783.113	0.0144241
783.192	0.0144905
783.270	0.0143520
783.348	0.0144869
783.426	0.0143728
783.504	0.0144530
783.582	0.0144364
783.660	0.0145731
783.738	0.0145188
783.817	0.0145542
783.895	0.0144112
783.973	0.0143344
784.051	0.0145777
784.129	0.0143875
784.207	0.0144462
784.285	0.0144482
784.363	0.0145404
784.442	0.0145994
784.520	0.0147159
784.598	0.0146010
784.676	0.0145444
784.754	0.0145803
784.832	0.0146729
784.910	0.0146863
784.988	0.0149191
785.067	0.0149531
785.145	0.0150164
785.223	0.0149403
785.301	0.0149186
785.379	0.0150327
785.457	0.0150459
785.535	0.0149657
785.613	0.0149345
785.692	0.0149067
785.770	0.0148546
785.848	0.0148990
785.926	0.0148012
786.004	0.0148517
786.082	0.0148486
786.160	0.0148247
786.238	0.0147385
786.317	0.0146759
786.395	0.0146371
786.473	0.0145370
786.551	0.0146253
786.629	0.0144870
786.707	0.0145428
786.785	0.0145905
786.863	0.0144836
786.942	0.0145424
787.020	0.0143430
787.098	0.0143310
787.176	0.0143974
787.254	0.0143741
787.332	0.0142645
787.410	0.0142824
787.488	0.0143050
787.567	0.0142947
787.645	0.0141471
787.723	0.0142770
787.801	0.0142924
787.879	0.0143430
787.957	0.0143873
788.035	0.0145124
788.113	0.0144401
788.192	0.0145953
788.270	0.0147415
788.348	0.0147229
788.426	0.0147279
788.504	0.0148487
788.582	0.0150103
788.660	0.0148353
788.738	0.0148858
788.817	0.0150249
788.895	0.0150558
788.973	0.0148782
789.051	0.0149876
789.129	0.0148466
789.207	0.0148969
789.285	0.0149783
789.363	0.0150112
789.442	0.0149109
789.520	0.0151162
789.598	0.0148956
789.676	0.0148119
789.754	0.0147963
789.832	0.0149643
789.910	0.0149078
789.988	0.0148049
790.067	0.0145431
790.145	0.0145971
790.223	0.0145521
790.301	0.0143594
790.379	0.0143247
790.457	0.0142084
790.535	0.0141947
790.613	0.0141841
790.692	0.0141528
790.770	0.0141427
790.848	0.0141869
790.926	0.0142417
791.004	0.0142340
791.082	0.0141344
791.160	0.0142382
791.238	0.0144817
791.317	0.0143605
791.395	0.0143603
791.473	0.0145673
791.551	0.0145963
791.629	0.0147038
791.707	0.0148041
791.785	0.0146386
791.863	0.0148829
791.942	0.0150489
792.020	0.0149914
792.098	0.0148597
792.176	0.0147903
792.254	0.0147326
792.332	0.0147459
792.410	0.0147126
792.488	0.0147190
792.567	0.0148209
792.645	0.0148386
792.723	0.0146679
792.801	0.0144800
792.879	0.0145441
792.957	0.0146783
793.035	0.0144723
793.113	0.0146158
793.192	0.0146027
793.270	0.0143992
793.348	0.0145856
793.426	0.0146237
793.504	0.0147038
793.582	0.0147623
793.660	0.0146903
793.738	0.0147607
793.817	0.0147938
793.895	0.0147517
793.973	0.0147886
794.051	0.0148590
794.129	0.0148646
794.207	0.0148148
794.285	0.0148155
794.363	0.0146520
794.442	0.0146947
794.520	0.0146548
794.598	0.0147304
794.676	0.0145894
794.754	0.0145877
794.832	0.0146815
794.910	0.0144286
794.988	0.0143464
795.067	0.0144537
795.145	0.0144985
795.223	0.0143977
795.301	0.0144273
795.379	0.0143865
795.457	0.0143111
795.535	0.0144234
795.613	0.0144927
795.692	0.0144852
795.770	0.0145284
795.848	0.0144569
795.926	0.0145272
796.004	0.0145301
796.082	0.0146256
796.160	0.0146434
796.238	0.0146968
796.317	0.0146590
796.395	0.0147531
796.473	0.0148214
796.551	0.0147678
796.629	0.0148540
796.707	0.0148377
796.785	0.0147330
796.863	0.0148031
796.942	0.0148163
797.020	0.0146233
797.098	0.0147295
797.176	0.0146474
797.254	0.0147578
797.332	0.0145065
797.410	0.0146200
797.488	0.0146207
797.567	0.0146509
797.645	0.0144568
797.723	0.0144012
797.801	0.0144275
797.879	0.0143536
797.957	0.0143854
798.035	0.0144427
798.113	0.0143570
798.192	0.0143030
798.270	0.0142937
798.348	0.0142377
798.426	0.0144136
798.504	0.0142121
798.582	0.0143719
798.660	0.0145344
798.738	0.0143903
798.817	0.0146320
798.895	0.0146938
798.973	0.0145975
799.051	0.0147184
799.129	0.0146452
799.207	0.0148566
799.285	0.0148664
799.363	0.0149213
799.442	0.0150884
799.520	0.0149721
799.598	0.0149869
799.676	0.0149818
799.754	0.0151394
799.832	0.0151906
799.910	0.0151793
799.988	0.0150867
800.067	0.0150814
800.145	0.0151279
800.223	0.0152684
800.301	0.0152111
800.379	0.0150195
800.457	0.0149174
800.535	0.0149583
800.613	0.0147809
800.692	0.0147171
800.770	0.0146776
800.848	0.0144573
800.926	0.0145177
801.004	0.0144980
801.082	0.0144002
801.160	0.0143121
801.238	0.0142548
801.317	0.0142461
801.395	0.0142574
801.473	0.0142317
801.551	0.0141644
801.629	0.0141363
801.707	0.0142312
801.785	0.0142039
801.863	0.0142704
801.942	0.0142319
802.020	0.0141792
802.098	0.0142097
802.176	0.0143051
802.254	0.0144527
802.332	0.0142926
802.410	0.0144881
802.488	0.0143513
802.567	0.0143996
802.645	0.0145838
802.723	0.0143127
802.801	0.0145493
802.879	0.0144643
802.957	0.0145290
803.035	0.0147266
803.113	0.0147418
803.192	0.0147318
803.270	0.0148058
803.348	0.0149029
803.426	0.0148299
803.504	0.0149222
803.582	0.0151182
803.660	0.0151022
803.738	0.0149927
803.817	0.0150445
803.895	0.0151140
803.973	0.0150128
804.051	0.0150531
804.129	0.0150340
804.207	0.0148880
804.285	0.0147428
804.363	0.0147935
804.442	0.0147509
804.520	0.0146225
804.598	0.0146788
804.676	0.0146989
804.754	0.0145966
804.832	0.0144906
804.910	0.0143545
804.988	0.0144727
805.067	0.0144307
805.145	0.0144509
805.223	0.0144559
805.301	0.0143657
805.379	0.0145779
805.457	0.0146413
805.535	0.0145906
805.613	0.0147023
805.692	0.0146096
805.770	0.0146938
805.848	0.0146584
805.926	0.0146683
806.004	0.0144773
806.082	0.0145155
806.160	0.0145737
806.238	0.0145385
806.317	0.0145589
806.395	0.0144853
806.473	0.0144221
806.551	0.0143468
806.629	0.0143799
806.707	0.0143628
806.785	0.0145335
806.863	0.0143486
806.942	0.0145483
807.020	0.0144317
807.098	0.0143201
807.176	0.0143262
807.254	0.0144209
807.332	0.0146703
807.410	0.0146050
807.488	0.0145561
807.567	0.0145920
807.645	0.0147868
807.723	0.0146517
807.801	0.0148586
807.879	0.0149184
807.957	0.0149751
808.035	0.0148489
808.113	0.0149306
808.192	0.0151248
808.270	0.0150529
808.348	0.0149036
808.426	0.0150729
808.504	0.0151134
808.582	0.0148702
808.660	0.0147755
808.738	0.0147430
808.817	0.0146487
808.895	0.0148286
808.973	0.0145743
809.051	0.0145055
809.129	0.0144250
809.207	0.0143465
809.285	0.0143104
809.363	0.0144714
809.442	0.0143452
809.520	0.0143589
809.598	0.0144137
809.676	0.0144223
809.754	0.0144196
809.832	0.0143286
809.910	0.0145822
809.988	0.0146668
810.067	0.0145951
810.145	0.0146753
810.223	0.0147911
810.301	0.0148449
810.379	0.0149413
810.457	0.0150267
810.535	0.0149190
810.613	0.0148992
810.692	0.0149194
810.770	0.0149264
810.848	0.0150131
810.926	0.0149246
811.004	0.0148994
811.082	0.0148984
811.160	0.0149368
811.238	0.0148731
811.317	0.0145593
811.395	0.0147200
811.473	0.0148300
811.551	0.0145355
811.629	0.0145586
811.707	0.0145995
811.785	0.0146069
811.863	0.0145380
811.942	0.0144460
812.020	0.0145132
812.098	0.0144614
812.176	0.0143894
812.254	0.0143541
812.332	0.0144370
812.410	0.0143900
812.488	0.0144124
812.567	0.0142887
812.645	0.0142872
812.723	0.0142687
812.801	0.0143899
812.879	0.0144794
812.957	0.0145853
813.035	0.0143390
813.113	0.0145921
813.192	0.0147347
813.270	0.0145828
813.348	0.0146892
813.426	0.0148989
813.504	0.0148506
813.582	0.0148487
813.660	0.0149781
813.738	0.0148315
813.817	0.0149131
813.895	0.0152223
813.973	0.0149707
814.051	0.0149443
814.129	0.0149493
814.207	0.0150242
814.285	0.0149191
814.363	0.0148633
814.442	0.0150861
814.520	0.0149342
814.598	0.0148513
814.676	0.0148523
814.754	0.0148723
814.832	0.0148248
814.910	0.0147353
814.988	0.0147370
815.067	0.0147952
815.145	0.0146228
815.223	0.0145229
815.301	0.0146822
815.379	0.0148235
815.457	0.0146645
815.535	0.0146121
815.613	0.0146141
815.692	0.0145276
815.770	0.0144691
815.848	0.0144304
815.926	0.0144115
816.004	0.0144252
816.082	0.0144908
816.160	0.0142994
816.238	0.0143507
816.317	0.0145110
816.395	0.0145481
816.473	0.0145232
816.551	0.0144118
816.629	0.0145547
816.707	0.0144524
816.785	0.0145548
816.863	0.0146549
816.942	0.0144635
817.020	0.0145921
817.098	0.0143737
817.176	0.0145563
817.254	0.0145947
817.332	0.0145509
817.410	0.0144964
817.488	0.0145695
817.567	0.0144273
817.645	0.0146290
817.723	0.0145671
817.801	0.0146052
817.879	0.0146120
817.957	0.0147334
818.035	0.0148324
818.113	0.0146655
818.192	0.0146375
818.270	0.0146693
818.348	0.0148315
818.426	0.0148750
818.504	0.0150589
818.582	0.0149037
818.660	0.0150513
818.738	0.0150580
818.817	0.0150249
818.895	0.0149738
818.973	0.0149425
819.051	0.0148202
819.129	0.0149764
819.207	0.0149127
819.285	0.0147598
819.363	0.0147401
819.442	0.0146528
819.520	0.0146832
819.598	0.0146583
819.676	0.0144482
819.754	0.0145023
819.832	0.0145615
819.910	0.0144793
819.988	0.0144532
820.067	0.0144177
820.145	0.0143457
820.223	0.0142763
820.301	0.0142004
820.379	0.0142315
820.457	0.0143312
820.535	0.0143861
820.613	0.0143832
820.692	0.0142597
820.770	0.0142194
820.848	0.0142602
820.926	0.0143573
821.004	0.0143655
821.082	0.0145624
821.160	0.0144610
821.238	0.0142393
821.317	0.0144698
821.395	0.0144916
821.473	0.0144896
821.551	0.0145234
821.629	0.0144795
821.707	0.0145319
821.785	0.0146280
821.863	0.0145966
821.942	0.0148789
822.020	0.0147104
822.098	0.0148307
822.176	0.0147685
822.254	0.0149330
822.332	0.0149049
822.410	0.0149570
822.488	0.0149506
822.567	0.0150130
822.645	0.0150118
822.723	0.0149663
822.801	0.0150069
822.879	0.0149844
822.957	0.0149871
823.035	0.0149591
823.113	0.0149222
823.192	0.0147310
823.270	0.0147480
823.348	0.0147141
823.426	0.0146072
823.504	0.0145979
823.582	0.0145631
823.660	0.0145414
823.738	0.0144559
823.817	0.0143076
823.895	0.0144827
823.973	0.0144577
824.051	0.0143800
824.129	0.0143723
824.207	0.0145193
824.285	0.0143560
824.363	0.0145191
824.442	0.0144965
824.520	0.0144889
824.598	0.0145775
824.676	0.0143890
824.754	0.0145911
824.832	0.0146563
824.910	0.0146145
824.988	0.0147230
825.067	0.0148157
825.145	0.0146489
825.223	0.0147659
825.301	0.0147121
825.379	0.0147572
825.457	0.0148170
825.535	0.0146374
825.613	0.0147057
825.692	0.0147734
825.770	0.0147337
825.848	0.0146785
825.926	0.0147646
826.004	0.0146040
826.082	0.0145571
826.160	0.0146273
826.238	0.0145281
826.317	0.0145021
826.395	0.0145717
826.473	0.0145303
826.551	0.0143955
826.629	0.0143350
826.707	0.0146025
826.785	0.0146101
826.863	0.0145795
826.942	0.0146947
827.020	0.0147125
827.098	0.0148331
827.176	0.0147533
827.254	0.0146784
827.332	0.0147652
827.410	0.0148553
827.488	0.0147086
827.567	0.0146631
827.645	0.0146407
827.723	0.0147237
827.801	0.0146542
827.879	0.0147011
827.957	0.0146675
828.035	0.0145766
828.113	0.0146012
828.192	0.0145188
828.270	0.0144234
828.348	0.0144709
828.426	0.0145320
828.504	0.0144556
828.582	0.0144009
828.660	0.0143008
828.738	0.0144301
828.817	0.0145953
828.895	0.0143514
828.973	0.0144447
829.051	0.0145428
829.129	0.0144743
829.207	0.0145199
829.285	0.0145081
829.363	0.0147112
829.442	0.0146506
829.520	0.0146667
829.598	0.0147740
829.676	0.0148576
829.754	0.0147830
829.832	0.0147078
829.910	0.0145923
829.988	0.0148104
830.067	0.0149599
830.145	0.0147335
830.223	0.0147675
830.301	0.0148392
830.379	0.0147259
830.457	0.0146948
830.535	0.0148367
830.613	0.0147507
830.692	0.0147992
830.770	0.0148557
830.848	0.0148470
830.926	0.0147230
831.004	0.0147791
831.082	0.0147491
831.160	0.0147944
831.238	0.0147267
831.317	0.0146793
831.395	0.0146229
831.473	0.0146560
831.551	0.0146607
831.629	0.0146969
831.707	0.0146176
831.785	0.0145767
831.863	0.0145344
831.942	0.0144930
832.020	0.0145087
832.098	0.0145583
832.176	0.0146061
832.254	0.0145609
832.332	0.0144300
832.410	0.0144444
832.488	0.0145010
832.567	0.0144895
832.645	0.0144613
832.723	0.0144343
832.801	0.0143221
832.879	0.0143453
832.957	0.0143767
833.035	0.0144465
833.113	0.0144625
833.192	0.0145407
833.270	0.0145348
833.348	0.0144482
833.426	0.0145325
833.504	0.0145580
833.582	0.0145650
833.660	0.0147271
833.738	0.0146664
833.817	0.0146625
833.895	0.0147550
833.973	0.0148791
834.051	0.0147917
834.129	0.0148484
834.207	0.0148400
834.285	0.0149803
834.363	0.0147767
834.442	0.0148048
834.520	0.0146813
834.598	0.0148377
834.676	0.0148243
834.754	0.0147781
834.832	0.0147156
834.910	0.0147073
834.988	0.0146357
835.067	0.0145544
835.145	0.0144584
835.223	0.0144929
835.301	0.0145821
835.379	0.0147250
835.457	0.0145104
835.535	0.0145898
835.613	0.0146268
835.692	0.0144821
835.770	0.0146555
835.848	0.0145972
835.926	0.0145025
836.004	0.0145937
836.082	0.0146542
836.160	0.0147894
836.238	0.0147009
836.317	0.0146642
836.395	0.0145222
836.473	0.0146248
836.551	0.0146611
836.629	0.0146668
836.707	0.0144878
836.785	0.0145205
836.863	0.0146313
836.942	0.0145142
837.020	0.0144752
837.098	0.0144781
837.176	0.0144589
837.254	0.0145193
837.332	0.0144633
837.410	0.0145975
837.488	0.0145901
837.567	0.0144608
837.645	0.0143954
837.723	0.0145123
837.801	0.0146512
837.879	0.0147720
837.957	0.0146722
838.035	0.0145169
838.113	0.0145930
838.192	0.0148202
838.270	0.0147391
838.348	0.0148955
838.426	0.0147966
838.504	0.0148866
838.582	0.0148996
838.660	0.0149265
838.738	0.0148566
838.817	0.0147762
838.895	0.0148132
838.973	0.0148550
839.051	0.0148112
839.129	0.0148999
839.207	0.0148112
839.285	0.0148502
839.363	0.0146925
839.442	0.0146257
839.520	0.0146602
839.598	0.0145422
839.676	0.0145376
839.754	0.0146130
839.832	0.0144532
839.910	0.0144340
839.988	0.0143747
840.067	0.0143385
840.145	0.0143625
840.223	0.0143929
840.301	0.0142715
840.379	0.0142632
840.457	0.0143877
840.535	0.0144479
840.613	0.0144453
840.692	0.0143203
840.770	0.0144678
840.848	0.0143869
840.926	0.0146494
841.004	0.0145383
841.082	0.0145688
841.160	0.0147620
841.238	0.0146590
841.317	0.0146156
841.395	0.0147011
841.473	0.0148814
841.551	0.0148199
841.629	0.0149252
841.707	0.0147648
841.785	0.0147796
841.863	0.0148266
841.942	0.0148363
842.020	0.0148711
842.098	0.0147705
842.176	0.0147755
842.254	0.0147900
842.332	0.0147043
842.410	0.0146886
842.488	0.0146593
842.567	0.0148035
842.645	0.0146449
842.723	0.0146909
842.801	0.0146978
842.879	0.0148132
842.957	0.0148630
843.035	0.0147005
843.113	0.0147119
843.192	0.0146356
843.270	0.0147845
843.348	0.0147544
843.426	0.0146683
843.504	0.0147217
843.582	0.0147747
843.660	0.0146201
843.738	0.0146010
843.817	0.0146760
843.895	0.0145552
843.973	0.0145258
844.051	0.0145179
844.129	0.0145638
844.207	0.0144920
844.285	0.0143176
844.363	0.0143217
844.442	0.0144385
844.520	0.0145804
844.598	0.0146444
844.676	0.0143508
844.754	0.0144336
844.832	0.0144354
844.910	0.0144063
844.988	0.0144564
845.067	0.0145965
845.145	0.0145089
845.223	0.0146470
845.301	0.0145959
845.379	0.0145167
845.457	0.0146523
845.535	0.0147803
845.613	0.0146752
845.692	0.0147997
845.770	0.0148324
845.848	0.0147623
845.926	0.0147551
846.004	0.0147824
846.082	0.0148117
846.160	0.0148149
846.238	0.0149118
846.317	0.0147948
846.395	0.0147545
846.473	0.0148704
846.551	0.0148955
846.629	0.0148151
846.707	0.0146572
846.785	0.0147906
846.863	0.0148850
846.942	0.0147377
847.020	0.0148946
847.098	0.0148536
847.176	0.0148248
847.254	0.0146571
847.332	0.0147278
847.410	0.0147006
847.488	0.0146186
847.567	0.0145287
847.645	0.0145139
847.723	0.0145009
847.801	0.0145044
847.879	0.0145203
847.957	0.0143784
848.035	0.0143852
848.113	0.0144836
848.192	0.0144214
848.270	0.0143736
848.348	0.0143790
848.426	0.0144618
848.504	0.0144253
848.582	0.0143497
848.660	0.0142683
848.738	0.0145268
848.817	0.0145368
848.895	0.0144828
848.973	0.0145112
849.051	0.0143745
849.129	0.0144617
849.207	0.0145014
849.285	0.0145775
849.363	0.0143674
849.442	0.0145157
849.520	0.0145735
849.598	0.0146123
849.676	0.0147794
849.754	0.0147961
849.832	0.0148003
849.910	0.0146948
849.988	0.0147080
850.067	0.0147536
850.145	0.0148248
850.223	0.0148499
850.301	0.0147472
850.379	0.0147568
850.457	0.0148125
850.535	0.0148125
850.613	0.0147497
850.692	0.0148045
850.770	0.0147936
850.848	0.0148077
850.926	0.0147308
851.004	0.0148475
851.082	0.0147468
851.160	0.0147051
851.238	0.0147681
851.317	0.0148186
851.395	0.0146920
851.473	0.0146991
851.551	0.0148221
851.629	0.0147662
851.707	0.0147251
851.785	0.0144718
851.863	0.0145974
851.942	0.0145702
852.020	0.0145593
852.098	0.0145407
852.176	0.0145280
852.254	0.0145007
852.332	0.0144790
852.410	0.0146375
852.488	0.0145595
852.567	0.0145110
852.645	0.0145695
852.723	0.0145606
852.801	0.0145777
852.879	0.0144492
852.957	0.0146309
853.035	0.0144720
853.113	0.0145268
853.192	0.0145881
853.270	0.0145434
853.348	0.0144818
853.426	0.0145318
853.504	0.0144795
853.582	0.0146174
853.660	0.0144720
853.738	0.0144598
853.817	0.0147050
853.895	0.0146856
853.973	0.0148060
854.051	0.0145758
854.129	0.0145163
854.207	0.0148266
854.285	0.0148138
854.363	0.0145990
854.442	0.0145794
854.520	0.0147235
854.598	0.0146723
854.676	0.0147726
854.754	0.0147130
854.832	0.0146478
854.910	0.0146730
854.988	0.0147973
855.067	0.0145259
855.145	0.0147301
855.223	0.0147820
855.301	0.0147588
855.379	0.0146745
855.457	0.0145460
855.535	0.0145825
855.613	0.0146727
855.692	0.0147653
855.770	0.0147394
855.848	0.0146039
855.926	0.0146115
856.004	0.0147543
856.082	0.0146915
856.160	0.0145123
856.238	0.0145427
856.317	0.0145796
856.395	0.0146269
856.473	0.0146732
856.551	0.0144797
856.629	0.0146930
856.707	0.0146179
856.785	0.0144415
856.863	0.0145053
856.942	0.0144833
857.020	0.0143872
857.098	0.0143994
857.176	0.0143731
857.254	0.0145077
857.332	0.0145010
857.410	0.0144936
857.488	0.0145570
857.567	0.0144947
857.645	0.0145184
857.723	0.0144363
857.801	0.0144462
857.879	0.0145797
857.957	0.0146134
858.035	0.0146205
858.113	0.0144901
858.192	0.0146596
858.270	0.0146722
858.348	0.0145244
858.426	0.0144772
858.504	0.0146003
858.582	0.0145152
858.660	0.0147050
858.738	0.0145786
858.817	0.0143945
858.895	0.0144512
858.973	0.0145036
859.051	0.0145797
859.129	0.0144465
859.207	0.0148038
859.285	0.0145667
859.363	0.0146647
859.442	0.0148006
859.520	0.0147659
859.598	0.0147762
859.676	0.0146819
859.754	0.0146248
859.832	0.0148565
859.910	0.0149224
859.988	0.0147709
860.067	0.0147047
860.145	0.0146620
860.223	0.0147168
860.301	0.0147683
860.379	0.0148194
860.457	0.0147466
860.535	0.0146649
860.613	0.0147066
860.692	0.0146023
860.770	0.0147204
860.848	0.0145658
860.926	0.0144611
861.004	0.0145638
861.082	0.0145705
861.160	0.0144150
861.238	0.0143877
861.317	0.0144435
861.395	0.0143353
861.473	0.0142513
861.551	0.0144011
861.629	0.0144997
861.707	0.0143546
861.785	0.0144888
861.863	0.0144372
861.942	0.0144330
862.020	0.0144750
862.098	0.0146041
862.176	0.0145905
862.254	0.0145070
862.332	0.0144757
862.410	0.0146111
862.488	0.0145303
862.567	0.0147216
862.645	0.0145462
862.723	0.0146060
862.801	0.0145886
862.879	0.0146796
862.957	0.0146231
863.035	0.0147332
863.113	0.0147639
863.192	0.0147720
863.270	0.0145007
863.348	0.0146321
863.426	0.0148325
863.504	0.0147881
863.582	0.0146374
863.660	0.0146830
863.738	0.0147234
863.817	0.0146305
863.895	0.0147612
863.973	0.0147106
864.051	0.0147112
864.129	0.0147112
864.207	0.0145723
864.285	0.0145835
864.363	0.0145730
864.442	0.0145901
864.520	0.0145590
864.598	0.0146513
864.676	0.0147594
864.754	0.0145468
864.832	0.0146846
864.910	0.0146115
864.988	0.0146989
865.067	0.0146275
865.145	0.0144758
865.223	0.0144596
865.301	0.0145724
865.379	0.0145510
865.457	0.0144927
865.535	0.0144356
865.613	0.0146001
865.692	0.0146169
865.770	0.0144332
865.848	0.0145489
865.926	0.0144985
866.004	0.0145666
866.082	0.0143950
866.160	0.0145195
866.238	0.0143437
866.317	0.0145009
866.395	0.0146558
866.473	0.0145399
866.551	0.0145771
866.629	0.0145097
866.707	0.0144868
866.785	0.0145282
866.863	0.0145933
866.942	0.0146279
867.020	0.0147115
867.098	0.0146735
867.176	0.0146442
867.254	0.0147765
867.332	0.0145894
867.410	0.0145967
867.488	0.0147726
867.567	0.0147273
867.645	0.0146099
867.723	0.0144764
867.801	0.0146262
867.879	0.0145451
867.957	0.0145495
868.035	0.0146868
868.113	0.0146255
868.192	0.0145831
868.270	0.0145596
868.348	0.0145623
868.426	0.0146643
868.504	0.0147289
868.582	0.0146922
868.660	0.0145026
868.738	0.0145843
868.817	0.0145779
868.895	0.0147235
868.973	0.0146009
869.051	0.0144572
869.129	0.0146070
869.207	0.0147424
869.285	0.0146000
869.363	0.0145183
869.442	0.0145448
869.520	0.0145350
869.598	0.0146330
869.676	0.0146600
869.754	0.0145782
869.832	0.0146571
869.910	0.0145483
869.988	0.0145784
870.067	0.0144944
870.145	0.0145847
870.223	0.0146946
870.301	0.0146868
870.379	0.0145616
870.457	0.0144958
870.535	0.0144794
870.613	0.0145522
870.692	0.0146297
870.770	0.0146191
870.848	0.0144629
870.926	0.0145824
871.004	0.0147270
871.082	0.0147678
871.160	0.0147671
871.238	0.0147769
871.317	0.0147426
871.395	0.0147643
871.473	0.0147889
871.551	0.0146762
871.629	0.0147450
871.707	0.0146539
871.785	0.0147332
871.863	0.0147247
871.942	0.0146887
872.020	0.0145964
872.098	0.0146040
872.176	0.0145381
872.254	0.0144492
872.332	0.0145731
872.410	0.0146268
872.488	0.0145133
872.567	0.0144843
872.645	0.0145083
872.723	0.0145473
872.801	0.0145975
872.879	0.0145262
872.957	0.0146169
873.035	0.0146806
873.113	0.0147273
873.192	0.0145153
873.270	0.0145164
873.348	0.0146285
873.426	0.0147443
873.504	0.0145324
873.582	0.0146152
873.660	0.0144615
873.738	0.0145274
873.817	0.0145103
873.895	0.0144502
873.973	0.0144850
874.051	0.0144618
874.129	0.0144624
874.207	0.0145473
874.285	0.0147049
874.363	0.0146635
874.442	0.0146899
874.520	0.0146592
874.598	0.0146009
874.676	0.0146039
874.754	0.0148759
874.832	0.0149664
874.910	0.0147697
874.988	0.0148804
875.067	0.0148749
875.145	0.0147547
875.223	0.0146070
875.301	0.0146284
875.379	0.0147049
875.457	0.0147278
875.535	0.0146391
875.613	0.0146326
875.692	0.0144987
875.770	0.0143906
875.848	0.0145437
875.926	0.0144893
876.004	0.0145797
876.082	0.0144926
876.160	0.0146661
876.238	0.0144716
876.317	0.0146854
876.395	0.0146205
876.473	0.0146972
876.551	0.0146891
876.629	0.0146497
876.707	0.0145317
876.785	0.0146552
876.863	0.0146292
876.942	0.0146452
877.020	0.0147403
877.098	0.0145245
877.176	0.0143809
877.254	0.0144986
877.332	0.0143778
877.410	0.0143336
877.488	0.0143248
877.567	0.0143797
877.645	0.0143925
877.723	0.0142822
877.801	0.0143764
877.879	0.0144947
877.957	0.0144257
878.035	0.0145499
878.113	0.0145252
878.192	0.0146198
878.270	0.0146425
878.348	0.0148172
878.426	0.0147932
878.504	0.0145799
878.582	0.0146309
878.660	0.0148969
878.738	0.0148622
878.817	0.0147331
878.895	0.0147160
878.973	0.0147818
879.051	0.0148675
879.129	0.0147904
879.207	0.0145827
879.285	0.0146568
879.363	0.0147686
879.442	0.0146961
879.520	0.0146738
879.598	0.0147156
879.676	0.0146754
879.754	0.0146321
879.832	0.0147063
879.910	0.0146359
879.988	0.0146386
880.067	0.0146709
880.145	0.0146672
880.223	0.0146400
880.301	0.0146600
880.379	0.0145525
880.457	0.0145173
880.535	0.0145473
880.613	0.0147993
880.692	0.0145166
880.770	0.0146130
880.848	0.0145602
880.926	0.0145712
881.004	0.0145992
881.082	0.0145924
881.160	0.0146446
881.238	0.0145994
881.317	0.0144772
881.395	0.0145304
881.473	0.0144859
881.551	0.0145291
881.629	0.0145429
881.707	0.0145251
881.785	0.0145428
881.863	0.0145396
881.942	0.0145887
882.020	0.0146139
882.098	0.0145776
882.176	0.0145589
882.254	0.0147825
882.332	0.0146208
882.410	0.0146768
882.488	0.0146988
882.567	0.0146561
882.645	0.0147780
882.723	0.0146674
882.801	0.0145829
882.879	0.0144118
882.957	0.0147124
883.035	0.0145059
883.113	0.0146794
883.192	0.0147410
883.270	0.0148355
883.348	0.0148359
883.426	0.0147266
883.504	0.0147047
883.582	0.0147209
883.660	0.0147952
883.738	0.0146088
883.817	0.0146806
883.895	0.0146202
883.973	0.0147993
884.051	0.0148184
884.129	0.0147308
884.207	0.0146325
884.285	0.0148083
884.363	0.0146298
884.442	0.0147168
884.520	0.0147628
884.598	0.0145868
884.676	0.0145483
884.754	0.0146395
884.832	0.0145554
884.910	0.0145817
884.988	0.0145014
885.067	0.0144875
885.145	0.0142796
885.223	0.0143719
885.301	0.0144254
885.379	0.0145296
885.457	0.0143478
885.535	0.0144731
885.613	0.0145122
885.692	0.0145798
885.770	0.0144931
885.848	0.0144637
885.926	0.0146111
886.004	0.0146679
886.082	0.0145380
886.160	0.0145940
886.238	0.0146001
886.317	0.0147155
886.395	0.0146207
886.473	0.0146436
886.551	0.0145489
886.629	0.0146690
886.707	0.0146940
886.785	0.0146732
886.863	0.0148485
886.942	0.0147678
887.020	0.0147726
887.098	0.0146438
887.176	0.0146861
887.254	0.0147586
887.332	0.0147633
887.410	0.0146759
887.488	0.0149177
887.567	0.0147490
887.645	0.0147103
887.723	0.0147243
887.801	0.0147777
887.879	0.0147060
887.957	0.0147453
888.035	0.0147044
888.113	0.0146995
888.192	0.0145570
888.270	0.0147189
888.348	0.0147066
888.426	0.0146237
888.504	0.0146603
888.582	0.0146020
888.660	0.0146317
888.738	0.0145512
888.817	0.0145293
888.895	0.0143975
888.973	0.0144049
889.051	0.0144676
889.129	0.0144516
889.207	0.0143417
889.285	0.0143462
889.363	0.0144080
889.442	0.0143124
889.520	0.0143745
889.598	0.0144194
889.676	0.0144376
889.754	0.0144826
889.832	0.0144405
889.910	0.0144001
889.988	0.0144937
890.067	0.0146672
890.145	0.0145343
890.223	0.0145745
890.301	0.0146490
890.379	0.0146327
890.457	0.0146570
890.535	0.0147914
890.613	0.0148407
890.692	0.0147728
890.770	0.0147201
890.848	0.0148016
890.926	0.0148025
891.004	0.0147219
891.082	0.0147749
891.160	0.0148239
891.238	0.0147865
891.317	0.0147072
891.395	0.0148305
891.473	0.0148859
891.551	0.0147885
891.629	0.0145609
891.707	0.0147554
891.785	0.0147495
891.863	0.0146322
891.942	0.0145068
892.020	0.0146479
892.098	0.0146821
892.176	0.0145480
892.254	0.0146022
892.332	0.0145271
892.410	0.0146261
892.488	0.0147009
892.567	0.0146148
892.645	0.0145846
892.723	0.0146345
892.801	0.0146378
892.879	0.0144721
892.957	0.0145767
893.035	0.0145913
893.113	0.0146640
893.192	0.0145303
893.270	0.0144190
893.348	0.0145364
893.426	0.0145370
893.504	0.0146243
893.582	0.0145234
893.660	0.0145534
893.738	0.0145092
893.817	0.0145009
893.895	0.0144765
893.973	0.0144434
894.051	0.0144838
894.129	0.0146679
894.207	0.0145978
894.285	0.0146635
894.363	0.0146655
894.442	0.0146184
894.520	0.0148331
894.598	0.0147471
894.676	0.0146867
894.754	0.0146942
894.832	0.0147507
894.910	0.0147427
894.988	0.0146756
895.067	0.0148739
895.145	0.0146467
895.223	0.0148309
895.301	0.0147373
895.379	0.0147755
895.457	0.0148580
895.535	0.0147163
895.613	0.0147752
895.692	0.0147449
895.770	0.0146985
895.848	0.0147373
895.926	0.0148657
896.004	0.0147945
896.082	0.0146166
896.160	0.0146310
896.238	0.0146475
896.317	0.0146996
896.395	0.0146037
896.473	0.0146073
896.551	0.0146338
896.629	0.0146080
896.707	0.0146521
896.785	0.0145142
896.863	0.0145243
896.942	0.0145610
897.020	0.0146201
897.098	0.0145673
897.176	0.0146547
897.254	0.0146300
897.332	0.0145729
897.410	0.0144932
897.488	0.0146052
897.567	0.0146255
897.645	0.0146448
897.723	0.0147446
897.801	0.0145911
897.879	0.0145594
897.957	0.0146744
898.035	0.0145439
898.113	0.0146237
898.192	0.0146083
898.270	0.0145972
898.348	0.0143338
898.426	0.0145293
898.504	0.0144902
898.582	0.0144688
898.660	0.0144987
898.738	0.0144824
898.817	0.0145259
898.895	0.0146521
898.973	0.0145729
899.051	0.0146865
899.129	0.0147883
899.207	0.0147853
899.285	0.0147131
899.363	0.0148205
899.442	0.0147357
899.520	0.0148160
899.598	0.0148173
899.676	0.0149590
899.754	0.0148684
899.832	0.0147390
899.910	0.0147406
899.988	0.0147731
900.067	0.0148720
900.145	0.0147339
900.223	0.0146204
900.301	0.0146134
900.379	0.0146670
900.457	0.0146126
900.535	0.0146687
900.613	0.0146651
900.692	0.0145786
900.770	0.0147132
900.848	0.0145806
900.926	0.0146107
901.004	0.0144986
901.082	0.0145975
901.160	0.0146334
901.238	0.0145463
901.317	0.0145907
901.395	0.0147509
901.473	0.0147257
901.551	0.0146407
901.629	0.0147004
901.707	0.0148481
901.785	0.0146875
901.863	0.0148433
901.942	0.0148875
902.020	0.0146992
902.098	0.0147533
902.176	0.0146753
902.254	0.0147630
902.332	0.0146143
902.410	0.0145586
902.488	0.0145730
902.567	0.0145546
902.645	0.0145013
902.723	0.0144447
902.801	0.0144641
902.879	0.0144637
902.957	0.0144451
903.035	0.0143517
903.113	0.0144717
903.192	0.0145223
903.270	0.0145875
903.348	0.0147368
903.426	0.0145741
903.504	0.0147155
903.582	0.0147077
903.660	0.0147360
903.738	0.0148421
903.817	0.0148049
903.895	0.0148777
903.973	0.0148782
904.051	0.0148497
904.129	0.0148048
904.207	0.0149037
904.285	0.0148199
904.363	0.0147913
904.442	0.0148309
904.520	0.0147964
904.598	0.0148476
904.676	0.0147387
904.754	0.0146926
904.832	0.0147676
904.910	0.0147000
904.988	0.0147878
905.067	0.0147380
905.145	0.0147379
905.223	0.0146948
905.301	0.0146937
905.379	0.0148055
905.457	0.0147636
905.535	0.0147084
905.613	0.0146282
905.692	0.0146324
905.770	0.0145496
905.848	0.0147633
905.926	0.0146229
906.004	0.0147000
906.082	0.0145443
906.160	0.0145854
906.238	0.0146394
906.317	0.0145517
906.395	0.0145900
906.473	0.0145103
906.551	0.0145301
906.629	0.0144752
906.707	0.0143583
906.785	0.0143902
906.863	0.0143666
906.942	0.0144736
907.020	0.0143602
907.098	0.0143908
907.176	0.0143344
907.254	0.0145289
907.332	0.0145044
907.410	0.0145554
907.488	0.0146567
907.567	0.0147151
907.645	0.0145423
907.723	0.0146030
907.801	0.0146702
907.879	0.0147652
907.957	0.0148168
908.035	0.0148598
908.113	0.0147527
908.192	0.0148247
908.270	0.0149085
908.348	0.0146863
908.426	0.0147398
908.504	0.0148654
908.582	0.0146230
908.660	0.0148129
908.738	0.0147149
908.817	0.0147263
908.895	0.0146909
908.973	0.0146830
909.051	0.0147452
909.129	0.0145798
909.207	0.0147445
909.285	0.0147508
909.363	0.0147781
909.442	0.0145314
909.520	0.0146268
909.598	0.0145551
909.676	0.0147519
909.754	0.0145750
909.832	0.0144348
909.910	0.0144805
909.988	0.0145836
910.067	0.0145885
910.145	0.0146392
910.223	0.0144143
910.301	0.0143710
910.379	0.0144939
910.457	0.0145276
910.535	0.0144977
910.613	0.0144431
910.692	0.0143327
910.770	0.0143977
910.848	0.0144695
910.926	0.0144971
911.004	0.0145013
911.082	0.0146593
911.160	0.0145338
911.238	0.0145895
911.317	0.0146751
911.395	0.0148248
911.473	0.0147818
911.551	0.0148390
911.629	0.0147709
911.707	0.0148940
911.785	0.0147673
911.863	0.0147999
911.942	0.0147700
912.020	0.0147516
912.098	0.0148126
912.176	0.0148183
912.254	0.0148200
912.332	0.0146872
912.410	0.0148096
912.488	0.0146430
912.567	0.0146919
912.645	0.0148053
912.723	0.0146673
912.801	0.0147938
912.879	0.0146714
912.957	0.0147181
913.035	0.0145882
913.113	0.0145075
913.192	0.0146746
913.270	0.0146652
913.348	0.0146261
913.426	0.0144728
913.504	0.0143448
913.582	0.0146378
913.660	0.0146132
913.738	0.0146628
913.817	0.0144857
913.895	0.0146239
913.973	0.0146346
914.051	0.0146394
914.129	0.0146047
914.207	0.0147198
914.285	0.0145390
914.363	0.0145153
914.442	0.0144566
914.520	0.0145246
914.598	0.0145790
914.676	0.0145181
914.754	0.0145348
914.832	0.0145486
914.910	0.0145266
914.988	0.0146128
915.067	0.0145551
915.145	0.0146286
915.223	0.0146205
915.301	0.0146713
915.379	0.0148839
915.457	0.0147533
915.535	0.0147681
915.613	0.0149306
915.692	0.0147131
915.770	0.0148104
915.848	0.0147711
915.926	0.0149098
916.004	0.0148953
916.082	0.0148205
916.160	0.0147934
916.238	0.0150558
916.317	0.0149747
916.395	0.0148051
916.473	0.0147556
916.551	0.0148738
916.629	0.0149615
916.707	0.0147946
916.785	0.0147466
916.863	0.0149179
916.942	0.0145569
917.020	0.0147378
917.098	0.0148034
917.176	0.0146399
917.254	0.0145015
917.332	0.0146160
917.410	0.0145512
917.488	0.0144393
917.567	0.0145629
917.645	0.0145373
917.723	0.0144807
917.801	0.0146146
917.879	0.0146496
917.957	0.0146884
918.035	0.0146698
918.113	0.0147238
918.192	0.0145994
918.270	0.0148009
918.348	0.0147318
918.426	0.0147047
918.504	0.0146960
918.582	0.0148119
918.660	0.0147163
918.738	0.0147039
918.817	0.0145882
918.895	0.0147116
918.973	0.0148789
919.051	0.0147047
919.129	0.0146288
919.207	0.0146632
919.285	0.0145461
919.363	0.0146364
919.442	0.0146057
919.520	0.0145552
919.598	0.0145271
919.676	0.0147236
919.754	0.0146470
919.832	0.0147417
919.910	0.0145635
