05/28/2022	13:50:50	Ver.	4.1	UNKNOWN
Optical Delay	599.995081	Delta X		0.078125	Sweeps	1	Scan Rate	0/0
Coordinates	Axis 1	NaN	Axis 2	NaN	Axis 3	NaN	Axis 4	NaN	Axis 5	NaN	Axis 6	0.000000
TX Power	0.000000	RX Power	0.000000

599.995	0.0144350
600.073	0.0143697
600.151	0.0143760
600.229	0.0143272
600.308	0.0143700
600.386	0.0143708
600.464	0.0145753
600.542	0.0144209
600.620	0.0143763
600.698	0.0144804
600.776	0.0145201
600.854	0.0143186
600.933	0.0143999
601.011	0.0143671
601.089	0.0144814
601.167	0.0143746
601.245	0.0144478
601.323	0.0144695
601.401	0.0143912
601.479	0.0143901
601.558	0.0145110
601.636	0.0145696
601.714	0.0143980
601.792	0.0144470
601.870	0.0143724
601.948	0.0143994
602.026	0.0143792
602.104	0.0144742
602.183	0.0145117
602.261	0.0143609
602.339	0.0144843
602.417	0.0144516
602.495	0.0144054
602.573	0.0144285
602.651	0.0145480
602.729	0.0143481
602.808	0.0143513
602.886	0.0143739
602.964	0.0144320
603.042	0.0143928
603.120	0.0144160
603.198	0.0144305
603.276	0.0141493
603.354	0.0142920
603.433	0.0144175
603.511	0.0145158
603.589	0.0144205
603.667	0.0142462
603.745	0.0143974
603.823	0.0145026
603.901	0.0146192
603.979	0.0144549
604.058	0.0144061
604.136	0.0144827
604.214	0.0143687
604.292	0.0144095
604.370	0.0144658
604.448	0.0144418
604.526	0.0144128
604.604	0.0144035
604.683	0.0144173
604.761	0.0144470
604.839	0.0144821
604.917	0.0143503
604.995	0.0144278
605.073	0.0143660
605.151	0.0144148
605.229	0.0144006
605.308	0.0144587
605.386	0.0144170
605.464	0.0142253
605.542	0.0144196
605.620	0.0145393
605.698	0.0144372
605.776	0.0143382
605.854	0.0144304
605.933	0.0144940
606.011	0.0143459
606.089	0.0143843
606.167	0.0144436
606.245	0.0144710
606.323	0.0144524
606.401	0.0143169
606.479	0.0144510
606.558	0.0145979
606.636	0.0144282
606.714	0.0145551
606.792	0.0144179
606.870	0.0143774
606.948	0.0145990
607.026	0.0144968
607.104	0.0143076
607.183	0.0145423
607.261	0.0145447
607.339	0.0144210
607.417	0.0144863
607.495	0.0144109
607.573	0.0141937
607.651	0.0144252
607.729	0.0143528
607.808	0.0146347
607.886	0.0144257
607.964	0.0144173
608.042	0.0144572
608.120	0.0143406
608.198	0.0144054
608.276	0.0143277
608.354	0.0143810
608.433	0.0145325
608.511	0.0144007
608.589	0.0143944
608.667	0.0145414
608.745	0.0143978
608.823	0.0144363
608.901	0.0142927
608.979	0.0143197
609.058	0.0144609
609.136	0.0144392
609.214	0.0144492
609.292	0.0144238
609.370	0.0144342
609.448	0.0143964
609.526	0.0143832
609.604	0.0145033
609.683	0.0144938
609.761	0.0144016
609.839	0.0144017
609.917	0.0142407
609.995	0.0144215
610.073	0.0145772
610.151	0.0144380
610.229	0.0144510
610.308	0.0144320
610.386	0.0143820
610.464	0.0143548
610.542	0.0143496
610.620	0.0143839
610.698	0.0143029
610.776	0.0144024
610.854	0.0144572
610.933	0.0144675
611.011	0.0144233
611.089	0.0143912
611.167	0.0145731
611.245	0.0143835
611.323	0.0143652
611.401	0.0144923
611.479	0.0144119
611.558	0.0144418
611.636	0.0143668
611.714	0.0144935
611.792	0.0144535
611.870	0.0144601
611.948	0.0145913
612.026	0.0144257
612.104	0.0145114
612.183	0.0145039
612.261	0.0144443
612.339	0.0145698
612.417	0.0145705
612.495	0.0144411
612.573	0.0145153
612.651	0.0144722
612.729	0.0143073
612.808	0.0144500
612.886	0.0145165
612.964	0.0144067
613.042	0.0143752
613.120	0.0145258
613.198	0.0144603
613.276	0.0144257
613.354	0.0144539
613.433	0.0143764
613.511	0.0143739
613.589	0.0144161
613.667	0.0143910
613.745	0.0143839
613.823	0.0143890
613.901	0.0145386
613.979	0.0144872
614.058	0.0144250
614.136	0.0144114
614.214	0.0143232
614.292	0.0144909
614.370	0.0145123
614.448	0.0143720
614.526	0.0144728
614.604	0.0143359
614.683	0.0144584
614.761	0.0144303
614.839	0.0143823
614.917	0.0143755
614.995	0.0144030
615.073	0.0143927
615.151	0.0144635
615.229	0.0144411
615.308	0.0145619
615.386	0.0144970
615.464	0.0142597
615.542	0.0144511
615.620	0.0145055
615.698	0.0144763
615.776	0.0144362
615.854	0.0144769
615.933	0.0143468
616.011	0.0144664
616.089	0.0144958
616.167	0.0143844
616.245	0.0143379
616.323	0.0144931
616.401	0.0145396
616.479	0.0143357
616.558	0.0144645
616.636	0.0146008
616.714	0.0142529
616.792	0.0143270
616.870	0.0143790
616.948	0.0142815
617.026	0.0143694
617.104	0.0147128
617.183	0.0143771
617.261	0.0143634
617.339	0.0144498
617.417	0.0144700
617.495	0.0145306
617.573	0.0143900
617.651	0.0144530
617.729	0.0144721
617.808	0.0144196
617.886	0.0144685
617.964	0.0145499
618.042	0.0144908
618.120	0.0144483
618.198	0.0144440
618.276	0.0143764
618.354	0.0144071
618.433	0.0144368
618.511	0.0145630
618.589	0.0143854
618.667	0.0144315
618.745	0.0144509
618.823	0.0144068
618.901	0.0145214
618.979	0.0144227
619.058	0.0144164
619.136	0.0144346
619.214	0.0143679
619.292	0.0144430
619.370	0.0144666
619.448	0.0144550
619.526	0.0144469
619.604	0.0144794
619.683	0.0144529
619.761	0.0144101
619.839	0.0146404
619.917	0.0143436
619.995	0.0144312
620.073	0.0143439
620.151	0.0145284
620.229	0.0145277
620.308	0.0143997
620.386	0.0143216
620.464	0.0144287
620.542	0.0146762
620.620	0.0143732
620.698	0.0142514
620.776	0.0144200
620.854	0.0144794
620.933	0.0144985
621.011	0.0143973
621.089	0.0144365
621.167	0.0143708
621.245	0.0144065
621.323	0.0144558
621.401	0.0143568
621.479	0.0143713
621.558	0.0144149
621.636	0.0144879
621.714	0.0144143
621.792	0.0144252
621.870	0.0143470
621.948	0.0147028
622.026	0.0144494
622.104	0.0144956
622.183	0.0143422
622.261	0.0144359
622.339	0.0144472
622.417	0.0143842
622.495	0.0143298
622.573	0.0144958
622.651	0.0143868
622.729	0.0144090
622.808	0.0145148
622.886	0.0145895
622.964	0.0143913
623.042	0.0144486
623.120	0.0144826
623.198	0.0144493
623.276	0.0144595
623.354	0.0144447
623.433	0.0144989
623.511	0.0144645
623.589	0.0144656
623.667	0.0144580
623.745	0.0144205
623.823	0.0144728
623.901	0.0144714
623.979	0.0144398
624.058	0.0143620
624.136	0.0145026
624.214	0.0144999
624.292	0.0144850
624.370	0.0145099
624.448	0.0145210
624.526	0.0143726
624.604	0.0144299
624.683	0.0145211
624.761	0.0144290
624.839	0.0143850
624.917	0.0144258
624.995	0.0144010
625.073	0.0144249
625.151	0.0143932
625.229	0.0144710
625.308	0.0144831
625.386	0.0142841
625.464	0.0144380
625.542	0.0145073
625.620	0.0144282
625.698	0.0144012
625.776	0.0143679
625.854	0.0144173
625.933	0.0144069
626.011	0.0144848
626.089	0.0144096
626.167	0.0145895
626.245	0.0145325
626.323	0.0145469
626.401	0.0145415
626.479	0.0144112
626.558	0.0144556
626.636	0.0143407
626.714	0.0143208
626.792	0.0144717
626.870	0.0142666
626.948	0.0145078
627.026	0.0144953
627.104	0.0144325
627.183	0.0144158
627.261	0.0144505
627.339	0.0143990
627.417	0.0144056
627.495	0.0143712
627.573	0.0144160
627.651	0.0144456
627.729	0.0144865
627.808	0.0143503
627.886	0.0144326
627.964	0.0145815
628.042	0.0144313
628.120	0.0144741
628.198	0.0144604
628.276	0.0145499
628.354	0.0145000
628.433	0.0143604
628.511	0.0143704
628.589	0.0144780
628.667	0.0145026
628.745	0.0144223
628.823	0.0143017
628.901	0.0143921
628.979	0.0144746
629.058	0.0144523
629.136	0.0145119
629.214	0.0145997
629.292	0.0144156
629.370	0.0144016
629.448	0.0143985
629.526	0.0144914
629.604	0.0143531
629.683	0.0143729
629.761	0.0143040
629.839	0.0144286
629.917	0.0144575
629.995	0.0144669
630.073	0.0144325
630.151	0.0142971
630.229	0.0144054
630.308	0.0144987
630.386	0.0145037
630.464	0.0144631
630.542	0.0145408
630.620	0.0144330
630.698	0.0142339
630.776	0.0143900
630.854	0.0145113
630.933	0.0145065
631.011	0.0144769
631.089	0.0143110
631.167	0.0145213
631.245	0.0144592
631.323	0.0144572
631.401	0.0144488
631.479	0.0143394
631.558	0.0144185
631.636	0.0145486
631.714	0.0144682
631.792	0.0144231
631.870	0.0145666
631.948	0.0145368
632.026	0.0143929
632.104	0.0144054
632.183	0.0144508
632.261	0.0145209
632.339	0.0144782
632.417	0.0144178
632.495	0.0145113
632.573	0.0144003
632.651	0.0143554
632.729	0.0144355
632.808	0.0145417
632.886	0.0143801
632.964	0.0144343
633.042	0.0145058
633.120	0.0144525
633.198	0.0144179
633.276	0.0144031
633.354	0.0144775
633.433	0.0145243
633.511	0.0145111
633.589	0.0144002
633.667	0.0143887
633.745	0.0144555
633.823	0.0143954
633.901	0.0143729
633.979	0.0143640
634.058	0.0143704
634.136	0.0143655
634.214	0.0146426
634.292	0.0145255
634.370	0.0145392
634.448	0.0143546
634.526	0.0142858
634.604	0.0143878
634.683	0.0143431
634.761	0.0143460
634.839	0.0143809
634.917	0.0144788
634.995	0.0145732
635.073	0.0146595
635.151	0.0144865
635.229	0.0144884
635.308	0.0144225
635.386	0.0144077
635.464	0.0145278
635.542	0.0144233
635.620	0.0145094
635.698	0.0144310
635.776	0.0144704
635.854	0.0144575
635.933	0.0144231
636.011	0.0144614
636.089	0.0143793
636.167	0.0143365
636.245	0.0145422
636.323	0.0145770
636.401	0.0145655
636.479	0.0144792
636.558	0.0142847
636.636	0.0145402
636.714	0.0144358
636.792	0.0143328
636.870	0.0143745
636.948	0.0143800
637.026	0.0143362
637.104	0.0144179
637.183	0.0145403
637.261	0.0144699
637.339	0.0143739
637.417	0.0144458
637.495	0.0143509
637.573	0.0144848
637.651	0.0145834
637.729	0.0144703
637.808	0.0144353
637.886	0.0143621
637.964	0.0143874
638.042	0.0143153
638.120	0.0143199
638.198	0.0144534
638.276	0.0143218
638.354	0.0144416
638.433	0.0144115
638.511	0.0143983
638.589	0.0144627
638.667	0.0143904
638.745	0.0143685
638.823	0.0144110
638.901	0.0143740
638.979	0.0143842
639.058	0.0143288
639.136	0.0145844
639.214	0.0144332
639.292	0.0143372
639.370	0.0144602
639.448	0.0145364
639.526	0.0143399
639.604	0.0143606
639.683	0.0144038
639.761	0.0143789
639.839	0.0145150
639.917	0.0143632
639.995	0.0143005
640.073	0.0144315
640.151	0.0143681
640.229	0.0144359
640.308	0.0143720
640.386	0.0144243
640.464	0.0145376
640.542	0.0144337
640.620	0.0142768
640.698	0.0144109
640.776	0.0144422
640.854	0.0145417
640.933	0.0145617
641.011	0.0144160
641.089	0.0142767
641.167	0.0145589
641.245	0.0144146
641.323	0.0144209
641.401	0.0144783
641.479	0.0144299
641.558	0.0143790
641.636	0.0143352
641.714	0.0144028
641.792	0.0145401
641.870	0.0144198
641.948	0.0145079
642.026	0.0143368
642.104	0.0144502
642.183	0.0144121
642.261	0.0144581
642.339	0.0144786
642.417	0.0143926
642.495	0.0144477
642.573	0.0144324
642.651	0.0144122
642.729	0.0143320
642.808	0.0144599
642.886	0.0144991
642.964	0.0143224
643.042	0.0143475
643.120	0.0144283
643.198	0.0143760
643.276	0.0144733
643.354	0.0144433
643.433	0.0143205
643.511	0.0143922
643.589	0.0144514
643.667	0.0143510
643.745	0.0143284
643.823	0.0144229
643.901	0.0145071
643.979	0.0145054
644.058	0.0144831
644.136	0.0143739
644.214	0.0144857
644.292	0.0144951
644.370	0.0144711
644.448	0.0142616
644.526	0.0143073
644.604	0.0144205
644.683	0.0145277
644.761	0.0144314
644.839	0.0144772
644.917	0.0143960
644.995	0.0144266
645.073	0.0145321
645.151	0.0144749
645.229	0.0144649
645.308	0.0143655
645.386	0.0143931
645.464	0.0144978
645.542	0.0145141
645.620	0.0144256
645.698	0.0143865
645.776	0.0144466
645.854	0.0143663
645.933	0.0144852
646.011	0.0145236
646.089	0.0143946
646.167	0.0144398
646.245	0.0145167
646.323	0.0145408
646.401	0.0143680
646.479	0.0144042
646.558	0.0145344
646.636	0.0144743
646.714	0.0142412
646.792	0.0143055
646.870	0.0142984
646.948	0.0144041
647.026	0.0143601
647.104	0.0144546
647.183	0.0145010
647.261	0.0144559
647.339	0.0144625
647.417	0.0144393
647.495	0.0143687
647.573	0.0144134
647.651	0.0143635
647.729	0.0144172
647.808	0.0143945
647.886	0.0145345
647.964	0.0143954
648.042	0.0144072
648.120	0.0143439
648.198	0.0142240
648.276	0.0143353
648.354	0.0144783
648.433	0.0145053
648.511	0.0143267
648.589	0.0145925
648.667	0.0144216
648.745	0.0144042
648.823	0.0144955
648.901	0.0144498
648.979	0.0144321
649.058	0.0145544
649.136	0.0143870
649.214	0.0144802
649.292	0.0144881
649.370	0.0146001
649.448	0.0144581
649.526	0.0143944
649.604	0.0144350
649.683	0.0145330
649.761	0.0142892
649.839	0.0143558
649.917	0.0144276
649.995	0.0143941
650.073	0.0144028
650.151	0.0145352
650.229	0.0143944
650.308	0.0144670
650.386	0.0143716
650.464	0.0144707
650.542	0.0144582
650.620	0.0144109
650.698	0.0142784
650.776	0.0144101
650.854	0.0144479
650.933	0.0145058
651.011	0.0143134
651.089	0.0144001
651.167	0.0144053
651.245	0.0143415
651.323	0.0143287
651.401	0.0144005
651.479	0.0143895
651.558	0.0145409
651.636	0.0145262
651.714	0.0144362
651.792	0.0144072
651.870	0.0144407
651.948	0.0145094
652.026	0.0144852
652.104	0.0145083
652.183	0.0144127
652.261	0.0144879
652.339	0.0144532
652.417	0.0144112
652.495	0.0144375
652.573	0.0144837
652.651	0.0146291
652.729	0.0143704
652.808	0.0144920
652.886	0.0144247
652.964	0.0144528
653.042	0.0144167
653.120	0.0143521
653.198	0.0144945
653.276	0.0144989
653.354	0.0143448
653.433	0.0145000
653.511	0.0145455
653.589	0.0145308
653.667	0.0146307
653.745	0.0144319
653.823	0.0143703
653.901	0.0145101
653.979	0.0144363
654.058	0.0145339
654.136	0.0144697
654.214	0.0144116
654.292	0.0143867
654.370	0.0143258
654.448	0.0143781
654.526	0.0145017
654.604	0.0144534
654.683	0.0144866
654.761	0.0144920
654.839	0.0144740
654.917	0.0144708
654.995	0.0144623
655.073	0.0144231
655.151	0.0145412
655.229	0.0144264
655.308	0.0142922
655.386	0.0144565
655.464	0.0144756
655.542	0.0145573
655.620	0.0144077
655.698	0.0144184
655.776	0.0144804
655.854	0.0145267
655.933	0.0143639
656.011	0.0143784
656.089	0.0145440
656.167	0.0144351
656.245	0.0146091
656.323	0.0142487
656.401	0.0143691
656.479	0.0145290
656.558	0.0144433
656.636	0.0144323
656.714	0.0145325
656.792	0.0144527
656.870	0.0145152
656.948	0.0145367
657.026	0.0145141
657.104	0.0144335
657.183	0.0145184
657.261	0.0144733
657.339	0.0144749
657.417	0.0144465
657.495	0.0144303
657.573	0.0144103
657.651	0.0143929
657.729	0.0143900
657.808	0.0143767
657.886	0.0144109
657.964	0.0144276
658.042	0.0145896
658.120	0.0144603
658.198	0.0144135
658.276	0.0144479
658.354	0.0144258
658.433	0.0144395
658.511	0.0144125
658.589	0.0144311
658.667	0.0142983
658.745	0.0144637
658.823	0.0144845
658.901	0.0144064
658.979	0.0143386
659.058	0.0143246
659.136	0.0144235
659.214	0.0144410
659.292	0.0143839
659.370	0.0145954
659.448	0.0145512
659.526	0.0143250
659.604	0.0143536
659.683	0.0144244
659.761	0.0145237
659.839	0.0143728
659.917	0.0144124
659.995	0.0143413
660.073	0.0144431
660.151	0.0145495
660.229	0.0144852
660.308	0.0144083
660.386	0.0143710
660.464	0.0144389
660.542	0.0145829
660.620	0.0143321
660.698	0.0144860
660.776	0.0145267
660.854	0.0144864
660.933	0.0144511
661.011	0.0144650
661.089	0.0145003
661.167	0.0145654
661.245	0.0143833
661.323	0.0145193
661.401	0.0144292
661.479	0.0146066
661.558	0.0144310
661.636	0.0144273
661.714	0.0144162
661.792	0.0143544
661.870	0.0143188
661.948	0.0143572
662.026	0.0144186
662.104	0.0145685
662.183	0.0143906
662.261	0.0144452
662.339	0.0144312
662.417	0.0144552
662.495	0.0145744
662.573	0.0142895
662.651	0.0144089
662.729	0.0143980
662.808	0.0144028
662.886	0.0145753
662.964	0.0144901
663.042	0.0144923
663.120	0.0144862
663.198	0.0143960
663.276	0.0144988
663.354	0.0143743
663.433	0.0144435
663.511	0.0145600
663.589	0.0144369
663.667	0.0144456
663.745	0.0145645
663.823	0.0144787
663.901	0.0144267
663.979	0.0143805
664.058	0.0144057
664.136	0.0146095
664.214	0.0143314
664.292	0.0144150
664.370	0.0144174
664.448	0.0143711
664.526	0.0144618
664.604	0.0144881
664.683	0.0143813
664.761	0.0144682
664.839	0.0143578
664.917	0.0144445
664.995	0.0144702
665.073	0.0144338
665.151	0.0145255
665.229	0.0144347
665.308	0.0144159
665.386	0.0144060
665.464	0.0145256
665.542	0.0146200
665.620	0.0144814
665.698	0.0144414
665.776	0.0143571
665.854	0.0144832
665.933	0.0143377
666.011	0.0144865
666.089	0.0145708
666.167	0.0144328
666.245	0.0145052
666.323	0.0144559
666.401	0.0145052
666.479	0.0145156
666.558	0.0146207
666.636	0.0145011
666.714	0.0144247
666.792	0.0143747
666.870	0.0144777
666.948	0.0144706
667.026	0.0145218
667.104	0.0145852
667.183	0.0144651
667.261	0.0144711
667.339	0.0144488
667.417	0.0144386
667.495	0.0143803
667.573	0.0144257
667.651	0.0145068
667.729	0.0144173
667.808	0.0143626
667.886	0.0145281
667.964	0.0144006
668.042	0.0144640
668.120	0.0144727
668.198	0.0144405
668.276	0.0144067
668.354	0.0145291
668.433	0.0143979
668.511	0.0143848
668.589	0.0144691
668.667	0.0144765
668.745	0.0144231
668.823	0.0143681
668.901	0.0145332
668.979	0.0143392
669.058	0.0144698
669.136	0.0144392
669.214	0.0144714
669.292	0.0144468
669.370	0.0143994
669.448	0.0144744
669.526	0.0145196
669.604	0.0145353
669.683	0.0144472
669.761	0.0145117
669.839	0.0144220
669.917	0.0145986
669.995	0.0145970
670.073	0.0144418
670.151	0.0145056
670.229	0.0144252
670.308	0.0143733
670.386	0.0144949
670.464	0.0144904
670.542	0.0143948
670.620	0.0144579
670.698	0.0143384
670.776	0.0143872
670.854	0.0144736
670.933	0.0144993
671.011	0.0144055
671.089	0.0144391
671.167	0.0145605
671.245	0.0145364
671.323	0.0145189
671.401	0.0144981
671.479	0.0144614
671.558	0.0143516
671.636	0.0145008
671.714	0.0143936
671.792	0.0145341
671.870	0.0145052
671.948	0.0143884
672.026	0.0143238
672.104	0.0143222
672.183	0.0144328
672.261	0.0144782
672.339	0.0142713
672.417	0.0145922
672.495	0.0145658
672.573	0.0142626
672.651	0.0144887
672.729	0.0145319
672.808	0.0144157
672.886	0.0144971
672.964	0.0144163
673.042	0.0144324
673.120	0.0146136
673.198	0.0144529
673.276	0.0144042
673.354	0.0144345
673.433	0.0144258
673.511	0.0144377
673.589	0.0144513
673.667	0.0145099
673.745	0.0147030
673.823	0.0143732
673.901	0.0145187
673.979	0.0145365
674.058	0.0145794
674.136	0.0143083
674.214	0.0144668
674.292	0.0145025
674.370	0.0144144
674.448	0.0144593
674.526	0.0144794
674.604	0.0145045
674.683	0.0145506
674.761	0.0144507
674.839	0.0143250
674.917	0.0143985
674.995	0.0145196
675.073	0.0145477
675.151	0.0143947
675.229	0.0145210
675.308	0.0143919
675.386	0.0143993
675.464	0.0144886
675.542	0.0144271
675.620	0.0143595
675.698	0.0145590
675.776	0.0145300
675.854	0.0145010
675.933	0.0144054
676.011	0.0146047
676.089	0.0144820
676.167	0.0143609
676.245	0.0144422
676.323	0.0144860
676.401	0.0144058
676.479	0.0144071
676.558	0.0144646
676.636	0.0145228
676.714	0.0144500
676.792	0.0144966
676.870	0.0144593
676.948	0.0145631
677.026	0.0144727
677.104	0.0144196
677.183	0.0145011
677.261	0.0145488
677.339	0.0144325
677.417	0.0144820
677.495	0.0143391
677.573	0.0144935
677.651	0.0144125
677.729	0.0143317
677.808	0.0144793
677.886	0.0144389
677.964	0.0145549
678.042	0.0144098
678.120	0.0143936
678.198	0.0143458
678.276	0.0144420
678.354	0.0143924
678.433	0.0143596
678.511	0.0143461
678.589	0.0144579
678.667	0.0144106
678.745	0.0143105
678.823	0.0143753
678.901	0.0141748
678.979	0.0143041
679.058	0.0144927
679.136	0.0142757
679.214	0.0142610
679.292	0.0143576
679.370	0.0144149
679.448	0.0143588
679.526	0.0143007
679.604	0.0143063
679.683	0.0142587
679.761	0.0141797
679.839	0.0142598
679.917	0.0143307
679.995	0.0144427
680.073	0.0145469
680.151	0.0143597
680.229	0.0142693
680.308	0.0144487
680.386	0.0143590
680.464	0.0144253
680.542	0.0143800
680.620	0.0143102
680.698	0.0143215
680.776	0.0143153
680.854	0.0143908
680.933	0.0143867
681.011	0.0144433
681.089	0.0143884
681.167	0.0143222
681.245	0.0142996
681.323	0.0144788
681.401	0.0145114
681.479	0.0143827
681.558	0.0144781
681.636	0.0143878
681.714	0.0144208
681.792	0.0144450
681.870	0.0144798
681.948	0.0144657
682.026	0.0143363
682.104	0.0143333
682.183	0.0143382
682.261	0.0144638
682.339	0.0142927
682.417	0.0144200
682.495	0.0144678
682.573	0.0144344
682.651	0.0144910
682.729	0.0144128
682.808	0.0142763
682.886	0.0143453
682.964	0.0142786
683.042	0.0143452
683.120	0.0144042
683.198	0.0143652
683.276	0.0145557
683.354	0.0144685
683.433	0.0143224
683.511	0.0142604
683.589	0.0145729
683.667	0.0144298
683.745	0.0143690
683.823	0.0144330
683.901	0.0143121
683.979	0.0145317
684.058	0.0144736
684.136	0.0145388
684.214	0.0145685
684.292	0.0145139
684.370	0.0144003
684.448	0.0144819
684.526	0.0145906
684.604	0.0144508
684.683	0.0145154
684.761	0.0145039
684.839	0.0146141
684.917	0.0144473
684.995	0.0144292
685.073	0.0144543
685.151	0.0146711
685.229	0.0144671
685.308	0.0144529
685.386	0.0145583
685.464	0.0146261
685.542	0.0145244
685.620	0.0146570
685.698	0.0145055
685.776	0.0144960
685.854	0.0145244
685.933	0.0145479
686.011	0.0143260
686.089	0.0144379
686.167	0.0145318
686.245	0.0144966
686.323	0.0145055
686.401	0.0144494
686.479	0.0145004
686.558	0.0144640
686.636	0.0145423
686.714	0.0144650
686.792	0.0145466
686.870	0.0145655
686.948	0.0145850
687.026	0.0144579
687.104	0.0143262
687.183	0.0145166
687.261	0.0144888
687.339	0.0144318
687.417	0.0145084
687.495	0.0144894
687.573	0.0144294
687.651	0.0144556
687.729	0.0145457
687.808	0.0144989
687.886	0.0145220
687.964	0.0144471
688.042	0.0144089
688.120	0.0145772
688.198	0.0144975
688.276	0.0145669
688.354	0.0145284
688.433	0.0144620
688.511	0.0145018
688.589	0.0145818
688.667	0.0145303
688.745	0.0143730
688.823	0.0144347
688.901	0.0144872
688.979	0.0145424
689.058	0.0144618
689.136	0.0144399
689.214	0.0145039
689.292	0.0144115
689.370	0.0144463
689.448	0.0144815
689.526	0.0143997
689.604	0.0143649
689.683	0.0142460
689.761	0.0142359
689.839	0.0143246
689.917	0.0143921
689.995	0.0144582
690.073	0.0142434
690.151	0.0143206
690.229	0.0143382
690.308	0.0142969
690.386	0.0143043
690.464	0.0144250
690.542	0.0144451
690.620	0.0144366
690.698	0.0143616
690.776	0.0142007
690.854	0.0143935
690.933	0.0142892
691.011	0.0143059
691.089	0.0143803
691.167	0.0143187
691.245	0.0142992
691.323	0.0144263
691.401	0.0143566
691.479	0.0143410
691.558	0.0142741
691.636	0.0143882
691.714	0.0142506
691.792	0.0143195
691.870	0.0143042
691.948	0.0143546
692.026	0.0143099
692.104	0.0142767
692.183	0.0144207
692.261	0.0143740
692.339	0.0142665
692.417	0.0142905
692.495	0.0144509
692.573	0.0144506
692.651	0.0142914
692.729	0.0142986
692.808	0.0144462
692.886	0.0143303
692.964	0.0143703
693.042	0.0143557
693.120	0.0143154
693.198	0.0143496
693.276	0.0145017
693.354	0.0143721
693.433	0.0144505
693.511	0.0144662
693.589	0.0144430
693.667	0.0145885
693.745	0.0144946
693.823	0.0144360
693.901	0.0143641
693.979	0.0142657
694.058	0.0144287
694.136	0.0143996
694.214	0.0143966
694.292	0.0145958
694.370	0.0145480
694.448	0.0143410
694.526	0.0144073
694.604	0.0145144
694.683	0.0144350
694.761	0.0145615
694.839	0.0145133
694.917	0.0144869
694.995	0.0145132
695.073	0.0144217
695.151	0.0144659
695.229	0.0144792
695.308	0.0143994
695.386	0.0143456
695.464	0.0144670
695.542	0.0145071
695.620	0.0144333
695.698	0.0144634
695.776	0.0144341
695.854	0.0143836
695.933	0.0145414
696.011	0.0145288
696.089	0.0144992
696.167	0.0144693
696.245	0.0144078
696.323	0.0143900
696.401	0.0145725
696.479	0.0145343
696.558	0.0145128
696.636	0.0143505
696.714	0.0143949
696.792	0.0145160
696.870	0.0144231
696.948	0.0146055
697.026	0.0145429
697.104	0.0145570
697.183	0.0145293
697.261	0.0145615
697.339	0.0144173
697.417	0.0145385
697.495	0.0144743
697.573	0.0144373
697.651	0.0143932
697.729	0.0142338
697.808	0.0141570
697.886	0.0141667
697.964	0.0141959
698.042	0.0142355
698.120	0.0144740
698.198	0.0143669
698.276	0.0143378
698.354	0.0143976
698.433	0.0143345
698.511	0.0144562
698.589	0.0146383
698.667	0.0148087
698.745	0.0146394
698.823	0.0146130
698.901	0.0146740
698.979	0.0145018
699.058	0.0147029
699.136	0.0146506
699.214	0.0145970
699.292	0.0145641
699.370	0.0145107
699.448	0.0143840
699.526	0.0144038
699.604	0.0144228
699.683	0.0144559
699.761	0.0144261
699.839	0.0143713
699.917	0.0143510
699.995	0.0142854
700.073	0.0142425
700.151	0.0143548
700.229	0.0143533
700.308	0.0143404
700.386	0.0142997
700.464	0.0143352
700.542	0.0143130
700.620	0.0142750
700.698	0.0144225
700.776	0.0142834
700.854	0.0143143
700.933	0.0143614
701.011	0.0144102
701.089	0.0144709
701.167	0.0144677
701.245	0.0142657
701.323	0.0144114
701.401	0.0145742
701.479	0.0145502
701.558	0.0145971
701.636	0.0145405
701.714	0.0145346
701.792	0.0145650
701.870	0.0145423
701.948	0.0145641
702.026	0.0144394
702.104	0.0144412
702.183	0.0145943
702.261	0.0145638
702.339	0.0144502
702.417	0.0144508
702.495	0.0143880
702.573	0.0143212
702.651	0.0143771
702.729	0.0142660
702.808	0.0141872
702.886	0.0140785
702.964	0.0142506
703.042	0.0142836
703.120	0.0141907
703.198	0.0142371
703.276	0.0142903
703.354	0.0142317
703.433	0.0143333
703.511	0.0144522
703.589	0.0142499
703.667	0.0143280
703.745	0.0144370
703.823	0.0142826
703.901	0.0143781
703.979	0.0145198
704.058	0.0145100
704.136	0.0143616
704.214	0.0146229
704.292	0.0144211
704.370	0.0145380
704.448	0.0145096
704.526	0.0143503
704.604	0.0144429
704.683	0.0143670
704.761	0.0143424
704.839	0.0143857
704.917	0.0144250
704.995	0.0144953
705.073	0.0145846
705.151	0.0145707
705.229	0.0144973
705.308	0.0144018
705.386	0.0144293
705.464	0.0144859
705.542	0.0144714
705.620	0.0145986
705.698	0.0145126
705.776	0.0144606
705.854	0.0145096
705.933	0.0144196
706.011	0.0145205
706.089	0.0143532
706.167	0.0143689
706.245	0.0142591
706.323	0.0145099
706.401	0.0144234
706.479	0.0143227
706.558	0.0145605
706.636	0.0143829
706.714	0.0145308
706.792	0.0144805
706.870	0.0145566
706.948	0.0147234
707.026	0.0145742
707.104	0.0146952
707.183	0.0148064
707.261	0.0146071
707.339	0.0145393
707.417	0.0145448
707.495	0.0146444
707.573	0.0144978
707.651	0.0145132
707.729	0.0143744
707.808	0.0145436
707.886	0.0143433
707.964	0.0143694
708.042	0.0144451
708.120	0.0142786
708.198	0.0141542
708.276	0.0141062
708.354	0.0140989
708.433	0.0140609
708.511	0.0142400
708.589	0.0141057
708.667	0.0141924
708.745	0.0141279
708.823	0.0141653
708.901	0.0141734
708.979	0.0141719
709.058	0.0142361
709.136	0.0143817
709.214	0.0142622
709.292	0.0142915
709.370	0.0143822
709.448	0.0143829
709.526	0.0145319
709.604	0.0145926
709.683	0.0144667
709.761	0.0144521
709.839	0.0145018
709.917	0.0145552
709.995	0.0146334
710.073	0.0145140
710.151	0.0146106
710.229	0.0145791
710.308	0.0146734
710.386	0.0146464
710.464	0.0145253
710.542	0.0145295
710.620	0.0145364
710.698	0.0146928
710.776	0.0146728
710.854	0.0146290
710.933	0.0147665
711.011	0.0146616
711.089	0.0146043
711.167	0.0146753
711.245	0.0145901
711.323	0.0146673
711.401	0.0145914
711.479	0.0145224
711.558	0.0144594
711.636	0.0144668
711.714	0.0145465
711.792	0.0145381
711.870	0.0144100
711.948	0.0145033
712.026	0.0143777
712.104	0.0143883
712.183	0.0142886
712.261	0.0142940
712.339	0.0142802
712.417	0.0144169
712.495	0.0143602
712.573	0.0143330
712.651	0.0143307
712.729	0.0145121
712.808	0.0146137
712.886	0.0145187
712.964	0.0144144
713.042	0.0146432
713.120	0.0146368
713.198	0.0145854
713.276	0.0144913
713.354	0.0144364
713.433	0.0145751
713.511	0.0145268
713.589	0.0144879
713.667	0.0145605
713.745	0.0145467
713.823	0.0145835
713.901	0.0144758
713.979	0.0145448
714.058	0.0145192
714.136	0.0144064
714.214	0.0143203
714.292	0.0143134
714.370	0.0144084
714.448	0.0142429
714.526	0.0142760
714.604	0.0143375
714.683	0.0143997
714.761	0.0141843
714.839	0.0142858
714.917	0.0142723
714.995	0.0144081
715.073	0.0143027
715.151	0.0143874
715.229	0.0143230
715.308	0.0143801
715.386	0.0145078
715.464	0.0144689
715.542	0.0144377
715.620	0.0144868
715.698	0.0145819
715.776	0.0145674
715.854	0.0144685
715.933	0.0145317
716.011	0.0145029
716.089	0.0144981
716.167	0.0145335
716.245	0.0145261
716.323	0.0145977
716.401	0.0145077
716.479	0.0144585
716.558	0.0143858
716.636	0.0143879
716.714	0.0145124
716.792	0.0143885
716.870	0.0144014
716.948	0.0144344
717.026	0.0143224
717.104	0.0142602
717.183	0.0143578
717.261	0.0143660
717.339	0.0143720
717.417	0.0142386
717.495	0.0143687
717.573	0.0143625
717.651	0.0143165
717.729	0.0142664
717.808	0.0143800
717.886	0.0144192
717.964	0.0143154
718.042	0.0143600
718.120	0.0142896
718.198	0.0142838
718.276	0.0144115
718.354	0.0143564
718.433	0.0143638
718.511	0.0144189
718.589	0.0144831
718.667	0.0143440
718.745	0.0143831
718.823	0.0144764
718.901	0.0144519
718.979	0.0143932
719.058	0.0145544
719.136	0.0145432
719.214	0.0144736
719.292	0.0144830
719.370	0.0144246
719.448	0.0144987
719.526	0.0145622
719.604	0.0144276
719.683	0.0145910
719.761	0.0146356
719.839	0.0145671
719.917	0.0145231
719.995	0.0145947
720.073	0.0145509
720.151	0.0144734
720.229	0.0146354
720.308	0.0144912
720.386	0.0144662
720.464	0.0145603
720.542	0.0146204
720.620	0.0144423
720.698	0.0144340
720.776	0.0146437
720.854	0.0144978
720.933	0.0145573
721.011	0.0145566
721.089	0.0144481
721.167	0.0143824
721.245	0.0146296
721.323	0.0145987
721.401	0.0145114
721.479	0.0144124
721.558	0.0144228
721.636	0.0146381
721.714	0.0144319
721.792	0.0144652
721.870	0.0143456
721.948	0.0144334
722.026	0.0144566
722.104	0.0143765
722.183	0.0144471
722.261	0.0142950
722.339	0.0143725
722.417	0.0142568
722.495	0.0143934
722.573	0.0144064
722.651	0.0143137
722.729	0.0143790
722.808	0.0144506
722.886	0.0144440
722.964	0.0143452
723.042	0.0144222
723.120	0.0144092
723.198	0.0144115
723.276	0.0144296
723.354	0.0143251
723.433	0.0143606
723.511	0.0144325
723.589	0.0142731
723.667	0.0143666
723.745	0.0144357
723.823	0.0144638
723.901	0.0143459
723.979	0.0143900
724.058	0.0143701
724.136	0.0143295
724.214	0.0144521
724.292	0.0144005
724.370	0.0145459
724.448	0.0144463
724.526	0.0145030
724.604	0.0145098
724.683	0.0144844
724.761	0.0145145
724.839	0.0146598
724.917	0.0146900
724.995	0.0145992
725.073	0.0146011
725.151	0.0146207
725.229	0.0146104
725.308	0.0144901
725.386	0.0145844
725.464	0.0146680
725.542	0.0145999
725.620	0.0145099
725.698	0.0145176
725.776	0.0145221
725.854	0.0145728
725.933	0.0145011
726.011	0.0143839
726.089	0.0145248
726.167	0.0144713
726.245	0.0142641
726.323	0.0143253
726.401	0.0144123
726.479	0.0142641
726.558	0.0143127
726.636	0.0142252
726.714	0.0141562
726.792	0.0142251
726.870	0.0144038
726.948	0.0143307
727.026	0.0142512
727.104	0.0142616
727.183	0.0143724
727.261	0.0142812
727.339	0.0143609
727.417	0.0144479
727.495	0.0144270
727.573	0.0143918
727.651	0.0144032
727.729	0.0145450
727.808	0.0145296
727.886	0.0145246
727.964	0.0145782
728.042	0.0145113
728.120	0.0143069
728.198	0.0144215
728.276	0.0145342
728.354	0.0145661
728.433	0.0145520
728.511	0.0145094
728.589	0.0145042
728.667	0.0143181
728.745	0.0145654
728.823	0.0145590
728.901	0.0145430
728.979	0.0145274
729.058	0.0143429
729.136	0.0143265
729.214	0.0145281
729.292	0.0144056
729.370	0.0145129
729.448	0.0146396
729.526	0.0144396
729.604	0.0145631
729.683	0.0144450
729.761	0.0146638
729.839	0.0144819
729.917	0.0145697
729.995	0.0145439
730.073	0.0144467
730.151	0.0143452
730.229	0.0144662
730.308	0.0144294
730.386	0.0143951
730.464	0.0143593
730.542	0.0143686
730.620	0.0141879
730.698	0.0142583
730.776	0.0143600
730.854	0.0142404
730.933	0.0142853
731.011	0.0142716
731.089	0.0142622
731.167	0.0144576
731.245	0.0144876
731.323	0.0145467
731.401	0.0142738
731.479	0.0144250
731.558	0.0143823
731.636	0.0143384
731.714	0.0142170
731.792	0.0144227
731.870	0.0144228
731.948	0.0144105
732.026	0.0142998
732.104	0.0143219
732.183	0.0143587
732.261	0.0143699
732.339	0.0143984
732.417	0.0142923
732.495	0.0143353
732.573	0.0142937
732.651	0.0142482
732.729	0.0142234
732.808	0.0144284
732.886	0.0142263
732.964	0.0143290
733.042	0.0143296
733.120	0.0143674
733.198	0.0142980
733.276	0.0145217
733.354	0.0144040
733.433	0.0144831
733.511	0.0145280
733.589	0.0146375
733.667	0.0144511
733.745	0.0145036
733.823	0.0145896
733.901	0.0146702
733.979	0.0145622
734.058	0.0147084
734.136	0.0145659
734.214	0.0144946
734.292	0.0145737
734.370	0.0145954
734.448	0.0144794
734.526	0.0144395
734.604	0.0144846
734.683	0.0145811
734.761	0.0143536
734.839	0.0144560
734.917	0.0144497
734.995	0.0144435
735.073	0.0144485
735.151	0.0145773
735.229	0.0145499
735.308	0.0146556
735.386	0.0145762
735.464	0.0144969
735.542	0.0145589
735.620	0.0144845
735.698	0.0144524
735.776	0.0145168
735.854	0.0144501
735.933	0.0145100
736.011	0.0145205
736.089	0.0145161
736.167	0.0145913
736.245	0.0145381
736.323	0.0143858
736.401	0.0144430
736.479	0.0143957
736.558	0.0144559
736.636	0.0144554
736.714	0.0143694
736.792	0.0144227
736.870	0.0144083
736.948	0.0144446
737.026	0.0143251
737.104	0.0143565
737.183	0.0143780
737.261	0.0143666
737.339	0.0143880
737.417	0.0143671
737.495	0.0144636
737.573	0.0144954
737.651	0.0145637
737.729	0.0144566
737.808	0.0144673
737.886	0.0144987
737.964	0.0146625
738.042	0.0143578
738.120	0.0145602
738.198	0.0144925
738.276	0.0145464
738.354	0.0147147
738.433	0.0146897
738.511	0.0146261
738.589	0.0145500
738.667	0.0145492
738.745	0.0145581
738.823	0.0145010
738.901	0.0144286
738.979	0.0143781
739.058	0.0145150
739.136	0.0144994
739.214	0.0144338
739.292	0.0142865
739.370	0.0143068
739.448	0.0143894
739.526	0.0144608
739.604	0.0144380
739.683	0.0143009
739.761	0.0145048
739.839	0.0144065
739.917	0.0144184
739.995	0.0144639
740.073	0.0144208
740.151	0.0145784
740.229	0.0144948
740.308	0.0145113
740.386	0.0145880
740.464	0.0144949
740.542	0.0145067
740.620	0.0144422
740.698	0.0144044
740.776	0.0144150
740.854	0.0144351
740.933	0.0144338
741.011	0.0144680
741.089	0.0144432
741.167	0.0143643
741.245	0.0144700
741.323	0.0143195
741.401	0.0142793
741.479	0.0142446
741.558	0.0142096
741.636	0.0142692
741.714	0.0143420
741.792	0.0143720
741.870	0.0142866
741.948	0.0143941
742.026	0.0141927
742.104	0.0143266
742.183	0.0143273
742.261	0.0145603
742.339	0.0143810
742.417	0.0144952
742.495	0.0145337
742.573	0.0144014
742.651	0.0143902
742.729	0.0144501
742.808	0.0145038
742.886	0.0144507
742.964	0.0145200
743.042	0.0145347
743.120	0.0144786
743.198	0.0145483
743.276	0.0145326
743.354	0.0145846
743.433	0.0145663
743.511	0.0145108
743.589	0.0145243
743.667	0.0145103
743.745	0.0144937
743.823	0.0145663
743.901	0.0144662
743.979	0.0144524
744.058	0.0145963
744.136	0.0145218
744.214	0.0143808
744.292	0.0145018
744.370	0.0144132
744.448	0.0144794
744.526	0.0143525
744.604	0.0143549
744.683	0.0143308
744.761	0.0143776
744.839	0.0143752
744.917	0.0142328
744.995	0.0144215
745.073	0.0144520
745.151	0.0143993
745.229	0.0144073
745.308	0.0145199
745.386	0.0144080
745.464	0.0145932
745.542	0.0144941
745.620	0.0144508
745.698	0.0145449
745.776	0.0144608
745.854	0.0145129
745.933	0.0144972
746.011	0.0145963
746.089	0.0145667
746.167	0.0144653
746.245	0.0144682
746.323	0.0144392
746.401	0.0143953
746.479	0.0144080
746.558	0.0144825
746.636	0.0143745
746.714	0.0143759
746.792	0.0144618
746.870	0.0144489
746.948	0.0142397
747.026	0.0143772
747.104	0.0142750
747.183	0.0143890
747.261	0.0144908
747.339	0.0143829
747.417	0.0145625
747.495	0.0145183
747.573	0.0145673
747.651	0.0144852
747.729	0.0143423
747.808	0.0145285
747.886	0.0143197
747.964	0.0144498
748.042	0.0145860
748.120	0.0144775
748.198	0.0145221
748.276	0.0144916
748.354	0.0145100
748.433	0.0144521
748.511	0.0144121
748.589	0.0144973
748.667	0.0143714
748.745	0.0143995
748.823	0.0143611
748.901	0.0144862
748.979	0.0143275
749.058	0.0144920
749.136	0.0142758
749.214	0.0143642
749.292	0.0144364
749.370	0.0144324
749.448	0.0144202
749.526	0.0144196
749.604	0.0144825
749.683	0.0144929
749.761	0.0142867
749.839	0.0145523
749.917	0.0143124
749.995	0.0143412
750.073	0.0143513
750.151	0.0144574
750.229	0.0144954
750.308	0.0143911
750.386	0.0144505
750.464	0.0144025
750.542	0.0144932
750.620	0.0144803
750.698	0.0143715
750.776	0.0145119
750.854	0.0144981
750.933	0.0143871
751.011	0.0144576
751.089	0.0144412
751.167	0.0143907
751.245	0.0144688
751.323	0.0144905
751.401	0.0145614
751.479	0.0143106
751.558	0.0144604
751.636	0.0143850
751.714	0.0143613
751.792	0.0144518
751.870	0.0144204
751.948	0.0146429
752.026	0.0144085
752.104	0.0144373
752.183	0.0145270
752.261	0.0143312
752.339	0.0144618
752.417	0.0144358
752.495	0.0143851
752.573	0.0144113
752.651	0.0144378
752.729	0.0143121
752.808	0.0144508
752.886	0.0144084
752.964	0.0142268
753.042	0.0143625
753.120	0.0144194
753.198	0.0145128
753.276	0.0143353
753.354	0.0143626
753.433	0.0143845
753.511	0.0144485
753.589	0.0144031
753.667	0.0144686
753.745	0.0144227
753.823	0.0144283
753.901	0.0143328
753.979	0.0143995
754.058	0.0144326
754.136	0.0142613
754.214	0.0143231
754.292	0.0144054
754.370	0.0144149
754.448	0.0144119
754.526	0.0143959
754.604	0.0143246
754.683	0.0142880
754.761	0.0143925
754.839	0.0144827
754.917	0.0145792
754.995	0.0144016
755.073	0.0144353
755.151	0.0144047
755.229	0.0144543
755.308	0.0144984
755.386	0.0145693
755.464	0.0144221
755.542	0.0145319
755.620	0.0145104
755.698	0.0144436
755.776	0.0144615
755.854	0.0144501
755.933	0.0144675
756.011	0.0143073
756.089	0.0145237
756.167	0.0144189
756.245	0.0143986
756.323	0.0143818
756.401	0.0144327
756.479	0.0142703
756.558	0.0143295
756.636	0.0143943
756.714	0.0143710
756.792	0.0142873
756.870	0.0143687
756.948	0.0143194
757.026	0.0142702
757.104	0.0144449
757.183	0.0143955
757.261	0.0143553
757.339	0.0143663
757.417	0.0143058
757.495	0.0144239
757.573	0.0145006
757.651	0.0144971
757.729	0.0143487
757.808	0.0143974
757.886	0.0145609
757.964	0.0144470
758.042	0.0144499
758.120	0.0145345
758.198	0.0143417
758.276	0.0144930
758.354	0.0145234
758.433	0.0145129
758.511	0.0145341
758.589	0.0142702
758.667	0.0144684
758.745	0.0145251
758.823	0.0146035
758.901	0.0144315
758.979	0.0145081
759.058	0.0144752
759.136	0.0145232
759.214	0.0144769
759.292	0.0143346
759.370	0.0142664
759.448	0.0143558
759.526	0.0144124
759.604	0.0143549
759.683	0.0145140
759.761	0.0144426
759.839	0.0144412
759.917	0.0143042
759.995	0.0144438
760.073	0.0145000
760.151	0.0145515
760.229	0.0144806
760.308	0.0145132
760.386	0.0143916
760.464	0.0144608
760.542	0.0145282
760.620	0.0144551
760.698	0.0144076
760.776	0.0145934
760.854	0.0144643
760.933	0.0144804
761.011	0.0144902
761.089	0.0143803
761.167	0.0143861
761.245	0.0143964
761.323	0.0145678
761.401	0.0144779
761.479	0.0144292
761.558	0.0143359
761.636	0.0145867
761.714	0.0145007
761.792	0.0143074
761.870	0.0144848
761.948	0.0143907
762.026	0.0143976
762.104	0.0144372
762.183	0.0143906
762.261	0.0145323
762.339	0.0144003
762.417	0.0143610
762.495	0.0143797
762.573	0.0145376
762.651	0.0143903
762.729	0.0143823
762.808	0.0145891
762.886	0.0144337
762.964	0.0144827
763.042	0.0144912
763.120	0.0145560
763.198	0.0143917
763.276	0.0144254
763.354	0.0144682
763.433	0.0144862
763.511	0.0142954
763.589	0.0144344
763.667	0.0144962
763.745	0.0144558
763.823	0.0143903
763.901	0.0144160
763.979	0.0144034
764.058	0.0144494
764.136	0.0144633
764.214	0.0144675
764.292	0.0144430
764.370	0.0144882
764.448	0.0144810
764.526	0.0143911
764.604	0.0146260
764.683	0.0144115
764.761	0.0144083
764.839	0.0143559
764.917	0.0144276
764.995	0.0143888
765.073	0.0144058
765.151	0.0145445
765.229	0.0143838
765.308	0.0143805
765.386	0.0143755
765.464	0.0143803
765.542	0.0144575
765.620	0.0143575
765.698	0.0143214
765.776	0.0145113
765.854	0.0143391
765.933	0.0143123
766.011	0.0143630
766.089	0.0144354
766.167	0.0144657
766.245	0.0144588
766.323	0.0143780
766.401	0.0145137
766.479	0.0143612
766.558	0.0143879
766.636	0.0143322
766.714	0.0142600
766.792	0.0143759
766.870	0.0144348
766.948	0.0144304
767.026	0.0143595
767.104	0.0144273
767.183	0.0143604
767.261	0.0143604
767.339	0.0144630
767.417	0.0142886
767.495	0.0142197
767.573	0.0144083
767.651	0.0144468
767.729	0.0143874
767.808	0.0143520
767.886	0.0144408
767.964	0.0144476
768.042	0.0144164
768.120	0.0143542
768.198	0.0143371
768.276	0.0143594
768.354	0.0144016
768.433	0.0143980
768.511	0.0144393
768.589	0.0144932
768.667	0.0144490
768.745	0.0143781
768.823	0.0145596
768.901	0.0144470
768.979	0.0144595
769.058	0.0144760
769.136	0.0144411
769.214	0.0143703
769.292	0.0144093
769.370	0.0144640
769.448	0.0144321
769.526	0.0145371
769.604	0.0142930
769.683	0.0143690
769.761	0.0144085
769.839	0.0143650
769.917	0.0144641
769.995	0.0142939
770.073	0.0143238
770.151	0.0143593
770.229	0.0143687
770.308	0.0144380
770.386	0.0144729
770.464	0.0145493
770.542	0.0144636
770.620	0.0144238
770.698	0.0143658
770.776	0.0144185
770.854	0.0144496
770.933	0.0144881
771.011	0.0144256
771.089	0.0144606
771.167	0.0143760
771.245	0.0144044
771.323	0.0145270
771.401	0.0143691
771.479	0.0144307
771.558	0.0143079
771.636	0.0144259
771.714	0.0143266
771.792	0.0144004
771.870	0.0144319
771.948	0.0143900
772.026	0.0143192
772.104	0.0144685
772.183	0.0143401
772.261	0.0144258
772.339	0.0144795
772.417	0.0143375
772.495	0.0144160
772.573	0.0144904
772.651	0.0145795
772.729	0.0145970
772.808	0.0146503
772.886	0.0144922
772.964	0.0144786
773.042	0.0144065
773.120	0.0143398
773.198	0.0145313
773.276	0.0144054
773.354	0.0145210
773.433	0.0145547
773.511	0.0146290
773.589	0.0144728
773.667	0.0143473
773.745	0.0145833
773.823	0.0144597
773.901	0.0144677
773.979	0.0144086
774.058	0.0144028
774.136	0.0144250
774.214	0.0144788
774.292	0.0143987
774.370	0.0145205
774.448	0.0144337
774.526	0.0144258
774.604	0.0144791
774.683	0.0144014
774.761	0.0145071
774.839	0.0145365
774.917	0.0144386
774.995	0.0144016
775.073	0.0145727
775.151	0.0144650
775.229	0.0144878
775.308	0.0145474
775.386	0.0144455
775.464	0.0144479
775.542	0.0144337
775.620	0.0144386
775.698	0.0144256
775.776	0.0144591
775.854	0.0144314
775.933	0.0143153
776.011	0.0144566
776.089	0.0144611
776.167	0.0142840
776.245	0.0144955
776.323	0.0143338
776.401	0.0144520
776.479	0.0145181
776.558	0.0143326
776.636	0.0144313
776.714	0.0145354
776.792	0.0144643
776.870	0.0144780
776.948	0.0144723
777.026	0.0144007
777.104	0.0142722
777.183	0.0144524
777.261	0.0144696
777.339	0.0144093
777.417	0.0143339
777.495	0.0143170
777.573	0.0144258
777.651	0.0144202
777.729	0.0143362
777.808	0.0143247
777.886	0.0144779
777.964	0.0142953
778.042	0.0142639
778.120	0.0144217
778.198	0.0145229
778.276	0.0145066
778.354	0.0144405
778.433	0.0142602
778.511	0.0143339
778.589	0.0145203
778.667	0.0144587
778.745	0.0144638
778.823	0.0145290
778.901	0.0144910
778.979	0.0145087
779.058	0.0145042
779.136	0.0144507
779.214	0.0143730
779.292	0.0143822
779.370	0.0144002
779.448	0.0144045
779.526	0.0144810
779.604	0.0144827
779.683	0.0144098
779.761	0.0144019
779.839	0.0143795
779.917	0.0143949
779.995	0.0144297
780.073	0.0143210
780.151	0.0143423
780.229	0.0143757
780.308	0.0144658
780.386	0.0142041
780.464	0.0143989
780.542	0.0143462
780.620	0.0143026
780.698	0.0144286
780.776	0.0144280
780.854	0.0143678
780.933	0.0142769
781.011	0.0145065
781.089	0.0143878
781.167	0.0144003
781.245	0.0144666
781.323	0.0144655
781.401	0.0144851
781.479	0.0144659
781.558	0.0144769
781.636	0.0145197
781.714	0.0145415
781.792	0.0145862
781.870	0.0145260
781.948	0.0145305
782.026	0.0144972
782.104	0.0145322
782.183	0.0145678
782.261	0.0145666
782.339	0.0145461
782.417	0.0144112
782.495	0.0145496
782.573	0.0144361
782.651	0.0144564
782.729	0.0142589
782.808	0.0143581
782.886	0.0144165
782.964	0.0144346
783.042	0.0144228
783.120	0.0144505
783.198	0.0143508
783.276	0.0143193
783.354	0.0144012
783.433	0.0143848
783.511	0.0142441
783.589	0.0144650
783.667	0.0143726
783.745	0.0143522
783.823	0.0144361
783.901	0.0143952
783.979	0.0144544
784.058	0.0144256
784.136	0.0145505
784.214	0.0144135
784.292	0.0144164
784.370	0.0144137
784.448	0.0145614
784.526	0.0144855
784.604	0.0144139
784.683	0.0145409
784.761	0.0143463
784.839	0.0145567
784.917	0.0144640
784.995	0.0143716
785.073	0.0145107
785.151	0.0145339
785.229	0.0144537
785.308	0.0143958
785.386	0.0145164
785.464	0.0144240
785.542	0.0143633
785.620	0.0142805
785.698	0.0144727
785.776	0.0144705
785.854	0.0143885
785.933	0.0144717
786.011	0.0144839
786.089	0.0144110
786.167	0.0145185
786.245	0.0144838
786.323	0.0143142
786.401	0.0144960
786.479	0.0144794
786.558	0.0144713
786.636	0.0145935
786.714	0.0143645
786.792	0.0144666
786.870	0.0144755
786.948	0.0144869
787.026	0.0145155
787.104	0.0144895
787.183	0.0144720
787.261	0.0144266
787.339	0.0144627
787.417	0.0143599
787.495	0.0144347
787.573	0.0144968
787.651	0.0146126
787.729	0.0143059
787.808	0.0145318
787.886	0.0144141
787.964	0.0143317
788.042	0.0143193
788.120	0.0144134
788.198	0.0143430
788.276	0.0143526
788.354	0.0144690
788.433	0.0143328
788.511	0.0143342
788.589	0.0143117
788.667	0.0144142
788.745	0.0143732
788.823	0.0142654
788.901	0.0142553
788.979	0.0143518
789.058	0.0143226
789.136	0.0144235
789.214	0.0143546
789.292	0.0144740
789.370	0.0145757
789.448	0.0144347
789.526	0.0143951
789.604	0.0143978
789.683	0.0144666
789.761	0.0144789
789.839	0.0144330
789.917	0.0143715
789.995	0.0144781
790.073	0.0144206
790.151	0.0144199
790.229	0.0145098
790.308	0.0144440
790.386	0.0143925
790.464	0.0142352
790.542	0.0144398
790.620	0.0143905
790.698	0.0143367
790.776	0.0144093
790.854	0.0143692
790.933	0.0142840
791.011	0.0143800
791.089	0.0143126
791.167	0.0143100
791.245	0.0144110
791.323	0.0144447
791.401	0.0144743
791.479	0.0143696
791.558	0.0144038
791.636	0.0144596
791.714	0.0144328
791.792	0.0143501
791.870	0.0145159
791.948	0.0144714
792.026	0.0143665
792.104	0.0144440
792.183	0.0144402
792.261	0.0143817
792.339	0.0144051
792.417	0.0145420
792.495	0.0144880
792.573	0.0144998
792.651	0.0145524
792.729	0.0145161
792.808	0.0144888
792.886	0.0144486
792.964	0.0144341
793.042	0.0144465
793.120	0.0145176
793.198	0.0143194
793.276	0.0143930
793.354	0.0143187
793.433	0.0143790
793.511	0.0144598
793.589	0.0144621
793.667	0.0144813
793.745	0.0142337
793.823	0.0143175
793.901	0.0143728
793.979	0.0143620
794.058	0.0145142
794.136	0.0144952
794.214	0.0143840
794.292	0.0144382
794.370	0.0143872
794.448	0.0143653
794.526	0.0144571
794.604	0.0144254
794.683	0.0143130
794.761	0.0144292
794.839	0.0143744
794.917	0.0143726
794.995	0.0144666
795.073	0.0145485
795.151	0.0145438
795.229	0.0143224
795.308	0.0143871
795.386	0.0144553
795.464	0.0144895
795.542	0.0143391
795.620	0.0143347
795.698	0.0143526
795.776	0.0143374
795.854	0.0144270
795.933	0.0144937
796.011	0.0143330
796.089	0.0144017
796.167	0.0145390
796.245	0.0143679
796.323	0.0143999
796.401	0.0143949
796.479	0.0143773
796.558	0.0143455
796.636	0.0144176
796.714	0.0144383
796.792	0.0143935
796.870	0.0145123
796.948	0.0144421
797.026	0.0146019
797.104	0.0146185
797.183	0.0144079
797.261	0.0143985
797.339	0.0146752
797.417	0.0145638
797.495	0.0145660
797.573	0.0145779
797.651	0.0144411
797.729	0.0144949
797.808	0.0145054
797.886	0.0145026
797.964	0.0145033
798.042	0.0145722
798.120	0.0143208
798.198	0.0144588
798.276	0.0145180
798.354	0.0143200
798.433	0.0144316
798.511	0.0143851
798.589	0.0144360
798.667	0.0144582
798.745	0.0142273
798.823	0.0144537
798.901	0.0143916
798.979	0.0143964
799.058	0.0144268
799.136	0.0144138
799.214	0.0142247
799.292	0.0143993
799.370	0.0143896
799.448	0.0143294
799.526	0.0144318
799.604	0.0144711
799.683	0.0143771
799.761	0.0142663
799.839	0.0142027
799.917	0.0142999
799.995	0.0143222
800.073	0.0142463
800.151	0.0143718
800.229	0.0143548
800.308	0.0142101
800.386	0.0142096
800.464	0.0143404
800.542	0.0143781
800.620	0.0143864
800.698	0.0143599
800.776	0.0143761
800.854	0.0143748
800.933	0.0144816
801.011	0.0142305
801.089	0.0143066
801.167	0.0143442
801.245	0.0144911
801.323	0.0144246
801.401	0.0143123
801.479	0.0143539
801.558	0.0143999
801.636	0.0144228
801.714	0.0143720
801.792	0.0144795
801.870	0.0144112
801.948	0.0142091
802.026	0.0142381
802.104	0.0143524
802.183	0.0144352
802.261	0.0143506
802.339	0.0143613
802.417	0.0144778
802.495	0.0142963
802.573	0.0143921
802.651	0.0143768
802.729	0.0143200
802.808	0.0143733
802.886	0.0144379
802.964	0.0143901
803.042	0.0143435
803.120	0.0145770
803.198	0.0143250
803.276	0.0144220
803.354	0.0143806
803.433	0.0143809
803.511	0.0144710
803.589	0.0144077
803.667	0.0143773
803.745	0.0144933
803.823	0.0144247
803.901	0.0145031
803.979	0.0144015
804.058	0.0143306
804.136	0.0145028
804.214	0.0144566
804.292	0.0143250
804.370	0.0144236
804.448	0.0143797
804.526	0.0143689
804.604	0.0143112
804.683	0.0142838
804.761	0.0143209
804.839	0.0142801
804.917	0.0142786
804.995	0.0143142
805.073	0.0142366
805.151	0.0143777
805.229	0.0143343
805.308	0.0143486
805.386	0.0144090
805.464	0.0143967
805.542	0.0144972
805.620	0.0144994
805.698	0.0144723
805.776	0.0145679
805.854	0.0144530
805.933	0.0145107
806.011	0.0144453
806.089	0.0144731
806.167	0.0144441
806.245	0.0144519
806.323	0.0144071
806.401	0.0144181
806.479	0.0144593
806.558	0.0145241
806.636	0.0144452
806.714	0.0144299
806.792	0.0144799
806.870	0.0144753
806.948	0.0145728
807.026	0.0145700
807.104	0.0144521
807.183	0.0145899
807.261	0.0144131
807.339	0.0144875
807.417	0.0144814
807.495	0.0144842
807.573	0.0145564
807.651	0.0145010
807.729	0.0145512
807.808	0.0146397
807.886	0.0144426
807.964	0.0145189
808.042	0.0145659
808.120	0.0144296
808.198	0.0143446
808.276	0.0143669
808.354	0.0145885
808.433	0.0143878
808.511	0.0142915
808.589	0.0144703
808.667	0.0142997
808.745	0.0144186
808.823	0.0143633
808.901	0.0142207
808.979	0.0145123
809.058	0.0144933
809.136	0.0142982
809.214	0.0143871
809.292	0.0144224
809.370	0.0143812
809.448	0.0142602
809.526	0.0144804
809.604	0.0145476
809.683	0.0143162
809.761	0.0144644
809.839	0.0145001
809.917	0.0144398
809.995	0.0145168
810.073	0.0145864
810.151	0.0143655
810.229	0.0144286
810.308	0.0143491
810.386	0.0143813
810.464	0.0143155
810.542	0.0144196
810.620	0.0144128
810.698	0.0144762
810.776	0.0144089
810.854	0.0145050
810.933	0.0145699
811.011	0.0144232
811.089	0.0143869
811.167	0.0143594
811.245	0.0145061
811.323	0.0145069
811.401	0.0143849
811.479	0.0144498
811.558	0.0145496
811.636	0.0144768
811.714	0.0143723
811.792	0.0144653
811.870	0.0144267
811.948	0.0145377
812.026	0.0146146
812.104	0.0146229
812.183	0.0145104
812.261	0.0144839
812.339	0.0145216
812.417	0.0145677
812.495	0.0145272
812.573	0.0143472
812.651	0.0143635
812.729	0.0144971
812.808	0.0143740
812.886	0.0143011
812.964	0.0144524
813.042	0.0143320
813.120	0.0143941
813.198	0.0143802
813.276	0.0142945
813.354	0.0142255
813.433	0.0143026
813.511	0.0144475
813.589	0.0144255
813.667	0.0143497
813.745	0.0142690
813.823	0.0143525
813.901	0.0143754
813.979	0.0143964
814.058	0.0141769
814.136	0.0142928
814.214	0.0144029
814.292	0.0142683
814.370	0.0142577
814.448	0.0142160
814.526	0.0143286
814.604	0.0143880
814.683	0.0143729
814.761	0.0144387
814.839	0.0142501
814.917	0.0143401
814.995	0.0143497
815.073	0.0142205
815.151	0.0143658
815.229	0.0143994
815.308	0.0143597
815.386	0.0143860
815.464	0.0143355
815.542	0.0144498
815.620	0.0144637
815.698	0.0143935
815.776	0.0144778
815.854	0.0143593
815.933	0.0145198
816.011	0.0142931
816.089	0.0143999
816.167	0.0144202
816.245	0.0143959
816.323	0.0143404
816.401	0.0145605
816.479	0.0144688
816.558	0.0145195
816.636	0.0144279
816.714	0.0144034
816.792	0.0142332
816.870	0.0145208
816.948	0.0144043
817.026	0.0144623
817.104	0.0144769
817.183	0.0145063
817.261	0.0145161
817.339	0.0145226
817.417	0.0144417
817.495	0.0144211
817.573	0.0145796
817.651	0.0145077
817.729	0.0145210
817.808	0.0145914
817.886	0.0145625
817.964	0.0145057
818.042	0.0145853
818.120	0.0145123
818.198	0.0144627
818.276	0.0145248
818.354	0.0143938
818.433	0.0144763
818.511	0.0143837
818.589	0.0144417
818.667	0.0143178
818.745	0.0143658
818.823	0.0144176
818.901	0.0143515
818.979	0.0143556
819.058	0.0143919
819.136	0.0144273
819.214	0.0144905
819.292	0.0144384
819.370	0.0143624
819.448	0.0143984
819.526	0.0144283
819.604	0.0143887
819.683	0.0143186
819.761	0.0144189
819.839	0.0144556
819.917	0.0144020
819.995	0.0144000
820.073	0.0142881
820.151	0.0144416
820.229	0.0144468
820.308	0.0145172
820.386	0.0142373
820.464	0.0143056
820.542	0.0145468
820.620	0.0143208
820.698	0.0143293
820.776	0.0142057
820.854	0.0144551
820.933	0.0145097
821.011	0.0143698
821.089	0.0143520
821.167	0.0143822
821.245	0.0144185
821.323	0.0144382
821.401	0.0144186
821.479	0.0143521
821.558	0.0143893
821.636	0.0145457
821.714	0.0145732
821.792	0.0144266
821.870	0.0142619
821.948	0.0145105
822.026	0.0145499
822.104	0.0145411
822.183	0.0144697
822.261	0.0144733
822.339	0.0144964
822.417	0.0145673
822.495	0.0143537
822.573	0.0144534
822.651	0.0143787
822.729	0.0144106
822.808	0.0143226
822.886	0.0144094
822.964	0.0142879
823.042	0.0144198
823.120	0.0143690
823.198	0.0143018
823.276	0.0141779
823.354	0.0143197
823.433	0.0144936
823.511	0.0142623
823.589	0.0143374
823.667	0.0144389
823.745	0.0142890
823.823	0.0142542
823.901	0.0144222
823.979	0.0145187
824.058	0.0142956
824.136	0.0143897
824.214	0.0145258
824.292	0.0143172
824.370	0.0142728
824.448	0.0144400
824.526	0.0144986
824.604	0.0143818
824.683	0.0143958
824.761	0.0143642
824.839	0.0144218
824.917	0.0144144
824.995	0.0143906
825.073	0.0144308
825.151	0.0143604
825.229	0.0144331
825.308	0.0143774
825.386	0.0144659
825.464	0.0143552
825.542	0.0144262
825.620	0.0143795
825.698	0.0144629
825.776	0.0144899
825.854	0.0144608
825.933	0.0145160
826.011	0.0144165
826.089	0.0145731
826.167	0.0144234
826.245	0.0145362
826.323	0.0143897
826.401	0.0142802
826.479	0.0144215
826.558	0.0143929
826.636	0.0144398
826.714	0.0142806
826.792	0.0143807
826.870	0.0144669
826.948	0.0143440
827.026	0.0143608
827.104	0.0142976
827.183	0.0143307
827.261	0.0143422
827.339	0.0142950
827.417	0.0144308
827.495	0.0143578
827.573	0.0143789
827.651	0.0144785
827.729	0.0143143
827.808	0.0143455
827.886	0.0143583
827.964	0.0142738
828.042	0.0143365
828.120	0.0143903
828.198	0.0143580
828.276	0.0142645
828.354	0.0144096
828.433	0.0141653
828.511	0.0144024
828.589	0.0143488
828.667	0.0143146
828.745	0.0143552
828.823	0.0143272
828.901	0.0145537
828.979	0.0143872
829.058	0.0144276
829.136	0.0143946
829.214	0.0143995
829.292	0.0144750
829.370	0.0144331
829.448	0.0144001
829.526	0.0144523
829.604	0.0144695
829.683	0.0145886
829.761	0.0145448
829.839	0.0145563
829.917	0.0144556
829.995	0.0144421
830.073	0.0144765
830.151	0.0145199
830.229	0.0145392
830.308	0.0144331
830.386	0.0144605
830.464	0.0145920
830.542	0.0143433
830.620	0.0144944
830.698	0.0143252
830.776	0.0143675
830.854	0.0144405
830.933	0.0143863
831.011	0.0144737
831.089	0.0144285
831.167	0.0144209
831.245	0.0143281
831.323	0.0143582
831.401	0.0145126
831.479	0.0144198
831.558	0.0144502
831.636	0.0143365
831.714	0.0144334
831.792	0.0144376
831.870	0.0145625
831.948	0.0145312
832.026	0.0143621
832.104	0.0143457
832.183	0.0143426
832.261	0.0143495
832.339	0.0143436
832.417	0.0144138
832.495	0.0142577
832.573	0.0141459
832.651	0.0142561
832.729	0.0142957
832.808	0.0143950
832.886	0.0143304
832.964	0.0143456
833.042	0.0143821
833.120	0.0143940
833.198	0.0143398
833.276	0.0144388
833.354	0.0143796
833.433	0.0145059
833.511	0.0144478
833.589	0.0143260
833.667	0.0143999
833.745	0.0144489
833.823	0.0145767
833.901	0.0145502
833.979	0.0145461
834.058	0.0146455
834.136	0.0146217
834.214	0.0144744
834.292	0.0144926
834.370	0.0145546
834.448	0.0145392
834.526	0.0144755
834.604	0.0145451
834.683	0.0145099
834.761	0.0143803
834.839	0.0145068
834.917	0.0145497
834.995	0.0144031
835.073	0.0143573
835.151	0.0145364
835.229	0.0144180
835.308	0.0144547
835.386	0.0143732
835.464	0.0143900
835.542	0.0145319
835.620	0.0144169
835.698	0.0142921
835.776	0.0143372
835.854	0.0143926
835.933	0.0145358
836.011	0.0143745
836.089	0.0143362
836.167	0.0143926
836.245	0.0145253
836.323	0.0143349
836.401	0.0144005
836.479	0.0143771
836.558	0.0144321
836.636	0.0141789
836.714	0.0144142
836.792	0.0144375
836.870	0.0144510
836.948	0.0143822
837.026	0.0142967
837.104	0.0143894
837.183	0.0143591
837.261	0.0144292
837.339	0.0144779
837.417	0.0143182
837.495	0.0144628
837.573	0.0144057
837.651	0.0143379
837.729	0.0142239
837.808	0.0143075
837.886	0.0144550
837.964	0.0143241
838.042	0.0144425
838.120	0.0144910
838.198	0.0142863
838.276	0.0142628
838.354	0.0144356
838.433	0.0144653
838.511	0.0144875
838.589	0.0144719
838.667	0.0144825
838.745	0.0145264
838.823	0.0145367
838.901	0.0144928
838.979	0.0145391
839.058	0.0144396
839.136	0.0144363
839.214	0.0144789
839.292	0.0144247
839.370	0.0145331
839.448	0.0144820
839.526	0.0142787
839.604	0.0144189
839.683	0.0144580
839.761	0.0144078
839.839	0.0144708
839.917	0.0143167
839.995	0.0144148
840.073	0.0143733
840.151	0.0143642
840.229	0.0143291
840.308	0.0144477
840.386	0.0145134
840.464	0.0144616
840.542	0.0145416
840.620	0.0144302
840.698	0.0142690
840.776	0.0144257
840.854	0.0143584
840.933	0.0144076
841.011	0.0143663
841.089	0.0143291
841.167	0.0143346
841.245	0.0141908
841.323	0.0143136
841.401	0.0143636
841.479	0.0143060
841.558	0.0142614
841.636	0.0144086
841.714	0.0142218
841.792	0.0142689
841.870	0.0143567
841.948	0.0143674
842.026	0.0143478
842.104	0.0143356
842.183	0.0142776
842.261	0.0144550
842.339	0.0143165
842.417	0.0143443
842.495	0.0143916
842.573	0.0143416
842.651	0.0143234
842.729	0.0143746
842.808	0.0144961
842.886	0.0144999
842.964	0.0142950
843.042	0.0143177
843.120	0.0144476
843.198	0.0143825
843.276	0.0144427
843.354	0.0143854
843.433	0.0144046
843.511	0.0144156
843.589	0.0144610
843.667	0.0143874
843.745	0.0143878
843.823	0.0143986
843.901	0.0142454
843.979	0.0144008
844.058	0.0144659
844.136	0.0143748
844.214	0.0143375
844.292	0.0144315
844.370	0.0144530
844.448	0.0143369
844.526	0.0145171
844.604	0.0145232
844.683	0.0145118
844.761	0.0143812
844.839	0.0146042
844.917	0.0144260
844.995	0.0143929
845.073	0.0145274
845.151	0.0145328
845.229	0.0143269
845.308	0.0144734
845.386	0.0145564
845.464	0.0143818
845.542	0.0144143
845.620	0.0143208
845.698	0.0144186
845.776	0.0144160
845.854	0.0142545
845.933	0.0143654
846.011	0.0142123
846.089	0.0143060
846.167	0.0143336
846.245	0.0142480
846.323	0.0143090
846.401	0.0142106
846.479	0.0143277
846.558	0.0144387
846.636	0.0143201
846.714	0.0144836
846.792	0.0144147
846.870	0.0143500
846.948	0.0145066
847.026	0.0145517
847.104	0.0144381
847.183	0.0142188
847.261	0.0145796
847.339	0.0145564
847.417	0.0144151
847.495	0.0145712
847.573	0.0144174
847.651	0.0144159
847.729	0.0145591
847.808	0.0144983
847.886	0.0144267
847.964	0.0144314
848.042	0.0144766
848.120	0.0144016
848.198	0.0144134
848.276	0.0141671
848.354	0.0144354
848.433	0.0143623
848.511	0.0144652
848.589	0.0142850
848.667	0.0143777
848.745	0.0143044
848.823	0.0143456
848.901	0.0144311
848.979	0.0143477
849.058	0.0144724
849.136	0.0143201
849.214	0.0143506
849.292	0.0143477
849.370	0.0144971
849.448	0.0143835
849.526	0.0144079
849.604	0.0143311
849.683	0.0144807
849.761	0.0145368
849.839	0.0143033
849.917	0.0143764
849.995	0.0146669
850.073	0.0143896
850.151	0.0144409
850.229	0.0144267
850.308	0.0144342
850.386	0.0143395
850.464	0.0143877
850.542	0.0144044
850.620	0.0144741
850.698	0.0143085
850.776	0.0144608
850.854	0.0142516
850.933	0.0143471
851.011	0.0143915
851.089	0.0143893
851.167	0.0142719
851.245	0.0142804
851.323	0.0143084
851.401	0.0142633
851.479	0.0142311
851.558	0.0143800
851.636	0.0143174
851.714	0.0144492
851.792	0.0143150
851.870	0.0143104
851.948	0.0143351
852.026	0.0142847
852.104	0.0144269
852.183	0.0145699
852.261	0.0144660
852.339	0.0145039
852.417	0.0144295
852.495	0.0143729
852.573	0.0143223
852.651	0.0145152
852.729	0.0144186
852.808	0.0144138
852.886	0.0142238
852.964	0.0143313
853.042	0.0143250
853.120	0.0143821
853.198	0.0144592
853.276	0.0142941
853.354	0.0143672
853.433	0.0143358
853.511	0.0144174
853.589	0.0142381
853.667	0.0143536
853.745	0.0142503
853.823	0.0143122
853.901	0.0144273
853.979	0.0142680
854.058	0.0142648
854.136	0.0144675
854.214	0.0144079
854.292	0.0144272
854.370	0.0143443
854.448	0.0144868
854.526	0.0143939
854.604	0.0145123
854.683	0.0145745
854.761	0.0144901
854.839	0.0144965
854.917	0.0144308
854.995	0.0145062
855.073	0.0144765
855.151	0.0144695
855.229	0.0144709
855.308	0.0145514
855.386	0.0143226
855.464	0.0143832
855.542	0.0143471
855.620	0.0142123
855.698	0.0143637
855.776	0.0143465
855.854	0.0142766
855.933	0.0142047
856.011	0.0143226
856.089	0.0143034
856.167	0.0142639
856.245	0.0142489
856.323	0.0143047
856.401	0.0142681
856.479	0.0143742
856.558	0.0142375
856.636	0.0142465
856.714	0.0141430
856.792	0.0142889
856.870	0.0143288
856.948	0.0142986
857.026	0.0143754
857.104	0.0144332
857.183	0.0144183
857.261	0.0144071
857.339	0.0145017
857.417	0.0145136
857.495	0.0145521
857.573	0.0144798
857.651	0.0144939
857.729	0.0144918
857.808	0.0145522
857.886	0.0145745
857.964	0.0144575
858.042	0.0146700
858.120	0.0145500
858.198	0.0145673
858.276	0.0146297
858.354	0.0145097
858.433	0.0145107
858.511	0.0145262
858.589	0.0146481
858.667	0.0144802
858.745	0.0145576
858.823	0.0145254
858.901	0.0144533
858.979	0.0146026
859.058	0.0144321
859.136	0.0145299
859.214	0.0143684
859.292	0.0144769
859.370	0.0143282
859.448	0.0145123
859.526	0.0143077
859.604	0.0143558
859.683	0.0142284
859.761	0.0143095
859.839	0.0143443
859.917	0.0142853
859.995	0.0140746
860.073	0.0141606
860.151	0.0142731
860.229	0.0141010
860.308	0.0141363
860.386	0.0142281
860.464	0.0141309
860.542	0.0141917
860.620	0.0142620
860.698	0.0142637
860.776	0.0142068
860.854	0.0141789
860.933	0.0141518
861.011	0.0142922
861.089	0.0143493
861.167	0.0143496
861.245	0.0143282
861.323	0.0143368
861.401	0.0144405
861.479	0.0143915
861.558	0.0144949
861.636	0.0145316
861.714	0.0144497
861.792	0.0144682
861.870	0.0145166
861.948	0.0145069
862.026	0.0144447
862.104	0.0145023
862.183	0.0145297
862.261	0.0144892
862.339	0.0145135
862.417	0.0145350
862.495	0.0145049
862.573	0.0145499
862.651	0.0146944
862.729	0.0145094
862.808	0.0145358
862.886	0.0145789
862.964	0.0146796
863.042	0.0145808
863.120	0.0144939
863.198	0.0145936
863.276	0.0146518
863.354	0.0144672
863.433	0.0145612
863.511	0.0146027
863.589	0.0145872
863.667	0.0144468
863.745	0.0144296
863.823	0.0145872
863.901	0.0145651
863.979	0.0143871
864.058	0.0143340
864.136	0.0144440
864.214	0.0144227
864.292	0.0143658
864.370	0.0143804
864.448	0.0143374
864.526	0.0143705
864.604	0.0143900
864.683	0.0144251
864.761	0.0143083
864.839	0.0142519
864.917	0.0141550
864.995	0.0143504
865.073	0.0144104
865.151	0.0142347
865.229	0.0142827
865.308	0.0142754
865.386	0.0142440
865.464	0.0145119
865.542	0.0143751
865.620	0.0143573
865.698	0.0143510
865.776	0.0143768
865.854	0.0142547
865.933	0.0142226
866.011	0.0144711
866.089	0.0144257
866.167	0.0144205
866.245	0.0143779
866.323	0.0143594
866.401	0.0144523
866.479	0.0144092
866.558	0.0144677
866.636	0.0145737
866.714	0.0144285
866.792	0.0143774
866.870	0.0143805
866.948	0.0144051
867.026	0.0145300
867.104	0.0144712
867.183	0.0144354
867.261	0.0145811
867.339	0.0146461
867.417	0.0144753
867.495	0.0145164
867.573	0.0144514
867.651	0.0144716
867.729	0.0144833
867.808	0.0143940
867.886	0.0144263
867.964	0.0144711
868.042	0.0145777
868.120	0.0144908
868.198	0.0143612
868.276	0.0144762
868.354	0.0144317
868.433	0.0144297
868.511	0.0144579
868.589	0.0144199
868.667	0.0143904
868.745	0.0143127
868.823	0.0143199
868.901	0.0142310
868.979	0.0143637
869.058	0.0143777
869.136	0.0143838
869.214	0.0144605
869.292	0.0144111
869.370	0.0143654
869.448	0.0143582
869.526	0.0143430
869.604	0.0143918
869.683	0.0144044
869.761	0.0144284
869.839	0.0143531
869.917	0.0143585
869.995	0.0141968
870.073	0.0142614
870.151	0.0144825
870.229	0.0143060
870.308	0.0143040
870.386	0.0142758
870.464	0.0144212
870.542	0.0142456
870.620	0.0143805
870.698	0.0144141
870.776	0.0143084
870.854	0.0143998
870.933	0.0144717
871.011	0.0144173
871.089	0.0142573
871.167	0.0143864
871.245	0.0144250
871.323	0.0143970
871.401	0.0144300
871.479	0.0144784
871.558	0.0144466
871.636	0.0145005
871.714	0.0145861
871.792	0.0144405
871.870	0.0144974
871.948	0.0144820
872.026	0.0145446
872.104	0.0145142
872.183	0.0145930
872.261	0.0145303
872.339	0.0146895
872.417	0.0145892
872.495	0.0145492
872.573	0.0145296
872.651	0.0145834
872.729	0.0145688
872.808	0.0145976
872.886	0.0145476
872.964	0.0144923
873.042	0.0144556
873.120	0.0145083
873.198	0.0144721
873.276	0.0143816
873.354	0.0143070
873.433	0.0144218
873.511	0.0144986
873.589	0.0144646
873.667	0.0143076
873.745	0.0143077
873.823	0.0144768
873.901	0.0143042
873.979	0.0143595
874.058	0.0143726
874.136	0.0142075
874.214	0.0143148
874.292	0.0142178
874.370	0.0141756
874.448	0.0142318
874.526	0.0142711
874.604	0.0143324
874.683	0.0144194
874.761	0.0143167
874.839	0.0143240
874.917	0.0142088
874.995	0.0143113
875.073	0.0143659
875.151	0.0142478
875.229	0.0143511
875.308	0.0142706
875.386	0.0142973
875.464	0.0143491
875.542	0.0144225
875.620	0.0144727
875.698	0.0142349
875.776	0.0143488
875.854	0.0145205
875.933	0.0144076
876.011	0.0143484
876.089	0.0144308
876.167	0.0145550
876.245	0.0145527
876.323	0.0144839
876.401	0.0145389
876.479	0.0143942
876.558	0.0143796
876.636	0.0144397
876.714	0.0146336
876.792	0.0146057
876.870	0.0143784
876.948	0.0145226
877.026	0.0146227
877.104	0.0145895
877.183	0.0144830
877.261	0.0144919
877.339	0.0145101
877.417	0.0143777
877.495	0.0144736
877.573	0.0144229
877.651	0.0143537
877.729	0.0142927
877.808	0.0144352
877.886	0.0143684
877.964	0.0143327
878.042	0.0144276
878.120	0.0144628
878.198	0.0145103
878.276	0.0144970
878.354	0.0143894
878.433	0.0145458
878.511	0.0143380
878.589	0.0144425
878.667	0.0142818
878.745	0.0144678
878.823	0.0143820
878.901	0.0144655
878.979	0.0143845
879.058	0.0144829
879.136	0.0142408
879.214	0.0144169
879.292	0.0144616
879.370	0.0142908
879.448	0.0142504
879.526	0.0144232
879.604	0.0143038
879.683	0.0144519
879.761	0.0143182
879.839	0.0142065
879.917	0.0144445
879.995	0.0145268
880.073	0.0145666
880.151	0.0144667
880.229	0.0142588
880.308	0.0144691
880.386	0.0144659
880.464	0.0144626
880.542	0.0145167
880.620	0.0145213
880.698	0.0146212
880.776	0.0143279
880.854	0.0142989
880.933	0.0143549
881.011	0.0144428
881.089	0.0144462
881.167	0.0144666
881.245	0.0145574
881.323	0.0144138
881.401	0.0144708
881.479	0.0146537
881.558	0.0145345
881.636	0.0145077
881.714	0.0143891
881.792	0.0144369
881.870	0.0144291
881.948	0.0145609
882.026	0.0145512
882.104	0.0144836
882.183	0.0142519
882.261	0.0143513
882.339	0.0145080
882.417	0.0143945
882.495	0.0144176
882.573	0.0143974
882.651	0.0143352
882.729	0.0145015
882.808	0.0145258
882.886	0.0143822
882.964	0.0144516
883.042	0.0144032
883.120	0.0144027
883.198	0.0143726
883.276	0.0144356
883.354	0.0143353
883.433	0.0144492
883.511	0.0144444
883.589	0.0143374
883.667	0.0144296
883.745	0.0145369
883.823	0.0144028
883.901	0.0142983
883.979	0.0143912
884.058	0.0144153
884.136	0.0144370
884.214	0.0143320
884.292	0.0143634
884.370	0.0145191
884.448	0.0144381
884.526	0.0143373
884.604	0.0142875
884.683	0.0143034
884.761	0.0144765
884.839	0.0143266
884.917	0.0143467
884.995	0.0143809
885.073	0.0143639
885.151	0.0143551
885.229	0.0144463
885.308	0.0142886
885.386	0.0143996
885.464	0.0144098
885.542	0.0143524
885.620	0.0143536
885.698	0.0144822
885.776	0.0143783
885.854	0.0144162
885.933	0.0143433
886.011	0.0143583
886.089	0.0144413
886.167	0.0143465
886.245	0.0143678
886.323	0.0143084
886.401	0.0143970
886.479	0.0145335
886.558	0.0144408
886.636	0.0143219
886.714	0.0142722
886.792	0.0144949
886.870	0.0144429
886.948	0.0143756
887.026	0.0144182
887.104	0.0143957
887.183	0.0144644
887.261	0.0144273
887.339	0.0143185
887.417	0.0144610
887.495	0.0144903
887.573	0.0143658
887.651	0.0144962
887.729	0.0145959
887.808	0.0144739
887.886	0.0144013
887.964	0.0142608
888.042	0.0143803
888.120	0.0143227
888.198	0.0144230
888.276	0.0144502
888.354	0.0144270
888.433	0.0144053
888.511	0.0144479
888.589	0.0143710
888.667	0.0143813
888.745	0.0145720
888.823	0.0144856
888.901	0.0144296
888.979	0.0145291
889.058	0.0145132
889.136	0.0144447
889.214	0.0143085
889.292	0.0144447
889.370	0.0144314
889.448	0.0144405
889.526	0.0144559
889.604	0.0143906
889.683	0.0144081
889.761	0.0144540
889.839	0.0142641
889.917	0.0142427
889.995	0.0141958
890.073	0.0142814
890.151	0.0144219
890.229	0.0144361
890.308	0.0143858
890.386	0.0145786
890.464	0.0143841
890.542	0.0144466
890.620	0.0144516
890.698	0.0144537
890.776	0.0144712
890.854	0.0142685
890.933	0.0145305
891.011	0.0143631
891.089	0.0144227
891.167	0.0144280
891.245	0.0144970
891.323	0.0144395
891.401	0.0144377
891.479	0.0144936
891.558	0.0144018
891.636	0.0144537
891.714	0.0144229
891.792	0.0143740
891.870	0.0144962
891.948	0.0144241
892.026	0.0145837
892.104	0.0143967
892.183	0.0143899
892.261	0.0143849
892.339	0.0144603
892.417	0.0143343
892.495	0.0144720
892.573	0.0144371
892.651	0.0144921
892.729	0.0145227
892.808	0.0144307
892.886	0.0145342
892.964	0.0144592
893.042	0.0143418
893.120	0.0144350
893.198	0.0145328
893.276	0.0144003
893.354	0.0144447
893.433	0.0144463
893.511	0.0143614
893.589	0.0144906
893.667	0.0143954
893.745	0.0144016
893.823	0.0142824
893.901	0.0143466
893.979	0.0143832
894.058	0.0143781
894.136	0.0144665
894.214	0.0142104
894.292	0.0143212
894.370	0.0143240
894.448	0.0142913
894.526	0.0142358
894.604	0.0143084
894.683	0.0143834
894.761	0.0144270
894.839	0.0143769
894.917	0.0144396
894.995	0.0143903
895.073	0.0143893
895.151	0.0144467
895.229	0.0144402
895.308	0.0144296
895.386	0.0145088
895.464	0.0144656
895.542	0.0144734
895.620	0.0144552
895.698	0.0145414
895.776	0.0144633
895.854	0.0145023
895.933	0.0146535
896.011	0.0144663
896.089	0.0144301
896.167	0.0145070
896.245	0.0145844
896.323	0.0145177
896.401	0.0144679
896.479	0.0145557
896.558	0.0144996
896.636	0.0144529
896.714	0.0143998
896.792	0.0143483
896.870	0.0143001
896.948	0.0144049
897.026	0.0143489
897.104	0.0144636
897.183	0.0143601
897.261	0.0143044
897.339	0.0143255
897.417	0.0143459
897.495	0.0144218
897.573	0.0143488
897.651	0.0142649
897.729	0.0142438
897.808	0.0143869
897.886	0.0143137
897.964	0.0144696
898.042	0.0144439
898.120	0.0143108
898.198	0.0143873
898.276	0.0143141
898.354	0.0142984
898.433	0.0144442
898.511	0.0143530
898.589	0.0144081
898.667	0.0143620
898.745	0.0144268
898.823	0.0144278
898.901	0.0142553
898.979	0.0143555
899.058	0.0143887
899.136	0.0143002
899.214	0.0143665
899.292	0.0143207
899.370	0.0143070
899.448	0.0143320
899.526	0.0144462
899.604	0.0144095
899.683	0.0145180
899.761	0.0144571
899.839	0.0141804
899.917	0.0143274
899.995	0.0144405
900.073	0.0142642
900.151	0.0143659
900.229	0.0143653
900.308	0.0145123
900.386	0.0144526
900.464	0.0142722
900.542	0.0144518
900.620	0.0144475
900.698	0.0145108
900.776	0.0144820
900.854	0.0144196
900.933	0.0144311
901.011	0.0145089
901.089	0.0143983
901.167	0.0145148
901.245	0.0144556
901.323	0.0143718
901.401	0.0144333
901.479	0.0143989
901.558	0.0142285
901.636	0.0143929
901.714	0.0142747
901.792	0.0144124
901.870	0.0143002
901.948	0.0142022
902.026	0.0142195
902.104	0.0142207
902.183	0.0142942
902.261	0.0144027
902.339	0.0142751
902.417	0.0142876
902.495	0.0143832
902.573	0.0144203
902.651	0.0142784
902.729	0.0143044
902.808	0.0142874
902.886	0.0144695
902.964	0.0143874
903.042	0.0145244
903.120	0.0143925
903.198	0.0143279
903.276	0.0144229
903.354	0.0144420
903.433	0.0143973
903.511	0.0142717
903.589	0.0143690
903.667	0.0143768
903.745	0.0144464
903.823	0.0144064
903.901	0.0145749
903.979	0.0144962
904.058	0.0144476
904.136	0.0143301
904.214	0.0143887
904.292	0.0143919
904.370	0.0144179
904.448	0.0143860
904.526	0.0143527
904.604	0.0143530
904.683	0.0144602
904.761	0.0144286
904.839	0.0144326
904.917	0.0143495
904.995	0.0143847
905.073	0.0143794
905.151	0.0143225
905.229	0.0143481
905.308	0.0143022
905.386	0.0143063
905.464	0.0143524
905.542	0.0144503
905.620	0.0143737
905.698	0.0144267
905.776	0.0144409
905.854	0.0144315
905.933	0.0143306
906.011	0.0144582
906.089	0.0145542
906.167	0.0144488
906.245	0.0144245
906.323	0.0144175
906.401	0.0144719
906.479	0.0144819
906.558	0.0145982
906.636	0.0143827
906.714	0.0145246
906.792	0.0144471
906.870	0.0144617
906.948	0.0144511
907.026	0.0145251
907.104	0.0145332
907.183	0.0143893
907.261	0.0144304
907.339	0.0143454
907.417	0.0143809
907.495	0.0142947
907.573	0.0143910
907.651	0.0144170
907.729	0.0142838
907.808	0.0144115
907.886	0.0143831
907.964	0.0143699
908.042	0.0143806
908.120	0.0144866
908.198	0.0143509
908.276	0.0142669
908.354	0.0143256
908.433	0.0143284
908.511	0.0143283
908.589	0.0143501
908.667	0.0142872
908.745	0.0143059
908.823	0.0142725
908.901	0.0144594
908.979	0.0144858
909.058	0.0144051
909.136	0.0142410
909.214	0.0143130
909.292	0.0142660
909.370	0.0143427
909.448	0.0142728
909.526	0.0143617
909.604	0.0142699
909.683	0.0142804
909.761	0.0142570
909.839	0.0144056
909.917	0.0143708
909.995	0.0143987
910.073	0.0143601
910.151	0.0142574
910.229	0.0143817
910.308	0.0143206
910.386	0.0142939
910.464	0.0143712
910.542	0.0143506
910.620	0.0143633
910.698	0.0143983
910.776	0.0143774
910.854	0.0145323
910.933	0.0143661
911.011	0.0144083
911.089	0.0143496
911.167	0.0144247
911.245	0.0144515
911.323	0.0144353
911.401	0.0143643
911.479	0.0145368
911.558	0.0144461
911.636	0.0143227
911.714	0.0144190
911.792	0.0144403
911.870	0.0143627
911.948	0.0143164
912.026	0.0142887
912.104	0.0143280
912.183	0.0142457
912.261	0.0143277
912.339	0.0141833
912.417	0.0143489
912.495	0.0141880
912.573	0.0141505
912.651	0.0142850
912.729	0.0142697
912.808	0.0144496
912.886	0.0141521
912.964	0.0141654
913.042	0.0142791
913.120	0.0142342
913.198	0.0143880
913.276	0.0143543
913.354	0.0143064
913.433	0.0144135
913.511	0.0144261
913.589	0.0143024
913.667	0.0143895
913.745	0.0144542
913.823	0.0144462
913.901	0.0144034
913.979	0.0143108
914.058	0.0144180
914.136	0.0144820
914.214	0.0144429
914.292	0.0145038
914.370	0.0144799
914.448	0.0145465
914.526	0.0144360
914.604	0.0144983
914.683	0.0145609
914.761	0.0144007
914.839	0.0144171
914.917	0.0143974
914.995	0.0144689
915.073	0.0144181
915.151	0.0144692
915.229	0.0143877
915.308	0.0145194
915.386	0.0144530
915.464	0.0144867
915.542	0.0144363
915.620	0.0144279
915.698	0.0143507
915.776	0.0143389
915.854	0.0143416
915.933	0.0144631
916.011	0.0143641
916.089	0.0143600
916.167	0.0141869
916.245	0.0142933
916.323	0.0143622
916.401	0.0144083
916.479	0.0144148
916.558	0.0142999
916.636	0.0144520
916.714	0.0144508
916.792	0.0144543
916.870	0.0144514
916.948	0.0143694
917.026	0.0145355
917.104	0.0144003
917.183	0.0143919
917.261	0.0144189
917.339	0.0144041
917.417	0.0144223
917.495	0.0143193
917.573	0.0143833
917.651	0.0144159
917.729	0.0144587
917.808	0.0144240
917.886	0.0143479
917.964	0.0145227
918.042	0.0144405
918.120	0.0143925
918.198	0.0144022
918.276	0.0142356
918.354	0.0143766
918.433	0.0144531
918.511	0.0144331
918.589	0.0143975
918.667	0.0143795
918.745	0.0144743
918.823	0.0144840
918.901	0.0145132
918.979	0.0146232
919.058	0.0145467
919.136	0.0143656
919.214	0.0144347
919.292	0.0145780
919.370	0.0146191
919.448	0.0143881
919.526	0.0144349
919.604	0.0144691
919.683	0.0144054
919.761	0.0144871
919.839	0.0144938
919.917	0.0144954
