05/28/2022	14:07:16	Ver.	4.1	UNKNOWN
Optical Delay	599.988409	Delta X		0.078125	Sweeps	1	Scan Rate	0/0
Coordinates	Axis 1	NaN	Axis 2	NaN	Axis 3	NaN	Axis 4	NaN	Axis 5	NaN	Axis 6	0.000000
TX Power	0.000000	RX Power	0.000000

599.988	0.0141866
600.067	0.0140058
600.145	0.0141964
600.223	0.0141348
600.301	0.0141147
600.379	0.0141970
600.457	0.0143842
600.535	0.0141948
600.613	0.0140745
600.692	0.0142023
600.770	0.0141793
600.848	0.0141636
600.926	0.0141985
601.004	0.0141528
601.082	0.0143117
601.160	0.0141455
601.238	0.0141784
601.317	0.0141702
601.395	0.0140760
601.473	0.0142325
601.551	0.0141326
601.629	0.0141962
601.707	0.0142878
601.785	0.0141941
601.863	0.0140853
601.942	0.0143051
602.020	0.0143028
602.098	0.0142781
602.176	0.0142159
602.254	0.0141929
602.332	0.0142704
602.410	0.0142153
602.488	0.0142156
602.567	0.0143256
602.645	0.0142568
602.723	0.0141936
602.801	0.0141647
602.879	0.0141515
602.957	0.0142393
603.035	0.0141943
603.113	0.0142766
603.192	0.0140804
603.270	0.0142622
603.348	0.0142463
603.426	0.0142196
603.504	0.0142180
603.582	0.0142377
603.660	0.0141882
603.738	0.0141988
603.817	0.0142634
603.895	0.0141016
603.973	0.0141643
604.051	0.0142739
604.129	0.0142226
604.207	0.0141615
604.285	0.0142271
604.363	0.0140656
604.442	0.0141407
604.520	0.0142517
604.598	0.0140926
604.676	0.0141637
604.754	0.0142485
604.832	0.0141875
604.910	0.0141928
604.988	0.0141326
605.067	0.0140926
605.145	0.0143126
605.223	0.0141183
605.301	0.0140802
605.379	0.0143093
605.457	0.0142013
605.535	0.0141991
605.613	0.0143225
605.692	0.0142574
605.770	0.0141822
605.848	0.0141314
605.926	0.0142355
606.004	0.0141037
606.082	0.0141618
606.160	0.0140852
606.238	0.0141765
606.317	0.0142648
606.395	0.0142879
606.473	0.0142216
606.551	0.0142575
606.629	0.0141074
606.707	0.0142058
606.785	0.0141342
606.863	0.0141123
606.942	0.0142556
607.020	0.0142278
607.098	0.0142419
607.176	0.0141427
607.254	0.0141182
607.332	0.0141543
607.410	0.0141750
607.488	0.0142494
607.567	0.0141483
607.645	0.0142017
607.723	0.0142935
607.801	0.0143140
607.879	0.0141557
607.957	0.0141158
608.035	0.0141799
608.113	0.0142796
608.192	0.0142892
608.270	0.0141614
608.348	0.0142589
608.426	0.0142807
608.504	0.0142255
608.582	0.0140564
608.660	0.0143486
608.738	0.0142946
608.817	0.0141533
608.895	0.0141109
608.973	0.0142405
609.051	0.0142365
609.129	0.0142050
609.207	0.0143394
609.285	0.0143224
609.363	0.0142174
609.442	0.0141529
609.520	0.0142773
609.598	0.0140878
609.676	0.0141846
609.754	0.0142427
609.832	0.0141244
609.910	0.0141774
609.988	0.0140789
610.067	0.0141237
610.145	0.0141612
610.223	0.0142271
610.301	0.0142102
610.379	0.0141692
610.457	0.0142582
610.535	0.0143513
610.613	0.0141722
610.692	0.0142446
610.770	0.0142274
610.848	0.0141402
610.926	0.0142451
611.004	0.0141001
611.082	0.0142276
611.160	0.0140821
611.238	0.0142704
611.317	0.0142481
611.395	0.0140901
611.473	0.0141946
611.551	0.0142010
611.629	0.0142972
611.707	0.0141793
611.785	0.0142092
611.863	0.0142455
611.942	0.0141532
612.020	0.0142334
612.098	0.0141032
612.176	0.0141925
612.254	0.0142473
612.332	0.0142655
612.410	0.0142108
612.488	0.0141300
612.567	0.0141662
612.645	0.0141026
612.723	0.0141927
612.801	0.0141946
612.879	0.0142099
612.957	0.0142536
613.035	0.0142356
613.113	0.0142331
613.192	0.0141831
613.270	0.0141466
613.348	0.0141517
613.426	0.0142004
613.504	0.0142178
613.582	0.0141895
613.660	0.0142297
613.738	0.0141117
613.817	0.0140628
613.895	0.0142844
613.973	0.0142351
614.051	0.0142353
614.129	0.0141988
614.207	0.0141922
614.285	0.0140253
614.363	0.0142393
614.442	0.0142036
614.520	0.0142323
614.598	0.0142538
614.676	0.0140691
614.754	0.0141032
614.832	0.0140594
614.910	0.0140938
614.988	0.0142885
615.067	0.0142168
615.145	0.0141115
615.223	0.0142515
615.301	0.0142567
615.379	0.0142053
615.457	0.0142512
615.535	0.0141829
615.613	0.0141854
615.692	0.0141477
615.770	0.0143811
615.848	0.0141127
615.926	0.0142914
616.004	0.0142397
616.082	0.0141788
616.160	0.0143232
616.238	0.0141270
616.317	0.0141128
616.395	0.0142220
616.473	0.0140909
616.551	0.0142168
616.629	0.0141438
616.707	0.0141837
616.785	0.0142295
616.863	0.0141666
616.942	0.0142175
617.020	0.0143376
617.098	0.0142716
617.176	0.0141399
617.254	0.0142706
617.332	0.0142314
617.410	0.0141368
617.488	0.0141118
617.567	0.0141818
617.645	0.0142641
617.723	0.0142272
617.801	0.0142500
617.879	0.0142593
617.957	0.0140992
618.035	0.0142934
618.113	0.0141930
618.192	0.0140486
618.270	0.0142773
618.348	0.0142969
618.426	0.0141026
618.504	0.0141088
618.582	0.0142157
618.660	0.0141721
618.738	0.0142256
618.817	0.0142453
618.895	0.0142052
618.973	0.0141663
619.051	0.0142729
619.129	0.0141454
619.207	0.0141772
619.285	0.0142408
619.363	0.0140240
619.442	0.0143183
619.520	0.0141355
619.598	0.0141173
619.676	0.0142544
619.754	0.0141808
619.832	0.0141410
619.910	0.0142892
619.988	0.0142147
620.067	0.0141989
620.145	0.0141386
620.223	0.0141773
620.301	0.0143047
620.379	0.0141662
620.457	0.0141321
620.535	0.0141850
620.613	0.0141669
620.692	0.0141745
620.770	0.0142091
620.848	0.0142216
620.926	0.0143748
621.004	0.0143047
621.082	0.0142440
621.160	0.0142972
621.238	0.0142068
621.317	0.0140926
621.395	0.0141899
621.473	0.0140501
621.551	0.0142022
621.629	0.0141412
621.707	0.0142210
621.785	0.0141380
621.863	0.0140180
621.942	0.0141072
622.020	0.0141781
622.098	0.0142875
622.176	0.0140623
622.254	0.0141127
622.332	0.0142316
622.410	0.0141116
622.488	0.0140963
622.567	0.0142334
622.645	0.0141064
622.723	0.0141434
622.801	0.0140275
622.879	0.0141934
622.957	0.0141306
623.035	0.0142142
623.113	0.0142324
623.192	0.0142108
623.270	0.0140895
623.348	0.0141251
623.426	0.0141862
623.504	0.0142664
623.582	0.0141222
623.660	0.0140205
623.738	0.0140874
623.817	0.0143661
623.895	0.0142175
623.973	0.0141813
624.051	0.0143420
624.129	0.0143314
624.207	0.0142867
624.285	0.0141308
624.363	0.0141524
624.442	0.0142342
624.520	0.0140639
624.598	0.0141343
624.676	0.0142157
624.754	0.0141901
624.832	0.0144087
624.910	0.0142890
624.988	0.0141840
625.067	0.0141305
625.145	0.0142262
625.223	0.0141664
625.301	0.0141875
625.379	0.0141570
625.457	0.0142076
625.535	0.0141341
625.613	0.0143079
625.692	0.0142159
625.770	0.0142914
625.848	0.0141528
625.926	0.0141090
626.004	0.0142409
626.082	0.0142253
626.160	0.0142602
626.238	0.0141372
626.317	0.0142172
626.395	0.0141261
626.473	0.0140448
626.551	0.0141260
626.629	0.0141915
626.707	0.0141625
626.785	0.0141590
626.863	0.0142307
626.942	0.0141637
627.020	0.0140901
627.098	0.0140228
627.176	0.0141151
627.254	0.0143542
627.332	0.0141163
627.410	0.0142190
627.488	0.0140462
627.567	0.0140624
627.645	0.0141959
627.723	0.0142361
627.801	0.0141154
627.879	0.0142003
627.957	0.0143484
628.035	0.0141912
628.113	0.0142284
628.192	0.0140894
628.270	0.0143025
628.348	0.0141787
628.426	0.0142557
628.504	0.0141647
628.582	0.0140535
628.660	0.0141360
628.738	0.0142912
628.817	0.0141870
628.895	0.0142101
628.973	0.0140925
629.051	0.0140876
629.129	0.0141941
629.207	0.0141873
629.285	0.0142421
629.363	0.0141248
629.442	0.0140759
629.520	0.0142428
629.598	0.0142804
629.676	0.0141714
629.754	0.0141438
629.832	0.0141234
629.910	0.0140977
629.988	0.0141093
630.067	0.0141226
630.145	0.0141525
630.223	0.0142455
630.301	0.0141116
630.379	0.0141469
630.457	0.0142896
630.535	0.0141689
630.613	0.0140935
630.692	0.0142248
630.770	0.0141692
630.848	0.0141760
630.926	0.0143037
631.004	0.0143714
631.082	0.0141978
631.160	0.0141243
631.238	0.0141801
631.317	0.0140770
631.395	0.0142709
631.473	0.0143830
631.551	0.0141647
631.629	0.0142173
631.707	0.0140398
631.785	0.0141777
631.863	0.0142287
631.942	0.0142271
632.020	0.0141848
632.098	0.0142697
632.176	0.0143056
632.254	0.0142046
632.332	0.0142766
632.410	0.0142128
632.488	0.0141373
632.567	0.0141901
632.645	0.0142500
632.723	0.0141093
632.801	0.0142741
632.879	0.0141876
632.957	0.0142512
633.035	0.0141070
633.113	0.0142279
633.192	0.0142513
633.270	0.0141492
633.348	0.0143245
633.426	0.0141484
633.504	0.0141196
633.582	0.0142867
633.660	0.0142363
633.738	0.0142799
633.817	0.0141125
633.895	0.0141572
633.973	0.0141267
634.051	0.0141431
634.129	0.0142617
634.207	0.0141637
634.285	0.0141355
634.363	0.0141361
634.442	0.0142142
634.520	0.0141648
634.598	0.0141619
634.676	0.0141309
634.754	0.0142141
634.832	0.0141199
634.910	0.0141918
634.988	0.0142642
635.067	0.0141216
635.145	0.0140557
635.223	0.0141621
635.301	0.0141888
635.379	0.0141448
635.457	0.0141251
635.535	0.0140892
635.613	0.0143391
635.692	0.0141665
635.770	0.0141727
635.848	0.0141179
635.926	0.0140270
636.004	0.0142444
636.082	0.0140784
636.160	0.0141493
636.238	0.0141817
636.317	0.0140804
636.395	0.0141537
636.473	0.0141394
636.551	0.0141795
636.629	0.0141871
636.707	0.0142561
636.785	0.0142868
636.863	0.0141757
636.942	0.0141473
637.020	0.0143094
637.098	0.0142853
637.176	0.0141844
637.254	0.0142553
637.332	0.0141717
637.410	0.0141238
637.488	0.0141075
637.567	0.0143684
637.645	0.0142562
637.723	0.0140851
637.801	0.0141847
637.879	0.0142666
637.957	0.0142429
638.035	0.0142445
638.113	0.0143040
638.192	0.0142196
638.270	0.0142224
638.348	0.0142706
638.426	0.0141789
638.504	0.0140908
638.582	0.0142262
638.660	0.0141696
638.738	0.0142387
638.817	0.0141787
638.895	0.0142340
638.973	0.0141289
639.051	0.0140926
639.129	0.0141743
639.207	0.0141566
639.285	0.0140940
639.363	0.0142424
639.442	0.0143547
639.520	0.0141985
639.598	0.0141415
639.676	0.0141091
639.754	0.0141213
639.832	0.0141640
639.910	0.0140743
639.988	0.0140369
640.067	0.0141862
640.145	0.0143073
640.223	0.0142365
640.301	0.0140985
640.379	0.0141968
640.457	0.0141116
640.535	0.0141615
640.613	0.0142362
640.692	0.0140863
640.770	0.0142044
640.848	0.0140484
640.926	0.0139857
641.004	0.0142082
641.082	0.0142293
641.160	0.0141277
641.238	0.0141343
641.317	0.0141259
641.395	0.0141348
641.473	0.0141466
641.551	0.0141347
641.629	0.0140959
641.707	0.0141673
641.785	0.0141089
641.863	0.0141609
641.942	0.0140892
642.020	0.0141383
642.098	0.0141694
642.176	0.0139658
642.254	0.0140867
642.332	0.0143270
642.410	0.0140476
642.488	0.0142366
642.567	0.0140664
642.645	0.0141238
642.723	0.0141112
642.801	0.0140088
642.879	0.0141269
642.957	0.0141981
643.035	0.0141945
643.113	0.0141000
643.192	0.0141708
643.270	0.0141997
643.348	0.0140949
643.426	0.0141228
643.504	0.0141782
643.582	0.0141239
643.660	0.0141303
643.738	0.0141786
643.817	0.0140208
643.895	0.0139858
643.973	0.0140967
644.051	0.0142214
644.129	0.0142104
644.207	0.0139677
644.285	0.0142078
644.363	0.0142640
644.442	0.0141226
644.520	0.0141462
644.598	0.0142024
644.676	0.0141859
644.754	0.0141100
644.832	0.0142390
644.910	0.0142428
644.988	0.0142125
645.067	0.0141651
645.145	0.0140997
645.223	0.0141551
645.301	0.0141173
645.379	0.0140961
645.457	0.0144167
645.535	0.0140836
645.613	0.0139281
645.692	0.0141121
645.770	0.0142307
645.848	0.0142799
645.926	0.0141444
646.004	0.0140509
646.082	0.0140417
646.160	0.0141547
646.238	0.0140938
646.317	0.0141716
646.395	0.0142002
646.473	0.0141448
646.551	0.0141787
646.629	0.0142289
646.707	0.0140816
646.785	0.0142677
646.863	0.0140722
646.942	0.0141440
647.020	0.0141035
647.098	0.0141690
647.176	0.0140822
647.254	0.0140054
647.332	0.0141319
647.410	0.0141898
647.488	0.0140567
647.567	0.0140871
647.645	0.0142448
647.723	0.0141810
647.801	0.0141403
647.879	0.0140555
647.957	0.0142266
648.035	0.0141020
648.113	0.0141364
648.192	0.0141023
648.270	0.0142252
648.348	0.0141869
648.426	0.0142101
648.504	0.0141261
648.582	0.0140955
648.660	0.0141119
648.738	0.0141315
648.817	0.0140529
648.895	0.0140737
648.973	0.0141319
649.051	0.0141771
649.129	0.0141647
649.207	0.0141386
649.285	0.0141409
649.363	0.0141328
649.442	0.0143108
649.520	0.0140911
649.598	0.0141332
649.676	0.0142390
649.754	0.0140837
649.832	0.0141300
649.910	0.0141705
649.988	0.0140881
650.067	0.0140848
650.145	0.0140399
650.223	0.0140998
650.301	0.0141721
650.379	0.0142635
650.457	0.0141974
650.535	0.0141209
650.613	0.0141686
650.692	0.0141750
650.770	0.0139979
650.848	0.0142126
650.926	0.0142421
651.004	0.0143147
651.082	0.0141265
651.160	0.0141540
651.238	0.0142002
651.317	0.0142060
651.395	0.0140898
651.473	0.0141838
651.551	0.0142036
651.629	0.0141151
651.707	0.0142271
651.785	0.0141361
651.863	0.0142411
651.942	0.0141425
652.020	0.0141846
652.098	0.0142617
652.176	0.0141766
652.254	0.0141367
652.332	0.0140566
652.410	0.0142250
652.488	0.0141895
652.567	0.0142283
652.645	0.0142512
652.723	0.0140221
652.801	0.0142499
652.879	0.0141985
652.957	0.0142155
653.035	0.0142426
653.113	0.0141170
653.192	0.0141733
653.270	0.0141477
653.348	0.0142954
653.426	0.0142246
653.504	0.0141587
653.582	0.0140582
653.660	0.0140932
653.738	0.0143813
653.817	0.0142813
653.895	0.0141689
653.973	0.0142249
654.051	0.0141670
654.129	0.0142128
654.207	0.0143633
654.285	0.0142021
654.363	0.0141307
654.442	0.0142410
654.520	0.0141743
654.598	0.0142081
654.676	0.0142455
654.754	0.0141470
654.832	0.0141415
654.910	0.0142520
654.988	0.0142087
655.067	0.0139930
655.145	0.0142670
655.223	0.0140717
655.301	0.0142188
655.379	0.0142460
655.457	0.0141328
655.535	0.0140214
655.613	0.0140406
655.692	0.0140688
655.770	0.0143692
655.848	0.0141388
655.926	0.0140614
656.004	0.0141817
656.082	0.0141206
656.160	0.0140869
656.238	0.0141209
656.317	0.0141606
656.395	0.0142468
656.473	0.0140491
656.551	0.0140997
656.629	0.0141375
656.707	0.0142269
656.785	0.0141547
656.863	0.0141382
656.942	0.0140931
657.020	0.0141778
657.098	0.0142866
657.176	0.0142426
657.254	0.0142712
657.332	0.0141245
657.410	0.0141895
657.488	0.0142108
657.567	0.0141992
657.645	0.0141165
657.723	0.0141691
657.801	0.0142588
657.879	0.0143085
657.957	0.0142859
658.035	0.0142668
658.113	0.0142149
658.192	0.0142345
658.270	0.0141146
658.348	0.0141853
658.426	0.0142683
658.504	0.0142371
658.582	0.0143375
658.660	0.0142248
658.738	0.0142129
658.817	0.0142271
658.895	0.0141191
658.973	0.0142875
659.051	0.0142103
659.129	0.0141711
659.207	0.0141607
659.285	0.0141290
659.363	0.0141940
659.442	0.0140596
659.520	0.0142789
659.598	0.0141785
659.676	0.0142118
659.754	0.0142450
659.832	0.0140912
659.910	0.0140403
659.988	0.0140451
660.067	0.0142560
660.145	0.0141664
660.223	0.0140026
660.301	0.0141209
660.379	0.0142357
660.457	0.0142866
660.535	0.0141451
660.613	0.0140968
660.692	0.0141871
660.770	0.0141572
660.848	0.0141010
660.926	0.0141157
661.004	0.0141581
661.082	0.0141905
661.160	0.0141401
661.238	0.0141148
661.317	0.0140704
661.395	0.0142058
661.473	0.0141579
661.551	0.0141347
661.629	0.0141106
661.707	0.0143042
661.785	0.0141810
661.863	0.0140681
661.942	0.0142761
662.020	0.0142254
662.098	0.0139234
662.176	0.0141600
662.254	0.0142106
662.332	0.0142503
662.410	0.0141418
662.488	0.0140814
662.567	0.0142915
662.645	0.0141732
662.723	0.0141658
662.801	0.0141221
662.879	0.0143064
662.957	0.0142432
663.035	0.0142656
663.113	0.0142978
663.192	0.0141885
663.270	0.0141821
663.348	0.0143139
663.426	0.0143288
663.504	0.0142483
663.582	0.0142035
663.660	0.0142542
663.738	0.0143108
663.817	0.0142704
663.895	0.0143568
663.973	0.0144411
664.051	0.0141558
664.129	0.0141315
664.207	0.0142680
664.285	0.0141950
664.363	0.0141659
664.442	0.0141066
664.520	0.0142203
664.598	0.0141685
664.676	0.0142482
664.754	0.0141100
664.832	0.0141029
664.910	0.0140766
664.988	0.0139659
665.067	0.0139499
665.145	0.0141772
665.223	0.0142438
665.301	0.0140183
665.379	0.0140765
665.457	0.0140790
665.535	0.0142217
665.613	0.0141539
665.692	0.0142190
665.770	0.0143976
665.848	0.0143643
665.926	0.0145355
666.004	0.0144409
666.082	0.0144190
666.160	0.0145688
666.238	0.0144939
666.317	0.0145112
666.395	0.0145009
666.473	0.0146297
666.551	0.0145997
666.629	0.0142806
666.707	0.0143158
666.785	0.0143296
666.863	0.0141952
666.942	0.0140035
667.020	0.0138843
667.098	0.0135970
667.176	0.0135686
667.254	0.0133749
667.332	0.0134009
667.410	0.0134497
667.488	0.0134020
667.567	0.0134957
667.645	0.0134099
667.723	0.0134842
667.801	0.0137928
667.879	0.0138364
667.957	0.0139254
668.035	0.0139863
668.113	0.0140948
668.192	0.0142966
668.270	0.0142267
668.348	0.0141923
668.426	0.0143748
668.504	0.0143495
668.582	0.0145010
668.660	0.0144205
668.738	0.0146062
668.817	0.0145036
668.895	0.0144291
668.973	0.0144997
669.051	0.0145475
669.129	0.0145470
669.207	0.0143478
669.285	0.0144244
669.363	0.0144176
669.442	0.0142706
669.520	0.0143345
669.598	0.0144246
669.676	0.0141877
669.754	0.0144644
669.832	0.0145154
669.910	0.0145271
669.988	0.0145416
670.067	0.0146319
670.145	0.0147398
670.223	0.0146107
670.301	0.0146336
670.379	0.0146787
670.457	0.0145654
670.535	0.0144782
670.613	0.0144077
670.692	0.0142094
670.770	0.0140601
670.848	0.0139510
670.926	0.0135911
671.004	0.0136322
671.082	0.0134262
671.160	0.0132469
671.238	0.0132211
671.317	0.0131287
671.395	0.0132058
671.473	0.0129149
671.551	0.0128987
671.629	0.0131016
671.707	0.0129628
671.785	0.0132584
671.863	0.0132190
671.942	0.0132944
672.020	0.0134169
672.098	0.0133337
672.176	0.0135458
672.254	0.0136952
672.332	0.0140055
672.410	0.0141479
672.488	0.0142352
672.567	0.0145383
672.645	0.0149590
672.723	0.0150195
672.801	0.0152253
672.879	0.0153212
672.957	0.0153323
673.035	0.0153248
673.113	0.0151971
673.192	0.0152751
673.270	0.0149800
673.348	0.0148149
673.426	0.0148177
673.504	0.0148238
673.582	0.0146561
673.660	0.0146938
673.738	0.0146628
673.817	0.0145824
673.895	0.0147143
673.973	0.0146833
674.051	0.0146095
674.129	0.0146438
674.207	0.0144781
674.285	0.0144191
674.363	0.0144746
674.442	0.0143923
674.520	0.0143424
674.598	0.0143687
674.676	0.0142994
674.754	0.0143037
674.832	0.0141534
674.910	0.0141892
674.988	0.0141002
675.067	0.0141185
675.145	0.0140532
675.223	0.0138779
675.301	0.0136393
675.379	0.0136479
675.457	0.0133968
675.535	0.0131503
675.613	0.0130071
675.692	0.0128181
675.770	0.0127813
675.848	0.0123941
675.926	0.0124432
676.004	0.0124680
676.082	0.0123042
676.160	0.0123599
676.238	0.0123776
676.317	0.0124483
676.395	0.0124135
676.473	0.0127134
676.551	0.0129233
676.629	0.0131319
676.707	0.0133650
676.785	0.0138001
676.863	0.0141646
676.942	0.0144637
677.020	0.0147843
677.098	0.0149493
677.176	0.0152046
677.254	0.0154303
677.332	0.0156182
677.410	0.0156500
677.488	0.0158362
677.567	0.0157738
677.645	0.0157790
677.723	0.0157520
677.801	0.0155484
677.879	0.0156470
677.957	0.0155881
678.035	0.0156454
678.113	0.0156746
678.192	0.0155199
678.270	0.0155663
678.348	0.0156973
678.426	0.0154671
678.504	0.0154614
678.582	0.0153522
678.660	0.0152233
678.738	0.0150264
678.817	0.0149310
678.895	0.0146407
678.973	0.0145126
679.051	0.0144733
679.129	0.0142676
679.207	0.0141959
679.285	0.0140912
679.363	0.0138010
679.442	0.0137584
679.520	0.0137119
679.598	0.0134818
679.676	0.0133021
679.754	0.0129188
679.832	0.0127798
679.910	0.0126312
679.988	0.0124214
680.067	0.0122915
680.145	0.0124475
680.223	0.0122329
680.301	0.0122697
680.379	0.0124310
680.457	0.0122009
680.535	0.0123879
680.613	0.0126743
680.692	0.0127878
680.770	0.0127109
680.848	0.0128557
680.926	0.0132240
681.004	0.0133139
681.082	0.0132505
681.160	0.0135285
681.238	0.0139392
681.317	0.0140574
681.395	0.0143381
681.473	0.0146387
681.551	0.0147547
681.629	0.0149007
681.707	0.0150691
681.785	0.0150938
681.863	0.0149641
681.942	0.0148573
682.020	0.0147244
682.098	0.0147768
682.176	0.0147514
682.254	0.0144273
682.332	0.0144344
682.410	0.0143701
682.488	0.0142633
682.567	0.0143792
682.645	0.0143661
682.723	0.0145245
682.801	0.0147749
682.879	0.0150241
682.957	0.0152405
683.035	0.0154608
683.113	0.0157271
683.192	0.0160920
683.270	0.0162722
683.348	0.0164678
683.426	0.0166517
683.504	0.0167217
683.582	0.0167123
683.660	0.0166072
683.738	0.0164553
683.817	0.0162565
683.895	0.0158170
683.973	0.0155716
684.051	0.0151627
684.129	0.0147351
684.207	0.0144112
684.285	0.0141170
684.363	0.0137240
684.442	0.0133441
684.520	0.0129920
684.598	0.0126558
684.676	0.0124272
684.754	0.0122722
684.832	0.0121071
684.910	0.0119331
684.988	0.0119164
685.067	0.0120414
685.145	0.0119061
685.223	0.0120334
685.301	0.0120822
685.379	0.0122793
685.457	0.0123212
685.535	0.0124876
685.613	0.0125121
685.692	0.0124361
685.770	0.0126132
685.848	0.0127150
685.926	0.0125897
686.004	0.0126138
686.082	0.0127961
686.160	0.0129726
686.238	0.0129587
686.317	0.0132060
686.395	0.0132307
686.473	0.0134880
686.551	0.0137961
686.629	0.0137861
686.707	0.0141646
686.785	0.0145097
686.863	0.0146973
686.942	0.0151183
687.020	0.0151418
687.098	0.0153027
687.176	0.0157798
687.254	0.0158829
687.332	0.0160412
687.410	0.0160489
687.488	0.0161404
687.567	0.0164417
687.645	0.0163468
687.723	0.0164406
687.801	0.0163240
687.879	0.0162709
687.957	0.0161002
688.035	0.0160471
688.113	0.0158433
688.192	0.0157793
688.270	0.0157298
688.348	0.0157424
688.426	0.0156499
688.504	0.0155051
688.582	0.0156276
688.660	0.0157732
688.738	0.0156544
688.817	0.0154099
688.895	0.0155555
688.973	0.0153452
689.051	0.0150548
689.129	0.0149063
689.207	0.0147888
689.285	0.0143860
689.363	0.0139231
689.442	0.0137975
689.520	0.0133593
689.598	0.0130941
689.676	0.0128490
689.754	0.0125623
689.832	0.0123376
689.910	0.0121935
689.988	0.0120644
690.067	0.0120241
690.145	0.0117223
690.223	0.0118441
690.301	0.0118422
690.379	0.0117287
690.457	0.0118123
690.535	0.0118029
690.613	0.0116436
690.692	0.0117999
690.770	0.0120197
690.848	0.0120927
690.926	0.0121480
691.004	0.0125193
691.082	0.0128001
691.160	0.0130020
691.238	0.0132061
691.317	0.0135173
691.395	0.0138066
691.473	0.0139695
691.551	0.0144275
691.629	0.0145958
691.707	0.0147613
691.785	0.0148575
691.863	0.0151050
691.942	0.0150637
692.020	0.0151993
692.098	0.0151926
692.176	0.0151908
692.254	0.0153881
692.332	0.0152480
692.410	0.0151549
692.488	0.0150778
692.567	0.0150229
692.645	0.0150536
692.723	0.0151951
692.801	0.0151283
692.879	0.0153066
692.957	0.0154642
693.035	0.0154820
693.113	0.0157727
693.192	0.0157563
693.270	0.0160638
693.348	0.0160347
693.426	0.0160841
693.504	0.0162544
693.582	0.0161695
693.660	0.0162318
693.738	0.0160541
693.817	0.0159448
693.895	0.0158656
693.973	0.0156731
694.051	0.0155331
694.129	0.0151993
694.207	0.0148490
694.285	0.0143832
694.363	0.0140553
694.442	0.0137803
694.520	0.0134104
694.598	0.0130742
694.676	0.0129190
694.754	0.0126713
694.832	0.0122835
694.910	0.0122712
694.988	0.0123350
695.067	0.0123409
695.145	0.0122770
695.223	0.0124339
695.301	0.0126397
695.379	0.0126640
695.457	0.0126877
695.535	0.0129379
695.613	0.0130119
695.692	0.0132983
695.770	0.0133225
695.848	0.0134040
695.926	0.0135989
696.004	0.0136972
696.082	0.0138599
696.160	0.0138052
696.238	0.0140236
696.317	0.0139151
696.395	0.0140697
696.473	0.0142039
696.551	0.0140071
696.629	0.0140170
696.707	0.0140450
696.785	0.0139109
696.863	0.0137611
696.942	0.0138474
697.020	0.0138523
697.098	0.0136933
697.176	0.0137115
697.254	0.0138021
697.332	0.0138108
697.410	0.0137702
697.488	0.0139762
697.567	0.0139524
697.645	0.0141785
697.723	0.0142892
697.801	0.0144871
697.879	0.0148214
697.957	0.0148130
698.035	0.0148321
698.113	0.0150196
698.192	0.0152838
698.270	0.0151894
698.348	0.0153584
698.426	0.0153622
698.504	0.0152243
698.582	0.0154079
698.660	0.0152457
698.738	0.0150578
698.817	0.0151686
698.895	0.0149401
698.973	0.0150049
699.051	0.0148174
699.129	0.0146265
699.207	0.0145557
699.285	0.0144041
699.363	0.0142738
699.442	0.0142775
699.520	0.0141159
699.598	0.0142287
699.676	0.0141363
699.754	0.0141196
699.832	0.0140577
699.910	0.0142321
699.988	0.0142896
700.067	0.0142020
700.145	0.0142881
700.223	0.0142314
700.301	0.0142384
700.379	0.0141346
700.457	0.0141889
700.535	0.0140867
700.613	0.0141032
700.692	0.0140964
700.770	0.0141244
700.848	0.0139962
700.926	0.0139996
701.004	0.0141348
701.082	0.0140292
701.160	0.0139736
701.238	0.0139344
701.317	0.0140453
701.395	0.0140630
701.473	0.0140642
701.551	0.0140969
701.629	0.0137952
701.707	0.0136848
701.785	0.0137231
701.863	0.0138470
701.942	0.0135844
702.020	0.0137098
702.098	0.0136320
702.176	0.0135527
702.254	0.0134688
702.332	0.0134086
702.410	0.0134877
702.488	0.0133721
702.567	0.0133916
702.645	0.0134985
702.723	0.0133862
702.801	0.0134310
702.879	0.0134674
702.957	0.0135591
703.035	0.0135484
703.113	0.0135478
703.192	0.0134756
703.270	0.0136324
703.348	0.0137666
703.426	0.0138339
703.504	0.0138454
703.582	0.0140788
703.660	0.0141533
703.738	0.0143350
703.817	0.0144401
703.895	0.0145286
703.973	0.0147362
704.051	0.0148840
704.129	0.0147448
704.207	0.0149365
704.285	0.0150686
704.363	0.0151424
704.442	0.0152457
704.520	0.0153175
704.598	0.0152161
704.676	0.0153026
704.754	0.0155017
704.832	0.0154570
704.910	0.0155912
704.988	0.0155694
705.067	0.0154155
705.145	0.0153656
705.223	0.0155677
705.301	0.0154105
705.379	0.0155125
705.457	0.0152853
705.535	0.0151205
705.613	0.0148585
705.692	0.0147535
705.770	0.0146146
705.848	0.0142878
705.926	0.0140740
706.004	0.0139409
706.082	0.0138604
706.160	0.0138113
706.238	0.0135263
706.317	0.0135069
706.395	0.0133646
706.473	0.0133164
706.551	0.0133976
706.629	0.0131958
706.707	0.0132352
706.785	0.0132737
706.863	0.0133523
706.942	0.0132762
707.020	0.0131073
707.098	0.0131673
707.176	0.0133477
707.254	0.0133308
707.332	0.0133450
707.410	0.0134715
707.488	0.0134452
707.567	0.0136191
707.645	0.0134085
707.723	0.0135522
707.801	0.0135944
707.879	0.0136529
707.957	0.0136432
708.035	0.0136758
708.113	0.0135993
708.192	0.0137463
708.270	0.0138224
708.348	0.0134816
708.426	0.0135428
708.504	0.0135666
708.582	0.0137302
708.660	0.0137853
708.738	0.0137354
708.817	0.0139334
708.895	0.0140586
708.973	0.0141167
709.051	0.0141331
709.129	0.0141634
709.207	0.0143353
709.285	0.0143320
709.363	0.0146069
709.442	0.0147768
709.520	0.0148913
709.598	0.0148528
709.676	0.0150645
709.754	0.0152675
709.832	0.0153377
709.910	0.0154385
709.988	0.0154781
710.067	0.0157826
710.145	0.0156465
710.223	0.0157667
710.301	0.0159636
710.379	0.0157723
710.457	0.0156300
710.535	0.0154277
710.613	0.0154054
710.692	0.0152925
710.770	0.0151001
710.848	0.0146729
710.926	0.0144096
711.004	0.0141924
711.082	0.0140591
711.160	0.0140582
711.238	0.0137791
711.317	0.0135954
711.395	0.0137320
711.473	0.0135493
711.551	0.0134770
711.629	0.0135428
711.707	0.0134118
711.785	0.0134451
711.863	0.0134598
711.942	0.0134938
712.020	0.0134972
712.098	0.0134992
712.176	0.0134479
712.254	0.0133907
712.332	0.0136069
712.410	0.0134608
712.488	0.0134424
712.567	0.0134606
712.645	0.0136480
712.723	0.0135941
712.801	0.0137791
712.879	0.0138678
712.957	0.0137820
713.035	0.0138368
713.113	0.0139539
713.192	0.0137661
713.270	0.0137803
713.348	0.0137112
713.426	0.0136707
713.504	0.0136716
713.582	0.0138132
713.660	0.0135337
713.738	0.0137168
713.817	0.0137602
713.895	0.0138358
713.973	0.0138268
714.051	0.0140968
714.129	0.0142159
714.207	0.0143877
714.285	0.0146751
714.363	0.0147324
714.442	0.0148463
714.520	0.0150835
714.598	0.0150863
714.676	0.0152131
714.754	0.0150412
714.832	0.0154596
714.910	0.0152995
714.988	0.0151940
715.067	0.0151543
715.145	0.0149904
715.223	0.0148560
715.301	0.0148952
715.379	0.0146989
715.457	0.0146804
715.535	0.0147052
715.613	0.0145679
715.692	0.0145630
715.770	0.0144572
715.848	0.0145302
715.926	0.0144642
716.004	0.0143455
716.082	0.0141660
716.160	0.0144434
716.238	0.0142869
716.317	0.0141224
716.395	0.0141113
716.473	0.0138278
716.551	0.0137707
716.629	0.0136324
716.707	0.0136195
716.785	0.0134910
716.863	0.0133404
716.942	0.0133478
717.020	0.0133083
717.098	0.0132883
717.176	0.0133431
717.254	0.0133861
717.332	0.0136210
717.410	0.0138871
717.488	0.0138383
717.567	0.0140657
717.645	0.0141747
717.723	0.0143644
717.801	0.0145214
717.879	0.0145197
717.957	0.0146228
718.035	0.0144794
718.113	0.0146644
718.192	0.0144626
718.270	0.0145279
718.348	0.0145506
718.426	0.0145270
718.504	0.0144514
718.582	0.0144575
718.660	0.0143803
718.738	0.0142589
718.817	0.0141720
718.895	0.0141786
718.973	0.0142181
719.051	0.0141245
719.129	0.0141547
719.207	0.0142177
719.285	0.0140356
719.363	0.0142673
719.442	0.0143827
719.520	0.0144033
719.598	0.0143497
719.676	0.0144548
719.754	0.0144949
719.832	0.0145741
719.910	0.0145413
719.988	0.0145125
720.067	0.0144540
720.145	0.0144533
720.223	0.0142352
720.301	0.0141737
720.379	0.0142118
720.457	0.0140352
720.535	0.0137268
720.613	0.0136302
720.692	0.0134615
720.770	0.0135509
720.848	0.0133689
720.926	0.0132993
721.004	0.0133587
721.082	0.0133592
721.160	0.0133392
721.238	0.0133070
721.317	0.0135374
721.395	0.0135743
721.473	0.0138452
721.551	0.0139324
721.629	0.0140726
721.707	0.0141669
721.785	0.0143682
721.863	0.0145628
721.942	0.0146123
722.020	0.0147535
722.098	0.0146783
722.176	0.0148210
722.254	0.0149461
722.332	0.0148236
722.410	0.0148327
722.488	0.0149425
722.567	0.0148987
722.645	0.0147034
722.723	0.0147298
722.801	0.0148099
722.879	0.0146801
722.957	0.0146090
723.035	0.0145484
723.113	0.0144591
723.192	0.0146177
723.270	0.0145950
723.348	0.0144164
723.426	0.0145058
723.504	0.0143922
723.582	0.0145689
723.660	0.0143729
723.738	0.0143356
723.817	0.0144170
723.895	0.0143700
723.973	0.0144077
724.051	0.0142037
724.129	0.0140310
724.207	0.0139574
724.285	0.0136690
724.363	0.0135743
724.442	0.0135677
724.520	0.0134701
724.598	0.0132545
724.676	0.0131561
724.754	0.0131462
724.832	0.0132568
724.910	0.0133669
724.988	0.0134039
725.067	0.0135243
725.145	0.0136250
725.223	0.0136861
725.301	0.0138814
725.379	0.0141128
725.457	0.0140549
725.535	0.0141699
725.613	0.0143903
725.692	0.0145301
725.770	0.0146163
725.848	0.0147371
725.926	0.0145588
726.004	0.0146707
726.082	0.0145934
726.160	0.0144798
726.238	0.0143424
726.317	0.0141999
726.395	0.0140443
726.473	0.0140451
726.551	0.0140090
726.629	0.0139027
726.707	0.0137286
726.785	0.0138020
726.863	0.0138048
726.942	0.0138199
727.020	0.0137653
727.098	0.0138689
727.176	0.0138634
727.254	0.0139485
727.332	0.0142722
727.410	0.0144111
727.488	0.0143703
727.567	0.0146329
727.645	0.0147875
727.723	0.0147983
727.801	0.0148530
727.879	0.0150261
727.957	0.0148959
728.035	0.0149014
728.113	0.0149971
728.192	0.0149316
728.270	0.0148801
728.348	0.0148462
728.426	0.0145610
728.504	0.0144962
728.582	0.0145782
728.660	0.0145327
728.738	0.0142401
728.817	0.0143071
728.895	0.0141262
728.973	0.0140240
729.051	0.0141512
729.129	0.0139084
729.207	0.0138705
729.285	0.0138308
729.363	0.0137403
729.442	0.0137508
729.520	0.0137315
729.598	0.0137346
729.676	0.0136906
729.754	0.0137597
729.832	0.0135873
729.910	0.0136461
729.988	0.0136520
730.067	0.0135930
730.145	0.0135643
730.223	0.0136065
730.301	0.0137257
730.379	0.0137782
730.457	0.0138710
730.535	0.0139252
730.613	0.0139543
730.692	0.0140321
730.770	0.0142746
730.848	0.0144052
730.926	0.0144115
731.004	0.0144065
731.082	0.0146896
731.160	0.0146450
731.238	0.0145721
731.317	0.0147575
731.395	0.0146048
731.473	0.0144576
731.551	0.0144968
731.629	0.0142828
731.707	0.0142910
731.785	0.0141964
731.863	0.0141299
731.942	0.0143397
732.020	0.0140683
732.098	0.0138957
732.176	0.0139858
732.254	0.0139278
732.332	0.0138548
732.410	0.0139018
732.488	0.0140746
732.567	0.0139964
732.645	0.0139848
732.723	0.0140131
732.801	0.0140639
732.879	0.0142168
732.957	0.0142221
733.035	0.0143714
733.113	0.0143150
733.192	0.0145284
733.270	0.0146725
733.348	0.0147186
733.426	0.0146840
733.504	0.0146539
733.582	0.0149287
733.660	0.0149148
733.738	0.0148603
733.817	0.0146309
733.895	0.0147484
733.973	0.0146027
734.051	0.0145827
734.129	0.0143243
734.207	0.0143002
734.285	0.0140539
734.363	0.0139668
734.442	0.0138620
734.520	0.0138942
734.598	0.0138926
734.676	0.0137416
734.754	0.0136751
734.832	0.0137711
734.910	0.0138078
734.988	0.0135878
735.067	0.0136312
735.145	0.0137849
735.223	0.0138200
735.301	0.0137486
735.379	0.0136950
735.457	0.0138175
735.535	0.0139822
735.613	0.0139539
735.692	0.0139490
735.770	0.0138918
735.848	0.0138318
735.926	0.0139197
736.004	0.0140051
736.082	0.0139813
736.160	0.0139972
736.238	0.0141962
736.317	0.0140257
736.395	0.0141348
736.473	0.0141412
736.551	0.0139458
736.629	0.0141477
736.707	0.0141864
736.785	0.0142001
736.863	0.0143184
736.942	0.0142056
737.020	0.0141425
737.098	0.0142123
737.176	0.0139899
737.254	0.0141302
737.332	0.0140781
737.410	0.0142302
737.488	0.0142343
737.567	0.0141777
737.645	0.0142223
737.723	0.0141840
737.801	0.0143193
737.879	0.0142931
737.957	0.0143352
738.035	0.0143312
738.113	0.0144518
738.192	0.0145537
738.270	0.0145801
738.348	0.0145685
738.426	0.0145718
738.504	0.0146527
738.582	0.0146616
738.660	0.0147815
738.738	0.0146473
738.817	0.0147985
738.895	0.0146835
738.973	0.0144839
739.051	0.0145212
739.129	0.0146467
739.207	0.0144025
739.285	0.0144360
739.363	0.0141922
739.442	0.0142710
739.520	0.0140607
739.598	0.0141616
739.676	0.0139835
739.754	0.0139493
739.832	0.0139545
739.910	0.0138998
739.988	0.0138213
740.067	0.0139010
740.145	0.0138954
740.223	0.0138697
740.301	0.0137932
740.379	0.0138215
740.457	0.0140504
740.535	0.0138266
740.613	0.0140000
740.692	0.0136893
740.770	0.0138486
740.848	0.0140687
740.926	0.0138836
741.004	0.0138596
741.082	0.0141588
741.160	0.0141873
741.238	0.0140373
741.317	0.0140894
741.395	0.0140755
741.473	0.0141414
741.551	0.0141582
741.629	0.0139971
741.707	0.0139262
741.785	0.0140062
741.863	0.0139263
741.942	0.0138383
742.020	0.0138454
742.098	0.0137888
742.176	0.0139483
742.254	0.0138995
742.332	0.0139093
742.410	0.0139588
742.488	0.0141090
742.567	0.0140972
742.645	0.0142351
742.723	0.0141999
742.801	0.0142301
742.879	0.0143149
742.957	0.0144148
743.035	0.0142756
743.113	0.0144001
743.192	0.0144769
743.270	0.0144643
743.348	0.0143837
743.426	0.0142596
743.504	0.0143008
743.582	0.0144476
743.660	0.0143584
743.738	0.0143616
743.817	0.0143532
743.895	0.0144243
743.973	0.0144327
744.051	0.0144139
744.129	0.0143899
744.207	0.0143433
744.285	0.0143990
744.363	0.0144181
744.442	0.0144772
744.520	0.0144358
744.598	0.0142941
744.676	0.0142382
744.754	0.0141930
744.832	0.0141762
744.910	0.0142059
744.988	0.0142078
745.067	0.0140551
745.145	0.0139645
745.223	0.0139386
745.301	0.0141528
745.379	0.0139929
745.457	0.0140446
745.535	0.0140394
745.613	0.0140649
745.692	0.0140985
745.770	0.0140468
745.848	0.0140532
745.926	0.0141584
746.004	0.0141778
746.082	0.0142390
746.160	0.0141611
746.238	0.0143979
746.317	0.0143129
746.395	0.0144049
746.473	0.0143172
746.551	0.0143356
746.629	0.0143810
746.707	0.0144168
746.785	0.0141658
746.863	0.0142020
746.942	0.0141006
747.020	0.0140019
747.098	0.0138978
747.176	0.0139540
747.254	0.0139032
747.332	0.0136880
747.410	0.0136884
747.488	0.0136714
747.567	0.0137160
747.645	0.0138609
747.723	0.0136133
747.801	0.0136917
747.879	0.0138744
747.957	0.0137925
748.035	0.0139185
748.113	0.0137930
748.192	0.0138968
748.270	0.0139146
748.348	0.0140680
748.426	0.0141311
748.504	0.0141191
748.582	0.0141437
748.660	0.0143220
748.738	0.0141375
748.817	0.0143424
748.895	0.0144057
748.973	0.0144061
749.051	0.0145238
749.129	0.0146393
749.207	0.0146452
749.285	0.0145598
749.363	0.0146818
749.442	0.0146963
749.520	0.0145484
749.598	0.0145263
749.676	0.0145525
749.754	0.0144689
749.832	0.0144150
749.910	0.0144067
749.988	0.0143149
750.067	0.0141351
750.145	0.0141879
750.223	0.0142746
750.301	0.0140577
750.379	0.0140237
750.457	0.0141301
750.535	0.0140337
750.613	0.0139100
750.692	0.0138762
750.770	0.0138737
750.848	0.0140027
750.926	0.0139454
751.004	0.0139278
751.082	0.0138904
751.160	0.0139924
751.238	0.0139910
751.317	0.0140705
751.395	0.0139003
751.473	0.0143314
751.551	0.0143115
751.629	0.0143224
751.707	0.0143578
751.785	0.0143048
751.863	0.0144105
751.942	0.0144582
752.020	0.0144447
752.098	0.0143958
752.176	0.0143668
752.254	0.0144097
752.332	0.0143559
752.410	0.0143562
752.488	0.0143012
752.567	0.0142859
752.645	0.0142295
752.723	0.0140976
752.801	0.0141556
752.879	0.0141633
752.957	0.0140476
753.035	0.0139672
753.113	0.0139542
753.192	0.0138187
753.270	0.0138314
753.348	0.0138047
753.426	0.0138096
753.504	0.0138397
753.582	0.0138744
753.660	0.0137874
753.738	0.0138643
753.817	0.0139481
753.895	0.0139257
753.973	0.0140108
754.051	0.0141228
754.129	0.0142885
754.207	0.0142854
754.285	0.0143237
754.363	0.0142320
754.442	0.0142184
754.520	0.0145345
754.598	0.0144547
754.676	0.0143559
754.754	0.0144773
754.832	0.0145021
754.910	0.0143808
754.988	0.0145389
755.067	0.0143604
755.145	0.0142770
755.223	0.0141124
755.301	0.0141674
755.379	0.0142451
755.457	0.0142030
755.535	0.0140811
755.613	0.0141037
755.692	0.0140150
755.770	0.0138984
755.848	0.0140204
755.926	0.0140929
756.004	0.0140756
756.082	0.0139658
756.160	0.0140657
756.238	0.0141945
756.317	0.0139776
756.395	0.0143094
756.473	0.0143034
756.551	0.0143314
756.629	0.0142963
756.707	0.0143634
756.785	0.0144104
756.863	0.0142554
756.942	0.0144425
757.020	0.0145704
757.098	0.0144438
757.176	0.0145650
757.254	0.0145258
757.332	0.0143962
757.410	0.0144929
757.488	0.0145010
757.567	0.0144537
757.645	0.0144689
757.723	0.0143168
757.801	0.0144252
757.879	0.0143381
757.957	0.0143671
758.035	0.0142321
758.113	0.0141247
758.192	0.0141422
758.270	0.0141078
758.348	0.0141174
758.426	0.0140234
758.504	0.0140331
758.582	0.0140434
758.660	0.0140668
758.738	0.0140660
758.817	0.0138240
758.895	0.0138917
758.973	0.0139331
759.051	0.0139062
759.129	0.0138883
759.207	0.0140533
759.285	0.0140413
759.363	0.0139172
759.442	0.0139977
759.520	0.0140054
759.598	0.0140134
759.676	0.0141165
759.754	0.0141589
759.832	0.0142228
759.910	0.0141277
759.988	0.0142435
760.067	0.0141334
760.145	0.0141126
760.223	0.0141010
760.301	0.0139671
760.379	0.0139600
760.457	0.0140539
760.535	0.0141260
760.613	0.0141364
760.692	0.0141176
760.770	0.0140369
760.848	0.0140620
760.926	0.0140173
761.004	0.0140755
761.082	0.0142783
761.160	0.0140915
761.238	0.0141373
761.317	0.0142014
761.395	0.0142825
761.473	0.0143308
761.551	0.0143216
761.629	0.0143047
761.707	0.0143641
761.785	0.0143296
761.863	0.0144117
761.942	0.0145428
762.020	0.0144571
762.098	0.0146178
762.176	0.0145920
762.254	0.0145953
762.332	0.0144334
762.410	0.0144356
762.488	0.0143932
762.567	0.0143313
762.645	0.0143391
762.723	0.0144765
762.801	0.0144750
762.879	0.0142973
762.957	0.0143021
763.035	0.0144479
763.113	0.0142178
763.192	0.0142326
763.270	0.0142120
763.348	0.0143728
763.426	0.0142754
763.504	0.0140426
763.582	0.0140205
763.660	0.0140827
763.738	0.0141399
763.817	0.0139708
763.895	0.0139249
763.973	0.0139273
764.051	0.0140193
764.129	0.0139722
764.207	0.0139404
764.285	0.0138430
764.363	0.0139970
764.442	0.0140783
764.520	0.0141689
764.598	0.0143147
764.676	0.0142165
764.754	0.0142504
764.832	0.0143159
764.910	0.0142641
764.988	0.0142480
765.067	0.0142969
765.145	0.0142971
765.223	0.0142856
765.301	0.0141859
765.379	0.0142644
765.457	0.0139840
765.535	0.0140708
765.613	0.0140591
765.692	0.0140711
765.770	0.0139535
765.848	0.0142010
765.926	0.0140942
766.004	0.0140521
766.082	0.0140535
766.160	0.0141192
766.238	0.0141473
766.317	0.0140504
766.395	0.0141904
766.473	0.0142186
766.551	0.0141980
766.629	0.0142773
766.707	0.0142283
766.785	0.0141644
766.863	0.0143761
766.942	0.0143744
767.020	0.0142244
767.098	0.0143285
767.176	0.0143139
767.254	0.0143505
767.332	0.0142664
767.410	0.0141235
767.488	0.0142123
767.567	0.0142794
767.645	0.0143077
767.723	0.0142385
767.801	0.0142236
767.879	0.0142526
767.957	0.0143012
768.035	0.0141643
768.113	0.0141531
768.192	0.0141318
768.270	0.0140876
768.348	0.0140893
768.426	0.0141402
768.504	0.0141228
768.582	0.0141102
768.660	0.0140282
768.738	0.0141226
768.817	0.0141221
768.895	0.0141336
768.973	0.0139669
769.051	0.0139023
769.129	0.0140547
769.207	0.0141340
769.285	0.0139391
769.363	0.0141160
769.442	0.0142529
769.520	0.0141985
769.598	0.0141298
769.676	0.0142129
769.754	0.0143633
769.832	0.0143488
769.910	0.0143634
769.988	0.0145339
770.067	0.0144897
770.145	0.0144245
770.223	0.0146918
770.301	0.0144761
770.379	0.0144699
770.457	0.0145736
770.535	0.0144540
770.613	0.0144614
770.692	0.0145190
770.770	0.0142422
770.848	0.0143768
770.926	0.0143571
771.004	0.0142581
771.082	0.0141672
771.160	0.0140794
771.238	0.0141164
771.317	0.0140172
771.395	0.0138422
771.473	0.0139322
771.551	0.0139450
771.629	0.0138084
771.707	0.0136465
771.785	0.0137299
771.863	0.0137885
771.942	0.0137202
772.020	0.0137200
772.098	0.0136076
772.176	0.0137161
772.254	0.0136693
772.332	0.0137282
772.410	0.0136791
772.488	0.0139056
772.567	0.0139075
772.645	0.0141353
772.723	0.0141707
772.801	0.0141946
772.879	0.0143117
772.957	0.0143111
773.035	0.0142559
773.113	0.0144308
773.192	0.0143718
773.270	0.0143157
773.348	0.0143051
773.426	0.0142425
773.504	0.0143954
773.582	0.0143594
773.660	0.0142611
773.738	0.0142388
773.817	0.0143063
773.895	0.0142625
773.973	0.0141620
774.051	0.0143150
774.129	0.0142645
774.207	0.0142671
774.285	0.0142095
774.363	0.0142590
774.442	0.0142155
774.520	0.0141343
774.598	0.0142433
774.676	0.0141638
774.754	0.0142544
774.832	0.0140776
774.910	0.0143108
774.988	0.0142790
775.067	0.0143023
775.145	0.0143066
775.223	0.0143391
775.301	0.0142500
775.379	0.0142913
775.457	0.0143897
775.535	0.0142986
775.613	0.0142591
775.692	0.0143472
775.770	0.0143078
775.848	0.0141964
775.926	0.0141978
776.004	0.0141027
776.082	0.0141730
776.160	0.0140039
776.238	0.0141054
776.317	0.0140376
776.395	0.0141183
776.473	0.0141150
776.551	0.0140369
776.629	0.0138269
776.707	0.0139448
776.785	0.0138748
776.863	0.0139274
776.942	0.0137375
777.020	0.0137424
777.098	0.0136707
777.176	0.0136659
777.254	0.0137840
777.332	0.0138377
777.410	0.0137578
777.488	0.0138120
777.567	0.0138281
777.645	0.0139156
777.723	0.0139613
777.801	0.0138930
777.879	0.0141064
777.957	0.0140821
778.035	0.0141167
778.113	0.0144012
778.192	0.0144185
778.270	0.0144479
778.348	0.0145147
778.426	0.0146291
778.504	0.0147017
778.582	0.0146191
778.660	0.0145820
778.738	0.0147076
778.817	0.0147206
778.895	0.0145043
778.973	0.0144231
779.051	0.0144391
779.129	0.0143382
779.207	0.0144975
779.285	0.0142865
779.363	0.0143491
779.442	0.0142984
779.520	0.0143015
779.598	0.0141824
779.676	0.0143038
779.754	0.0142383
779.832	0.0142769
779.910	0.0142488
779.988	0.0142423
780.067	0.0141956
780.145	0.0143435
780.223	0.0142915
780.301	0.0142622
780.379	0.0142750
780.457	0.0143503
780.535	0.0143954
780.613	0.0143426
780.692	0.0142769
780.770	0.0141233
780.848	0.0142079
780.926	0.0141280
781.004	0.0142408
781.082	0.0142426
781.160	0.0140893
781.238	0.0141051
781.317	0.0142693
781.395	0.0141195
781.473	0.0140948
781.551	0.0139334
781.629	0.0139040
781.707	0.0139143
781.785	0.0139306
781.863	0.0138666
781.942	0.0138204
782.020	0.0138885
782.098	0.0138466
782.176	0.0139265
782.254	0.0138603
782.332	0.0138841
782.410	0.0137438
782.488	0.0139605
782.567	0.0138716
782.645	0.0139284
782.723	0.0138806
782.801	0.0138993
782.879	0.0139616
782.957	0.0139919
783.035	0.0139925
783.113	0.0140234
783.192	0.0142033
783.270	0.0142101
783.348	0.0143371
783.426	0.0142491
783.504	0.0144363
783.582	0.0144230
783.660	0.0144626
783.738	0.0144327
783.817	0.0145834
783.895	0.0146036
783.973	0.0145284
784.051	0.0145451
784.129	0.0147825
784.207	0.0147144
784.285	0.0145497
784.363	0.0145380
784.442	0.0145433
784.520	0.0144505
784.598	0.0144350
784.676	0.0145250
784.754	0.0144205
784.832	0.0145361
784.910	0.0145771
784.988	0.0144533
785.067	0.0142227
785.145	0.0142410
785.223	0.0142432
785.301	0.0143380
785.379	0.0141419
785.457	0.0142178
785.535	0.0141404
785.613	0.0140038
785.692	0.0140173
785.770	0.0140850
785.848	0.0141418
785.926	0.0138847
786.004	0.0140369
786.082	0.0139969
786.160	0.0140086
786.238	0.0140813
786.317	0.0140816
786.395	0.0142563
786.473	0.0141431
786.551	0.0140892
786.629	0.0142292
786.707	0.0140984
786.785	0.0141989
786.863	0.0140875
786.942	0.0139996
787.020	0.0142107
787.098	0.0140265
787.176	0.0140216
787.254	0.0138784
787.332	0.0138676
787.410	0.0137876
787.488	0.0138725
787.567	0.0137449
787.645	0.0135278
787.723	0.0136469
787.801	0.0138168
787.879	0.0136575
787.957	0.0136598
788.035	0.0137878
788.113	0.0139064
788.192	0.0138859
788.270	0.0139565
788.348	0.0140129
788.426	0.0139076
788.504	0.0140285
788.582	0.0141720
788.660	0.0141840
788.738	0.0144467
788.817	0.0144256
788.895	0.0145332
788.973	0.0145556
789.051	0.0145158
789.129	0.0147012
789.207	0.0145974
789.285	0.0146727
789.363	0.0145684
789.442	0.0146849
789.520	0.0146027
789.598	0.0146484
789.676	0.0146014
789.754	0.0144845
789.832	0.0145534
789.910	0.0146175
789.988	0.0145521
790.067	0.0142895
790.145	0.0143798
790.223	0.0142781
790.301	0.0143458
790.379	0.0142425
790.457	0.0142007
790.535	0.0140616
790.613	0.0141016
790.692	0.0140773
790.770	0.0139149
790.848	0.0139751
790.926	0.0139877
791.004	0.0138974
791.082	0.0139492
791.160	0.0137133
791.238	0.0139114
791.317	0.0139373
791.395	0.0138693
791.473	0.0139658
791.551	0.0139951
791.629	0.0140191
791.707	0.0138997
791.785	0.0139206
791.863	0.0140479
791.942	0.0141737
792.020	0.0141892
792.098	0.0141956
792.176	0.0141827
792.254	0.0141563
792.332	0.0142031
792.410	0.0141075
792.488	0.0142133
792.567	0.0140675
792.645	0.0143700
792.723	0.0142323
792.801	0.0140720
792.879	0.0140407
792.957	0.0141235
793.035	0.0139834
793.113	0.0139854
793.192	0.0140662
793.270	0.0140717
793.348	0.0140405
793.426	0.0140108
793.504	0.0139549
793.582	0.0139838
793.660	0.0139484
793.738	0.0140553
793.817	0.0139819
793.895	0.0142622
793.973	0.0142124
794.051	0.0141994
794.129	0.0142209
794.207	0.0142678
794.285	0.0142975
794.363	0.0143905
794.442	0.0143268
794.520	0.0144392
794.598	0.0143802
794.676	0.0144460
794.754	0.0146085
794.832	0.0145697
794.910	0.0145302
794.988	0.0145523
795.067	0.0146395
795.145	0.0146708
795.223	0.0143662
795.301	0.0144587
795.379	0.0144443
795.457	0.0142391
795.535	0.0143224
795.613	0.0141826
795.692	0.0140252
795.770	0.0141505
795.848	0.0141000
795.926	0.0140614
796.004	0.0138541
796.082	0.0137528
796.160	0.0137414
796.238	0.0138749
796.317	0.0137785
796.395	0.0139604
796.473	0.0138879
796.551	0.0138334
796.629	0.0139478
796.707	0.0140496
796.785	0.0140218
796.863	0.0141457
796.942	0.0141773
797.020	0.0140850
797.098	0.0141685
797.176	0.0143312
797.254	0.0142776
797.332	0.0142764
797.410	0.0144411
797.488	0.0143898
797.567	0.0143690
797.645	0.0142935
797.723	0.0143943
797.801	0.0142699
797.879	0.0141896
797.957	0.0142516
798.035	0.0141384
798.113	0.0141341
798.192	0.0141426
798.270	0.0140357
798.348	0.0141964
798.426	0.0141964
798.504	0.0140005
798.582	0.0140500
798.660	0.0140822
798.738	0.0140332
798.817	0.0140678
798.895	0.0140735
798.973	0.0140435
799.051	0.0139700
799.129	0.0138570
799.207	0.0138801
799.285	0.0140762
799.363	0.0140829
799.442	0.0139185
799.520	0.0139820
799.598	0.0138940
799.676	0.0139917
799.754	0.0139014
799.832	0.0139684
799.910	0.0141483
799.988	0.0142451
800.067	0.0141316
800.145	0.0142797
800.223	0.0143843
800.301	0.0144833
800.379	0.0144316
800.457	0.0144157
800.535	0.0144373
800.613	0.0146008
800.692	0.0146046
800.770	0.0146062
800.848	0.0145235
800.926	0.0144379
801.004	0.0144526
801.082	0.0143398
801.160	0.0143588
801.238	0.0142742
801.317	0.0143013
801.395	0.0143368
801.473	0.0141805
801.551	0.0141273
801.629	0.0141100
801.707	0.0139837
801.785	0.0137923
801.863	0.0138319
801.942	0.0140525
802.020	0.0139835
802.098	0.0139220
802.176	0.0140120
802.254	0.0140821
802.332	0.0141496
802.410	0.0141553
802.488	0.0141037
802.567	0.0143398
802.645	0.0143323
802.723	0.0141439
802.801	0.0142625
802.879	0.0143520
802.957	0.0142888
803.035	0.0143169
803.113	0.0143875
803.192	0.0143822
803.270	0.0143173
803.348	0.0141930
803.426	0.0142165
803.504	0.0143543
803.582	0.0142647
803.660	0.0142013
803.738	0.0141656
803.817	0.0140697
803.895	0.0140942
803.973	0.0140901
804.051	0.0139440
804.129	0.0139973
804.207	0.0138656
804.285	0.0139073
804.363	0.0139634
804.442	0.0140109
804.520	0.0140225
804.598	0.0140954
804.676	0.0140504
804.754	0.0140920
804.832	0.0141250
804.910	0.0141360
804.988	0.0142252
805.067	0.0143613
805.145	0.0142229
805.223	0.0142443
805.301	0.0142242
805.379	0.0141363
805.457	0.0143826
805.535	0.0143136
805.613	0.0143053
805.692	0.0143380
805.770	0.0143111
805.848	0.0143982
805.926	0.0143867
806.004	0.0144414
806.082	0.0145234
806.160	0.0144267
806.238	0.0143980
806.317	0.0142909
806.395	0.0144138
806.473	0.0142641
806.551	0.0142957
806.629	0.0143426
806.707	0.0142433
806.785	0.0143456
806.863	0.0143965
806.942	0.0142627
807.020	0.0141145
807.098	0.0141327
807.176	0.0140873
807.254	0.0141330
807.332	0.0139981
807.410	0.0140379
807.488	0.0140015
807.567	0.0140562
807.645	0.0140962
807.723	0.0140143
807.801	0.0140161
807.879	0.0139960
807.957	0.0139172
808.035	0.0141969
808.113	0.0141254
808.192	0.0142037
808.270	0.0141670
808.348	0.0142564
808.426	0.0143535
808.504	0.0143620
808.582	0.0143949
808.660	0.0144450
808.738	0.0144515
808.817	0.0144087
808.895	0.0145235
808.973	0.0144339
809.051	0.0143565
809.129	0.0141574
809.207	0.0141912
809.285	0.0141163
809.363	0.0141890
809.442	0.0141211
809.520	0.0141752
809.598	0.0140119
809.676	0.0140903
809.754	0.0140527
809.832	0.0139130
809.910	0.0138074
809.988	0.0139932
810.067	0.0139113
810.145	0.0138541
810.223	0.0140214
810.301	0.0139351
810.379	0.0139964
810.457	0.0140002
810.535	0.0141266
810.613	0.0139800
810.692	0.0142365
810.770	0.0141507
810.848	0.0142590
810.926	0.0141263
811.004	0.0142429
811.082	0.0142566
811.160	0.0141847
811.238	0.0141627
811.317	0.0143904
811.395	0.0143066
811.473	0.0145443
811.551	0.0143334
811.629	0.0144254
811.707	0.0143739
811.785	0.0144336
811.863	0.0142905
811.942	0.0142558
812.020	0.0141988
812.098	0.0143704
812.176	0.0141643
812.254	0.0143260
812.332	0.0142580
812.410	0.0141762
812.488	0.0142846
812.567	0.0142237
812.645	0.0141622
812.723	0.0140813
812.801	0.0141052
812.879	0.0140935
812.957	0.0140675
813.035	0.0140554
813.113	0.0140710
813.192	0.0139249
813.270	0.0140340
813.348	0.0140071
813.426	0.0139593
813.504	0.0140594
813.582	0.0139611
813.660	0.0140733
813.738	0.0140145
813.817	0.0141473
813.895	0.0141814
813.973	0.0141348
814.051	0.0142221
814.129	0.0141565
814.207	0.0142680
814.285	0.0143631
814.363	0.0143414
814.442	0.0142844
814.520	0.0142443
814.598	0.0143583
814.676	0.0143767
814.754	0.0143305
814.832	0.0143542
814.910	0.0143517
814.988	0.0142017
815.067	0.0142290
815.145	0.0142804
815.223	0.0141759
815.301	0.0140778
815.379	0.0141434
815.457	0.0141559
815.535	0.0141222
815.613	0.0141811
815.692	0.0140456
815.770	0.0141189
815.848	0.0140820
815.926	0.0142293
816.004	0.0139075
816.082	0.0142551
816.160	0.0141422
816.238	0.0140913
816.317	0.0140797
816.395	0.0141428
816.473	0.0142699
816.551	0.0143626
816.629	0.0141423
816.707	0.0142266
816.785	0.0141875
816.863	0.0141013
816.942	0.0141938
817.020	0.0142084
817.098	0.0143172
817.176	0.0142481
817.254	0.0142140
817.332	0.0141607
817.410	0.0143208
817.488	0.0142451
817.567	0.0141534
817.645	0.0141517
817.723	0.0141246
817.801	0.0139892
817.879	0.0140517
817.957	0.0140042
818.035	0.0141171
818.113	0.0140633
818.192	0.0139758
818.270	0.0140028
818.348	0.0140394
818.426	0.0140060
818.504	0.0139246
818.582	0.0140906
818.660	0.0141401
818.738	0.0142693
818.817	0.0142725
818.895	0.0142905
818.973	0.0141053
819.051	0.0142284
819.129	0.0141788
819.207	0.0143871
819.285	0.0144263
819.363	0.0144750
819.442	0.0144206
819.520	0.0144107
819.598	0.0144126
819.676	0.0145115
819.754	0.0145757
819.832	0.0143773
819.910	0.0144272
819.988	0.0143919
820.067	0.0144283
820.145	0.0143601
820.223	0.0143326
820.301	0.0142691
820.379	0.0142928
820.457	0.0142499
820.535	0.0141716
820.613	0.0142707
820.692	0.0142945
820.770	0.0141016
820.848	0.0141159
820.926	0.0140783
821.004	0.0142122
821.082	0.0139973
821.160	0.0140005
821.238	0.0141142
821.317	0.0139265
821.395	0.0139315
821.473	0.0141175
821.551	0.0140553
821.629	0.0139134
821.707	0.0139861
821.785	0.0139736
821.863	0.0138592
821.942	0.0139813
822.020	0.0140193
822.098	0.0139134
822.176	0.0139256
822.254	0.0139008
822.332	0.0140213
822.410	0.0141438
822.488	0.0141577
822.567	0.0140548
822.645	0.0141632
822.723	0.0141705
822.801	0.0142702
822.879	0.0142545
822.957	0.0142608
823.035	0.0142580
823.113	0.0142897
823.192	0.0144002
823.270	0.0143418
823.348	0.0142742
823.426	0.0142398
823.504	0.0142661
823.582	0.0141651
823.660	0.0143536
823.738	0.0141305
823.817	0.0142286
823.895	0.0142393
823.973	0.0142081
824.051	0.0141622
824.129	0.0142208
824.207	0.0141494
824.285	0.0141976
824.363	0.0141582
824.442	0.0140554
824.520	0.0141726
824.598	0.0140826
824.676	0.0141750
824.754	0.0142357
824.832	0.0142088
824.910	0.0140658
824.988	0.0141581
825.067	0.0141807
825.145	0.0140659
825.223	0.0142201
825.301	0.0141731
825.379	0.0141415
825.457	0.0142011
825.535	0.0141964
825.613	0.0142313
825.692	0.0142556
825.770	0.0141596
825.848	0.0142340
825.926	0.0142272
826.004	0.0141436
826.082	0.0142922
826.160	0.0142113
826.238	0.0142122
826.317	0.0141773
826.395	0.0140551
826.473	0.0140331
826.551	0.0140771
826.629	0.0141567
826.707	0.0141322
826.785	0.0139639
826.863	0.0140424
826.942	0.0140337
827.020	0.0140199
827.098	0.0139575
827.176	0.0140211
827.254	0.0141251
827.332	0.0140809
827.410	0.0139357
827.488	0.0140337
827.567	0.0138943
827.645	0.0140192
827.723	0.0141326
827.801	0.0140867
827.879	0.0140926
827.957	0.0141031
828.035	0.0141029
828.113	0.0142200
828.192	0.0142774
828.270	0.0143320
828.348	0.0142950
828.426	0.0143279
828.504	0.0143822
828.582	0.0141806
828.660	0.0144062
828.738	0.0143150
828.817	0.0143436
828.895	0.0142618
828.973	0.0142332
829.051	0.0142227
829.129	0.0143608
829.207	0.0142771
829.285	0.0142643
829.363	0.0142144
829.442	0.0140263
829.520	0.0139898
829.598	0.0142266
829.676	0.0141128
829.754	0.0140358
829.832	0.0140410
829.910	0.0140532
829.988	0.0142311
830.067	0.0142096
830.145	0.0139674
830.223	0.0140531
830.301	0.0140511
830.379	0.0142553
830.457	0.0141093
830.535	0.0141293
830.613	0.0141859
830.692	0.0141525
830.770	0.0141876
830.848	0.0142448
830.926	0.0142349
831.004	0.0143330
831.082	0.0142825
831.160	0.0143214
831.238	0.0142865
831.317	0.0142409
831.395	0.0143607
831.473	0.0143855
831.551	0.0142437
831.629	0.0142556
831.707	0.0142295
831.785	0.0141647
831.863	0.0142263
831.942	0.0140001
832.020	0.0141242
832.098	0.0141762
832.176	0.0140884
832.254	0.0139932
832.332	0.0140151
832.410	0.0141254
832.488	0.0140412
832.567	0.0141171
832.645	0.0139578
832.723	0.0140771
832.801	0.0139679
832.879	0.0138840
832.957	0.0140211
833.035	0.0141302
833.113	0.0140359
833.192	0.0139848
833.270	0.0139481
833.348	0.0141630
833.426	0.0140376
833.504	0.0140894
833.582	0.0141573
833.660	0.0141417
833.738	0.0141614
833.817	0.0141656
833.895	0.0140958
833.973	0.0142245
834.051	0.0142506
834.129	0.0141570
834.207	0.0142138
834.285	0.0142982
834.363	0.0141498
834.442	0.0142856
834.520	0.0142188
834.598	0.0142464
834.676	0.0142818
834.754	0.0142474
834.832	0.0141862
834.910	0.0143295
834.988	0.0141431
835.067	0.0142162
835.145	0.0141499
835.223	0.0141678
835.301	0.0142711
835.379	0.0142712
835.457	0.0141232
835.535	0.0141631
835.613	0.0142561
835.692	0.0142536
835.770	0.0142493
835.848	0.0141859
835.926	0.0142133
836.004	0.0142392
836.082	0.0143769
836.160	0.0143332
836.238	0.0141656
836.317	0.0143648
836.395	0.0142436
836.473	0.0142684
836.551	0.0142227
836.629	0.0142245
836.707	0.0141881
836.785	0.0141760
836.863	0.0143691
836.942	0.0142706
837.020	0.0142706
837.098	0.0142668
837.176	0.0143211
837.254	0.0142353
837.332	0.0142395
837.410	0.0142024
837.488	0.0141920
837.567	0.0142833
837.645	0.0141424
837.723	0.0141701
837.801	0.0142409
837.879	0.0142301
837.957	0.0143411
838.035	0.0141955
838.113	0.0140934
838.192	0.0139905
838.270	0.0139649
838.348	0.0139651
838.426	0.0140590
838.504	0.0142289
838.582	0.0141047
838.660	0.0140838
838.738	0.0140987
838.817	0.0140978
838.895	0.0141017
838.973	0.0141847
839.051	0.0142056
839.129	0.0142925
839.207	0.0142059
839.285	0.0142973
839.363	0.0142804
839.442	0.0142075
839.520	0.0142409
839.598	0.0143875
839.676	0.0144138
839.754	0.0142381
839.832	0.0142185
839.910	0.0143214
839.988	0.0142462
840.067	0.0142157
840.145	0.0142795
840.223	0.0142123
840.301	0.0141603
840.379	0.0141885
840.457	0.0142313
840.535	0.0141538
840.613	0.0142047
840.692	0.0140981
840.770	0.0141839
840.848	0.0140946
840.926	0.0141834
841.004	0.0141366
841.082	0.0141756
841.160	0.0140624
841.238	0.0143260
841.317	0.0141337
841.395	0.0140792
841.473	0.0140430
841.551	0.0141438
841.629	0.0142103
841.707	0.0141164
841.785	0.0142472
841.863	0.0143694
841.942	0.0143605
842.020	0.0144107
842.098	0.0143233
842.176	0.0143085
842.254	0.0144356
842.332	0.0141187
842.410	0.0143317
842.488	0.0143540
842.567	0.0141818
842.645	0.0142184
842.723	0.0143224
842.801	0.0143395
842.879	0.0143977
842.957	0.0143517
843.035	0.0143066
843.113	0.0143252
843.192	0.0142862
843.270	0.0141775
843.348	0.0142838
843.426	0.0141428
843.504	0.0140230
843.582	0.0141106
843.660	0.0141198
843.738	0.0139391
843.817	0.0142196
843.895	0.0142215
843.973	0.0140199
844.051	0.0139993
844.129	0.0141465
844.207	0.0141196
844.285	0.0140507
844.363	0.0140250
844.442	0.0140519
844.520	0.0142259
844.598	0.0141161
844.676	0.0140056
844.754	0.0141696
844.832	0.0141711
844.910	0.0141156
844.988	0.0142177
845.067	0.0141521
845.145	0.0141352
845.223	0.0141057
845.301	0.0142805
845.379	0.0142493
845.457	0.0142461
845.535	0.0141020
845.613	0.0141930
845.692	0.0141465
845.770	0.0142721
845.848	0.0142516
845.926	0.0141524
846.004	0.0142058
846.082	0.0141720
846.160	0.0142751
846.238	0.0142174
846.317	0.0141871
846.395	0.0140694
846.473	0.0141706
846.551	0.0142260
846.629	0.0141739
846.707	0.0142042
846.785	0.0143114
846.863	0.0141489
846.942	0.0141511
847.020	0.0142359
847.098	0.0142824
847.176	0.0144668
847.254	0.0142755
847.332	0.0142459
847.410	0.0142140
847.488	0.0143247
847.567	0.0142864
847.645	0.0142345
847.723	0.0140893
847.801	0.0141366
847.879	0.0141843
847.957	0.0141812
848.035	0.0141563
848.113	0.0141116
848.192	0.0141633
848.270	0.0141496
848.348	0.0140443
848.426	0.0141613
848.504	0.0140546
848.582	0.0140005
848.660	0.0141029
848.738	0.0141549
848.817	0.0141107
848.895	0.0140962
848.973	0.0140937
849.051	0.0142019
849.129	0.0140666
849.207	0.0140721
849.285	0.0142244
849.363	0.0141129
849.442	0.0141127
849.520	0.0141130
849.598	0.0141794
849.676	0.0141382
849.754	0.0140156
849.832	0.0139959
849.910	0.0141875
849.988	0.0141215
850.067	0.0142621
850.145	0.0142203
850.223	0.0141266
850.301	0.0141892
850.379	0.0142875
850.457	0.0141145
850.535	0.0143285
850.613	0.0141875
850.692	0.0142897
850.770	0.0142990
850.848	0.0143567
850.926	0.0142692
851.004	0.0142505
851.082	0.0142209
851.160	0.0142926
851.238	0.0142957
851.317	0.0141938
851.395	0.0142229
851.473	0.0142101
851.551	0.0144027
851.629	0.0143303
851.707	0.0142012
851.785	0.0141227
851.863	0.0141048
851.942	0.0141821
852.020	0.0142197
852.098	0.0142587
852.176	0.0142102
852.254	0.0143049
852.332	0.0142737
852.410	0.0141554
852.488	0.0141866
852.567	0.0142480
852.645	0.0141585
852.723	0.0140440
852.801	0.0141994
852.879	0.0142073
852.957	0.0139088
853.035	0.0141721
853.113	0.0140949
853.192	0.0141126
853.270	0.0141385
853.348	0.0141164
853.426	0.0141259
853.504	0.0140349
853.582	0.0140934
853.660	0.0142190
853.738	0.0140483
853.817	0.0141252
853.895	0.0141074
853.973	0.0142348
854.051	0.0142580
854.129	0.0143398
854.207	0.0140886
854.285	0.0141768
854.363	0.0141904
854.442	0.0142625
854.520	0.0142412
854.598	0.0142066
854.676	0.0141911
854.754	0.0141716
854.832	0.0141562
854.910	0.0142022
854.988	0.0142236
855.067	0.0141163
855.145	0.0140466
855.223	0.0140794
855.301	0.0142447
855.379	0.0141793
855.457	0.0143008
855.535	0.0141545
855.613	0.0140431
855.692	0.0142320
855.770	0.0141083
855.848	0.0142365
855.926	0.0141776
856.004	0.0140949
856.082	0.0140092
856.160	0.0140885
856.238	0.0142091
856.317	0.0142629
856.395	0.0140740
856.473	0.0140952
856.551	0.0142828
856.629	0.0141675
856.707	0.0141940
856.785	0.0141274
856.863	0.0142255
856.942	0.0143333
857.020	0.0142390
857.098	0.0140798
857.176	0.0141313
857.254	0.0142480
857.332	0.0142743
857.410	0.0143329
857.488	0.0140823
857.567	0.0141125
857.645	0.0141512
857.723	0.0141849
857.801	0.0142007
857.879	0.0141746
857.957	0.0141340
858.035	0.0141135
858.113	0.0140350
858.192	0.0141752
858.270	0.0142417
858.348	0.0141474
858.426	0.0141792
858.504	0.0141123
858.582	0.0139857
858.660	0.0140704
858.738	0.0142160
858.817	0.0141136
858.895	0.0140629
858.973	0.0140729
859.051	0.0141718
859.129	0.0141175
859.207	0.0141710
859.285	0.0142943
859.363	0.0143014
859.442	0.0143344
859.520	0.0143216
859.598	0.0142462
859.676	0.0144328
859.754	0.0144414
859.832	0.0142935
859.910	0.0143636
859.988	0.0142735
860.067	0.0141171
860.145	0.0141395
860.223	0.0141685
860.301	0.0141698
860.379	0.0140878
860.457	0.0142824
860.535	0.0142381
860.613	0.0142434
860.692	0.0141313
860.770	0.0141545
860.848	0.0141309
860.926	0.0141631
861.004	0.0142327
861.082	0.0142220
861.160	0.0141357
861.238	0.0140326
861.317	0.0142184
861.395	0.0142425
861.473	0.0142209
861.551	0.0143388
861.629	0.0142930
861.707	0.0142077
861.785	0.0142797
861.863	0.0142817
861.942	0.0141946
862.020	0.0141974
862.098	0.0140855
862.176	0.0141413
862.254	0.0141605
862.332	0.0141369
862.410	0.0140696
862.488	0.0140278
862.567	0.0141846
862.645	0.0141140
862.723	0.0140629
862.801	0.0141302
862.879	0.0142305
862.957	0.0141176
863.035	0.0142128
863.113	0.0142110
863.192	0.0142009
863.270	0.0141585
863.348	0.0142504
863.426	0.0142969
863.504	0.0142077
863.582	0.0143465
863.660	0.0142888
863.738	0.0141909
863.817	0.0141316
863.895	0.0142264
863.973	0.0142388
864.051	0.0140891
864.129	0.0141866
864.207	0.0142530
864.285	0.0141904
864.363	0.0140878
864.442	0.0140995
864.520	0.0141277
864.598	0.0141024
864.676	0.0143605
864.754	0.0141424
864.832	0.0141281
864.910	0.0141590
864.988	0.0142184
865.067	0.0141922
865.145	0.0143015
865.223	0.0142239
865.301	0.0141500
865.379	0.0141911
865.457	0.0143008
865.535	0.0143785
865.613	0.0143453
865.692	0.0143547
865.770	0.0142851
865.848	0.0144902
865.926	0.0143752
866.004	0.0143152
866.082	0.0142435
866.160	0.0141340
866.238	0.0141926
866.317	0.0141891
866.395	0.0141432
866.473	0.0141477
866.551	0.0141628
866.629	0.0140542
866.707	0.0140468
866.785	0.0140724
866.863	0.0141172
866.942	0.0140073
867.020	0.0139606
867.098	0.0140913
867.176	0.0140818
867.254	0.0139859
867.332	0.0140128
867.410	0.0139349
867.488	0.0139204
867.567	0.0141739
867.645	0.0140673
867.723	0.0141397
867.801	0.0139832
867.879	0.0140276
867.957	0.0141007
868.035	0.0141325
868.113	0.0141780
868.192	0.0141331
868.270	0.0140963
868.348	0.0140589
868.426	0.0141080
868.504	0.0141469
868.582	0.0141813
868.660	0.0141554
868.738	0.0141833
868.817	0.0142446
868.895	0.0141098
868.973	0.0141016
869.051	0.0141724
869.129	0.0142085
869.207	0.0141486
869.285	0.0141386
869.363	0.0142030
869.442	0.0142149
869.520	0.0142461
869.598	0.0141797
869.676	0.0142477
869.754	0.0143459
869.832	0.0143308
869.910	0.0142593
869.988	0.0143771
870.067	0.0141871
870.145	0.0143745
870.223	0.0143861
870.301	0.0143018
870.379	0.0142938
870.457	0.0143967
870.535	0.0142959
870.613	0.0143980
870.692	0.0142614
870.770	0.0142376
870.848	0.0143943
870.926	0.0142036
871.004	0.0142379
871.082	0.0143040
871.160	0.0142020
871.238	0.0141212
871.317	0.0141365
871.395	0.0141530
871.473	0.0139949
871.551	0.0140649
871.629	0.0140212
871.707	0.0140756
871.785	0.0138523
871.863	0.0139182
871.942	0.0139518
872.020	0.0138438
872.098	0.0140823
872.176	0.0141470
872.254	0.0140649
872.332	0.0139659
872.410	0.0140533
872.488	0.0140173
872.567	0.0141046
872.645	0.0139586
872.723	0.0141281
872.801	0.0141751
872.879	0.0141262
872.957	0.0141669
873.035	0.0142471
873.113	0.0142110
873.192	0.0141226
873.270	0.0141165
873.348	0.0141251
873.426	0.0141385
873.504	0.0141891
873.582	0.0139742
873.660	0.0142765
873.738	0.0142298
873.817	0.0140833
873.895	0.0141412
873.973	0.0140868
874.051	0.0142077
874.129	0.0141407
874.207	0.0141648
874.285	0.0142992
874.363	0.0142224
874.442	0.0142390
874.520	0.0143768
874.598	0.0144334
874.676	0.0143626
874.754	0.0143446
874.832	0.0144350
874.910	0.0143414
874.988	0.0144463
875.067	0.0144202
875.145	0.0143189
875.223	0.0143919
875.301	0.0143437
875.379	0.0141840
875.457	0.0143362
875.535	0.0143463
875.613	0.0142393
875.692	0.0141961
875.770	0.0140915
875.848	0.0141901
875.926	0.0141552
876.004	0.0140378
876.082	0.0140253
876.160	0.0140274
876.238	0.0141044
876.317	0.0139346
876.395	0.0139375
876.473	0.0140016
876.551	0.0140654
876.629	0.0140620
876.707	0.0142731
876.785	0.0141521
876.863	0.0141121
876.942	0.0141444
877.020	0.0141855
877.098	0.0142081
877.176	0.0141582
877.254	0.0142673
877.332	0.0141772
877.410	0.0141535
877.488	0.0141505
877.567	0.0140358
877.645	0.0139889
877.723	0.0140361
877.801	0.0140047
877.879	0.0139806
877.957	0.0139797
878.035	0.0140820
878.113	0.0142019
878.192	0.0141854
878.270	0.0141217
878.348	0.0140492
878.426	0.0142039
878.504	0.0141348
878.582	0.0140670
878.660	0.0142010
878.738	0.0141888
878.817	0.0142348
878.895	0.0140776
878.973	0.0141470
879.051	0.0142793
879.129	0.0141925
879.207	0.0142711
879.285	0.0142937
879.363	0.0142918
879.442	0.0143242
879.520	0.0144431
879.598	0.0144706
879.676	0.0142915
879.754	0.0143227
879.832	0.0142908
879.910	0.0142754
879.988	0.0142611
880.067	0.0143171
880.145	0.0142487
880.223	0.0143320
880.301	0.0142543
880.379	0.0142811
880.457	0.0142108
880.535	0.0142878
880.613	0.0143392
880.692	0.0143160
880.770	0.0143619
880.848	0.0141825
880.926	0.0140401
881.004	0.0141765
881.082	0.0139923
881.160	0.0141005
881.238	0.0140257
881.317	0.0140701
881.395	0.0140523
881.473	0.0140213
881.551	0.0140064
881.629	0.0139683
881.707	0.0139500
881.785	0.0140071
881.863	0.0140733
881.942	0.0140885
882.020	0.0139539
882.098	0.0140697
882.176	0.0142037
882.254	0.0140157
882.332	0.0140242
882.410	0.0141740
882.488	0.0142368
882.567	0.0141263
882.645	0.0140563
882.723	0.0142011
882.801	0.0141901
882.879	0.0140874
882.957	0.0142480
883.035	0.0142474
883.113	0.0141577
883.192	0.0140823
883.270	0.0141528
883.348	0.0140549
883.426	0.0142970
883.504	0.0141991
883.582	0.0142262
883.660	0.0141327
883.738	0.0142048
883.817	0.0141206
883.895	0.0141096
883.973	0.0142728
884.051	0.0141676
884.129	0.0141792
884.207	0.0141145
884.285	0.0142693
884.363	0.0142360
884.442	0.0142193
884.520	0.0141766
884.598	0.0141520
884.676	0.0140594
884.754	0.0143200
884.832	0.0141263
884.910	0.0141819
884.988	0.0143420
885.067	0.0142227
885.145	0.0143061
885.223	0.0140950
885.301	0.0140705
885.379	0.0143343
885.457	0.0142168
885.535	0.0142762
885.613	0.0142583
885.692	0.0139845
885.770	0.0141284
885.848	0.0140427
885.926	0.0140804
886.004	0.0140363
886.082	0.0142023
886.160	0.0140415
886.238	0.0140697
886.317	0.0140025
886.395	0.0139972
886.473	0.0139914
886.551	0.0140722
886.629	0.0139351
886.707	0.0139022
886.785	0.0140495
886.863	0.0141479
886.942	0.0140005
887.020	0.0139909
887.098	0.0139791
887.176	0.0141601
887.254	0.0141527
887.332	0.0141859
887.410	0.0141837
887.488	0.0140960
887.567	0.0142510
887.645	0.0143322
887.723	0.0142696
887.801	0.0143185
887.879	0.0142563
887.957	0.0143587
888.035	0.0143638
888.113	0.0143132
888.192	0.0143658
888.270	0.0144334
888.348	0.0143001
888.426	0.0143742
888.504	0.0143123
888.582	0.0142178
888.660	0.0141681
888.738	0.0141457
888.817	0.0141446
888.895	0.0140978
888.973	0.0140918
889.051	0.0140607
889.129	0.0141310
889.207	0.0141983
889.285	0.0140440
889.363	0.0141115
889.442	0.0141396
889.520	0.0143349
889.598	0.0141747
889.676	0.0141499
889.754	0.0141103
889.832	0.0140851
889.910	0.0142511
889.988	0.0140988
890.067	0.0142412
890.145	0.0141637
890.223	0.0140553
890.301	0.0142151
890.379	0.0141322
890.457	0.0141489
890.535	0.0140801
890.613	0.0141547
890.692	0.0142271
890.770	0.0141058
890.848	0.0141468
890.926	0.0142066
891.004	0.0142006
891.082	0.0141831
891.160	0.0142513
891.238	0.0141919
891.317	0.0141449
891.395	0.0142925
891.473	0.0142435
891.551	0.0143758
891.629	0.0142151
891.707	0.0142625
891.785	0.0142798
891.863	0.0143697
891.942	0.0143034
892.020	0.0143793
892.098	0.0142585
892.176	0.0141954
892.254	0.0142620
892.332	0.0141653
892.410	0.0139983
892.488	0.0141728
892.567	0.0140243
892.645	0.0142213
892.723	0.0141071
892.801	0.0140817
892.879	0.0140871
892.957	0.0141079
893.035	0.0140128
893.113	0.0141075
893.192	0.0140900
893.270	0.0141265
893.348	0.0141079
893.426	0.0140639
893.504	0.0140253
893.582	0.0141161
893.660	0.0141771
893.738	0.0140765
893.817	0.0142092
893.895	0.0141029
893.973	0.0140562
894.051	0.0141454
894.129	0.0141190
894.207	0.0141678
894.285	0.0142345
894.363	0.0142117
894.442	0.0141164
894.520	0.0141859
894.598	0.0140466
894.676	0.0141827
894.754	0.0141856
894.832	0.0140323
894.910	0.0141872
894.988	0.0141586
895.067	0.0141363
895.145	0.0141320
895.223	0.0142574
895.301	0.0141885
895.379	0.0141592
895.457	0.0142484
895.535	0.0142510
895.613	0.0143654
895.692	0.0144112
895.770	0.0144304
895.848	0.0143128
895.926	0.0143466
896.004	0.0142522
896.082	0.0143073
896.160	0.0144963
896.238	0.0142652
896.317	0.0144009
896.395	0.0144122
896.473	0.0142855
896.551	0.0143530
896.629	0.0142961
896.707	0.0143358
896.785	0.0142553
896.863	0.0142907
896.942	0.0140299
897.020	0.0142867
897.098	0.0142492
897.176	0.0141434
897.254	0.0142300
897.332	0.0143455
897.410	0.0141943
897.488	0.0142336
897.567	0.0140691
897.645	0.0142246
897.723	0.0141162
897.801	0.0140852
897.879	0.0140673
897.957	0.0140511
898.035	0.0139864
898.113	0.0140327
898.192	0.0140783
898.270	0.0140221
898.348	0.0140843
898.426	0.0140809
898.504	0.0141328
898.582	0.0140479
898.660	0.0141019
898.738	0.0141084
898.817	0.0141190
898.895	0.0141019
898.973	0.0141607
899.051	0.0141683
899.129	0.0141591
899.207	0.0141798
899.285	0.0141076
899.363	0.0141390
899.442	0.0141758
899.520	0.0141645
899.598	0.0142151
899.676	0.0142599
899.754	0.0142686
899.832	0.0142627
899.910	0.0142889
899.988	0.0141759
900.067	0.0141508
900.145	0.0141804
900.223	0.0142815
900.301	0.0142072
900.379	0.0142741
900.457	0.0143677
900.535	0.0141585
900.613	0.0143533
900.692	0.0143340
900.770	0.0143517
900.848	0.0143645
900.926	0.0141171
901.004	0.0142268
901.082	0.0142915
901.160	0.0141835
901.238	0.0142272
901.317	0.0141837
901.395	0.0143271
901.473	0.0143099
901.551	0.0141605
901.629	0.0142314
901.707	0.0142351
901.785	0.0141463
901.863	0.0141801
901.942	0.0142112
902.020	0.0143103
902.098	0.0141790
902.176	0.0143105
902.254	0.0143003
902.332	0.0143295
902.410	0.0142234
902.488	0.0142131
902.567	0.0143658
902.645	0.0142908
902.723	0.0143832
902.801	0.0141906
902.879	0.0141851
902.957	0.0140903
903.035	0.0141174
903.113	0.0141684
903.192	0.0141932
903.270	0.0141385
903.348	0.0140771
903.426	0.0141638
903.504	0.0139820
903.582	0.0140385
903.660	0.0141328
903.738	0.0141005
903.817	0.0140606
903.895	0.0138651
903.973	0.0138905
904.051	0.0139516
904.129	0.0138462
904.207	0.0140114
904.285	0.0141101
904.363	0.0141674
904.442	0.0141810
904.520	0.0140453
904.598	0.0141527
904.676	0.0140677
904.754	0.0141621
904.832	0.0142189
904.910	0.0140618
904.988	0.0141096
905.067	0.0142297
905.145	0.0142252
905.223	0.0141808
905.301	0.0142708
905.379	0.0141257
905.457	0.0140630
905.535	0.0141942
905.613	0.0140628
905.692	0.0141518
905.770	0.0142144
905.848	0.0143034
905.926	0.0142237
906.004	0.0141577
906.082	0.0143190
906.160	0.0142299
906.238	0.0142278
906.317	0.0142617
906.395	0.0143458
906.473	0.0142514
906.551	0.0142858
906.629	0.0141098
906.707	0.0142121
906.785	0.0141216
906.863	0.0141228
906.942	0.0141687
907.020	0.0143426
907.098	0.0141788
907.176	0.0141635
907.254	0.0141276
907.332	0.0142184
907.410	0.0141315
907.488	0.0141354
907.567	0.0142625
907.645	0.0140725
907.723	0.0143031
907.801	0.0141988
907.879	0.0141773
907.957	0.0141343
908.035	0.0141756
908.113	0.0141620
908.192	0.0141586
908.270	0.0141022
908.348	0.0141476
908.426	0.0140590
908.504	0.0141262
908.582	0.0141027
908.660	0.0141440
908.738	0.0140053
908.817	0.0141241
908.895	0.0141096
908.973	0.0141912
909.051	0.0140945
909.129	0.0140341
909.207	0.0141817
909.285	0.0140703
909.363	0.0141630
909.442	0.0140617
909.520	0.0141153
909.598	0.0140428
909.676	0.0140844
909.754	0.0141722
909.832	0.0140567
909.910	0.0141916
909.988	0.0140839
910.067	0.0141932
910.145	0.0141682
910.223	0.0140103
910.301	0.0142601
910.379	0.0140562
910.457	0.0141638
910.535	0.0141640
910.613	0.0141035
910.692	0.0141988
910.770	0.0141282
910.848	0.0140437
910.926	0.0142698
911.004	0.0142393
911.082	0.0141405
911.160	0.0142530
911.238	0.0142107
911.317	0.0142057
911.395	0.0142786
911.473	0.0143262
911.551	0.0142763
911.629	0.0142295
911.707	0.0142654
911.785	0.0142505
911.863	0.0141033
911.942	0.0141792
912.020	0.0143243
912.098	0.0142945
912.176	0.0142411
912.254	0.0141973
912.332	0.0141464
912.410	0.0142562
912.488	0.0142988
912.567	0.0142275
912.645	0.0141434
912.723	0.0142798
912.801	0.0142785
912.879	0.0142208
912.957	0.0143230
913.035	0.0140523
913.113	0.0141257
913.192	0.0143645
913.270	0.0144115
913.348	0.0143321
913.426	0.0142574
913.504	0.0142683
913.582	0.0143084
913.660	0.0142000
913.738	0.0142173
913.817	0.0142462
913.895	0.0141948
913.973	0.0141518
914.051	0.0141294
914.129	0.0141172
914.207	0.0141572
914.285	0.0140089
914.363	0.0140451
914.442	0.0138767
914.520	0.0140085
914.598	0.0139439
914.676	0.0138475
914.754	0.0139597
914.832	0.0139930
914.910	0.0139676
914.988	0.0139048
915.067	0.0141110
915.145	0.0140488
915.223	0.0140747
915.301	0.0140474
915.379	0.0140005
915.457	0.0141634
915.535	0.0142296
915.613	0.0139866
915.692	0.0142175
915.770	0.0142500
915.848	0.0142490
915.926	0.0140479
916.004	0.0142451
916.082	0.0141441
916.160	0.0140641
916.238	0.0140562
916.317	0.0141907
916.395	0.0141265
916.473	0.0142336
916.551	0.0140823
916.629	0.0141814
916.707	0.0141451
916.785	0.0142763
916.863	0.0142344
916.942	0.0143442
917.020	0.0142390
917.098	0.0143829
917.176	0.0143044
917.254	0.0144505
917.332	0.0142991
917.410	0.0143814
917.488	0.0143884
917.567	0.0143421
917.645	0.0144001
917.723	0.0143949
917.801	0.0143121
917.879	0.0143275
917.957	0.0142595
918.035	0.0142553
918.113	0.0144106
918.192	0.0141462
918.270	0.0143050
918.348	0.0141640
918.426	0.0141511
918.504	0.0142111
918.582	0.0143163
918.660	0.0141794
918.738	0.0140289
918.817	0.0141106
918.895	0.0141915
918.973	0.0140782
919.051	0.0141482
919.129	0.0142287
919.207	0.0142475
919.285	0.0142043
919.363	0.0141950
919.442	0.0141426
919.520	0.0140887
919.598	0.0141100
919.676	0.0141440
919.754	0.0140794
919.832	0.0141761
919.910	0.0142007
