05/28/2022	14:10:41	Ver.	4.1	UNKNOWN
Optical Delay	599.988409	Delta X		0.078125	Sweeps	1	Scan Rate	0/0
Coordinates	Axis 1	NaN	Axis 2	NaN	Axis 3	NaN	Axis 4	NaN	Axis 5	NaN	Axis 6	0.000000
TX Power	0.000000	RX Power	0.000000

599.988	0.0144344
600.067	0.0144167
600.145	0.0145969
600.223	0.0143768
600.301	0.0144370
600.379	0.0145051
600.457	0.0145478
600.535	0.0144251
600.613	0.0144975
600.692	0.0145000
600.770	0.0145160
600.848	0.0144446
600.926	0.0145857
601.004	0.0144881
601.082	0.0144287
601.160	0.0143353
601.238	0.0146028
601.317	0.0143085
601.395	0.0144125
601.473	0.0144992
601.551	0.0144429
601.629	0.0144845
601.707	0.0143970
601.785	0.0142759
601.863	0.0144284
601.942	0.0145570
602.020	0.0144747
602.098	0.0145142
602.176	0.0145915
602.254	0.0143990
602.332	0.0144179
602.410	0.0143732
602.488	0.0144910
602.567	0.0145630
602.645	0.0143893
602.723	0.0145316
602.801	0.0145632
602.879	0.0144477
602.957	0.0144204
603.035	0.0145984
603.113	0.0144761
603.192	0.0144659
603.270	0.0144679
603.348	0.0145000
603.426	0.0144754
603.504	0.0144578
603.582	0.0144883
603.660	0.0144502
603.738	0.0144353
603.817	0.0142783
603.895	0.0145024
603.973	0.0145104
604.051	0.0143664
604.129	0.0146213
604.207	0.0145714
604.285	0.0145837
604.363	0.0145937
604.442	0.0145292
604.520	0.0143594
604.598	0.0144954
604.676	0.0145258
604.754	0.0144806
604.832	0.0145049
604.910	0.0144254
604.988	0.0145940
605.067	0.0145516
605.145	0.0144440
605.223	0.0144454
605.301	0.0144655
605.379	0.0145386
605.457	0.0144829
605.535	0.0144425
605.613	0.0145238
605.692	0.0145395
605.770	0.0145138
605.848	0.0144874
605.926	0.0143557
606.004	0.0145003
606.082	0.0146445
606.160	0.0145062
606.238	0.0144880
606.317	0.0145467
606.395	0.0145227
606.473	0.0144149
606.551	0.0143961
606.629	0.0144731
606.707	0.0146063
606.785	0.0146484
606.863	0.0146153
606.942	0.0144460
607.020	0.0143266
607.098	0.0144801
607.176	0.0146111
607.254	0.0144873
607.332	0.0145017
607.410	0.0145546
607.488	0.0145148
607.567	0.0144431
607.645	0.0144886
607.723	0.0145270
607.801	0.0145261
607.879	0.0145110
607.957	0.0144626
608.035	0.0145522
608.113	0.0144627
608.192	0.0145385
608.270	0.0146053
608.348	0.0143812
608.426	0.0145823
608.504	0.0145612
608.582	0.0144950
608.660	0.0145927
608.738	0.0146052
608.817	0.0143874
608.895	0.0144720
608.973	0.0145882
609.051	0.0144395
609.129	0.0145509
609.207	0.0144891
609.285	0.0146489
609.363	0.0144710
609.442	0.0145599
609.520	0.0144761
609.598	0.0144823
609.676	0.0145329
609.754	0.0145052
609.832	0.0144349
609.910	0.0144431
609.988	0.0146115
610.067	0.0145596
610.145	0.0146344
610.223	0.0144658
610.301	0.0145054
610.379	0.0145269
610.457	0.0145978
610.535	0.0145323
610.613	0.0145218
610.692	0.0145255
610.770	0.0144475
610.848	0.0145686
610.926	0.0143391
611.004	0.0144122
611.082	0.0146825
611.160	0.0145615
611.238	0.0144108
611.317	0.0144460
611.395	0.0145166
611.473	0.0144556
611.551	0.0145419
611.629	0.0145491
611.707	0.0145417
611.785	0.0144202
611.863	0.0144692
611.942	0.0144876
612.020	0.0145650
612.098	0.0144836
612.176	0.0142960
612.254	0.0144127
612.332	0.0145293
612.410	0.0143735
612.488	0.0145339
612.567	0.0144901
612.645	0.0144053
612.723	0.0143887
612.801	0.0144570
612.879	0.0144881
612.957	0.0144347
613.035	0.0144175
613.113	0.0144790
613.192	0.0143592
613.270	0.0144923
613.348	0.0145120
613.426	0.0144689
613.504	0.0143864
613.582	0.0144142
613.660	0.0145537
613.738	0.0144315
613.817	0.0144847
613.895	0.0145096
613.973	0.0143628
614.051	0.0146169
614.129	0.0144183
614.207	0.0145255
614.285	0.0143636
614.363	0.0145291
614.442	0.0144917
614.520	0.0143709
614.598	0.0145058
614.676	0.0145328
614.754	0.0145467
614.832	0.0145084
614.910	0.0144743
614.988	0.0144673
615.067	0.0145329
615.145	0.0145370
615.223	0.0146046
615.301	0.0145405
615.379	0.0143045
615.457	0.0143332
615.535	0.0143794
615.613	0.0144807
615.692	0.0144018
615.770	0.0144335
615.848	0.0144782
615.926	0.0144559
616.004	0.0144330
616.082	0.0143421
616.160	0.0145252
616.238	0.0144089
616.317	0.0143514
616.395	0.0144983
616.473	0.0144439
616.551	0.0144928
616.629	0.0145396
616.707	0.0144418
616.785	0.0145006
616.863	0.0145029
616.942	0.0145201
617.020	0.0143427
617.098	0.0143493
617.176	0.0144540
617.254	0.0144929
617.332	0.0143518
617.410	0.0144511
617.488	0.0143689
617.567	0.0143426
617.645	0.0144201
617.723	0.0144460
617.801	0.0144733
617.879	0.0143820
617.957	0.0144020
618.035	0.0144399
618.113	0.0144822
618.192	0.0144086
618.270	0.0144289
618.348	0.0144897
618.426	0.0145148
618.504	0.0144241
618.582	0.0144144
618.660	0.0143726
618.738	0.0144183
618.817	0.0143929
618.895	0.0143846
618.973	0.0145925
619.051	0.0144724
619.129	0.0144114
619.207	0.0143430
619.285	0.0144433
619.363	0.0144470
619.442	0.0144408
619.520	0.0143941
619.598	0.0143790
619.676	0.0142854
619.754	0.0144716
619.832	0.0144850
619.910	0.0145110
619.988	0.0144405
620.067	0.0145242
620.145	0.0144064
620.223	0.0144423
620.301	0.0144833
620.379	0.0144942
620.457	0.0146324
620.535	0.0144850
620.613	0.0143193
620.692	0.0144108
620.770	0.0145780
620.848	0.0143824
620.926	0.0143900
621.004	0.0144443
621.082	0.0144743
621.160	0.0144651
621.238	0.0144650
621.317	0.0144944
621.395	0.0142794
621.473	0.0144821
621.551	0.0143748
621.629	0.0144684
621.707	0.0144421
621.785	0.0143918
621.863	0.0142188
621.942	0.0144003
622.020	0.0144828
622.098	0.0144176
622.176	0.0144484
622.254	0.0144945
622.332	0.0144652
622.410	0.0144439
622.488	0.0143542
622.567	0.0145380
622.645	0.0144663
622.723	0.0144356
622.801	0.0145543
622.879	0.0144111
622.957	0.0144373
623.035	0.0144433
623.113	0.0144990
623.192	0.0144312
623.270	0.0143524
623.348	0.0143631
623.426	0.0143909
623.504	0.0144299
623.582	0.0145341
623.660	0.0145116
623.738	0.0144160
623.817	0.0145249
623.895	0.0144774
623.973	0.0145044
624.051	0.0145399
624.129	0.0145510
624.207	0.0145058
624.285	0.0144651
624.363	0.0145274
624.442	0.0144561
624.520	0.0145652
624.598	0.0144479
624.676	0.0144911
624.754	0.0144852
624.832	0.0145718
624.910	0.0143456
624.988	0.0143465
625.067	0.0143902
625.145	0.0144668
625.223	0.0144735
625.301	0.0145490
625.379	0.0145014
625.457	0.0145081
625.535	0.0143254
625.613	0.0145314
625.692	0.0144890
625.770	0.0144190
625.848	0.0144841
625.926	0.0142537
626.004	0.0143813
626.082	0.0144511
626.160	0.0145247
626.238	0.0144358
626.317	0.0144884
626.395	0.0144209
626.473	0.0144635
626.551	0.0145095
626.629	0.0144740
626.707	0.0145084
626.785	0.0144914
626.863	0.0144131
626.942	0.0144068
627.020	0.0143336
627.098	0.0145124
627.176	0.0144198
627.254	0.0144427
627.332	0.0144137
627.410	0.0145256
627.488	0.0144360
627.567	0.0145233
627.645	0.0144566
627.723	0.0144858
627.801	0.0143697
627.879	0.0144601
627.957	0.0144933
628.035	0.0144711
628.113	0.0144917
628.192	0.0143334
628.270	0.0145050
628.348	0.0144620
628.426	0.0144985
628.504	0.0145021
628.582	0.0144849
628.660	0.0145802
628.738	0.0144643
628.817	0.0145301
628.895	0.0145096
628.973	0.0144302
629.051	0.0143813
629.129	0.0144260
629.207	0.0146192
629.285	0.0144507
629.363	0.0145840
629.442	0.0146344
629.520	0.0145902
629.598	0.0144089
629.676	0.0144658
629.754	0.0146065
629.832	0.0146137
629.910	0.0145634
629.988	0.0145033
630.067	0.0145008
630.145	0.0143480
630.223	0.0145538
630.301	0.0144553
630.379	0.0144173
630.457	0.0145092
630.535	0.0143625
630.613	0.0145417
630.692	0.0144177
630.770	0.0144984
630.848	0.0144604
630.926	0.0144979
631.004	0.0144122
631.082	0.0143711
631.160	0.0144120
631.238	0.0144592
631.317	0.0144877
631.395	0.0144680
631.473	0.0143717
631.551	0.0144960
631.629	0.0144223
631.707	0.0144048
631.785	0.0144508
631.863	0.0144522
631.942	0.0145515
632.020	0.0143292
632.098	0.0145127
632.176	0.0144373
632.254	0.0145697
632.332	0.0144237
632.410	0.0144093
632.488	0.0145479
632.567	0.0145388
632.645	0.0144562
632.723	0.0145309
632.801	0.0144283
632.879	0.0143269
632.957	0.0143538
633.035	0.0144716
633.113	0.0144677
633.192	0.0145438
633.270	0.0143895
633.348	0.0144592
633.426	0.0145141
633.504	0.0144159
633.582	0.0145075
633.660	0.0144965
633.738	0.0144437
633.817	0.0144401
633.895	0.0143635
633.973	0.0142943
634.051	0.0145533
634.129	0.0145394
634.207	0.0144058
634.285	0.0141544
634.363	0.0143480
634.442	0.0144830
634.520	0.0144920
634.598	0.0144956
634.676	0.0144923
634.754	0.0144833
634.832	0.0144758
634.910	0.0144692
634.988	0.0144701
635.067	0.0145053
635.145	0.0144329
635.223	0.0145479
635.301	0.0145016
635.379	0.0144332
635.457	0.0144114
635.535	0.0145310
635.613	0.0144875
635.692	0.0144583
635.770	0.0143886
635.848	0.0144331
635.926	0.0144481
636.004	0.0145576
636.082	0.0144963
636.160	0.0144437
636.238	0.0144340
636.317	0.0146367
636.395	0.0144376
636.473	0.0144647
636.551	0.0144462
636.629	0.0143925
636.707	0.0144254
636.785	0.0144189
636.863	0.0144919
636.942	0.0145642
637.020	0.0144182
637.098	0.0144687
637.176	0.0144400
637.254	0.0143695
637.332	0.0145936
637.410	0.0144260
637.488	0.0144862
637.567	0.0145580
637.645	0.0143904
637.723	0.0142728
637.801	0.0145257
637.879	0.0145365
637.957	0.0144046
638.035	0.0144656
638.113	0.0144640
638.192	0.0144408
638.270	0.0142362
638.348	0.0143926
638.426	0.0145203
638.504	0.0144881
638.582	0.0144142
638.660	0.0144038
638.738	0.0142862
638.817	0.0143619
638.895	0.0143958
638.973	0.0143900
639.051	0.0145050
639.129	0.0143676
639.207	0.0144981
639.285	0.0144954
639.363	0.0144979
639.442	0.0142196
639.520	0.0145956
639.598	0.0145528
639.676	0.0144343
639.754	0.0144625
639.832	0.0143537
639.910	0.0143372
639.988	0.0144430
640.067	0.0145039
640.145	0.0144436
640.223	0.0142416
640.301	0.0143187
640.379	0.0144530
640.457	0.0144260
640.535	0.0143813
640.613	0.0144083
640.692	0.0145352
640.770	0.0143137
640.848	0.0144173
640.926	0.0144722
641.004	0.0143169
641.082	0.0142887
641.160	0.0143164
641.238	0.0144397
641.317	0.0144044
641.395	0.0143241
641.473	0.0144640
641.551	0.0144545
641.629	0.0143408
641.707	0.0143513
641.785	0.0144513
641.863	0.0144689
641.942	0.0143005
642.020	0.0143868
642.098	0.0144910
642.176	0.0144065
642.254	0.0144688
642.332	0.0143314
642.410	0.0143689
642.488	0.0143827
642.567	0.0143004
642.645	0.0143355
642.723	0.0143909
642.801	0.0143721
642.879	0.0143596
642.957	0.0144272
643.035	0.0143652
643.113	0.0144451
643.192	0.0144865
643.270	0.0142867
643.348	0.0142946
643.426	0.0142305
643.504	0.0143371
643.582	0.0144068
643.660	0.0143207
643.738	0.0142429
643.817	0.0144371
643.895	0.0144804
643.973	0.0144436
644.051	0.0144120
644.129	0.0143201
644.207	0.0142982
644.285	0.0142942
644.363	0.0142928
644.442	0.0143588
644.520	0.0144984
644.598	0.0144242
644.676	0.0142793
644.754	0.0143991
644.832	0.0143479
644.910	0.0142905
644.988	0.0143817
645.067	0.0144078
645.145	0.0143417
645.223	0.0144088
645.301	0.0144144
645.379	0.0144057
645.457	0.0143820
645.535	0.0143774
645.613	0.0144460
645.692	0.0144926
645.770	0.0145018
645.848	0.0143159
645.926	0.0143995
646.004	0.0145257
646.082	0.0145197
646.160	0.0144652
646.238	0.0144242
646.317	0.0143227
646.395	0.0145162
646.473	0.0143727
646.551	0.0143273
646.629	0.0145651
646.707	0.0143986
646.785	0.0143963
646.863	0.0143375
646.942	0.0142854
647.020	0.0144703
647.098	0.0144869
647.176	0.0142690
647.254	0.0144146
647.332	0.0143882
647.410	0.0145686
647.488	0.0144048
647.567	0.0144982
647.645	0.0142520
647.723	0.0144038
647.801	0.0144453
647.879	0.0144366
647.957	0.0143593
648.035	0.0143835
648.113	0.0143759
648.192	0.0143148
648.270	0.0143050
648.348	0.0144319
648.426	0.0145116
648.504	0.0145033
648.582	0.0142879
648.660	0.0143928
648.738	0.0144587
648.817	0.0143997
648.895	0.0145177
648.973	0.0144370
649.051	0.0143389
649.129	0.0144178
649.207	0.0143568
649.285	0.0143737
649.363	0.0143997
649.442	0.0144846
649.520	0.0143743
649.598	0.0145593
649.676	0.0144421
649.754	0.0144868
649.832	0.0143705
649.910	0.0145390
649.988	0.0144843
650.067	0.0144745
650.145	0.0144700
650.223	0.0144261
650.301	0.0144371
650.379	0.0143948
650.457	0.0144142
650.535	0.0144994
650.613	0.0144339
650.692	0.0144367
650.770	0.0143693
650.848	0.0144170
650.926	0.0144627
651.004	0.0143996
651.082	0.0145078
651.160	0.0144624
651.238	0.0143957
651.317	0.0144081
651.395	0.0142456
651.473	0.0144896
651.551	0.0144576
651.629	0.0144951
651.707	0.0144428
651.785	0.0143525
651.863	0.0143525
651.942	0.0144022
652.020	0.0144724
652.098	0.0143969
652.176	0.0145284
652.254	0.0144159
652.332	0.0143797
652.410	0.0144845
652.488	0.0143352
652.567	0.0143202
652.645	0.0144086
652.723	0.0144529
652.801	0.0143723
652.879	0.0144168
652.957	0.0144292
653.035	0.0144165
653.113	0.0144286
653.192	0.0144013
653.270	0.0143629
653.348	0.0144146
653.426	0.0144616
653.504	0.0143783
653.582	0.0143713
653.660	0.0144296
653.738	0.0144123
653.817	0.0143808
653.895	0.0144227
653.973	0.0143266
654.051	0.0144072
654.129	0.0144052
654.207	0.0144768
654.285	0.0144759
654.363	0.0146285
654.442	0.0144537
654.520	0.0143959
654.598	0.0144330
654.676	0.0145023
654.754	0.0143795
654.832	0.0144391
654.910	0.0145135
654.988	0.0144038
655.067	0.0144579
655.145	0.0144349
655.223	0.0144244
655.301	0.0144581
655.379	0.0144628
655.457	0.0145447
655.535	0.0144265
655.613	0.0145334
655.692	0.0145530
655.770	0.0145058
655.848	0.0144847
655.926	0.0144902
656.004	0.0144572
656.082	0.0145651
656.160	0.0144192
656.238	0.0142664
656.317	0.0143695
656.395	0.0143723
656.473	0.0144176
656.551	0.0144201
656.629	0.0144734
656.707	0.0144852
656.785	0.0144760
656.863	0.0145485
656.942	0.0144942
657.020	0.0146001
657.098	0.0145761
657.176	0.0146461
657.254	0.0145676
657.332	0.0145615
657.410	0.0147434
657.488	0.0147623
657.567	0.0145439
657.645	0.0145284
657.723	0.0147752
657.801	0.0146001
657.879	0.0145522
657.957	0.0145186
658.035	0.0144742
658.113	0.0144225
658.192	0.0142244
658.270	0.0140720
658.348	0.0141103
658.426	0.0141431
658.504	0.0140458
658.582	0.0139140
658.660	0.0139214
658.738	0.0139513
658.817	0.0140273
658.895	0.0140752
658.973	0.0142220
659.051	0.0143578
659.129	0.0142661
659.207	0.0142805
659.285	0.0144167
659.363	0.0145259
659.442	0.0144414
659.520	0.0142731
659.598	0.0143970
659.676	0.0144736
659.754	0.0144247
659.832	0.0146060
659.910	0.0147293
659.988	0.0146136
660.067	0.0146264
660.145	0.0146780
660.223	0.0148050
660.301	0.0146731
660.379	0.0145238
660.457	0.0146093
660.535	0.0145949
660.613	0.0146021
660.692	0.0143947
660.770	0.0145236
660.848	0.0145524
660.926	0.0145353
661.004	0.0146192
661.082	0.0147190
661.160	0.0146667
661.238	0.0147864
661.317	0.0148360
661.395	0.0147459
661.473	0.0147766
661.551	0.0145998
661.629	0.0146491
661.707	0.0146822
661.785	0.0145680
661.863	0.0146673
661.942	0.0145105
662.020	0.0144084
662.098	0.0144865
662.176	0.0145211
662.254	0.0143250
662.332	0.0141074
662.410	0.0142831
662.488	0.0142165
662.567	0.0141171
662.645	0.0139785
662.723	0.0139827
662.801	0.0139862
662.879	0.0140254
662.957	0.0138436
663.035	0.0138100
663.113	0.0135792
663.192	0.0136676
663.270	0.0136016
663.348	0.0136596
663.426	0.0136722
663.504	0.0134975
663.582	0.0138199
663.660	0.0141711
663.738	0.0142925
663.817	0.0142655
663.895	0.0145807
663.973	0.0148902
664.051	0.0149596
664.129	0.0150101
664.207	0.0151906
664.285	0.0151914
664.363	0.0151884
664.442	0.0151809
664.520	0.0150875
664.598	0.0150797
664.676	0.0149347
664.754	0.0150222
664.832	0.0149938
664.910	0.0148355
664.988	0.0150150
665.067	0.0148750
665.145	0.0149989
665.223	0.0147966
665.301	0.0148387
665.379	0.0148767
665.457	0.0148369
665.535	0.0146449
665.613	0.0146706
665.692	0.0145091
665.770	0.0145940
665.848	0.0144552
665.926	0.0142442
666.004	0.0143588
666.082	0.0145057
666.160	0.0144970
666.238	0.0143852
666.317	0.0143747
666.395	0.0144064
666.473	0.0143711
666.551	0.0144057
666.629	0.0142658
666.707	0.0141154
666.785	0.0139695
666.863	0.0138039
666.942	0.0135303
667.020	0.0136356
667.098	0.0134492
667.176	0.0131618
667.254	0.0131862
667.332	0.0130343
667.410	0.0130096
667.488	0.0131113
667.567	0.0131913
667.645	0.0134727
667.723	0.0134344
667.801	0.0136090
667.879	0.0138195
667.957	0.0141006
668.035	0.0142919
668.113	0.0145432
668.192	0.0145651
668.270	0.0149886
668.348	0.0152148
668.426	0.0153635
668.504	0.0154169
668.582	0.0154591
668.660	0.0154850
668.738	0.0154889
668.817	0.0154249
668.895	0.0152306
668.973	0.0152004
669.051	0.0152187
669.129	0.0152135
669.207	0.0149742
669.285	0.0150006
669.363	0.0149998
669.442	0.0148415
669.520	0.0149052
669.598	0.0149242
669.676	0.0150446
669.754	0.0147386
669.832	0.0148605
669.910	0.0147626
669.988	0.0146625
670.067	0.0147358
670.145	0.0146183
670.223	0.0147403
670.301	0.0145797
670.379	0.0148173
670.457	0.0148267
670.535	0.0146723
670.613	0.0147028
670.692	0.0146004
670.770	0.0147643
670.848	0.0146683
670.926	0.0144307
671.004	0.0142009
671.082	0.0142337
671.160	0.0140008
671.238	0.0139777
671.317	0.0137234
671.395	0.0137634
671.473	0.0137566
671.551	0.0137903
671.629	0.0137707
671.707	0.0137206
671.785	0.0137466
671.863	0.0138181
671.942	0.0138404
672.020	0.0137694
672.098	0.0138840
672.176	0.0137337
672.254	0.0137448
672.332	0.0138570
672.410	0.0138353
672.488	0.0137373
672.567	0.0138741
672.645	0.0139674
672.723	0.0139424
672.801	0.0139060
672.879	0.0139927
672.957	0.0140519
673.035	0.0142056
673.113	0.0141522
673.192	0.0142568
673.270	0.0142546
673.348	0.0142870
673.426	0.0144095
673.504	0.0146342
673.582	0.0147061
673.660	0.0147014
673.738	0.0148671
673.817	0.0148431
673.895	0.0149117
673.973	0.0151546
674.051	0.0150431
674.129	0.0151526
674.207	0.0149957
674.285	0.0150795
674.363	0.0154475
674.442	0.0153131
674.520	0.0153770
674.598	0.0154374
674.676	0.0155101
674.754	0.0154522
674.832	0.0155210
674.910	0.0154021
674.988	0.0154908
675.067	0.0155175
675.145	0.0153795
675.223	0.0151971
675.301	0.0153806
675.379	0.0152074
675.457	0.0150692
675.535	0.0150851
675.613	0.0149467
675.692	0.0149986
675.770	0.0149902
675.848	0.0148673
675.926	0.0146711
676.004	0.0144446
676.082	0.0145001
676.160	0.0142171
676.238	0.0138505
676.317	0.0137045
676.395	0.0134724
676.473	0.0135312
676.551	0.0132977
676.629	0.0131776
676.707	0.0131042
676.785	0.0131146
676.863	0.0130033
676.942	0.0129846
677.020	0.0130276
677.098	0.0130975
677.176	0.0131532
677.254	0.0131744
677.332	0.0133283
677.410	0.0134126
677.488	0.0136475
677.567	0.0137345
677.645	0.0138974
677.723	0.0139466
677.801	0.0140938
677.879	0.0143917
677.957	0.0143976
678.035	0.0145119
678.113	0.0144531
678.192	0.0144295
678.270	0.0145647
678.348	0.0144861
678.426	0.0145625
678.504	0.0145943
678.582	0.0144551
678.660	0.0143220
678.738	0.0141258
678.817	0.0140876
678.895	0.0140606
678.973	0.0141803
679.051	0.0141739
679.129	0.0142893
679.207	0.0142089
679.285	0.0142441
679.363	0.0145915
679.442	0.0148701
679.520	0.0149094
679.598	0.0152917
679.676	0.0157249
679.754	0.0158558
679.832	0.0163116
679.910	0.0163985
679.988	0.0165865
680.067	0.0168005
680.145	0.0170066
680.223	0.0170905
680.301	0.0168665
680.379	0.0166669
680.457	0.0166634
680.535	0.0164052
680.613	0.0160976
680.692	0.0157744
680.770	0.0154084
680.848	0.0151964
680.926	0.0147778
681.004	0.0144042
681.082	0.0141040
681.160	0.0136835
681.238	0.0135207
681.317	0.0132333
681.395	0.0130649
681.473	0.0128651
681.551	0.0126978
681.629	0.0126219
681.707	0.0124136
681.785	0.0124657
681.863	0.0124123
681.942	0.0124306
682.020	0.0125115
682.098	0.0125023
682.176	0.0126262
682.254	0.0128020
682.332	0.0127633
682.410	0.0131435
682.488	0.0132213
682.567	0.0134426
682.645	0.0136540
682.723	0.0138284
682.801	0.0139419
682.879	0.0142123
682.957	0.0142754
683.035	0.0145531
683.113	0.0146630
683.192	0.0145652
683.270	0.0147597
683.348	0.0148399
683.426	0.0148185
683.504	0.0148496
683.582	0.0149220
683.660	0.0148210
683.738	0.0149416
683.817	0.0149565
683.895	0.0148195
683.973	0.0148095
684.051	0.0149037
684.129	0.0148005
684.207	0.0148086
684.285	0.0148118
684.363	0.0147872
684.442	0.0147631
684.520	0.0147825
684.598	0.0148734
684.676	0.0147791
684.754	0.0147694
684.832	0.0147776
684.910	0.0148904
684.988	0.0149079
685.067	0.0149584
685.145	0.0153047
685.223	0.0153390
685.301	0.0155927
685.379	0.0155791
685.457	0.0158073
685.535	0.0158059
685.613	0.0157865
685.692	0.0156921
685.770	0.0155280
685.848	0.0155278
685.926	0.0153126
686.004	0.0151064
686.082	0.0149530
686.160	0.0147073
686.238	0.0145195
686.317	0.0142372
686.395	0.0140759
686.473	0.0140224
686.551	0.0139075
686.629	0.0137755
686.707	0.0136860
686.785	0.0138942
686.863	0.0138437
686.942	0.0139987
687.020	0.0139008
687.098	0.0141602
687.176	0.0141691
687.254	0.0140717
687.332	0.0141797
687.410	0.0140935
687.488	0.0141015
687.567	0.0142191
687.645	0.0141602
687.723	0.0140549
687.801	0.0138903
687.879	0.0139232
687.957	0.0138589
688.035	0.0138703
688.113	0.0136871
688.192	0.0136251
688.270	0.0136619
688.348	0.0136141
688.426	0.0134122
688.504	0.0134180
688.582	0.0135127
688.660	0.0136594
688.738	0.0134887
688.817	0.0136032
688.895	0.0137705
688.973	0.0138536
689.051	0.0140936
689.129	0.0142099
689.207	0.0144969
689.285	0.0146331
689.363	0.0146611
689.442	0.0148483
689.520	0.0150401
689.598	0.0152317
689.676	0.0151477
689.754	0.0151804
689.832	0.0150731
689.910	0.0153286
689.988	0.0150988
690.067	0.0149451
690.145	0.0147815
690.223	0.0147286
690.301	0.0146719
690.379	0.0146706
690.457	0.0146068
690.535	0.0144629
690.613	0.0143507
690.692	0.0144597
690.770	0.0145157
690.848	0.0144702
690.926	0.0146165
691.004	0.0145939
691.082	0.0148871
691.160	0.0148159
691.238	0.0149405
691.317	0.0150803
691.395	0.0152740
691.473	0.0153471
691.551	0.0154462
691.629	0.0152543
691.707	0.0155460
691.785	0.0155641
691.863	0.0156839
691.942	0.0154325
692.020	0.0152689
692.098	0.0153366
692.176	0.0153520
692.254	0.0149811
692.332	0.0148890
692.410	0.0148367
692.488	0.0145650
692.567	0.0145395
692.645	0.0143721
692.723	0.0140961
692.801	0.0141046
692.879	0.0139156
692.957	0.0136781
693.035	0.0136182
693.113	0.0135500
693.192	0.0134354
693.270	0.0134010
693.348	0.0135242
693.426	0.0134216
693.504	0.0134259
693.582	0.0133366
693.660	0.0135321
693.738	0.0135818
693.817	0.0134827
693.895	0.0134825
693.973	0.0136067
694.051	0.0136594
694.129	0.0138154
694.207	0.0138440
694.285	0.0139520
694.363	0.0140080
694.442	0.0141174
694.520	0.0141176
694.598	0.0143345
694.676	0.0143478
694.754	0.0142735
694.832	0.0145686
694.910	0.0145261
694.988	0.0145005
695.067	0.0146672
695.145	0.0146681
695.223	0.0145952
695.301	0.0147741
695.379	0.0147488
695.457	0.0146886
695.535	0.0147206
695.613	0.0145315
695.692	0.0145212
695.770	0.0147318
695.848	0.0147313
695.926	0.0146490
696.004	0.0147584
696.082	0.0146915
696.160	0.0148138
696.238	0.0149453
696.317	0.0149970
696.395	0.0150266
696.473	0.0149324
696.551	0.0152024
696.629	0.0152183
696.707	0.0152516
696.785	0.0151647
696.863	0.0151217
696.942	0.0150026
697.020	0.0148741
697.098	0.0148438
697.176	0.0147567
697.254	0.0145943
697.332	0.0145808
697.410	0.0145277
697.488	0.0145051
697.567	0.0145029
697.645	0.0146737
697.723	0.0146690
697.801	0.0147075
697.879	0.0148425
697.957	0.0148907
698.035	0.0149219
698.113	0.0149254
698.192	0.0148824
698.270	0.0149086
698.348	0.0147571
698.426	0.0148414
698.504	0.0148676
698.582	0.0146922
698.660	0.0147012
698.738	0.0146690
698.817	0.0144864
698.895	0.0144564
698.973	0.0143510
699.051	0.0140453
699.129	0.0140437
699.207	0.0138815
699.285	0.0138122
699.363	0.0135694
699.442	0.0132942
699.520	0.0131388
699.598	0.0130479
699.676	0.0129203
699.754	0.0127723
699.832	0.0129462
699.910	0.0130259
699.988	0.0130359
700.067	0.0131808
700.145	0.0134342
700.223	0.0135877
700.301	0.0138776
700.379	0.0141469
700.457	0.0142424
700.535	0.0143439
700.613	0.0145998
700.692	0.0146882
700.770	0.0146500
700.848	0.0151511
700.926	0.0151196
701.004	0.0150854
701.082	0.0151817
701.160	0.0153177
701.238	0.0153088
701.317	0.0153415
701.395	0.0153465
701.473	0.0153746
701.551	0.0153188
701.629	0.0153100
701.707	0.0152385
701.785	0.0152177
701.863	0.0151884
701.942	0.0150165
702.020	0.0149253
702.098	0.0149644
702.176	0.0149098
702.254	0.0147244
702.332	0.0147265
702.410	0.0148828
702.488	0.0148256
702.567	0.0148820
702.645	0.0147957
702.723	0.0147544
702.801	0.0146803
702.879	0.0146880
702.957	0.0145932
703.035	0.0146269
703.113	0.0144753
703.192	0.0144051
703.270	0.0142873
703.348	0.0141638
703.426	0.0141715
703.504	0.0141850
703.582	0.0139645
703.660	0.0138711
703.738	0.0138700
703.817	0.0139504
703.895	0.0139600
703.973	0.0140231
704.051	0.0139368
704.129	0.0140388
704.207	0.0140552
704.285	0.0142246
704.363	0.0142818
704.442	0.0144515
704.520	0.0144448
704.598	0.0145271
704.676	0.0145946
704.754	0.0146306
704.832	0.0147199
704.910	0.0147755
704.988	0.0147088
705.067	0.0146151
705.145	0.0145682
705.223	0.0146169
705.301	0.0145315
705.379	0.0145540
705.457	0.0144206
705.535	0.0143413
705.613	0.0144078
705.692	0.0143937
705.770	0.0143684
705.848	0.0144847
705.926	0.0145687
706.004	0.0145241
706.082	0.0146359
706.160	0.0145728
706.238	0.0147690
706.317	0.0146349
706.395	0.0145727
706.473	0.0147683
706.551	0.0144836
706.629	0.0145506
706.707	0.0145205
706.785	0.0144487
706.863	0.0143960
706.942	0.0143015
707.020	0.0142957
707.098	0.0143272
707.176	0.0142881
707.254	0.0141250
707.332	0.0142520
707.410	0.0142630
707.488	0.0141131
707.567	0.0141100
707.645	0.0141376
707.723	0.0141353
707.801	0.0141174
707.879	0.0140782
707.957	0.0142707
708.035	0.0143391
708.113	0.0142941
708.192	0.0144887
708.270	0.0144812
708.348	0.0145563
708.426	0.0146552
708.504	0.0146109
708.582	0.0147962
708.660	0.0149546
708.738	0.0148830
708.817	0.0149073
708.895	0.0149047
708.973	0.0148750
709.051	0.0149863
709.129	0.0150644
709.207	0.0150632
709.285	0.0150410
709.363	0.0150112
709.442	0.0148454
709.520	0.0149988
709.598	0.0149541
709.676	0.0149224
709.754	0.0147533
709.832	0.0148705
709.910	0.0147807
709.988	0.0146960
710.067	0.0147659
710.145	0.0145631
710.223	0.0144630
710.301	0.0144817
710.379	0.0145380
710.457	0.0144449
710.535	0.0143550
710.613	0.0143424
710.692	0.0143050
710.770	0.0142330
710.848	0.0143404
710.926	0.0141119
711.004	0.0142581
711.082	0.0142533
711.160	0.0140517
711.238	0.0140714
711.317	0.0139985
711.395	0.0139557
711.473	0.0139029
711.551	0.0138889
711.629	0.0137596
711.707	0.0137921
711.785	0.0138940
711.863	0.0137414
711.942	0.0137025
712.020	0.0137814
712.098	0.0137979
712.176	0.0139349
712.254	0.0138488
712.332	0.0138819
712.410	0.0141286
712.488	0.0141072
712.567	0.0141998
712.645	0.0143291
712.723	0.0144918
712.801	0.0146075
712.879	0.0145633
712.957	0.0146684
713.035	0.0146886
713.113	0.0148695
713.192	0.0149614
713.270	0.0149707
713.348	0.0149127
713.426	0.0151359
713.504	0.0151003
713.582	0.0150883
713.660	0.0149825
713.738	0.0150606
713.817	0.0151933
713.895	0.0149877
713.973	0.0149422
714.051	0.0149496
714.129	0.0149611
714.207	0.0148959
714.285	0.0147836
714.363	0.0146872
714.442	0.0147002
714.520	0.0147173
714.598	0.0146350
714.676	0.0145699
714.754	0.0145847
714.832	0.0144287
714.910	0.0144678
714.988	0.0144417
715.067	0.0144305
715.145	0.0143140
715.223	0.0143617
715.301	0.0143449
715.379	0.0142361
715.457	0.0141316
715.535	0.0141572
715.613	0.0140285
715.692	0.0140528
715.770	0.0140205
715.848	0.0139861
715.926	0.0139822
716.004	0.0139928
716.082	0.0140418
716.160	0.0140652
716.238	0.0141959
716.317	0.0140588
716.395	0.0142108
716.473	0.0142915
716.551	0.0142733
716.629	0.0143516
716.707	0.0143884
716.785	0.0143434
716.863	0.0143449
716.942	0.0144157
717.020	0.0143868
717.098	0.0143459
717.176	0.0142997
717.254	0.0145638
717.332	0.0143739
717.410	0.0144180
717.488	0.0144907
717.567	0.0144247
717.645	0.0143948
717.723	0.0143698
717.801	0.0144194
717.879	0.0142611
717.957	0.0143942
718.035	0.0144147
718.113	0.0143660
718.192	0.0144547
718.270	0.0144354
718.348	0.0146838
718.426	0.0144975
718.504	0.0143750
718.582	0.0144984
718.660	0.0145428
718.738	0.0144727
718.817	0.0146022
718.895	0.0146710
718.973	0.0147362
719.051	0.0147162
719.129	0.0148147
719.207	0.0148246
719.285	0.0149165
719.363	0.0151406
719.442	0.0151246
719.520	0.0150700
719.598	0.0151565
719.676	0.0149585
719.754	0.0148498
719.832	0.0149360
719.910	0.0148086
719.988	0.0145222
720.067	0.0144327
720.145	0.0145348
720.223	0.0143575
720.301	0.0144220
720.379	0.0142394
720.457	0.0141312
720.535	0.0140652
720.613	0.0141158
720.692	0.0142265
720.770	0.0140348
720.848	0.0141591
720.926	0.0140083
721.004	0.0139226
721.082	0.0140745
721.160	0.0140453
721.238	0.0141637
721.317	0.0140661
721.395	0.0140340
721.473	0.0139847
721.551	0.0141440
721.629	0.0141723
721.707	0.0140898
721.785	0.0142900
721.863	0.0143746
721.942	0.0144483
722.020	0.0143499
722.098	0.0146075
722.176	0.0147610
722.254	0.0149035
722.332	0.0148201
722.410	0.0148397
722.488	0.0148584
722.567	0.0147121
722.645	0.0146238
722.723	0.0148299
722.801	0.0147914
722.879	0.0147218
722.957	0.0145577
723.035	0.0144852
723.113	0.0145483
723.192	0.0146738
723.270	0.0144217
723.348	0.0145932
723.426	0.0145301
723.504	0.0145528
723.582	0.0144974
723.660	0.0144332
723.738	0.0144764
723.817	0.0145882
723.895	0.0144486
723.973	0.0144415
724.051	0.0143472
724.129	0.0144474
724.207	0.0145092
724.285	0.0144805
724.363	0.0145772
724.442	0.0144653
724.520	0.0145374
724.598	0.0144656
724.676	0.0145929
724.754	0.0144798
724.832	0.0146532
724.910	0.0144344
724.988	0.0143456
725.067	0.0145533
725.145	0.0145133
725.223	0.0143990
725.301	0.0144855
725.379	0.0144448
725.457	0.0143025
725.535	0.0143661
725.613	0.0144469
725.692	0.0144005
725.770	0.0144341
725.848	0.0144350
725.926	0.0144015
726.004	0.0145097
726.082	0.0144729
726.160	0.0146735
726.238	0.0146028
726.317	0.0144347
726.395	0.0145763
726.473	0.0144254
726.551	0.0144025
726.629	0.0144735
726.707	0.0144428
726.785	0.0144941
726.863	0.0144383
726.942	0.0144140
727.020	0.0144724
727.098	0.0143192
727.176	0.0143946
727.254	0.0144537
727.332	0.0143510
727.410	0.0144154
727.488	0.0143699
727.567	0.0143430
727.645	0.0142686
727.723	0.0141672
727.801	0.0142492
727.879	0.0141872
727.957	0.0142000
728.035	0.0141656
728.113	0.0140587
728.192	0.0143210
728.270	0.0144312
728.348	0.0143125
728.426	0.0143084
728.504	0.0143271
728.582	0.0142994
728.660	0.0144398
728.738	0.0144549
728.817	0.0146302
728.895	0.0145995
728.973	0.0146772
729.051	0.0148473
729.129	0.0147456
729.207	0.0148741
729.285	0.0149939
729.363	0.0148933
729.442	0.0149145
729.520	0.0148068
729.598	0.0147025
729.676	0.0146558
729.754	0.0145695
729.832	0.0147191
729.910	0.0145231
729.988	0.0146602
730.067	0.0146160
730.145	0.0145045
730.223	0.0145640
730.301	0.0143774
730.379	0.0144943
730.457	0.0143853
730.535	0.0143336
730.613	0.0143040
730.692	0.0142584
730.770	0.0142577
730.848	0.0142780
730.926	0.0143003
731.004	0.0141556
731.082	0.0143026
731.160	0.0143443
731.238	0.0142827
731.317	0.0143468
731.395	0.0145252
731.473	0.0145404
731.551	0.0143238
731.629	0.0145127
731.707	0.0145442
731.785	0.0145621
731.863	0.0144408
731.942	0.0145522
732.020	0.0146091
732.098	0.0145248
732.176	0.0146260
732.254	0.0145509
732.332	0.0146059
732.410	0.0146360
732.488	0.0144722
732.567	0.0145524
732.645	0.0146753
732.723	0.0145283
732.801	0.0145211
732.879	0.0145557
732.957	0.0146136
733.035	0.0146831
733.113	0.0145149
733.192	0.0145191
733.270	0.0143696
733.348	0.0144574
733.426	0.0146428
733.504	0.0144106
733.582	0.0143665
733.660	0.0144147
733.738	0.0144163
733.817	0.0145560
733.895	0.0143932
733.973	0.0143382
734.051	0.0143744
734.129	0.0144667
734.207	0.0143912
734.285	0.0144491
734.363	0.0144678
734.442	0.0143356
734.520	0.0143949
734.598	0.0143420
734.676	0.0143780
734.754	0.0144157
734.832	0.0144065
734.910	0.0145963
734.988	0.0144908
735.067	0.0144624
735.145	0.0145460
735.223	0.0145123
735.301	0.0144883
735.379	0.0145480
735.457	0.0145618
735.535	0.0146193
735.613	0.0144688
735.692	0.0145122
735.770	0.0144895
735.848	0.0144087
735.926	0.0144617
736.004	0.0140617
736.082	0.0140788
736.160	0.0141428
736.238	0.0142252
736.317	0.0141173
736.395	0.0142850
736.473	0.0142319
736.551	0.0141537
736.629	0.0142529
736.707	0.0143416
736.785	0.0145506
736.863	0.0146128
736.942	0.0147683
737.020	0.0147543
737.098	0.0147763
737.176	0.0148850
737.254	0.0147298
737.332	0.0147923
737.410	0.0146764
737.488	0.0148037
737.567	0.0145224
737.645	0.0144587
737.723	0.0145637
737.801	0.0144051
737.879	0.0143180
737.957	0.0143845
738.035	0.0142780
738.113	0.0141846
738.192	0.0140070
738.270	0.0141447
738.348	0.0141408
738.426	0.0141805
738.504	0.0140522
738.582	0.0140840
738.660	0.0142398
738.738	0.0141471
738.817	0.0143653
738.895	0.0142946
738.973	0.0143721
739.051	0.0144270
739.129	0.0145818
739.207	0.0144773
739.285	0.0145360
739.363	0.0143516
739.442	0.0146318
739.520	0.0146774
739.598	0.0146497
739.676	0.0145864
739.754	0.0146291
739.832	0.0145920
739.910	0.0146722
739.988	0.0145882
740.067	0.0145479
740.145	0.0146785
740.223	0.0146613
740.301	0.0145640
740.379	0.0146069
740.457	0.0146136
740.535	0.0145596
740.613	0.0145011
740.692	0.0144672
740.770	0.0145543
740.848	0.0145572
740.926	0.0144747
741.004	0.0144506
741.082	0.0144935
741.160	0.0143937
741.238	0.0144141
741.317	0.0143005
741.395	0.0143998
741.473	0.0143810
741.551	0.0144370
741.629	0.0143652
741.707	0.0143111
741.785	0.0144493
741.863	0.0143739
741.942	0.0144576
742.020	0.0143869
742.098	0.0144650
742.176	0.0145296
742.254	0.0144371
742.332	0.0144453
742.410	0.0143996
742.488	0.0144454
742.567	0.0142694
742.645	0.0143253
742.723	0.0144554
742.801	0.0145376
742.879	0.0144049
742.957	0.0145347
743.035	0.0145797
743.113	0.0144180
743.192	0.0145623
743.270	0.0144698
743.348	0.0142693
743.426	0.0144906
743.504	0.0144134
743.582	0.0144252
743.660	0.0142291
743.738	0.0143825
743.817	0.0143308
743.895	0.0143558
743.973	0.0145786
744.051	0.0144011
744.129	0.0143897
744.207	0.0146049
744.285	0.0144848
744.363	0.0145571
744.442	0.0145896
744.520	0.0146215
744.598	0.0147628
744.676	0.0147735
744.754	0.0147157
744.832	0.0146220
744.910	0.0147876
744.988	0.0148061
745.067	0.0147090
745.145	0.0146540
745.223	0.0146276
745.301	0.0145483
745.379	0.0144479
745.457	0.0145679
745.535	0.0143074
745.613	0.0144038
745.692	0.0142832
745.770	0.0141514
745.848	0.0141882
745.926	0.0143217
746.004	0.0142236
746.082	0.0142917
746.160	0.0143792
746.238	0.0142938
746.317	0.0142657
746.395	0.0144331
746.473	0.0143886
746.551	0.0145399
746.629	0.0144919
746.707	0.0145130
746.785	0.0145471
746.863	0.0146641
746.942	0.0146529
747.020	0.0146284
747.098	0.0146342
747.176	0.0145159
747.254	0.0146400
747.332	0.0147293
747.410	0.0146746
747.488	0.0146520
747.567	0.0146846
747.645	0.0145990
747.723	0.0145415
747.801	0.0146859
747.879	0.0146249
747.957	0.0146441
748.035	0.0145646
748.113	0.0145404
748.192	0.0146385
748.270	0.0145203
748.348	0.0145882
748.426	0.0144838
748.504	0.0142941
748.582	0.0146039
748.660	0.0145415
748.738	0.0144460
748.817	0.0144659
748.895	0.0144331
748.973	0.0143465
749.051	0.0144415
749.129	0.0144285
749.207	0.0145192
749.285	0.0143112
749.363	0.0144009
749.442	0.0144704
749.520	0.0143203
749.598	0.0144913
749.676	0.0144767
749.754	0.0145081
749.832	0.0143158
749.910	0.0144035
749.988	0.0144832
750.067	0.0144063
750.145	0.0144376
750.223	0.0145802
750.301	0.0144798
750.379	0.0144252
750.457	0.0144886
750.535	0.0143665
750.613	0.0144021
750.692	0.0146080
750.770	0.0146661
750.848	0.0147128
750.926	0.0146484
751.004	0.0145273
751.082	0.0146174
751.160	0.0145158
751.238	0.0145618
751.317	0.0144202
751.395	0.0145179
751.473	0.0144857
751.551	0.0143486
751.629	0.0143622
751.707	0.0144794
751.785	0.0142254
751.863	0.0143803
751.942	0.0142714
752.020	0.0144001
752.098	0.0143582
752.176	0.0142847
752.254	0.0141713
752.332	0.0143303
752.410	0.0142509
752.488	0.0143150
752.567	0.0143645
752.645	0.0143365
752.723	0.0143294
752.801	0.0144073
752.879	0.0144098
752.957	0.0145718
753.035	0.0146485
753.113	0.0145256
753.192	0.0144587
753.270	0.0146258
753.348	0.0145932
753.426	0.0143978
753.504	0.0145219
753.582	0.0144557
753.660	0.0143935
753.738	0.0144798
753.817	0.0144302
753.895	0.0144836
753.973	0.0145657
754.051	0.0145506
754.129	0.0146459
754.207	0.0144645
754.285	0.0145170
754.363	0.0145395
754.442	0.0146584
754.520	0.0147208
754.598	0.0146921
754.676	0.0146301
754.754	0.0149119
754.832	0.0146787
754.910	0.0147180
754.988	0.0146963
755.067	0.0146745
755.145	0.0145719
755.223	0.0144896
755.301	0.0144106
755.379	0.0144658
755.457	0.0144295
755.535	0.0143555
755.613	0.0143488
755.692	0.0143950
755.770	0.0142683
755.848	0.0143135
755.926	0.0142812
756.004	0.0142632
756.082	0.0142112
756.160	0.0142795
756.238	0.0143176
756.317	0.0144350
756.395	0.0142323
756.473	0.0142499
756.551	0.0143060
756.629	0.0142796
756.707	0.0142804
756.785	0.0145207
756.863	0.0145787
756.942	0.0144961
757.020	0.0145266
757.098	0.0145468
757.176	0.0145439
757.254	0.0145331
757.332	0.0144979
757.410	0.0145358
757.488	0.0146098
757.567	0.0143684
757.645	0.0144747
757.723	0.0145135
757.801	0.0143988
757.879	0.0145288
757.957	0.0144558
758.035	0.0144411
758.113	0.0144902
758.192	0.0144716
758.270	0.0143093
758.348	0.0143993
758.426	0.0144446
758.504	0.0143545
758.582	0.0143477
758.660	0.0143064
758.738	0.0143834
758.817	0.0145506
758.895	0.0144490
758.973	0.0143313
759.051	0.0143433
759.129	0.0144761
759.207	0.0144812
759.285	0.0143524
759.363	0.0144525
759.442	0.0145020
759.520	0.0144732
759.598	0.0143222
759.676	0.0143920
759.754	0.0145166
759.832	0.0144274
759.910	0.0143156
759.988	0.0144154
760.067	0.0144753
760.145	0.0144027
760.223	0.0144170
760.301	0.0144034
760.379	0.0144915
760.457	0.0144881
760.535	0.0143700
760.613	0.0143288
760.692	0.0145859
760.770	0.0144961
760.848	0.0145285
760.926	0.0144180
761.004	0.0145589
761.082	0.0144295
761.160	0.0145533
761.238	0.0145829
761.317	0.0146043
761.395	0.0144566
761.473	0.0147459
761.551	0.0145678
761.629	0.0145966
761.707	0.0145763
761.785	0.0145097
761.863	0.0144727
761.942	0.0146288
762.020	0.0144768
762.098	0.0146631
762.176	0.0146570
762.254	0.0147366
762.332	0.0146767
762.410	0.0147408
762.488	0.0147463
762.567	0.0147291
762.645	0.0148096
762.723	0.0147399
762.801	0.0146682
762.879	0.0146429
762.957	0.0143839
763.035	0.0147305
763.113	0.0146137
763.192	0.0144419
763.270	0.0143739
763.348	0.0144176
763.426	0.0142983
763.504	0.0142175
763.582	0.0143089
763.660	0.0143317
763.738	0.0141832
763.817	0.0141985
763.895	0.0144107
763.973	0.0141677
764.051	0.0143384
764.129	0.0141959
764.207	0.0142873
764.285	0.0142939
764.363	0.0142023
764.442	0.0144055
764.520	0.0143738
764.598	0.0142657
764.676	0.0143591
764.754	0.0145464
764.832	0.0146024
764.910	0.0147007
764.988	0.0146413
765.067	0.0146915
765.145	0.0146742
765.223	0.0147622
765.301	0.0148309
765.379	0.0147665
765.457	0.0146752
765.535	0.0146661
765.613	0.0147155
765.692	0.0147316
765.770	0.0146583
765.848	0.0146546
765.926	0.0145956
766.004	0.0146159
766.082	0.0146003
766.160	0.0146324
766.238	0.0145012
766.317	0.0144576
766.395	0.0143767
766.473	0.0146224
766.551	0.0145916
766.629	0.0145781
766.707	0.0147320
766.785	0.0147403
766.863	0.0146986
766.942	0.0147042
767.020	0.0146214
767.098	0.0146935
767.176	0.0145666
767.254	0.0145443
767.332	0.0146776
767.410	0.0146004
767.488	0.0146415
767.567	0.0146088
767.645	0.0145779
767.723	0.0144593
767.801	0.0145825
767.879	0.0143980
767.957	0.0144698
768.035	0.0145464
768.113	0.0143918
768.192	0.0142619
768.270	0.0142325
768.348	0.0143434
768.426	0.0143526
768.504	0.0143480
768.582	0.0141984
768.660	0.0143246
768.738	0.0142626
768.817	0.0141830
768.895	0.0142980
768.973	0.0144245
769.051	0.0142924
769.129	0.0143743
769.207	0.0143631
769.285	0.0144368
769.363	0.0144653
769.442	0.0146062
769.520	0.0144232
769.598	0.0145650
769.676	0.0145248
769.754	0.0145666
769.832	0.0146545
769.910	0.0145991
769.988	0.0146834
770.067	0.0146843
770.145	0.0147409
770.223	0.0145594
770.301	0.0146706
770.379	0.0146051
770.457	0.0146213
770.535	0.0147340
770.613	0.0146473
770.692	0.0145692
770.770	0.0146561
770.848	0.0145943
770.926	0.0147424
771.004	0.0147217
771.082	0.0146613
771.160	0.0145634
771.238	0.0146310
771.317	0.0147279
771.395	0.0145004
771.473	0.0144501
771.551	0.0145704
771.629	0.0145602
771.707	0.0145673
771.785	0.0145137
771.863	0.0144777
771.942	0.0144261
772.020	0.0145078
772.098	0.0145761
772.176	0.0144951
772.254	0.0144656
772.332	0.0145238
772.410	0.0142024
772.488	0.0144448
772.567	0.0143484
772.645	0.0143973
772.723	0.0143530
772.801	0.0143893
772.879	0.0143269
772.957	0.0144408
773.035	0.0143780
773.113	0.0144604
773.192	0.0143713
773.270	0.0144295
773.348	0.0143835
773.426	0.0145406
773.504	0.0145318
773.582	0.0143836
773.660	0.0143899
773.738	0.0143345
773.817	0.0144009
773.895	0.0143320
773.973	0.0142900
774.051	0.0142651
774.129	0.0142875
774.207	0.0142677
774.285	0.0141847
774.363	0.0141120
774.442	0.0143162
774.520	0.0142559
774.598	0.0144742
774.676	0.0143291
774.754	0.0142577
774.832	0.0143953
774.910	0.0142439
774.988	0.0143983
775.067	0.0144347
775.145	0.0144135
775.223	0.0145155
775.301	0.0145148
775.379	0.0144205
775.457	0.0143881
775.535	0.0144501
775.613	0.0145393
775.692	0.0145287
775.770	0.0146798
775.848	0.0145995
775.926	0.0146791
776.004	0.0147202
776.082	0.0147156
776.160	0.0146406
776.238	0.0147356
776.317	0.0147756
776.395	0.0146837
776.473	0.0146677
776.551	0.0145676
776.629	0.0146928
776.707	0.0146265
776.785	0.0146363
776.863	0.0147858
776.942	0.0146713
777.020	0.0147192
777.098	0.0144955
777.176	0.0145498
777.254	0.0144721
777.332	0.0145580
777.410	0.0145239
777.488	0.0145416
777.567	0.0145139
777.645	0.0144286
777.723	0.0144201
777.801	0.0144015
777.879	0.0143394
777.957	0.0143673
778.035	0.0143777
778.113	0.0142078
778.192	0.0143497
778.270	0.0142804
778.348	0.0141593
778.426	0.0143405
778.504	0.0142648
778.582	0.0144965
778.660	0.0143346
778.738	0.0142797
778.817	0.0143784
778.895	0.0143803
778.973	0.0144753
779.051	0.0142853
779.129	0.0143767
779.207	0.0144516
779.285	0.0143804
779.363	0.0144891
779.442	0.0145277
779.520	0.0143810
779.598	0.0144799
779.676	0.0145693
779.754	0.0144504
779.832	0.0143152
779.910	0.0144565
779.988	0.0142473
780.067	0.0144490
780.145	0.0143750
780.223	0.0143205
780.301	0.0143711
780.379	0.0144677
780.457	0.0144371
780.535	0.0144443
780.613	0.0144869
780.692	0.0142886
780.770	0.0144833
780.848	0.0145664
780.926	0.0146311
781.004	0.0145712
781.082	0.0146721
781.160	0.0145692
781.238	0.0146531
781.317	0.0146680
781.395	0.0148324
781.473	0.0148018
781.551	0.0147576
781.629	0.0147232
781.707	0.0147928
781.785	0.0146091
781.863	0.0145766
781.942	0.0147208
782.020	0.0146828
782.098	0.0145695
782.176	0.0145012
782.254	0.0145206
782.332	0.0143538
782.410	0.0143599
782.488	0.0144345
782.567	0.0144563
782.645	0.0142962
782.723	0.0142421
782.801	0.0143667
782.879	0.0142908
782.957	0.0143185
783.035	0.0144067
783.113	0.0142918
783.192	0.0144144
783.270	0.0143587
783.348	0.0143731
783.426	0.0144747
783.504	0.0143922
783.582	0.0144775
783.660	0.0145114
783.738	0.0143655
783.817	0.0145675
783.895	0.0144387
783.973	0.0146619
784.051	0.0145831
784.129	0.0145760
784.207	0.0145826
784.285	0.0146109
784.363	0.0144391
784.442	0.0144901
784.520	0.0144755
784.598	0.0145287
784.676	0.0143167
784.754	0.0142478
784.832	0.0144852
784.910	0.0143514
784.988	0.0143325
785.067	0.0142905
785.145	0.0143784
785.223	0.0143927
785.301	0.0144248
785.379	0.0144352
785.457	0.0143796
785.535	0.0143350
785.613	0.0143914
785.692	0.0144003
785.770	0.0143112
785.848	0.0143031
785.926	0.0145095
786.004	0.0143550
786.082	0.0144106
786.160	0.0144727
786.238	0.0142832
786.317	0.0145349
786.395	0.0144661
786.473	0.0144614
786.551	0.0143827
786.629	0.0145419
786.707	0.0146549
786.785	0.0145393
786.863	0.0144978
786.942	0.0146194
787.020	0.0146734
787.098	0.0146516
787.176	0.0145885
787.254	0.0146935
787.332	0.0147356
787.410	0.0147249
787.488	0.0147998
787.567	0.0146441
787.645	0.0146576
787.723	0.0148397
787.801	0.0146667
787.879	0.0146653
787.957	0.0146288
788.035	0.0146429
788.113	0.0145313
788.192	0.0143509
788.270	0.0144522
788.348	0.0146157
788.426	0.0145444
788.504	0.0144273
788.582	0.0144738
788.660	0.0143443
788.738	0.0144822
788.817	0.0143818
788.895	0.0143009
788.973	0.0143762
789.051	0.0145029
789.129	0.0144025
789.207	0.0143880
789.285	0.0143050
789.363	0.0145128
789.442	0.0144369
789.520	0.0143581
789.598	0.0143658
789.676	0.0142990
789.754	0.0143527
789.832	0.0143491
789.910	0.0143008
789.988	0.0143192
790.067	0.0143488
790.145	0.0142631
790.223	0.0142657
790.301	0.0143452
790.379	0.0142786
790.457	0.0144138
790.535	0.0142808
790.613	0.0143940
790.692	0.0143497
790.770	0.0145019
790.848	0.0144341
790.926	0.0145809
791.004	0.0144608
791.082	0.0145773
791.160	0.0146728
791.238	0.0145454
791.317	0.0146259
791.395	0.0145310
791.473	0.0145158
791.551	0.0145985
791.629	0.0145435
791.707	0.0146404
791.785	0.0144606
791.863	0.0144912
791.942	0.0146413
792.020	0.0145526
792.098	0.0144672
792.176	0.0146713
792.254	0.0145544
792.332	0.0144745
792.410	0.0144476
792.488	0.0146165
792.567	0.0145047
792.645	0.0145828
792.723	0.0145388
792.801	0.0145747
792.879	0.0143713
792.957	0.0144399
793.035	0.0145641
793.113	0.0144564
793.192	0.0144799
793.270	0.0145259
793.348	0.0145519
793.426	0.0145188
793.504	0.0146342
793.582	0.0147231
793.660	0.0146560
793.738	0.0145689
793.817	0.0145657
793.895	0.0144772
793.973	0.0144250
794.051	0.0144650
794.129	0.0144827
794.207	0.0144722
794.285	0.0143813
794.363	0.0144494
794.442	0.0145197
794.520	0.0145933
794.598	0.0144567
794.676	0.0143256
794.754	0.0145045
794.832	0.0145401
794.910	0.0146233
794.988	0.0144695
795.067	0.0143530
795.145	0.0145580
795.223	0.0144822
795.301	0.0145880
795.379	0.0144964
795.457	0.0145676
795.535	0.0144440
795.613	0.0144545
795.692	0.0145395
795.770	0.0143823
795.848	0.0144555
795.926	0.0143789
796.004	0.0144244
796.082	0.0143576
796.160	0.0144852
796.238	0.0144256
796.317	0.0144072
796.395	0.0143877
796.473	0.0142850
796.551	0.0142950
796.629	0.0144003
796.707	0.0143849
796.785	0.0143526
796.863	0.0143686
796.942	0.0142941
797.020	0.0142948
797.098	0.0143309
797.176	0.0142878
797.254	0.0143539
797.332	0.0144685
797.410	0.0144159
797.488	0.0143468
797.567	0.0142226
797.645	0.0144559
797.723	0.0143611
797.801	0.0144633
797.879	0.0144556
797.957	0.0144635
798.035	0.0144847
798.113	0.0144189
798.192	0.0146010
798.270	0.0145687
798.348	0.0146808
798.426	0.0144939
798.504	0.0146217
798.582	0.0146593
798.660	0.0147364
798.738	0.0146816
798.817	0.0147102
798.895	0.0146219
798.973	0.0147385
799.051	0.0145892
799.129	0.0145636
799.207	0.0145824
799.285	0.0147279
799.363	0.0145930
799.442	0.0145787
799.520	0.0145379
799.598	0.0145608
799.676	0.0145582
799.754	0.0144299
799.832	0.0144723
799.910	0.0142931
799.988	0.0144684
800.067	0.0144273
800.145	0.0144131
800.223	0.0143358
800.301	0.0142818
800.379	0.0144207
800.457	0.0144855
800.535	0.0144202
800.613	0.0144759
800.692	0.0143922
800.770	0.0143935
800.848	0.0144344
800.926	0.0145454
801.004	0.0145220
801.082	0.0145120
801.160	0.0145296
801.238	0.0145850
801.317	0.0144702
801.395	0.0145266
801.473	0.0144134
801.551	0.0143542
801.629	0.0144128
801.707	0.0144003
801.785	0.0143689
801.863	0.0142589
801.942	0.0143722
802.020	0.0143954
802.098	0.0144144
802.176	0.0143636
802.254	0.0143426
802.332	0.0144781
802.410	0.0142638
802.488	0.0144316
802.567	0.0144218
802.645	0.0143381
802.723	0.0142994
802.801	0.0143741
802.879	0.0144455
802.957	0.0143140
803.035	0.0143928
803.113	0.0143406
803.192	0.0144242
803.270	0.0143608
803.348	0.0143443
803.426	0.0143877
803.504	0.0144513
803.582	0.0144319
803.660	0.0144369
803.738	0.0143673
803.817	0.0145770
803.895	0.0144032
803.973	0.0143003
804.051	0.0142404
804.129	0.0143589
804.207	0.0145929
804.285	0.0144337
804.363	0.0144534
804.442	0.0143333
804.520	0.0144719
804.598	0.0145423
804.676	0.0145384
804.754	0.0144803
804.832	0.0143432
804.910	0.0142867
804.988	0.0143922
805.067	0.0145159
805.145	0.0144340
805.223	0.0144498
805.301	0.0143913
805.379	0.0145265
805.457	0.0145309
805.535	0.0144988
805.613	0.0144448
805.692	0.0145359
805.770	0.0146649
805.848	0.0145639
805.926	0.0146040
806.004	0.0144751
806.082	0.0144315
806.160	0.0145734
806.238	0.0145415
806.317	0.0144583
806.395	0.0144039
806.473	0.0146049
806.551	0.0145954
806.629	0.0145914
806.707	0.0145574
806.785	0.0146475
806.863	0.0146465
806.942	0.0146386
807.020	0.0145810
807.098	0.0146165
807.176	0.0145820
807.254	0.0146049
807.332	0.0145158
807.410	0.0146404
807.488	0.0146351
807.567	0.0145701
807.645	0.0146169
807.723	0.0145158
807.801	0.0145736
807.879	0.0144973
807.957	0.0144511
808.035	0.0143444
808.113	0.0145357
808.192	0.0144593
808.270	0.0143568
808.348	0.0142295
808.426	0.0142960
808.504	0.0143850
808.582	0.0142142
808.660	0.0143032
808.738	0.0141924
808.817	0.0141377
808.895	0.0142644
808.973	0.0142191
809.051	0.0143541
809.129	0.0142754
809.207	0.0142467
809.285	0.0142429
809.363	0.0143492
809.442	0.0143633
809.520	0.0143045
809.598	0.0143922
809.676	0.0143642
809.754	0.0143530
809.832	0.0144198
809.910	0.0144917
809.988	0.0143626
810.067	0.0144893
810.145	0.0147393
810.223	0.0144730
810.301	0.0144207
810.379	0.0143720
810.457	0.0144994
810.535	0.0145506
810.613	0.0145374
810.692	0.0146807
810.770	0.0146375
810.848	0.0146870
810.926	0.0145669
811.004	0.0146698
811.082	0.0145847
811.160	0.0145731
811.238	0.0145874
811.317	0.0145955
811.395	0.0146070
811.473	0.0144688
811.551	0.0144702
811.629	0.0145464
811.707	0.0145863
811.785	0.0144785
811.863	0.0144711
811.942	0.0145055
812.020	0.0144745
812.098	0.0145097
812.176	0.0145488
812.254	0.0144497
812.332	0.0144650
812.410	0.0145395
812.488	0.0145607
812.567	0.0146613
812.645	0.0146347
812.723	0.0144669
812.801	0.0145136
812.879	0.0144768
812.957	0.0146355
813.035	0.0145584
813.113	0.0144845
813.192	0.0144770
813.270	0.0144012
813.348	0.0144353
813.426	0.0144430
813.504	0.0143099
813.582	0.0143780
813.660	0.0144125
813.738	0.0144420
813.817	0.0143060
813.895	0.0143036
813.973	0.0143196
814.051	0.0143562
814.129	0.0142814
814.207	0.0143109
814.285	0.0145297
814.363	0.0142783
814.442	0.0142850
814.520	0.0142751
814.598	0.0143518
814.676	0.0144176
814.754	0.0144094
814.832	0.0144253
814.910	0.0144656
814.988	0.0143810
815.067	0.0144268
815.145	0.0143610
815.223	0.0145226
815.301	0.0144267
815.379	0.0144105
815.457	0.0144846
815.535	0.0143899
815.613	0.0144639
815.692	0.0144467
815.770	0.0144973
815.848	0.0143408
815.926	0.0144334
816.004	0.0145645
816.082	0.0144282
816.160	0.0145390
816.238	0.0143658
816.317	0.0145138
816.395	0.0144808
816.473	0.0144002
816.551	0.0144905
816.629	0.0143601
816.707	0.0143335
816.785	0.0143452
816.863	0.0144627
816.942	0.0144312
817.020	0.0143299
817.098	0.0143899
817.176	0.0144196
817.254	0.0143934
817.332	0.0143797
817.410	0.0145395
817.488	0.0143687
817.567	0.0144257
817.645	0.0142374
817.723	0.0144424
817.801	0.0144698
817.879	0.0145044
817.957	0.0145348
818.035	0.0145403
818.113	0.0144839
818.192	0.0145615
818.270	0.0145992
818.348	0.0146470
818.426	0.0145329
818.504	0.0145642
818.582	0.0144791
818.660	0.0146026
818.738	0.0146584
818.817	0.0146043
818.895	0.0144907
818.973	0.0145909
819.051	0.0145881
819.129	0.0144488
819.207	0.0144685
819.285	0.0144191
819.363	0.0144318
819.442	0.0145859
819.520	0.0142726
819.598	0.0143670
819.676	0.0144836
819.754	0.0145168
819.832	0.0143463
819.910	0.0143634
819.988	0.0143912
820.067	0.0143254
820.145	0.0144083
820.223	0.0143991
820.301	0.0143593
820.379	0.0143406
820.457	0.0144189
820.535	0.0143919
820.613	0.0142849
820.692	0.0143126
820.770	0.0144014
820.848	0.0144779
820.926	0.0144328
821.004	0.0143909
821.082	0.0145188
821.160	0.0143851
821.238	0.0144190
821.317	0.0145583
821.395	0.0144798
821.473	0.0146532
821.551	0.0144622
821.629	0.0146209
821.707	0.0145657
821.785	0.0145182
821.863	0.0145399
821.942	0.0146747
822.020	0.0145924
822.098	0.0145938
822.176	0.0144742
822.254	0.0145795
822.332	0.0146246
822.410	0.0145110
822.488	0.0146194
822.567	0.0143881
822.645	0.0143909
822.723	0.0145367
822.801	0.0144402
822.879	0.0144189
822.957	0.0144955
823.035	0.0144807
823.113	0.0144816
823.192	0.0143155
823.270	0.0145131
823.348	0.0143941
823.426	0.0145779
823.504	0.0143230
823.582	0.0144426
823.660	0.0145065
823.738	0.0145774
823.817	0.0145748
823.895	0.0145167
823.973	0.0143774
824.051	0.0144415
824.129	0.0144583
824.207	0.0144865
824.285	0.0143480
824.363	0.0144932
824.442	0.0144682
824.520	0.0143807
824.598	0.0145009
824.676	0.0144183
824.754	0.0145215
824.832	0.0144624
824.910	0.0143689
824.988	0.0142979
825.067	0.0144347
825.145	0.0144324
825.223	0.0144994
825.301	0.0143216
825.379	0.0145001
825.457	0.0145086
825.535	0.0143574
825.613	0.0144205
825.692	0.0143624
825.770	0.0144361
825.848	0.0145869
825.926	0.0144527
826.004	0.0143954
826.082	0.0145088
826.160	0.0144528
826.238	0.0146621
826.317	0.0145787
826.395	0.0144491
826.473	0.0145122
826.551	0.0146262
826.629	0.0145184
826.707	0.0144328
826.785	0.0145306
826.863	0.0145592
826.942	0.0146337
827.020	0.0145335
827.098	0.0145237
827.176	0.0144164
827.254	0.0145114
827.332	0.0144367
827.410	0.0146060
827.488	0.0145084
827.567	0.0143396
827.645	0.0144217
827.723	0.0144277
827.801	0.0144613
827.879	0.0144065
827.957	0.0143356
828.035	0.0143626
828.113	0.0143791
828.192	0.0145895
828.270	0.0146475
828.348	0.0143633
828.426	0.0144872
828.504	0.0145142
828.582	0.0144833
828.660	0.0144515
828.738	0.0145930
828.817	0.0143940
828.895	0.0145942
828.973	0.0144154
829.051	0.0146382
829.129	0.0144877
829.207	0.0144782
829.285	0.0144579
829.363	0.0145014
829.442	0.0144999
829.520	0.0144739
829.598	0.0145482
829.676	0.0144241
829.754	0.0145105
829.832	0.0144460
829.910	0.0144193
829.988	0.0146275
830.067	0.0144828
830.145	0.0144804
830.223	0.0143845
830.301	0.0143462
830.379	0.0143414
830.457	0.0143554
830.535	0.0143603
830.613	0.0142328
830.692	0.0143707
830.770	0.0144869
830.848	0.0143679
830.926	0.0143906
831.004	0.0143867
831.082	0.0142102
831.160	0.0144843
831.238	0.0142185
831.317	0.0144413
831.395	0.0142513
831.473	0.0144404
831.551	0.0143009
831.629	0.0142824
831.707	0.0144733
831.785	0.0142581
831.863	0.0143513
831.942	0.0145035
832.020	0.0143356
832.098	0.0142801
832.176	0.0144843
832.254	0.0143946
832.332	0.0144131
832.410	0.0143676
832.488	0.0144438
832.567	0.0143437
832.645	0.0143266
832.723	0.0144881
832.801	0.0144024
832.879	0.0145015
832.957	0.0144116
833.035	0.0147014
833.113	0.0143700
833.192	0.0144833
833.270	0.0145491
833.348	0.0145650
833.426	0.0146211
833.504	0.0146592
833.582	0.0144993
833.660	0.0145217
833.738	0.0145978
833.817	0.0144505
833.895	0.0145084
833.973	0.0145987
834.051	0.0145269
834.129	0.0144898
834.207	0.0145658
834.285	0.0143766
834.363	0.0142973
834.442	0.0144188
834.520	0.0144370
834.598	0.0145359
834.676	0.0143839
834.754	0.0144482
834.832	0.0143770
834.910	0.0143369
834.988	0.0143469
835.067	0.0143053
835.145	0.0143073
835.223	0.0144975
835.301	0.0145838
835.379	0.0145038
835.457	0.0143246
835.535	0.0144674
835.613	0.0144809
835.692	0.0144761
835.770	0.0145718
835.848	0.0144829
835.926	0.0145256
836.004	0.0144755
836.082	0.0144255
836.160	0.0145311
836.238	0.0144858
836.317	0.0145805
836.395	0.0145958
836.473	0.0143155
836.551	0.0144215
836.629	0.0144460
836.707	0.0143260
836.785	0.0144405
836.863	0.0143639
836.942	0.0143259
837.020	0.0144079
837.098	0.0143748
837.176	0.0144214
837.254	0.0144353
837.332	0.0142898
837.410	0.0143832
837.488	0.0144196
837.567	0.0144035
837.645	0.0143370
837.723	0.0144184
837.801	0.0143487
837.879	0.0143149
837.957	0.0144942
838.035	0.0144064
838.113	0.0143818
838.192	0.0145690
838.270	0.0145496
838.348	0.0143708
838.426	0.0145320
838.504	0.0145052
838.582	0.0143131
838.660	0.0144926
838.738	0.0145483
838.817	0.0144792
838.895	0.0145160
838.973	0.0144537
839.051	0.0143948
839.129	0.0144524
839.207	0.0145618
839.285	0.0143645
839.363	0.0144901
839.442	0.0145065
839.520	0.0144701
839.598	0.0146666
839.676	0.0145151
839.754	0.0145194
839.832	0.0143956
839.910	0.0145259
839.988	0.0146606
840.067	0.0145460
840.145	0.0144656
840.223	0.0145695
840.301	0.0145017
840.379	0.0145556
840.457	0.0146180
840.535	0.0144600
840.613	0.0145823
840.692	0.0144431
840.770	0.0145017
840.848	0.0144548
840.926	0.0144789
841.004	0.0145727
841.082	0.0146316
841.160	0.0144997
841.238	0.0143645
841.317	0.0144740
841.395	0.0145254
841.473	0.0144880
841.551	0.0145113
841.629	0.0145477
841.707	0.0145201
841.785	0.0144980
841.863	0.0144934
841.942	0.0143929
842.020	0.0144199
842.098	0.0144859
842.176	0.0143262
842.254	0.0143274
842.332	0.0144511
842.410	0.0143486
842.488	0.0143179
842.567	0.0143294
842.645	0.0143778
842.723	0.0144691
842.801	0.0144248
842.879	0.0144189
842.957	0.0144737
843.035	0.0142946
843.113	0.0144951
843.192	0.0145464
843.270	0.0144800
843.348	0.0144147
843.426	0.0145656
843.504	0.0145512
843.582	0.0146624
843.660	0.0146889
843.738	0.0145509
843.817	0.0146410
843.895	0.0147266
843.973	0.0145496
844.051	0.0146310
844.129	0.0146611
844.207	0.0145689
844.285	0.0145438
844.363	0.0145721
844.442	0.0146484
844.520	0.0145863
844.598	0.0145210
844.676	0.0144652
844.754	0.0145224
844.832	0.0145494
844.910	0.0144852
844.988	0.0144550
845.067	0.0145232
845.145	0.0144027
845.223	0.0145364
845.301	0.0145257
845.379	0.0143875
845.457	0.0144070
845.535	0.0145235
845.613	0.0144393
845.692	0.0144003
845.770	0.0144383
845.848	0.0145208
845.926	0.0145103
846.004	0.0144877
846.082	0.0143390
846.160	0.0143708
846.238	0.0144744
846.317	0.0145154
846.395	0.0143790
846.473	0.0144956
846.551	0.0144975
846.629	0.0145387
846.707	0.0143780
846.785	0.0144907
846.863	0.0144691
846.942	0.0143342
847.020	0.0144260
847.098	0.0145548
847.176	0.0144781
847.254	0.0143430
847.332	0.0143694
847.410	0.0143741
847.488	0.0142940
847.567	0.0144679
847.645	0.0146006
847.723	0.0145331
847.801	0.0145303
847.879	0.0145175
847.957	0.0145733
848.035	0.0144975
848.113	0.0143962
848.192	0.0144563
848.270	0.0144026
848.348	0.0143581
848.426	0.0143037
848.504	0.0143705
848.582	0.0144997
848.660	0.0144973
848.738	0.0143713
848.817	0.0142738
848.895	0.0143147
848.973	0.0144000
849.051	0.0143806
849.129	0.0143389
849.207	0.0144270
849.285	0.0143805
849.363	0.0143998
849.442	0.0143613
849.520	0.0143095
849.598	0.0141687
849.676	0.0143965
849.754	0.0145621
849.832	0.0143073
849.910	0.0143468
849.988	0.0144653
850.067	0.0144022
850.145	0.0143523
850.223	0.0144349
850.301	0.0145081
850.379	0.0145199
850.457	0.0144940
850.535	0.0144941
850.613	0.0145247
850.692	0.0144711
850.770	0.0145361
850.848	0.0144096
850.926	0.0145313
851.004	0.0145209
851.082	0.0145678
851.160	0.0145061
851.238	0.0144672
851.317	0.0145155
851.395	0.0145454
851.473	0.0144774
851.551	0.0145210
851.629	0.0144955
851.707	0.0145277
851.785	0.0144489
851.863	0.0145755
851.942	0.0143503
852.020	0.0145592
852.098	0.0143751
852.176	0.0144312
852.254	0.0144848
852.332	0.0145420
852.410	0.0144379
852.488	0.0143775
852.567	0.0144590
852.645	0.0144301
852.723	0.0144514
852.801	0.0145090
852.879	0.0144063
852.957	0.0143964
853.035	0.0143661
853.113	0.0142913
853.192	0.0142248
853.270	0.0143140
853.348	0.0144013
853.426	0.0141863
853.504	0.0142826
853.582	0.0142578
853.660	0.0142162
853.738	0.0142626
853.817	0.0143931
853.895	0.0143496
853.973	0.0144241
854.051	0.0143661
854.129	0.0143087
854.207	0.0142314
854.285	0.0143672
854.363	0.0143068
854.442	0.0142966
854.520	0.0143427
854.598	0.0144066
854.676	0.0144556
854.754	0.0143266
854.832	0.0142131
854.910	0.0142751
854.988	0.0143381
855.067	0.0144280
855.145	0.0143868
855.223	0.0144585
855.301	0.0143186
855.379	0.0143796
855.457	0.0144729
855.535	0.0145422
855.613	0.0144102
855.692	0.0143498
855.770	0.0145844
855.848	0.0144924
855.926	0.0143544
856.004	0.0143639
856.082	0.0143133
856.160	0.0144189
856.238	0.0144453
856.317	0.0144679
856.395	0.0144189
856.473	0.0143366
856.551	0.0144891
856.629	0.0144786
856.707	0.0145885
856.785	0.0145013
856.863	0.0144237
856.942	0.0145480
857.020	0.0146124
857.098	0.0144499
857.176	0.0146283
857.254	0.0146956
857.332	0.0146096
857.410	0.0144490
857.488	0.0144684
857.567	0.0145693
857.645	0.0144530
857.723	0.0146626
857.801	0.0144373
857.879	0.0145857
857.957	0.0144286
858.035	0.0144687
858.113	0.0146524
858.192	0.0145555
858.270	0.0142768
858.348	0.0141408
858.426	0.0143834
858.504	0.0143453
858.582	0.0144722
858.660	0.0143387
858.738	0.0143421
858.817	0.0142603
858.895	0.0142490
858.973	0.0142894
859.051	0.0144229
859.129	0.0143881
859.207	0.0142630
859.285	0.0143047
859.363	0.0144102
859.442	0.0144105
859.520	0.0144144
859.598	0.0144072
859.676	0.0146424
859.754	0.0145117
859.832	0.0143977
859.910	0.0144840
859.988	0.0145084
860.067	0.0144637
860.145	0.0144665
860.223	0.0144256
860.301	0.0143974
860.379	0.0144009
860.457	0.0142712
860.535	0.0144485
860.613	0.0145943
860.692	0.0144665
860.770	0.0143678
860.848	0.0144658
860.926	0.0143345
861.004	0.0143763
861.082	0.0146602
861.160	0.0144376
861.238	0.0144052
861.317	0.0145365
861.395	0.0145988
861.473	0.0147703
861.551	0.0145646
861.629	0.0145940
861.707	0.0146365
861.785	0.0146671
861.863	0.0146299
861.942	0.0145934
862.020	0.0145527
862.098	0.0145038
862.176	0.0145718
862.254	0.0145606
862.332	0.0144403
862.410	0.0145128
862.488	0.0145631
862.567	0.0144993
862.645	0.0145192
862.723	0.0144759
862.801	0.0144168
862.879	0.0143941
862.957	0.0143862
863.035	0.0144444
863.113	0.0145477
863.192	0.0143971
863.270	0.0141933
863.348	0.0143631
863.426	0.0145423
863.504	0.0143148
863.582	0.0144492
863.660	0.0143981
863.738	0.0144782
863.817	0.0144363
863.895	0.0145022
863.973	0.0144938
864.051	0.0144321
864.129	0.0143958
864.207	0.0144838
864.285	0.0144687
864.363	0.0146146
864.442	0.0142649
864.520	0.0143736
864.598	0.0143859
864.676	0.0144299
864.754	0.0143613
864.832	0.0143458
864.910	0.0143465
864.988	0.0143686
865.067	0.0145767
865.145	0.0143600
865.223	0.0143779
865.301	0.0144607
865.379	0.0143885
865.457	0.0144204
865.535	0.0145273
865.613	0.0145399
865.692	0.0144038
865.770	0.0143233
865.848	0.0143969
865.926	0.0146336
866.004	0.0146303
866.082	0.0146011
866.160	0.0144720
866.238	0.0145823
866.317	0.0145612
866.395	0.0146573
866.473	0.0146046
866.551	0.0145538
866.629	0.0147183
866.707	0.0145993
866.785	0.0145341
866.863	0.0145656
866.942	0.0145252
867.020	0.0144886
867.098	0.0145660
867.176	0.0145295
867.254	0.0145396
867.332	0.0146226
867.410	0.0145226
867.488	0.0144762
867.567	0.0143015
867.645	0.0142812
867.723	0.0146378
867.801	0.0144913
867.879	0.0143916
867.957	0.0144843
868.035	0.0145246
868.113	0.0144077
868.192	0.0144505
868.270	0.0144107
868.348	0.0144534
868.426	0.0144353
868.504	0.0144894
868.582	0.0143843
868.660	0.0146027
868.738	0.0145473
868.817	0.0144446
868.895	0.0144547
868.973	0.0143547
869.051	0.0144746
869.129	0.0144501
869.207	0.0144786
869.285	0.0144091
869.363	0.0144829
869.442	0.0145398
869.520	0.0144492
869.598	0.0143806
869.676	0.0142948
869.754	0.0143269
869.832	0.0144882
869.910	0.0144794
869.988	0.0142877
870.067	0.0143732
870.145	0.0144864
870.223	0.0144379
870.301	0.0142796
870.379	0.0141755
870.457	0.0143415
870.535	0.0143507
870.613	0.0141982
870.692	0.0143140
870.770	0.0143408
870.848	0.0144944
870.926	0.0144517
871.004	0.0144576
871.082	0.0144354
871.160	0.0145557
871.238	0.0146970
871.317	0.0145509
871.395	0.0145474
871.473	0.0145440
871.551	0.0147729
871.629	0.0147537
871.707	0.0146709
871.785	0.0146053
871.863	0.0146640
871.942	0.0148015
872.020	0.0147852
872.098	0.0146796
872.176	0.0147337
872.254	0.0145705
872.332	0.0145660
872.410	0.0145389
872.488	0.0145656
872.567	0.0145220
872.645	0.0144344
872.723	0.0143687
872.801	0.0143442
872.879	0.0143310
872.957	0.0143422
873.035	0.0144015
873.113	0.0144510
873.192	0.0142562
873.270	0.0144289
873.348	0.0143522
873.426	0.0143955
873.504	0.0143356
873.582	0.0143636
873.660	0.0142583
873.738	0.0142574
873.817	0.0144012
873.895	0.0143208
873.973	0.0143517
874.051	0.0144254
874.129	0.0144437
874.207	0.0144250
874.285	0.0144389
874.363	0.0144654
874.442	0.0145409
874.520	0.0146053
874.598	0.0145780
874.676	0.0146399
874.754	0.0145728
874.832	0.0146231
874.910	0.0146735
874.988	0.0146214
875.067	0.0145444
875.145	0.0144828
875.223	0.0146523
875.301	0.0145493
875.379	0.0145708
875.457	0.0145768
875.535	0.0145423
875.613	0.0144851
875.692	0.0144987
875.770	0.0145111
875.848	0.0145422
875.926	0.0144852
876.004	0.0145059
876.082	0.0145387
876.160	0.0144191
876.238	0.0144929
876.317	0.0144613
876.395	0.0143347
876.473	0.0145452
876.551	0.0145974
876.629	0.0144579
876.707	0.0144913
876.785	0.0145998
876.863	0.0145473
876.942	0.0144923
877.020	0.0145566
877.098	0.0145629
877.176	0.0145189
877.254	0.0145025
877.332	0.0145531
877.410	0.0146745
877.488	0.0144464
877.567	0.0144443
877.645	0.0144347
877.723	0.0142943
877.801	0.0143902
877.879	0.0143964
877.957	0.0142886
878.035	0.0143990
878.113	0.0142641
878.192	0.0143054
878.270	0.0144586
878.348	0.0146037
878.426	0.0144691
878.504	0.0144407
878.582	0.0143783
878.660	0.0144253
878.738	0.0144531
878.817	0.0144519
878.895	0.0144983
878.973	0.0144492
879.051	0.0145148
879.129	0.0145815
879.207	0.0144456
879.285	0.0143947
879.363	0.0144521
879.442	0.0144422
879.520	0.0143015
879.598	0.0143873
879.676	0.0144617
879.754	0.0144095
879.832	0.0144068
879.910	0.0144198
879.988	0.0143398
880.067	0.0144305
880.145	0.0144975
880.223	0.0145061
880.301	0.0143123
880.379	0.0144047
880.457	0.0144173
880.535	0.0145234
880.613	0.0144051
880.692	0.0145760
880.770	0.0145724
880.848	0.0145125
880.926	0.0144508
881.004	0.0144759
881.082	0.0145876
881.160	0.0144529
881.238	0.0145027
881.317	0.0146374
881.395	0.0144257
881.473	0.0144676
881.551	0.0144837
881.629	0.0144639
881.707	0.0143777
881.785	0.0144820
881.863	0.0143616
881.942	0.0143987
882.020	0.0144995
882.098	0.0144550
882.176	0.0144411
882.254	0.0144117
882.332	0.0144956
882.410	0.0145578
882.488	0.0143846
882.567	0.0144602
882.645	0.0146015
882.723	0.0145896
882.801	0.0146170
882.879	0.0145313
882.957	0.0144724
883.035	0.0145505
883.113	0.0145126
883.192	0.0144231
883.270	0.0145661
883.348	0.0145351
883.426	0.0145213
883.504	0.0144315
883.582	0.0145417
883.660	0.0144845
883.738	0.0143834
883.817	0.0144312
883.895	0.0144681
883.973	0.0144723
884.051	0.0144541
884.129	0.0144053
884.207	0.0144485
884.285	0.0144318
884.363	0.0143900
884.442	0.0144824
884.520	0.0143578
884.598	0.0144995
884.676	0.0146529
884.754	0.0145143
884.832	0.0145081
884.910	0.0146204
884.988	0.0146385
885.067	0.0145539
885.145	0.0146789
885.223	0.0144473
885.301	0.0144617
885.379	0.0144214
885.457	0.0143787
885.535	0.0144686
885.613	0.0144733
885.692	0.0145088
885.770	0.0144727
885.848	0.0144773
885.926	0.0144028
886.004	0.0144893
886.082	0.0144713
886.160	0.0144087
886.238	0.0144466
886.317	0.0145174
886.395	0.0145341
886.473	0.0145242
886.551	0.0145742
886.629	0.0142779
886.707	0.0144514
886.785	0.0145483
886.863	0.0145805
886.942	0.0143810
887.020	0.0144434
887.098	0.0145847
887.176	0.0145335
887.254	0.0145981
887.332	0.0145049
887.410	0.0145871
887.488	0.0144822
887.567	0.0146258
887.645	0.0145354
887.723	0.0145280
887.801	0.0146825
887.879	0.0144429
887.957	0.0145661
888.035	0.0146767
888.113	0.0146222
888.192	0.0145358
888.270	0.0146162
888.348	0.0146564
888.426	0.0145171
888.504	0.0145790
888.582	0.0145918
888.660	0.0145799
888.738	0.0145720
888.817	0.0146116
888.895	0.0144228
888.973	0.0144563
889.051	0.0145207
889.129	0.0145327
889.207	0.0144373
889.285	0.0145596
889.363	0.0143948
889.442	0.0145201
889.520	0.0145731
889.598	0.0145869
889.676	0.0145850
889.754	0.0145531
889.832	0.0145203
889.910	0.0145302
889.988	0.0144611
890.067	0.0144776
890.145	0.0145080
890.223	0.0146188
890.301	0.0144921
890.379	0.0144753
890.457	0.0144933
890.535	0.0145323
890.613	0.0144735
890.692	0.0145800
890.770	0.0145490
890.848	0.0144329
890.926	0.0145052
891.004	0.0143748
891.082	0.0144412
891.160	0.0144936
891.238	0.0145156
891.317	0.0144707
891.395	0.0143593
891.473	0.0144541
891.551	0.0144947
891.629	0.0144761
891.707	0.0144347
891.785	0.0144143
891.863	0.0144166
891.942	0.0144322
892.020	0.0143208
892.098	0.0144568
892.176	0.0144192
892.254	0.0144514
892.332	0.0145095
892.410	0.0145014
892.488	0.0143224
892.567	0.0144423
892.645	0.0143486
892.723	0.0143909
892.801	0.0143658
892.879	0.0143196
892.957	0.0142902
893.035	0.0144701
893.113	0.0143140
893.192	0.0143571
893.270	0.0143342
893.348	0.0142847
893.426	0.0144595
893.504	0.0144866
893.582	0.0143787
893.660	0.0144759
893.738	0.0143311
893.817	0.0143420
893.895	0.0144601
893.973	0.0145029
894.051	0.0145110
894.129	0.0146880
894.207	0.0145811
894.285	0.0145642
894.363	0.0145960
894.442	0.0146174
894.520	0.0146104
894.598	0.0144579
894.676	0.0146394
894.754	0.0145181
894.832	0.0146010
894.910	0.0145879
894.988	0.0144996
895.067	0.0145649
895.145	0.0144749
895.223	0.0144555
895.301	0.0143368
895.379	0.0145010
895.457	0.0146017
895.535	0.0144335
895.613	0.0143348
895.692	0.0144176
895.770	0.0144084
895.848	0.0145368
895.926	0.0144291
896.004	0.0144292
896.082	0.0144138
896.160	0.0144184
896.238	0.0145180
896.317	0.0144291
896.395	0.0144629
896.473	0.0144221
896.551	0.0143943
896.629	0.0143166
896.707	0.0145358
896.785	0.0145359
896.863	0.0144164
896.942	0.0144810
897.020	0.0143832
897.098	0.0143969
897.176	0.0144559
897.254	0.0144466
897.332	0.0145522
897.410	0.0146194
897.488	0.0144271
897.567	0.0144992
897.645	0.0144182
897.723	0.0144875
897.801	0.0145311
897.879	0.0144459
897.957	0.0144921
898.035	0.0145707
898.113	0.0145480
898.192	0.0146165
898.270	0.0145125
898.348	0.0146266
898.426	0.0145220
898.504	0.0144536
898.582	0.0144771
898.660	0.0145434
898.738	0.0145493
898.817	0.0145879
898.895	0.0145807
898.973	0.0144837
899.051	0.0145131
899.129	0.0143864
899.207	0.0146015
899.285	0.0144401
899.363	0.0145962
899.442	0.0144759
899.520	0.0145448
899.598	0.0144895
899.676	0.0145461
899.754	0.0146025
899.832	0.0146591
899.910	0.0145046
899.988	0.0145892
900.067	0.0145348
900.145	0.0147134
900.223	0.0146313
900.301	0.0145091
900.379	0.0146432
900.457	0.0146318
900.535	0.0145026
900.613	0.0145110
900.692	0.0145522
900.770	0.0144276
900.848	0.0144723
900.926	0.0144599
901.004	0.0144901
901.082	0.0144359
901.160	0.0143909
901.238	0.0143548
901.317	0.0145013
901.395	0.0143739
901.473	0.0143339
901.551	0.0144182
901.629	0.0144181
901.707	0.0144868
901.785	0.0144436
901.863	0.0143511
901.942	0.0144348
902.020	0.0143208
902.098	0.0144490
902.176	0.0144112
902.254	0.0144353
902.332	0.0145356
902.410	0.0143674
902.488	0.0144067
902.567	0.0143758
902.645	0.0145214
902.723	0.0144710
902.801	0.0144292
902.879	0.0145272
902.957	0.0144953
903.035	0.0143642
903.113	0.0143362
903.192	0.0143977
903.270	0.0143886
903.348	0.0144189
903.426	0.0145872
903.504	0.0143761
903.582	0.0144904
903.660	0.0144452
903.738	0.0143605
903.817	0.0143849
903.895	0.0144181
903.973	0.0144241
904.051	0.0143321
904.129	0.0143629
904.207	0.0144934
904.285	0.0144560
904.363	0.0144645
904.442	0.0146630
904.520	0.0144090
904.598	0.0144244
904.676	0.0144575
904.754	0.0144742
904.832	0.0145580
904.910	0.0146053
904.988	0.0144168
905.067	0.0145683
905.145	0.0146063
905.223	0.0144754
905.301	0.0144821
905.379	0.0144490
905.457	0.0146140
905.535	0.0144547
905.613	0.0145371
905.692	0.0146007
905.770	0.0146410
905.848	0.0145479
905.926	0.0145541
906.004	0.0145757
906.082	0.0145299
906.160	0.0144047
906.238	0.0143094
906.317	0.0144109
906.395	0.0143877
906.473	0.0145058
906.551	0.0143356
906.629	0.0144166
906.707	0.0143829
906.785	0.0143393
906.863	0.0142878
906.942	0.0143565
907.020	0.0144288
907.098	0.0143436
907.176	0.0143349
907.254	0.0142320
907.332	0.0141273
907.410	0.0142567
907.488	0.0143517
907.567	0.0143460
907.645	0.0143384
907.723	0.0143549
907.801	0.0143126
907.879	0.0143450
907.957	0.0143222
908.035	0.0144178
908.113	0.0143488
908.192	0.0144172
908.270	0.0143692
908.348	0.0145606
908.426	0.0144198
908.504	0.0143968
908.582	0.0143584
908.660	0.0145411
908.738	0.0146245
908.817	0.0144775
908.895	0.0144609
908.973	0.0145522
909.051	0.0145390
909.129	0.0145480
909.207	0.0146526
909.285	0.0145599
909.363	0.0146013
909.442	0.0146241
909.520	0.0146179
909.598	0.0145754
909.676	0.0145681
909.754	0.0145824
909.832	0.0144962
909.910	0.0145940
909.988	0.0145596
910.067	0.0144880
910.145	0.0143603
910.223	0.0145114
910.301	0.0145667
910.379	0.0143642
910.457	0.0143608
910.535	0.0144641
910.613	0.0144334
910.692	0.0144083
910.770	0.0144377
910.848	0.0145358
910.926	0.0144731
911.004	0.0144556
911.082	0.0144210
911.160	0.0142932
911.238	0.0143222
911.317	0.0145090
911.395	0.0144434
911.473	0.0143793
911.551	0.0143568
911.629	0.0143887
911.707	0.0144330
911.785	0.0144157
911.863	0.0144457
911.942	0.0144537
912.020	0.0142883
912.098	0.0144290
912.176	0.0145213
912.254	0.0144056
912.332	0.0144965
912.410	0.0143881
912.488	0.0144415
912.567	0.0144472
912.645	0.0144456
912.723	0.0144099
912.801	0.0143758
912.879	0.0143475
912.957	0.0142823
913.035	0.0143697
913.113	0.0144128
913.192	0.0145856
913.270	0.0144868
913.348	0.0145237
913.426	0.0145377
913.504	0.0143308
913.582	0.0145309
913.660	0.0146521
913.738	0.0144803
913.817	0.0144630
913.895	0.0145219
913.973	0.0146381
914.051	0.0146323
914.129	0.0145509
914.207	0.0146143
914.285	0.0145520
914.363	0.0145257
914.442	0.0144140
914.520	0.0145246
914.598	0.0145058
914.676	0.0145348
914.754	0.0144466
914.832	0.0145831
914.910	0.0144876
914.988	0.0145275
915.067	0.0145851
915.145	0.0144616
915.223	0.0145267
915.301	0.0144328
915.379	0.0144559
915.457	0.0144226
915.535	0.0144134
915.613	0.0145588
915.692	0.0143329
915.770	0.0145197
915.848	0.0145692
915.926	0.0146579
916.004	0.0145349
916.082	0.0145741
916.160	0.0145978
916.238	0.0145520
916.317	0.0144009
916.395	0.0144567
916.473	0.0144019
916.551	0.0146224
916.629	0.0144464
916.707	0.0143296
916.785	0.0144036
916.863	0.0143660
916.942	0.0142796
917.020	0.0144385
917.098	0.0143999
917.176	0.0143371
917.254	0.0144187
917.332	0.0144212
917.410	0.0145247
917.488	0.0144549
917.567	0.0143846
917.645	0.0143937
917.723	0.0144175
917.801	0.0144158
917.879	0.0145005
917.957	0.0145883
918.035	0.0145750
918.113	0.0145304
918.192	0.0145567
918.270	0.0145729
918.348	0.0145557
918.426	0.0143961
918.504	0.0145636
918.582	0.0144901
918.660	0.0145544
918.738	0.0145062
918.817	0.0144716
918.895	0.0144899
918.973	0.0145377
919.051	0.0143520
919.129	0.0144411
919.207	0.0144495
919.285	0.0145231
919.363	0.0143394
919.442	0.0144511
919.520	0.0144937
919.598	0.0144603
919.676	0.0145354
919.754	0.0144174
919.832	0.0144196
919.910	0.0144264
