05/28/2022	14:11:21	Ver.	4.1	UNKNOWN
Optical Delay	599.988409	Delta X		0.078125	Sweeps	1	Scan Rate	0/0
Coordinates	Axis 1	NaN	Axis 2	NaN	Axis 3	NaN	Axis 4	NaN	Axis 5	NaN	Axis 6	0.000000
TX Power	0.000000	RX Power	0.000000

599.988	0.0144968
600.067	0.0144828
600.145	0.0144711
600.223	0.0144306
600.301	0.0145370
600.379	0.0144551
600.457	0.0145200
600.535	0.0146429
600.613	0.0144666
600.692	0.0144439
600.770	0.0145285
600.848	0.0145223
600.926	0.0145486
601.004	0.0146090
601.082	0.0145892
601.160	0.0145434
601.238	0.0144143
601.317	0.0145858
601.395	0.0145655
601.473	0.0145681
601.551	0.0145277
601.629	0.0144901
601.707	0.0145275
601.785	0.0146125
601.863	0.0146287
601.942	0.0144398
602.020	0.0144714
602.098	0.0144396
602.176	0.0143719
602.254	0.0145147
602.332	0.0145484
602.410	0.0144643
602.488	0.0145019
602.567	0.0146291
602.645	0.0144106
602.723	0.0142973
602.801	0.0145535
602.879	0.0143539
602.957	0.0145325
603.035	0.0144777
603.113	0.0143703
603.192	0.0144565
603.270	0.0144210
603.348	0.0144704
603.426	0.0144753
603.504	0.0144648
603.582	0.0145498
603.660	0.0143969
603.738	0.0145467
603.817	0.0145476
603.895	0.0144028
603.973	0.0145373
604.051	0.0143764
604.129	0.0145381
604.207	0.0144828
604.285	0.0144772
604.363	0.0145211
604.442	0.0144587
604.520	0.0144279
604.598	0.0145441
604.676	0.0144943
604.754	0.0144540
604.832	0.0145918
604.910	0.0145699
604.988	0.0145701
605.067	0.0145559
605.145	0.0144636
605.223	0.0143881
605.301	0.0145193
605.379	0.0143741
605.457	0.0143990
605.535	0.0144836
605.613	0.0144122
605.692	0.0144978
605.770	0.0145426
605.848	0.0144637
605.926	0.0144411
606.004	0.0144977
606.082	0.0145630
606.160	0.0145499
606.238	0.0143722
606.317	0.0144231
606.395	0.0143643
606.473	0.0145525
606.551	0.0144512
606.629	0.0144884
606.707	0.0145680
606.785	0.0144083
606.863	0.0144186
606.942	0.0143461
607.020	0.0144107
607.098	0.0143951
607.176	0.0144689
607.254	0.0144576
607.332	0.0145572
607.410	0.0144526
607.488	0.0144563
607.567	0.0144547
607.645	0.0144439
607.723	0.0145145
607.801	0.0143800
607.879	0.0145154
607.957	0.0145968
608.035	0.0144062
608.113	0.0145757
608.192	0.0144692
608.270	0.0144617
608.348	0.0145002
608.426	0.0145332
608.504	0.0145586
608.582	0.0144597
608.660	0.0144527
608.738	0.0146168
608.817	0.0144321
608.895	0.0145253
608.973	0.0145531
609.051	0.0144274
609.129	0.0144319
609.207	0.0146685
609.285	0.0146375
609.363	0.0144221
609.442	0.0144060
609.520	0.0144096
609.598	0.0144212
609.676	0.0143794
609.754	0.0144235
609.832	0.0143791
609.910	0.0144453
609.988	0.0145258
610.067	0.0144968
610.145	0.0144414
610.223	0.0145103
610.301	0.0145122
610.379	0.0143688
610.457	0.0144319
610.535	0.0145127
610.613	0.0143680
610.692	0.0143764
610.770	0.0144496
610.848	0.0144782
610.926	0.0144421
611.004	0.0145818
611.082	0.0145341
611.160	0.0145271
611.238	0.0145080
611.317	0.0145518
611.395	0.0143932
611.473	0.0143759
611.551	0.0144024
611.629	0.0146120
611.707	0.0144359
611.785	0.0142142
611.863	0.0144957
611.942	0.0144988
612.020	0.0144673
612.098	0.0144299
612.176	0.0144751
612.254	0.0143710
612.332	0.0143661
612.410	0.0145229
612.488	0.0144884
612.567	0.0145150
612.645	0.0144542
612.723	0.0144971
612.801	0.0145075
612.879	0.0143665
612.957	0.0143797
613.035	0.0143239
613.113	0.0144228
613.192	0.0145097
613.270	0.0144051
613.348	0.0144839
613.426	0.0146294
613.504	0.0144707
613.582	0.0144794
613.660	0.0145410
613.738	0.0144952
613.817	0.0144899
613.895	0.0145146
613.973	0.0145271
614.051	0.0143845
614.129	0.0144925
614.207	0.0145339
614.285	0.0144241
614.363	0.0145276
614.442	0.0145345
614.520	0.0143747
614.598	0.0144227
614.676	0.0144360
614.754	0.0144013
614.832	0.0145316
614.910	0.0144759
614.988	0.0144843
615.067	0.0144426
615.145	0.0145406
615.223	0.0144675
615.301	0.0144173
615.379	0.0143931
615.457	0.0144562
615.535	0.0145238
615.613	0.0145612
615.692	0.0143239
615.770	0.0144339
615.848	0.0144667
615.926	0.0144852
616.004	0.0144305
616.082	0.0144865
616.160	0.0144625
616.238	0.0145528
616.317	0.0144601
616.395	0.0144734
616.473	0.0145493
616.551	0.0145947
616.629	0.0144282
616.707	0.0143538
616.785	0.0145333
616.863	0.0145032
616.942	0.0145557
617.020	0.0145267
617.098	0.0144411
617.176	0.0145676
617.254	0.0145782
617.332	0.0144471
617.410	0.0144360
617.488	0.0144831
617.567	0.0144457
617.645	0.0144936
617.723	0.0144769
617.801	0.0144193
617.879	0.0145448
617.957	0.0145502
618.035	0.0144352
618.113	0.0144642
618.192	0.0145377
618.270	0.0143269
618.348	0.0144117
618.426	0.0145988
618.504	0.0144470
618.582	0.0143157
618.660	0.0143942
618.738	0.0145241
618.817	0.0145049
618.895	0.0145194
618.973	0.0144655
619.051	0.0143578
619.129	0.0145930
619.207	0.0144361
619.285	0.0144392
619.363	0.0144962
619.442	0.0144696
619.520	0.0144515
619.598	0.0144752
619.676	0.0145257
619.754	0.0145309
619.832	0.0144905
619.910	0.0145069
619.988	0.0145760
620.067	0.0145452
620.145	0.0145712
620.223	0.0144897
620.301	0.0144590
620.379	0.0144488
620.457	0.0144669
620.535	0.0145567
620.613	0.0145968
620.692	0.0144694
620.770	0.0145029
620.848	0.0145541
620.926	0.0145940
621.004	0.0145811
621.082	0.0145033
621.160	0.0143652
621.238	0.0145628
621.317	0.0146068
621.395	0.0145291
621.473	0.0143539
621.551	0.0144360
621.629	0.0144231
621.707	0.0146136
621.785	0.0145736
621.863	0.0145057
621.942	0.0144950
622.020	0.0145335
622.098	0.0144404
622.176	0.0145647
622.254	0.0146166
622.332	0.0146481
622.410	0.0146539
622.488	0.0146247
622.567	0.0145588
622.645	0.0144753
622.723	0.0145746
622.801	0.0145465
622.879	0.0144218
622.957	0.0145360
623.035	0.0144028
623.113	0.0145335
623.192	0.0144955
623.270	0.0143216
623.348	0.0144855
623.426	0.0145321
623.504	0.0144702
623.582	0.0143862
623.660	0.0146071
623.738	0.0145412
623.817	0.0143653
623.895	0.0146673
623.973	0.0146095
624.051	0.0145877
624.129	0.0144414
624.207	0.0144869
624.285	0.0145689
624.363	0.0144534
624.442	0.0145312
624.520	0.0144675
624.598	0.0144762
624.676	0.0144906
624.754	0.0145731
624.832	0.0145049
624.910	0.0145379
624.988	0.0144060
625.067	0.0145829
625.145	0.0143489
625.223	0.0145234
625.301	0.0145881
625.379	0.0145072
625.457	0.0144943
625.535	0.0144064
625.613	0.0144664
625.692	0.0144757
625.770	0.0146436
625.848	0.0145181
625.926	0.0144902
626.004	0.0144168
626.082	0.0144495
626.160	0.0146160
626.238	0.0144872
626.317	0.0144983
626.395	0.0144838
626.473	0.0145113
626.551	0.0144532
626.629	0.0144054
626.707	0.0145599
626.785	0.0145413
626.863	0.0143958
626.942	0.0145671
627.020	0.0144785
627.098	0.0143748
627.176	0.0144363
627.254	0.0145980
627.332	0.0144202
627.410	0.0145040
627.488	0.0145298
627.567	0.0144035
627.645	0.0144135
627.723	0.0144546
627.801	0.0144127
627.879	0.0145628
627.957	0.0145116
628.035	0.0143915
628.113	0.0145162
628.192	0.0144866
628.270	0.0144418
628.348	0.0145305
628.426	0.0144675
628.504	0.0144412
628.582	0.0144565
628.660	0.0144108
628.738	0.0145013
628.817	0.0144286
628.895	0.0144867
628.973	0.0145219
629.051	0.0145376
629.129	0.0144297
629.207	0.0143835
629.285	0.0144958
629.363	0.0144817
629.442	0.0143800
629.520	0.0143691
629.598	0.0144605
629.676	0.0144898
629.754	0.0144810
629.832	0.0143752
629.910	0.0145376
629.988	0.0142715
630.067	0.0144977
630.145	0.0145364
630.223	0.0144682
630.301	0.0145181
630.379	0.0144259
630.457	0.0145012
630.535	0.0145210
630.613	0.0144293
630.692	0.0145565
630.770	0.0145805
630.848	0.0144723
630.926	0.0145049
631.004	0.0145945
631.082	0.0145300
631.160	0.0144043
631.238	0.0143190
631.317	0.0145313
631.395	0.0144646
631.473	0.0144920
631.551	0.0145133
631.629	0.0146110
631.707	0.0145384
631.785	0.0144867
631.863	0.0144077
631.942	0.0143547
632.020	0.0146487
632.098	0.0146763
632.176	0.0144302
632.254	0.0145594
632.332	0.0145518
632.410	0.0145789
632.488	0.0144836
632.567	0.0143656
632.645	0.0146047
632.723	0.0144312
632.801	0.0144469
632.879	0.0144608
632.957	0.0144905
633.035	0.0144398
633.113	0.0145214
633.192	0.0145647
633.270	0.0144619
633.348	0.0144636
633.426	0.0144692
633.504	0.0144366
633.582	0.0144110
633.660	0.0146262
633.738	0.0144206
633.817	0.0144342
633.895	0.0144394
633.973	0.0144899
634.051	0.0144330
634.129	0.0145367
634.207	0.0145203
634.285	0.0144730
634.363	0.0144628
634.442	0.0145454
634.520	0.0145780
634.598	0.0144714
634.676	0.0144219
634.754	0.0144768
634.832	0.0144604
634.910	0.0145038
634.988	0.0145998
635.067	0.0144726
635.145	0.0143394
635.223	0.0144748
635.301	0.0145576
635.379	0.0145033
635.457	0.0144598
635.535	0.0145191
635.613	0.0144941
635.692	0.0144702
635.770	0.0145312
635.848	0.0144053
635.926	0.0144982
636.004	0.0144736
636.082	0.0144099
636.160	0.0143884
636.238	0.0145165
636.317	0.0146139
636.395	0.0143913
636.473	0.0145270
636.551	0.0144835
636.629	0.0144868
636.707	0.0145749
636.785	0.0144088
636.863	0.0145415
636.942	0.0145444
637.020	0.0145284
637.098	0.0144828
637.176	0.0144971
637.254	0.0144320
637.332	0.0146011
637.410	0.0144868
637.488	0.0145376
637.567	0.0144714
637.645	0.0145277
637.723	0.0144549
637.801	0.0145264
637.879	0.0143815
637.957	0.0145662
638.035	0.0145156
638.113	0.0145882
638.192	0.0144995
638.270	0.0145275
638.348	0.0144806
638.426	0.0145146
638.504	0.0144885
638.582	0.0145217
638.660	0.0145406
638.738	0.0144826
638.817	0.0144759
638.895	0.0144819
638.973	0.0144006
639.051	0.0145480
639.129	0.0144852
639.207	0.0143609
639.285	0.0145791
639.363	0.0145023
639.442	0.0142458
639.520	0.0144787
639.598	0.0145947
639.676	0.0144321
639.754	0.0144067
639.832	0.0144247
639.910	0.0144361
639.988	0.0143905
640.067	0.0144250
640.145	0.0145580
640.223	0.0144667
640.301	0.0144994
640.379	0.0145278
640.457	0.0144279
640.535	0.0144347
640.613	0.0145990
640.692	0.0144770
640.770	0.0144524
640.848	0.0144314
640.926	0.0143776
641.004	0.0143598
641.082	0.0143487
641.160	0.0145062
641.238	0.0145629
641.317	0.0143750
641.395	0.0143410
641.473	0.0144099
641.551	0.0143916
641.629	0.0144861
641.707	0.0144647
641.785	0.0145120
641.863	0.0146877
641.942	0.0143609
642.020	0.0146788
642.098	0.0145770
642.176	0.0145840
642.254	0.0146238
642.332	0.0144591
642.410	0.0143913
642.488	0.0145275
642.567	0.0145281
642.645	0.0145789
642.723	0.0146667
642.801	0.0145300
642.879	0.0145387
642.957	0.0145097
643.035	0.0144923
643.113	0.0146522
643.192	0.0146171
643.270	0.0145074
643.348	0.0145496
643.426	0.0145253
643.504	0.0144342
643.582	0.0145175
643.660	0.0145751
643.738	0.0144971
643.817	0.0145882
643.895	0.0146222
643.973	0.0145514
644.051	0.0145011
644.129	0.0144563
644.207	0.0144656
644.285	0.0144475
644.363	0.0144355
644.442	0.0146971
644.520	0.0146073
644.598	0.0144435
644.676	0.0145313
644.754	0.0144706
644.832	0.0146055
644.910	0.0145502
644.988	0.0145667
645.067	0.0145492
645.145	0.0145094
645.223	0.0144808
645.301	0.0144530
645.379	0.0145298
645.457	0.0145746
645.535	0.0144572
645.613	0.0144939
645.692	0.0145845
645.770	0.0144917
645.848	0.0144563
645.926	0.0145778
646.004	0.0145763
646.082	0.0144283
646.160	0.0145503
646.238	0.0144277
646.317	0.0145875
646.395	0.0144527
646.473	0.0145341
646.551	0.0145393
646.629	0.0145762
646.707	0.0146022
646.785	0.0145244
646.863	0.0146047
646.942	0.0145356
647.020	0.0145255
647.098	0.0145626
647.176	0.0145003
647.254	0.0145292
647.332	0.0145413
647.410	0.0145958
647.488	0.0145646
647.567	0.0145670
647.645	0.0145560
647.723	0.0143697
647.801	0.0144141
647.879	0.0145239
647.957	0.0145092
648.035	0.0145209
648.113	0.0145941
648.192	0.0144736
648.270	0.0144525
648.348	0.0145797
648.426	0.0145552
648.504	0.0144977
648.582	0.0146591
648.660	0.0145196
648.738	0.0144939
648.817	0.0145691
648.895	0.0145011
648.973	0.0144752
649.051	0.0144941
649.129	0.0145015
649.207	0.0145011
649.285	0.0145580
649.363	0.0145160
649.442	0.0143555
649.520	0.0144350
649.598	0.0144844
649.676	0.0145537
649.754	0.0146375
649.832	0.0145580
649.910	0.0143504
649.988	0.0143698
650.067	0.0144060
650.145	0.0144778
650.223	0.0144107
650.301	0.0144342
650.379	0.0145519
650.457	0.0144001
650.535	0.0143824
650.613	0.0144500
650.692	0.0145252
650.770	0.0143565
650.848	0.0144692
650.926	0.0145652
651.004	0.0145556
651.082	0.0144714
651.160	0.0144444
651.238	0.0143819
651.317	0.0143868
651.395	0.0144549
651.473	0.0147134
651.551	0.0144223
651.629	0.0143450
651.707	0.0145833
651.785	0.0144539
651.863	0.0144753
651.942	0.0145081
652.020	0.0145316
652.098	0.0146407
652.176	0.0145920
652.254	0.0143777
652.332	0.0144379
652.410	0.0145530
652.488	0.0145501
652.567	0.0144968
652.645	0.0145905
652.723	0.0146029
652.801	0.0145644
652.879	0.0144569
652.957	0.0146054
653.035	0.0145664
653.113	0.0144484
653.192	0.0146519
653.270	0.0145858
653.348	0.0145991
653.426	0.0144193
653.504	0.0146195
653.582	0.0145829
653.660	0.0146326
653.738	0.0146424
653.817	0.0145171
653.895	0.0145067
653.973	0.0145409
654.051	0.0144535
654.129	0.0144813
654.207	0.0145682
654.285	0.0144552
654.363	0.0145379
654.442	0.0144454
654.520	0.0143614
654.598	0.0144049
654.676	0.0145242
654.754	0.0144216
654.832	0.0144330
654.910	0.0144355
654.988	0.0145654
655.067	0.0145331
655.145	0.0145692
655.223	0.0145929
655.301	0.0146525
655.379	0.0146354
655.457	0.0146666
655.535	0.0146813
655.613	0.0146488
655.692	0.0146025
655.770	0.0146397
655.848	0.0146146
655.926	0.0148117
656.004	0.0146278
656.082	0.0147363
656.160	0.0147708
656.238	0.0146606
656.317	0.0146298
656.395	0.0145898
656.473	0.0144386
656.551	0.0143840
656.629	0.0142780
656.707	0.0141428
656.785	0.0140092
656.863	0.0139775
656.942	0.0140330
657.020	0.0141570
657.098	0.0142932
657.176	0.0142014
657.254	0.0142043
657.332	0.0143347
657.410	0.0143420
657.488	0.0144365
657.567	0.0144728
657.645	0.0146107
657.723	0.0145197
657.801	0.0144746
657.879	0.0146924
657.957	0.0145856
658.035	0.0144759
658.113	0.0146178
658.192	0.0147833
658.270	0.0147727
658.348	0.0147684
658.426	0.0146117
658.504	0.0146381
658.582	0.0148233
658.660	0.0146973
658.738	0.0145872
658.817	0.0146825
658.895	0.0147926
658.973	0.0146420
659.051	0.0147173
659.129	0.0147491
659.207	0.0146271
659.285	0.0146947
659.363	0.0147953
659.442	0.0147658
659.520	0.0148571
659.598	0.0147224
659.676	0.0147900
659.754	0.0147869
659.832	0.0147191
659.910	0.0147088
659.988	0.0146698
660.067	0.0146762
660.145	0.0146085
660.223	0.0144511
660.301	0.0144951
660.379	0.0145229
660.457	0.0143523
660.535	0.0145245
660.613	0.0143516
660.692	0.0144397
660.770	0.0143204
660.848	0.0144109
660.926	0.0143417
661.004	0.0141676
661.082	0.0141711
661.160	0.0141434
661.238	0.0139983
661.317	0.0138874
661.395	0.0138490
661.473	0.0136961
661.551	0.0138073
661.629	0.0136916
661.707	0.0137159
661.785	0.0136834
661.863	0.0137150
661.942	0.0138712
662.020	0.0140839
662.098	0.0143209
662.176	0.0143842
662.254	0.0147243
662.332	0.0148250
662.410	0.0149095
662.488	0.0150901
662.567	0.0152403
662.645	0.0151211
662.723	0.0150949
662.801	0.0152399
662.879	0.0151058
662.957	0.0150050
663.035	0.0150869
663.113	0.0150298
663.192	0.0151167
663.270	0.0149115
663.348	0.0148929
663.426	0.0150337
663.504	0.0150737
663.582	0.0149963
663.660	0.0148617
663.738	0.0148350
663.817	0.0149037
663.895	0.0147955
663.973	0.0146594
664.051	0.0147249
664.129	0.0145954
664.207	0.0145375
664.285	0.0146201
664.363	0.0145421
664.442	0.0145277
664.520	0.0144914
664.598	0.0145487
664.676	0.0144975
664.754	0.0144832
664.832	0.0143570
664.910	0.0143119
664.988	0.0142581
665.067	0.0142800
665.145	0.0140267
665.223	0.0139990
665.301	0.0138155
665.379	0.0137584
665.457	0.0134679
665.535	0.0135350
665.613	0.0133956
665.692	0.0133371
665.770	0.0132915
665.848	0.0133408
665.926	0.0133259
666.004	0.0133684
666.082	0.0137707
666.160	0.0138661
666.238	0.0141420
666.317	0.0142699
666.395	0.0145229
666.473	0.0146984
666.551	0.0149304
666.629	0.0149773
666.707	0.0152936
666.785	0.0154218
666.863	0.0154199
666.942	0.0154527
667.020	0.0154029
667.098	0.0153652
667.176	0.0153099
667.254	0.0153249
667.332	0.0153421
667.410	0.0151752
667.488	0.0151127
667.567	0.0151413
667.645	0.0149872
667.723	0.0150112
667.801	0.0150035
667.879	0.0149845
667.957	0.0150723
668.035	0.0149801
668.113	0.0149631
668.192	0.0149182
668.270	0.0147992
668.348	0.0148494
668.426	0.0149091
668.504	0.0147221
668.582	0.0146886
668.660	0.0147528
668.738	0.0147699
668.817	0.0148108
668.895	0.0147474
668.973	0.0147836
669.051	0.0145780
669.129	0.0147258
669.207	0.0145366
669.285	0.0143369
669.363	0.0142771
669.442	0.0138922
669.520	0.0141364
669.598	0.0140311
669.676	0.0138541
669.754	0.0136083
669.832	0.0136712
669.910	0.0137718
669.988	0.0138871
670.067	0.0138837
670.145	0.0138066
670.223	0.0136876
670.301	0.0136958
670.379	0.0139455
670.457	0.0136642
670.535	0.0137906
670.613	0.0138300
670.692	0.0139632
670.770	0.0140182
670.848	0.0141245
670.926	0.0141817
671.004	0.0141540
671.082	0.0140974
671.160	0.0140551
671.238	0.0141068
671.317	0.0141831
671.395	0.0141368
671.473	0.0142534
671.551	0.0143349
671.629	0.0144101
671.707	0.0144780
671.785	0.0144765
671.863	0.0146651
671.942	0.0146667
672.020	0.0146939
672.098	0.0149778
672.176	0.0149769
672.254	0.0151160
672.332	0.0151792
672.410	0.0152370
672.488	0.0154286
672.567	0.0154573
672.645	0.0153851
672.723	0.0155328
672.801	0.0154401
672.879	0.0154473
672.957	0.0153791
673.035	0.0152950
673.113	0.0151788
673.192	0.0152003
673.270	0.0150440
673.348	0.0150470
673.426	0.0148697
673.504	0.0148131
673.582	0.0147775
673.660	0.0147237
673.738	0.0146326
673.817	0.0147302
673.895	0.0147923
673.973	0.0146458
674.051	0.0147783
674.129	0.0146789
674.207	0.0147292
674.285	0.0146783
674.363	0.0147696
674.442	0.0146902
674.520	0.0145144
674.598	0.0143443
674.676	0.0145050
674.754	0.0142920
674.832	0.0140238
674.910	0.0140751
674.988	0.0139165
675.067	0.0140498
675.145	0.0139686
675.223	0.0138221
675.301	0.0137184
675.379	0.0135019
675.457	0.0135290
675.535	0.0135865
675.613	0.0134026
675.692	0.0134585
675.770	0.0135429
675.848	0.0133994
675.926	0.0132457
676.004	0.0134776
676.082	0.0135793
676.160	0.0133663
676.238	0.0136202
676.317	0.0137435
676.395	0.0138297
676.473	0.0137669
676.551	0.0138583
676.629	0.0139297
676.707	0.0140550
676.785	0.0143333
676.863	0.0145213
676.942	0.0144514
677.020	0.0147775
677.098	0.0149886
677.176	0.0150674
677.254	0.0152504
677.332	0.0154358
677.410	0.0155761
677.488	0.0154329
677.567	0.0155477
677.645	0.0157312
677.723	0.0155760
677.801	0.0157377
677.879	0.0156804
677.957	0.0156568
678.035	0.0156874
678.113	0.0155538
678.192	0.0155103
678.270	0.0154044
678.348	0.0153609
678.426	0.0153842
678.504	0.0152098
678.582	0.0151153
678.660	0.0151475
678.738	0.0150256
678.817	0.0148994
678.895	0.0147794
678.973	0.0147452
679.051	0.0148074
679.129	0.0146661
679.207	0.0146769
679.285	0.0145879
679.363	0.0144283
679.442	0.0145664
679.520	0.0144776
679.598	0.0145160
679.676	0.0145187
679.754	0.0147536
679.832	0.0146675
679.910	0.0146883
679.988	0.0146127
680.067	0.0146642
680.145	0.0146068
680.223	0.0145039
680.301	0.0142207
680.379	0.0142215
680.457	0.0140896
680.535	0.0138651
680.613	0.0137543
680.692	0.0136286
680.770	0.0135162
680.848	0.0133736
680.926	0.0132221
681.004	0.0130413
681.082	0.0128263
681.160	0.0129752
681.238	0.0129514
681.317	0.0128962
681.395	0.0128837
681.473	0.0131033
681.551	0.0131389
681.629	0.0132010
681.707	0.0133184
681.785	0.0136371
681.863	0.0137687
681.942	0.0138330
682.020	0.0140135
682.098	0.0143620
682.176	0.0145477
682.254	0.0147733
682.332	0.0147824
682.410	0.0151701
682.488	0.0152181
682.567	0.0153400
682.645	0.0154666
682.723	0.0156439
682.801	0.0155945
682.879	0.0158429
682.957	0.0157735
683.035	0.0157370
683.113	0.0157203
683.192	0.0156652
683.270	0.0156216
683.348	0.0157475
683.426	0.0155209
683.504	0.0154729
683.582	0.0153983
683.660	0.0154269
683.738	0.0154021
683.817	0.0152481
683.895	0.0152808
683.973	0.0152581
684.051	0.0150964
684.129	0.0150684
684.207	0.0149172
684.285	0.0148859
684.363	0.0149073
684.442	0.0148792
684.520	0.0148557
684.598	0.0146377
684.676	0.0146072
684.754	0.0146350
684.832	0.0145503
684.910	0.0146497
684.988	0.0146095
685.067	0.0145502
685.145	0.0144722
685.223	0.0143663
685.301	0.0142384
685.379	0.0142155
685.457	0.0142793
685.535	0.0140324
685.613	0.0139162
685.692	0.0139360
685.770	0.0137999
685.848	0.0135969
685.926	0.0134496
686.004	0.0134490
686.082	0.0134031
686.160	0.0132821
686.238	0.0131639
686.317	0.0130939
686.395	0.0131770
686.473	0.0132063
686.551	0.0130925
686.629	0.0132983
686.707	0.0133804
686.785	0.0132983
686.863	0.0133589
686.942	0.0135580
687.020	0.0136308
687.098	0.0138786
687.176	0.0141487
687.254	0.0141641
687.332	0.0143831
687.410	0.0145844
687.488	0.0147088
687.567	0.0149059
687.645	0.0151157
687.723	0.0152239
687.801	0.0153541
687.879	0.0155022
687.957	0.0156139
688.035	0.0156573
688.113	0.0155735
688.192	0.0155060
688.270	0.0155019
688.348	0.0153208
688.426	0.0152389
688.504	0.0152037
688.582	0.0149765
688.660	0.0147340
688.738	0.0148252
688.817	0.0145289
688.895	0.0143150
688.973	0.0143722
689.051	0.0144539
689.129	0.0142702
689.207	0.0140601
689.285	0.0142952
689.363	0.0144046
689.442	0.0143202
689.520	0.0146243
689.598	0.0146102
689.676	0.0147416
689.754	0.0148829
689.832	0.0149995
689.910	0.0150053
689.988	0.0150500
690.067	0.0149532
690.145	0.0148238
690.223	0.0149651
690.301	0.0148914
690.379	0.0146737
690.457	0.0145293
690.535	0.0144021
690.613	0.0145111
690.692	0.0144653
690.770	0.0143837
690.848	0.0143988
690.926	0.0145345
691.004	0.0144424
691.082	0.0144085
691.160	0.0146276
691.238	0.0146732
691.317	0.0145383
691.395	0.0145474
691.473	0.0146338
691.551	0.0145104
691.629	0.0145615
691.707	0.0145292
691.785	0.0144245
691.863	0.0144954
691.942	0.0143644
692.020	0.0145255
692.098	0.0144449
692.176	0.0143937
692.254	0.0143851
692.332	0.0143607
692.410	0.0142869
692.488	0.0142889
692.567	0.0142994
692.645	0.0140421
692.723	0.0139768
692.801	0.0138021
692.879	0.0137381
692.957	0.0136105
693.035	0.0136395
693.113	0.0136819
693.192	0.0137436
693.270	0.0138055
693.348	0.0137786
693.426	0.0138081
693.504	0.0140298
693.582	0.0141426
693.660	0.0142914
693.738	0.0142149
693.817	0.0143517
693.895	0.0146184
693.973	0.0146275
694.051	0.0146474
694.129	0.0145264
694.207	0.0145219
694.285	0.0147652
694.363	0.0147510
694.442	0.0146893
694.520	0.0147148
694.598	0.0146487
694.676	0.0149295
694.754	0.0148491
694.832	0.0147962
694.910	0.0150425
694.988	0.0150496
695.067	0.0150077
695.145	0.0151621
695.223	0.0151137
695.301	0.0152653
695.379	0.0152739
695.457	0.0152310
695.535	0.0152813
695.613	0.0152586
695.692	0.0152269
695.770	0.0152372
695.848	0.0151862
695.926	0.0152859
696.004	0.0151790
696.082	0.0151708
696.160	0.0151341
696.238	0.0150763
696.317	0.0150011
696.395	0.0149427
696.473	0.0147222
696.551	0.0147713
696.629	0.0145296
696.707	0.0144968
696.785	0.0143431
696.863	0.0142933
696.942	0.0141307
697.020	0.0141068
697.098	0.0143371
697.176	0.0142652
697.254	0.0142250
697.332	0.0141285
697.410	0.0143411
697.488	0.0141971
697.567	0.0143384
697.645	0.0142865
697.723	0.0143855
697.801	0.0141190
697.879	0.0143023
697.957	0.0142413
698.035	0.0141798
698.113	0.0140282
698.192	0.0138952
698.270	0.0138817
698.348	0.0137930
698.426	0.0137030
698.504	0.0136376
698.582	0.0136090
698.660	0.0135634
698.738	0.0134910
698.817	0.0134456
698.895	0.0135302
698.973	0.0136040
699.051	0.0135840
699.129	0.0137894
699.207	0.0137064
699.285	0.0139248
699.363	0.0141125
699.442	0.0143217
699.520	0.0144365
699.598	0.0146934
699.676	0.0149470
699.754	0.0150746
699.832	0.0152200
699.910	0.0153017
699.988	0.0153850
700.067	0.0153757
700.145	0.0154251
700.223	0.0152994
700.301	0.0153267
700.379	0.0152522
700.457	0.0151642
700.535	0.0152132
700.613	0.0149979
700.692	0.0149811
700.770	0.0151390
700.848	0.0150036
700.926	0.0150500
701.004	0.0151987
701.082	0.0151058
701.160	0.0151764
701.238	0.0150225
701.317	0.0148881
701.395	0.0150449
701.473	0.0150287
701.551	0.0147952
701.629	0.0148684
701.707	0.0148410
701.785	0.0148373
701.863	0.0146127
701.942	0.0144939
702.020	0.0144097
702.098	0.0144398
702.176	0.0142449
702.254	0.0142773
702.332	0.0142600
702.410	0.0141390
702.488	0.0142231
702.567	0.0141009
702.645	0.0141972
702.723	0.0139951
702.801	0.0140361
702.879	0.0139510
702.957	0.0138931
703.035	0.0138789
703.113	0.0138261
703.192	0.0137564
703.270	0.0137411
703.348	0.0137844
703.426	0.0137748
703.504	0.0136682
703.582	0.0137747
703.660	0.0138313
703.738	0.0138792
703.817	0.0139308
703.895	0.0141079
703.973	0.0141766
704.051	0.0141788
704.129	0.0143183
704.207	0.0144822
704.285	0.0144222
704.363	0.0146960
704.442	0.0146385
704.520	0.0147380
704.598	0.0147424
704.676	0.0148292
704.754	0.0149372
704.832	0.0148810
704.910	0.0148540
704.988	0.0150930
705.067	0.0150182
705.145	0.0150471
705.223	0.0149734
705.301	0.0149582
705.379	0.0151440
705.457	0.0151049
705.535	0.0151960
705.613	0.0150375
705.692	0.0149911
705.770	0.0148737
705.848	0.0149320
705.926	0.0146619
706.004	0.0145653
706.082	0.0146915
706.160	0.0145506
706.238	0.0143394
706.317	0.0142449
706.395	0.0141709
706.473	0.0141499
706.551	0.0140880
706.629	0.0140244
706.707	0.0140588
706.785	0.0140128
706.863	0.0141002
706.942	0.0141746
707.020	0.0141724
707.098	0.0141799
707.176	0.0142480
707.254	0.0143226
707.332	0.0144624
707.410	0.0144838
707.488	0.0144324
707.567	0.0143320
707.645	0.0143468
707.723	0.0144330
707.801	0.0143618
707.879	0.0143134
707.957	0.0142754
708.035	0.0144125
708.113	0.0143616
708.192	0.0144186
708.270	0.0143222
708.348	0.0144624
708.426	0.0145901
708.504	0.0146042
708.582	0.0145786
708.660	0.0146078
708.738	0.0148273
708.817	0.0147512
708.895	0.0148414
708.973	0.0148083
709.051	0.0148832
709.129	0.0148592
709.207	0.0149397
709.285	0.0149290
709.363	0.0149511
709.442	0.0149208
709.520	0.0149403
709.598	0.0149006
709.676	0.0147978
709.754	0.0147586
709.832	0.0146709
709.910	0.0145584
709.988	0.0144768
710.067	0.0145650
710.145	0.0144104
710.223	0.0143230
710.301	0.0143518
710.379	0.0142353
710.457	0.0141473
710.535	0.0139314
710.613	0.0138859
710.692	0.0138329
710.770	0.0137869
710.848	0.0137393
710.926	0.0138216
711.004	0.0138041
711.082	0.0137238
711.160	0.0138689
711.238	0.0137202
711.317	0.0137606
711.395	0.0139062
711.473	0.0139228
711.551	0.0138615
711.629	0.0140644
711.707	0.0141011
711.785	0.0143489
711.863	0.0144093
711.942	0.0144614
712.020	0.0145934
712.098	0.0147984
712.176	0.0149254
712.254	0.0149998
712.332	0.0151498
712.410	0.0150267
712.488	0.0151396
712.567	0.0153326
712.645	0.0152736
712.723	0.0150909
712.801	0.0151074
712.879	0.0151138
712.957	0.0150018
713.035	0.0148983
713.113	0.0148420
713.192	0.0147429
713.270	0.0146730
713.348	0.0145989
713.426	0.0143660
713.504	0.0144498
713.582	0.0143665
713.660	0.0143877
713.738	0.0144078
713.817	0.0143520
713.895	0.0142984
713.973	0.0142961
714.051	0.0145508
714.129	0.0144579
714.207	0.0144398
714.285	0.0144549
714.363	0.0145270
714.442	0.0146769
714.520	0.0145457
714.598	0.0145868
714.676	0.0148628
714.754	0.0147732
714.832	0.0146797
714.910	0.0146922
714.988	0.0146708
715.067	0.0146554
715.145	0.0144185
715.223	0.0143927
715.301	0.0144884
715.379	0.0143537
715.457	0.0142885
715.535	0.0141765
715.613	0.0140857
715.692	0.0141309
715.770	0.0139617
715.848	0.0138311
715.926	0.0139288
716.004	0.0139524
716.082	0.0139722
716.160	0.0138490
716.238	0.0139027
716.317	0.0140480
716.395	0.0141721
716.473	0.0141582
716.551	0.0141533
716.629	0.0143176
716.707	0.0143463
716.785	0.0143957
716.863	0.0144382
716.942	0.0146022
717.020	0.0146082
717.098	0.0148094
717.176	0.0147942
717.254	0.0148426
717.332	0.0149100
717.410	0.0150800
717.488	0.0149138
717.567	0.0150835
717.645	0.0150262
717.723	0.0149189
717.801	0.0147827
717.879	0.0147448
717.957	0.0148199
718.035	0.0147168
718.113	0.0144930
718.192	0.0145764
718.270	0.0145600
718.348	0.0144793
718.426	0.0144904
718.504	0.0145481
718.582	0.0144598
718.660	0.0145603
718.738	0.0146049
718.817	0.0146603
718.895	0.0147750
718.973	0.0147319
719.051	0.0148419
719.129	0.0148378
719.207	0.0149416
719.285	0.0148129
719.363	0.0148186
719.442	0.0148280
719.520	0.0148798
719.598	0.0147665
719.676	0.0145776
719.754	0.0144887
719.832	0.0145059
719.910	0.0143623
719.988	0.0142371
720.067	0.0142563
720.145	0.0143009
720.223	0.0144143
720.301	0.0143108
720.379	0.0142646
720.457	0.0142987
720.535	0.0143714
720.613	0.0144051
720.692	0.0142435
720.770	0.0143152
720.848	0.0141447
720.926	0.0141802
721.004	0.0141811
721.082	0.0141510
721.160	0.0141411
721.238	0.0142357
721.317	0.0142113
721.395	0.0143340
721.473	0.0142488
721.551	0.0143885
721.629	0.0146088
721.707	0.0143570
721.785	0.0144095
721.863	0.0144801
721.942	0.0145536
722.020	0.0143658
722.098	0.0144227
722.176	0.0142412
722.254	0.0142176
722.332	0.0143506
722.410	0.0143683
722.488	0.0143112
722.567	0.0142274
722.645	0.0143375
722.723	0.0144044
722.801	0.0145097
722.879	0.0144878
722.957	0.0146028
723.035	0.0146752
723.113	0.0147041
723.192	0.0147840
723.270	0.0148035
723.348	0.0148870
723.426	0.0149082
723.504	0.0148109
723.582	0.0150004
723.660	0.0149652
723.738	0.0149449
723.817	0.0148141
723.895	0.0149517
723.973	0.0149290
724.051	0.0146891
724.129	0.0146935
724.207	0.0146290
724.285	0.0144543
724.363	0.0144169
724.442	0.0144142
724.520	0.0144251
724.598	0.0143866
724.676	0.0143456
724.754	0.0143249
724.832	0.0144006
724.910	0.0143119
724.988	0.0142022
725.067	0.0143735
725.145	0.0144736
725.223	0.0143816
725.301	0.0143555
725.379	0.0144140
725.457	0.0144120
725.535	0.0145666
725.613	0.0144448
725.692	0.0144510
725.770	0.0143793
725.848	0.0143526
725.926	0.0143701
726.004	0.0145822
726.082	0.0143596
726.160	0.0142282
726.238	0.0142853
726.317	0.0142327
726.395	0.0143604
726.473	0.0140456
726.551	0.0139663
726.629	0.0140627
726.707	0.0141597
726.785	0.0142157
726.863	0.0140445
726.942	0.0141817
727.020	0.0142149
727.098	0.0142735
727.176	0.0142997
727.254	0.0143764
727.332	0.0144261
727.410	0.0145003
727.488	0.0144707
727.567	0.0145151
727.645	0.0145148
727.723	0.0146178
727.801	0.0146500
727.879	0.0145846
727.957	0.0146471
728.035	0.0145564
728.113	0.0146632
728.192	0.0145744
728.270	0.0146030
728.348	0.0146631
728.426	0.0146957
728.504	0.0146291
728.582	0.0146689
728.660	0.0147099
728.738	0.0147929
728.817	0.0146558
728.895	0.0147855
728.973	0.0146452
729.051	0.0147579
729.129	0.0147270
729.207	0.0145992
729.285	0.0145731
729.363	0.0145774
729.442	0.0145292
729.520	0.0144708
729.598	0.0144598
729.676	0.0144708
729.754	0.0143938
729.832	0.0142193
729.910	0.0142626
729.988	0.0142714
730.067	0.0142512
730.145	0.0142947
730.223	0.0142365
730.301	0.0142432
730.379	0.0143915
730.457	0.0144353
730.535	0.0144364
730.613	0.0144461
730.692	0.0145237
730.770	0.0145055
730.848	0.0146230
730.926	0.0147361
731.004	0.0146931
731.082	0.0147339
731.160	0.0147066
731.238	0.0146165
731.317	0.0146678
731.395	0.0145622
731.473	0.0144601
731.551	0.0144105
731.629	0.0143430
731.707	0.0143519
731.785	0.0141445
731.863	0.0141405
731.942	0.0142635
732.020	0.0141007
732.098	0.0141690
732.176	0.0141859
732.254	0.0141917
732.332	0.0143238
732.410	0.0143768
732.488	0.0143139
732.567	0.0142868
732.645	0.0143929
732.723	0.0144672
732.801	0.0145560
732.879	0.0145708
732.957	0.0145638
733.035	0.0146896
733.113	0.0147598
733.192	0.0146940
733.270	0.0147294
733.348	0.0146854
733.426	0.0147762
733.504	0.0146508
733.582	0.0147167
733.660	0.0146656
733.738	0.0146573
733.817	0.0146130
733.895	0.0146469
733.973	0.0145336
734.051	0.0143601
734.129	0.0143811
734.207	0.0143683
734.285	0.0142244
734.363	0.0141698
734.442	0.0140723
734.520	0.0141746
734.598	0.0140579
734.676	0.0141843
734.754	0.0143330
734.832	0.0142104
734.910	0.0142565
734.988	0.0141920
735.067	0.0142816
735.145	0.0144021
735.223	0.0144910
735.301	0.0143937
735.379	0.0145969
735.457	0.0146980
735.535	0.0146049
735.613	0.0147937
735.692	0.0147376
735.770	0.0147639
735.848	0.0147580
735.926	0.0147085
736.004	0.0146460
736.082	0.0146951
736.160	0.0145924
736.238	0.0147704
736.317	0.0146636
736.395	0.0145234
736.473	0.0145149
736.551	0.0145851
736.629	0.0144582
736.707	0.0144381
736.785	0.0144879
736.863	0.0145055
736.942	0.0143784
737.020	0.0143912
737.098	0.0145840
737.176	0.0144120
737.254	0.0145430
737.332	0.0144939
737.410	0.0143928
737.488	0.0144733
737.567	0.0144273
737.645	0.0143944
737.723	0.0144923
737.801	0.0145245
737.879	0.0143029
737.957	0.0143341
738.035	0.0145515
738.113	0.0143971
738.192	0.0144663
738.270	0.0144826
738.348	0.0145468
738.426	0.0145352
738.504	0.0145459
738.582	0.0145229
738.660	0.0146031
738.738	0.0144465
738.817	0.0147081
738.895	0.0146167
738.973	0.0145942
739.051	0.0147184
739.129	0.0145744
739.207	0.0144697
739.285	0.0145045
739.363	0.0146027
739.442	0.0145450
739.520	0.0145710
739.598	0.0144597
739.676	0.0144604
739.754	0.0143343
739.832	0.0143622
739.910	0.0143117
739.988	0.0143295
740.067	0.0144653
740.145	0.0143850
740.223	0.0143420
740.301	0.0143111
740.379	0.0144279
740.457	0.0145738
740.535	0.0145878
740.613	0.0144004
740.692	0.0144246
740.770	0.0146270
740.848	0.0145819
740.926	0.0144656
741.004	0.0145998
741.082	0.0145696
741.160	0.0145422
741.238	0.0146491
741.317	0.0145654
741.395	0.0147180
741.473	0.0146661
741.551	0.0145610
741.629	0.0146578
741.707	0.0146155
741.785	0.0145344
741.863	0.0143800
741.942	0.0145830
742.020	0.0145375
742.098	0.0145049
742.176	0.0144235
742.254	0.0143827
742.332	0.0143948
742.410	0.0144897
742.488	0.0143716
742.567	0.0143434
742.645	0.0143210
742.723	0.0144001
742.801	0.0142043
742.879	0.0143678
742.957	0.0144550
743.035	0.0143468
743.113	0.0143609
743.192	0.0142683
743.270	0.0144556
743.348	0.0146146
743.426	0.0145774
743.504	0.0146619
743.582	0.0145723
743.660	0.0145885
743.738	0.0144781
743.817	0.0146603
743.895	0.0145444
743.973	0.0145264
744.051	0.0146280
744.129	0.0146079
744.207	0.0145531
744.285	0.0145940
744.363	0.0144356
744.442	0.0144573
744.520	0.0145837
744.598	0.0144136
744.676	0.0143850
744.754	0.0142589
744.832	0.0142313
744.910	0.0144046
744.988	0.0143026
745.067	0.0142807
745.145	0.0142648
745.223	0.0141870
745.301	0.0142795
745.379	0.0143553
745.457	0.0142237
745.535	0.0142970
745.613	0.0144854
745.692	0.0145586
745.770	0.0144845
745.848	0.0144573
745.926	0.0145880
746.004	0.0144904
746.082	0.0148240
746.160	0.0147355
746.238	0.0147892
746.317	0.0146769
746.395	0.0145692
746.473	0.0146039
746.551	0.0147070
746.629	0.0146662
746.707	0.0145406
746.785	0.0146415
746.863	0.0144073
746.942	0.0144974
747.020	0.0145950
747.098	0.0144469
747.176	0.0144884
747.254	0.0144455
747.332	0.0142409
747.410	0.0143793
747.488	0.0142611
747.567	0.0142282
747.645	0.0142893
747.723	0.0142990
747.801	0.0142937
747.879	0.0141647
747.957	0.0141391
748.035	0.0142290
748.113	0.0143424
748.192	0.0142793
748.270	0.0145181
748.348	0.0143509
748.426	0.0143365
748.504	0.0143656
748.582	0.0143955
748.660	0.0143898
748.738	0.0145490
748.817	0.0145408
748.895	0.0144534
748.973	0.0146922
749.051	0.0145862
749.129	0.0146565
749.207	0.0145453
749.285	0.0146938
749.363	0.0146833
749.442	0.0147639
749.520	0.0145677
749.598	0.0146357
749.676	0.0146345
749.754	0.0146294
749.832	0.0145760
749.910	0.0145462
749.988	0.0144434
750.067	0.0142393
750.145	0.0142654
750.223	0.0142667
750.301	0.0142638
750.379	0.0141965
750.457	0.0141788
750.535	0.0141438
750.613	0.0140462
750.692	0.0141794
750.770	0.0142123
750.848	0.0142976
750.926	0.0142106
751.004	0.0143291
751.082	0.0143413
751.160	0.0144483
751.238	0.0145210
751.317	0.0146051
751.395	0.0145750
751.473	0.0145866
751.551	0.0146236
751.629	0.0147250
751.707	0.0148081
751.785	0.0147060
751.863	0.0146992
751.942	0.0146896
752.020	0.0146011
752.098	0.0145197
752.176	0.0145742
752.254	0.0144312
752.332	0.0144108
752.410	0.0144418
752.488	0.0144995
752.567	0.0144164
752.645	0.0144605
752.723	0.0143138
752.801	0.0142930
752.879	0.0145309
752.957	0.0143459
753.035	0.0143532
753.113	0.0143970
753.192	0.0144807
753.270	0.0143710
753.348	0.0143655
753.426	0.0145071
753.504	0.0146153
753.582	0.0147115
753.660	0.0147344
753.738	0.0146497
753.817	0.0146233
753.895	0.0147997
753.973	0.0147513
754.051	0.0149094
754.129	0.0149103
754.207	0.0147948
754.285	0.0147581
754.363	0.0147427
754.442	0.0148738
754.520	0.0148497
754.598	0.0147631
754.676	0.0146950
754.754	0.0147104
754.832	0.0147128
754.910	0.0146179
754.988	0.0145837
755.067	0.0145467
755.145	0.0144159
755.223	0.0144501
755.301	0.0143829
755.379	0.0144941
755.457	0.0143529
755.535	0.0143423
755.613	0.0144711
755.692	0.0143793
755.770	0.0144187
755.848	0.0144623
755.926	0.0143803
756.004	0.0144105
756.082	0.0144033
756.160	0.0143621
756.238	0.0145357
756.317	0.0145312
756.395	0.0145932
756.473	0.0144345
756.551	0.0145540
756.629	0.0144881
756.707	0.0144522
756.785	0.0145677
756.863	0.0146019
756.942	0.0145532
757.020	0.0145494
757.098	0.0144941
757.176	0.0145004
757.254	0.0144252
757.332	0.0144621
757.410	0.0144968
757.488	0.0145061
757.567	0.0144971
757.645	0.0145026
757.723	0.0144353
757.801	0.0144335
757.879	0.0145555
757.957	0.0145656
758.035	0.0144094
758.113	0.0145713
758.192	0.0144692
758.270	0.0144308
758.348	0.0144837
758.426	0.0144016
758.504	0.0143835
758.582	0.0144402
758.660	0.0146190
758.738	0.0145350
758.817	0.0144549
758.895	0.0146613
758.973	0.0147266
759.051	0.0146808
759.129	0.0145385
759.207	0.0147657
759.285	0.0147418
759.363	0.0146719
759.442	0.0148564
759.520	0.0147833
759.598	0.0148640
759.676	0.0147166
759.754	0.0147091
759.832	0.0145795
759.910	0.0145691
759.988	0.0145678
760.067	0.0144632
760.145	0.0144386
760.223	0.0145100
760.301	0.0143153
760.379	0.0145356
760.457	0.0144466
760.535	0.0144974
760.613	0.0146577
760.692	0.0145046
760.770	0.0146395
760.848	0.0145777
760.926	0.0146127
761.004	0.0146394
761.082	0.0146375
761.160	0.0146428
761.238	0.0146189
761.317	0.0145225
761.395	0.0145747
761.473	0.0143844
761.551	0.0146433
761.629	0.0144959
761.707	0.0143211
761.785	0.0143261
761.863	0.0143207
761.942	0.0143982
762.020	0.0145541
762.098	0.0144007
762.176	0.0143317
762.254	0.0144171
762.332	0.0144154
762.410	0.0144759
762.488	0.0143681
762.567	0.0143406
762.645	0.0144299
762.723	0.0143703
762.801	0.0144234
762.879	0.0144864
762.957	0.0144344
763.035	0.0143498
763.113	0.0143113
763.192	0.0142234
763.270	0.0144130
763.348	0.0144266
763.426	0.0144292
763.504	0.0144539
763.582	0.0142932
763.660	0.0144874
763.738	0.0145060
763.817	0.0145200
763.895	0.0143896
763.973	0.0144402
764.051	0.0143803
764.129	0.0144762
764.207	0.0145541
764.285	0.0144283
764.363	0.0145020
764.442	0.0145811
764.520	0.0146318
764.598	0.0144904
764.676	0.0145918
764.754	0.0146371
764.832	0.0147231
764.910	0.0147762
764.988	0.0147179
765.067	0.0147605
765.145	0.0146736
765.223	0.0147939
765.301	0.0145290
765.379	0.0147572
765.457	0.0147198
765.535	0.0146610
765.613	0.0146963
765.692	0.0147601
765.770	0.0147167
765.848	0.0146628
765.926	0.0145236
766.004	0.0146636
766.082	0.0145214
766.160	0.0146412
766.238	0.0145911
766.317	0.0146410
766.395	0.0146229
766.473	0.0144437
766.551	0.0144744
766.629	0.0144010
766.707	0.0144312
766.785	0.0142908
766.863	0.0144501
766.942	0.0143430
767.020	0.0144085
767.098	0.0144555
767.176	0.0144212
767.254	0.0143362
767.332	0.0144230
767.410	0.0145673
767.488	0.0143995
767.567	0.0144813
767.645	0.0145017
767.723	0.0144498
767.801	0.0145901
767.879	0.0145804
767.957	0.0143697
768.035	0.0144191
768.113	0.0145025
768.192	0.0145831
768.270	0.0144676
768.348	0.0145621
768.426	0.0145311
768.504	0.0144617
768.582	0.0146035
768.660	0.0144978
768.738	0.0145703
768.817	0.0145789
768.895	0.0146017
768.973	0.0146548
769.051	0.0147105
769.129	0.0145933
769.207	0.0146667
769.285	0.0147517
769.363	0.0145506
769.442	0.0146145
769.520	0.0145820
769.598	0.0146911
769.676	0.0145785
769.754	0.0146008
769.832	0.0144949
769.910	0.0145996
769.988	0.0145713
770.067	0.0146996
770.145	0.0146698
770.223	0.0146141
770.301	0.0145816
770.379	0.0146295
770.457	0.0146154
770.535	0.0145566
770.613	0.0145467
770.692	0.0146353
770.770	0.0145324
770.848	0.0144939
770.926	0.0144444
771.004	0.0144786
771.082	0.0145227
771.160	0.0145074
771.238	0.0144224
771.317	0.0143919
771.395	0.0145835
771.473	0.0144276
771.551	0.0145329
771.629	0.0145003
771.707	0.0144899
771.785	0.0143565
771.863	0.0142908
771.942	0.0144759
772.020	0.0145132
772.098	0.0143367
772.176	0.0144057
772.254	0.0142821
772.332	0.0142356
772.410	0.0143925
772.488	0.0143296
772.567	0.0141673
772.645	0.0143174
772.723	0.0143141
772.801	0.0143623
772.879	0.0142574
772.957	0.0142281
773.035	0.0143764
773.113	0.0143637
773.192	0.0143795
773.270	0.0143971
773.348	0.0143742
773.426	0.0144365
773.504	0.0144092
773.582	0.0145496
773.660	0.0145015
773.738	0.0146725
773.817	0.0147005
773.895	0.0147105
773.973	0.0147115
774.051	0.0145882
774.129	0.0146709
774.207	0.0147522
774.285	0.0149091
774.363	0.0148680
774.442	0.0148189
774.520	0.0147943
774.598	0.0146390
774.676	0.0148561
774.754	0.0147873
774.832	0.0147086
774.910	0.0146310
774.988	0.0146376
775.067	0.0147064
775.145	0.0145710
775.223	0.0146150
775.301	0.0146136
775.379	0.0146936
775.457	0.0146350
775.535	0.0146442
775.613	0.0146041
775.692	0.0146661
775.770	0.0145618
775.848	0.0145829
775.926	0.0145025
776.004	0.0144859
776.082	0.0145826
776.160	0.0145148
776.238	0.0144373
776.317	0.0145605
776.395	0.0143205
776.473	0.0143698
776.551	0.0142890
776.629	0.0143884
776.707	0.0143096
776.785	0.0142967
776.863	0.0143687
776.942	0.0143844
777.020	0.0142770
777.098	0.0142677
777.176	0.0143623
777.254	0.0143790
777.332	0.0143587
777.410	0.0144089
777.488	0.0144338
777.567	0.0141418
777.645	0.0142567
777.723	0.0144057
777.801	0.0144933
777.879	0.0143428
777.957	0.0143718
778.035	0.0143625
778.113	0.0147063
778.192	0.0145740
778.270	0.0145413
778.348	0.0146643
778.426	0.0143864
778.504	0.0145067
778.582	0.0145503
778.660	0.0145285
778.738	0.0145341
778.817	0.0144572
778.895	0.0144577
778.973	0.0145173
779.051	0.0145375
779.129	0.0146156
779.207	0.0144840
779.285	0.0146069
779.363	0.0145267
779.442	0.0145705
779.520	0.0146247
779.598	0.0145452
779.676	0.0146745
779.754	0.0146475
779.832	0.0146677
779.910	0.0147612
779.988	0.0146324
780.067	0.0147289
780.145	0.0146808
780.223	0.0148155
780.301	0.0146452
780.379	0.0146647
780.457	0.0147580
780.535	0.0145821
780.613	0.0145927
780.692	0.0146360
780.770	0.0145158
780.848	0.0145045
780.926	0.0145355
781.004	0.0145454
781.082	0.0144452
781.160	0.0145715
781.238	0.0144536
781.317	0.0143196
781.395	0.0143913
781.473	0.0144650
781.551	0.0143970
781.629	0.0142655
781.707	0.0143597
781.785	0.0143474
781.863	0.0142664
781.942	0.0144267
782.020	0.0144566
782.098	0.0144408
782.176	0.0143881
782.254	0.0142953
782.332	0.0142908
782.410	0.0146075
782.488	0.0144557
782.567	0.0145002
782.645	0.0144224
782.723	0.0144382
782.801	0.0145467
782.879	0.0145358
782.957	0.0144552
783.035	0.0146263
783.113	0.0145552
783.192	0.0146368
783.270	0.0147033
783.348	0.0145412
783.426	0.0145675
783.504	0.0146819
783.582	0.0146802
783.660	0.0146790
783.738	0.0146434
783.817	0.0144721
783.895	0.0144923
783.973	0.0146609
784.051	0.0145764
784.129	0.0144606
784.207	0.0145722
784.285	0.0145586
784.363	0.0145471
784.442	0.0144219
784.520	0.0147157
784.598	0.0145349
784.676	0.0144473
784.754	0.0142448
784.832	0.0144249
784.910	0.0145663
784.988	0.0143729
785.067	0.0144029
785.145	0.0143748
785.223	0.0143309
785.301	0.0144205
785.379	0.0144401
785.457	0.0145336
785.535	0.0144907
785.613	0.0145438
785.692	0.0144547
785.770	0.0146649
785.848	0.0145843
785.926	0.0145680
786.004	0.0146098
786.082	0.0146703
786.160	0.0147124
786.238	0.0145695
786.317	0.0147330
786.395	0.0146239
786.473	0.0147478
786.551	0.0146389
786.629	0.0145819
786.707	0.0145148
786.785	0.0144947
786.863	0.0145099
786.942	0.0144291
787.020	0.0144292
787.098	0.0144753
787.176	0.0143967
787.254	0.0144400
787.332	0.0144221
787.410	0.0143737
787.488	0.0143836
787.567	0.0144120
787.645	0.0145129
787.723	0.0143613
787.801	0.0143591
787.879	0.0144234
787.957	0.0143396
788.035	0.0144244
788.113	0.0143990
788.192	0.0142633
788.270	0.0144068
788.348	0.0143066
788.426	0.0143987
788.504	0.0143743
788.582	0.0143998
788.660	0.0143443
788.738	0.0145314
788.817	0.0145083
788.895	0.0145265
788.973	0.0145730
789.051	0.0144933
789.129	0.0144520
789.207	0.0144011
789.285	0.0144734
789.363	0.0144987
789.442	0.0145203
789.520	0.0143921
789.598	0.0144440
789.676	0.0146629
789.754	0.0146583
789.832	0.0145620
789.910	0.0144630
789.988	0.0145128
790.067	0.0146078
790.145	0.0145305
790.223	0.0145195
790.301	0.0144453
790.379	0.0144479
790.457	0.0144361
790.535	0.0145137
790.613	0.0146175
790.692	0.0144943
790.770	0.0145787
790.848	0.0146375
790.926	0.0145695
791.004	0.0147594
791.082	0.0146862
791.160	0.0145406
791.238	0.0147633
791.317	0.0147200
791.395	0.0148233
791.473	0.0146630
791.551	0.0146592
791.629	0.0145800
791.707	0.0147038
791.785	0.0147110
791.863	0.0146461
791.942	0.0146976
792.020	0.0146370
792.098	0.0145177
792.176	0.0144455
792.254	0.0144558
792.332	0.0145414
792.410	0.0144296
792.488	0.0143729
792.567	0.0144749
792.645	0.0144155
792.723	0.0142120
792.801	0.0142954
792.879	0.0143837
792.957	0.0143551
793.035	0.0142990
793.113	0.0143158
793.192	0.0144426
793.270	0.0142809
793.348	0.0144408
793.426	0.0144566
793.504	0.0144071
793.582	0.0145979
793.660	0.0145818
793.738	0.0145703
793.817	0.0144166
793.895	0.0146480
793.973	0.0145699
794.051	0.0145243
794.129	0.0144437
794.207	0.0145258
794.285	0.0144708
794.363	0.0145756
794.442	0.0147254
794.520	0.0144791
794.598	0.0144414
794.676	0.0144799
794.754	0.0145505
794.832	0.0145084
794.910	0.0143691
794.988	0.0144379
795.067	0.0145388
795.145	0.0144028
795.223	0.0143677
795.301	0.0142789
795.379	0.0143275
795.457	0.0144220
795.535	0.0142114
795.613	0.0144023
795.692	0.0143156
795.770	0.0142809
795.848	0.0143221
795.926	0.0143839
796.004	0.0143513
796.082	0.0143669
796.160	0.0145489
796.238	0.0144352
796.317	0.0144398
796.395	0.0144079
796.473	0.0145396
796.551	0.0145558
796.629	0.0145558
796.707	0.0145970
796.785	0.0146864
796.863	0.0146378
796.942	0.0146213
797.020	0.0146460
797.098	0.0146191
797.176	0.0145262
797.254	0.0147276
797.332	0.0146492
797.410	0.0147538
797.488	0.0146697
797.567	0.0145573
797.645	0.0145176
797.723	0.0146188
797.801	0.0145901
797.879	0.0146588
797.957	0.0147404
798.035	0.0146627
798.113	0.0146333
798.192	0.0144421
798.270	0.0144827
798.348	0.0145757
798.426	0.0145817
798.504	0.0146269
798.582	0.0144887
798.660	0.0145644
798.738	0.0146031
798.817	0.0145064
798.895	0.0145493
798.973	0.0145813
799.051	0.0147646
799.129	0.0145580
799.207	0.0145890
799.285	0.0146852
799.363	0.0144945
799.442	0.0146604
799.520	0.0145392
799.598	0.0145999
799.676	0.0147015
799.754	0.0146755
799.832	0.0145113
799.910	0.0144593
799.988	0.0144212
800.067	0.0144135
800.145	0.0143808
800.223	0.0143700
800.301	0.0143688
800.379	0.0143738
800.457	0.0143864
800.535	0.0142479
800.613	0.0142403
800.692	0.0144463
800.770	0.0142942
800.848	0.0141760
800.926	0.0144372
801.004	0.0143656
801.082	0.0143095
801.160	0.0144323
801.238	0.0144067
801.317	0.0144250
801.395	0.0145224
801.473	0.0145238
801.551	0.0147024
801.629	0.0146168
801.707	0.0145602
801.785	0.0146204
801.863	0.0145548
801.942	0.0146958
802.020	0.0146044
802.098	0.0145380
802.176	0.0146512
802.254	0.0146417
802.332	0.0146987
802.410	0.0145800
802.488	0.0145905
802.567	0.0145775
802.645	0.0145668
802.723	0.0146597
802.801	0.0144803
802.879	0.0143800
802.957	0.0144022
803.035	0.0145513
803.113	0.0144962
803.192	0.0145805
803.270	0.0144690
803.348	0.0145073
803.426	0.0143288
803.504	0.0144382
803.582	0.0143817
803.660	0.0144912
803.738	0.0145483
803.817	0.0145328
803.895	0.0143484
803.973	0.0144492
804.051	0.0144079
804.129	0.0144937
804.207	0.0143372
804.285	0.0145670
804.363	0.0144393
804.442	0.0144932
804.520	0.0145094
804.598	0.0145388
804.676	0.0145216
804.754	0.0145878
804.832	0.0145473
804.910	0.0147574
804.988	0.0147202
805.067	0.0146004
805.145	0.0146858
805.223	0.0146680
805.301	0.0146004
805.379	0.0145947
805.457	0.0145983
805.535	0.0144064
805.613	0.0146317
805.692	0.0147321
805.770	0.0146851
805.848	0.0145287
805.926	0.0144588
806.004	0.0145819
806.082	0.0146143
806.160	0.0145425
806.238	0.0145919
806.317	0.0145161
806.395	0.0144394
806.473	0.0144864
806.551	0.0143658
806.629	0.0144503
806.707	0.0144448
806.785	0.0144672
806.863	0.0144384
806.942	0.0145716
807.020	0.0144684
807.098	0.0141089
807.176	0.0143236
807.254	0.0143844
807.332	0.0142642
807.410	0.0143393
807.488	0.0144463
807.567	0.0143399
807.645	0.0143131
807.723	0.0144488
807.801	0.0143345
807.879	0.0143774
807.957	0.0143968
808.035	0.0144559
808.113	0.0144488
808.192	0.0145023
808.270	0.0144312
808.348	0.0143029
808.426	0.0144338
808.504	0.0145592
808.582	0.0146188
808.660	0.0143734
808.738	0.0144897
808.817	0.0145332
808.895	0.0145603
808.973	0.0145260
809.051	0.0145859
809.129	0.0145715
809.207	0.0144666
809.285	0.0145376
809.363	0.0144700
809.442	0.0145361
809.520	0.0145083
809.598	0.0144879
809.676	0.0145377
809.754	0.0145815
809.832	0.0145649
809.910	0.0145432
809.988	0.0145046
810.067	0.0145593
810.145	0.0146303
810.223	0.0145867
810.301	0.0146250
810.379	0.0146191
810.457	0.0146107
810.535	0.0145676
810.613	0.0146615
810.692	0.0145974
810.770	0.0146310
810.848	0.0145650
810.926	0.0146536
811.004	0.0146555
811.082	0.0145683
811.160	0.0145822
811.238	0.0145201
811.317	0.0145829
811.395	0.0146338
811.473	0.0145528
811.551	0.0145013
811.629	0.0146832
811.707	0.0143700
811.785	0.0144168
811.863	0.0145642
811.942	0.0144507
812.020	0.0143284
812.098	0.0142908
812.176	0.0143880
812.254	0.0144167
812.332	0.0142385
812.410	0.0142664
812.488	0.0142732
812.567	0.0143245
812.645	0.0143736
812.723	0.0143366
812.801	0.0144070
812.879	0.0143079
812.957	0.0143707
813.035	0.0145303
813.113	0.0145367
813.192	0.0144004
813.270	0.0145288
813.348	0.0144629
813.426	0.0147336
813.504	0.0145890
813.582	0.0147678
813.660	0.0145605
813.738	0.0146165
813.817	0.0146812
813.895	0.0146519
813.973	0.0145772
814.051	0.0146211
814.129	0.0146285
814.207	0.0146049
814.285	0.0145729
814.363	0.0146067
814.442	0.0144395
814.520	0.0144693
814.598	0.0147124
814.676	0.0144962
814.754	0.0145184
814.832	0.0144799
814.910	0.0144559
814.988	0.0145384
815.067	0.0145945
815.145	0.0146178
815.223	0.0145293
815.301	0.0145025
815.379	0.0144071
815.457	0.0144585
815.535	0.0146126
815.613	0.0145908
815.692	0.0145433
815.770	0.0145391
815.848	0.0144802
815.926	0.0145341
816.004	0.0146052
816.082	0.0145453
816.160	0.0145587
816.238	0.0145532
816.317	0.0145805
816.395	0.0146093
816.473	0.0146412
816.551	0.0145974
816.629	0.0146107
816.707	0.0144930
816.785	0.0145507
816.863	0.0144598
816.942	0.0145532
817.020	0.0145771
817.098	0.0145524
817.176	0.0144340
817.254	0.0144936
817.332	0.0144366
817.410	0.0145786
817.488	0.0144492
817.567	0.0144520
817.645	0.0145361
817.723	0.0144632
817.801	0.0144980
817.879	0.0144080
817.957	0.0144597
818.035	0.0144426
818.113	0.0144509
818.192	0.0143890
818.270	0.0145255
818.348	0.0145216
818.426	0.0144019
818.504	0.0145121
818.582	0.0144461
818.660	0.0143984
818.738	0.0144312
818.817	0.0144454
818.895	0.0144211
818.973	0.0145286
819.051	0.0144480
819.129	0.0144038
819.207	0.0145119
819.285	0.0144118
819.363	0.0145363
819.442	0.0144694
819.520	0.0144621
819.598	0.0144992
819.676	0.0146087
819.754	0.0145383
819.832	0.0145304
819.910	0.0145098
819.988	0.0145719
820.067	0.0144959
820.145	0.0144070
820.223	0.0144799
820.301	0.0145541
820.379	0.0146255
820.457	0.0146619
820.535	0.0145404
820.613	0.0147053
820.692	0.0146276
820.770	0.0145502
820.848	0.0145766
820.926	0.0144620
821.004	0.0145989
821.082	0.0144631
821.160	0.0145533
821.238	0.0144836
821.317	0.0144981
821.395	0.0146606
821.473	0.0144655
821.551	0.0145442
821.629	0.0146278
821.707	0.0145858
821.785	0.0144868
821.863	0.0145682
821.942	0.0145896
822.020	0.0145332
822.098	0.0144646
822.176	0.0144570
822.254	0.0145037
822.332	0.0145934
822.410	0.0143472
822.488	0.0144454
822.567	0.0143751
822.645	0.0142990
822.723	0.0144019
822.801	0.0144107
822.879	0.0142833
822.957	0.0143893
823.035	0.0144478
823.113	0.0144193
823.192	0.0143690
823.270	0.0143674
823.348	0.0143735
823.426	0.0142825
823.504	0.0142645
823.582	0.0142790
823.660	0.0143749
823.738	0.0143268
823.817	0.0142993
823.895	0.0143118
823.973	0.0144030
824.051	0.0144354
824.129	0.0143365
824.207	0.0143531
824.285	0.0143855
824.363	0.0144813
824.442	0.0144115
824.520	0.0143104
824.598	0.0145193
824.676	0.0145007
824.754	0.0144004
824.832	0.0146523
824.910	0.0144585
824.988	0.0145158
825.067	0.0146062
825.145	0.0145038
825.223	0.0144648
825.301	0.0145776
825.379	0.0145721
825.457	0.0146619
825.535	0.0146886
825.613	0.0146777
825.692	0.0145522
825.770	0.0145439
825.848	0.0145480
825.926	0.0146413
826.004	0.0146352
826.082	0.0146610
826.160	0.0144653
826.238	0.0144241
826.317	0.0145457
826.395	0.0144531
826.473	0.0146395
826.551	0.0145058
826.629	0.0144056
826.707	0.0144630
826.785	0.0145740
826.863	0.0144307
826.942	0.0145286
827.020	0.0145500
827.098	0.0144465
827.176	0.0144024
827.254	0.0145598
827.332	0.0144488
827.410	0.0143600
827.488	0.0145566
827.567	0.0144090
827.645	0.0142626
827.723	0.0144741
827.801	0.0145429
827.879	0.0144107
827.957	0.0143201
828.035	0.0144085
828.113	0.0143491
828.192	0.0144801
828.270	0.0143530
828.348	0.0145731
828.426	0.0145480
828.504	0.0143797
828.582	0.0145916
828.660	0.0143440
828.738	0.0145270
828.817	0.0145966
828.895	0.0144872
828.973	0.0145823
829.051	0.0146305
829.129	0.0145757
829.207	0.0144072
829.285	0.0144376
829.363	0.0145370
829.442	0.0144506
829.520	0.0145809
829.598	0.0145773
829.676	0.0143983
829.754	0.0144128
829.832	0.0145058
829.910	0.0144299
829.988	0.0144534
830.067	0.0145068
830.145	0.0144860
830.223	0.0144450
830.301	0.0143345
830.379	0.0144902
830.457	0.0143980
830.535	0.0145030
830.613	0.0144905
830.692	0.0144042
830.770	0.0142745
830.848	0.0143719
830.926	0.0145616
831.004	0.0144148
831.082	0.0143130
831.160	0.0145045
831.238	0.0145253
831.317	0.0144745
831.395	0.0144658
831.473	0.0144452
831.551	0.0144004
831.629	0.0144389
831.707	0.0145357
831.785	0.0143880
831.863	0.0145387
831.942	0.0145577
832.020	0.0145684
832.098	0.0144711
832.176	0.0145102
832.254	0.0145950
832.332	0.0146584
832.410	0.0146967
832.488	0.0146371
832.567	0.0145765
832.645	0.0147145
832.723	0.0147778
832.801	0.0147006
832.879	0.0146499
832.957	0.0146225
833.035	0.0146701
833.113	0.0146823
833.192	0.0146032
833.270	0.0144812
833.348	0.0146609
833.426	0.0145357
833.504	0.0144916
833.582	0.0144782
833.660	0.0146047
833.738	0.0143972
833.817	0.0146674
833.895	0.0145795
833.973	0.0143975
834.051	0.0144708
834.129	0.0145357
834.207	0.0145383
834.285	0.0145292
834.363	0.0144185
834.442	0.0145345
834.520	0.0145711
834.598	0.0145946
834.676	0.0144518
834.754	0.0143669
834.832	0.0144133
834.910	0.0144918
834.988	0.0145058
835.067	0.0144167
835.145	0.0144577
835.223	0.0145268
835.301	0.0144576
835.379	0.0145555
835.457	0.0144559
835.535	0.0145283
835.613	0.0144241
835.692	0.0144985
835.770	0.0144782
835.848	0.0144604
835.926	0.0144442
836.004	0.0144016
836.082	0.0144608
836.160	0.0145184
836.238	0.0144010
836.317	0.0145670
836.395	0.0146233
836.473	0.0145266
836.551	0.0145357
836.629	0.0144544
836.707	0.0147594
836.785	0.0147293
836.863	0.0145687
836.942	0.0146413
837.020	0.0147085
837.098	0.0146729
837.176	0.0144496
837.254	0.0144997
837.332	0.0145906
837.410	0.0145180
837.488	0.0145234
837.567	0.0145090
837.645	0.0145823
837.723	0.0145718
837.801	0.0145393
837.879	0.0144690
837.957	0.0145828
838.035	0.0145432
838.113	0.0144131
838.192	0.0146154
838.270	0.0146413
838.348	0.0146429
838.426	0.0144753
838.504	0.0144616
838.582	0.0145188
838.660	0.0145696
838.738	0.0145246
838.817	0.0145898
838.895	0.0145785
838.973	0.0145473
839.051	0.0145403
839.129	0.0145152
839.207	0.0145501
839.285	0.0145419
839.363	0.0144004
839.442	0.0145876
839.520	0.0145583
839.598	0.0145920
839.676	0.0145073
839.754	0.0146012
839.832	0.0145693
839.910	0.0143689
839.988	0.0145393
840.067	0.0144341
840.145	0.0145914
840.223	0.0145637
840.301	0.0144787
840.379	0.0144862
840.457	0.0145095
840.535	0.0146630
840.613	0.0144718
840.692	0.0145978
840.770	0.0145831
840.848	0.0146210
840.926	0.0145684
841.004	0.0144512
841.082	0.0144028
841.160	0.0145886
841.238	0.0144970
841.317	0.0145055
841.395	0.0144981
841.473	0.0144422
841.551	0.0144350
841.629	0.0144305
841.707	0.0143905
841.785	0.0144080
841.863	0.0143803
841.942	0.0144778
842.020	0.0145002
842.098	0.0145422
842.176	0.0144317
842.254	0.0144199
842.332	0.0145303
842.410	0.0143178
842.488	0.0144909
842.567	0.0145228
842.645	0.0143941
842.723	0.0145384
842.801	0.0143563
842.879	0.0144753
842.957	0.0144186
843.035	0.0144529
843.113	0.0145340
843.192	0.0144801
843.270	0.0144962
843.348	0.0145645
843.426	0.0143956
843.504	0.0144348
843.582	0.0144842
843.660	0.0145233
843.738	0.0145433
843.817	0.0144638
843.895	0.0146225
843.973	0.0145358
844.051	0.0144411
844.129	0.0144047
844.207	0.0144498
844.285	0.0143104
844.363	0.0144980
844.442	0.0144809
844.520	0.0143089
844.598	0.0144382
844.676	0.0145374
844.754	0.0144666
844.832	0.0144166
844.910	0.0145116
844.988	0.0144746
845.067	0.0142583
845.145	0.0143707
845.223	0.0145680
845.301	0.0145273
845.379	0.0144800
845.457	0.0145417
845.535	0.0144556
845.613	0.0145054
845.692	0.0144660
845.770	0.0144254
845.848	0.0144384
845.926	0.0144967
846.004	0.0145191
846.082	0.0146433
846.160	0.0143098
846.238	0.0144059
846.317	0.0143907
846.395	0.0144139
846.473	0.0145058
846.551	0.0143370
846.629	0.0142837
846.707	0.0144005
846.785	0.0142998
846.863	0.0142667
846.942	0.0143089
847.020	0.0144022
847.098	0.0142839
847.176	0.0145446
847.254	0.0142735
847.332	0.0144646
847.410	0.0144305
847.488	0.0144510
847.567	0.0144762
847.645	0.0143324
847.723	0.0143374
847.801	0.0144740
847.879	0.0145314
847.957	0.0145171
848.035	0.0145061
848.113	0.0145815
848.192	0.0145289
848.270	0.0144794
848.348	0.0144904
848.426	0.0144553
848.504	0.0144180
848.582	0.0144836
848.660	0.0145588
848.738	0.0144376
848.817	0.0144351
848.895	0.0145329
848.973	0.0144987
849.051	0.0144424
849.129	0.0144810
849.207	0.0145499
849.285	0.0145672
849.363	0.0144032
849.442	0.0143774
849.520	0.0143353
849.598	0.0143392
849.676	0.0142584
849.754	0.0143896
849.832	0.0144882
849.910	0.0144274
849.988	0.0144633
850.067	0.0145319
850.145	0.0145064
850.223	0.0142915
850.301	0.0144315
850.379	0.0144572
850.457	0.0145359
850.535	0.0146780
850.613	0.0144912
850.692	0.0145048
850.770	0.0146538
850.848	0.0144753
850.926	0.0145547
851.004	0.0145617
851.082	0.0146046
851.160	0.0145898
851.238	0.0147076
851.317	0.0146951
851.395	0.0145522
851.473	0.0145635
851.551	0.0146063
851.629	0.0145156
851.707	0.0144932
851.785	0.0144426
851.863	0.0144619
851.942	0.0145103
852.020	0.0144104
852.098	0.0143256
852.176	0.0143518
852.254	0.0143243
852.332	0.0143976
852.410	0.0143983
852.488	0.0144101
852.567	0.0142686
852.645	0.0143148
852.723	0.0144320
852.801	0.0142667
852.879	0.0144197
852.957	0.0143840
853.035	0.0144508
853.113	0.0144462
853.192	0.0144649
853.270	0.0145592
853.348	0.0143930
853.426	0.0145446
853.504	0.0144058
853.582	0.0144135
853.660	0.0144157
853.738	0.0145184
853.817	0.0145344
853.895	0.0144209
853.973	0.0144137
854.051	0.0146218
854.129	0.0146096
854.207	0.0145007
854.285	0.0145664
854.363	0.0145324
854.442	0.0145752
854.520	0.0146186
854.598	0.0144426
854.676	0.0144955
854.754	0.0145145
854.832	0.0145914
854.910	0.0145870
854.988	0.0145576
855.067	0.0145739
855.145	0.0145835
855.223	0.0146328
855.301	0.0146494
855.379	0.0144633
855.457	0.0145406
855.535	0.0146729
855.613	0.0146869
855.692	0.0144878
855.770	0.0146297
855.848	0.0147302
855.926	0.0146051
856.004	0.0146101
856.082	0.0144654
856.160	0.0147898
856.238	0.0146186
856.317	0.0144370
856.395	0.0145339
856.473	0.0145396
856.551	0.0144394
856.629	0.0144221
856.707	0.0143822
856.785	0.0143256
856.863	0.0144105
856.942	0.0142866
857.020	0.0144526
857.098	0.0144474
857.176	0.0142936
857.254	0.0143298
857.332	0.0143833
857.410	0.0143445
857.488	0.0143620
857.567	0.0144604
857.645	0.0144738
857.723	0.0145089
857.801	0.0146220
857.879	0.0144662
857.957	0.0145834
858.035	0.0145550
858.113	0.0144896
858.192	0.0144868
858.270	0.0146464
858.348	0.0145548
858.426	0.0145492
858.504	0.0145377
858.582	0.0144906
858.660	0.0145197
858.738	0.0144713
858.817	0.0143525
858.895	0.0144218
858.973	0.0144975
859.051	0.0144617
859.129	0.0144643
859.207	0.0146148
859.285	0.0146298
859.363	0.0144299
859.442	0.0145894
859.520	0.0146336
859.598	0.0146395
859.676	0.0144986
859.754	0.0145206
859.832	0.0146489
859.910	0.0146482
859.988	0.0146265
860.067	0.0146659
860.145	0.0145510
860.223	0.0145844
860.301	0.0145578
860.379	0.0143772
860.457	0.0145422
860.535	0.0145074
860.613	0.0145767
860.692	0.0145849
860.770	0.0144842
860.848	0.0143990
860.926	0.0144286
861.004	0.0144897
861.082	0.0143581
861.160	0.0144131
861.238	0.0145592
861.317	0.0143204
861.395	0.0143845
861.473	0.0146061
861.551	0.0144780
861.629	0.0143612
861.707	0.0144961
861.785	0.0145602
861.863	0.0145089
861.942	0.0145286
862.020	0.0145209
862.098	0.0145197
862.176	0.0146103
862.254	0.0145398
862.332	0.0144678
862.410	0.0144624
862.488	0.0144792
862.567	0.0144803
862.645	0.0143915
862.723	0.0144323
862.801	0.0143453
862.879	0.0144260
862.957	0.0143658
863.035	0.0142907
863.113	0.0144626
863.192	0.0144942
863.270	0.0143909
863.348	0.0144312
863.426	0.0144472
863.504	0.0144543
863.582	0.0143642
863.660	0.0143970
863.738	0.0145129
863.817	0.0145705
863.895	0.0145132
863.973	0.0145075
864.051	0.0144247
864.129	0.0146764
864.207	0.0145494
864.285	0.0147032
864.363	0.0144946
864.442	0.0144207
864.520	0.0146783
864.598	0.0146402
864.676	0.0144928
864.754	0.0146144
864.832	0.0145200
864.910	0.0145678
864.988	0.0145843
865.067	0.0145252
865.145	0.0146040
865.223	0.0145045
865.301	0.0145338
865.379	0.0144981
865.457	0.0145444
865.535	0.0143935
865.613	0.0144515
865.692	0.0146304
865.770	0.0145147
865.848	0.0145440
865.926	0.0145668
866.004	0.0144442
866.082	0.0143510
866.160	0.0146114
866.238	0.0144034
866.317	0.0143803
866.395	0.0143987
866.473	0.0144186
866.551	0.0143900
866.629	0.0144878
866.707	0.0143742
866.785	0.0143604
866.863	0.0143080
866.942	0.0144440
867.020	0.0143662
867.098	0.0144518
867.176	0.0143835
867.254	0.0144363
867.332	0.0144149
867.410	0.0143780
867.488	0.0143186
867.567	0.0142937
867.645	0.0142897
867.723	0.0143138
867.801	0.0143395
867.879	0.0143316
867.957	0.0143288
868.035	0.0143255
868.113	0.0143314
868.192	0.0144422
868.270	0.0143928
868.348	0.0143000
868.426	0.0143342
868.504	0.0143453
868.582	0.0143601
868.660	0.0144289
868.738	0.0144986
868.817	0.0144954
868.895	0.0144868
868.973	0.0143494
869.051	0.0144047
869.129	0.0144503
869.207	0.0145737
869.285	0.0146550
869.363	0.0146481
869.442	0.0145033
869.520	0.0143962
869.598	0.0144791
869.676	0.0145297
869.754	0.0145308
869.832	0.0145954
869.910	0.0144160
869.988	0.0143951
870.067	0.0143961
870.145	0.0143547
870.223	0.0144025
870.301	0.0142664
870.379	0.0144630
870.457	0.0143753
870.535	0.0145205
870.613	0.0144351
870.692	0.0143607
870.770	0.0145280
870.848	0.0144125
870.926	0.0144062
871.004	0.0143876
871.082	0.0145242
871.160	0.0145782
871.238	0.0145642
871.317	0.0144346
871.395	0.0145849
871.473	0.0144915
871.551	0.0144440
871.629	0.0144498
871.707	0.0144292
871.785	0.0146349
871.863	0.0144627
871.942	0.0144200
872.020	0.0145467
872.098	0.0144587
872.176	0.0144586
872.254	0.0142666
872.332	0.0142972
872.410	0.0143416
872.488	0.0143417
872.567	0.0143087
872.645	0.0142850
872.723	0.0143597
872.801	0.0143015
872.879	0.0144283
872.957	0.0143704
873.035	0.0142973
873.113	0.0142452
873.192	0.0144812
873.270	0.0145348
873.348	0.0144455
873.426	0.0145396
873.504	0.0144630
873.582	0.0144815
873.660	0.0146010
873.738	0.0145927
873.817	0.0146799
873.895	0.0148194
873.973	0.0145995
874.051	0.0146404
874.129	0.0146067
874.207	0.0148519
874.285	0.0146820
874.363	0.0147072
874.442	0.0146958
874.520	0.0147068
874.598	0.0146545
874.676	0.0144885
874.754	0.0146624
874.832	0.0145492
874.910	0.0143983
874.988	0.0144992
875.067	0.0145414
875.145	0.0144971
875.223	0.0144850
875.301	0.0144723
875.379	0.0144735
875.457	0.0145020
875.535	0.0143010
875.613	0.0144411
875.692	0.0144628
875.770	0.0143380
875.848	0.0144738
875.926	0.0145074
876.004	0.0144611
876.082	0.0143763
876.160	0.0143984
876.238	0.0145687
876.317	0.0143552
876.395	0.0144961
876.473	0.0145449
876.551	0.0144694
876.629	0.0145507
876.707	0.0146264
876.785	0.0144402
876.863	0.0144769
876.942	0.0145531
877.020	0.0144940
877.098	0.0144942
877.176	0.0144231
877.254	0.0146291
877.332	0.0144862
877.410	0.0143916
877.488	0.0143596
877.567	0.0143836
877.645	0.0145702
877.723	0.0143865
877.801	0.0144273
877.879	0.0144545
877.957	0.0144971
878.035	0.0144231
878.113	0.0143579
878.192	0.0144845
878.270	0.0144539
878.348	0.0144681
878.426	0.0144063
878.504	0.0145000
878.582	0.0145709
878.660	0.0144843
878.738	0.0143730
878.817	0.0146268
878.895	0.0146139
878.973	0.0146927
879.051	0.0147262
879.129	0.0146671
879.207	0.0146071
879.285	0.0146557
879.363	0.0148518
879.442	0.0145782
879.520	0.0146461
879.598	0.0146454
879.676	0.0146287
879.754	0.0147018
879.832	0.0146243
879.910	0.0144919
879.988	0.0144840
880.067	0.0146075
880.145	0.0145747
880.223	0.0145289
880.301	0.0144736
880.379	0.0146242
880.457	0.0144392
880.535	0.0145047
880.613	0.0145066
880.692	0.0143738
880.770	0.0143693
880.848	0.0145333
880.926	0.0144454
881.004	0.0145339
881.082	0.0145197
881.160	0.0144541
881.238	0.0143975
881.317	0.0143983
881.395	0.0145917
881.473	0.0145150
881.551	0.0143933
881.629	0.0144477
881.707	0.0145729
881.785	0.0145228
881.863	0.0145050
881.942	0.0143924
882.020	0.0143631
882.098	0.0145390
882.176	0.0145084
882.254	0.0145917
882.332	0.0143626
882.410	0.0144590
882.488	0.0144784
882.567	0.0144939
882.645	0.0145224
882.723	0.0146743
882.801	0.0145177
882.879	0.0145351
882.957	0.0145436
883.035	0.0145140
883.113	0.0145732
883.192	0.0145712
883.270	0.0145948
883.348	0.0146087
883.426	0.0146265
883.504	0.0145438
883.582	0.0145173
883.660	0.0144482
883.738	0.0145884
883.817	0.0145248
883.895	0.0144277
883.973	0.0145642
884.051	0.0144668
884.129	0.0144576
884.207	0.0144200
884.285	0.0144966
884.363	0.0144609
884.442	0.0144155
884.520	0.0145169
884.598	0.0144499
884.676	0.0144046
884.754	0.0143601
884.832	0.0144498
884.910	0.0144579
884.988	0.0144339
885.067	0.0143884
885.145	0.0145482
885.223	0.0144898
885.301	0.0144781
885.379	0.0145531
885.457	0.0144556
885.535	0.0146134
885.613	0.0144972
885.692	0.0145988
885.770	0.0145660
885.848	0.0144956
885.926	0.0144016
886.004	0.0145574
886.082	0.0145711
886.160	0.0144958
886.238	0.0144627
886.317	0.0145251
886.395	0.0143770
886.473	0.0143568
886.551	0.0144517
886.629	0.0145114
886.707	0.0145645
886.785	0.0145325
886.863	0.0145117
886.942	0.0144533
887.020	0.0144738
887.098	0.0145273
887.176	0.0144722
887.254	0.0144509
887.332	0.0144758
887.410	0.0145999
887.488	0.0145553
887.567	0.0145692
887.645	0.0145648
887.723	0.0144823
887.801	0.0145390
887.879	0.0144712
887.957	0.0145445
888.035	0.0145329
888.113	0.0145929
888.192	0.0146334
888.270	0.0146101
888.348	0.0144256
888.426	0.0144364
888.504	0.0145426
888.582	0.0144799
888.660	0.0145764
888.738	0.0145485
888.817	0.0144511
888.895	0.0145139
888.973	0.0145484
889.051	0.0145854
889.129	0.0146846
889.207	0.0145182
889.285	0.0145168
889.363	0.0144253
889.442	0.0144700
889.520	0.0145064
889.598	0.0143667
889.676	0.0144236
889.754	0.0145444
889.832	0.0144461
889.910	0.0143905
889.988	0.0143252
890.067	0.0145043
890.145	0.0144447
890.223	0.0143142
890.301	0.0143269
890.379	0.0142017
890.457	0.0144194
890.535	0.0144120
890.613	0.0142834
890.692	0.0144270
890.770	0.0143863
890.848	0.0143616
890.926	0.0143856
891.004	0.0145447
891.082	0.0143684
891.160	0.0144581
891.238	0.0144240
891.317	0.0144476
891.395	0.0145747
891.473	0.0145821
891.551	0.0145128
891.629	0.0145137
891.707	0.0145726
891.785	0.0143815
891.863	0.0144319
891.942	0.0145216
892.020	0.0145363
892.098	0.0144644
892.176	0.0145091
892.254	0.0144131
892.332	0.0143630
892.410	0.0144690
892.488	0.0145359
892.567	0.0144759
892.645	0.0145077
892.723	0.0143877
892.801	0.0145616
892.879	0.0145010
892.957	0.0145400
893.035	0.0144998
893.113	0.0144827
893.192	0.0144734
893.270	0.0146236
893.348	0.0145409
893.426	0.0144343
893.504	0.0144584
893.582	0.0144726
893.660	0.0143929
893.738	0.0143514
893.817	0.0143774
893.895	0.0143864
893.973	0.0144031
894.051	0.0142746
894.129	0.0143989
894.207	0.0144840
894.285	0.0143406
894.363	0.0144770
894.442	0.0144576
894.520	0.0143773
894.598	0.0143830
894.676	0.0144186
894.754	0.0144288
894.832	0.0144879
894.910	0.0143821
894.988	0.0143970
895.067	0.0145054
895.145	0.0145820
895.223	0.0144053
895.301	0.0145132
895.379	0.0144528
895.457	0.0144498
895.535	0.0145105
895.613	0.0144045
895.692	0.0144404
895.770	0.0144592
895.848	0.0145768
895.926	0.0145432
896.004	0.0144297
896.082	0.0144581
896.160	0.0145148
896.238	0.0145518
896.317	0.0145342
896.395	0.0144782
896.473	0.0144846
896.551	0.0143866
896.629	0.0143961
896.707	0.0144489
896.785	0.0144147
896.863	0.0145364
896.942	0.0145006
897.020	0.0144482
897.098	0.0145425
897.176	0.0144099
897.254	0.0145164
897.332	0.0143932
897.410	0.0144709
897.488	0.0145482
897.567	0.0145306
897.645	0.0146874
897.723	0.0146484
897.801	0.0145231
897.879	0.0145832
897.957	0.0145442
898.035	0.0144277
898.113	0.0145232
898.192	0.0145569
898.270	0.0145618
898.348	0.0146025
898.426	0.0145574
898.504	0.0145147
898.582	0.0145322
898.660	0.0145238
898.738	0.0145884
898.817	0.0145896
898.895	0.0145291
898.973	0.0145164
899.051	0.0143953
899.129	0.0144350
899.207	0.0144156
899.285	0.0144177
899.363	0.0143600
899.442	0.0142299
899.520	0.0144055
899.598	0.0145227
899.676	0.0143718
899.754	0.0143314
899.832	0.0143474
899.910	0.0143324
899.988	0.0143651
900.067	0.0145309
900.145	0.0144827
900.223	0.0143760
900.301	0.0144258
900.379	0.0143720
900.457	0.0144638
900.535	0.0145266
900.613	0.0145710
900.692	0.0144007
900.770	0.0144185
900.848	0.0145103
900.926	0.0144507
901.004	0.0144630
901.082	0.0144865
901.160	0.0145126
901.238	0.0143966
901.317	0.0144843
901.395	0.0145094
901.473	0.0144444
901.551	0.0144737
901.629	0.0143543
901.707	0.0142738
901.785	0.0143573
901.863	0.0144335
901.942	0.0145444
902.020	0.0146358
902.098	0.0144336
902.176	0.0144841
902.254	0.0145310
902.332	0.0144500
902.410	0.0144198
902.488	0.0145478
902.567	0.0145345
902.645	0.0145027
902.723	0.0145377
902.801	0.0145547
902.879	0.0145941
902.957	0.0144706
903.035	0.0145098
903.113	0.0145920
903.192	0.0145679
903.270	0.0144805
903.348	0.0144873
903.426	0.0146716
903.504	0.0144791
903.582	0.0144098
903.660	0.0144949
903.738	0.0145031
903.817	0.0145570
903.895	0.0144972
903.973	0.0145588
904.051	0.0145814
904.129	0.0146603
904.207	0.0144874
904.285	0.0145790
904.363	0.0146820
904.442	0.0145497
904.520	0.0144603
904.598	0.0145530
904.676	0.0145553
904.754	0.0144611
904.832	0.0145654
904.910	0.0145588
904.988	0.0143951
905.067	0.0144241
905.145	0.0144914
905.223	0.0144704
905.301	0.0144028
905.379	0.0144388
905.457	0.0143941
905.535	0.0143590
905.613	0.0144421
905.692	0.0144319
905.770	0.0145012
905.848	0.0144476
905.926	0.0143775
906.004	0.0144614
906.082	0.0143939
906.160	0.0144669
906.238	0.0144306
906.317	0.0144443
906.395	0.0144873
906.473	0.0145063
906.551	0.0144434
906.629	0.0144456
906.707	0.0144350
906.785	0.0145850
906.863	0.0144148
906.942	0.0143490
907.020	0.0145863
907.098	0.0145671
907.176	0.0144573
907.254	0.0146554
907.332	0.0145525
907.410	0.0144806
907.488	0.0144842
907.567	0.0145826
907.645	0.0146046
907.723	0.0146183
907.801	0.0145410
907.879	0.0146136
907.957	0.0145753
908.035	0.0145615
908.113	0.0146214
908.192	0.0146387
908.270	0.0146418
908.348	0.0147855
908.426	0.0147127
908.504	0.0146597
908.582	0.0147443
908.660	0.0146983
908.738	0.0145615
908.817	0.0145461
908.895	0.0145147
908.973	0.0145573
909.051	0.0145952
909.129	0.0145823
909.207	0.0146476
909.285	0.0146703
909.363	0.0145733
909.442	0.0145563
909.520	0.0144574
909.598	0.0145464
909.676	0.0144087
909.754	0.0145716
909.832	0.0145121
909.910	0.0145293
909.988	0.0143626
910.067	0.0144442
910.145	0.0145549
910.223	0.0144906
910.301	0.0144353
910.379	0.0144302
910.457	0.0143788
910.535	0.0144113
910.613	0.0144724
910.692	0.0144242
910.770	0.0143055
910.848	0.0145554
910.926	0.0144258
911.004	0.0141795
911.082	0.0143450
911.160	0.0143671
911.238	0.0143655
911.317	0.0143385
911.395	0.0144196
911.473	0.0145216
911.551	0.0143831
911.629	0.0145097
911.707	0.0144576
911.785	0.0145653
911.863	0.0144892
911.942	0.0145081
912.020	0.0146415
912.098	0.0145731
912.176	0.0146320
912.254	0.0146970
912.332	0.0146712
912.410	0.0145803
912.488	0.0145049
912.567	0.0145281
912.645	0.0146349
912.723	0.0145233
912.801	0.0144966
912.879	0.0145902
912.957	0.0145042
913.035	0.0145633
913.113	0.0146047
913.192	0.0146213
913.270	0.0145287
913.348	0.0145338
913.426	0.0148442
913.504	0.0144701
913.582	0.0145488
913.660	0.0145304
913.738	0.0146154
913.817	0.0144962
913.895	0.0145073
913.973	0.0145691
914.051	0.0145271
914.129	0.0145282
914.207	0.0145401
914.285	0.0145982
914.363	0.0145639
914.442	0.0145247
914.520	0.0145087
914.598	0.0145142
914.676	0.0144393
914.754	0.0145291
914.832	0.0145923
914.910	0.0144998
914.988	0.0145407
915.067	0.0144225
915.145	0.0143691
915.223	0.0143792
915.301	0.0143030
915.379	0.0143720
915.457	0.0143975
915.535	0.0143233
915.613	0.0143043
915.692	0.0144461
915.770	0.0144386
915.848	0.0144224
915.926	0.0145009
916.004	0.0143484
916.082	0.0144688
916.160	0.0145015
916.238	0.0144619
916.317	0.0144447
916.395	0.0146039
916.473	0.0144518
916.551	0.0144407
916.629	0.0144736
916.707	0.0144981
916.785	0.0145455
916.863	0.0145223
916.942	0.0145173
917.020	0.0146148
917.098	0.0145071
917.176	0.0144453
917.254	0.0144448
917.332	0.0145733
917.410	0.0144433
917.488	0.0145649
917.567	0.0145480
917.645	0.0146066
917.723	0.0145653
917.801	0.0145515
917.879	0.0145198
917.957	0.0144670
918.035	0.0144421
918.113	0.0144285
918.192	0.0144905
918.270	0.0144891
918.348	0.0144659
918.426	0.0145296
918.504	0.0144763
918.582	0.0144818
918.660	0.0144182
918.738	0.0144184
918.817	0.0145229
918.895	0.0145007
918.973	0.0144616
919.051	0.0142394
919.129	0.0144664
919.207	0.0144197
919.285	0.0145366
919.363	0.0145147
919.442	0.0143348
919.520	0.0143322
919.598	0.0144865
919.676	0.0142924
919.754	0.0145375
919.832	0.0144734
919.910	0.0144494
