05/28/2022	14:17:56	Ver.	4.1	UNKNOWN
Optical Delay	599.988409	Delta X		0.078125	Sweeps	1	Scan Rate	0/0
Coordinates	Axis 1	NaN	Axis 2	NaN	Axis 3	NaN	Axis 4	NaN	Axis 5	NaN	Axis 6	0.000000
TX Power	0.000000	RX Power	0.000000

599.988	0.0143945
600.067	0.0144314
600.145	0.0143214
600.223	0.0143256
600.301	0.0142812
600.379	0.0144859
600.457	0.0143387
600.535	0.0144215
600.613	0.0144640
600.692	0.0143684
600.770	0.0143700
600.848	0.0144044
600.926	0.0143240
601.004	0.0143865
601.082	0.0143875
601.160	0.0143863
601.238	0.0145573
601.317	0.0144683
601.395	0.0142710
601.473	0.0144910
601.551	0.0145068
601.629	0.0143692
601.707	0.0143946
601.785	0.0143984
601.863	0.0143577
601.942	0.0143964
602.020	0.0144501
602.098	0.0142742
602.176	0.0144463
602.254	0.0143865
602.332	0.0145087
602.410	0.0143432
602.488	0.0143084
602.567	0.0144485
602.645	0.0145296
602.723	0.0144752
602.801	0.0144128
602.879	0.0143147
602.957	0.0144252
603.035	0.0144761
603.113	0.0144591
603.192	0.0144671
603.270	0.0143960
603.348	0.0143790
603.426	0.0144603
603.504	0.0144553
603.582	0.0145905
603.660	0.0144638
603.738	0.0145129
603.817	0.0143685
603.895	0.0144479
603.973	0.0143002
604.051	0.0144118
604.129	0.0146040
604.207	0.0146117
604.285	0.0144602
604.363	0.0144028
604.442	0.0145085
604.520	0.0145276
604.598	0.0144418
604.676	0.0143983
604.754	0.0144637
604.832	0.0143947
604.910	0.0145592
604.988	0.0143802
605.067	0.0144115
605.145	0.0145013
605.223	0.0144428
605.301	0.0143426
605.379	0.0144185
605.457	0.0143716
605.535	0.0144286
605.613	0.0144099
605.692	0.0144488
605.770	0.0143394
605.848	0.0144090
605.926	0.0144516
606.004	0.0142760
606.082	0.0143285
606.160	0.0143472
606.238	0.0145669
606.317	0.0144225
606.395	0.0144218
606.473	0.0143230
606.551	0.0143451
606.629	0.0144628
606.707	0.0144422
606.785	0.0142761
606.863	0.0143781
606.942	0.0143686
607.020	0.0144703
607.098	0.0143619
607.176	0.0143288
607.254	0.0143867
607.332	0.0143425
607.410	0.0143307
607.488	0.0143775
607.567	0.0144738
607.645	0.0142984
607.723	0.0143224
607.801	0.0141724
607.879	0.0143577
607.957	0.0143282
608.035	0.0144544
608.113	0.0143274
608.192	0.0142526
608.270	0.0145243
608.348	0.0142152
608.426	0.0141904
608.504	0.0143093
608.582	0.0143755
608.660	0.0143010
608.738	0.0143037
608.817	0.0144429
608.895	0.0142416
608.973	0.0142564
609.051	0.0142812
609.129	0.0144499
609.207	0.0144149
609.285	0.0143066
609.363	0.0143065
609.442	0.0143156
609.520	0.0144212
609.598	0.0143665
609.676	0.0143164
609.754	0.0143803
609.832	0.0142583
609.910	0.0143053
609.988	0.0142735
610.067	0.0142861
610.145	0.0142944
610.223	0.0142861
610.301	0.0143002
610.379	0.0144270
610.457	0.0144171
610.535	0.0143288
610.613	0.0142598
610.692	0.0142957
610.770	0.0143330
610.848	0.0146044
610.926	0.0143856
611.004	0.0143583
611.082	0.0143327
611.160	0.0143403
611.238	0.0144276
611.317	0.0143458
611.395	0.0143401
611.473	0.0142583
611.551	0.0142635
611.629	0.0144136
611.707	0.0143900
611.785	0.0143549
611.863	0.0144193
611.942	0.0143957
612.020	0.0144505
612.098	0.0143148
612.176	0.0143686
612.254	0.0143785
612.332	0.0143809
612.410	0.0143807
612.488	0.0144112
612.567	0.0143772
612.645	0.0142818
612.723	0.0142953
612.801	0.0144337
612.879	0.0144223
612.957	0.0143234
613.035	0.0144588
613.113	0.0143615
613.192	0.0142754
613.270	0.0142956
613.348	0.0142981
613.426	0.0142356
613.504	0.0144643
613.582	0.0144865
613.660	0.0142387
613.738	0.0143718
613.817	0.0144272
613.895	0.0144289
613.973	0.0144798
614.051	0.0143727
614.129	0.0143908
614.207	0.0144392
614.285	0.0143705
614.363	0.0144492
614.442	0.0142616
614.520	0.0144073
614.598	0.0145399
614.676	0.0143880
614.754	0.0143548
614.832	0.0144151
614.910	0.0144353
614.988	0.0142807
615.067	0.0143530
615.145	0.0143761
615.223	0.0144148
615.301	0.0144204
615.379	0.0145046
615.457	0.0143587
615.535	0.0144274
615.613	0.0144485
615.692	0.0143365
615.770	0.0145016
615.848	0.0145782
615.926	0.0144804
616.004	0.0144206
616.082	0.0144408
616.160	0.0144310
616.238	0.0145022
616.317	0.0143412
616.395	0.0143044
616.473	0.0144959
616.551	0.0144314
616.629	0.0144617
616.707	0.0143896
616.785	0.0144828
616.863	0.0144658
616.942	0.0142999
617.020	0.0143818
617.098	0.0144240
617.176	0.0144808
617.254	0.0144819
617.332	0.0144938
617.410	0.0143935
617.488	0.0144672
617.567	0.0143992
617.645	0.0144785
617.723	0.0144669
617.801	0.0145016
617.879	0.0145503
617.957	0.0143565
618.035	0.0144813
618.113	0.0144745
618.192	0.0146592
618.270	0.0145734
618.348	0.0144446
618.426	0.0143507
618.504	0.0144418
618.582	0.0144176
618.660	0.0144292
618.738	0.0144003
618.817	0.0144777
618.895	0.0144714
618.973	0.0145885
619.051	0.0145531
619.129	0.0145467
619.207	0.0145372
619.285	0.0146602
619.363	0.0144337
619.442	0.0144206
619.520	0.0144610
619.598	0.0144364
619.676	0.0145224
619.754	0.0146155
619.832	0.0144879
619.910	0.0145656
619.988	0.0146475
620.067	0.0143871
620.145	0.0145420
620.223	0.0145133
620.301	0.0145152
620.379	0.0145116
620.457	0.0144112
620.535	0.0144456
620.613	0.0145551
620.692	0.0145338
620.770	0.0145250
620.848	0.0144174
620.926	0.0144372
621.004	0.0144366
621.082	0.0143089
621.160	0.0144461
621.238	0.0144119
621.317	0.0144292
621.395	0.0144451
621.473	0.0145337
621.551	0.0146222
621.629	0.0142691
621.707	0.0144985
621.785	0.0145679
621.863	0.0144813
621.942	0.0143549
622.020	0.0142790
622.098	0.0145837
622.176	0.0144534
622.254	0.0143915
622.332	0.0144969
622.410	0.0143974
622.488	0.0143628
622.567	0.0144483
622.645	0.0143609
622.723	0.0145552
622.801	0.0144286
622.879	0.0143967
622.957	0.0143610
623.035	0.0144699
623.113	0.0144935
623.192	0.0144459
623.270	0.0144315
623.348	0.0143854
623.426	0.0143611
623.504	0.0143791
623.582	0.0144587
623.660	0.0144150
623.738	0.0143407
623.817	0.0144933
623.895	0.0146175
623.973	0.0145352
624.051	0.0145009
624.129	0.0144604
624.207	0.0144041
624.285	0.0144738
624.363	0.0145020
624.442	0.0145907
624.520	0.0143225
624.598	0.0144437
624.676	0.0145145
624.754	0.0144839
624.832	0.0143645
624.910	0.0144880
624.988	0.0143911
625.067	0.0143474
625.145	0.0145387
625.223	0.0144573
625.301	0.0144932
625.379	0.0143823
625.457	0.0143971
625.535	0.0144851
625.613	0.0144466
625.692	0.0144227
625.770	0.0143552
625.848	0.0144424
625.926	0.0144624
626.004	0.0145231
626.082	0.0144022
626.160	0.0141999
626.238	0.0142944
626.317	0.0144153
626.395	0.0142645
626.473	0.0142780
626.551	0.0144036
626.629	0.0143826
626.707	0.0143898
626.785	0.0142097
626.863	0.0143742
626.942	0.0142749
627.020	0.0143981
627.098	0.0143163
627.176	0.0142554
627.254	0.0143398
627.332	0.0143994
627.410	0.0144200
627.488	0.0143316
627.567	0.0143073
627.645	0.0143049
627.723	0.0142632
627.801	0.0143153
627.879	0.0144072
627.957	0.0142811
628.035	0.0141195
628.113	0.0142495
628.192	0.0143211
628.270	0.0143377
628.348	0.0142417
628.426	0.0142773
628.504	0.0141730
628.582	0.0143022
628.660	0.0143114
628.738	0.0143518
628.817	0.0143565
628.895	0.0143591
628.973	0.0142792
629.051	0.0143763
629.129	0.0142677
629.207	0.0142263
629.285	0.0142607
629.363	0.0144174
629.442	0.0143341
629.520	0.0143039
629.598	0.0143494
629.676	0.0143388
629.754	0.0142690
629.832	0.0141635
629.910	0.0142750
629.988	0.0143523
630.067	0.0143812
630.145	0.0145029
630.223	0.0144034
630.301	0.0143037
630.379	0.0144465
630.457	0.0143612
630.535	0.0144001
630.613	0.0143585
630.692	0.0143140
630.770	0.0144136
630.848	0.0143454
630.926	0.0141765
631.004	0.0143508
631.082	0.0145892
631.160	0.0144287
631.238	0.0144056
631.317	0.0143668
631.395	0.0143742
631.473	0.0143352
631.551	0.0143274
631.629	0.0143359
631.707	0.0142258
631.785	0.0142503
631.863	0.0144907
631.942	0.0144138
632.020	0.0143581
632.098	0.0142731
632.176	0.0142027
632.254	0.0142092
632.332	0.0144217
632.410	0.0144187
632.488	0.0144376
632.567	0.0143318
632.645	0.0144013
632.723	0.0145020
632.801	0.0143530
632.879	0.0143992
632.957	0.0142975
633.035	0.0144057
633.113	0.0143887
633.192	0.0141947
633.270	0.0143553
633.348	0.0143543
633.426	0.0143937
633.504	0.0142979
633.582	0.0145107
633.660	0.0144460
633.738	0.0143450
633.817	0.0143424
633.895	0.0144154
633.973	0.0144179
634.051	0.0143648
634.129	0.0144192
634.207	0.0145370
634.285	0.0143797
634.363	0.0144778
634.442	0.0142778
634.520	0.0143737
634.598	0.0145030
634.676	0.0144852
634.754	0.0145045
634.832	0.0144858
634.910	0.0145371
634.988	0.0144501
635.067	0.0143981
635.145	0.0146269
635.223	0.0146198
635.301	0.0146254
635.379	0.0145031
635.457	0.0144687
635.535	0.0145084
635.613	0.0146162
635.692	0.0146247
635.770	0.0145211
635.848	0.0146973
635.926	0.0144744
636.004	0.0144202
636.082	0.0145037
636.160	0.0144348
636.238	0.0144821
636.317	0.0145210
636.395	0.0144303
636.473	0.0145432
636.551	0.0143594
636.629	0.0144106
636.707	0.0145817
636.785	0.0145535
636.863	0.0145608
636.942	0.0145280
637.020	0.0145647
637.098	0.0145629
637.176	0.0143866
637.254	0.0145971
637.332	0.0146826
637.410	0.0145128
637.488	0.0147007
637.567	0.0146524
637.645	0.0144871
637.723	0.0144133
637.801	0.0145681
637.879	0.0145541
637.957	0.0143989
638.035	0.0144707
638.113	0.0142815
638.192	0.0144232
638.270	0.0144503
638.348	0.0144089
638.426	0.0142772
638.504	0.0142865
638.582	0.0142218
638.660	0.0143350
638.738	0.0143189
638.817	0.0143259
638.895	0.0144416
638.973	0.0143855
639.051	0.0143259
639.129	0.0144390
639.207	0.0145345
639.285	0.0144764
639.363	0.0144624
639.442	0.0146360
639.520	0.0144508
639.598	0.0145081
639.676	0.0145839
639.754	0.0146418
639.832	0.0145438
639.910	0.0144009
639.988	0.0144220
640.067	0.0144794
640.145	0.0145019
640.223	0.0145330
640.301	0.0145556
640.379	0.0144889
640.457	0.0145828
640.535	0.0146427
640.613	0.0144909
640.692	0.0144445
640.770	0.0145639
640.848	0.0145850
640.926	0.0144651
641.004	0.0146143
641.082	0.0145625
641.160	0.0146556
641.238	0.0145522
641.317	0.0144902
641.395	0.0144969
641.473	0.0145472
641.551	0.0143723
641.629	0.0143587
641.707	0.0144387
641.785	0.0144972
641.863	0.0144305
641.942	0.0142856
642.020	0.0145004
642.098	0.0142737
642.176	0.0143737
642.254	0.0143266
642.332	0.0142984
642.410	0.0142319
642.488	0.0141700
642.567	0.0142205
642.645	0.0142513
642.723	0.0140948
642.801	0.0141811
642.879	0.0141393
642.957	0.0140656
643.035	0.0141479
643.113	0.0141850
643.192	0.0141878
643.270	0.0141518
643.348	0.0142270
643.426	0.0141782
643.504	0.0143275
643.582	0.0143364
643.660	0.0143015
643.738	0.0144628
643.817	0.0143896
643.895	0.0145566
643.973	0.0144817
644.051	0.0145164
644.129	0.0145771
644.207	0.0146022
644.285	0.0145786
644.363	0.0147858
644.442	0.0147621
644.520	0.0148394
644.598	0.0148536
644.676	0.0148418
644.754	0.0148279
644.832	0.0148559
644.910	0.0147739
644.988	0.0147047
645.067	0.0144975
645.145	0.0145016
645.223	0.0145467
645.301	0.0145206
645.379	0.0144147
645.457	0.0143758
645.535	0.0143671
645.613	0.0143893
645.692	0.0144561
645.770	0.0144711
645.848	0.0145223
645.926	0.0142883
646.004	0.0144641
646.082	0.0144885
646.160	0.0143534
646.238	0.0143965
646.317	0.0143096
646.395	0.0144447
646.473	0.0142294
646.551	0.0143063
646.629	0.0140871
646.707	0.0141301
646.785	0.0139107
646.863	0.0139299
646.942	0.0139897
647.020	0.0138957
647.098	0.0138766
647.176	0.0138583
647.254	0.0139249
647.332	0.0137643
647.410	0.0138799
647.488	0.0139792
647.567	0.0141074
647.645	0.0143029
647.723	0.0141570
647.801	0.0143151
647.879	0.0145010
647.957	0.0144170
648.035	0.0144856
648.113	0.0145236
648.192	0.0146555
648.270	0.0145068
648.348	0.0145993
648.426	0.0144196
648.504	0.0146489
648.582	0.0145202
648.660	0.0143961
648.738	0.0143998
648.817	0.0143301
648.895	0.0145759
648.973	0.0145640
649.051	0.0146735
649.129	0.0147126
649.207	0.0146176
649.285	0.0146242
649.363	0.0146321
649.442	0.0145751
649.520	0.0145649
649.598	0.0145819
649.676	0.0146448
649.754	0.0145856
649.832	0.0145907
649.910	0.0146684
649.988	0.0145638
650.067	0.0144871
650.145	0.0144436
650.223	0.0145390
650.301	0.0144128
650.379	0.0143714
650.457	0.0143617
650.535	0.0143974
650.613	0.0143165
650.692	0.0141817
650.770	0.0141695
650.848	0.0141296
650.926	0.0140952
651.004	0.0142149
651.082	0.0142444
651.160	0.0142233
651.238	0.0141500
651.317	0.0140929
651.395	0.0142197
651.473	0.0140756
651.551	0.0140388
651.629	0.0141020
651.707	0.0141992
651.785	0.0140969
651.863	0.0139806
651.942	0.0139767
652.020	0.0140075
652.098	0.0140199
652.176	0.0140453
652.254	0.0140182
652.332	0.0138938
652.410	0.0140386
652.488	0.0142804
652.567	0.0140698
652.645	0.0140964
652.723	0.0141038
652.801	0.0139852
652.879	0.0141010
652.957	0.0142026
653.035	0.0142306
653.113	0.0142043
653.192	0.0142341
653.270	0.0140820
653.348	0.0142588
653.426	0.0144436
653.504	0.0145884
653.582	0.0143995
653.660	0.0144974
653.738	0.0146789
653.817	0.0147426
653.895	0.0149039
653.973	0.0149426
654.051	0.0149287
654.129	0.0150875
654.207	0.0148308
654.285	0.0149457
654.363	0.0149743
654.442	0.0150399
654.520	0.0150159
654.598	0.0149982
654.676	0.0149712
654.754	0.0149267
654.832	0.0150247
654.910	0.0149458
654.988	0.0147372
655.067	0.0147388
655.145	0.0148399
655.223	0.0147817
655.301	0.0146038
655.379	0.0145046
655.457	0.0144707
655.535	0.0144210
655.613	0.0143929
655.692	0.0142625
655.770	0.0143861
655.848	0.0143333
655.926	0.0142196
656.004	0.0142582
656.082	0.0141175
656.160	0.0141283
656.238	0.0140382
656.317	0.0143235
656.395	0.0140683
656.473	0.0140765
656.551	0.0141092
656.629	0.0140620
656.707	0.0141399
656.785	0.0140951
656.863	0.0142241
656.942	0.0140595
657.020	0.0140100
657.098	0.0140910
657.176	0.0141261
657.254	0.0141872
657.332	0.0140808
657.410	0.0139935
657.488	0.0140443
657.567	0.0139833
657.645	0.0139394
657.723	0.0140858
657.801	0.0142471
657.879	0.0141157
657.957	0.0143234
658.035	0.0142908
658.113	0.0142637
658.192	0.0144895
658.270	0.0144656
658.348	0.0143237
658.426	0.0143631
658.504	0.0144852
658.582	0.0146734
658.660	0.0146165
658.738	0.0146702
658.817	0.0146373
658.895	0.0146689
658.973	0.0149223
659.051	0.0148701
659.129	0.0148360
659.207	0.0148717
659.285	0.0147797
659.363	0.0149979
659.442	0.0151303
659.520	0.0150865
659.598	0.0150028
659.676	0.0151140
659.754	0.0151323
659.832	0.0150715
659.910	0.0150870
659.988	0.0150888
660.067	0.0148640
660.145	0.0149022
660.223	0.0148302
660.301	0.0146985
660.379	0.0144656
660.457	0.0143899
660.535	0.0143641
660.613	0.0142946
660.692	0.0141206
660.770	0.0140150
660.848	0.0140250
660.926	0.0139585
661.004	0.0138647
661.082	0.0139183
661.160	0.0138120
661.238	0.0141207
661.317	0.0139130
661.395	0.0139933
661.473	0.0140276
661.551	0.0141030
661.629	0.0141312
661.707	0.0140388
661.785	0.0142124
661.863	0.0144512
661.942	0.0144750
662.020	0.0144340
662.098	0.0143575
662.176	0.0144254
662.254	0.0143697
662.332	0.0144507
662.410	0.0144186
662.488	0.0144395
662.567	0.0143323
662.645	0.0144175
662.723	0.0143929
662.801	0.0142812
662.879	0.0143404
662.957	0.0142812
663.035	0.0142032
663.113	0.0141572
663.192	0.0141464
663.270	0.0142377
663.348	0.0141479
663.426	0.0141293
663.504	0.0143174
663.582	0.0142127
663.660	0.0142485
663.738	0.0143423
663.817	0.0142637
663.895	0.0143113
663.973	0.0143649
664.051	0.0144157
664.129	0.0144803
664.207	0.0145396
664.285	0.0145140
664.363	0.0147860
664.442	0.0146370
664.520	0.0145839
664.598	0.0145906
664.676	0.0147919
664.754	0.0144847
664.832	0.0147166
664.910	0.0147475
664.988	0.0147971
665.067	0.0147121
665.145	0.0147589
665.223	0.0146815
665.301	0.0146596
665.379	0.0147253
665.457	0.0149039
665.535	0.0148161
665.613	0.0147313
665.692	0.0146272
665.770	0.0145604
665.848	0.0146283
665.926	0.0146251
666.004	0.0144692
666.082	0.0143647
666.160	0.0143043
666.238	0.0142329
666.317	0.0141531
666.395	0.0141233
666.473	0.0140592
666.551	0.0140237
666.629	0.0140828
666.707	0.0142405
666.785	0.0141833
666.863	0.0141194
666.942	0.0143306
667.020	0.0143005
667.098	0.0143065
667.176	0.0141815
667.254	0.0142612
667.332	0.0143934
667.410	0.0144669
667.488	0.0144563
667.567	0.0143834
667.645	0.0144339
667.723	0.0143545
667.801	0.0143691
667.879	0.0143967
667.957	0.0144782
668.035	0.0144879
668.113	0.0145127
668.192	0.0143790
668.270	0.0144076
668.348	0.0145769
668.426	0.0144160
668.504	0.0144864
668.582	0.0145341
668.660	0.0146458
668.738	0.0145732
668.817	0.0145685
668.895	0.0147044
668.973	0.0146770
669.051	0.0146510
669.129	0.0147265
669.207	0.0147141
669.285	0.0147258
669.363	0.0147293
669.442	0.0146505
669.520	0.0146393
669.598	0.0143892
669.676	0.0144122
669.754	0.0145510
669.832	0.0142412
669.910	0.0141470
669.988	0.0142686
670.067	0.0141047
670.145	0.0139302
670.223	0.0140385
670.301	0.0139921
670.379	0.0139504
670.457	0.0139861
670.535	0.0139774
670.613	0.0141030
670.692	0.0140595
670.770	0.0140942
670.848	0.0141537
670.926	0.0142828
671.004	0.0142462
671.082	0.0142238
671.160	0.0144046
671.238	0.0144479
671.317	0.0144765
671.395	0.0145709
671.473	0.0146593
671.551	0.0147522
671.629	0.0148711
671.707	0.0146551
671.785	0.0147479
671.863	0.0149149
671.942	0.0149054
672.020	0.0147415
672.098	0.0148275
672.176	0.0147774
672.254	0.0147099
672.332	0.0145911
672.410	0.0145724
672.488	0.0143646
672.567	0.0143568
672.645	0.0142757
672.723	0.0141561
672.801	0.0141206
672.879	0.0140032
672.957	0.0140134
673.035	0.0140161
673.113	0.0140200
673.192	0.0139539
673.270	0.0141080
673.348	0.0141044
673.426	0.0142132
673.504	0.0143546
673.582	0.0144756
673.660	0.0144791
673.738	0.0145605
673.817	0.0145962
673.895	0.0147617
673.973	0.0148033
674.051	0.0147809
674.129	0.0147988
674.207	0.0148039
674.285	0.0146136
674.363	0.0145699
674.442	0.0145036
674.520	0.0142905
674.598	0.0144022
674.676	0.0142966
674.754	0.0142966
674.832	0.0139550
674.910	0.0139552
674.988	0.0139600
675.067	0.0139861
675.145	0.0140697
675.223	0.0139467
675.301	0.0140912
675.379	0.0141429
675.457	0.0141013
675.535	0.0142732
675.613	0.0141946
675.692	0.0143789
675.770	0.0143501
675.848	0.0143609
675.926	0.0143306
676.004	0.0143777
676.082	0.0146568
676.160	0.0144626
676.238	0.0145325
676.317	0.0144427
676.395	0.0146744
676.473	0.0145224
676.551	0.0144517
676.629	0.0144777
676.707	0.0146951
676.785	0.0144982
676.863	0.0147488
676.942	0.0144749
677.020	0.0145953
677.098	0.0145538
677.176	0.0145132
677.254	0.0145895
677.332	0.0146890
677.410	0.0144971
677.488	0.0145827
677.567	0.0145731
677.645	0.0147256
677.723	0.0145358
677.801	0.0145515
677.879	0.0147058
677.957	0.0146667
678.035	0.0147755
678.113	0.0147723
678.192	0.0148656
678.270	0.0148694
678.348	0.0149304
678.426	0.0149364
678.504	0.0150510
678.582	0.0149246
678.660	0.0148417
678.738	0.0147189
678.817	0.0147046
678.895	0.0149247
678.973	0.0146420
679.051	0.0144637
679.129	0.0144754
679.207	0.0143234
679.285	0.0142416
679.363	0.0140521
679.442	0.0138857
679.520	0.0139026
679.598	0.0137296
679.676	0.0137673
679.754	0.0134672
679.832	0.0134698
679.910	0.0135017
679.988	0.0133608
680.067	0.0133207
680.145	0.0132606
680.223	0.0134168
680.301	0.0136838
680.379	0.0136670
680.457	0.0137343
680.535	0.0139792
680.613	0.0140282
680.692	0.0140308
680.770	0.0141811
680.848	0.0145318
680.926	0.0146436
681.004	0.0146108
681.082	0.0146903
681.160	0.0148700
681.238	0.0148637
681.317	0.0150114
681.395	0.0151018
681.473	0.0150142
681.551	0.0150081
681.629	0.0151988
681.707	0.0150813
681.785	0.0150527
681.863	0.0149794
681.942	0.0150710
682.020	0.0150298
682.098	0.0149333
682.176	0.0149491
682.254	0.0150288
682.332	0.0149686
682.410	0.0149745
682.488	0.0148238
682.567	0.0148154
682.645	0.0145810
682.723	0.0146449
682.801	0.0146342
682.879	0.0145445
682.957	0.0144432
683.035	0.0144324
683.113	0.0143211
683.192	0.0141832
683.270	0.0140673
683.348	0.0140597
683.426	0.0138338
683.504	0.0137817
683.582	0.0136111
683.660	0.0135858
683.738	0.0135349
683.817	0.0136182
683.895	0.0135220
683.973	0.0133578
684.051	0.0135313
684.129	0.0135213
684.207	0.0135944
684.285	0.0135634
684.363	0.0136495
684.442	0.0139317
684.520	0.0138571
684.598	0.0137373
684.676	0.0138823
684.754	0.0139104
684.832	0.0140215
684.910	0.0140226
684.988	0.0140893
685.067	0.0141813
685.145	0.0142149
685.223	0.0144306
685.301	0.0146783
685.379	0.0147665
685.457	0.0149531
685.535	0.0150883
685.613	0.0152906
685.692	0.0153445
685.770	0.0154651
685.848	0.0156779
685.926	0.0157874
686.004	0.0158443
686.082	0.0157449
686.160	0.0157182
686.238	0.0155975
686.317	0.0153603
686.395	0.0153533
686.473	0.0152559
686.551	0.0149334
686.629	0.0147162
686.707	0.0146771
686.785	0.0144152
686.863	0.0142636
686.942	0.0139362
687.020	0.0136770
687.098	0.0136899
687.176	0.0134735
687.254	0.0133622
687.332	0.0134361
687.410	0.0134316
687.488	0.0133486
687.567	0.0133037
687.645	0.0133730
687.723	0.0133813
687.801	0.0134557
687.879	0.0134503
687.957	0.0136678
688.035	0.0137158
688.113	0.0138261
688.192	0.0137036
688.270	0.0137909
688.348	0.0139061
688.426	0.0139285
688.504	0.0140292
688.582	0.0141805
688.660	0.0143438
688.738	0.0142857
688.817	0.0141772
688.895	0.0143301
688.973	0.0144481
689.051	0.0145222
689.129	0.0145842
689.207	0.0146201
689.285	0.0145670
689.363	0.0148258
689.442	0.0149281
689.520	0.0148187
689.598	0.0148560
689.676	0.0149328
689.754	0.0151373
689.832	0.0151355
689.910	0.0151135
689.988	0.0151575
690.067	0.0152073
690.145	0.0150465
690.223	0.0150582
690.301	0.0150269
690.379	0.0149174
690.457	0.0150794
690.535	0.0150620
690.613	0.0147948
690.692	0.0148603
690.770	0.0145577
690.848	0.0146010
690.926	0.0144980
691.004	0.0143848
691.082	0.0143243
691.160	0.0143732
691.238	0.0141251
691.317	0.0140952
691.395	0.0141278
691.473	0.0140504
691.551	0.0140532
691.629	0.0140671
691.707	0.0139318
691.785	0.0140199
691.863	0.0139770
691.942	0.0138059
692.020	0.0140541
692.098	0.0140942
692.176	0.0140980
692.254	0.0141788
692.332	0.0141525
692.410	0.0142389
692.488	0.0140836
692.567	0.0140333
692.645	0.0142229
692.723	0.0141351
692.801	0.0140863
692.879	0.0140460
692.957	0.0143291
693.035	0.0143058
693.113	0.0142390
693.192	0.0143800
693.270	0.0143679
693.348	0.0144142
693.426	0.0144334
693.504	0.0144181
693.582	0.0144010
693.660	0.0143553
693.738	0.0145049
693.817	0.0143977
693.895	0.0143664
693.973	0.0144934
694.051	0.0144465
694.129	0.0145421
694.207	0.0145365
694.285	0.0145057
694.363	0.0146351
694.442	0.0147222
694.520	0.0146678
694.598	0.0148585
694.676	0.0145443
694.754	0.0146400
694.832	0.0148345
694.910	0.0147076
694.988	0.0148058
695.067	0.0147382
695.145	0.0148861
695.223	0.0148602
695.301	0.0150077
695.379	0.0150994
695.457	0.0150942
695.535	0.0151212
695.613	0.0150360
695.692	0.0150007
695.770	0.0149500
695.848	0.0150045
695.926	0.0150476
696.004	0.0149777
696.082	0.0147198
696.160	0.0146397
696.238	0.0149038
696.317	0.0146313
696.395	0.0143761
696.473	0.0144654
696.551	0.0144964
696.629	0.0143955
696.707	0.0142929
696.785	0.0142188
696.863	0.0141386
696.942	0.0141376
697.020	0.0138996
697.098	0.0139177
697.176	0.0137104
697.254	0.0137400
697.332	0.0136129
697.410	0.0136944
697.488	0.0135201
697.567	0.0133050
697.645	0.0134216
697.723	0.0133838
697.801	0.0135657
697.879	0.0134808
697.957	0.0134510
698.035	0.0137325
698.113	0.0137704
698.192	0.0136360
698.270	0.0138753
698.348	0.0138957
698.426	0.0140859
698.504	0.0143501
698.582	0.0144441
698.660	0.0145226
698.738	0.0148180
698.817	0.0148605
698.895	0.0149797
698.973	0.0150835
699.051	0.0150614
699.129	0.0151477
699.207	0.0153699
699.285	0.0153046
699.363	0.0155024
699.442	0.0154676
699.520	0.0157536
699.598	0.0157691
699.676	0.0157703
699.754	0.0158300
699.832	0.0156815
699.910	0.0156320
699.988	0.0156599
700.067	0.0157489
700.145	0.0156255
700.223	0.0156824
700.301	0.0155542
700.379	0.0153633
700.457	0.0153276
700.535	0.0151414
700.613	0.0149065
700.692	0.0147804
700.770	0.0145794
700.848	0.0144389
700.926	0.0141505
701.004	0.0139307
701.082	0.0137862
701.160	0.0134988
701.238	0.0135987
701.317	0.0134829
701.395	0.0132967
701.473	0.0133846
701.551	0.0133012
701.629	0.0131703
701.707	0.0133317
701.785	0.0133488
701.863	0.0131595
701.942	0.0133289
702.020	0.0132877
702.098	0.0132372
702.176	0.0132378
702.254	0.0134487
702.332	0.0134689
702.410	0.0136238
702.488	0.0137769
702.567	0.0137985
702.645	0.0137958
702.723	0.0137792
702.801	0.0139996
702.879	0.0143458
702.957	0.0143594
703.035	0.0144635
703.113	0.0145716
703.192	0.0147124
703.270	0.0146637
703.348	0.0148840
703.426	0.0148099
703.504	0.0149362
703.582	0.0149647
703.660	0.0151163
703.738	0.0150496
703.817	0.0150195
703.895	0.0151546
703.973	0.0151449
704.051	0.0150763
704.129	0.0152132
704.207	0.0150767
704.285	0.0150104
704.363	0.0149715
704.442	0.0150788
704.520	0.0150768
704.598	0.0152106
704.676	0.0150265
704.754	0.0149191
704.832	0.0148467
704.910	0.0147277
704.988	0.0146262
705.067	0.0145900
705.145	0.0145276
705.223	0.0142126
705.301	0.0142149
705.379	0.0139639
705.457	0.0138506
705.535	0.0137088
705.613	0.0136147
705.692	0.0136548
705.770	0.0136198
705.848	0.0134732
705.926	0.0135538
706.004	0.0135993
706.082	0.0135433
706.160	0.0135236
706.238	0.0136280
706.317	0.0136740
706.395	0.0136872
706.473	0.0136625
706.551	0.0137504
706.629	0.0139468
706.707	0.0140374
706.785	0.0139978
706.863	0.0140901
706.942	0.0141410
707.020	0.0141597
707.098	0.0142992
707.176	0.0142231
707.254	0.0144672
707.332	0.0143811
707.410	0.0144855
707.488	0.0144263
707.567	0.0142076
707.645	0.0142796
707.723	0.0142526
707.801	0.0142691
707.879	0.0144251
707.957	0.0142929
708.035	0.0143678
708.113	0.0142473
708.192	0.0143695
708.270	0.0144479
708.348	0.0143931
708.426	0.0147267
708.504	0.0145878
708.582	0.0147188
708.660	0.0147303
708.738	0.0148050
708.817	0.0149015
708.895	0.0150094
708.973	0.0148785
709.051	0.0148085
709.129	0.0149421
709.207	0.0149000
709.285	0.0148554
709.363	0.0147946
709.442	0.0146391
709.520	0.0145084
709.598	0.0143945
709.676	0.0145614
709.754	0.0145052
709.832	0.0144051
709.910	0.0143964
709.988	0.0143507
710.067	0.0142535
710.145	0.0143616
710.223	0.0142686
710.301	0.0145001
710.379	0.0143489
710.457	0.0143761
710.535	0.0144240
710.613	0.0144965
710.692	0.0145015
710.770	0.0144797
710.848	0.0143410
710.926	0.0145208
711.004	0.0143617
711.082	0.0143633
711.160	0.0143240
711.238	0.0143582
711.317	0.0142206
711.395	0.0143270
711.473	0.0142000
711.551	0.0142054
711.629	0.0140706
711.707	0.0140966
711.785	0.0140483
711.863	0.0139574
711.942	0.0139835
712.020	0.0139796
712.098	0.0140178
712.176	0.0140055
712.254	0.0140366
712.332	0.0139370
712.410	0.0140265
712.488	0.0139519
712.567	0.0139332
712.645	0.0141219
712.723	0.0139795
712.801	0.0142026
712.879	0.0141026
712.957	0.0141953
713.035	0.0141811
713.113	0.0141814
713.192	0.0141560
713.270	0.0142400
713.348	0.0144296
713.426	0.0142669
713.504	0.0144191
713.582	0.0144619
713.660	0.0144041
713.738	0.0143903
713.817	0.0144996
713.895	0.0144915
713.973	0.0145737
714.051	0.0145508
714.129	0.0147250
714.207	0.0146603
714.285	0.0147441
714.363	0.0147961
714.442	0.0147594
714.520	0.0146581
714.598	0.0148517
714.676	0.0148743
714.754	0.0147054
714.832	0.0146490
714.910	0.0147060
714.988	0.0147714
715.067	0.0146244
715.145	0.0147026
715.223	0.0146136
715.301	0.0146358
715.379	0.0145549
715.457	0.0146165
715.535	0.0145565
715.613	0.0144723
715.692	0.0144646
715.770	0.0144843
715.848	0.0143575
715.926	0.0145135
716.004	0.0142152
716.082	0.0142844
716.160	0.0142299
716.238	0.0142957
716.317	0.0142559
716.395	0.0141700
716.473	0.0141995
716.551	0.0143600
716.629	0.0142235
716.707	0.0142445
716.785	0.0141799
716.863	0.0142872
716.942	0.0142125
717.020	0.0142632
717.098	0.0141147
717.176	0.0142155
717.254	0.0143208
717.332	0.0142213
717.410	0.0140279
717.488	0.0142001
717.567	0.0142114
717.645	0.0142265
717.723	0.0142007
717.801	0.0144159
717.879	0.0143803
717.957	0.0143195
718.035	0.0143793
718.113	0.0143877
718.192	0.0145133
718.270	0.0144496
718.348	0.0145501
718.426	0.0145443
718.504	0.0146711
718.582	0.0146043
718.660	0.0146132
718.738	0.0144770
718.817	0.0143906
718.895	0.0144896
718.973	0.0145636
719.051	0.0145391
719.129	0.0144866
719.207	0.0143587
719.285	0.0143878
719.363	0.0145634
719.442	0.0145302
719.520	0.0142944
719.598	0.0143432
719.676	0.0143877
719.754	0.0143665
719.832	0.0145044
719.910	0.0146101
719.988	0.0145220
720.067	0.0145014
720.145	0.0144097
720.223	0.0146314
720.301	0.0144738
720.379	0.0145245
720.457	0.0147156
720.535	0.0146510
720.613	0.0146405
720.692	0.0146543
720.770	0.0146199
720.848	0.0146963
720.926	0.0147138
721.004	0.0146989
721.082	0.0146992
721.160	0.0146800
721.238	0.0146964
721.317	0.0146223
721.395	0.0145612
721.473	0.0146379
721.551	0.0144747
721.629	0.0146617
721.707	0.0145914
721.785	0.0144384
721.863	0.0143515
721.942	0.0144408
722.020	0.0143977
722.098	0.0145267
722.176	0.0143711
722.254	0.0143805
722.332	0.0142240
722.410	0.0143226
722.488	0.0142600
722.567	0.0143790
722.645	0.0141324
722.723	0.0141417
722.801	0.0142676
722.879	0.0143092
722.957	0.0142635
723.035	0.0144187
723.113	0.0143535
723.192	0.0144731
723.270	0.0144569
723.348	0.0145180
723.426	0.0146113
723.504	0.0145374
723.582	0.0144174
723.660	0.0144749
723.738	0.0144156
723.817	0.0145050
723.895	0.0144788
723.973	0.0141927
724.051	0.0143290
724.129	0.0143157
724.207	0.0141407
724.285	0.0142818
724.363	0.0143001
724.442	0.0142626
724.520	0.0142296
724.598	0.0144196
724.676	0.0143703
724.754	0.0143700
724.832	0.0144800
724.910	0.0145541
724.988	0.0146101
725.067	0.0145508
725.145	0.0144900
725.223	0.0146200
725.301	0.0146967
725.379	0.0146764
725.457	0.0145042
725.535	0.0146127
725.613	0.0148179
725.692	0.0145579
725.770	0.0145341
725.848	0.0146124
725.926	0.0145218
726.004	0.0145620
726.082	0.0145962
726.160	0.0144859
726.238	0.0144203
726.317	0.0142882
726.395	0.0142443
726.473	0.0142951
726.551	0.0143332
726.629	0.0143188
726.707	0.0143362
726.785	0.0143670
726.863	0.0143073
726.942	0.0141289
727.020	0.0142479
727.098	0.0144117
727.176	0.0142151
727.254	0.0143230
727.332	0.0143298
727.410	0.0143588
727.488	0.0146004
727.567	0.0143848
727.645	0.0143770
727.723	0.0144396
727.801	0.0143608
727.879	0.0144608
727.957	0.0144189
728.035	0.0144975
728.113	0.0141837
728.192	0.0144289
728.270	0.0143390
728.348	0.0142577
728.426	0.0142277
728.504	0.0142591
728.582	0.0142448
728.660	0.0142399
728.738	0.0142263
728.817	0.0141357
728.895	0.0141718
728.973	0.0141891
729.051	0.0142255
729.129	0.0141110
729.207	0.0140967
729.285	0.0141908
729.363	0.0141736
729.442	0.0140866
729.520	0.0141841
729.598	0.0141824
729.676	0.0141457
729.754	0.0141834
729.832	0.0141656
729.910	0.0144310
729.988	0.0142799
730.067	0.0144298
730.145	0.0143318
730.223	0.0145033
730.301	0.0144080
730.379	0.0145110
730.457	0.0146027
730.535	0.0145922
730.613	0.0145969
730.692	0.0145156
730.770	0.0145823
730.848	0.0146508
730.926	0.0144912
731.004	0.0145562
731.082	0.0144927
731.160	0.0144501
731.238	0.0143999
731.317	0.0144873
731.395	0.0145206
731.473	0.0144566
731.551	0.0143759
731.629	0.0142620
731.707	0.0142538
731.785	0.0143933
731.863	0.0141996
731.942	0.0143133
732.020	0.0144938
732.098	0.0143663
732.176	0.0142402
732.254	0.0141695
732.332	0.0141522
732.410	0.0141965
732.488	0.0142198
732.567	0.0143139
732.645	0.0143589
732.723	0.0144215
732.801	0.0143970
732.879	0.0144567
732.957	0.0145104
733.035	0.0145786
733.113	0.0144003
733.192	0.0143821
733.270	0.0144727
733.348	0.0144334
733.426	0.0144044
733.504	0.0144239
733.582	0.0144241
733.660	0.0144579
733.738	0.0144043
733.817	0.0143078
733.895	0.0142016
733.973	0.0142690
734.051	0.0141257
734.129	0.0143155
734.207	0.0142076
734.285	0.0142228
734.363	0.0143831
734.442	0.0142446
734.520	0.0141729
734.598	0.0140949
734.676	0.0142545
734.754	0.0143732
734.832	0.0144243
734.910	0.0144561
734.988	0.0143204
735.067	0.0143286
735.145	0.0143833
735.223	0.0146208
735.301	0.0144495
735.379	0.0143965
735.457	0.0144489
735.535	0.0144733
735.613	0.0144777
735.692	0.0145772
735.770	0.0145988
735.848	0.0146227
735.926	0.0145089
736.004	0.0146385
736.082	0.0147388
736.160	0.0145750
736.238	0.0145119
736.317	0.0145579
736.395	0.0144707
736.473	0.0144188
736.551	0.0143578
736.629	0.0143797
736.707	0.0144364
736.785	0.0144102
736.863	0.0144044
736.942	0.0143420
737.020	0.0143667
737.098	0.0145163
737.176	0.0144193
737.254	0.0143000
737.332	0.0142822
737.410	0.0143333
737.488	0.0143009
737.567	0.0142445
737.645	0.0142237
737.723	0.0142950
737.801	0.0144181
737.879	0.0143199
737.957	0.0143710
738.035	0.0142733
738.113	0.0143130
738.192	0.0142188
738.270	0.0144123
738.348	0.0144676
738.426	0.0145010
738.504	0.0144651
738.582	0.0146254
738.660	0.0145582
738.738	0.0144940
738.817	0.0144561
738.895	0.0143300
738.973	0.0145637
739.051	0.0145738
739.129	0.0143690
739.207	0.0142992
739.285	0.0143982
739.363	0.0144444
739.442	0.0144638
739.520	0.0143762
739.598	0.0142709
739.676	0.0143246
739.754	0.0142018
739.832	0.0142268
739.910	0.0143461
739.988	0.0143960
740.067	0.0143236
740.145	0.0143804
740.223	0.0144817
740.301	0.0144778
740.379	0.0144660
740.457	0.0146052
740.535	0.0144881
740.613	0.0144344
740.692	0.0144379
740.770	0.0144699
740.848	0.0145094
740.926	0.0145434
741.004	0.0144973
741.082	0.0145570
741.160	0.0144543
741.238	0.0144357
741.317	0.0145625
741.395	0.0145332
741.473	0.0144427
741.551	0.0144655
741.629	0.0144075
741.707	0.0145242
741.785	0.0144817
741.863	0.0145195
741.942	0.0145119
742.020	0.0142928
742.098	0.0145463
742.176	0.0145031
742.254	0.0145097
742.332	0.0143134
742.410	0.0144157
742.488	0.0143822
742.567	0.0143419
742.645	0.0143058
742.723	0.0144408
742.801	0.0144508
742.879	0.0143604
742.957	0.0144836
743.035	0.0143668
743.113	0.0144647
743.192	0.0144009
743.270	0.0143592
743.348	0.0143932
743.426	0.0144368
743.504	0.0145156
743.582	0.0145131
743.660	0.0144897
743.738	0.0145060
743.817	0.0145045
743.895	0.0144881
743.973	0.0144730
744.051	0.0145731
744.129	0.0144383
744.207	0.0142038
744.285	0.0144331
744.363	0.0145640
744.442	0.0145107
744.520	0.0146102
744.598	0.0144394
744.676	0.0144806
744.754	0.0144569
744.832	0.0145258
744.910	0.0145144
744.988	0.0144010
745.067	0.0144073
745.145	0.0144350
745.223	0.0144242
745.301	0.0145256
745.379	0.0144164
745.457	0.0144034
745.535	0.0144187
745.613	0.0143746
745.692	0.0145463
745.770	0.0145234
745.848	0.0145112
745.926	0.0145290
746.004	0.0143858
746.082	0.0144837
746.160	0.0145884
746.238	0.0144883
746.317	0.0143713
746.395	0.0144075
746.473	0.0144647
746.551	0.0144437
746.629	0.0144572
746.707	0.0143858
746.785	0.0144119
746.863	0.0143704
746.942	0.0143578
747.020	0.0143142
747.098	0.0144339
747.176	0.0143925
747.254	0.0144699
747.332	0.0144231
747.410	0.0143017
747.488	0.0143754
747.567	0.0142612
747.645	0.0143114
747.723	0.0144448
747.801	0.0143546
747.879	0.0144254
747.957	0.0145444
748.035	0.0144518
748.113	0.0144579
748.192	0.0143064
748.270	0.0144611
748.348	0.0143865
748.426	0.0144420
748.504	0.0144062
748.582	0.0144692
748.660	0.0145922
748.738	0.0146432
748.817	0.0143533
748.895	0.0143957
748.973	0.0145919
749.051	0.0143894
749.129	0.0143665
749.207	0.0143417
749.285	0.0144665
749.363	0.0144460
749.442	0.0144123
749.520	0.0143777
749.598	0.0142227
749.676	0.0143831
749.754	0.0143315
749.832	0.0143391
749.910	0.0143085
749.988	0.0143217
750.067	0.0144067
750.145	0.0143291
750.223	0.0144345
750.301	0.0144015
750.379	0.0144104
750.457	0.0145539
750.535	0.0143366
750.613	0.0143738
750.692	0.0143909
750.770	0.0144405
750.848	0.0143937
750.926	0.0143288
751.004	0.0145065
751.082	0.0143224
751.160	0.0144874
751.238	0.0144173
751.317	0.0144315
751.395	0.0143404
751.473	0.0144568
751.551	0.0143106
751.629	0.0142969
751.707	0.0143761
751.785	0.0142612
751.863	0.0141837
751.942	0.0143272
752.020	0.0143701
752.098	0.0143658
752.176	0.0141602
752.254	0.0140886
752.332	0.0143860
752.410	0.0143858
752.488	0.0142239
752.567	0.0143535
752.645	0.0143570
752.723	0.0141956
752.801	0.0142680
752.879	0.0143716
752.957	0.0142822
753.035	0.0143074
753.113	0.0142235
753.192	0.0143478
753.270	0.0143828
753.348	0.0143781
753.426	0.0143039
753.504	0.0142911
753.582	0.0144674
753.660	0.0143128
753.738	0.0142210
753.817	0.0144321
753.895	0.0142380
753.973	0.0143364
754.051	0.0142696
754.129	0.0141269
754.207	0.0143251
754.285	0.0142092
754.363	0.0139767
754.442	0.0139772
754.520	0.0141121
754.598	0.0141193
754.676	0.0140327
754.754	0.0141721
754.832	0.0140945
754.910	0.0140176
754.988	0.0141515
755.067	0.0142778
755.145	0.0142380
755.223	0.0142815
755.301	0.0141212
755.379	0.0142712
755.457	0.0142667
755.535	0.0143300
755.613	0.0143808
755.692	0.0143575
755.770	0.0144610
755.848	0.0142761
755.926	0.0143456
756.004	0.0144825
756.082	0.0144211
756.160	0.0145119
756.238	0.0146215
756.317	0.0143779
756.395	0.0144220
756.473	0.0145573
756.551	0.0144752
756.629	0.0144910
756.707	0.0145418
756.785	0.0144465
756.863	0.0146249
756.942	0.0144671
757.020	0.0144476
757.098	0.0143956
757.176	0.0143569
757.254	0.0145274
757.332	0.0142818
757.410	0.0144873
757.488	0.0144578
757.567	0.0143087
757.645	0.0143642
757.723	0.0142078
757.801	0.0141825
757.879	0.0142728
757.957	0.0142791
758.035	0.0142464
758.113	0.0141114
758.192	0.0143073
758.270	0.0142244
758.348	0.0141564
758.426	0.0142917
758.504	0.0142329
758.582	0.0142982
758.660	0.0143995
758.738	0.0142574
758.817	0.0142455
758.895	0.0144292
758.973	0.0143849
759.051	0.0144167
759.129	0.0143980
759.207	0.0144285
759.285	0.0145468
759.363	0.0144616
759.442	0.0143960
759.520	0.0145518
759.598	0.0144528
759.676	0.0143825
759.754	0.0146559
759.832	0.0144507
759.910	0.0145651
759.988	0.0144988
760.067	0.0144927
760.145	0.0146388
760.223	0.0145648
760.301	0.0146708
760.379	0.0146033
760.457	0.0145461
760.535	0.0145523
760.613	0.0144804
760.692	0.0145578
760.770	0.0145332
760.848	0.0144793
760.926	0.0144893
761.004	0.0146403
761.082	0.0145220
761.160	0.0144889
761.238	0.0144349
761.317	0.0144286
761.395	0.0144904
761.473	0.0143264
761.551	0.0144610
761.629	0.0145454
761.707	0.0143375
761.785	0.0144587
761.863	0.0145087
761.942	0.0143436
762.020	0.0141165
762.098	0.0145139
762.176	0.0144677
762.254	0.0142475
762.332	0.0143459
762.410	0.0144145
762.488	0.0143076
762.567	0.0142574
762.645	0.0144828
762.723	0.0143427
762.801	0.0143424
762.879	0.0142783
762.957	0.0144827
763.035	0.0143426
763.113	0.0143175
763.192	0.0144181
763.270	0.0145152
763.348	0.0143827
763.426	0.0144352
763.504	0.0146399
763.582	0.0144000
763.660	0.0145309
763.738	0.0144892
763.817	0.0145501
763.895	0.0144863
763.973	0.0146233
764.051	0.0144757
764.129	0.0145783
764.207	0.0145170
764.285	0.0144965
764.363	0.0146150
764.442	0.0146106
764.520	0.0145013
764.598	0.0144734
764.676	0.0143279
764.754	0.0143787
764.832	0.0143651
764.910	0.0144006
764.988	0.0145595
765.067	0.0144951
765.145	0.0145410
765.223	0.0143722
765.301	0.0143880
765.379	0.0143369
765.457	0.0143689
765.535	0.0143803
765.613	0.0145051
765.692	0.0143495
765.770	0.0143532
765.848	0.0142731
765.926	0.0143061
766.004	0.0143428
766.082	0.0144705
766.160	0.0143419
766.238	0.0144027
766.317	0.0143342
766.395	0.0143767
766.473	0.0144741
766.551	0.0144132
766.629	0.0143311
766.707	0.0144998
766.785	0.0143317
766.863	0.0144525
766.942	0.0145387
767.020	0.0146053
767.098	0.0145521
767.176	0.0145591
767.254	0.0144866
767.332	0.0145553
767.410	0.0145689
767.488	0.0145807
767.567	0.0145212
767.645	0.0145217
767.723	0.0145022
767.801	0.0145204
767.879	0.0144410
767.957	0.0145654
768.035	0.0145131
768.113	0.0144771
768.192	0.0144576
768.270	0.0145413
768.348	0.0145464
768.426	0.0145076
768.504	0.0144415
768.582	0.0145393
768.660	0.0145296
768.738	0.0143775
768.817	0.0144144
768.895	0.0144917
768.973	0.0144121
769.051	0.0145340
769.129	0.0145734
769.207	0.0143961
769.285	0.0144319
769.363	0.0143900
769.442	0.0142702
769.520	0.0143954
769.598	0.0143565
769.676	0.0144479
769.754	0.0145732
769.832	0.0143245
769.910	0.0142704
769.988	0.0144447
770.067	0.0144382
770.145	0.0142921
770.223	0.0142467
770.301	0.0143494
770.379	0.0144905
770.457	0.0142741
770.535	0.0142827
770.613	0.0142942
770.692	0.0142965
770.770	0.0142858
770.848	0.0143929
770.926	0.0141859
771.004	0.0142691
771.082	0.0142167
771.160	0.0142445
771.238	0.0142536
771.317	0.0142604
771.395	0.0141740
771.473	0.0142426
771.551	0.0141671
771.629	0.0143020
771.707	0.0142982
771.785	0.0143620
771.863	0.0143430
771.942	0.0144667
772.020	0.0143375
772.098	0.0142891
772.176	0.0142667
772.254	0.0143793
772.332	0.0145026
772.410	0.0144531
772.488	0.0145254
772.567	0.0144713
772.645	0.0144532
772.723	0.0144540
772.801	0.0144810
772.879	0.0144267
772.957	0.0145092
773.035	0.0144171
773.113	0.0143665
773.192	0.0145314
773.270	0.0145207
773.348	0.0143805
773.426	0.0144991
773.504	0.0143800
773.582	0.0142686
773.660	0.0143811
773.738	0.0144288
773.817	0.0143726
773.895	0.0143616
773.973	0.0144907
774.051	0.0142968
774.129	0.0141969
774.207	0.0144456
774.285	0.0143137
774.363	0.0144353
774.442	0.0144003
774.520	0.0143581
774.598	0.0144041
774.676	0.0144781
774.754	0.0144525
774.832	0.0144987
774.910	0.0144320
774.988	0.0144553
775.067	0.0144849
775.145	0.0143586
775.223	0.0144289
775.301	0.0145169
775.379	0.0145094
775.457	0.0143240
775.535	0.0142920
775.613	0.0143307
775.692	0.0142622
775.770	0.0143709
775.848	0.0143197
775.926	0.0144262
776.004	0.0143762
776.082	0.0143159
776.160	0.0143445
776.238	0.0141994
776.317	0.0142096
776.395	0.0141898
776.473	0.0142139
776.551	0.0142055
776.629	0.0144115
776.707	0.0141695
776.785	0.0141944
776.863	0.0142850
776.942	0.0142635
777.020	0.0141986
777.098	0.0143887
777.176	0.0143692
777.254	0.0144781
777.332	0.0144097
777.410	0.0144212
777.488	0.0144506
777.567	0.0143167
777.645	0.0144514
777.723	0.0144976
777.801	0.0143293
777.879	0.0141924
777.957	0.0143142
778.035	0.0145002
778.113	0.0144024
778.192	0.0144213
778.270	0.0143179
778.348	0.0144063
778.426	0.0143787
778.504	0.0144465
778.582	0.0144393
778.660	0.0144313
778.738	0.0143279
778.817	0.0145512
778.895	0.0144114
778.973	0.0143741
779.051	0.0144277
779.129	0.0143793
779.207	0.0145165
779.285	0.0142795
779.363	0.0142841
779.442	0.0144453
779.520	0.0144093
779.598	0.0142929
779.676	0.0143712
779.754	0.0144011
779.832	0.0143878
779.910	0.0143233
779.988	0.0143605
780.067	0.0144547
780.145	0.0143034
780.223	0.0142994
780.301	0.0144315
780.379	0.0143018
780.457	0.0144241
780.535	0.0144653
780.613	0.0144041
780.692	0.0143655
780.770	0.0143707
780.848	0.0145174
780.926	0.0143791
781.004	0.0143295
781.082	0.0143639
781.160	0.0144610
781.238	0.0144416
781.317	0.0145090
781.395	0.0144820
781.473	0.0143379
781.551	0.0142828
781.629	0.0143853
781.707	0.0144441
781.785	0.0144552
781.863	0.0144711
781.942	0.0146045
782.020	0.0144800
782.098	0.0144106
782.176	0.0142783
782.254	0.0143736
782.332	0.0143452
782.410	0.0144399
782.488	0.0143712
782.567	0.0144389
782.645	0.0143848
782.723	0.0144070
782.801	0.0142960
782.879	0.0142426
782.957	0.0143213
783.035	0.0144327
783.113	0.0144118
783.192	0.0142664
783.270	0.0144021
783.348	0.0141932
783.426	0.0142419
783.504	0.0143031
783.582	0.0143184
783.660	0.0144353
783.738	0.0143188
783.817	0.0143028
783.895	0.0142138
783.973	0.0142274
784.051	0.0142916
784.129	0.0143591
784.207	0.0143444
784.285	0.0143202
784.363	0.0140990
784.442	0.0142271
784.520	0.0143278
784.598	0.0144181
784.676	0.0141449
784.754	0.0142872
784.832	0.0144138
784.910	0.0142409
784.988	0.0143608
785.067	0.0142950
785.145	0.0143132
785.223	0.0143682
785.301	0.0143993
785.379	0.0143069
785.457	0.0144691
785.535	0.0144599
785.613	0.0145583
785.692	0.0144165
785.770	0.0145186
785.848	0.0144864
785.926	0.0144698
786.004	0.0145757
786.082	0.0145403
786.160	0.0146088
786.238	0.0144984
786.317	0.0145540
786.395	0.0145801
786.473	0.0146144
786.551	0.0145675
786.629	0.0144637
786.707	0.0146043
786.785	0.0145224
786.863	0.0145074
786.942	0.0146384
787.020	0.0144973
787.098	0.0143883
787.176	0.0144576
787.254	0.0144318
787.332	0.0143960
787.410	0.0144231
787.488	0.0142480
787.567	0.0143374
787.645	0.0143355
787.723	0.0144223
787.801	0.0144337
787.879	0.0143098
787.957	0.0145143
788.035	0.0143768
788.113	0.0143217
788.192	0.0142974
788.270	0.0141628
788.348	0.0143201
788.426	0.0142208
788.504	0.0143289
788.582	0.0144167
788.660	0.0143264
788.738	0.0143101
788.817	0.0143081
788.895	0.0143449
788.973	0.0145424
789.051	0.0144557
789.129	0.0145049
789.207	0.0144265
789.285	0.0143387
789.363	0.0144023
789.442	0.0143887
789.520	0.0144199
789.598	0.0143121
789.676	0.0144141
789.754	0.0143590
789.832	0.0143198
789.910	0.0143620
789.988	0.0143817
790.067	0.0143866
790.145	0.0144139
790.223	0.0143945
790.301	0.0143591
790.379	0.0143533
790.457	0.0142240
790.535	0.0142770
790.613	0.0144205
790.692	0.0142885
790.770	0.0142813
790.848	0.0143979
790.926	0.0144364
791.004	0.0142974
791.082	0.0143353
791.160	0.0143539
791.238	0.0142782
791.317	0.0143779
791.395	0.0145352
791.473	0.0145395
791.551	0.0145235
791.629	0.0145978
791.707	0.0144350
791.785	0.0145792
791.863	0.0145282
791.942	0.0144918
792.020	0.0144159
792.098	0.0145647
792.176	0.0145775
792.254	0.0146239
792.332	0.0145322
792.410	0.0145436
792.488	0.0144806
792.567	0.0145798
792.645	0.0144999
792.723	0.0146010
792.801	0.0144996
792.879	0.0143578
792.957	0.0144458
793.035	0.0144626
793.113	0.0144644
793.192	0.0142982
793.270	0.0142779
793.348	0.0142884
793.426	0.0143882
793.504	0.0142801
793.582	0.0142795
793.660	0.0143034
793.738	0.0143415
793.817	0.0142736
793.895	0.0142444
793.973	0.0143091
794.051	0.0143348
794.129	0.0142666
794.207	0.0143527
794.285	0.0144043
794.363	0.0143459
794.442	0.0144868
794.520	0.0144431
794.598	0.0141772
794.676	0.0143397
794.754	0.0143781
794.832	0.0142296
794.910	0.0143365
794.988	0.0144382
795.067	0.0143233
795.145	0.0144551
795.223	0.0143636
795.301	0.0144113
795.379	0.0143098
795.457	0.0145593
795.535	0.0144411
795.613	0.0145340
795.692	0.0143573
795.770	0.0143872
795.848	0.0144947
795.926	0.0145826
796.004	0.0145213
796.082	0.0145052
796.160	0.0145726
796.238	0.0145715
796.317	0.0145071
796.395	0.0145779
796.473	0.0144798
796.551	0.0144984
796.629	0.0145692
796.707	0.0145894
796.785	0.0145152
796.863	0.0147213
796.942	0.0145216
797.020	0.0144337
797.098	0.0145019
797.176	0.0145555
797.254	0.0144797
797.332	0.0143973
797.410	0.0143166
797.488	0.0144203
797.567	0.0144696
797.645	0.0143088
797.723	0.0143423
797.801	0.0144689
797.879	0.0143259
797.957	0.0143067
798.035	0.0142293
798.113	0.0143121
798.192	0.0143947
798.270	0.0142320
798.348	0.0142459
798.426	0.0141576
798.504	0.0142419
798.582	0.0141921
798.660	0.0141832
798.738	0.0143185
798.817	0.0141989
798.895	0.0142319
798.973	0.0142454
799.051	0.0141849
799.129	0.0143627
799.207	0.0142721
799.285	0.0143066
799.363	0.0143918
799.442	0.0144835
799.520	0.0144362
799.598	0.0144030
799.676	0.0143977
799.754	0.0144382
799.832	0.0144836
799.910	0.0143980
799.988	0.0145490
800.067	0.0145239
800.145	0.0145719
800.223	0.0146313
800.301	0.0145984
800.379	0.0145912
800.457	0.0146967
800.535	0.0145999
800.613	0.0145410
800.692	0.0145792
800.770	0.0146591
800.848	0.0146741
800.926	0.0146352
801.004	0.0145847
801.082	0.0145830
801.160	0.0145781
801.238	0.0146033
801.317	0.0144803
801.395	0.0144594
801.473	0.0144646
801.551	0.0145027
801.629	0.0144373
801.707	0.0144188
801.785	0.0143016
801.863	0.0143362
801.942	0.0143466
802.020	0.0142944
802.098	0.0142597
802.176	0.0143518
802.254	0.0142607
802.332	0.0143382
802.410	0.0143918
802.488	0.0142561
802.567	0.0142565
802.645	0.0143813
802.723	0.0143025
802.801	0.0143651
802.879	0.0143863
802.957	0.0143394
803.035	0.0143210
803.113	0.0144217
803.192	0.0143516
803.270	0.0143501
803.348	0.0143040
803.426	0.0144303
803.504	0.0143416
803.582	0.0143626
803.660	0.0144357
803.738	0.0143207
803.817	0.0142852
803.895	0.0143294
803.973	0.0143680
804.051	0.0144096
804.129	0.0144032
804.207	0.0143584
804.285	0.0144334
804.363	0.0144488
804.442	0.0144823
804.520	0.0144647
804.598	0.0144733
804.676	0.0143762
804.754	0.0143000
804.832	0.0143819
804.910	0.0144635
804.988	0.0144318
805.067	0.0143627
805.145	0.0145046
805.223	0.0144167
805.301	0.0142874
805.379	0.0144695
805.457	0.0143609
805.535	0.0142773
805.613	0.0142675
805.692	0.0143082
805.770	0.0144176
805.848	0.0141600
805.926	0.0142397
806.004	0.0142664
806.082	0.0142263
806.160	0.0143074
806.238	0.0142707
806.317	0.0142141
806.395	0.0141533
806.473	0.0141945
806.551	0.0142280
806.629	0.0142391
806.707	0.0140725
806.785	0.0141437
806.863	0.0142053
806.942	0.0141946
807.020	0.0141346
807.098	0.0142092
807.176	0.0141139
807.254	0.0142426
807.332	0.0143184
807.410	0.0141869
807.488	0.0142042
807.567	0.0142318
807.645	0.0142444
807.723	0.0142976
807.801	0.0144576
807.879	0.0142480
807.957	0.0142528
808.035	0.0143667
808.113	0.0145290
808.192	0.0145339
808.270	0.0144411
808.348	0.0144504
808.426	0.0144183
808.504	0.0143408
808.582	0.0143732
808.660	0.0144992
808.738	0.0142482
808.817	0.0144866
808.895	0.0143935
808.973	0.0142215
809.051	0.0144878
809.129	0.0144475
809.207	0.0144474
809.285	0.0143620
809.363	0.0143895
809.442	0.0142595
809.520	0.0143095
809.598	0.0142287
809.676	0.0142972
809.754	0.0143257
809.832	0.0143409
809.910	0.0143923
809.988	0.0142915
810.067	0.0143854
810.145	0.0144139
810.223	0.0142217
810.301	0.0144398
810.379	0.0142915
810.457	0.0143929
810.535	0.0145029
810.613	0.0144900
810.692	0.0142984
810.770	0.0143884
810.848	0.0145761
810.926	0.0144827
811.004	0.0144149
811.082	0.0143068
811.160	0.0143391
811.238	0.0143315
811.317	0.0144183
811.395	0.0144083
811.473	0.0144296
811.551	0.0144154
811.629	0.0144216
811.707	0.0144450
811.785	0.0143262
811.863	0.0144048
811.942	0.0145455
812.020	0.0142818
812.098	0.0145355
812.176	0.0145201
812.254	0.0145339
812.332	0.0145851
812.410	0.0145268
812.488	0.0144544
812.567	0.0146129
812.645	0.0145363
812.723	0.0145910
812.801	0.0145280
812.879	0.0145511
812.957	0.0145945
813.035	0.0145705
813.113	0.0145668
813.192	0.0147240
813.270	0.0145123
813.348	0.0144744
813.426	0.0144791
813.504	0.0145571
813.582	0.0145322
813.660	0.0145496
813.738	0.0143496
813.817	0.0145678
813.895	0.0144791
813.973	0.0143859
814.051	0.0144209
814.129	0.0145599
814.207	0.0143250
814.285	0.0143967
814.363	0.0144608
814.442	0.0143570
814.520	0.0143731
814.598	0.0143380
814.676	0.0144328
814.754	0.0144350
814.832	0.0143672
814.910	0.0143940
814.988	0.0144115
815.067	0.0144785
815.145	0.0144253
815.223	0.0145036
815.301	0.0144467
815.379	0.0143976
815.457	0.0144136
815.535	0.0145049
815.613	0.0145942
815.692	0.0143988
815.770	0.0145767
815.848	0.0145458
815.926	0.0144832
816.004	0.0146844
816.082	0.0145470
816.160	0.0145921
816.238	0.0145742
816.317	0.0146497
816.395	0.0144772
816.473	0.0144788
816.551	0.0145178
816.629	0.0145622
816.707	0.0144999
816.785	0.0144836
816.863	0.0145424
816.942	0.0143910
817.020	0.0144519
817.098	0.0146375
817.176	0.0144432
817.254	0.0143428
817.332	0.0144941
817.410	0.0144519
817.488	0.0144328
817.567	0.0143774
817.645	0.0144875
817.723	0.0145227
817.801	0.0145625
817.879	0.0144083
817.957	0.0145602
818.035	0.0145296
818.113	0.0144222
818.192	0.0145465
818.270	0.0145348
818.348	0.0145557
818.426	0.0143979
818.504	0.0144707
818.582	0.0144678
818.660	0.0146236
818.738	0.0144969
818.817	0.0144126
818.895	0.0144623
818.973	0.0146589
819.051	0.0146969
819.129	0.0146493
819.207	0.0143865
819.285	0.0144316
819.363	0.0145994
819.442	0.0144653
819.520	0.0145453
819.598	0.0145332
819.676	0.0144366
819.754	0.0144376
819.832	0.0145254
819.910	0.0144715
819.988	0.0143363
820.067	0.0145161
820.145	0.0145243
820.223	0.0144138
820.301	0.0144177
820.379	0.0143852
820.457	0.0143977
820.535	0.0144037
820.613	0.0145298
820.692	0.0144296
820.770	0.0144559
820.848	0.0143433
820.926	0.0143360
821.004	0.0144791
821.082	0.0143948
821.160	0.0145595
821.238	0.0145429
821.317	0.0144424
821.395	0.0144277
821.473	0.0144865
821.551	0.0144207
821.629	0.0145096
821.707	0.0145963
821.785	0.0145841
821.863	0.0145849
821.942	0.0145145
822.020	0.0146069
822.098	0.0145264
822.176	0.0145571
822.254	0.0144456
822.332	0.0145882
822.410	0.0146519
822.488	0.0144548
822.567	0.0145199
822.645	0.0145877
822.723	0.0145045
822.801	0.0145676
822.879	0.0145887
822.957	0.0146169
823.035	0.0144341
823.113	0.0144840
823.192	0.0144743
823.270	0.0143654
823.348	0.0145255
823.426	0.0146017
823.504	0.0144716
823.582	0.0144450
823.660	0.0143569
823.738	0.0143714
823.817	0.0143331
823.895	0.0143060
823.973	0.0144765
824.051	0.0142979
824.129	0.0144212
824.207	0.0143500
824.285	0.0143076
824.363	0.0143088
824.442	0.0144987
824.520	0.0143354
824.598	0.0144592
824.676	0.0143192
824.754	0.0143722
824.832	0.0145029
824.910	0.0143650
824.988	0.0143767
825.067	0.0144269
825.145	0.0143939
825.223	0.0144142
825.301	0.0144432
825.379	0.0144251
825.457	0.0143977
825.535	0.0144710
825.613	0.0143189
825.692	0.0145393
825.770	0.0144647
825.848	0.0143896
825.926	0.0144304
826.004	0.0144122
826.082	0.0144189
826.160	0.0145568
826.238	0.0143468
826.317	0.0145308
826.395	0.0143879
826.473	0.0144506
826.551	0.0145232
826.629	0.0144254
826.707	0.0144763
826.785	0.0145235
826.863	0.0145432
826.942	0.0146667
827.020	0.0143976
827.098	0.0145266
827.176	0.0145881
827.254	0.0144064
827.332	0.0144677
827.410	0.0145345
827.488	0.0144438
827.567	0.0145147
827.645	0.0144823
827.723	0.0144459
827.801	0.0143555
827.879	0.0145060
827.957	0.0144554
828.035	0.0144252
828.113	0.0145049
828.192	0.0144563
828.270	0.0143673
828.348	0.0144205
828.426	0.0143498
828.504	0.0142592
828.582	0.0143977
828.660	0.0143105
828.738	0.0144517
828.817	0.0143623
828.895	0.0143827
828.973	0.0144212
829.051	0.0142570
829.129	0.0144152
829.207	0.0143250
829.285	0.0143068
829.363	0.0143745
829.442	0.0144188
829.520	0.0144147
829.598	0.0143988
829.676	0.0142361
829.754	0.0143025
829.832	0.0143756
829.910	0.0143733
829.988	0.0144933
830.067	0.0142529
830.145	0.0142952
830.223	0.0144261
830.301	0.0142675
830.379	0.0142107
830.457	0.0141927
830.535	0.0143011
830.613	0.0143318
830.692	0.0143005
830.770	0.0142651
830.848	0.0143131
830.926	0.0143689
831.004	0.0142410
831.082	0.0143354
831.160	0.0141471
831.238	0.0142587
831.317	0.0142635
831.395	0.0143395
831.473	0.0142575
831.551	0.0142931
831.629	0.0143485
831.707	0.0143901
831.785	0.0141277
831.863	0.0142090
831.942	0.0142904
832.020	0.0143230
832.098	0.0142599
832.176	0.0142509
832.254	0.0143626
832.332	0.0143967
832.410	0.0143134
832.488	0.0142656
832.567	0.0142819
832.645	0.0144027
832.723	0.0142764
832.801	0.0143833
832.879	0.0142855
832.957	0.0142275
833.035	0.0142434
833.113	0.0142946
833.192	0.0144360
833.270	0.0143489
833.348	0.0144078
833.426	0.0143295
833.504	0.0143041
833.582	0.0143035
833.660	0.0142746
833.738	0.0143466
833.817	0.0142088
833.895	0.0143681
833.973	0.0143418
834.051	0.0143242
834.129	0.0143641
834.207	0.0143925
834.285	0.0143485
834.363	0.0143299
834.442	0.0142777
834.520	0.0144060
834.598	0.0142976
834.676	0.0143288
834.754	0.0142390
834.832	0.0143903
834.910	0.0143530
834.988	0.0142306
835.067	0.0143203
835.145	0.0142741
835.223	0.0141584
835.301	0.0142498
835.379	0.0142288
835.457	0.0141020
835.535	0.0144321
835.613	0.0143371
835.692	0.0142915
835.770	0.0141970
835.848	0.0142373
835.926	0.0142651
836.004	0.0142154
836.082	0.0142222
836.160	0.0143047
836.238	0.0142683
836.317	0.0142673
836.395	0.0143938
836.473	0.0142860
836.551	0.0142653
836.629	0.0143313
836.707	0.0145158
836.785	0.0144009
836.863	0.0144883
836.942	0.0144553
837.020	0.0144136
837.098	0.0143670
837.176	0.0143268
837.254	0.0144694
837.332	0.0143684
837.410	0.0145222
837.488	0.0144261
837.567	0.0145071
837.645	0.0144847
837.723	0.0144579
837.801	0.0144858
837.879	0.0144707
837.957	0.0144435
838.035	0.0143451
838.113	0.0144661
838.192	0.0144666
838.270	0.0143983
838.348	0.0142787
838.426	0.0143085
838.504	0.0144273
838.582	0.0143282
838.660	0.0141267
838.738	0.0143702
838.817	0.0143835
838.895	0.0142490
838.973	0.0144185
839.051	0.0143769
839.129	0.0142932
839.207	0.0142822
839.285	0.0143188
839.363	0.0143608
839.442	0.0144402
839.520	0.0141857
839.598	0.0144094
839.676	0.0143961
839.754	0.0144060
839.832	0.0143123
839.910	0.0143783
839.988	0.0144479
840.067	0.0143744
840.145	0.0143732
840.223	0.0145039
840.301	0.0145715
840.379	0.0144282
840.457	0.0144518
840.535	0.0143496
840.613	0.0144239
840.692	0.0144595
840.770	0.0145054
840.848	0.0144442
840.926	0.0144892
841.004	0.0145076
841.082	0.0144154
841.160	0.0144809
841.238	0.0144881
841.317	0.0144739
841.395	0.0144185
841.473	0.0145385
841.551	0.0144972
841.629	0.0143521
841.707	0.0145252
841.785	0.0145464
841.863	0.0145566
841.942	0.0144350
842.020	0.0144895
842.098	0.0145597
842.176	0.0146308
842.254	0.0146861
842.332	0.0145474
842.410	0.0146720
842.488	0.0145658
842.567	0.0145395
842.645	0.0145589
842.723	0.0146124
842.801	0.0145750
842.879	0.0145049
842.957	0.0145114
843.035	0.0144991
843.113	0.0145052
843.192	0.0145373
843.270	0.0144896
843.348	0.0144731
843.426	0.0142555
843.504	0.0144984
843.582	0.0144843
843.660	0.0145419
843.738	0.0144049
843.817	0.0143569
843.895	0.0144888
843.973	0.0143841
844.051	0.0143900
844.129	0.0143678
844.207	0.0144312
844.285	0.0145120
844.363	0.0143796
844.442	0.0145622
844.520	0.0144278
844.598	0.0145169
844.676	0.0143731
844.754	0.0144461
844.832	0.0145392
844.910	0.0144431
844.988	0.0145718
845.067	0.0145017
845.145	0.0144002
845.223	0.0145052
845.301	0.0144540
845.379	0.0144111
845.457	0.0145667
845.535	0.0145605
845.613	0.0144125
845.692	0.0145753
845.770	0.0144281
845.848	0.0145847
845.926	0.0146024
846.004	0.0145240
846.082	0.0145541
846.160	0.0144968
846.238	0.0145714
846.317	0.0145652
846.395	0.0145704
846.473	0.0146632
846.551	0.0146468
846.629	0.0144644
846.707	0.0145357
846.785	0.0146477
846.863	0.0145625
846.942	0.0144510
847.020	0.0145945
847.098	0.0145763
847.176	0.0144423
847.254	0.0145136
847.332	0.0145601
847.410	0.0146245
847.488	0.0145823
847.567	0.0145960
847.645	0.0144769
847.723	0.0145097
847.801	0.0145774
847.879	0.0144402
847.957	0.0145192
848.035	0.0144751
848.113	0.0144492
848.192	0.0143681
848.270	0.0143926
848.348	0.0144323
848.426	0.0144006
848.504	0.0143296
848.582	0.0142720
848.660	0.0142722
848.738	0.0144305
848.817	0.0143225
848.895	0.0142976
848.973	0.0143031
849.051	0.0141322
849.129	0.0141877
849.207	0.0143248
849.285	0.0143126
849.363	0.0142691
849.442	0.0142435
849.520	0.0142573
849.598	0.0144817
849.676	0.0142963
849.754	0.0143002
849.832	0.0143601
849.910	0.0143883
849.988	0.0142387
850.067	0.0143607
850.145	0.0143670
850.223	0.0144411
850.301	0.0144431
850.379	0.0145650
850.457	0.0143571
850.535	0.0143916
850.613	0.0143842
850.692	0.0144730
850.770	0.0144324
850.848	0.0144170
850.926	0.0144250
851.004	0.0144531
851.082	0.0144667
851.160	0.0145252
851.238	0.0144636
851.317	0.0143893
851.395	0.0143994
851.473	0.0143386
851.551	0.0143179
851.629	0.0143258
851.707	0.0143748
851.785	0.0144263
851.863	0.0144086
851.942	0.0143116
852.020	0.0142937
852.098	0.0143904
852.176	0.0143359
852.254	0.0144015
852.332	0.0142180
852.410	0.0141508
852.488	0.0142620
852.567	0.0142102
852.645	0.0142455
852.723	0.0142538
852.801	0.0141753
852.879	0.0143301
852.957	0.0142412
853.035	0.0140869
853.113	0.0143343
853.192	0.0143152
853.270	0.0142917
853.348	0.0143169
853.426	0.0141405
853.504	0.0142146
853.582	0.0143118
853.660	0.0141399
853.738	0.0143581
853.817	0.0142510
853.895	0.0143855
853.973	0.0144506
854.051	0.0142933
854.129	0.0144221
854.207	0.0143171
854.285	0.0143857
854.363	0.0144245
854.442	0.0142677
854.520	0.0141626
854.598	0.0141766
854.676	0.0143786
854.754	0.0142983
854.832	0.0143358
854.910	0.0141987
854.988	0.0142346
855.067	0.0142467
855.145	0.0142570
855.223	0.0143552
855.301	0.0143842
855.379	0.0143909
855.457	0.0144248
855.535	0.0143710
855.613	0.0144054
855.692	0.0142861
855.770	0.0143368
855.848	0.0143852
855.926	0.0141831
856.004	0.0143440
856.082	0.0142715
856.160	0.0143954
856.238	0.0142701
856.317	0.0142425
856.395	0.0142464
856.473	0.0143093
856.551	0.0142129
856.629	0.0142705
856.707	0.0143240
856.785	0.0142764
856.863	0.0142798
856.942	0.0143469
857.020	0.0142709
857.098	0.0142776
857.176	0.0144159
857.254	0.0143341
857.332	0.0144018
857.410	0.0143550
857.488	0.0143671
857.567	0.0143829
857.645	0.0143786
857.723	0.0142749
857.801	0.0143673
857.879	0.0143208
857.957	0.0144128
858.035	0.0144556
858.113	0.0143651
858.192	0.0143222
858.270	0.0142869
858.348	0.0143133
858.426	0.0144015
858.504	0.0144828
858.582	0.0144467
858.660	0.0144089
858.738	0.0143707
858.817	0.0142706
858.895	0.0145259
858.973	0.0143940
859.051	0.0143578
859.129	0.0144070
859.207	0.0145058
859.285	0.0144313
859.363	0.0144118
859.442	0.0144976
859.520	0.0143859
859.598	0.0143173
859.676	0.0143076
859.754	0.0142418
859.832	0.0143654
859.910	0.0142701
859.988	0.0144506
860.067	0.0143835
860.145	0.0144563
860.223	0.0144281
860.301	0.0145457
860.379	0.0142991
860.457	0.0142496
860.535	0.0142896
860.613	0.0144709
860.692	0.0143764
860.770	0.0143244
860.848	0.0145062
860.926	0.0143787
861.004	0.0142270
861.082	0.0144016
861.160	0.0142945
861.238	0.0143864
861.317	0.0143018
861.395	0.0144250
861.473	0.0142165
861.551	0.0143043
861.629	0.0142944
861.707	0.0142833
861.785	0.0142909
861.863	0.0144518
861.942	0.0144895
862.020	0.0144618
862.098	0.0144315
862.176	0.0142790
862.254	0.0143246
862.332	0.0144918
862.410	0.0145045
862.488	0.0143803
862.567	0.0143893
862.645	0.0144578
862.723	0.0143751
862.801	0.0143365
862.879	0.0143031
862.957	0.0144070
863.035	0.0145956
863.113	0.0144028
863.192	0.0143396
863.270	0.0144283
863.348	0.0145717
863.426	0.0144580
863.504	0.0144578
863.582	0.0144930
863.660	0.0144214
863.738	0.0144659
863.817	0.0143496
863.895	0.0145435
863.973	0.0144353
864.051	0.0144426
864.129	0.0143890
864.207	0.0143079
864.285	0.0142567
864.363	0.0143140
864.442	0.0144177
864.520	0.0143169
864.598	0.0143216
864.676	0.0143371
864.754	0.0144035
864.832	0.0144302
864.910	0.0143376
864.988	0.0144395
865.067	0.0144303
865.145	0.0143848
865.223	0.0144382
865.301	0.0144321
865.379	0.0145218
865.457	0.0145616
865.535	0.0144779
865.613	0.0145898
865.692	0.0146199
865.770	0.0146037
865.848	0.0144408
865.926	0.0144393
866.004	0.0143799
866.082	0.0143825
866.160	0.0144810
866.238	0.0144390
866.317	0.0143938
866.395	0.0145063
866.473	0.0143692
866.551	0.0145500
866.629	0.0144688
866.707	0.0144035
866.785	0.0144863
866.863	0.0143545
866.942	0.0144767
867.020	0.0144282
867.098	0.0143022
867.176	0.0145533
867.254	0.0145068
867.332	0.0143438
867.410	0.0143798
867.488	0.0143243
867.567	0.0144041
867.645	0.0144865
867.723	0.0144730
867.801	0.0144978
867.879	0.0144827
867.957	0.0144116
868.035	0.0145505
868.113	0.0144097
868.192	0.0144514
868.270	0.0146052
868.348	0.0144299
868.426	0.0142815
868.504	0.0144366
868.582	0.0145783
868.660	0.0144023
868.738	0.0145021
868.817	0.0143679
868.895	0.0144181
868.973	0.0145374
869.051	0.0144398
869.129	0.0144337
869.207	0.0145309
869.285	0.0144007
869.363	0.0143946
869.442	0.0143938
869.520	0.0145139
869.598	0.0144468
869.676	0.0145145
869.754	0.0143892
869.832	0.0143791
869.910	0.0145233
869.988	0.0143549
870.067	0.0143819
870.145	0.0145272
870.223	0.0145307
870.301	0.0144716
870.379	0.0144934
870.457	0.0145100
870.535	0.0145556
870.613	0.0145997
870.692	0.0143946
870.770	0.0144250
870.848	0.0145991
870.926	0.0145093
871.004	0.0143420
871.082	0.0143765
871.160	0.0146482
871.238	0.0144920
871.317	0.0143223
871.395	0.0143014
871.473	0.0144761
871.551	0.0145135
871.629	0.0144602
871.707	0.0144183
871.785	0.0144094
871.863	0.0145453
871.942	0.0144691
872.020	0.0144799
872.098	0.0144819
872.176	0.0145139
872.254	0.0145081
872.332	0.0145173
872.410	0.0144396
872.488	0.0145322
872.567	0.0143893
872.645	0.0144283
872.723	0.0143616
872.801	0.0144406
872.879	0.0143980
872.957	0.0144976
873.035	0.0143719
873.113	0.0143485
873.192	0.0142999
873.270	0.0144170
873.348	0.0144334
873.426	0.0144009
873.504	0.0143561
873.582	0.0140894
873.660	0.0144165
873.738	0.0143687
873.817	0.0142654
873.895	0.0143781
873.973	0.0144574
874.051	0.0143884
874.129	0.0144473
874.207	0.0143081
874.285	0.0143132
874.363	0.0144160
874.442	0.0143116
874.520	0.0144367
874.598	0.0143417
874.676	0.0144156
874.754	0.0143208
874.832	0.0143386
874.910	0.0144382
874.988	0.0143615
875.067	0.0143881
875.145	0.0144582
875.223	0.0143631
875.301	0.0143470
875.379	0.0144675
875.457	0.0142770
875.535	0.0142075
875.613	0.0142989
875.692	0.0144080
875.770	0.0143011
875.848	0.0142000
875.926	0.0142908
876.004	0.0142957
876.082	0.0141880
876.160	0.0143009
876.238	0.0143534
876.317	0.0142763
876.395	0.0143353
876.473	0.0143237
876.551	0.0143421
876.629	0.0142044
876.707	0.0143779
876.785	0.0142393
876.863	0.0144022
876.942	0.0143658
877.020	0.0144920
877.098	0.0144624
877.176	0.0143145
877.254	0.0143519
877.332	0.0143836
877.410	0.0144774
877.488	0.0145064
877.567	0.0144167
877.645	0.0143750
877.723	0.0145454
877.801	0.0144001
877.879	0.0144412
877.957	0.0143453
878.035	0.0143642
878.113	0.0144366
878.192	0.0144756
878.270	0.0142883
878.348	0.0143871
878.426	0.0143571
878.504	0.0143385
878.582	0.0143577
878.660	0.0143523
878.738	0.0144518
878.817	0.0143548
878.895	0.0141404
878.973	0.0141273
879.051	0.0143021
879.129	0.0144629
879.207	0.0143761
879.285	0.0144312
879.363	0.0142030
879.442	0.0143056
879.520	0.0142848
879.598	0.0142776
879.676	0.0144128
879.754	0.0143671
879.832	0.0143424
879.910	0.0144900
879.988	0.0143668
880.067	0.0144452
880.145	0.0143889
880.223	0.0143744
880.301	0.0144554
880.379	0.0142999
880.457	0.0142971
880.535	0.0143385
880.613	0.0143815
880.692	0.0143801
880.770	0.0144006
880.848	0.0144263
880.926	0.0142887
881.004	0.0143938
881.082	0.0144348
881.160	0.0142355
881.238	0.0142008
881.317	0.0143525
881.395	0.0141766
881.473	0.0144080
881.551	0.0143323
881.629	0.0142768
881.707	0.0143025
881.785	0.0142626
881.863	0.0143921
881.942	0.0142550
882.020	0.0142609
882.098	0.0143829
882.176	0.0143978
882.254	0.0142549
882.332	0.0143690
882.410	0.0143442
882.488	0.0143036
882.567	0.0143967
882.645	0.0143342
882.723	0.0144372
882.801	0.0144576
882.879	0.0144280
882.957	0.0144331
883.035	0.0145113
883.113	0.0144214
883.192	0.0143158
883.270	0.0144268
883.348	0.0143927
883.426	0.0145448
883.504	0.0145870
883.582	0.0144206
883.660	0.0144135
883.738	0.0143298
883.817	0.0144726
883.895	0.0144338
883.973	0.0143217
884.051	0.0145130
884.129	0.0143198
884.207	0.0143473
884.285	0.0142454
884.363	0.0143419
884.442	0.0144029
884.520	0.0143077
884.598	0.0142774
884.676	0.0144318
884.754	0.0144082
884.832	0.0144362
884.910	0.0143782
884.988	0.0143537
885.067	0.0144140
885.145	0.0144724
885.223	0.0144796
885.301	0.0145322
885.379	0.0144678
885.457	0.0143616
885.535	0.0144370
885.613	0.0143943
885.692	0.0143629
885.770	0.0144433
885.848	0.0143778
885.926	0.0144240
886.004	0.0144338
886.082	0.0144406
886.160	0.0144042
886.238	0.0144447
886.317	0.0143803
886.395	0.0145863
886.473	0.0144527
886.551	0.0144376
886.629	0.0144797
886.707	0.0144692
886.785	0.0143392
886.863	0.0145039
886.942	0.0145660
887.020	0.0145353
887.098	0.0143713
887.176	0.0144616
887.254	0.0144220
887.332	0.0142933
887.410	0.0144337
887.488	0.0144994
887.567	0.0143873
887.645	0.0145467
887.723	0.0143365
887.801	0.0143523
887.879	0.0144149
887.957	0.0143967
888.035	0.0145329
888.113	0.0144689
888.192	0.0144757
888.270	0.0144362
888.348	0.0143958
888.426	0.0144601
888.504	0.0144488
888.582	0.0143552
888.660	0.0145760
888.738	0.0144569
888.817	0.0143567
888.895	0.0144456
888.973	0.0144279
889.051	0.0143265
889.129	0.0145005
889.207	0.0145470
889.285	0.0145470
889.363	0.0144978
889.442	0.0143064
889.520	0.0144068
889.598	0.0144293
889.676	0.0145138
889.754	0.0145303
889.832	0.0145769
889.910	0.0144111
889.988	0.0145914
890.067	0.0145287
890.145	0.0143851
890.223	0.0144330
890.301	0.0145003
890.379	0.0144418
890.457	0.0143259
890.535	0.0143846
890.613	0.0143608
890.692	0.0144361
890.770	0.0145113
890.848	0.0143790
890.926	0.0143858
891.004	0.0143821
891.082	0.0143784
891.160	0.0144337
891.238	0.0142699
891.317	0.0142384
891.395	0.0142908
891.473	0.0142090
891.551	0.0142266
891.629	0.0143361
891.707	0.0142965
891.785	0.0144091
891.863	0.0143439
891.942	0.0141528
892.020	0.0143203
892.098	0.0143525
892.176	0.0142232
892.254	0.0142500
892.332	0.0143382
892.410	0.0143610
892.488	0.0142865
892.567	0.0143587
892.645	0.0144825
892.723	0.0143548
892.801	0.0142850
892.879	0.0144186
892.957	0.0142413
893.035	0.0143233
893.113	0.0144187
893.192	0.0141981
893.270	0.0142438
893.348	0.0143886
893.426	0.0145011
893.504	0.0144592
893.582	0.0143495
893.660	0.0144254
893.738	0.0144342
893.817	0.0143845
893.895	0.0143420
893.973	0.0144726
894.051	0.0144798
894.129	0.0144791
894.207	0.0145381
894.285	0.0145930
894.363	0.0144689
894.442	0.0143459
894.520	0.0143251
894.598	0.0143909
894.676	0.0144837
894.754	0.0144677
894.832	0.0144881
894.910	0.0144289
894.988	0.0144625
895.067	0.0144662
895.145	0.0145369
895.223	0.0144431
895.301	0.0145979
895.379	0.0144429
895.457	0.0144785
895.535	0.0144761
895.613	0.0145158
895.692	0.0144158
895.770	0.0143962
895.848	0.0143335
895.926	0.0143674
896.004	0.0144686
896.082	0.0144386
896.160	0.0145152
896.238	0.0144403
896.317	0.0144336
896.395	0.0143371
896.473	0.0143816
896.551	0.0145541
896.629	0.0144723
896.707	0.0143790
896.785	0.0144161
896.863	0.0144448
896.942	0.0146179
897.020	0.0144862
897.098	0.0143018
897.176	0.0143831
897.254	0.0144970
897.332	0.0145274
897.410	0.0144973
897.488	0.0145617
897.567	0.0144451
897.645	0.0144801
897.723	0.0146554
897.801	0.0145612
897.879	0.0144781
897.957	0.0145513
898.035	0.0144592
898.113	0.0144289
898.192	0.0144358
898.270	0.0145808
898.348	0.0144688
898.426	0.0144302
898.504	0.0146211
898.582	0.0145454
898.660	0.0145356
898.738	0.0145049
898.817	0.0146763
898.895	0.0145639
898.973	0.0146053
899.051	0.0144948
899.129	0.0145359
899.207	0.0145416
899.285	0.0145024
899.363	0.0143761
899.442	0.0145150
899.520	0.0145193
899.598	0.0145820
899.676	0.0144827
899.754	0.0144785
899.832	0.0143701
899.910	0.0146391
899.988	0.0144987
900.067	0.0144376
900.145	0.0143569
900.223	0.0144424
900.301	0.0144728
900.379	0.0143723
900.457	0.0143314
900.535	0.0143436
900.613	0.0144247
900.692	0.0145092
900.770	0.0143883
900.848	0.0144093
900.926	0.0143250
901.004	0.0142696
901.082	0.0144361
901.160	0.0143477
901.238	0.0142669
901.317	0.0142721
901.395	0.0144840
901.473	0.0144173
901.551	0.0143714
901.629	0.0142205
901.707	0.0144508
901.785	0.0143777
901.863	0.0143732
901.942	0.0142998
902.020	0.0144565
902.098	0.0143788
902.176	0.0143983
902.254	0.0142873
902.332	0.0143511
902.410	0.0143618
902.488	0.0144537
902.567	0.0142414
902.645	0.0141562
902.723	0.0143713
902.801	0.0143357
902.879	0.0142206
902.957	0.0143633
903.035	0.0144260
903.113	0.0144515
903.192	0.0143645
903.270	0.0142973
903.348	0.0142796
903.426	0.0143124
903.504	0.0144363
903.582	0.0144222
903.660	0.0144446
903.738	0.0145919
903.817	0.0144482
903.895	0.0144033
903.973	0.0145025
904.051	0.0145154
904.129	0.0146532
904.207	0.0145508
904.285	0.0145515
904.363	0.0145083
904.442	0.0145158
904.520	0.0145817
904.598	0.0144752
904.676	0.0144334
904.754	0.0145374
904.832	0.0145915
904.910	0.0145380
904.988	0.0145900
905.067	0.0144892
905.145	0.0144286
905.223	0.0145499
905.301	0.0144861
905.379	0.0142941
905.457	0.0144079
905.535	0.0146516
905.613	0.0144518
905.692	0.0145135
905.770	0.0144151
905.848	0.0143832
905.926	0.0144109
906.004	0.0144511
906.082	0.0145902
906.160	0.0144954
906.238	0.0143150
906.317	0.0143394
906.395	0.0143816
906.473	0.0144188
906.551	0.0144173
906.629	0.0143880
906.707	0.0145098
906.785	0.0145710
906.863	0.0143392
906.942	0.0144963
907.020	0.0144053
907.098	0.0143295
907.176	0.0143634
907.254	0.0143371
907.332	0.0145190
907.410	0.0144832
907.488	0.0144442
907.567	0.0143936
907.645	0.0143748
907.723	0.0143332
907.801	0.0143427
907.879	0.0144026
907.957	0.0144093
908.035	0.0142661
908.113	0.0143406
908.192	0.0143835
908.270	0.0141859
908.348	0.0144112
908.426	0.0144884
908.504	0.0143613
908.582	0.0142535
908.660	0.0143892
908.738	0.0143111
908.817	0.0142393
908.895	0.0143538
908.973	0.0143395
909.051	0.0143164
909.129	0.0142557
909.207	0.0143343
909.285	0.0143391
909.363	0.0143326
909.442	0.0143842
909.520	0.0142859
909.598	0.0142897
909.676	0.0143656
909.754	0.0144849
909.832	0.0143124
909.910	0.0143249
909.988	0.0143250
910.067	0.0143208
910.145	0.0144658
910.223	0.0143880
910.301	0.0143206
910.379	0.0142273
910.457	0.0143058
910.535	0.0144438
910.613	0.0143670
910.692	0.0143427
910.770	0.0143840
910.848	0.0143900
910.926	0.0143053
911.004	0.0144601
911.082	0.0144408
911.160	0.0143322
911.238	0.0144602
911.317	0.0142811
911.395	0.0143124
911.473	0.0144541
911.551	0.0143984
911.629	0.0143626
911.707	0.0144379
911.785	0.0143346
911.863	0.0144487
911.942	0.0144661
912.020	0.0144865
912.098	0.0144317
912.176	0.0144080
912.254	0.0144572
912.332	0.0145947
912.410	0.0144820
912.488	0.0144610
912.567	0.0144267
912.645	0.0143644
912.723	0.0142901
912.801	0.0144605
912.879	0.0144019
912.957	0.0145518
913.035	0.0144877
913.113	0.0143188
913.192	0.0143196
913.270	0.0144434
913.348	0.0145334
913.426	0.0144064
913.504	0.0143900
913.582	0.0144788
913.660	0.0144870
913.738	0.0143710
913.817	0.0145351
913.895	0.0144383
913.973	0.0142639
914.051	0.0144391
914.129	0.0144433
914.207	0.0145069
914.285	0.0144252
914.363	0.0143238
914.442	0.0143583
914.520	0.0144677
914.598	0.0144622
914.676	0.0143298
914.754	0.0144863
914.832	0.0146080
914.910	0.0145025
914.988	0.0144718
915.067	0.0143950
915.145	0.0145257
915.223	0.0143889
915.301	0.0144259
915.379	0.0144355
915.457	0.0144625
915.535	0.0144814
915.613	0.0145230
915.692	0.0144601
915.770	0.0145218
915.848	0.0146497
915.926	0.0143974
916.004	0.0144145
916.082	0.0144752
916.160	0.0144640
916.238	0.0144701
916.317	0.0144421
916.395	0.0144571
916.473	0.0145786
916.551	0.0145098
916.629	0.0144507
916.707	0.0144915
916.785	0.0144224
916.863	0.0144158
916.942	0.0143865
917.020	0.0143645
917.098	0.0144823
917.176	0.0144443
917.254	0.0143562
917.332	0.0143575
917.410	0.0145189
917.488	0.0144804
917.567	0.0143796
917.645	0.0142936
917.723	0.0142717
917.801	0.0142912
917.879	0.0143168
917.957	0.0143230
918.035	0.0142875
918.113	0.0143725
918.192	0.0143674
918.270	0.0143588
918.348	0.0143395
918.426	0.0143337
918.504	0.0143891
918.582	0.0143011
918.660	0.0143566
918.738	0.0146124
918.817	0.0145082
918.895	0.0144273
918.973	0.0143765
919.051	0.0145116
919.129	0.0145493
919.207	0.0145567
919.285	0.0145961
919.363	0.0145130
919.442	0.0145409
919.520	0.0145716
919.598	0.0143573
919.676	0.0145036
919.754	0.0146542
919.832	0.0146133
919.910	0.0144781
