05/28/2022	14:18:46	Ver.	4.1	UNKNOWN
Optical Delay	599.988409	Delta X		0.078125	Sweeps	1	Scan Rate	0/0
Coordinates	Axis 1	NaN	Axis 2	NaN	Axis 3	NaN	Axis 4	NaN	Axis 5	NaN	Axis 6	0.000000
TX Power	0.000000	RX Power	0.000000

599.988	0.0147643
600.067	0.0147624
600.145	0.0148701
600.223	0.0146840
600.301	0.0147149
600.379	0.0148435
600.457	0.0147797
600.535	0.0147530
600.613	0.0148303
600.692	0.0146978
600.770	0.0148247
600.848	0.0148093
600.926	0.0148751
601.004	0.0148376
601.082	0.0148105
601.160	0.0147163
601.238	0.0148474
601.317	0.0148862
601.395	0.0147816
601.473	0.0148027
601.551	0.0148897
601.629	0.0148252
601.707	0.0147852
601.785	0.0147752
601.863	0.0147717
601.942	0.0148912
602.020	0.0148953
602.098	0.0148472
602.176	0.0146980
602.254	0.0148769
602.332	0.0147709
602.410	0.0148645
602.488	0.0149614
602.567	0.0146815
602.645	0.0148827
602.723	0.0149264
602.801	0.0148543
602.879	0.0147020
602.957	0.0147395
603.035	0.0148224
603.113	0.0149181
603.192	0.0148455
603.270	0.0148934
603.348	0.0149095
603.426	0.0146917
603.504	0.0146611
603.582	0.0148596
603.660	0.0149619
603.738	0.0150021
603.817	0.0149377
603.895	0.0148018
603.973	0.0148421
604.051	0.0149062
604.129	0.0148454
604.207	0.0149049
604.285	0.0148921
604.363	0.0148694
604.442	0.0148956
604.520	0.0148272
604.598	0.0149151
604.676	0.0148476
604.754	0.0147839
604.832	0.0149494
604.910	0.0148523
604.988	0.0148904
605.067	0.0148545
605.145	0.0147630
605.223	0.0148428
605.301	0.0147565
605.379	0.0148748
605.457	0.0150033
605.535	0.0150336
605.613	0.0147887
605.692	0.0147097
605.770	0.0148659
605.848	0.0148473
605.926	0.0148740
606.004	0.0150090
606.082	0.0147598
606.160	0.0148241
606.238	0.0149450
606.317	0.0147846
606.395	0.0148761
606.473	0.0148460
606.551	0.0148336
606.629	0.0149188
606.707	0.0148582
606.785	0.0148093
606.863	0.0147970
606.942	0.0148625
607.020	0.0148283
607.098	0.0149097
607.176	0.0148897
607.254	0.0148435
607.332	0.0149245
607.410	0.0148150
607.488	0.0148679
607.567	0.0148470
607.645	0.0149098
607.723	0.0147207
607.801	0.0148694
607.879	0.0149173
607.957	0.0148479
608.035	0.0149028
608.113	0.0150562
608.192	0.0147924
608.270	0.0148962
608.348	0.0149487
608.426	0.0148714
608.504	0.0149890
608.582	0.0149445
608.660	0.0149558
608.738	0.0148573
608.817	0.0149642
608.895	0.0149639
608.973	0.0149892
609.051	0.0149959
609.129	0.0149383
609.207	0.0149959
609.285	0.0149538
609.363	0.0148209
609.442	0.0149054
609.520	0.0149500
609.598	0.0148989
609.676	0.0147260
609.754	0.0149282
609.832	0.0148881
609.910	0.0149205
609.988	0.0147575
610.067	0.0148206
610.145	0.0149901
610.223	0.0149167
610.301	0.0148286
610.379	0.0148719
610.457	0.0148248
610.535	0.0148663
610.613	0.0149731
610.692	0.0147813
610.770	0.0149820
610.848	0.0149403
610.926	0.0147541
611.004	0.0147878
611.082	0.0150288
611.160	0.0149294
611.238	0.0148559
611.317	0.0148067
611.395	0.0147173
611.473	0.0147475
611.551	0.0148069
611.629	0.0149842
611.707	0.0148530
611.785	0.0148331
611.863	0.0148837
611.942	0.0149171
612.020	0.0148590
612.098	0.0148631
612.176	0.0149405
612.254	0.0148959
612.332	0.0149051
612.410	0.0150517
612.488	0.0148722
612.567	0.0148365
612.645	0.0148203
612.723	0.0150103
612.801	0.0149052
612.879	0.0148827
612.957	0.0148312
613.035	0.0148337
613.113	0.0149581
613.192	0.0149723
613.270	0.0150613
613.348	0.0149042
613.426	0.0149595
613.504	0.0147736
613.582	0.0147003
613.660	0.0149087
613.738	0.0148745
613.817	0.0148347
613.895	0.0147841
613.973	0.0149815
614.051	0.0149220
614.129	0.0148201
614.207	0.0148127
614.285	0.0149036
614.363	0.0148897
614.442	0.0149792
614.520	0.0148257
614.598	0.0148428
614.676	0.0148108
614.754	0.0149023
614.832	0.0148830
614.910	0.0146560
614.988	0.0148413
615.067	0.0147395
615.145	0.0148207
615.223	0.0147567
615.301	0.0147451
615.379	0.0148760
615.457	0.0148651
615.535	0.0147484
615.613	0.0147831
615.692	0.0148107
615.770	0.0148075
615.848	0.0148650
615.926	0.0147815
616.004	0.0147581
616.082	0.0147923
616.160	0.0147398
616.238	0.0147876
616.317	0.0146526
616.395	0.0147394
616.473	0.0149926
616.551	0.0148769
616.629	0.0148980
616.707	0.0148393
616.785	0.0149487
616.863	0.0147112
616.942	0.0146179
617.020	0.0147641
617.098	0.0147456
617.176	0.0146050
617.254	0.0147557
617.332	0.0147532
617.410	0.0148218
617.488	0.0147443
617.567	0.0146687
617.645	0.0146094
617.723	0.0146510
617.801	0.0149316
617.879	0.0146951
617.957	0.0147546
618.035	0.0146606
618.113	0.0147693
618.192	0.0147319
618.270	0.0147791
618.348	0.0147377
618.426	0.0147566
618.504	0.0147588
618.582	0.0147839
618.660	0.0146039
618.738	0.0147881
618.817	0.0146054
618.895	0.0147591
618.973	0.0149048
619.051	0.0147972
619.129	0.0147360
619.207	0.0148878
619.285	0.0149047
619.363	0.0147230
619.442	0.0148469
619.520	0.0148446
619.598	0.0148734
619.676	0.0147090
619.754	0.0147978
619.832	0.0149506
619.910	0.0148405
619.988	0.0148666
620.067	0.0148927
620.145	0.0149277
620.223	0.0148801
620.301	0.0147283
620.379	0.0148432
620.457	0.0149168
620.535	0.0148216
620.613	0.0147869
620.692	0.0148878
620.770	0.0149320
620.848	0.0149270
620.926	0.0148389
621.004	0.0147729
621.082	0.0150135
621.160	0.0149305
621.238	0.0149104
621.317	0.0147846
621.395	0.0149074
621.473	0.0150101
621.551	0.0148954
621.629	0.0149135
621.707	0.0149841
621.785	0.0147275
621.863	0.0148524
621.942	0.0148339
622.020	0.0147190
622.098	0.0149277
622.176	0.0147634
622.254	0.0147951
622.332	0.0148555
622.410	0.0149195
622.488	0.0149017
622.567	0.0148150
622.645	0.0148584
622.723	0.0149142
622.801	0.0149136
622.879	0.0147906
622.957	0.0148404
623.035	0.0149413
623.113	0.0149046
623.192	0.0149238
623.270	0.0149051
623.348	0.0148650
623.426	0.0149145
623.504	0.0147586
623.582	0.0147431
623.660	0.0148888
623.738	0.0149775
623.817	0.0149043
623.895	0.0148981
623.973	0.0150537
624.051	0.0149931
624.129	0.0148437
624.207	0.0150060
624.285	0.0148935
624.363	0.0147545
624.442	0.0147940
624.520	0.0151238
624.598	0.0149400
624.676	0.0148711
624.754	0.0148611
624.832	0.0149122
624.910	0.0149287
624.988	0.0148840
625.067	0.0148518
625.145	0.0148725
625.223	0.0148734
625.301	0.0149409
625.379	0.0149927
625.457	0.0150356
625.535	0.0148943
625.613	0.0150332
625.692	0.0148705
625.770	0.0147679
625.848	0.0150153
625.926	0.0148978
626.004	0.0148933
626.082	0.0148940
626.160	0.0147989
626.238	0.0150513
626.317	0.0148787
626.395	0.0149574
626.473	0.0149935
626.551	0.0150510
626.629	0.0150039
626.707	0.0149316
626.785	0.0150330
626.863	0.0149703
626.942	0.0151160
627.020	0.0151442
627.098	0.0149363
627.176	0.0148365
627.254	0.0149488
627.332	0.0150352
627.410	0.0149712
627.488	0.0148469
627.567	0.0150600
627.645	0.0150716
627.723	0.0148948
627.801	0.0148849
627.879	0.0147858
627.957	0.0149889
628.035	0.0148910
628.113	0.0149671
628.192	0.0149445
628.270	0.0148324
628.348	0.0149310
628.426	0.0148454
628.504	0.0148476
628.582	0.0148373
628.660	0.0149339
628.738	0.0150006
628.817	0.0149035
628.895	0.0148698
628.973	0.0148346
629.051	0.0149058
629.129	0.0148446
629.207	0.0147893
629.285	0.0148533
629.363	0.0147144
629.442	0.0147015
629.520	0.0148038
629.598	0.0148512
629.676	0.0148724
629.754	0.0146837
629.832	0.0148069
629.910	0.0148054
629.988	0.0148756
630.067	0.0147266
630.145	0.0148792
630.223	0.0148041
630.301	0.0146793
630.379	0.0148757
630.457	0.0148201
630.535	0.0148077
630.613	0.0148760
630.692	0.0148555
630.770	0.0148795
630.848	0.0149834
630.926	0.0147749
631.004	0.0147377
631.082	0.0148074
631.160	0.0148665
631.238	0.0149187
631.317	0.0148208
631.395	0.0148244
631.473	0.0150256
631.551	0.0148923
631.629	0.0148758
631.707	0.0149100
631.785	0.0148498
631.863	0.0149070
631.942	0.0149223
632.020	0.0149694
632.098	0.0149684
632.176	0.0148760
632.254	0.0149851
632.332	0.0149366
632.410	0.0149422
632.488	0.0150276
632.567	0.0149831
632.645	0.0149462
632.723	0.0149849
632.801	0.0149699
632.879	0.0148473
632.957	0.0149767
633.035	0.0148457
633.113	0.0148719
633.192	0.0149602
633.270	0.0148411
633.348	0.0148391
633.426	0.0149462
633.504	0.0148541
633.582	0.0148368
633.660	0.0149228
633.738	0.0149037
633.817	0.0150147
633.895	0.0149136
633.973	0.0148448
634.051	0.0148607
634.129	0.0148086
634.207	0.0148062
634.285	0.0149152
634.363	0.0150313
634.442	0.0148888
634.520	0.0149096
634.598	0.0149146
634.676	0.0149133
634.754	0.0146709
634.832	0.0150246
634.910	0.0150481
634.988	0.0148345
635.067	0.0148232
635.145	0.0148965
635.223	0.0149220
635.301	0.0148874
635.379	0.0148737
635.457	0.0149006
635.535	0.0148806
635.613	0.0148434
635.692	0.0147426
635.770	0.0149459
635.848	0.0147507
635.926	0.0146117
636.004	0.0148042
636.082	0.0146815
636.160	0.0148175
636.238	0.0146861
636.317	0.0146111
636.395	0.0146362
636.473	0.0146004
636.551	0.0146497
636.629	0.0147291
636.707	0.0146739
636.785	0.0148270
636.863	0.0145880
636.942	0.0146848
637.020	0.0147784
637.098	0.0147118
637.176	0.0146910
637.254	0.0148659
637.332	0.0148437
637.410	0.0149120
637.488	0.0148505
637.567	0.0149170
637.645	0.0149204
637.723	0.0148299
637.801	0.0148805
637.879	0.0148123
637.957	0.0148629
638.035	0.0149619
638.113	0.0147522
638.192	0.0148485
638.270	0.0147981
638.348	0.0148405
638.426	0.0148785
638.504	0.0149037
638.582	0.0148246
638.660	0.0148797
638.738	0.0148679
638.817	0.0148659
638.895	0.0148293
638.973	0.0149192
639.051	0.0149109
639.129	0.0148716
639.207	0.0147916
639.285	0.0149349
639.363	0.0149306
639.442	0.0148833
639.520	0.0148333
639.598	0.0148558
639.676	0.0150272
639.754	0.0147982
639.832	0.0149730
639.910	0.0148602
639.988	0.0148135
640.067	0.0147080
640.145	0.0147916
640.223	0.0146651
640.301	0.0146382
640.379	0.0146018
640.457	0.0146580
640.535	0.0146394
640.613	0.0144840
640.692	0.0145354
640.770	0.0145599
640.848	0.0145290
640.926	0.0145295
641.004	0.0145744
641.082	0.0145746
641.160	0.0146151
641.238	0.0146928
641.317	0.0146904
641.395	0.0146229
641.473	0.0147004
641.551	0.0147518
641.629	0.0149328
641.707	0.0147092
641.785	0.0147952
641.863	0.0147899
641.942	0.0148846
642.020	0.0150019
642.098	0.0148997
642.176	0.0148925
642.254	0.0150346
642.332	0.0150486
642.410	0.0149586
642.488	0.0150750
642.567	0.0152118
642.645	0.0151665
642.723	0.0151608
642.801	0.0150890
642.879	0.0152200
642.957	0.0151888
643.035	0.0150249
643.113	0.0151468
643.192	0.0149548
643.270	0.0149384
643.348	0.0150540
643.426	0.0150137
643.504	0.0148525
643.582	0.0148401
643.660	0.0148961
643.738	0.0148379
643.817	0.0149430
643.895	0.0147757
643.973	0.0147794
644.051	0.0148179
644.129	0.0147983
644.207	0.0147410
644.285	0.0148147
644.363	0.0148335
644.442	0.0147379
644.520	0.0147392
644.598	0.0146082
644.676	0.0145020
644.754	0.0145041
644.832	0.0146511
644.910	0.0145226
644.988	0.0144431
645.067	0.0144526
645.145	0.0144873
645.223	0.0142909
645.301	0.0144710
645.379	0.0144174
645.457	0.0144789
645.535	0.0146703
645.613	0.0146509
645.692	0.0147923
645.770	0.0148734
645.848	0.0147958
645.926	0.0147728
646.004	0.0149248
646.082	0.0150356
646.160	0.0150301
646.238	0.0151993
646.317	0.0151537
646.395	0.0149984
646.473	0.0151212
646.551	0.0150187
646.629	0.0151460
646.707	0.0150191
646.785	0.0148608
646.863	0.0150530
646.942	0.0150525
647.020	0.0150717
647.098	0.0151047
647.176	0.0150858
647.254	0.0150674
647.332	0.0149626
647.410	0.0149934
647.488	0.0151678
647.567	0.0150903
647.645	0.0151092
647.723	0.0151871
647.801	0.0150742
647.879	0.0150290
647.957	0.0151768
648.035	0.0150774
648.113	0.0150253
648.192	0.0149500
648.270	0.0149554
648.348	0.0149700
648.426	0.0149590
648.504	0.0148876
648.582	0.0148561
648.660	0.0146684
648.738	0.0146469
648.817	0.0146799
648.895	0.0146430
648.973	0.0145270
649.051	0.0147159
649.129	0.0146986
649.207	0.0147246
649.285	0.0146113
649.363	0.0145641
649.442	0.0147065
649.520	0.0147005
649.598	0.0145769
649.676	0.0145409
649.754	0.0146177
649.832	0.0146158
649.910	0.0147504
649.988	0.0146511
650.067	0.0147137
650.145	0.0145579
650.223	0.0146597
650.301	0.0146204
650.379	0.0147121
650.457	0.0145272
650.535	0.0146296
650.613	0.0145881
650.692	0.0145059
650.770	0.0146818
650.848	0.0145938
650.926	0.0146090
651.004	0.0146996
651.082	0.0147246
651.160	0.0147086
651.238	0.0147137
651.317	0.0148608
651.395	0.0147546
651.473	0.0148720
651.551	0.0149571
651.629	0.0148692
651.707	0.0148872
651.785	0.0150968
651.863	0.0150714
651.942	0.0150948
652.020	0.0149709
652.098	0.0152147
652.176	0.0152174
652.254	0.0152041
652.332	0.0152229
652.410	0.0150054
652.488	0.0151805
652.567	0.0152071
652.645	0.0152569
652.723	0.0152939
652.801	0.0153247
652.879	0.0152741
652.957	0.0152972
653.035	0.0152299
653.113	0.0152018
653.192	0.0152312
653.270	0.0151714
653.348	0.0151694
653.426	0.0150654
653.504	0.0149061
653.582	0.0147852
653.660	0.0146621
653.738	0.0147791
653.817	0.0146395
653.895	0.0144994
653.973	0.0144469
654.051	0.0145819
654.129	0.0144373
654.207	0.0143353
654.285	0.0143606
654.363	0.0145601
654.442	0.0143821
654.520	0.0144114
654.598	0.0144559
654.676	0.0142895
654.754	0.0144410
654.832	0.0144491
654.910	0.0144921
654.988	0.0144773
655.067	0.0144568
655.145	0.0145730
655.223	0.0145285
655.301	0.0144877
655.379	0.0146626
655.457	0.0146370
655.535	0.0146069
655.613	0.0145991
655.692	0.0147624
655.770	0.0145543
655.848	0.0148395
655.926	0.0147752
656.004	0.0147736
656.082	0.0147404
656.160	0.0146632
656.238	0.0148378
656.317	0.0149470
656.395	0.0148664
656.473	0.0148552
656.551	0.0149343
656.629	0.0150027
656.707	0.0150753
656.785	0.0149844
656.863	0.0150222
656.942	0.0151064
657.020	0.0151260
657.098	0.0150652
657.176	0.0150442
657.254	0.0151447
657.332	0.0151738
657.410	0.0152395
657.488	0.0155029
657.567	0.0153877
657.645	0.0154362
657.723	0.0155646
657.801	0.0154507
657.879	0.0155840
657.957	0.0155586
658.035	0.0155072
658.113	0.0156284
658.192	0.0156639
658.270	0.0155017
658.348	0.0153764
658.426	0.0153550
658.504	0.0152313
658.582	0.0149986
658.660	0.0149590
658.738	0.0147346
658.817	0.0145681
658.895	0.0144527
658.973	0.0146322
659.051	0.0144588
659.129	0.0144030
659.207	0.0141960
659.285	0.0140450
659.363	0.0140912
659.442	0.0141647
659.520	0.0142431
659.598	0.0142397
659.676	0.0143015
659.754	0.0142844
659.832	0.0143166
659.910	0.0144626
659.988	0.0145521
660.067	0.0145818
660.145	0.0147187
660.223	0.0146556
660.301	0.0148096
660.379	0.0149529
660.457	0.0149556
660.535	0.0150359
660.613	0.0150315
660.692	0.0150845
660.770	0.0151197
660.848	0.0152276
660.926	0.0150383
661.004	0.0151516
661.082	0.0149509
661.160	0.0150379
661.238	0.0150491
661.317	0.0149966
661.395	0.0149744
661.473	0.0149412
661.551	0.0149037
661.629	0.0148396
661.707	0.0148781
661.785	0.0148067
661.863	0.0148244
661.942	0.0148798
662.020	0.0147840
662.098	0.0149221
662.176	0.0147846
662.254	0.0148972
662.332	0.0149517
662.410	0.0149476
662.488	0.0149551
662.567	0.0149529
662.645	0.0148415
662.723	0.0148196
662.801	0.0149859
662.879	0.0149152
662.957	0.0148668
663.035	0.0147897
663.113	0.0149387
663.192	0.0150958
663.270	0.0150692
663.348	0.0151146
663.426	0.0151207
663.504	0.0152073
663.582	0.0150681
663.660	0.0150834
663.738	0.0152401
663.817	0.0150754
663.895	0.0152020
663.973	0.0151051
664.051	0.0151627
664.129	0.0151340
664.207	0.0151915
664.285	0.0151008
664.363	0.0149915
664.442	0.0149229
664.520	0.0149947
664.598	0.0148109
664.676	0.0147642
664.754	0.0148367
664.832	0.0148335
664.910	0.0147501
664.988	0.0146141
665.067	0.0145972
665.145	0.0145028
665.223	0.0144660
665.301	0.0144646
665.379	0.0144173
665.457	0.0144480
665.535	0.0144315
665.613	0.0141078
665.692	0.0142359
665.770	0.0143856
665.848	0.0143805
665.926	0.0143970
666.004	0.0145231
666.082	0.0144740
666.160	0.0145497
666.238	0.0146822
666.317	0.0147649
666.395	0.0147536
666.473	0.0148865
666.551	0.0149640
666.629	0.0150710
666.707	0.0150553
666.785	0.0152155
666.863	0.0152312
666.942	0.0153371
667.020	0.0154895
667.098	0.0153120
667.176	0.0153156
667.254	0.0153440
667.332	0.0152965
667.410	0.0152303
667.488	0.0152306
667.567	0.0151717
667.645	0.0150027
667.723	0.0151388
667.801	0.0150868
667.879	0.0150421
667.957	0.0150471
668.035	0.0150174
668.113	0.0149570
668.192	0.0150694
668.270	0.0148707
668.348	0.0149829
668.426	0.0149660
668.504	0.0148543
668.582	0.0148529
668.660	0.0147849
668.738	0.0147576
668.817	0.0146979
668.895	0.0145394
668.973	0.0146465
669.051	0.0144956
669.129	0.0144077
669.207	0.0144777
669.285	0.0144884
669.363	0.0144382
669.442	0.0143478
669.520	0.0144286
669.598	0.0142672
669.676	0.0144119
669.754	0.0144312
669.832	0.0144636
669.910	0.0144828
669.988	0.0145629
670.067	0.0147298
670.145	0.0148298
670.223	0.0147430
670.301	0.0148842
670.379	0.0151344
670.457	0.0149891
670.535	0.0149635
670.613	0.0152055
670.692	0.0152435
670.770	0.0152798
670.848	0.0154251
670.926	0.0152396
671.004	0.0152718
671.082	0.0153413
671.160	0.0152919
671.238	0.0154227
671.317	0.0152779
671.395	0.0153793
671.473	0.0153004
671.551	0.0150922
671.629	0.0149493
671.707	0.0150488
671.785	0.0146210
671.863	0.0145265
671.942	0.0145192
672.020	0.0144355
672.098	0.0140798
672.176	0.0142115
672.254	0.0140955
672.332	0.0140216
672.410	0.0141423
672.488	0.0141055
672.567	0.0141792
672.645	0.0143472
672.723	0.0143911
672.801	0.0145672
672.879	0.0144106
672.957	0.0147059
673.035	0.0147673
673.113	0.0148975
673.192	0.0148660
673.270	0.0149406
673.348	0.0151037
673.426	0.0149261
673.504	0.0149706
673.582	0.0151353
673.660	0.0150296
673.738	0.0150720
673.817	0.0149921
673.895	0.0150539
673.973	0.0148219
674.051	0.0149297
674.129	0.0148208
674.207	0.0148785
674.285	0.0149241
674.363	0.0148651
674.442	0.0149051
674.520	0.0146629
674.598	0.0148187
674.676	0.0147645
674.754	0.0147591
674.832	0.0147463
674.910	0.0146747
674.988	0.0147735
675.067	0.0147078
675.145	0.0146719
675.223	0.0147612
675.301	0.0146845
675.379	0.0146735
675.457	0.0146729
675.535	0.0145893
675.613	0.0145468
675.692	0.0147475
675.770	0.0146777
675.848	0.0146570
675.926	0.0146322
676.004	0.0146127
676.082	0.0147543
676.160	0.0146658
676.238	0.0147854
676.317	0.0148872
676.395	0.0150539
676.473	0.0147350
676.551	0.0148384
676.629	0.0150378
676.707	0.0149910
676.785	0.0149688
676.863	0.0151255
676.942	0.0150686
677.020	0.0150108
677.098	0.0151942
677.176	0.0149669
677.254	0.0150135
677.332	0.0149477
677.410	0.0148994
677.488	0.0151142
677.567	0.0151244
677.645	0.0149796
677.723	0.0147894
677.801	0.0149832
677.879	0.0149311
677.957	0.0149949
678.035	0.0150151
678.113	0.0148690
678.192	0.0147804
678.270	0.0147860
678.348	0.0147262
678.426	0.0146740
678.504	0.0147318
678.582	0.0146936
678.660	0.0144098
678.738	0.0144596
678.817	0.0143195
678.895	0.0141635
678.973	0.0142005
679.051	0.0141264
679.129	0.0141435
679.207	0.0141230
679.285	0.0139989
679.363	0.0141245
679.442	0.0139995
679.520	0.0141290
679.598	0.0142083
679.676	0.0142462
679.754	0.0143837
679.832	0.0144667
679.910	0.0147189
679.988	0.0148009
680.067	0.0148606
680.145	0.0149970
680.223	0.0151237
680.301	0.0153441
680.379	0.0151747
680.457	0.0153084
680.535	0.0153591
680.613	0.0153662
680.692	0.0153843
680.770	0.0154672
680.848	0.0154260
680.926	0.0154018
681.004	0.0154583
681.082	0.0152733
681.160	0.0154101
681.238	0.0152370
681.317	0.0152388
681.395	0.0152562
681.473	0.0152805
681.551	0.0152682
681.629	0.0152302
681.707	0.0151937
681.785	0.0151590
681.863	0.0151853
681.942	0.0152914
682.020	0.0150722
682.098	0.0150958
682.176	0.0151046
682.254	0.0149559
682.332	0.0147676
682.410	0.0148196
682.488	0.0147318
682.567	0.0146918
682.645	0.0145275
682.723	0.0144138
682.801	0.0141844
682.879	0.0141524
682.957	0.0140720
683.035	0.0141267
683.113	0.0137463
683.192	0.0137156
683.270	0.0138854
683.348	0.0137649
683.426	0.0137373
683.504	0.0137757
683.582	0.0139191
683.660	0.0139963
683.738	0.0142428
683.817	0.0141592
683.895	0.0142210
683.973	0.0144431
684.051	0.0146667
684.129	0.0146334
684.207	0.0150127
684.285	0.0150185
684.363	0.0150289
684.442	0.0152554
684.520	0.0153716
684.598	0.0155091
684.676	0.0155947
684.754	0.0157428
684.832	0.0158453
684.910	0.0160831
684.988	0.0159953
685.067	0.0160053
685.145	0.0160319
685.223	0.0161082
685.301	0.0161250
685.379	0.0163628
685.457	0.0159957
685.535	0.0161289
685.613	0.0157352
685.692	0.0157885
685.770	0.0156837
685.848	0.0153567
685.926	0.0152722
686.004	0.0150551
686.082	0.0149101
686.160	0.0147047
686.238	0.0146239
686.317	0.0143497
686.395	0.0141776
686.473	0.0140332
686.551	0.0140466
686.629	0.0139508
686.707	0.0137709
686.785	0.0137634
686.863	0.0139172
686.942	0.0138647
687.020	0.0138171
687.098	0.0138979
687.176	0.0140644
687.254	0.0141039
687.332	0.0143127
687.410	0.0143291
687.488	0.0144330
687.567	0.0144680
687.645	0.0145854
687.723	0.0148105
687.801	0.0147150
687.879	0.0147785
687.957	0.0149437
688.035	0.0150229
688.113	0.0151279
688.192	0.0152895
688.270	0.0152018
688.348	0.0151603
688.426	0.0153142
688.504	0.0155212
688.582	0.0155346
688.660	0.0153346
688.738	0.0155813
688.817	0.0156186
688.895	0.0155825
688.973	0.0156693
689.051	0.0156521
689.129	0.0155080
689.207	0.0156019
689.285	0.0156462
689.363	0.0156087
689.442	0.0156616
689.520	0.0155334
689.598	0.0154795
689.676	0.0153010
689.754	0.0151234
689.832	0.0153087
689.910	0.0152663
689.988	0.0150595
690.067	0.0149375
690.145	0.0148459
690.223	0.0146773
690.301	0.0147032
690.379	0.0147369
690.457	0.0145602
690.535	0.0144777
690.613	0.0144999
690.692	0.0144689
690.770	0.0144492
690.848	0.0144337
690.926	0.0144160
691.004	0.0144566
691.082	0.0145281
691.160	0.0144423
691.238	0.0144498
691.317	0.0145751
691.395	0.0146593
691.473	0.0147509
691.551	0.0147417
691.629	0.0148189
691.707	0.0146506
691.785	0.0146917
691.863	0.0147569
691.942	0.0147147
692.020	0.0147404
692.098	0.0146888
692.176	0.0146516
692.254	0.0145612
692.332	0.0146178
692.410	0.0145544
692.488	0.0144809
692.567	0.0143996
692.645	0.0144904
692.723	0.0145953
692.801	0.0144978
692.879	0.0145692
692.957	0.0146639
693.035	0.0145960
693.113	0.0146577
693.192	0.0146188
693.270	0.0147260
693.348	0.0148907
693.426	0.0149413
693.504	0.0149118
693.582	0.0149313
693.660	0.0150243
693.738	0.0150208
693.817	0.0150469
693.895	0.0152081
693.973	0.0151863
694.051	0.0152540
694.129	0.0153198
694.207	0.0151379
694.285	0.0151109
694.363	0.0150681
694.442	0.0150845
694.520	0.0151733
694.598	0.0150984
694.676	0.0149065
694.754	0.0148769
694.832	0.0151245
694.910	0.0149960
694.988	0.0152179
695.067	0.0150370
695.145	0.0151002
695.223	0.0149402
695.301	0.0151779
695.379	0.0151995
695.457	0.0151062
695.535	0.0152229
695.613	0.0151499
695.692	0.0150848
695.770	0.0149757
695.848	0.0149541
695.926	0.0146966
696.004	0.0147293
696.082	0.0145509
696.160	0.0144074
696.238	0.0142651
696.317	0.0142226
696.395	0.0140896
696.473	0.0138687
696.551	0.0138143
696.629	0.0137798
696.707	0.0138017
696.785	0.0136743
696.863	0.0136977
696.942	0.0136784
697.020	0.0138372
697.098	0.0136328
697.176	0.0138869
697.254	0.0139432
697.332	0.0139913
697.410	0.0140186
697.488	0.0142327
697.567	0.0142471
697.645	0.0143720
697.723	0.0144865
697.801	0.0145987
697.879	0.0147262
697.957	0.0150239
698.035	0.0150159
698.113	0.0151994
698.192	0.0154546
698.270	0.0154568
698.348	0.0155345
698.426	0.0156244
698.504	0.0156916
698.582	0.0157220
698.660	0.0157815
698.738	0.0158521
698.817	0.0158217
698.895	0.0160587
698.973	0.0161465
699.051	0.0159250
699.129	0.0158992
699.207	0.0158836
699.285	0.0160287
699.363	0.0160186
699.442	0.0158378
699.520	0.0157261
699.598	0.0156336
699.676	0.0154306
699.754	0.0153076
699.832	0.0150780
699.910	0.0150441
699.988	0.0149648
700.067	0.0146750
700.145	0.0144818
700.223	0.0144001
700.301	0.0143793
700.379	0.0142154
700.457	0.0140322
700.535	0.0139942
700.613	0.0139804
700.692	0.0138517
700.770	0.0138702
700.848	0.0139767
700.926	0.0138709
701.004	0.0139312
701.082	0.0139993
701.160	0.0138179
701.238	0.0138601
701.317	0.0139037
701.395	0.0138313
701.473	0.0138110
701.551	0.0138153
701.629	0.0140172
701.707	0.0141194
701.785	0.0140756
701.863	0.0140540
701.942	0.0144750
702.020	0.0145101
702.098	0.0144685
702.176	0.0147179
702.254	0.0147182
702.332	0.0149523
702.410	0.0149888
702.488	0.0150403
702.567	0.0151196
702.645	0.0153996
702.723	0.0153606
702.801	0.0155387
702.879	0.0157494
702.957	0.0156555
703.035	0.0157980
703.113	0.0157806
703.192	0.0157116
703.270	0.0158662
703.348	0.0157228
703.426	0.0158418
703.504	0.0157703
703.582	0.0156267
703.660	0.0155415
703.738	0.0155259
703.817	0.0154741
703.895	0.0155331
703.973	0.0154464
704.051	0.0152238
704.129	0.0151266
704.207	0.0151907
704.285	0.0150538
704.363	0.0150071
704.442	0.0148539
704.520	0.0147651
704.598	0.0146251
704.676	0.0145332
704.754	0.0144733
704.832	0.0143609
704.910	0.0143227
704.988	0.0144274
705.067	0.0144229
705.145	0.0142683
705.223	0.0144131
705.301	0.0144137
705.379	0.0142911
705.457	0.0143885
705.535	0.0142644
705.613	0.0142867
705.692	0.0144232
705.770	0.0145654
705.848	0.0146692
705.926	0.0147110
706.004	0.0146104
706.082	0.0147876
706.160	0.0149023
706.238	0.0149068
706.317	0.0149394
706.395	0.0150990
706.473	0.0148537
706.551	0.0149628
706.629	0.0151025
706.707	0.0151637
706.785	0.0150292
706.863	0.0151161
706.942	0.0150904
707.020	0.0149595
707.098	0.0151018
707.176	0.0150992
707.254	0.0148960
707.332	0.0148641
707.410	0.0149406
707.488	0.0149087
707.567	0.0148482
707.645	0.0149393
707.723	0.0149728
707.801	0.0149778
707.879	0.0149889
707.957	0.0149127
708.035	0.0149271
708.113	0.0151195
708.192	0.0149964
708.270	0.0149344
708.348	0.0149849
708.426	0.0150085
708.504	0.0149371
708.582	0.0151627
708.660	0.0149335
708.738	0.0151794
708.817	0.0150497
708.895	0.0149173
708.973	0.0149381
709.051	0.0149861
709.129	0.0148865
709.207	0.0149226
709.285	0.0149541
709.363	0.0149706
709.442	0.0149543
709.520	0.0148974
709.598	0.0151109
709.676	0.0149594
709.754	0.0149574
709.832	0.0149667
709.910	0.0149547
709.988	0.0149167
710.067	0.0149143
710.145	0.0149995
710.223	0.0149760
710.301	0.0149936
710.379	0.0148804
710.457	0.0149034
710.535	0.0149962
710.613	0.0150354
710.692	0.0148883
710.770	0.0148753
710.848	0.0149117
710.926	0.0151230
711.004	0.0150731
711.082	0.0148096
711.160	0.0150094
711.238	0.0148679
711.317	0.0148912
711.395	0.0148970
711.473	0.0149504
711.551	0.0149270
711.629	0.0146570
711.707	0.0147417
711.785	0.0146038
711.863	0.0147044
711.942	0.0146301
712.020	0.0145184
712.098	0.0144897
712.176	0.0146658
712.254	0.0145388
712.332	0.0145622
712.410	0.0144970
712.488	0.0146351
712.567	0.0146282
712.645	0.0146352
712.723	0.0148416
712.801	0.0148603
712.879	0.0149463
712.957	0.0149548
713.035	0.0150518
713.113	0.0151231
713.192	0.0149723
713.270	0.0149979
713.348	0.0150413
713.426	0.0149571
713.504	0.0149334
713.582	0.0151119
713.660	0.0150925
713.738	0.0148963
713.817	0.0149738
713.895	0.0151473
713.973	0.0149664
714.051	0.0148573
714.129	0.0150420
714.207	0.0152521
714.285	0.0151286
714.363	0.0151640
714.442	0.0151553
714.520	0.0152320
714.598	0.0151466
714.676	0.0150606
714.754	0.0150808
714.832	0.0150688
714.910	0.0151254
714.988	0.0150684
715.067	0.0150319
715.145	0.0150465
715.223	0.0151231
715.301	0.0150349
715.379	0.0149445
715.457	0.0150204
715.535	0.0147622
715.613	0.0147356
715.692	0.0146861
715.770	0.0146586
715.848	0.0144799
715.926	0.0145068
716.004	0.0146548
716.082	0.0144759
716.160	0.0143487
716.238	0.0144351
716.317	0.0143909
716.395	0.0144310
716.473	0.0143616
716.551	0.0144447
716.629	0.0146101
716.707	0.0147130
716.785	0.0145415
716.863	0.0145247
716.942	0.0146530
717.020	0.0146803
717.098	0.0147808
717.176	0.0147536
717.254	0.0149194
717.332	0.0149182
717.410	0.0148349
717.488	0.0149501
717.567	0.0150235
717.645	0.0149352
717.723	0.0150149
717.801	0.0150870
717.879	0.0148422
717.957	0.0147592
718.035	0.0149306
718.113	0.0149363
718.192	0.0149122
718.270	0.0147769
718.348	0.0147854
718.426	0.0147438
718.504	0.0146548
718.582	0.0147004
718.660	0.0147882
718.738	0.0145902
718.817	0.0146676
718.895	0.0148342
718.973	0.0148959
719.051	0.0147773
719.129	0.0148276
719.207	0.0148671
719.285	0.0149326
719.363	0.0148240
719.442	0.0148703
719.520	0.0149272
719.598	0.0151053
719.676	0.0149352
719.754	0.0151530
719.832	0.0152503
719.910	0.0150992
719.988	0.0150995
720.067	0.0151297
720.145	0.0150651
720.223	0.0152431
720.301	0.0151445
720.379	0.0149827
720.457	0.0150221
720.535	0.0149681
720.613	0.0149721
720.692	0.0149219
720.770	0.0149046
720.848	0.0148831
720.926	0.0148804
721.004	0.0148637
721.082	0.0148590
721.160	0.0148494
721.238	0.0148553
721.317	0.0147946
721.395	0.0147491
721.473	0.0147698
721.551	0.0147356
721.629	0.0146545
721.707	0.0146282
721.785	0.0147617
721.863	0.0146770
721.942	0.0146285
722.020	0.0145528
722.098	0.0146622
722.176	0.0146210
722.254	0.0147859
722.332	0.0147358
722.410	0.0148238
722.488	0.0149100
722.567	0.0147923
722.645	0.0148270
722.723	0.0149802
722.801	0.0149181
722.879	0.0148703
722.957	0.0148376
723.035	0.0148119
723.113	0.0149602
723.192	0.0149043
723.270	0.0147058
723.348	0.0146949
723.426	0.0146452
723.504	0.0147118
723.582	0.0148186
723.660	0.0147603
723.738	0.0148195
723.817	0.0147567
723.895	0.0147929
723.973	0.0147788
724.051	0.0148219
724.129	0.0148328
724.207	0.0149535
724.285	0.0149261
724.363	0.0148630
724.442	0.0148470
724.520	0.0149181
724.598	0.0150102
724.676	0.0149809
724.754	0.0150890
724.832	0.0150077
724.910	0.0149846
724.988	0.0148702
725.067	0.0151229
725.145	0.0150356
725.223	0.0148635
725.301	0.0149806
725.379	0.0149321
725.457	0.0151127
725.535	0.0149962
725.613	0.0149263
725.692	0.0148348
725.770	0.0148926
725.848	0.0149879
725.926	0.0149047
726.004	0.0149236
726.082	0.0149861
726.160	0.0149213
726.238	0.0150407
726.317	0.0149030
726.395	0.0147461
726.473	0.0149107
726.551	0.0147961
726.629	0.0147081
726.707	0.0147124
726.785	0.0148539
726.863	0.0146380
726.942	0.0147515
727.020	0.0147798
727.098	0.0147648
727.176	0.0148021
727.254	0.0148109
727.332	0.0147343
727.410	0.0149437
727.488	0.0149199
727.567	0.0149110
727.645	0.0149379
727.723	0.0149312
727.801	0.0149084
727.879	0.0146854
727.957	0.0148675
728.035	0.0150665
728.113	0.0148363
728.192	0.0147791
728.270	0.0148231
728.348	0.0147328
728.426	0.0149144
728.504	0.0147743
728.582	0.0148055
728.660	0.0147842
728.738	0.0147845
728.817	0.0147401
728.895	0.0147340
728.973	0.0148405
729.051	0.0148083
729.129	0.0147699
729.207	0.0148563
729.285	0.0148336
729.363	0.0150063
729.442	0.0149737
729.520	0.0149893
729.598	0.0150521
729.676	0.0151242
729.754	0.0150729
729.832	0.0151242
729.910	0.0150965
729.988	0.0150661
730.067	0.0150853
730.145	0.0151141
730.223	0.0151367
730.301	0.0150007
730.379	0.0149196
730.457	0.0149605
730.535	0.0150318
730.613	0.0148791
730.692	0.0147572
730.770	0.0148231
730.848	0.0147576
730.926	0.0147287
731.004	0.0148347
731.082	0.0147775
731.160	0.0146329
731.238	0.0148208
731.317	0.0147215
731.395	0.0147932
731.473	0.0148438
731.551	0.0147586
731.629	0.0148402
731.707	0.0147980
731.785	0.0148923
731.863	0.0149195
731.942	0.0148428
732.020	0.0148593
732.098	0.0149628
732.176	0.0149992
732.254	0.0148650
732.332	0.0150389
732.410	0.0151369
732.488	0.0148147
732.567	0.0149899
732.645	0.0148872
732.723	0.0148060
732.801	0.0148277
732.879	0.0148402
732.957	0.0148188
733.035	0.0148656
733.113	0.0147621
733.192	0.0147102
733.270	0.0148615
733.348	0.0146745
733.426	0.0147393
733.504	0.0146123
733.582	0.0146516
733.660	0.0148227
733.738	0.0147672
733.817	0.0147412
733.895	0.0148390
733.973	0.0149033
734.051	0.0149411
734.129	0.0148804
734.207	0.0147268
734.285	0.0149097
734.363	0.0148821
734.442	0.0150492
734.520	0.0149501
734.598	0.0148512
734.676	0.0149406
734.754	0.0149244
734.832	0.0149496
734.910	0.0149567
734.988	0.0149495
735.067	0.0149359
735.145	0.0150399
735.223	0.0150026
735.301	0.0148872
735.379	0.0149404
735.457	0.0150027
735.535	0.0149296
735.613	0.0148874
735.692	0.0149395
735.770	0.0150404
735.848	0.0149844
735.926	0.0150559
736.004	0.0148178
736.082	0.0148922
736.160	0.0148212
736.238	0.0147876
736.317	0.0148219
736.395	0.0148923
736.473	0.0148364
736.551	0.0147466
736.629	0.0147565
736.707	0.0148347
736.785	0.0146925
736.863	0.0147515
736.942	0.0147878
737.020	0.0147444
737.098	0.0149287
737.176	0.0148720
737.254	0.0148471
737.332	0.0147980
737.410	0.0148640
737.488	0.0148014
737.567	0.0147602
737.645	0.0149097
737.723	0.0148180
737.801	0.0147696
737.879	0.0148066
737.957	0.0148557
738.035	0.0147393
738.113	0.0148226
738.192	0.0147478
738.270	0.0147681
738.348	0.0147945
738.426	0.0147362
738.504	0.0147416
738.582	0.0148577
738.660	0.0148193
738.738	0.0147837
738.817	0.0148999
738.895	0.0148963
738.973	0.0147788
739.051	0.0147571
739.129	0.0149114
739.207	0.0148481
739.285	0.0149545
739.363	0.0148740
739.442	0.0149631
739.520	0.0148936
739.598	0.0149213
739.676	0.0149184
739.754	0.0148846
739.832	0.0149062
739.910	0.0149069
739.988	0.0149406
740.067	0.0149236
740.145	0.0149739
740.223	0.0149062
740.301	0.0148537
740.379	0.0148419
740.457	0.0148001
740.535	0.0147211
740.613	0.0147412
740.692	0.0148112
740.770	0.0148441
740.848	0.0147118
740.926	0.0146848
741.004	0.0146584
741.082	0.0147091
741.160	0.0146061
741.238	0.0146425
741.317	0.0146051
741.395	0.0145820
741.473	0.0146512
741.551	0.0147137
741.629	0.0144646
741.707	0.0145756
741.785	0.0145176
741.863	0.0145293
741.942	0.0147259
742.020	0.0146247
742.098	0.0147223
742.176	0.0146034
742.254	0.0147398
742.332	0.0146735
742.410	0.0146711
742.488	0.0147952
742.567	0.0148545
742.645	0.0147300
742.723	0.0146606
742.801	0.0147779
742.879	0.0149314
742.957	0.0148235
743.035	0.0147420
743.113	0.0147749
743.192	0.0148222
743.270	0.0148243
743.348	0.0148756
743.426	0.0148083
743.504	0.0148694
743.582	0.0148019
743.660	0.0148930
743.738	0.0147544
743.817	0.0149313
743.895	0.0147491
743.973	0.0148990
744.051	0.0148412
744.129	0.0148648
744.207	0.0147726
744.285	0.0147916
744.363	0.0147523
744.442	0.0147518
744.520	0.0148048
744.598	0.0147797
744.676	0.0148429
744.754	0.0147436
744.832	0.0148244
744.910	0.0148664
744.988	0.0148984
745.067	0.0148932
745.145	0.0149225
745.223	0.0148182
745.301	0.0149873
745.379	0.0149805
745.457	0.0149806
745.535	0.0148797
745.613	0.0148942
745.692	0.0150208
745.770	0.0149438
745.848	0.0148249
745.926	0.0148749
746.004	0.0147006
746.082	0.0147128
746.160	0.0146838
746.238	0.0146290
746.317	0.0147935
746.395	0.0146507
746.473	0.0145900
746.551	0.0146197
746.629	0.0146616
746.707	0.0146018
746.785	0.0146573
746.863	0.0146957
746.942	0.0147926
747.020	0.0148289
747.098	0.0148660
747.176	0.0148596
747.254	0.0149618
747.332	0.0150896
747.410	0.0149488
747.488	0.0149174
747.567	0.0149309
747.645	0.0149566
747.723	0.0148043
747.801	0.0149237
747.879	0.0150454
747.957	0.0150187
748.035	0.0149907
748.113	0.0149020
748.192	0.0148474
748.270	0.0148093
748.348	0.0150570
748.426	0.0149564
748.504	0.0149473
748.582	0.0149852
748.660	0.0149106
748.738	0.0149106
748.817	0.0148418
748.895	0.0149706
748.973	0.0149526
749.051	0.0150356
749.129	0.0149198
749.207	0.0147929
749.285	0.0149004
749.363	0.0149551
749.442	0.0147797
749.520	0.0148605
749.598	0.0149235
749.676	0.0147829
749.754	0.0148418
749.832	0.0147652
749.910	0.0149049
749.988	0.0148995
750.067	0.0148579
750.145	0.0147694
750.223	0.0148237
750.301	0.0147295
750.379	0.0147779
750.457	0.0148029
750.535	0.0148486
750.613	0.0147553
750.692	0.0147309
750.770	0.0149252
750.848	0.0149123
750.926	0.0148858
751.004	0.0148958
751.082	0.0148049
751.160	0.0148508
751.238	0.0148563
751.317	0.0148862
751.395	0.0148778
751.473	0.0148466
751.551	0.0146967
751.629	0.0148231
751.707	0.0148040
751.785	0.0147270
751.863	0.0147210
751.942	0.0148773
752.020	0.0147345
752.098	0.0147591
752.176	0.0147803
752.254	0.0148490
752.332	0.0146894
752.410	0.0147955
752.488	0.0148481
752.567	0.0147202
752.645	0.0148733
752.723	0.0148878
752.801	0.0149024
752.879	0.0147294
752.957	0.0149197
753.035	0.0150471
753.113	0.0149078
753.192	0.0149094
753.270	0.0150286
753.348	0.0148954
753.426	0.0150285
753.504	0.0150120
753.582	0.0149705
753.660	0.0151123
753.738	0.0149898
753.817	0.0148470
753.895	0.0148548
753.973	0.0151614
754.051	0.0149753
754.129	0.0148952
754.207	0.0151301
754.285	0.0150809
754.363	0.0150563
754.442	0.0150251
754.520	0.0149879
754.598	0.0150606
754.676	0.0150604
754.754	0.0150612
754.832	0.0150193
754.910	0.0151195
754.988	0.0149398
755.067	0.0148923
755.145	0.0149171
755.223	0.0148132
755.301	0.0148426
755.379	0.0149604
755.457	0.0148332
755.535	0.0148013
755.613	0.0148947
755.692	0.0147512
755.770	0.0148428
755.848	0.0148078
755.926	0.0148775
756.004	0.0148663
756.082	0.0148324
756.160	0.0147952
756.238	0.0146517
756.317	0.0147947
756.395	0.0149919
756.473	0.0148626
756.551	0.0147959
756.629	0.0148825
756.707	0.0149411
756.785	0.0148188
756.863	0.0147520
756.942	0.0147162
757.020	0.0147327
757.098	0.0148070
757.176	0.0146849
757.254	0.0147068
757.332	0.0147972
757.410	0.0146645
757.488	0.0148396
757.567	0.0147872
757.645	0.0148222
757.723	0.0147594
757.801	0.0148885
757.879	0.0148640
757.957	0.0147687
758.035	0.0147763
758.113	0.0149102
758.192	0.0149454
758.270	0.0149399
758.348	0.0148639
758.426	0.0150522
758.504	0.0150106
758.582	0.0149203
758.660	0.0148376
758.738	0.0148988
758.817	0.0148688
758.895	0.0149652
758.973	0.0148291
759.051	0.0147820
759.129	0.0148413
759.207	0.0148810
759.285	0.0148163
759.363	0.0148241
759.442	0.0149474
759.520	0.0149411
759.598	0.0148517
759.676	0.0148881
759.754	0.0147475
759.832	0.0148853
759.910	0.0149023
759.988	0.0148276
760.067	0.0147709
760.145	0.0149126
760.223	0.0148766
760.301	0.0147675
760.379	0.0147587
760.457	0.0147037
760.535	0.0148063
760.613	0.0146666
760.692	0.0146674
760.770	0.0147282
760.848	0.0146880
760.926	0.0146542
761.004	0.0146722
761.082	0.0144955
761.160	0.0145240
761.238	0.0146420
761.317	0.0147073
761.395	0.0146505
761.473	0.0146252
761.551	0.0146332
761.629	0.0147392
761.707	0.0146271
761.785	0.0147524
761.863	0.0145595
761.942	0.0145797
762.020	0.0145779
762.098	0.0146118
762.176	0.0146165
762.254	0.0147158
762.332	0.0145760
762.410	0.0147643
762.488	0.0146854
762.567	0.0148118
762.645	0.0148154
762.723	0.0148792
762.801	0.0149078
762.879	0.0147850
762.957	0.0149030
763.035	0.0149674
763.113	0.0151286
763.192	0.0150642
763.270	0.0148973
763.348	0.0149662
763.426	0.0150994
763.504	0.0149278
763.582	0.0150201
763.660	0.0149411
763.738	0.0149157
763.817	0.0148383
763.895	0.0149906
763.973	0.0148373
764.051	0.0148366
764.129	0.0148193
764.207	0.0147271
764.285	0.0147209
764.363	0.0147861
764.442	0.0148444
764.520	0.0146572
764.598	0.0148461
764.676	0.0147458
764.754	0.0144859
764.832	0.0145068
764.910	0.0145743
764.988	0.0147318
765.067	0.0146064
765.145	0.0146178
765.223	0.0147958
765.301	0.0146143
765.379	0.0145615
765.457	0.0147249
765.535	0.0148018
765.613	0.0147758
765.692	0.0147266
765.770	0.0145064
765.848	0.0146223
765.926	0.0148499
766.004	0.0147342
766.082	0.0147099
766.160	0.0147638
766.238	0.0146586
766.317	0.0147891
766.395	0.0148626
766.473	0.0146923
766.551	0.0147869
766.629	0.0148515
766.707	0.0147098
766.785	0.0147916
766.863	0.0147182
766.942	0.0146960
767.020	0.0146945
767.098	0.0148914
767.176	0.0148988
767.254	0.0148064
767.332	0.0148074
767.410	0.0148114
767.488	0.0149451
767.567	0.0148978
767.645	0.0147929
767.723	0.0149187
767.801	0.0149992
767.879	0.0149515
767.957	0.0149684
768.035	0.0148219
768.113	0.0149526
768.192	0.0148641
768.270	0.0148520
768.348	0.0149056
768.426	0.0149193
768.504	0.0149447
768.582	0.0148241
768.660	0.0149139
768.738	0.0148843
768.817	0.0148817
768.895	0.0148617
768.973	0.0147571
769.051	0.0149481
769.129	0.0148568
769.207	0.0148518
769.285	0.0148455
769.363	0.0148605
769.442	0.0149331
769.520	0.0148663
769.598	0.0147904
769.676	0.0148219
769.754	0.0148895
769.832	0.0148508
769.910	0.0147945
769.988	0.0146081
770.067	0.0146942
770.145	0.0147511
770.223	0.0146330
770.301	0.0148588
770.379	0.0145881
770.457	0.0146188
770.535	0.0146732
770.613	0.0146851
770.692	0.0146186
770.770	0.0145773
770.848	0.0147543
770.926	0.0147687
771.004	0.0147066
771.082	0.0148101
771.160	0.0148904
771.238	0.0148698
771.317	0.0148758
771.395	0.0149792
771.473	0.0148331
771.551	0.0148965
771.629	0.0149766
771.707	0.0149062
771.785	0.0149600
771.863	0.0150961
771.942	0.0150408
772.020	0.0149715
772.098	0.0148167
772.176	0.0149125
772.254	0.0148180
772.332	0.0148956
772.410	0.0149055
772.488	0.0148063
772.567	0.0148077
772.645	0.0149338
772.723	0.0147774
772.801	0.0148427
772.879	0.0147410
772.957	0.0148841
773.035	0.0148278
773.113	0.0147968
773.192	0.0147718
773.270	0.0148470
773.348	0.0147491
773.426	0.0146966
773.504	0.0147653
773.582	0.0149245
773.660	0.0149944
773.738	0.0148743
773.817	0.0149482
773.895	0.0150084
773.973	0.0149873
774.051	0.0149461
774.129	0.0149434
774.207	0.0146930
774.285	0.0149727
774.363	0.0148689
774.442	0.0147917
774.520	0.0148924
774.598	0.0149223
774.676	0.0150114
774.754	0.0147081
774.832	0.0147154
774.910	0.0149516
774.988	0.0149254
775.067	0.0147420
775.145	0.0146850
775.223	0.0147562
775.301	0.0148186
775.379	0.0147542
775.457	0.0147161
775.535	0.0147910
775.613	0.0147973
775.692	0.0147252
775.770	0.0147411
775.848	0.0147797
775.926	0.0148792
776.004	0.0148523
776.082	0.0148669
776.160	0.0147569
776.238	0.0149593
776.317	0.0149128
776.395	0.0150074
776.473	0.0150445
776.551	0.0150287
776.629	0.0150173
776.707	0.0151222
776.785	0.0150352
776.863	0.0151050
776.942	0.0151588
777.020	0.0150293
777.098	0.0150657
777.176	0.0151506
777.254	0.0149518
777.332	0.0151156
777.410	0.0150371
777.488	0.0151034
777.567	0.0149648
777.645	0.0150427
777.723	0.0149991
777.801	0.0148508
777.879	0.0149242
777.957	0.0148412
778.035	0.0148906
778.113	0.0150143
778.192	0.0148154
778.270	0.0148875
778.348	0.0149120
778.426	0.0148618
778.504	0.0148703
778.582	0.0148386
778.660	0.0148755
778.738	0.0147944
778.817	0.0148075
778.895	0.0148027
778.973	0.0147024
779.051	0.0149192
779.129	0.0147729
779.207	0.0148486
779.285	0.0146481
779.363	0.0147762
779.442	0.0150254
779.520	0.0148693
779.598	0.0149023
779.676	0.0148959
779.754	0.0148360
779.832	0.0147420
779.910	0.0148179
779.988	0.0147879
780.067	0.0147738
780.145	0.0148312
780.223	0.0148102
780.301	0.0147089
780.379	0.0148592
780.457	0.0147207
780.535	0.0148103
780.613	0.0147556
780.692	0.0148499
780.770	0.0146889
780.848	0.0147317
780.926	0.0147405
781.004	0.0148492
781.082	0.0148978
781.160	0.0150140
781.238	0.0149544
781.317	0.0150745
781.395	0.0150055
781.473	0.0150045
781.551	0.0150502
781.629	0.0149987
781.707	0.0151861
781.785	0.0150507
781.863	0.0149621
781.942	0.0149677
782.020	0.0151155
782.098	0.0151681
782.176	0.0151519
782.254	0.0150475
782.332	0.0150871
782.410	0.0149390
782.488	0.0150452
782.567	0.0148978
782.645	0.0148512
782.723	0.0151078
782.801	0.0148462
782.879	0.0148432
782.957	0.0149464
783.035	0.0149465
783.113	0.0148168
783.192	0.0148710
783.270	0.0147977
783.348	0.0147541
783.426	0.0146692
783.504	0.0147904
783.582	0.0148318
783.660	0.0147762
783.738	0.0147330
783.817	0.0147205
783.895	0.0147869
783.973	0.0149070
784.051	0.0148055
784.129	0.0147023
784.207	0.0148508
784.285	0.0148116
784.363	0.0150407
784.442	0.0148547
784.520	0.0148717
784.598	0.0149017
784.676	0.0149058
784.754	0.0149270
784.832	0.0150581
784.910	0.0150759
784.988	0.0150124
785.067	0.0149032
785.145	0.0149963
785.223	0.0149232
785.301	0.0150054
785.379	0.0150063
785.457	0.0150753
785.535	0.0149952
785.613	0.0148842
785.692	0.0149042
785.770	0.0149381
785.848	0.0148398
785.926	0.0148388
786.004	0.0147659
786.082	0.0148454
786.160	0.0147578
786.238	0.0148339
786.317	0.0148524
786.395	0.0147897
786.473	0.0147356
786.551	0.0147017
786.629	0.0146700
786.707	0.0146114
786.785	0.0146885
786.863	0.0146487
786.942	0.0146889
787.020	0.0147303
787.098	0.0147733
787.176	0.0146581
787.254	0.0147308
787.332	0.0148214
787.410	0.0147847
787.488	0.0148682
787.567	0.0147237
787.645	0.0148382
787.723	0.0148267
787.801	0.0149029
787.879	0.0147006
787.957	0.0148127
788.035	0.0149523
788.113	0.0150156
788.192	0.0149388
788.270	0.0149786
788.348	0.0149545
788.426	0.0150416
788.504	0.0148914
788.582	0.0150043
788.660	0.0149833
788.738	0.0149712
788.817	0.0148549
788.895	0.0148698
788.973	0.0149518
789.051	0.0149773
789.129	0.0148837
789.207	0.0148437
789.285	0.0147849
789.363	0.0149266
789.442	0.0147948
789.520	0.0149033
789.598	0.0147997
789.676	0.0147526
789.754	0.0146874
789.832	0.0149422
789.910	0.0148561
789.988	0.0148592
790.067	0.0148341
790.145	0.0147460
790.223	0.0148990
790.301	0.0150225
790.379	0.0147765
790.457	0.0148515
790.535	0.0148051
790.613	0.0148504
790.692	0.0149060
790.770	0.0149098
790.848	0.0149423
790.926	0.0147726
791.004	0.0149348
791.082	0.0148446
791.160	0.0148160
791.238	0.0148415
791.317	0.0148984
791.395	0.0147415
791.473	0.0147456
791.551	0.0148203
791.629	0.0148473
791.707	0.0147312
791.785	0.0147761
791.863	0.0147990
791.942	0.0147614
792.020	0.0148811
792.098	0.0147045
792.176	0.0147902
792.254	0.0147735
792.332	0.0147848
792.410	0.0146974
792.488	0.0147417
792.567	0.0147648
792.645	0.0148716
792.723	0.0147401
792.801	0.0148746
792.879	0.0147411
792.957	0.0146152
793.035	0.0146923
793.113	0.0148880
793.192	0.0147829
793.270	0.0146792
793.348	0.0147187
793.426	0.0147303
793.504	0.0147028
793.582	0.0146455
793.660	0.0148271
793.738	0.0147750
793.817	0.0147641
793.895	0.0149131
793.973	0.0147161
794.051	0.0146434
794.129	0.0145605
794.207	0.0147352
794.285	0.0147871
794.363	0.0146886
794.442	0.0146416
794.520	0.0146582
794.598	0.0146996
794.676	0.0147226
794.754	0.0146686
794.832	0.0147298
794.910	0.0148867
794.988	0.0147758
795.067	0.0148193
795.145	0.0147096
795.223	0.0146941
795.301	0.0147968
795.379	0.0148944
795.457	0.0148914
795.535	0.0147965
795.613	0.0149151
795.692	0.0149202
795.770	0.0148707
795.848	0.0148782
795.926	0.0149373
796.004	0.0149157
796.082	0.0147780
796.160	0.0148727
796.238	0.0150072
796.317	0.0149140
796.395	0.0148035
796.473	0.0149020
796.551	0.0147590
796.629	0.0147778
796.707	0.0147636
796.785	0.0148062
796.863	0.0147292
796.942	0.0146430
797.020	0.0147866
797.098	0.0146700
797.176	0.0147482
797.254	0.0145799
797.332	0.0145836
797.410	0.0147534
797.488	0.0145743
797.567	0.0144889
797.645	0.0146017
797.723	0.0147131
797.801	0.0145361
797.879	0.0146485
797.957	0.0145558
798.035	0.0145728
798.113	0.0145654
798.192	0.0147169
798.270	0.0145958
798.348	0.0146091
798.426	0.0147658
798.504	0.0148015
798.582	0.0147512
798.660	0.0148381
798.738	0.0148958
798.817	0.0148505
798.895	0.0149030
798.973	0.0148593
799.051	0.0149228
799.129	0.0149422
799.207	0.0150578
799.285	0.0150937
799.363	0.0149367
799.442	0.0148480
799.520	0.0149605
799.598	0.0149477
799.676	0.0150774
799.754	0.0149406
799.832	0.0149377
799.910	0.0149474
799.988	0.0150479
800.067	0.0148665
800.145	0.0151019
800.223	0.0150336
800.301	0.0150077
800.379	0.0149475
800.457	0.0149366
800.535	0.0149905
800.613	0.0151194
800.692	0.0149849
800.770	0.0148714
800.848	0.0148858
800.926	0.0148936
801.004	0.0149515
801.082	0.0150346
801.160	0.0149303
801.238	0.0147657
801.317	0.0148654
801.395	0.0147784
801.473	0.0147850
801.551	0.0148047
801.629	0.0148383
801.707	0.0147917
801.785	0.0148205
801.863	0.0149088
801.942	0.0147954
802.020	0.0148508
802.098	0.0149301
802.176	0.0148798
802.254	0.0147742
802.332	0.0148486
802.410	0.0148578
802.488	0.0148528
802.567	0.0149014
802.645	0.0147829
802.723	0.0148266
802.801	0.0147775
802.879	0.0147198
802.957	0.0148302
803.035	0.0148676
803.113	0.0148238
803.192	0.0147740
803.270	0.0149681
803.348	0.0148197
803.426	0.0146649
803.504	0.0147375
803.582	0.0148071
803.660	0.0149580
803.738	0.0148753
803.817	0.0149254
803.895	0.0150338
803.973	0.0149247
804.051	0.0150097
804.129	0.0149426
804.207	0.0150375
804.285	0.0149182
804.363	0.0150489
804.442	0.0150273
804.520	0.0149548
804.598	0.0149038
804.676	0.0149299
804.754	0.0149535
804.832	0.0148714
804.910	0.0150140
804.988	0.0149860
805.067	0.0150216
805.145	0.0149181
805.223	0.0149439
805.301	0.0149972
805.379	0.0148273
805.457	0.0148975
805.535	0.0148013
805.613	0.0148579
805.692	0.0149696
805.770	0.0149286
805.848	0.0148747
805.926	0.0147005
806.004	0.0149046
806.082	0.0147845
806.160	0.0149339
806.238	0.0149321
806.317	0.0147765
806.395	0.0147804
806.473	0.0147636
806.551	0.0147834
806.629	0.0148595
806.707	0.0149174
806.785	0.0148357
806.863	0.0147830
806.942	0.0148190
807.020	0.0148782
807.098	0.0149953
807.176	0.0149553
807.254	0.0148634
807.332	0.0150426
807.410	0.0149072
807.488	0.0149556
807.567	0.0150144
807.645	0.0148560
807.723	0.0149637
807.801	0.0149725
807.879	0.0146821
807.957	0.0148434
808.035	0.0147230
808.113	0.0148877
808.192	0.0149372
808.270	0.0149187
808.348	0.0147495
808.426	0.0147839
808.504	0.0148209
808.582	0.0149154
808.660	0.0149408
808.738	0.0147836
808.817	0.0146877
808.895	0.0148003
808.973	0.0148527
809.051	0.0148184
809.129	0.0147859
809.207	0.0147911
809.285	0.0148435
809.363	0.0148181
809.442	0.0148006
809.520	0.0148558
809.598	0.0148853
809.676	0.0147218
809.754	0.0148796
809.832	0.0148927
809.910	0.0149113
809.988	0.0148999
810.067	0.0148019
810.145	0.0149834
810.223	0.0149721
810.301	0.0148737
810.379	0.0148949
810.457	0.0150007
810.535	0.0149649
810.613	0.0148569
810.692	0.0148581
810.770	0.0150761
810.848	0.0149963
810.926	0.0149415
811.004	0.0149816
811.082	0.0148153
811.160	0.0149584
811.238	0.0149259
811.317	0.0148921
811.395	0.0148956
811.473	0.0149632
811.551	0.0148486
811.629	0.0148490
811.707	0.0148429
811.785	0.0148262
811.863	0.0149121
811.942	0.0148855
812.020	0.0148251
812.098	0.0148643
812.176	0.0149783
812.254	0.0147250
812.332	0.0147679
812.410	0.0147874
812.488	0.0148426
812.567	0.0148139
812.645	0.0147576
812.723	0.0147424
812.801	0.0147980
812.879	0.0148158
812.957	0.0147157
813.035	0.0149361
813.113	0.0148886
813.192	0.0148322
813.270	0.0147458
813.348	0.0147485
813.426	0.0147398
813.504	0.0147064
813.582	0.0147940
813.660	0.0148259
813.738	0.0148351
813.817	0.0146835
813.895	0.0146530
813.973	0.0147363
814.051	0.0148141
814.129	0.0146801
814.207	0.0147769
814.285	0.0148533
814.363	0.0147958
814.442	0.0148075
814.520	0.0147750
814.598	0.0148177
814.676	0.0148528
814.754	0.0148322
814.832	0.0150903
814.910	0.0148806
814.988	0.0148007
815.067	0.0149318
815.145	0.0149451
815.223	0.0150218
815.301	0.0149023
815.379	0.0148951
815.457	0.0150173
815.535	0.0149107
815.613	0.0149993
815.692	0.0149503
815.770	0.0148940
815.848	0.0150011
815.926	0.0149637
816.004	0.0149880
816.082	0.0148351
816.160	0.0148128
816.238	0.0149301
816.317	0.0149294
816.395	0.0149059
816.473	0.0148231
816.551	0.0148676
816.629	0.0148882
816.707	0.0148265
816.785	0.0148180
816.863	0.0148200
816.942	0.0146829
817.020	0.0149109
817.098	0.0148462
817.176	0.0147348
817.254	0.0148104
817.332	0.0148972
817.410	0.0148587
817.488	0.0148374
817.567	0.0148998
817.645	0.0147891
817.723	0.0148654
817.801	0.0148090
817.879	0.0148462
817.957	0.0147831
818.035	0.0147694
818.113	0.0146613
818.192	0.0146972
818.270	0.0148236
818.348	0.0147877
818.426	0.0147352
818.504	0.0148119
818.582	0.0147460
818.660	0.0146674
818.738	0.0147599
818.817	0.0148293
818.895	0.0149210
818.973	0.0148429
819.051	0.0147548
819.129	0.0147242
819.207	0.0147717
819.285	0.0148634
819.363	0.0146163
819.442	0.0146809
819.520	0.0146793
819.598	0.0148950
819.676	0.0146603
819.754	0.0147364
819.832	0.0147787
819.910	0.0146073
819.988	0.0146482
820.067	0.0147276
820.145	0.0145976
820.223	0.0145916
820.301	0.0146294
820.379	0.0146567
820.457	0.0147433
820.535	0.0147404
820.613	0.0147713
820.692	0.0146745
820.770	0.0147662
820.848	0.0147884
820.926	0.0147525
821.004	0.0149588
821.082	0.0147204
821.160	0.0148162
821.238	0.0148132
821.317	0.0146259
821.395	0.0146622
821.473	0.0147195
821.551	0.0147688
821.629	0.0147343
821.707	0.0147064
821.785	0.0145846
821.863	0.0147097
821.942	0.0146044
822.020	0.0147308
822.098	0.0147087
822.176	0.0146777
822.254	0.0147717
822.332	0.0147431
822.410	0.0148289
822.488	0.0147000
822.567	0.0148006
822.645	0.0147087
822.723	0.0147819
822.801	0.0148071
822.879	0.0148396
822.957	0.0148142
823.035	0.0147407
823.113	0.0147798
823.192	0.0148603
823.270	0.0147733
823.348	0.0147014
823.426	0.0148225
823.504	0.0149359
823.582	0.0147565
823.660	0.0148156
823.738	0.0147514
823.817	0.0145709
823.895	0.0147316
823.973	0.0147031
824.051	0.0147865
824.129	0.0147807
824.207	0.0145767
824.285	0.0147083
824.363	0.0147327
824.442	0.0147464
824.520	0.0148028
824.598	0.0148401
824.676	0.0146806
824.754	0.0147801
824.832	0.0147594
824.910	0.0148241
824.988	0.0146838
825.067	0.0147356
825.145	0.0146313
825.223	0.0147220
825.301	0.0147540
825.379	0.0146970
825.457	0.0147761
825.535	0.0149091
825.613	0.0146859
825.692	0.0146774
825.770	0.0147203
825.848	0.0149094
825.926	0.0146421
826.004	0.0148414
826.082	0.0147675
826.160	0.0148091
826.238	0.0148977
826.317	0.0147663
826.395	0.0147723
826.473	0.0148375
826.551	0.0148183
826.629	0.0148972
826.707	0.0149127
826.785	0.0147265
826.863	0.0148843
826.942	0.0150087
827.020	0.0148032
827.098	0.0148911
827.176	0.0149048
827.254	0.0148650
827.332	0.0149291
827.410	0.0148208
827.488	0.0149361
827.567	0.0149170
827.645	0.0148150
827.723	0.0148339
827.801	0.0147413
827.879	0.0148983
827.957	0.0147832
828.035	0.0148038
828.113	0.0148811
828.192	0.0147923
828.270	0.0147916
828.348	0.0148264
828.426	0.0148818
828.504	0.0148687
828.582	0.0149070
828.660	0.0148150
828.738	0.0148763
828.817	0.0148155
828.895	0.0149332
828.973	0.0148302
829.051	0.0148857
829.129	0.0149153
829.207	0.0148299
829.285	0.0148088
829.363	0.0148769
829.442	0.0148235
829.520	0.0148370
829.598	0.0148302
829.676	0.0148801
829.754	0.0149331
829.832	0.0148354
829.910	0.0148246
829.988	0.0149429
830.067	0.0149100
830.145	0.0150085
830.223	0.0149170
830.301	0.0149278
830.379	0.0149451
830.457	0.0148909
830.535	0.0150201
830.613	0.0150693
830.692	0.0150271
830.770	0.0149895
830.848	0.0150455
830.926	0.0149064
831.004	0.0149672
831.082	0.0151500
831.160	0.0150407
831.238	0.0150089
831.317	0.0149960
831.395	0.0150967
831.473	0.0150305
831.551	0.0149889
831.629	0.0150257
831.707	0.0150522
831.785	0.0151423
831.863	0.0150192
831.942	0.0150403
832.020	0.0150164
832.098	0.0150224
832.176	0.0149746
832.254	0.0149064
832.332	0.0149324
832.410	0.0148421
832.488	0.0148956
832.567	0.0150235
832.645	0.0149766
832.723	0.0149519
832.801	0.0147719
832.879	0.0149875
832.957	0.0149039
833.035	0.0147009
833.113	0.0147746
833.192	0.0148194
833.270	0.0146935
833.348	0.0149244
833.426	0.0149125
833.504	0.0148911
833.582	0.0148745
833.660	0.0147775
833.738	0.0148260
833.817	0.0148908
833.895	0.0148904
833.973	0.0147879
834.051	0.0148543
834.129	0.0148125
834.207	0.0148759
834.285	0.0148911
834.363	0.0148969
834.442	0.0148766
834.520	0.0148915
834.598	0.0149661
834.676	0.0150874
834.754	0.0150338
834.832	0.0150648
834.910	0.0148135
834.988	0.0149434
835.067	0.0149264
835.145	0.0149455
835.223	0.0149613
835.301	0.0150006
835.379	0.0149055
835.457	0.0149492
835.535	0.0150395
835.613	0.0149054
835.692	0.0150565
835.770	0.0150238
835.848	0.0152083
835.926	0.0150838
836.004	0.0150667
836.082	0.0149841
836.160	0.0149556
836.238	0.0151012
836.317	0.0150997
836.395	0.0150359
836.473	0.0149046
836.551	0.0150156
836.629	0.0148938
836.707	0.0149273
836.785	0.0149843
836.863	0.0148776
836.942	0.0149375
837.020	0.0147009
837.098	0.0148104
837.176	0.0148231
837.254	0.0148460
837.332	0.0149157
837.410	0.0147072
837.488	0.0147057
837.567	0.0146573
837.645	0.0149908
837.723	0.0148683
837.801	0.0147713
837.879	0.0147748
837.957	0.0149065
838.035	0.0148358
838.113	0.0148540
838.192	0.0148254
838.270	0.0148389
838.348	0.0147984
838.426	0.0147692
838.504	0.0147697
838.582	0.0148370
838.660	0.0147623
838.738	0.0148260
838.817	0.0148340
838.895	0.0148769
838.973	0.0148036
839.051	0.0147964
839.129	0.0149532
839.207	0.0149337
839.285	0.0148080
839.363	0.0148941
839.442	0.0150108
839.520	0.0150262
839.598	0.0148930
839.676	0.0149231
839.754	0.0148154
839.832	0.0148583
839.910	0.0148399
839.988	0.0148891
840.067	0.0148768
840.145	0.0149471
840.223	0.0149061
840.301	0.0147556
840.379	0.0148038
840.457	0.0147542
840.535	0.0147964
840.613	0.0148960
840.692	0.0148682
840.770	0.0147736
840.848	0.0147740
840.926	0.0148415
841.004	0.0148328
841.082	0.0149103
841.160	0.0150254
841.238	0.0147498
841.317	0.0149084
841.395	0.0148575
841.473	0.0149174
841.551	0.0147243
841.629	0.0146976
841.707	0.0145774
841.785	0.0147867
841.863	0.0149377
841.942	0.0146670
842.020	0.0145807
842.098	0.0146792
842.176	0.0146936
842.254	0.0146277
842.332	0.0147862
842.410	0.0149230
842.488	0.0148033
842.567	0.0146252
842.645	0.0146193
842.723	0.0146397
842.801	0.0148845
842.879	0.0147112
842.957	0.0147587
843.035	0.0147118
843.113	0.0148405
843.192	0.0148559
843.270	0.0147819
843.348	0.0147406
843.426	0.0147410
843.504	0.0147524
843.582	0.0148263
843.660	0.0147640
843.738	0.0147173
843.817	0.0147618
843.895	0.0148411
843.973	0.0147291
844.051	0.0147066
844.129	0.0146740
844.207	0.0147089
844.285	0.0147594
844.363	0.0146735
844.442	0.0146320
844.520	0.0146886
844.598	0.0147539
844.676	0.0146836
844.754	0.0147175
844.832	0.0146898
844.910	0.0146159
844.988	0.0147755
845.067	0.0148410
845.145	0.0146937
845.223	0.0148465
845.301	0.0148086
845.379	0.0146675
845.457	0.0147351
845.535	0.0147366
845.613	0.0147245
845.692	0.0147939
845.770	0.0148973
845.848	0.0147969
845.926	0.0146982
846.004	0.0147421
846.082	0.0147691
846.160	0.0147466
846.238	0.0147771
846.317	0.0148611
846.395	0.0147813
846.473	0.0149445
846.551	0.0147332
846.629	0.0146926
846.707	0.0147886
846.785	0.0149514
846.863	0.0148438
846.942	0.0149112
847.020	0.0147580
847.098	0.0148109
847.176	0.0150534
847.254	0.0149303
847.332	0.0148440
847.410	0.0148866
847.488	0.0147814
847.567	0.0149276
847.645	0.0148193
847.723	0.0148305
847.801	0.0149671
847.879	0.0149915
847.957	0.0147855
848.035	0.0146938
848.113	0.0147432
848.192	0.0148211
848.270	0.0147682
848.348	0.0148262
848.426	0.0149028
848.504	0.0148244
848.582	0.0147813
848.660	0.0148218
848.738	0.0147702
848.817	0.0148956
848.895	0.0148898
848.973	0.0147620
849.051	0.0148889
849.129	0.0148025
849.207	0.0148180
849.285	0.0148679
849.363	0.0149715
849.442	0.0147693
849.520	0.0147919
849.598	0.0149295
849.676	0.0148952
849.754	0.0150235
849.832	0.0149180
849.910	0.0148545
849.988	0.0148776
850.067	0.0148311
850.145	0.0147882
850.223	0.0149879
850.301	0.0147778
850.379	0.0146746
850.457	0.0147765
850.535	0.0147513
850.613	0.0147993
850.692	0.0146230
850.770	0.0148645
850.848	0.0148282
850.926	0.0147832
851.004	0.0149413
851.082	0.0147850
851.160	0.0147356
851.238	0.0148209
851.317	0.0148316
851.395	0.0148827
851.473	0.0149548
851.551	0.0148702
851.629	0.0147611
851.707	0.0148374
851.785	0.0148981
851.863	0.0148889
851.942	0.0147656
852.020	0.0148405
852.098	0.0148978
852.176	0.0149716
852.254	0.0148418
852.332	0.0148027
852.410	0.0148920
852.488	0.0148558
852.567	0.0149692
852.645	0.0149203
852.723	0.0148572
852.801	0.0149239
852.879	0.0149472
852.957	0.0149724
853.035	0.0147917
853.113	0.0149054
853.192	0.0148860
853.270	0.0148753
853.348	0.0148007
853.426	0.0148966
853.504	0.0148231
853.582	0.0149465
853.660	0.0149519
853.738	0.0149500
853.817	0.0147993
853.895	0.0148932
853.973	0.0149121
854.051	0.0149295
854.129	0.0149121
854.207	0.0149684
854.285	0.0148683
854.363	0.0148653
854.442	0.0148368
854.520	0.0148236
854.598	0.0147787
854.676	0.0148953
854.754	0.0150009
854.832	0.0147813
854.910	0.0148499
854.988	0.0148824
855.067	0.0149702
855.145	0.0147574
855.223	0.0147649
855.301	0.0149836
855.379	0.0147742
855.457	0.0147136
855.535	0.0147955
855.613	0.0147684
855.692	0.0148165
855.770	0.0148990
855.848	0.0148476
855.926	0.0149978
856.004	0.0148183
856.082	0.0147790
856.160	0.0148664
856.238	0.0149202
856.317	0.0147928
856.395	0.0148228
856.473	0.0149655
856.551	0.0147589
856.629	0.0148365
856.707	0.0148635
856.785	0.0149499
856.863	0.0147778
856.942	0.0148506
857.020	0.0149772
857.098	0.0148431
857.176	0.0147690
857.254	0.0147601
857.332	0.0149336
857.410	0.0149632
857.488	0.0148070
857.567	0.0148048
857.645	0.0148926
857.723	0.0148129
857.801	0.0147990
857.879	0.0148657
857.957	0.0148630
858.035	0.0148698
858.113	0.0147994
858.192	0.0148036
858.270	0.0149087
858.348	0.0148889
858.426	0.0149760
858.504	0.0149561
858.582	0.0148542
858.660	0.0148433
858.738	0.0149652
858.817	0.0148046
858.895	0.0148528
858.973	0.0148959
859.051	0.0148527
859.129	0.0148215
859.207	0.0148649
859.285	0.0148424
859.363	0.0148090
859.442	0.0147520
859.520	0.0147659
859.598	0.0148347
859.676	0.0146802
859.754	0.0148602
859.832	0.0147964
859.910	0.0145879
859.988	0.0147620
860.067	0.0147469
860.145	0.0147842
860.223	0.0147448
860.301	0.0148163
860.379	0.0149090
860.457	0.0147664
860.535	0.0148517
860.613	0.0147667
860.692	0.0148298
860.770	0.0148073
860.848	0.0149026
860.926	0.0148844
861.004	0.0148516
861.082	0.0149274
861.160	0.0147279
861.238	0.0149706
861.317	0.0148687
861.395	0.0148647
861.473	0.0148443
861.551	0.0149129
861.629	0.0150437
861.707	0.0148830
861.785	0.0150114
861.863	0.0150208
861.942	0.0148997
862.020	0.0149502
862.098	0.0149607
862.176	0.0149288
862.254	0.0149510
862.332	0.0148990
862.410	0.0148593
862.488	0.0148383
862.567	0.0148424
862.645	0.0148430
862.723	0.0148244
862.801	0.0148522
862.879	0.0149049
862.957	0.0149019
863.035	0.0148238
863.113	0.0147301
863.192	0.0147018
863.270	0.0147646
863.348	0.0148228
863.426	0.0146424
863.504	0.0147558
863.582	0.0148808
863.660	0.0147919
863.738	0.0147498
863.817	0.0147926
863.895	0.0147340
863.973	0.0147479
864.051	0.0147897
864.129	0.0147578
864.207	0.0148393
864.285	0.0148470
864.363	0.0148339
864.442	0.0148187
864.520	0.0148489
864.598	0.0148383
864.676	0.0149522
864.754	0.0150101
864.832	0.0149490
864.910	0.0148282
864.988	0.0148434
865.067	0.0149046
865.145	0.0148507
865.223	0.0149558
865.301	0.0148744
865.379	0.0148168
865.457	0.0149105
865.535	0.0148136
865.613	0.0148475
865.692	0.0147523
865.770	0.0148672
865.848	0.0149170
865.926	0.0147678
866.004	0.0147874
866.082	0.0148617
866.160	0.0148696
866.238	0.0148196
866.317	0.0148283
866.395	0.0148154
866.473	0.0149404
866.551	0.0149148
866.629	0.0147557
866.707	0.0148718
866.785	0.0148315
866.863	0.0147804
866.942	0.0147604
867.020	0.0148363
867.098	0.0147371
867.176	0.0148106
867.254	0.0148122
867.332	0.0147826
867.410	0.0147575
867.488	0.0147614
867.567	0.0147816
867.645	0.0148696
867.723	0.0148252
867.801	0.0148858
867.879	0.0147221
867.957	0.0149093
868.035	0.0147803
868.113	0.0148421
868.192	0.0148457
868.270	0.0147853
868.348	0.0148486
868.426	0.0148438
868.504	0.0147200
868.582	0.0149455
868.660	0.0147809
868.738	0.0147458
868.817	0.0147787
868.895	0.0148291
868.973	0.0148042
869.051	0.0148518
869.129	0.0146893
869.207	0.0150067
869.285	0.0148407
869.363	0.0148656
869.442	0.0148397
869.520	0.0147287
869.598	0.0147804
869.676	0.0148590
869.754	0.0147994
869.832	0.0149185
869.910	0.0149056
869.988	0.0148906
870.067	0.0148850
870.145	0.0149849
870.223	0.0147564
870.301	0.0148234
870.379	0.0149220
870.457	0.0148327
870.535	0.0148264
870.613	0.0147500
870.692	0.0148385
870.770	0.0148702
870.848	0.0148006
870.926	0.0149699
871.004	0.0149169
871.082	0.0147892
871.160	0.0148572
871.238	0.0148800
871.317	0.0149542
871.395	0.0148248
871.473	0.0149542
871.551	0.0149164
871.629	0.0149526
871.707	0.0149242
871.785	0.0149603
871.863	0.0148892
871.942	0.0149430
872.020	0.0149717
872.098	0.0148699
872.176	0.0149014
872.254	0.0148273
872.332	0.0150009
872.410	0.0148544
872.488	0.0147251
872.567	0.0147628
872.645	0.0148852
872.723	0.0148894
872.801	0.0147742
872.879	0.0149091
872.957	0.0148753
873.035	0.0147475
873.113	0.0148172
873.192	0.0148921
873.270	0.0148718
873.348	0.0149946
873.426	0.0149292
873.504	0.0149389
873.582	0.0148556
873.660	0.0147540
873.738	0.0148537
873.817	0.0149239
873.895	0.0148936
873.973	0.0149529
874.051	0.0149348
874.129	0.0148615
874.207	0.0148124
874.285	0.0148837
874.363	0.0148524
874.442	0.0148474
874.520	0.0148750
874.598	0.0148673
874.676	0.0147653
874.754	0.0146979
874.832	0.0146919
874.910	0.0147952
874.988	0.0149438
875.067	0.0147402
875.145	0.0146880
875.223	0.0148227
875.301	0.0148361
875.379	0.0149046
875.457	0.0148948
875.535	0.0146588
875.613	0.0147671
875.692	0.0148499
875.770	0.0148376
875.848	0.0149290
875.926	0.0148749
876.004	0.0148808
876.082	0.0148127
876.160	0.0149090
876.238	0.0148753
876.317	0.0148212
876.395	0.0147754
876.473	0.0149084
876.551	0.0148025
876.629	0.0149259
876.707	0.0150050
876.785	0.0147865
876.863	0.0149459
876.942	0.0148531
877.020	0.0148169
877.098	0.0148375
877.176	0.0148467
877.254	0.0146914
877.332	0.0149551
877.410	0.0148876
877.488	0.0147503
877.567	0.0148429
877.645	0.0148078
877.723	0.0145889
877.801	0.0147455
877.879	0.0148009
877.957	0.0147166
878.035	0.0148520
878.113	0.0147636
878.192	0.0147031
878.270	0.0147071
878.348	0.0146349
878.426	0.0145082
878.504	0.0148689
878.582	0.0147642
878.660	0.0145538
878.738	0.0147092
878.817	0.0146121
878.895	0.0146540
878.973	0.0149663
879.051	0.0146983
879.129	0.0147362
879.207	0.0148129
879.285	0.0148789
879.363	0.0147620
879.442	0.0147556
879.520	0.0148289
879.598	0.0147513
879.676	0.0147454
879.754	0.0148878
879.832	0.0147886
879.910	0.0147414
879.988	0.0148081
880.067	0.0148624
880.145	0.0149158
880.223	0.0148508
880.301	0.0149112
880.379	0.0148513
880.457	0.0148817
880.535	0.0147444
880.613	0.0146965
880.692	0.0148441
880.770	0.0148099
880.848	0.0147213
880.926	0.0148093
881.004	0.0149167
881.082	0.0149106
881.160	0.0148978
881.238	0.0147303
881.317	0.0148536
881.395	0.0147598
881.473	0.0149120
881.551	0.0148120
881.629	0.0148084
881.707	0.0149023
881.785	0.0148860
881.863	0.0147808
881.942	0.0146384
882.020	0.0149509
882.098	0.0147732
882.176	0.0148373
882.254	0.0148966
882.332	0.0149150
882.410	0.0148139
882.488	0.0148012
882.567	0.0147868
882.645	0.0148004
882.723	0.0148637
882.801	0.0148127
882.879	0.0148082
882.957	0.0147756
883.035	0.0147839
883.113	0.0147711
883.192	0.0148584
883.270	0.0148354
883.348	0.0148446
883.426	0.0148508
883.504	0.0147373
883.582	0.0149297
883.660	0.0148883
883.738	0.0148182
883.817	0.0148573
883.895	0.0148911
883.973	0.0148033
884.051	0.0148958
884.129	0.0148420
884.207	0.0148831
884.285	0.0147876
884.363	0.0149174
884.442	0.0149188
884.520	0.0147845
884.598	0.0148051
884.676	0.0149475
884.754	0.0149265
884.832	0.0149563
884.910	0.0149700
884.988	0.0148224
885.067	0.0149091
885.145	0.0150458
885.223	0.0149055
885.301	0.0149696
885.379	0.0151052
885.457	0.0148394
885.535	0.0149718
885.613	0.0149187
885.692	0.0150162
885.770	0.0150473
885.848	0.0149091
885.926	0.0150486
886.004	0.0148788
886.082	0.0148254
886.160	0.0148738
886.238	0.0148545
886.317	0.0148627
886.395	0.0149524
886.473	0.0150481
886.551	0.0147066
886.629	0.0149212
886.707	0.0149837
886.785	0.0149204
886.863	0.0150050
886.942	0.0148804
887.020	0.0149549
887.098	0.0150291
887.176	0.0150022
887.254	0.0149626
887.332	0.0148529
887.410	0.0150723
887.488	0.0148895
887.567	0.0149626
887.645	0.0148695
887.723	0.0148253
887.801	0.0148787
887.879	0.0149053
887.957	0.0149570
888.035	0.0147564
888.113	0.0149010
888.192	0.0149113
888.270	0.0148161
888.348	0.0148879
888.426	0.0148174
888.504	0.0150125
888.582	0.0149852
888.660	0.0149419
888.738	0.0148219
888.817	0.0148146
888.895	0.0148690
888.973	0.0149637
889.051	0.0148454
889.129	0.0149458
889.207	0.0148923
889.285	0.0148708
889.363	0.0147784
889.442	0.0148397
889.520	0.0148844
889.598	0.0148391
889.676	0.0149011
889.754	0.0148743
889.832	0.0149918
889.910	0.0148409
889.988	0.0149222
890.067	0.0148642
890.145	0.0148962
890.223	0.0147365
890.301	0.0149564
890.379	0.0148721
890.457	0.0147299
890.535	0.0147954
890.613	0.0147501
890.692	0.0148434
890.770	0.0148289
890.848	0.0148384
890.926	0.0148669
891.004	0.0148419
891.082	0.0150103
891.160	0.0147086
891.238	0.0147171
891.317	0.0148253
891.395	0.0147855
891.473	0.0147166
891.551	0.0148685
891.629	0.0149706
891.707	0.0149328
891.785	0.0147466
891.863	0.0147044
891.942	0.0148355
892.020	0.0147738
892.098	0.0147906
892.176	0.0147404
892.254	0.0149406
892.332	0.0148128
892.410	0.0148280
892.488	0.0148998
892.567	0.0149371
892.645	0.0147318
892.723	0.0148345
892.801	0.0149803
892.879	0.0148999
892.957	0.0150551
893.035	0.0148843
893.113	0.0147907
893.192	0.0148689
893.270	0.0147895
893.348	0.0148038
893.426	0.0148441
893.504	0.0148322
893.582	0.0148350
893.660	0.0147845
893.738	0.0148255
893.817	0.0148490
893.895	0.0148718
893.973	0.0149271
894.051	0.0148224
894.129	0.0150165
894.207	0.0149314
894.285	0.0148528
894.363	0.0149522
894.442	0.0149659
894.520	0.0149312
894.598	0.0150096
894.676	0.0149066
894.754	0.0148367
894.832	0.0149364
894.910	0.0149464
894.988	0.0149022
895.067	0.0148486
895.145	0.0148186
895.223	0.0148689
895.301	0.0150171
895.379	0.0148167
895.457	0.0147607
895.535	0.0148629
895.613	0.0148518
895.692	0.0148003
895.770	0.0148357
895.848	0.0146671
895.926	0.0148167
896.004	0.0147840
896.082	0.0146198
896.160	0.0147845
896.238	0.0149387
896.317	0.0147222
896.395	0.0146551
896.473	0.0148090
896.551	0.0148529
896.629	0.0148985
896.707	0.0148708
896.785	0.0147469
896.863	0.0146681
896.942	0.0147603
897.020	0.0146998
897.098	0.0147617
897.176	0.0148634
897.254	0.0147794
897.332	0.0147364
897.410	0.0147054
897.488	0.0147709
897.567	0.0149152
897.645	0.0147527
897.723	0.0148077
897.801	0.0149304
897.879	0.0147402
897.957	0.0146704
898.035	0.0147521
898.113	0.0148307
898.192	0.0147563
898.270	0.0147872
898.348	0.0148237
898.426	0.0148154
898.504	0.0146539
898.582	0.0147406
898.660	0.0146965
898.738	0.0147611
898.817	0.0147572
898.895	0.0147187
898.973	0.0146854
899.051	0.0146426
899.129	0.0148130
899.207	0.0147920
899.285	0.0148499
899.363	0.0148528
899.442	0.0147338
899.520	0.0148734
899.598	0.0149081
899.676	0.0148760
899.754	0.0147373
899.832	0.0147514
899.910	0.0149011
899.988	0.0149103
900.067	0.0148641
900.145	0.0148059
900.223	0.0148112
900.301	0.0148768
900.379	0.0148523
900.457	0.0148643
900.535	0.0147569
900.613	0.0149230
900.692	0.0147832
900.770	0.0150314
900.848	0.0149974
900.926	0.0147855
901.004	0.0148605
901.082	0.0148739
901.160	0.0149095
901.238	0.0149356
901.317	0.0150492
901.395	0.0148763
901.473	0.0149554
901.551	0.0150474
901.629	0.0148813
901.707	0.0148940
901.785	0.0149008
901.863	0.0150002
901.942	0.0148235
902.020	0.0148674
902.098	0.0150584
902.176	0.0149948
902.254	0.0148928
902.332	0.0150079
902.410	0.0150355
902.488	0.0151007
902.567	0.0151364
902.645	0.0149907
902.723	0.0148881
902.801	0.0149214
902.879	0.0150320
902.957	0.0149784
903.035	0.0149252
903.113	0.0149558
903.192	0.0149347
903.270	0.0147844
903.348	0.0149205
903.426	0.0148939
903.504	0.0149577
903.582	0.0148412
903.660	0.0148122
903.738	0.0149166
903.817	0.0149697
903.895	0.0148727
903.973	0.0147036
904.051	0.0149081
904.129	0.0148683
904.207	0.0149080
904.285	0.0146415
904.363	0.0149015
904.442	0.0149385
904.520	0.0148333
904.598	0.0148270
904.676	0.0147942
904.754	0.0148979
904.832	0.0149472
904.910	0.0147181
904.988	0.0147961
905.067	0.0149162
905.145	0.0146495
905.223	0.0148017
905.301	0.0149537
905.379	0.0148981
905.457	0.0147096
905.535	0.0148208
905.613	0.0149248
905.692	0.0147901
905.770	0.0147327
905.848	0.0148944
905.926	0.0148647
906.004	0.0149640
906.082	0.0148135
906.160	0.0149343
906.238	0.0148534
906.317	0.0149443
906.395	0.0149558
906.473	0.0150463
906.551	0.0148315
906.629	0.0148363
906.707	0.0149498
906.785	0.0148827
906.863	0.0150616
906.942	0.0149809
907.020	0.0148823
907.098	0.0149134
907.176	0.0149885
907.254	0.0148998
907.332	0.0148831
907.410	0.0149825
907.488	0.0148692
907.567	0.0147590
907.645	0.0150273
907.723	0.0149502
907.801	0.0148025
907.879	0.0148862
907.957	0.0148064
908.035	0.0150049
908.113	0.0149244
908.192	0.0149741
908.270	0.0148919
908.348	0.0147897
908.426	0.0149694
908.504	0.0151297
908.582	0.0149606
908.660	0.0148277
908.738	0.0150223
908.817	0.0150047
908.895	0.0149021
908.973	0.0150957
909.051	0.0151295
909.129	0.0149442
909.207	0.0150999
909.285	0.0150544
909.363	0.0151118
909.442	0.0151234
909.520	0.0149895
909.598	0.0149499
909.676	0.0148065
909.754	0.0148426
909.832	0.0148912
909.910	0.0150313
909.988	0.0151212
910.067	0.0150439
910.145	0.0150512
910.223	0.0148489
910.301	0.0149551
910.379	0.0149400
910.457	0.0149458
910.535	0.0149730
910.613	0.0149258
910.692	0.0149760
910.770	0.0149786
910.848	0.0149048
910.926	0.0149076
911.004	0.0148794
911.082	0.0149124
911.160	0.0148943
911.238	0.0149360
911.317	0.0149548
911.395	0.0150790
911.473	0.0149454
911.551	0.0149548
911.629	0.0149535
911.707	0.0149796
911.785	0.0149082
911.863	0.0150675
911.942	0.0148782
912.020	0.0148270
912.098	0.0148649
912.176	0.0148075
912.254	0.0148221
912.332	0.0147997
912.410	0.0146799
912.488	0.0146640
912.567	0.0147830
912.645	0.0148527
912.723	0.0146657
912.801	0.0146407
912.879	0.0146806
912.957	0.0147596
913.035	0.0146926
913.113	0.0147858
913.192	0.0146913
913.270	0.0147195
913.348	0.0146920
913.426	0.0146386
913.504	0.0146403
913.582	0.0147233
913.660	0.0147753
913.738	0.0148106
913.817	0.0147361
913.895	0.0146025
913.973	0.0146787
914.051	0.0148405
914.129	0.0147159
914.207	0.0147121
914.285	0.0148756
914.363	0.0147485
914.442	0.0146927
914.520	0.0146405
914.598	0.0149092
914.676	0.0149067
914.754	0.0147705
914.832	0.0147057
914.910	0.0147212
914.988	0.0147757
915.067	0.0147321
915.145	0.0148232
915.223	0.0148291
915.301	0.0146719
915.379	0.0147897
915.457	0.0146944
915.535	0.0147356
915.613	0.0147787
915.692	0.0148180
915.770	0.0147875
915.848	0.0147076
915.926	0.0148538
916.004	0.0149038
916.082	0.0147509
916.160	0.0146877
916.238	0.0148362
916.317	0.0147452
916.395	0.0147142
916.473	0.0148021
916.551	0.0148784
916.629	0.0148038
916.707	0.0147536
916.785	0.0148516
916.863	0.0148335
916.942	0.0148595
917.020	0.0148290
917.098	0.0148137
917.176	0.0147834
917.254	0.0147884
917.332	0.0148754
917.410	0.0148342
917.488	0.0148145
917.567	0.0146432
917.645	0.0146771
917.723	0.0147996
917.801	0.0146341
917.879	0.0147768
917.957	0.0147847
918.035	0.0148651
918.113	0.0147798
918.192	0.0147749
918.270	0.0147733
918.348	0.0147658
918.426	0.0148385
918.504	0.0148750
918.582	0.0147796
918.660	0.0148611
918.738	0.0148209
918.817	0.0148783
918.895	0.0148949
918.973	0.0148745
919.051	0.0147895
919.129	0.0148595
919.207	0.0148824
919.285	0.0148148
919.363	0.0147878
919.442	0.0151160
919.520	0.0146705
919.598	0.0147458
919.676	0.0149027
919.754	0.0149632
919.832	0.0148411
919.910	0.0148556
