05/28/2022	14:26:42	Ver.	4.1	UNKNOWN
Optical Delay	599.988409	Delta X		0.078125	Sweeps	1	Scan Rate	0/0
Coordinates	Axis 1	NaN	Axis 2	NaN	Axis 3	NaN	Axis 4	NaN	Axis 5	NaN	Axis 6	0.000000
TX Power	0.000000	RX Power	0.000000

599.988	0.0148407
600.067	0.0149600
600.145	0.0148517
600.223	0.0148414
600.301	0.0148706
600.379	0.0149640
600.457	0.0148649
600.535	0.0147278
600.613	0.0148750
600.692	0.0148193
600.770	0.0148228
600.848	0.0148435
600.926	0.0147508
601.004	0.0147065
601.082	0.0148385
601.160	0.0148276
601.238	0.0147760
601.317	0.0149622
601.395	0.0148830
601.473	0.0147771
601.551	0.0147065
601.629	0.0148146
601.707	0.0148234
601.785	0.0148558
601.863	0.0148789
601.942	0.0149594
602.020	0.0149310
602.098	0.0148716
602.176	0.0147858
602.254	0.0148402
602.332	0.0148797
602.410	0.0149390
602.488	0.0148655
602.567	0.0149895
602.645	0.0148891
602.723	0.0149205
602.801	0.0148672
602.879	0.0148537
602.957	0.0149797
603.035	0.0150277
603.113	0.0149302
603.192	0.0150488
603.270	0.0149356
603.348	0.0148869
603.426	0.0148479
603.504	0.0149605
603.582	0.0149255
603.660	0.0148265
603.738	0.0148306
603.817	0.0149933
603.895	0.0149747
603.973	0.0149918
604.051	0.0149219
604.129	0.0149352
604.207	0.0149854
604.285	0.0149374
604.363	0.0149188
604.442	0.0149908
604.520	0.0149972
604.598	0.0148794
604.676	0.0149033
604.754	0.0149883
604.832	0.0149490
604.910	0.0150073
604.988	0.0148473
605.067	0.0149618
605.145	0.0149329
605.223	0.0150131
605.301	0.0151071
605.379	0.0150134
605.457	0.0149860
605.535	0.0149854
605.613	0.0149509
605.692	0.0148571
605.770	0.0149237
605.848	0.0149938
605.926	0.0149135
606.004	0.0146757
606.082	0.0147935
606.160	0.0148826
606.238	0.0150513
606.317	0.0148717
606.395	0.0149431
606.473	0.0149605
606.551	0.0150242
606.629	0.0149223
606.707	0.0149894
606.785	0.0148215
606.863	0.0148994
606.942	0.0148793
607.020	0.0148668
607.098	0.0150066
607.176	0.0149741
607.254	0.0148933
607.332	0.0149026
607.410	0.0149804
607.488	0.0149361
607.567	0.0148925
607.645	0.0149509
607.723	0.0149540
607.801	0.0148235
607.879	0.0148312
607.957	0.0149043
608.035	0.0149455
608.113	0.0148325
608.192	0.0149402
608.270	0.0149555
608.348	0.0149023
608.426	0.0147992
608.504	0.0148524
608.582	0.0147913
608.660	0.0149530
608.738	0.0148469
608.817	0.0147787
608.895	0.0147695
608.973	0.0147249
609.051	0.0146704
609.129	0.0146999
609.207	0.0146586
609.285	0.0146975
609.363	0.0147042
609.442	0.0147679
609.520	0.0146665
609.598	0.0148203
609.676	0.0148338
609.754	0.0146847
609.832	0.0148520
609.910	0.0147659
609.988	0.0149565
610.067	0.0149169
610.145	0.0149073
610.223	0.0150311
610.301	0.0150185
610.379	0.0150953
610.457	0.0149496
610.535	0.0151357
610.613	0.0151726
610.692	0.0149508
610.770	0.0151829
610.848	0.0151406
610.926	0.0151022
611.004	0.0151065
611.082	0.0151378
611.160	0.0150442
611.238	0.0149772
611.317	0.0149570
611.395	0.0149554
611.473	0.0149432
611.551	0.0148264
611.629	0.0147898
611.707	0.0148324
611.785	0.0147913
611.863	0.0148159
611.942	0.0147517
612.020	0.0147010
612.098	0.0147209
612.176	0.0146817
612.254	0.0147444
612.332	0.0148278
612.410	0.0147929
612.488	0.0148959
612.567	0.0147606
612.645	0.0146136
612.723	0.0148283
612.801	0.0149450
612.879	0.0148056
612.957	0.0148447
613.035	0.0147160
613.113	0.0146855
613.192	0.0148609
613.270	0.0147135
613.348	0.0147640
613.426	0.0147298
613.504	0.0148648
613.582	0.0148450
613.660	0.0147054
613.738	0.0147178
613.817	0.0147259
613.895	0.0148010
613.973	0.0149236
614.051	0.0148643
614.129	0.0148723
614.207	0.0147617
614.285	0.0148868
614.363	0.0148466
614.442	0.0148927
614.520	0.0148284
614.598	0.0147771
614.676	0.0148777
614.754	0.0150365
614.832	0.0149097
614.910	0.0148102
614.988	0.0149635
615.067	0.0150187
615.145	0.0149546
615.223	0.0151022
615.301	0.0148660
615.379	0.0149477
615.457	0.0150356
615.535	0.0150689
615.613	0.0150670
615.692	0.0149974
615.770	0.0151471
615.848	0.0151000
615.926	0.0148643
616.004	0.0149944
616.082	0.0149127
616.160	0.0148123
616.238	0.0150026
616.317	0.0149256
616.395	0.0149830
616.473	0.0148707
616.551	0.0149068
616.629	0.0148431
616.707	0.0149960
616.785	0.0150636
616.863	0.0149236
616.942	0.0148224
617.020	0.0149722
617.098	0.0149081
617.176	0.0149956
617.254	0.0149106
617.332	0.0150655
617.410	0.0148578
617.488	0.0149322
617.567	0.0148566
617.645	0.0148687
617.723	0.0149094
617.801	0.0148141
617.879	0.0148846
617.957	0.0149261
618.035	0.0148381
618.113	0.0147346
618.192	0.0148721
618.270	0.0147064
618.348	0.0147891
618.426	0.0148464
618.504	0.0148125
618.582	0.0149641
618.660	0.0149302
618.738	0.0149374
618.817	0.0147122
618.895	0.0148405
618.973	0.0148914
619.051	0.0148212
619.129	0.0147964
619.207	0.0149078
619.285	0.0148614
619.363	0.0147304
619.442	0.0148697
619.520	0.0148205
619.598	0.0149408
619.676	0.0148424
619.754	0.0148563
619.832	0.0149352
619.910	0.0149142
619.988	0.0148177
620.067	0.0148125
620.145	0.0149178
620.223	0.0148109
620.301	0.0148872
620.379	0.0147730
620.457	0.0147389
620.535	0.0148044
620.613	0.0150635
620.692	0.0149061
620.770	0.0150009
620.848	0.0149229
620.926	0.0148145
621.004	0.0149230
621.082	0.0148443
621.160	0.0148621
621.238	0.0150584
621.317	0.0149016
621.395	0.0147922
621.473	0.0147775
621.551	0.0149438
621.629	0.0149600
621.707	0.0148737
621.785	0.0147311
621.863	0.0148981
621.942	0.0149686
622.020	0.0148702
622.098	0.0147992
622.176	0.0150108
622.254	0.0149278
622.332	0.0148395
622.410	0.0148687
622.488	0.0148544
622.567	0.0148515
622.645	0.0148011
622.723	0.0149335
622.801	0.0148680
622.879	0.0147805
622.957	0.0148055
623.035	0.0148798
623.113	0.0148965
623.192	0.0148681
623.270	0.0149071
623.348	0.0148618
623.426	0.0149868
623.504	0.0149671
623.582	0.0148446
623.660	0.0148391
623.738	0.0148653
623.817	0.0149833
623.895	0.0149371
623.973	0.0148644
624.051	0.0147380
624.129	0.0148251
624.207	0.0148795
624.285	0.0149520
624.363	0.0149395
624.442	0.0149443
624.520	0.0149043
624.598	0.0148674
624.676	0.0148999
624.754	0.0148546
624.832	0.0150180
624.910	0.0149921
624.988	0.0147963
625.067	0.0149253
625.145	0.0149621
625.223	0.0149085
625.301	0.0149064
625.379	0.0148783
625.457	0.0149893
625.535	0.0149788
625.613	0.0149301
625.692	0.0149820
625.770	0.0149556
625.848	0.0149612
625.926	0.0149335
626.004	0.0149715
626.082	0.0149428
626.160	0.0149351
626.238	0.0148621
626.317	0.0149368
626.395	0.0149252
626.473	0.0149567
626.551	0.0148474
626.629	0.0150329
626.707	0.0148801
626.785	0.0149583
626.863	0.0149404
626.942	0.0147911
627.020	0.0148901
627.098	0.0149997
627.176	0.0150204
627.254	0.0149472
627.332	0.0148921
627.410	0.0149915
627.488	0.0149690
627.567	0.0150627
627.645	0.0148808
627.723	0.0150465
627.801	0.0148431
627.879	0.0149846
627.957	0.0148676
628.035	0.0149603
628.113	0.0150069
628.192	0.0150428
628.270	0.0149142
628.348	0.0149716
628.426	0.0150327
628.504	0.0151043
628.582	0.0149577
628.660	0.0150505
628.738	0.0149725
628.817	0.0148940
628.895	0.0151038
628.973	0.0150914
629.051	0.0150348
629.129	0.0151051
629.207	0.0149837
629.285	0.0149612
629.363	0.0150615
629.442	0.0150515
629.520	0.0149323
629.598	0.0149853
629.676	0.0150889
629.754	0.0150605
629.832	0.0149667
629.910	0.0150065
629.988	0.0148760
630.067	0.0149345
630.145	0.0149803
630.223	0.0149521
630.301	0.0150616
630.379	0.0148961
630.457	0.0148207
630.535	0.0149779
630.613	0.0150147
630.692	0.0149533
630.770	0.0147997
630.848	0.0149295
630.926	0.0149400
631.004	0.0149093
631.082	0.0149112
631.160	0.0149451
631.238	0.0149734
631.317	0.0149393
631.395	0.0150266
631.473	0.0148827
631.551	0.0150085
631.629	0.0149181
631.707	0.0148956
631.785	0.0147610
631.863	0.0148396
631.942	0.0149079
632.020	0.0148524
632.098	0.0150371
632.176	0.0147807
632.254	0.0148862
632.332	0.0149429
632.410	0.0149158
632.488	0.0148839
632.567	0.0148790
632.645	0.0148434
632.723	0.0149406
632.801	0.0150508
632.879	0.0148448
632.957	0.0149023
633.035	0.0149483
633.113	0.0148996
633.192	0.0149162
633.270	0.0148294
633.348	0.0149278
633.426	0.0148979
633.504	0.0149598
633.582	0.0148693
633.660	0.0148619
633.738	0.0149729
633.817	0.0148069
633.895	0.0147836
633.973	0.0147278
634.051	0.0148654
634.129	0.0148182
634.207	0.0148141
634.285	0.0146632
634.363	0.0148056
634.442	0.0147888
634.520	0.0147444
634.598	0.0148575
634.676	0.0146575
634.754	0.0146714
634.832	0.0147014
634.910	0.0146909
634.988	0.0146752
635.067	0.0148303
635.145	0.0148133
635.223	0.0147388
635.301	0.0148154
635.379	0.0148877
635.457	0.0148119
635.535	0.0148517
635.613	0.0148780
635.692	0.0149384
635.770	0.0148898
635.848	0.0148914
635.926	0.0150259
636.004	0.0148271
636.082	0.0149284
636.160	0.0150049
636.238	0.0149162
636.317	0.0150069
636.395	0.0148268
636.473	0.0148621
636.551	0.0148244
636.629	0.0148016
636.707	0.0148498
636.785	0.0147678
636.863	0.0147587
636.942	0.0147858
637.020	0.0148045
637.098	0.0147675
637.176	0.0147849
637.254	0.0147550
637.332	0.0148133
637.410	0.0148509
637.488	0.0148296
637.567	0.0148024
637.645	0.0147650
637.723	0.0148944
637.801	0.0148586
637.879	0.0149104
637.957	0.0148540
638.035	0.0149451
638.113	0.0149666
638.192	0.0148346
638.270	0.0146080
638.348	0.0146614
638.426	0.0148753
638.504	0.0147537
638.582	0.0147460
638.660	0.0146484
638.738	0.0145093
638.817	0.0145779
638.895	0.0144133
638.973	0.0144661
639.051	0.0145148
639.129	0.0144337
639.207	0.0145155
639.285	0.0144199
639.363	0.0145716
639.442	0.0146099
639.520	0.0148116
639.598	0.0147358
639.676	0.0147238
639.754	0.0147446
639.832	0.0147822
639.910	0.0149748
639.988	0.0148306
640.067	0.0149516
640.145	0.0149699
640.223	0.0148927
640.301	0.0150545
640.379	0.0149398
640.457	0.0151730
640.535	0.0149203
640.613	0.0151951
640.692	0.0151702
640.770	0.0152820
640.848	0.0151699
640.926	0.0150996
641.004	0.0152059
641.082	0.0151149
641.160	0.0151801
641.238	0.0153083
641.317	0.0153131
641.395	0.0151876
641.473	0.0151685
641.551	0.0149265
641.629	0.0150864
641.707	0.0151623
641.785	0.0150456
641.863	0.0151148
641.942	0.0149115
642.020	0.0150444
642.098	0.0149023
642.176	0.0148904
642.254	0.0149610
642.332	0.0148811
642.410	0.0148062
642.488	0.0148007
642.567	0.0149089
642.645	0.0148527
642.723	0.0147066
642.801	0.0147176
642.879	0.0146528
642.957	0.0145763
643.035	0.0146576
643.113	0.0143926
643.192	0.0144926
643.270	0.0144717
643.348	0.0145029
643.426	0.0145869
643.504	0.0144659
643.582	0.0146298
643.660	0.0145190
643.738	0.0146215
643.817	0.0146914
643.895	0.0147421
643.973	0.0146659
644.051	0.0148528
644.129	0.0148955
644.207	0.0147888
644.285	0.0148161
644.363	0.0150079
644.442	0.0149768
644.520	0.0150503
644.598	0.0149700
644.676	0.0151466
644.754	0.0151110
644.832	0.0150917
644.910	0.0151012
644.988	0.0151470
645.067	0.0151019
645.145	0.0151291
645.223	0.0149957
645.301	0.0150237
645.379	0.0150259
645.457	0.0150329
645.535	0.0150107
645.613	0.0151057
645.692	0.0149735
645.770	0.0149951
645.848	0.0150649
645.926	0.0148970
646.004	0.0150105
646.082	0.0150620
646.160	0.0151081
646.238	0.0149303
646.317	0.0150150
646.395	0.0149616
646.473	0.0147765
646.551	0.0149546
646.629	0.0150275
646.707	0.0148590
646.785	0.0147180
646.863	0.0146464
646.942	0.0146204
647.020	0.0147795
647.098	0.0147823
647.176	0.0145403
647.254	0.0144920
647.332	0.0144976
647.410	0.0144736
647.488	0.0145867
647.567	0.0144982
647.645	0.0145974
647.723	0.0144911
647.801	0.0147109
647.879	0.0146844
647.957	0.0147009
648.035	0.0147585
648.113	0.0147855
648.192	0.0147578
648.270	0.0146613
648.348	0.0148904
648.426	0.0149117
648.504	0.0149405
648.582	0.0148277
648.660	0.0148271
648.738	0.0148029
648.817	0.0147608
648.895	0.0148074
648.973	0.0147206
649.051	0.0146923
649.129	0.0147235
649.207	0.0147207
649.285	0.0148857
649.363	0.0148801
649.442	0.0148928
649.520	0.0149102
649.598	0.0151006
649.676	0.0151810
649.754	0.0150588
649.832	0.0152670
649.910	0.0151889
649.988	0.0152853
650.067	0.0152670
650.145	0.0153133
650.223	0.0153852
650.301	0.0152063
650.379	0.0152211
650.457	0.0152399
650.535	0.0153008
650.613	0.0152457
650.692	0.0151845
650.770	0.0152219
650.848	0.0151721
650.926	0.0151212
651.004	0.0149497
651.082	0.0151855
651.160	0.0152156
651.238	0.0150134
651.317	0.0152285
651.395	0.0151108
651.473	0.0151487
651.551	0.0152126
651.629	0.0152057
651.707	0.0151062
651.785	0.0150425
651.863	0.0151779
651.942	0.0151443
652.020	0.0149619
652.098	0.0149588
652.176	0.0149673
652.254	0.0148746
652.332	0.0147353
652.410	0.0148265
652.488	0.0146005
652.567	0.0146697
652.645	0.0145792
652.723	0.0144965
652.801	0.0144125
652.879	0.0144444
652.957	0.0143544
653.035	0.0143456
653.113	0.0142077
653.192	0.0143797
653.270	0.0143477
653.348	0.0143730
653.426	0.0143388
653.504	0.0142926
653.582	0.0143440
653.660	0.0145014
653.738	0.0145033
653.817	0.0144006
653.895	0.0145805
653.973	0.0148573
654.051	0.0146234
654.129	0.0147243
654.207	0.0146663
654.285	0.0146989
654.363	0.0147310
654.442	0.0146718
654.520	0.0148567
654.598	0.0148422
654.676	0.0148620
654.754	0.0148833
654.832	0.0150037
654.910	0.0150082
654.988	0.0149526
655.067	0.0149072
655.145	0.0149813
655.223	0.0151073
655.301	0.0148826
655.379	0.0150195
655.457	0.0149451
655.535	0.0149588
655.613	0.0150666
655.692	0.0150253
655.770	0.0149556
655.848	0.0150453
655.926	0.0149544
656.004	0.0151076
656.082	0.0150171
656.160	0.0150353
656.238	0.0150112
656.317	0.0150211
656.395	0.0149904
656.473	0.0149675
656.551	0.0148548
656.629	0.0148782
656.707	0.0149317
656.785	0.0148112
656.863	0.0147948
656.942	0.0148246
657.020	0.0148720
657.098	0.0147374
657.176	0.0147976
657.254	0.0146744
657.332	0.0147427
657.410	0.0146869
657.488	0.0146766
657.567	0.0147552
657.645	0.0145638
657.723	0.0144429
657.801	0.0144903
657.879	0.0143297
657.957	0.0143040
658.035	0.0142747
658.113	0.0141917
658.192	0.0141969
658.270	0.0142655
658.348	0.0141283
658.426	0.0141404
658.504	0.0143127
658.582	0.0142687
658.660	0.0140714
658.738	0.0142792
658.817	0.0145424
658.895	0.0144109
658.973	0.0145033
659.051	0.0146995
659.129	0.0146102
659.207	0.0147758
659.285	0.0147787
659.363	0.0149129
659.442	0.0150064
659.520	0.0150207
659.598	0.0149296
659.676	0.0150383
659.754	0.0152168
659.832	0.0151404
659.910	0.0150963
659.988	0.0152126
660.067	0.0151892
660.145	0.0150269
660.223	0.0151574
660.301	0.0151665
660.379	0.0149517
660.457	0.0149892
660.535	0.0148990
660.613	0.0148818
660.692	0.0147762
660.770	0.0147447
660.848	0.0145924
660.926	0.0145777
661.004	0.0145168
661.082	0.0145671
661.160	0.0144551
661.238	0.0146327
661.317	0.0144659
661.395	0.0144324
661.473	0.0145994
661.551	0.0144865
661.629	0.0145801
661.707	0.0146947
661.785	0.0147325
661.863	0.0148760
661.942	0.0149173
662.020	0.0148903
662.098	0.0148009
662.176	0.0150341
662.254	0.0150272
662.332	0.0150600
662.410	0.0150144
662.488	0.0149634
662.567	0.0150040
662.645	0.0149832
662.723	0.0149961
662.801	0.0149411
662.879	0.0147807
662.957	0.0148348
663.035	0.0149577
663.113	0.0146398
663.192	0.0146296
663.270	0.0146307
663.348	0.0145590
663.426	0.0146091
663.504	0.0144911
663.582	0.0145721
663.660	0.0144804
663.738	0.0143670
663.817	0.0144711
663.895	0.0144690
663.973	0.0143462
664.051	0.0144711
664.129	0.0143456
664.207	0.0144161
664.285	0.0144364
664.363	0.0143415
664.442	0.0145329
664.520	0.0146202
664.598	0.0145566
664.676	0.0146825
664.754	0.0146459
664.832	0.0146025
664.910	0.0147185
664.988	0.0145142
665.067	0.0145468
665.145	0.0147993
665.223	0.0147814
665.301	0.0147710
665.379	0.0148695
665.457	0.0148301
665.535	0.0149416
665.613	0.0149810
665.692	0.0150754
665.770	0.0150196
665.848	0.0151568
665.926	0.0151489
666.004	0.0151961
666.082	0.0151856
666.160	0.0153489
666.238	0.0152950
666.317	0.0152637
666.395	0.0152830
666.473	0.0154984
666.551	0.0152629
666.629	0.0153927
666.707	0.0153053
666.785	0.0153477
666.863	0.0153517
666.942	0.0153712
667.020	0.0153166
667.098	0.0150912
667.176	0.0150375
667.254	0.0150832
667.332	0.0149659
667.410	0.0150114
667.488	0.0149082
667.567	0.0147062
667.645	0.0145886
667.723	0.0145499
667.801	0.0146116
667.879	0.0147852
667.957	0.0145861
668.035	0.0144211
668.113	0.0145045
668.192	0.0146017
668.270	0.0146408
668.348	0.0145529
668.426	0.0145439
668.504	0.0144319
668.582	0.0145856
668.660	0.0148188
668.738	0.0148331
668.817	0.0147818
668.895	0.0148757
668.973	0.0149379
669.051	0.0148725
669.129	0.0147893
669.207	0.0149719
669.285	0.0150349
669.363	0.0150806
669.442	0.0149947
669.520	0.0149907
669.598	0.0149870
669.676	0.0150203
669.754	0.0150459
669.832	0.0150542
669.910	0.0150095
669.988	0.0150829
670.067	0.0149442
670.145	0.0149991
670.223	0.0150583
670.301	0.0148786
670.379	0.0150941
670.457	0.0151788
670.535	0.0151503
670.613	0.0150512
670.692	0.0151981
670.770	0.0150681
670.848	0.0152185
670.926	0.0150871
671.004	0.0150906
671.082	0.0152647
671.160	0.0151871
671.238	0.0150234
671.317	0.0150252
671.395	0.0151552
671.473	0.0150063
671.551	0.0150874
671.629	0.0149268
671.707	0.0148589
671.785	0.0148217
671.863	0.0146065
671.942	0.0145775
672.020	0.0146490
672.098	0.0144358
672.176	0.0142321
672.254	0.0141841
672.332	0.0142184
672.410	0.0142168
672.488	0.0141060
672.567	0.0142697
672.645	0.0142773
672.723	0.0144068
672.801	0.0144244
672.879	0.0143435
672.957	0.0146404
673.035	0.0148402
673.113	0.0147047
673.192	0.0150037
673.270	0.0151596
673.348	0.0151023
673.426	0.0153063
673.504	0.0153296
673.582	0.0153654
673.660	0.0153377
673.738	0.0156093
673.817	0.0154805
673.895	0.0155946
673.973	0.0153028
674.051	0.0153687
674.129	0.0154103
674.207	0.0151962
674.285	0.0153471
674.363	0.0151877
674.442	0.0152609
674.520	0.0150808
674.598	0.0149555
674.676	0.0149921
674.754	0.0149875
674.832	0.0147873
674.910	0.0148442
674.988	0.0146633
675.067	0.0147333
675.145	0.0146560
675.223	0.0145853
675.301	0.0144450
675.379	0.0144089
675.457	0.0143179
675.535	0.0142891
675.613	0.0143599
675.692	0.0142963
675.770	0.0142352
675.848	0.0142159
675.926	0.0144038
676.004	0.0143838
676.082	0.0142809
676.160	0.0143069
676.238	0.0145471
676.317	0.0147378
676.395	0.0147154
676.473	0.0146844
676.551	0.0147233
676.629	0.0148058
676.707	0.0149637
676.785	0.0151501
676.863	0.0150885
676.942	0.0152196
677.020	0.0151886
677.098	0.0151375
677.176	0.0151446
677.254	0.0151456
677.332	0.0153052
677.410	0.0152698
677.488	0.0152596
677.567	0.0152473
677.645	0.0151217
677.723	0.0150718
677.801	0.0150364
677.879	0.0149772
677.957	0.0150586
678.035	0.0149968
678.113	0.0147827
678.192	0.0148742
678.270	0.0148528
678.348	0.0147536
678.426	0.0146749
678.504	0.0145073
678.582	0.0145560
678.660	0.0144700
678.738	0.0144155
678.817	0.0142611
678.895	0.0142812
678.973	0.0141656
679.051	0.0141512
679.129	0.0141904
679.207	0.0140952
679.285	0.0142142
679.363	0.0140770
679.442	0.0139754
679.520	0.0142527
679.598	0.0142372
679.676	0.0142021
679.754	0.0144444
679.832	0.0145188
679.910	0.0146236
679.988	0.0146019
680.067	0.0146553
680.145	0.0147794
680.223	0.0150609
680.301	0.0151319
680.379	0.0151083
680.457	0.0151926
680.535	0.0151955
680.613	0.0152327
680.692	0.0154652
680.770	0.0152962
680.848	0.0152536
680.926	0.0153959
681.004	0.0153220
681.082	0.0154645
681.160	0.0155116
681.238	0.0156397
681.317	0.0154443
681.395	0.0154317
681.473	0.0155694
681.551	0.0154995
681.629	0.0154713
681.707	0.0154507
681.785	0.0154642
681.863	0.0153950
681.942	0.0153107
682.020	0.0152753
682.098	0.0150626
682.176	0.0150190
682.254	0.0148690
682.332	0.0146659
682.410	0.0146000
682.488	0.0144942
682.567	0.0142670
682.645	0.0142178
682.723	0.0141212
682.801	0.0140344
682.879	0.0139296
682.957	0.0137855
683.035	0.0139037
683.113	0.0138496
683.192	0.0138295
683.270	0.0138803
683.348	0.0139571
683.426	0.0139687
683.504	0.0140054
683.582	0.0140405
683.660	0.0141918
683.738	0.0141388
683.817	0.0142087
683.895	0.0143290
683.973	0.0144234
684.051	0.0144808
684.129	0.0146307
684.207	0.0147253
684.285	0.0147175
684.363	0.0148932
684.442	0.0149445
684.520	0.0151724
684.598	0.0154202
684.676	0.0154030
684.754	0.0154885
684.832	0.0157561
684.910	0.0157970
684.988	0.0159574
685.067	0.0161256
685.145	0.0160617
685.223	0.0160548
685.301	0.0159404
685.379	0.0158524
685.457	0.0159526
685.535	0.0159225
685.613	0.0157298
685.692	0.0156683
685.770	0.0156301
685.848	0.0153963
685.926	0.0152180
686.004	0.0149384
686.082	0.0150408
686.160	0.0147977
686.238	0.0146021
686.317	0.0145389
686.395	0.0143947
686.473	0.0143463
686.551	0.0141231
686.629	0.0141623
686.707	0.0140727
686.785	0.0140569
686.863	0.0141886
686.942	0.0141345
687.020	0.0140649
687.098	0.0139018
687.176	0.0141998
687.254	0.0142617
687.332	0.0143135
687.410	0.0142661
687.488	0.0143741
687.567	0.0144067
687.645	0.0145846
687.723	0.0144760
687.801	0.0146219
687.879	0.0146948
687.957	0.0146970
688.035	0.0147570
688.113	0.0148982
688.192	0.0150584
688.270	0.0150192
688.348	0.0151144
688.426	0.0151943
688.504	0.0151117
688.582	0.0152578
688.660	0.0152524
688.738	0.0153094
688.817	0.0154623
688.895	0.0154302
688.973	0.0154249
689.051	0.0154666
689.129	0.0154187
689.207	0.0154386
689.285	0.0153764
689.363	0.0154858
689.442	0.0154173
689.520	0.0153272
689.598	0.0154284
689.676	0.0154419
689.754	0.0155132
689.832	0.0152627
689.910	0.0152480
689.988	0.0154154
690.067	0.0151875
690.145	0.0150179
690.223	0.0149776
690.301	0.0151469
690.379	0.0151048
690.457	0.0149133
690.535	0.0150078
690.613	0.0149880
690.692	0.0148317
690.770	0.0149225
690.848	0.0148102
690.926	0.0145959
691.004	0.0147665
691.082	0.0148505
691.160	0.0147397
691.238	0.0145856
691.317	0.0146632
691.395	0.0147719
691.473	0.0148151
691.551	0.0148396
691.629	0.0148524
691.707	0.0147462
691.785	0.0148471
691.863	0.0149109
691.942	0.0148042
692.020	0.0147594
692.098	0.0146975
692.176	0.0146424
692.254	0.0146255
692.332	0.0146411
692.410	0.0146965
692.488	0.0144274
692.567	0.0144958
692.645	0.0144221
692.723	0.0143370
692.801	0.0143574
692.879	0.0143163
692.957	0.0142331
693.035	0.0143641
693.113	0.0144460
693.192	0.0143834
693.270	0.0145190
693.348	0.0146748
693.426	0.0148343
693.504	0.0149380
693.582	0.0149985
693.660	0.0152258
693.738	0.0153667
693.817	0.0154769
693.895	0.0154876
693.973	0.0155659
694.051	0.0156393
694.129	0.0156412
694.207	0.0156487
694.285	0.0155704
694.363	0.0155284
694.442	0.0155144
694.520	0.0156545
694.598	0.0155020
694.676	0.0154995
694.754	0.0155051
694.832	0.0155980
694.910	0.0154687
694.988	0.0153683
695.067	0.0154679
695.145	0.0155128
695.223	0.0154322
695.301	0.0154401
695.379	0.0155450
695.457	0.0155542
695.535	0.0153872
695.613	0.0151894
695.692	0.0151074
695.770	0.0151580
695.848	0.0150691
695.926	0.0148438
696.004	0.0148463
696.082	0.0146629
696.160	0.0145127
696.238	0.0145163
696.317	0.0144423
696.395	0.0142810
696.473	0.0140879
696.551	0.0140635
696.629	0.0138866
696.707	0.0138303
696.785	0.0137769
696.863	0.0138273
696.942	0.0137923
697.020	0.0138874
697.098	0.0140811
697.176	0.0140945
697.254	0.0140708
697.332	0.0141695
697.410	0.0144038
697.488	0.0144347
697.567	0.0146259
697.645	0.0146517
697.723	0.0146542
697.801	0.0147864
697.879	0.0148700
697.957	0.0149693
698.035	0.0150382
698.113	0.0151169
698.192	0.0151140
698.270	0.0152746
698.348	0.0153972
698.426	0.0155794
698.504	0.0154934
698.582	0.0155038
698.660	0.0156940
698.738	0.0158415
698.817	0.0157204
698.895	0.0157273
698.973	0.0157937
699.051	0.0157822
699.129	0.0158486
699.207	0.0157943
699.285	0.0160242
699.363	0.0160059
699.442	0.0160264
699.520	0.0159351
699.598	0.0156958
699.676	0.0156825
699.754	0.0156078
699.832	0.0154648
699.910	0.0153155
699.988	0.0151349
700.067	0.0150890
700.145	0.0148568
700.223	0.0147289
700.301	0.0145338
700.379	0.0144494
700.457	0.0143550
700.535	0.0142110
700.613	0.0140506
700.692	0.0141348
700.770	0.0138980
700.848	0.0140540
700.926	0.0139950
701.004	0.0139067
701.082	0.0140511
701.160	0.0140585
701.238	0.0138644
701.317	0.0141319
701.395	0.0140170
701.473	0.0141101
701.551	0.0140875
701.629	0.0143431
701.707	0.0143016
701.785	0.0143782
701.863	0.0144963
701.942	0.0142801
702.020	0.0145618
702.098	0.0146448
702.176	0.0146326
702.254	0.0145683
702.332	0.0148774
702.410	0.0150617
702.488	0.0150133
702.567	0.0151109
702.645	0.0151711
702.723	0.0153399
702.801	0.0155479
702.879	0.0155819
702.957	0.0155309
703.035	0.0157244
703.113	0.0155970
703.192	0.0157123
703.270	0.0155374
703.348	0.0156549
703.426	0.0156459
703.504	0.0155585
703.582	0.0154667
703.660	0.0152589
703.738	0.0152797
703.817	0.0151505
703.895	0.0151173
703.973	0.0150775
704.051	0.0150185
704.129	0.0148352
704.207	0.0147963
704.285	0.0147073
704.363	0.0147067
704.442	0.0146484
704.520	0.0146301
704.598	0.0145991
704.676	0.0146805
704.754	0.0144149
704.832	0.0145387
704.910	0.0144247
704.988	0.0144328
705.067	0.0143575
705.145	0.0144792
705.223	0.0143584
705.301	0.0143003
705.379	0.0144225
705.457	0.0144823
705.535	0.0144367
705.613	0.0143661
705.692	0.0143861
705.770	0.0144852
705.848	0.0143906
705.926	0.0144820
706.004	0.0146157
706.082	0.0145488
706.160	0.0145280
706.238	0.0146389
706.317	0.0145279
706.395	0.0144562
706.473	0.0146101
706.551	0.0143790
706.629	0.0145995
706.707	0.0145204
706.785	0.0145450
706.863	0.0146804
706.942	0.0145234
707.020	0.0145258
707.098	0.0145961
707.176	0.0147495
707.254	0.0146072
707.332	0.0146516
707.410	0.0148501
707.488	0.0148518
707.567	0.0148209
707.645	0.0148275
707.723	0.0149207
707.801	0.0149559
707.879	0.0149253
707.957	0.0148728
708.035	0.0148403
708.113	0.0147549
708.192	0.0150284
708.270	0.0149339
708.348	0.0148979
708.426	0.0148730
708.504	0.0149509
708.582	0.0149196
708.660	0.0148823
708.738	0.0147665
708.817	0.0148339
708.895	0.0147488
708.973	0.0148321
709.051	0.0148753
709.129	0.0148448
709.207	0.0148264
709.285	0.0149857
709.363	0.0147968
709.442	0.0150085
709.520	0.0149679
709.598	0.0149867
709.676	0.0151008
709.754	0.0151397
709.832	0.0151633
709.910	0.0151734
709.988	0.0152949
710.067	0.0151870
710.145	0.0152728
710.223	0.0151539
710.301	0.0151000
710.379	0.0152351
710.457	0.0151033
710.535	0.0150453
710.613	0.0150439
710.692	0.0150271
710.770	0.0149485
710.848	0.0147980
710.926	0.0150085
711.004	0.0147533
711.082	0.0147672
711.160	0.0148482
711.238	0.0148098
711.317	0.0147098
711.395	0.0149525
711.473	0.0148486
711.551	0.0148377
711.629	0.0146938
711.707	0.0147382
711.785	0.0146026
711.863	0.0147044
711.942	0.0147094
712.020	0.0147173
712.098	0.0145978
712.176	0.0146484
712.254	0.0146323
712.332	0.0145908
712.410	0.0147272
712.488	0.0146831
712.567	0.0146733
712.645	0.0147735
712.723	0.0147243
712.801	0.0148331
712.879	0.0147576
712.957	0.0147887
713.035	0.0147359
713.113	0.0146988
713.192	0.0148700
713.270	0.0147404
713.348	0.0146602
713.426	0.0147919
713.504	0.0149097
713.582	0.0148661
713.660	0.0148307
713.738	0.0147858
713.817	0.0148415
713.895	0.0149445
713.973	0.0149543
714.051	0.0149825
714.129	0.0151928
714.207	0.0151370
714.285	0.0149567
714.363	0.0151480
714.442	0.0152380
714.520	0.0152083
714.598	0.0154307
714.676	0.0154094
714.754	0.0153628
714.832	0.0154165
714.910	0.0155459
714.988	0.0154016
715.067	0.0153446
715.145	0.0153515
715.223	0.0154031
715.301	0.0154601
715.379	0.0154512
715.457	0.0152446
715.535	0.0152158
715.613	0.0151895
715.692	0.0151285
715.770	0.0152174
715.848	0.0149058
715.926	0.0150652
716.004	0.0149323
716.082	0.0150520
716.160	0.0150217
716.238	0.0149268
716.317	0.0148666
716.395	0.0148969
716.473	0.0148713
716.551	0.0149014
716.629	0.0149228
716.707	0.0150494
716.785	0.0149539
716.863	0.0149092
716.942	0.0150923
717.020	0.0150425
717.098	0.0151620
717.176	0.0149463
717.254	0.0150348
717.332	0.0151904
717.410	0.0152783
717.488	0.0150867
717.567	0.0150222
717.645	0.0150375
717.723	0.0149718
717.801	0.0150487
717.879	0.0150381
717.957	0.0148875
718.035	0.0148828
718.113	0.0149160
718.192	0.0148009
718.270	0.0148428
718.348	0.0146061
718.426	0.0146745
718.504	0.0146684
718.582	0.0145776
718.660	0.0146720
718.738	0.0146893
718.817	0.0146416
718.895	0.0146639
718.973	0.0147713
719.051	0.0146053
719.129	0.0146228
719.207	0.0146844
719.285	0.0147517
719.363	0.0146812
719.442	0.0146975
719.520	0.0145981
719.598	0.0147054
719.676	0.0146951
719.754	0.0147627
719.832	0.0146847
719.910	0.0147032
719.988	0.0146835
720.067	0.0147425
720.145	0.0147745
720.223	0.0147026
720.301	0.0146134
720.379	0.0147708
720.457	0.0145724
720.535	0.0144955
720.613	0.0145914
720.692	0.0145991
720.770	0.0144405
720.848	0.0145184
720.926	0.0145639
721.004	0.0146281
721.082	0.0145886
721.160	0.0144669
721.238	0.0145900
721.317	0.0145008
721.395	0.0145503
721.473	0.0145498
721.551	0.0145895
721.629	0.0145821
721.707	0.0144641
721.785	0.0145592
721.863	0.0145754
721.942	0.0144981
722.020	0.0145438
722.098	0.0145189
722.176	0.0145396
722.254	0.0146107
722.332	0.0147163
722.410	0.0145428
722.488	0.0146088
722.567	0.0146672
722.645	0.0147138
722.723	0.0148463
722.801	0.0146542
722.879	0.0146957
722.957	0.0146657
723.035	0.0144727
723.113	0.0145090
723.192	0.0146617
723.270	0.0145639
723.348	0.0146735
723.426	0.0145472
723.504	0.0144074
723.582	0.0144270
723.660	0.0145562
723.738	0.0145370
723.817	0.0146192
723.895	0.0146146
723.973	0.0145879
724.051	0.0147024
724.129	0.0147501
724.207	0.0148214
724.285	0.0149654
724.363	0.0149541
724.442	0.0149850
724.520	0.0151135
724.598	0.0152013
724.676	0.0151857
724.754	0.0151267
724.832	0.0153001
724.910	0.0154492
724.988	0.0154936
725.067	0.0152665
725.145	0.0153113
725.223	0.0152334
725.301	0.0152883
725.379	0.0152142
725.457	0.0153248
725.535	0.0153883
725.613	0.0151833
725.692	0.0152183
725.770	0.0151208
725.848	0.0151807
725.926	0.0150856
726.004	0.0150745
726.082	0.0151195
726.160	0.0152441
726.238	0.0151197
726.317	0.0151227
726.395	0.0150700
726.473	0.0149979
726.551	0.0150307
726.629	0.0149339
726.707	0.0149788
726.785	0.0149697
726.863	0.0150562
726.942	0.0149382
727.020	0.0148923
727.098	0.0148217
727.176	0.0146777
727.254	0.0147108
727.332	0.0147216
727.410	0.0147572
727.488	0.0146369
727.567	0.0145280
727.645	0.0145455
727.723	0.0145329
727.801	0.0145645
727.879	0.0145849
727.957	0.0144656
728.035	0.0144244
728.113	0.0145729
728.192	0.0144554
728.270	0.0146255
728.348	0.0147181
728.426	0.0147099
728.504	0.0146247
728.582	0.0145409
728.660	0.0146037
728.738	0.0148031
728.817	0.0145484
728.895	0.0146931
728.973	0.0144485
729.051	0.0145578
729.129	0.0146608
729.207	0.0145979
729.285	0.0145496
729.363	0.0146292
729.442	0.0146470
729.520	0.0147974
729.598	0.0147857
729.676	0.0147931
729.754	0.0148841
729.832	0.0148170
729.910	0.0148750
729.988	0.0150506
730.067	0.0150814
730.145	0.0150508
730.223	0.0149995
730.301	0.0150527
730.379	0.0150123
730.457	0.0150976
730.535	0.0151100
730.613	0.0150457
730.692	0.0151423
730.770	0.0150071
730.848	0.0148448
730.926	0.0149529
731.004	0.0149345
731.082	0.0149630
731.160	0.0148944
731.238	0.0148251
731.317	0.0148333
731.395	0.0147968
731.473	0.0147964
731.551	0.0147803
731.629	0.0147173
731.707	0.0147707
731.785	0.0145625
731.863	0.0147234
731.942	0.0146807
732.020	0.0145686
732.098	0.0147493
732.176	0.0147329
732.254	0.0146859
732.332	0.0147491
732.410	0.0147792
732.488	0.0148410
732.567	0.0149164
732.645	0.0148106
732.723	0.0147282
732.801	0.0148531
732.879	0.0150583
732.957	0.0148653
733.035	0.0149807
733.113	0.0149093
733.192	0.0149116
733.270	0.0147462
733.348	0.0148393
733.426	0.0148642
733.504	0.0147836
733.582	0.0148724
733.660	0.0149923
733.738	0.0150519
733.817	0.0148635
733.895	0.0147671
733.973	0.0149096
734.051	0.0149248
734.129	0.0147810
734.207	0.0148466
734.285	0.0148208
734.363	0.0147762
734.442	0.0148422
734.520	0.0149116
734.598	0.0148040
734.676	0.0148296
734.754	0.0147318
734.832	0.0147763
734.910	0.0148220
734.988	0.0149167
735.067	0.0147209
735.145	0.0147836
735.223	0.0147768
735.301	0.0147605
735.379	0.0148730
735.457	0.0148688
735.535	0.0148192
735.613	0.0148169
735.692	0.0148341
735.770	0.0148186
735.848	0.0148438
735.926	0.0148302
736.004	0.0146875
736.082	0.0147568
736.160	0.0147320
736.238	0.0147965
736.317	0.0148186
736.395	0.0147411
736.473	0.0146194
736.551	0.0147590
736.629	0.0146976
736.707	0.0147374
736.785	0.0146939
736.863	0.0146400
736.942	0.0146877
737.020	0.0145852
737.098	0.0146306
737.176	0.0147616
737.254	0.0147755
737.332	0.0146555
737.410	0.0146466
737.488	0.0146675
737.567	0.0148207
737.645	0.0148584
737.723	0.0149150
737.801	0.0149693
737.879	0.0148630
737.957	0.0148709
738.035	0.0151167
738.113	0.0150265
738.192	0.0151042
738.270	0.0150832
738.348	0.0150364
738.426	0.0149180
738.504	0.0149594
738.582	0.0150639
738.660	0.0150379
738.738	0.0150593
738.817	0.0150577
738.895	0.0149806
738.973	0.0149846
739.051	0.0149174
739.129	0.0149728
739.207	0.0149183
739.285	0.0149156
739.363	0.0151265
739.442	0.0150473
739.520	0.0150163
739.598	0.0149192
739.676	0.0150984
739.754	0.0150420
739.832	0.0151356
739.910	0.0151098
739.988	0.0150073
740.067	0.0151405
740.145	0.0152484
740.223	0.0150111
740.301	0.0150397
740.379	0.0152276
740.457	0.0149365
740.535	0.0151324
740.613	0.0151088
740.692	0.0149133
740.770	0.0149741
740.848	0.0148659
740.926	0.0149168
741.004	0.0147168
741.082	0.0147867
741.160	0.0146822
741.238	0.0146426
741.317	0.0146414
741.395	0.0146377
741.473	0.0146911
741.551	0.0147101
741.629	0.0147017
741.707	0.0147147
741.785	0.0147334
741.863	0.0147405
741.942	0.0145687
742.020	0.0146201
742.098	0.0147531
742.176	0.0148138
742.254	0.0147837
742.332	0.0146629
742.410	0.0148620
742.488	0.0149899
742.567	0.0148155
742.645	0.0148740
742.723	0.0147841
742.801	0.0147977
742.879	0.0146957
742.957	0.0146530
743.035	0.0147826
743.113	0.0147938
743.192	0.0147454
743.270	0.0145402
743.348	0.0147094
743.426	0.0147346
743.504	0.0147752
743.582	0.0145759
743.660	0.0146735
743.738	0.0147009
743.817	0.0146279
743.895	0.0146388
743.973	0.0146551
744.051	0.0145619
744.129	0.0147266
744.207	0.0146403
744.285	0.0147140
744.363	0.0147306
744.442	0.0148818
744.520	0.0147575
744.598	0.0148840
744.676	0.0149259
744.754	0.0148303
744.832	0.0148248
744.910	0.0149008
744.988	0.0150631
745.067	0.0151321
745.145	0.0151122
745.223	0.0150450
745.301	0.0150397
745.379	0.0151361
745.457	0.0152268
745.535	0.0150533
745.613	0.0150068
745.692	0.0151582
745.770	0.0150769
745.848	0.0150072
745.926	0.0150542
746.004	0.0151096
746.082	0.0150939
746.160	0.0149650
746.238	0.0150275
746.317	0.0150842
746.395	0.0149300
746.473	0.0149214
746.551	0.0148486
746.629	0.0147752
746.707	0.0148723
746.785	0.0149029
746.863	0.0149356
746.942	0.0149564
747.020	0.0147486
747.098	0.0147987
747.176	0.0150713
747.254	0.0148026
747.332	0.0148843
747.410	0.0149320
747.488	0.0149107
747.567	0.0147859
747.645	0.0149386
747.723	0.0148595
747.801	0.0148363
747.879	0.0147706
747.957	0.0147331
748.035	0.0148102
748.113	0.0147752
748.192	0.0147581
748.270	0.0147484
748.348	0.0147327
748.426	0.0147133
748.504	0.0145985
748.582	0.0145698
748.660	0.0146617
748.738	0.0145414
748.817	0.0146340
748.895	0.0146164
748.973	0.0145797
749.051	0.0144733
749.129	0.0145981
749.207	0.0144684
749.285	0.0146684
749.363	0.0145296
749.442	0.0145959
749.520	0.0146326
749.598	0.0146104
749.676	0.0146126
749.754	0.0146425
749.832	0.0146479
749.910	0.0146513
749.988	0.0146766
750.067	0.0146885
750.145	0.0145759
750.223	0.0146107
750.301	0.0147205
750.379	0.0146786
750.457	0.0146529
750.535	0.0146061
750.613	0.0147007
750.692	0.0146623
750.770	0.0145659
750.848	0.0146272
750.926	0.0146062
751.004	0.0145552
751.082	0.0146487
751.160	0.0146513
751.238	0.0145402
751.317	0.0145531
751.395	0.0147081
751.473	0.0145557
751.551	0.0144434
751.629	0.0145778
751.707	0.0147012
751.785	0.0145808
751.863	0.0145688
751.942	0.0146294
752.020	0.0147398
752.098	0.0146604
752.176	0.0146803
752.254	0.0145981
752.332	0.0146530
752.410	0.0147320
752.488	0.0147035
752.567	0.0146099
752.645	0.0147021
752.723	0.0146893
752.801	0.0146839
752.879	0.0146404
752.957	0.0147219
753.035	0.0148235
753.113	0.0148610
753.192	0.0147668
753.270	0.0147218
753.348	0.0147596
753.426	0.0148000
753.504	0.0148559
753.582	0.0148344
753.660	0.0147107
753.738	0.0147831
753.817	0.0149580
753.895	0.0147588
753.973	0.0146165
754.051	0.0147383
754.129	0.0146439
754.207	0.0147258
754.285	0.0146380
754.363	0.0147602
754.442	0.0146619
754.520	0.0147146
754.598	0.0147462
754.676	0.0149255
754.754	0.0147739
754.832	0.0149050
754.910	0.0149180
754.988	0.0148772
755.067	0.0148671
755.145	0.0149851
755.223	0.0149366
755.301	0.0149281
755.379	0.0149109
755.457	0.0149483
755.535	0.0150410
755.613	0.0150214
755.692	0.0150771
755.770	0.0151003
755.848	0.0152103
755.926	0.0150835
756.004	0.0151762
756.082	0.0152213
756.160	0.0152009
756.238	0.0152487
756.317	0.0150961
756.395	0.0150175
756.473	0.0152520
756.551	0.0150617
756.629	0.0151565
756.707	0.0151656
756.785	0.0150440
756.863	0.0152042
756.942	0.0151752
757.020	0.0151558
757.098	0.0151205
757.176	0.0150523
757.254	0.0150295
757.332	0.0151677
757.410	0.0150578
757.488	0.0153325
757.567	0.0150714
757.645	0.0150816
757.723	0.0151604
757.801	0.0151352
757.879	0.0149617
757.957	0.0150388
758.035	0.0151398
758.113	0.0150376
758.192	0.0149982
758.270	0.0150923
758.348	0.0149719
758.426	0.0150751
758.504	0.0147664
758.582	0.0149486
758.660	0.0149674
758.738	0.0148146
758.817	0.0149327
758.895	0.0149166
758.973	0.0149308
759.051	0.0149361
759.129	0.0149270
759.207	0.0149050
759.285	0.0150304
759.363	0.0149738
759.442	0.0149006
759.520	0.0149803
759.598	0.0148660
759.676	0.0149784
759.754	0.0149760
759.832	0.0149966
759.910	0.0148498
759.988	0.0148664
760.067	0.0149319
760.145	0.0148514
760.223	0.0147832
760.301	0.0147688
760.379	0.0148268
760.457	0.0147900
760.535	0.0146888
760.613	0.0146516
760.692	0.0145463
760.770	0.0146088
760.848	0.0147244
760.926	0.0143633
761.004	0.0146164
761.082	0.0145324
761.160	0.0145177
761.238	0.0145551
761.317	0.0146749
761.395	0.0145975
761.473	0.0146828
761.551	0.0146599
761.629	0.0145757
761.707	0.0145145
761.785	0.0146608
761.863	0.0146214
761.942	0.0145639
762.020	0.0145723
762.098	0.0146602
762.176	0.0146484
762.254	0.0147832
762.332	0.0146453
762.410	0.0147501
762.488	0.0147663
762.567	0.0146055
762.645	0.0147579
762.723	0.0147101
762.801	0.0146801
762.879	0.0147881
762.957	0.0148156
763.035	0.0148174
763.113	0.0149013
763.192	0.0149415
763.270	0.0149365
763.348	0.0149561
763.426	0.0149017
763.504	0.0149803
763.582	0.0149566
763.660	0.0148491
763.738	0.0149999
763.817	0.0148218
763.895	0.0149092
763.973	0.0149429
764.051	0.0149104
764.129	0.0148025
764.207	0.0149783
764.285	0.0150520
764.363	0.0150037
764.442	0.0149177
764.520	0.0148643
764.598	0.0149272
764.676	0.0149796
764.754	0.0149304
764.832	0.0150044
764.910	0.0150457
764.988	0.0150549
765.067	0.0148563
765.145	0.0148949
765.223	0.0149281
765.301	0.0149706
765.379	0.0149367
765.457	0.0148397
765.535	0.0149194
765.613	0.0150099
765.692	0.0148132
765.770	0.0149157
765.848	0.0149513
765.926	0.0150459
766.004	0.0149624
766.082	0.0149825
766.160	0.0148168
766.238	0.0150029
766.317	0.0148723
766.395	0.0148447
766.473	0.0150148
766.551	0.0149433
766.629	0.0149470
766.707	0.0147538
766.785	0.0149445
766.863	0.0148815
766.942	0.0149681
767.020	0.0150733
767.098	0.0149995
767.176	0.0149413
767.254	0.0150458
767.332	0.0151190
767.410	0.0150803
767.488	0.0150703
767.567	0.0150820
767.645	0.0149596
767.723	0.0150034
767.801	0.0151871
767.879	0.0150644
767.957	0.0151779
768.035	0.0151118
768.113	0.0150568
768.192	0.0150790
768.270	0.0150476
768.348	0.0150685
768.426	0.0150884
768.504	0.0151131
768.582	0.0148949
768.660	0.0149390
768.738	0.0150683
768.817	0.0149112
768.895	0.0149488
768.973	0.0149762
769.051	0.0149451
769.129	0.0150997
769.207	0.0148961
769.285	0.0149384
769.363	0.0147436
769.442	0.0148866
769.520	0.0147668
769.598	0.0148297
769.676	0.0146517
769.754	0.0148170
769.832	0.0147415
769.910	0.0147572
769.988	0.0148656
770.067	0.0148235
770.145	0.0146629
770.223	0.0147955
770.301	0.0146906
770.379	0.0147684
770.457	0.0147642
770.535	0.0147174
770.613	0.0148141
770.692	0.0148347
770.770	0.0147980
770.848	0.0148413
770.926	0.0147911
771.004	0.0148279
771.082	0.0148932
771.160	0.0149110
771.238	0.0147596
771.317	0.0147659
771.395	0.0149787
771.473	0.0148919
771.551	0.0148818
771.629	0.0149118
771.707	0.0149741
771.785	0.0149023
771.863	0.0148734
771.942	0.0148481
772.020	0.0148272
772.098	0.0148373
772.176	0.0148154
772.254	0.0149120
772.332	0.0148312
772.410	0.0145255
772.488	0.0146645
772.567	0.0147855
772.645	0.0147021
772.723	0.0147986
772.801	0.0149199
772.879	0.0147514
772.957	0.0146282
773.035	0.0149168
773.113	0.0147773
773.192	0.0147242
773.270	0.0147577
773.348	0.0147443
773.426	0.0146943
773.504	0.0147047
773.582	0.0146706
773.660	0.0147375
773.738	0.0147927
773.817	0.0147715
773.895	0.0148412
773.973	0.0148146
774.051	0.0147163
774.129	0.0147117
774.207	0.0147217
774.285	0.0148515
774.363	0.0148435
774.442	0.0146425
774.520	0.0147295
774.598	0.0146313
774.676	0.0148361
774.754	0.0147363
774.832	0.0147120
774.910	0.0145443
774.988	0.0146056
775.067	0.0146828
775.145	0.0147009
775.223	0.0146563
775.301	0.0146715
775.379	0.0146313
775.457	0.0146539
775.535	0.0146811
775.613	0.0147939
775.692	0.0147617
775.770	0.0147424
775.848	0.0147977
775.926	0.0148969
776.004	0.0149107
776.082	0.0148265
776.160	0.0148528
776.238	0.0148942
776.317	0.0150179
776.395	0.0148405
776.473	0.0149012
776.551	0.0149229
776.629	0.0149031
776.707	0.0148363
776.785	0.0150421
776.863	0.0149365
776.942	0.0149644
777.020	0.0149043
777.098	0.0149037
777.176	0.0148549
777.254	0.0149283
777.332	0.0150148
777.410	0.0148952
777.488	0.0149038
777.567	0.0149554
777.645	0.0149616
777.723	0.0150946
777.801	0.0149069
777.879	0.0149183
777.957	0.0150462
778.035	0.0149629
778.113	0.0148879
778.192	0.0149754
778.270	0.0148340
778.348	0.0148110
778.426	0.0148500
778.504	0.0149079
778.582	0.0148829
778.660	0.0148960
778.738	0.0147815
778.817	0.0147443
778.895	0.0147290
778.973	0.0146077
779.051	0.0147255
779.129	0.0147665
779.207	0.0148148
779.285	0.0147117
779.363	0.0146481
779.442	0.0147591
779.520	0.0147392
779.598	0.0146101
779.676	0.0147037
779.754	0.0148028
779.832	0.0149081
779.910	0.0147935
779.988	0.0147540
780.067	0.0146980
780.145	0.0148332
780.223	0.0147672
780.301	0.0148216
780.379	0.0146870
780.457	0.0146506
780.535	0.0147947
780.613	0.0148506
780.692	0.0148621
780.770	0.0148054
780.848	0.0147939
780.926	0.0148435
781.004	0.0147707
781.082	0.0148423
781.160	0.0149132
781.238	0.0149524
781.317	0.0149136
781.395	0.0149160
781.473	0.0149108
781.551	0.0149815
781.629	0.0149858
781.707	0.0149862
781.785	0.0149303
781.863	0.0149816
781.942	0.0149151
782.020	0.0149029
782.098	0.0148474
782.176	0.0147120
782.254	0.0148794
782.332	0.0147569
782.410	0.0147725
782.488	0.0147031
782.567	0.0146659
782.645	0.0147703
782.723	0.0146478
782.801	0.0145917
782.879	0.0145889
782.957	0.0146887
783.035	0.0146127
783.113	0.0146448
783.192	0.0146850
783.270	0.0146519
783.348	0.0146619
783.426	0.0147118
783.504	0.0146812
783.582	0.0146950
783.660	0.0147097
783.738	0.0147624
783.817	0.0147468
783.895	0.0147263
783.973	0.0147432
784.051	0.0148544
784.129	0.0148851
784.207	0.0148391
784.285	0.0148413
784.363	0.0149700
784.442	0.0149889
784.520	0.0150455
784.598	0.0149113
784.676	0.0151143
784.754	0.0150515
784.832	0.0150293
784.910	0.0150632
784.988	0.0150928
785.067	0.0150616
785.145	0.0151337
785.223	0.0152415
785.301	0.0150491
785.379	0.0150446
785.457	0.0150158
785.535	0.0151012
785.613	0.0150192
785.692	0.0150218
785.770	0.0150731
785.848	0.0151418
785.926	0.0150388
786.004	0.0149729
786.082	0.0150090
786.160	0.0150816
786.238	0.0149981
786.317	0.0149182
786.395	0.0149954
786.473	0.0150845
786.551	0.0149784
786.629	0.0150058
786.707	0.0150064
786.785	0.0149982
786.863	0.0149245
786.942	0.0151219
787.020	0.0150011
787.098	0.0148847
787.176	0.0150597
787.254	0.0150108
787.332	0.0150407
787.410	0.0149817
787.488	0.0150180
787.567	0.0150428
787.645	0.0151182
787.723	0.0153107
787.801	0.0152253
787.879	0.0151562
787.957	0.0151051
788.035	0.0151428
788.113	0.0151319
788.192	0.0150226
788.270	0.0152549
788.348	0.0150545
788.426	0.0151326
788.504	0.0149944
788.582	0.0149978
788.660	0.0149670
788.738	0.0150710
788.817	0.0148567
788.895	0.0148215
788.973	0.0148663
789.051	0.0148132
789.129	0.0148213
789.207	0.0148196
789.285	0.0148544
789.363	0.0148190
789.442	0.0148851
789.520	0.0149011
789.598	0.0148871
789.676	0.0147278
789.754	0.0149316
789.832	0.0149213
789.910	0.0148091
789.988	0.0148849
790.067	0.0149424
790.145	0.0148385
790.223	0.0149684
790.301	0.0149873
790.379	0.0149874
790.457	0.0149828
790.535	0.0149336
790.613	0.0148738
790.692	0.0149945
790.770	0.0149753
790.848	0.0150161
790.926	0.0149094
791.004	0.0148676
791.082	0.0149242
791.160	0.0150378
791.238	0.0148494
791.317	0.0149421
791.395	0.0148701
791.473	0.0147214
791.551	0.0149165
791.629	0.0149364
791.707	0.0149136
791.785	0.0148551
791.863	0.0148035
791.942	0.0148676
792.020	0.0147967
792.098	0.0148244
792.176	0.0149801
792.254	0.0148758
792.332	0.0148503
792.410	0.0148080
792.488	0.0149122
792.567	0.0148644
792.645	0.0148129
792.723	0.0148170
792.801	0.0148807
792.879	0.0149403
792.957	0.0148647
793.035	0.0148393
793.113	0.0149133
793.192	0.0147457
793.270	0.0148681
793.348	0.0148502
793.426	0.0149726
793.504	0.0148172
793.582	0.0148127
793.660	0.0147678
793.738	0.0147595
793.817	0.0146280
793.895	0.0147626
793.973	0.0147961
794.051	0.0148060
794.129	0.0147416
794.207	0.0147149
794.285	0.0147139
794.363	0.0147630
794.442	0.0147166
794.520	0.0147676
794.598	0.0147648
794.676	0.0148051
794.754	0.0147701
794.832	0.0148389
794.910	0.0148566
794.988	0.0146680
795.067	0.0148171
795.145	0.0147996
795.223	0.0146282
795.301	0.0148280
795.379	0.0148676
795.457	0.0148365
795.535	0.0148667
795.613	0.0151006
795.692	0.0149456
795.770	0.0149735
795.848	0.0149104
795.926	0.0149586
796.004	0.0150295
796.082	0.0151256
796.160	0.0149834
796.238	0.0149461
796.317	0.0150268
796.395	0.0150685
796.473	0.0150871
796.551	0.0149613
796.629	0.0148549
796.707	0.0149305
796.785	0.0150015
796.863	0.0149931
796.942	0.0148808
797.020	0.0148923
797.098	0.0148621
797.176	0.0148524
797.254	0.0147720
797.332	0.0148372
797.410	0.0147358
797.488	0.0148117
797.567	0.0147334
797.645	0.0146366
797.723	0.0146878
797.801	0.0147795
797.879	0.0146915
797.957	0.0148730
798.035	0.0147304
798.113	0.0146727
798.192	0.0148221
798.270	0.0148193
798.348	0.0147894
798.426	0.0149268
798.504	0.0149026
798.582	0.0148308
798.660	0.0149480
798.738	0.0149507
798.817	0.0150208
798.895	0.0150854
798.973	0.0150182
799.051	0.0150826
799.129	0.0149521
799.207	0.0150646
799.285	0.0150864
799.363	0.0149868
799.442	0.0149651
799.520	0.0150805
799.598	0.0150848
799.676	0.0151294
799.754	0.0151250
799.832	0.0151518
799.910	0.0150268
799.988	0.0150245
800.067	0.0150571
800.145	0.0150159
800.223	0.0151729
800.301	0.0150685
800.379	0.0150701
800.457	0.0150733
800.535	0.0150432
800.613	0.0151629
800.692	0.0150248
800.770	0.0151154
800.848	0.0149886
800.926	0.0150021
801.004	0.0150228
801.082	0.0149619
801.160	0.0149377
801.238	0.0149135
801.317	0.0149615
801.395	0.0150352
801.473	0.0148497
801.551	0.0147295
801.629	0.0148193
801.707	0.0147221
801.785	0.0147762
801.863	0.0146925
801.942	0.0146324
802.020	0.0145471
802.098	0.0145193
802.176	0.0147089
802.254	0.0147836
802.332	0.0146756
802.410	0.0146080
802.488	0.0145523
802.567	0.0145944
802.645	0.0145696
802.723	0.0145591
802.801	0.0146644
802.879	0.0146095
802.957	0.0145686
803.035	0.0146811
803.113	0.0146106
803.192	0.0146283
803.270	0.0145826
803.348	0.0145393
803.426	0.0146850
803.504	0.0145602
803.582	0.0144498
803.660	0.0146967
803.738	0.0146717
803.817	0.0146072
803.895	0.0145673
803.973	0.0146354
804.051	0.0146541
804.129	0.0147538
804.207	0.0147289
804.285	0.0145696
804.363	0.0145626
804.442	0.0147419
804.520	0.0147080
804.598	0.0144938
804.676	0.0147530
804.754	0.0147641
804.832	0.0147780
804.910	0.0145733
804.988	0.0147030
805.067	0.0148108
805.145	0.0146574
805.223	0.0148759
805.301	0.0146858
805.379	0.0147202
805.457	0.0146024
805.535	0.0145634
805.613	0.0146910
805.692	0.0146143
805.770	0.0146979
805.848	0.0145713
805.926	0.0144227
806.004	0.0144914
806.082	0.0145486
806.160	0.0144754
806.238	0.0143219
806.317	0.0146687
806.395	0.0147099
806.473	0.0146095
806.551	0.0147646
806.629	0.0146285
806.707	0.0146930
806.785	0.0147095
806.863	0.0146966
806.942	0.0145625
807.020	0.0147823
807.098	0.0147803
807.176	0.0146680
807.254	0.0146603
807.332	0.0148094
807.410	0.0148200
807.488	0.0148166
807.567	0.0149365
807.645	0.0147614
807.723	0.0149506
807.801	0.0148679
807.879	0.0147663
807.957	0.0149358
808.035	0.0149148
808.113	0.0148044
808.192	0.0148587
808.270	0.0148297
808.348	0.0148825
808.426	0.0148755
808.504	0.0149408
808.582	0.0149146
808.660	0.0149015
808.738	0.0147730
808.817	0.0148022
808.895	0.0148721
808.973	0.0148293
809.051	0.0148727
809.129	0.0148258
809.207	0.0148267
809.285	0.0149455
809.363	0.0147810
809.442	0.0147828
809.520	0.0148669
809.598	0.0149557
809.676	0.0148024
809.754	0.0148699
809.832	0.0147169
809.910	0.0148575
809.988	0.0148322
810.067	0.0148009
810.145	0.0148043
810.223	0.0149593
810.301	0.0148356
810.379	0.0148442
810.457	0.0149372
810.535	0.0149917
810.613	0.0148102
810.692	0.0150255
810.770	0.0149532
810.848	0.0149775
810.926	0.0148740
811.004	0.0149640
811.082	0.0149887
811.160	0.0149754
811.238	0.0150548
811.317	0.0149374
811.395	0.0148281
811.473	0.0148309
811.551	0.0150608
811.629	0.0149495
811.707	0.0149053
811.785	0.0150575
811.863	0.0149598
811.942	0.0150570
812.020	0.0148519
812.098	0.0149329
812.176	0.0148923
812.254	0.0149986
812.332	0.0150970
812.410	0.0151212
812.488	0.0150063
812.567	0.0150055
812.645	0.0148753
812.723	0.0147667
812.801	0.0149192
812.879	0.0150389
812.957	0.0149049
813.035	0.0149044
813.113	0.0149935
813.192	0.0149574
813.270	0.0148527
813.348	0.0149223
813.426	0.0149367
813.504	0.0146201
813.582	0.0147133
813.660	0.0147420
813.738	0.0146877
813.817	0.0147102
813.895	0.0147129
813.973	0.0148231
814.051	0.0147613
814.129	0.0147230
814.207	0.0147591
814.285	0.0146867
814.363	0.0147803
814.442	0.0148117
814.520	0.0148132
814.598	0.0146379
814.676	0.0148414
814.754	0.0147947
814.832	0.0148671
814.910	0.0147730
814.988	0.0147215
815.067	0.0149490
815.145	0.0148148
815.223	0.0148374
815.301	0.0149231
815.379	0.0148782
815.457	0.0148361
815.535	0.0148083
815.613	0.0147576
815.692	0.0149552
815.770	0.0148569
815.848	0.0148622
815.926	0.0147662
816.004	0.0147729
816.082	0.0147284
816.160	0.0146940
816.238	0.0147593
816.317	0.0147569
816.395	0.0145956
816.473	0.0146661
816.551	0.0147054
816.629	0.0146961
816.707	0.0145788
816.785	0.0146941
816.863	0.0147388
816.942	0.0146864
817.020	0.0146102
817.098	0.0146479
817.176	0.0147958
817.254	0.0146541
817.332	0.0147387
817.410	0.0148474
817.488	0.0147761
817.567	0.0148666
817.645	0.0146686
817.723	0.0147508
817.801	0.0149130
817.879	0.0148255
817.957	0.0147508
818.035	0.0148569
818.113	0.0146839
818.192	0.0147854
818.270	0.0148162
818.348	0.0149364
818.426	0.0148637
818.504	0.0148588
818.582	0.0146951
818.660	0.0146966
818.738	0.0148852
818.817	0.0147778
818.895	0.0148796
818.973	0.0147082
819.051	0.0146410
819.129	0.0148169
819.207	0.0146490
819.285	0.0147047
819.363	0.0146821
819.442	0.0147658
819.520	0.0146255
819.598	0.0145323
819.676	0.0146055
819.754	0.0146267
819.832	0.0148163
819.910	0.0147943
819.988	0.0146573
820.067	0.0146644
820.145	0.0147951
820.223	0.0147061
820.301	0.0147506
820.379	0.0149020
820.457	0.0148505
820.535	0.0148047
820.613	0.0148806
820.692	0.0149788
820.770	0.0149151
820.848	0.0150510
820.926	0.0149264
821.004	0.0150858
821.082	0.0149602
821.160	0.0150010
821.238	0.0149581
821.317	0.0149233
821.395	0.0150262
821.473	0.0148315
821.551	0.0148539
821.629	0.0150363
821.707	0.0149310
821.785	0.0149820
821.863	0.0149514
821.942	0.0150855
822.020	0.0150649
822.098	0.0148862
822.176	0.0150613
822.254	0.0150185
822.332	0.0150426
822.410	0.0151129
822.488	0.0150514
822.567	0.0150117
822.645	0.0150583
822.723	0.0150127
822.801	0.0150136
822.879	0.0150747
822.957	0.0151494
823.035	0.0149589
823.113	0.0149658
823.192	0.0150883
823.270	0.0150134
823.348	0.0150121
823.426	0.0148247
823.504	0.0150375
823.582	0.0150536
823.660	0.0149490
823.738	0.0150533
823.817	0.0150437
823.895	0.0149718
823.973	0.0149770
824.051	0.0150359
824.129	0.0148958
824.207	0.0148211
824.285	0.0148651
824.363	0.0149976
824.442	0.0147929
824.520	0.0148598
824.598	0.0148591
824.676	0.0148556
824.754	0.0148411
824.832	0.0148350
824.910	0.0148071
824.988	0.0147030
825.067	0.0146279
825.145	0.0148911
825.223	0.0148177
825.301	0.0147039
825.379	0.0146691
825.457	0.0147228
825.535	0.0147758
825.613	0.0146086
825.692	0.0146510
825.770	0.0147495
825.848	0.0148584
825.926	0.0147645
826.004	0.0148067
826.082	0.0147298
826.160	0.0147065
826.238	0.0146252
826.317	0.0147041
826.395	0.0146239
826.473	0.0148376
826.551	0.0145995
826.629	0.0146472
826.707	0.0147879
826.785	0.0146583
826.863	0.0147811
826.942	0.0146986
827.020	0.0148040
827.098	0.0147222
827.176	0.0146670
827.254	0.0147286
827.332	0.0148349
827.410	0.0147430
827.488	0.0146633
827.567	0.0146696
827.645	0.0146371
827.723	0.0146836
827.801	0.0146831
827.879	0.0146364
827.957	0.0147837
828.035	0.0147310
828.113	0.0147060
828.192	0.0146310
828.270	0.0145498
828.348	0.0146532
828.426	0.0146339
828.504	0.0146329
828.582	0.0147169
828.660	0.0145950
828.738	0.0145571
828.817	0.0146918
828.895	0.0146758
828.973	0.0146268
829.051	0.0145811
829.129	0.0146307
829.207	0.0146021
829.285	0.0145692
829.363	0.0145429
829.442	0.0145857
829.520	0.0146992
829.598	0.0145937
829.676	0.0146028
829.754	0.0146568
829.832	0.0147073
829.910	0.0147200
829.988	0.0147490
830.067	0.0147601
830.145	0.0147050
830.223	0.0148422
830.301	0.0148192
830.379	0.0148357
830.457	0.0147720
830.535	0.0149884
830.613	0.0147062
830.692	0.0148447
830.770	0.0149463
830.848	0.0149524
830.926	0.0149198
831.004	0.0148783
831.082	0.0148267
831.160	0.0149447
831.238	0.0148673
831.317	0.0148431
831.395	0.0150420
831.473	0.0150092
831.551	0.0149664
831.629	0.0148716
831.707	0.0150201
831.785	0.0150033
831.863	0.0149865
831.942	0.0150510
832.020	0.0149549
832.098	0.0148424
832.176	0.0148526
832.254	0.0149430
832.332	0.0150543
832.410	0.0149418
832.488	0.0148837
832.567	0.0148546
832.645	0.0149906
832.723	0.0149140
832.801	0.0148553
832.879	0.0148566
832.957	0.0149896
833.035	0.0147268
833.113	0.0149042
833.192	0.0149149
833.270	0.0148313
833.348	0.0148441
833.426	0.0147809
833.504	0.0147633
833.582	0.0149773
833.660	0.0148068
833.738	0.0147829
833.817	0.0148170
833.895	0.0147498
833.973	0.0146525
834.051	0.0147364
834.129	0.0147302
834.207	0.0147483
834.285	0.0147488
834.363	0.0148670
834.442	0.0148164
834.520	0.0148357
834.598	0.0147858
834.676	0.0146317
834.754	0.0149329
834.832	0.0147711
834.910	0.0146975
834.988	0.0148205
835.067	0.0148031
835.145	0.0148872
835.223	0.0147675
835.301	0.0147497
835.379	0.0148221
835.457	0.0150021
835.535	0.0148878
835.613	0.0149403
835.692	0.0148512
835.770	0.0148437
835.848	0.0148710
835.926	0.0149607
836.004	0.0149046
836.082	0.0147406
836.160	0.0148488
836.238	0.0148531
836.317	0.0148563
836.395	0.0150176
836.473	0.0150024
836.551	0.0149241
836.629	0.0148427
836.707	0.0148078
836.785	0.0149494
836.863	0.0149081
836.942	0.0149229
837.020	0.0149837
837.098	0.0149294
837.176	0.0149145
837.254	0.0148549
837.332	0.0149151
837.410	0.0147997
837.488	0.0149234
837.567	0.0148785
837.645	0.0148533
837.723	0.0148673
837.801	0.0147768
837.879	0.0147782
837.957	0.0148164
838.035	0.0148790
838.113	0.0149820
838.192	0.0147591
838.270	0.0146862
838.348	0.0147627
838.426	0.0147552
838.504	0.0147198
838.582	0.0147440
838.660	0.0148662
838.738	0.0147292
838.817	0.0148308
838.895	0.0146689
838.973	0.0145723
839.051	0.0148253
839.129	0.0148335
839.207	0.0146488
839.285	0.0146552
839.363	0.0146712
839.442	0.0146389
839.520	0.0146317
839.598	0.0146054
839.676	0.0145724
839.754	0.0146165
839.832	0.0145811
839.910	0.0146625
839.988	0.0145652
840.067	0.0146133
840.145	0.0146193
840.223	0.0146313
840.301	0.0146394
840.379	0.0144823
840.457	0.0145223
840.535	0.0147754
840.613	0.0145992
840.692	0.0146809
840.770	0.0146603
840.848	0.0145561
840.926	0.0146843
841.004	0.0148445
841.082	0.0147182
841.160	0.0145425
841.238	0.0147243
841.317	0.0148580
841.395	0.0148248
841.473	0.0147388
841.551	0.0147362
841.629	0.0147169
841.707	0.0148351
841.785	0.0148360
841.863	0.0149181
841.942	0.0148241
842.020	0.0149760
842.098	0.0149136
842.176	0.0149413
842.254	0.0149240
842.332	0.0149827
842.410	0.0148389
842.488	0.0149280
842.567	0.0150520
842.645	0.0149288
842.723	0.0150889
842.801	0.0151310
842.879	0.0151001
842.957	0.0149435
843.035	0.0150217
843.113	0.0149358
843.192	0.0150726
843.270	0.0149791
843.348	0.0149551
843.426	0.0150422
843.504	0.0151234
843.582	0.0149518
843.660	0.0149335
843.738	0.0150471
843.817	0.0151289
843.895	0.0150513
843.973	0.0148820
844.051	0.0149049
844.129	0.0149622
844.207	0.0151740
844.285	0.0150035
844.363	0.0149907
844.442	0.0150285
844.520	0.0152427
844.598	0.0149862
844.676	0.0150269
844.754	0.0151584
844.832	0.0150436
844.910	0.0150443
844.988	0.0150742
845.067	0.0149717
845.145	0.0150237
845.223	0.0148102
845.301	0.0150529
845.379	0.0151449
845.457	0.0149715
845.535	0.0151671
845.613	0.0151157
845.692	0.0150736
845.770	0.0150771
845.848	0.0149340
845.926	0.0149473
846.004	0.0148444
846.082	0.0149626
846.160	0.0150055
846.238	0.0150007
846.317	0.0150231
846.395	0.0149452
846.473	0.0148258
846.551	0.0150151
846.629	0.0150728
846.707	0.0150077
846.785	0.0149907
846.863	0.0149006
846.942	0.0148787
847.020	0.0148409
847.098	0.0149244
847.176	0.0149144
847.254	0.0149872
847.332	0.0148981
847.410	0.0150578
847.488	0.0149738
847.567	0.0148280
847.645	0.0149377
847.723	0.0149696
847.801	0.0148636
847.879	0.0148478
847.957	0.0149085
848.035	0.0147218
848.113	0.0145754
848.192	0.0147923
848.270	0.0148528
848.348	0.0147102
848.426	0.0148862
848.504	0.0147115
848.582	0.0147926
848.660	0.0146933
848.738	0.0147077
848.817	0.0146938
848.895	0.0146318
848.973	0.0146742
849.051	0.0147810
849.129	0.0147766
849.207	0.0146600
849.285	0.0146098
849.363	0.0147309
849.442	0.0147774
849.520	0.0147166
849.598	0.0146603
849.676	0.0147944
849.754	0.0146419
849.832	0.0147160
849.910	0.0145659
849.988	0.0147672
850.067	0.0146530
850.145	0.0148151
850.223	0.0147748
850.301	0.0148103
850.379	0.0148119
850.457	0.0149352
850.535	0.0147785
850.613	0.0148734
850.692	0.0147565
850.770	0.0148819
850.848	0.0147984
850.926	0.0149594
851.004	0.0148318
851.082	0.0148939
851.160	0.0150333
851.238	0.0148038
851.317	0.0149110
851.395	0.0149470
851.473	0.0149216
851.551	0.0149667
851.629	0.0149534
851.707	0.0148959
851.785	0.0150136
851.863	0.0147787
851.942	0.0149477
852.020	0.0149770
852.098	0.0149290
852.176	0.0149767
852.254	0.0149168
852.332	0.0149426
852.410	0.0149414
852.488	0.0150065
852.567	0.0150589
852.645	0.0149908
852.723	0.0149573
852.801	0.0149926
852.879	0.0149107
852.957	0.0148901
853.035	0.0149168
853.113	0.0150011
853.192	0.0149590
853.270	0.0149617
853.348	0.0148965
853.426	0.0148912
853.504	0.0149397
853.582	0.0150344
853.660	0.0149780
853.738	0.0148200
853.817	0.0150328
853.895	0.0150555
853.973	0.0149624
854.051	0.0149519
854.129	0.0150111
854.207	0.0148898
854.285	0.0148775
854.363	0.0151638
854.442	0.0149369
854.520	0.0149490
854.598	0.0149000
854.676	0.0149792
854.754	0.0148798
854.832	0.0149329
854.910	0.0149065
854.988	0.0149168
855.067	0.0148270
855.145	0.0149963
855.223	0.0149850
855.301	0.0149057
855.379	0.0149320
855.457	0.0148837
855.535	0.0149789
855.613	0.0149324
855.692	0.0149402
855.770	0.0150233
855.848	0.0151425
855.926	0.0150359
856.004	0.0149773
856.082	0.0150696
856.160	0.0150140
856.238	0.0148679
856.317	0.0150892
856.395	0.0150739
856.473	0.0149449
856.551	0.0148737
856.629	0.0149345
856.707	0.0150716
856.785	0.0148949
856.863	0.0149700
856.942	0.0148125
857.020	0.0149588
857.098	0.0149549
857.176	0.0149088
857.254	0.0150374
857.332	0.0149178
857.410	0.0148877
857.488	0.0149651
857.567	0.0148608
857.645	0.0148981
857.723	0.0149773
857.801	0.0150811
857.879	0.0149740
857.957	0.0150117
858.035	0.0150333
858.113	0.0148788
858.192	0.0148684
858.270	0.0150582
858.348	0.0148565
858.426	0.0148710
858.504	0.0150089
858.582	0.0148611
858.660	0.0148449
858.738	0.0148853
858.817	0.0148291
858.895	0.0149089
858.973	0.0149213
859.051	0.0149312
859.129	0.0149501
859.207	0.0149374
859.285	0.0148282
859.363	0.0148744
859.442	0.0148828
859.520	0.0148991
859.598	0.0148436
859.676	0.0146597
859.754	0.0148968
859.832	0.0148837
859.910	0.0147195
859.988	0.0147496
860.067	0.0147692
860.145	0.0148464
860.223	0.0146651
860.301	0.0146355
860.379	0.0146960
860.457	0.0146948
860.535	0.0145456
860.613	0.0145567
860.692	0.0146453
860.770	0.0147163
860.848	0.0146015
860.926	0.0144871
861.004	0.0145905
861.082	0.0146830
861.160	0.0146960
861.238	0.0144456
861.317	0.0145383
861.395	0.0146311
861.473	0.0145460
861.551	0.0146629
861.629	0.0145282
861.707	0.0145621
861.785	0.0145536
861.863	0.0144849
861.942	0.0146253
862.020	0.0146823
862.098	0.0146142
862.176	0.0146328
862.254	0.0146359
862.332	0.0146860
862.410	0.0145729
862.488	0.0146314
862.567	0.0147649
862.645	0.0146863
862.723	0.0147997
862.801	0.0149775
862.879	0.0148188
862.957	0.0147626
863.035	0.0147530
863.113	0.0147713
863.192	0.0148723
863.270	0.0147901
863.348	0.0148643
863.426	0.0149590
863.504	0.0149545
863.582	0.0148119
863.660	0.0149748
863.738	0.0150051
863.817	0.0148449
863.895	0.0148240
863.973	0.0149041
864.051	0.0149335
864.129	0.0148922
864.207	0.0148943
864.285	0.0148995
864.363	0.0149300
864.442	0.0148511
864.520	0.0149577
864.598	0.0148962
864.676	0.0148542
864.754	0.0148850
864.832	0.0149532
864.910	0.0148690
864.988	0.0148492
865.067	0.0148763
865.145	0.0148203
865.223	0.0149488
865.301	0.0148193
865.379	0.0148311
865.457	0.0148219
865.535	0.0148432
865.613	0.0148557
865.692	0.0147626
865.770	0.0148379
865.848	0.0147031
865.926	0.0147575
866.004	0.0148276
866.082	0.0147375
866.160	0.0147341
866.238	0.0148528
866.317	0.0149120
866.395	0.0149483
866.473	0.0149426
866.551	0.0148705
866.629	0.0149149
866.707	0.0149767
866.785	0.0149031
866.863	0.0148668
866.942	0.0148495
867.020	0.0148801
867.098	0.0150465
867.176	0.0150656
867.254	0.0149076
867.332	0.0151554
867.410	0.0150559
867.488	0.0149606
867.567	0.0151414
867.645	0.0151395
867.723	0.0150876
867.801	0.0151436
867.879	0.0150968
867.957	0.0150613
868.035	0.0150455
868.113	0.0150795
868.192	0.0150219
868.270	0.0149316
868.348	0.0150436
868.426	0.0150448
868.504	0.0150713
868.582	0.0151320
868.660	0.0151400
868.738	0.0150585
868.817	0.0150658
868.895	0.0151327
868.973	0.0150751
869.051	0.0150920
869.129	0.0149662
869.207	0.0151098
869.285	0.0150355
869.363	0.0151265
869.442	0.0151252
869.520	0.0149681
869.598	0.0150995
869.676	0.0151299
869.754	0.0151078
869.832	0.0150811
869.910	0.0151455
869.988	0.0148286
870.067	0.0149604
870.145	0.0149533
870.223	0.0149547
870.301	0.0149976
870.379	0.0148387
870.457	0.0148989
870.535	0.0148631
870.613	0.0150169
870.692	0.0148983
870.770	0.0148669
870.848	0.0147919
870.926	0.0148254
871.004	0.0147598
871.082	0.0147399
871.160	0.0147278
871.238	0.0146394
871.317	0.0148561
871.395	0.0147358
871.473	0.0147029
871.551	0.0146786
871.629	0.0147388
871.707	0.0147863
871.785	0.0148125
871.863	0.0148444
871.942	0.0148586
872.020	0.0147533
872.098	0.0148196
872.176	0.0147626
872.254	0.0147495
872.332	0.0148869
872.410	0.0147538
872.488	0.0147582
872.567	0.0148557
872.645	0.0148677
872.723	0.0146905
872.801	0.0147763
872.879	0.0148280
872.957	0.0147964
873.035	0.0147669
873.113	0.0147787
873.192	0.0148367
873.270	0.0150100
873.348	0.0148991
873.426	0.0147555
873.504	0.0147487
873.582	0.0147612
873.660	0.0146548
873.738	0.0146891
873.817	0.0147054
873.895	0.0148405
873.973	0.0146993
874.051	0.0148325
874.129	0.0145410
874.207	0.0147469
874.285	0.0147835
874.363	0.0147299
874.442	0.0146920
874.520	0.0148068
874.598	0.0148916
874.676	0.0146970
874.754	0.0148264
874.832	0.0146656
874.910	0.0147540
874.988	0.0149312
875.067	0.0148782
875.145	0.0149007
875.223	0.0149900
875.301	0.0148058
875.379	0.0149461
875.457	0.0149534
875.535	0.0150897
875.613	0.0149176
875.692	0.0148131
875.770	0.0149401
875.848	0.0149293
875.926	0.0148608
876.004	0.0148318
876.082	0.0148994
876.160	0.0149526
876.238	0.0148277
876.317	0.0147935
876.395	0.0148260
876.473	0.0147767
876.551	0.0149390
876.629	0.0148128
876.707	0.0148368
876.785	0.0148792
876.863	0.0146738
876.942	0.0147189
877.020	0.0148405
877.098	0.0148719
877.176	0.0148652
877.254	0.0147247
877.332	0.0148239
877.410	0.0148272
877.488	0.0147282
877.567	0.0149199
877.645	0.0148750
877.723	0.0148447
877.801	0.0149088
877.879	0.0149507
877.957	0.0149718
878.035	0.0147360
878.113	0.0149014
878.192	0.0149384
878.270	0.0148093
878.348	0.0147917
878.426	0.0148959
878.504	0.0150058
878.582	0.0149388
878.660	0.0149208
878.738	0.0149567
878.817	0.0148836
878.895	0.0150497
878.973	0.0148917
879.051	0.0149589
879.129	0.0150936
879.207	0.0150346
879.285	0.0150515
879.363	0.0150097
879.442	0.0150296
879.520	0.0151456
879.598	0.0151731
879.676	0.0150886
879.754	0.0149808
879.832	0.0150733
879.910	0.0149989
879.988	0.0150045
880.067	0.0149821
880.145	0.0150241
880.223	0.0150481
880.301	0.0149316
880.379	0.0150511
880.457	0.0150018
880.535	0.0148427
880.613	0.0149191
880.692	0.0148741
880.770	0.0148528
880.848	0.0148899
880.926	0.0149116
881.004	0.0148779
881.082	0.0150027
881.160	0.0148871
881.238	0.0150113
881.317	0.0148921
881.395	0.0147736
881.473	0.0148061
881.551	0.0148942
881.629	0.0149969
881.707	0.0148715
881.785	0.0147888
881.863	0.0147775
881.942	0.0148250
882.020	0.0148056
882.098	0.0148447
882.176	0.0149391
882.254	0.0147355
882.332	0.0148660
882.410	0.0149011
882.488	0.0148507
882.567	0.0147802
882.645	0.0148740
882.723	0.0148157
882.801	0.0149248
882.879	0.0148799
882.957	0.0147341
883.035	0.0148248
883.113	0.0148996
883.192	0.0148135
883.270	0.0148030
883.348	0.0148689
883.426	0.0146442
883.504	0.0149606
883.582	0.0148490
883.660	0.0147799
883.738	0.0148325
883.817	0.0148132
883.895	0.0148870
883.973	0.0148376
884.051	0.0148444
884.129	0.0147826
884.207	0.0147482
884.285	0.0148660
884.363	0.0148652
884.442	0.0147099
884.520	0.0149261
884.598	0.0148534
884.676	0.0148168
884.754	0.0147758
884.832	0.0148177
884.910	0.0149231
884.988	0.0148726
885.067	0.0147969
885.145	0.0148454
885.223	0.0149921
885.301	0.0150041
885.379	0.0150082
885.457	0.0149165
885.535	0.0150501
885.613	0.0149294
885.692	0.0148132
885.770	0.0149705
885.848	0.0148712
885.926	0.0148726
886.004	0.0150424
886.082	0.0148500
886.160	0.0148470
886.238	0.0149757
886.317	0.0148908
886.395	0.0149214
886.473	0.0150517
886.551	0.0149196
886.629	0.0148737
886.707	0.0150216
886.785	0.0150276
886.863	0.0150227
886.942	0.0149009
887.020	0.0150211
887.098	0.0149746
887.176	0.0147932
887.254	0.0149286
887.332	0.0148883
887.410	0.0150732
887.488	0.0150338
887.567	0.0148524
887.645	0.0148142
887.723	0.0149151
887.801	0.0149443
887.879	0.0148590
887.957	0.0150721
888.035	0.0148223
888.113	0.0148981
888.192	0.0148647
888.270	0.0148536
888.348	0.0147591
888.426	0.0147636
888.504	0.0149852
888.582	0.0148856
888.660	0.0148486
888.738	0.0148473
888.817	0.0148446
888.895	0.0150207
888.973	0.0149872
889.051	0.0149092
889.129	0.0149043
889.207	0.0148495
889.285	0.0149540
889.363	0.0150628
889.442	0.0149720
889.520	0.0148451
889.598	0.0149072
889.676	0.0149732
889.754	0.0148161
889.832	0.0150419
889.910	0.0148115
889.988	0.0149577
890.067	0.0149142
890.145	0.0148127
890.223	0.0149371
890.301	0.0149197
890.379	0.0149941
890.457	0.0148609
890.535	0.0147961
890.613	0.0148787
890.692	0.0149120
890.770	0.0148851
890.848	0.0148471
890.926	0.0149515
891.004	0.0149226
891.082	0.0149586
891.160	0.0149038
891.238	0.0148022
891.317	0.0148553
891.395	0.0147913
891.473	0.0149044
891.551	0.0149919
891.629	0.0148900
891.707	0.0149583
891.785	0.0149268
891.863	0.0148977
891.942	0.0148782
892.020	0.0147814
892.098	0.0147466
892.176	0.0148650
892.254	0.0147892
892.332	0.0148240
892.410	0.0148206
892.488	0.0147943
892.567	0.0147174
892.645	0.0145819
892.723	0.0148693
892.801	0.0149281
892.879	0.0147868
892.957	0.0147617
893.035	0.0147990
893.113	0.0148254
893.192	0.0148648
893.270	0.0148456
893.348	0.0147352
893.426	0.0148910
893.504	0.0146505
893.582	0.0147234
893.660	0.0147614
893.738	0.0146950
893.817	0.0147211
893.895	0.0147289
893.973	0.0147143
894.051	0.0147215
894.129	0.0147478
894.207	0.0148563
894.285	0.0148975
894.363	0.0148046
894.442	0.0147799
894.520	0.0147655
894.598	0.0149547
894.676	0.0147855
894.754	0.0146560
894.832	0.0147433
894.910	0.0147883
894.988	0.0148043
895.067	0.0147443
895.145	0.0147560
895.223	0.0146968
895.301	0.0145602
895.379	0.0147320
895.457	0.0147316
895.535	0.0146693
895.613	0.0147117
895.692	0.0146209
895.770	0.0147086
895.848	0.0145691
895.926	0.0146163
896.004	0.0146855
896.082	0.0147317
896.160	0.0145606
896.238	0.0144917
896.317	0.0146752
896.395	0.0145664
896.473	0.0145728
896.551	0.0148134
896.629	0.0146487
896.707	0.0147958
896.785	0.0147626
896.863	0.0145966
896.942	0.0146826
897.020	0.0147829
897.098	0.0146971
897.176	0.0146357
897.254	0.0148022
897.332	0.0147770
897.410	0.0146694
897.488	0.0146716
897.567	0.0147765
897.645	0.0146813
897.723	0.0147742
897.801	0.0147345
897.879	0.0148466
897.957	0.0147910
898.035	0.0147025
898.113	0.0147364
898.192	0.0148788
898.270	0.0147532
898.348	0.0148060
898.426	0.0148573
898.504	0.0147621
898.582	0.0147751
898.660	0.0147741
898.738	0.0148153
898.817	0.0147237
898.895	0.0147602
898.973	0.0148302
899.051	0.0147341
899.129	0.0148641
899.207	0.0149397
899.285	0.0147278
899.363	0.0147715
899.442	0.0149615
899.520	0.0149529
899.598	0.0148224
899.676	0.0148353
899.754	0.0148045
899.832	0.0148699
899.910	0.0147851
899.988	0.0148030
900.067	0.0148780
900.145	0.0149112
900.223	0.0148153
900.301	0.0148567
900.379	0.0147594
900.457	0.0146878
900.535	0.0148035
900.613	0.0148881
900.692	0.0148414
900.770	0.0147585
900.848	0.0149563
900.926	0.0148854
901.004	0.0148634
901.082	0.0149815
901.160	0.0150116
901.238	0.0149442
901.317	0.0147132
901.395	0.0148839
901.473	0.0148117
901.551	0.0147562
901.629	0.0149358
901.707	0.0148403
901.785	0.0148001
901.863	0.0148586
901.942	0.0147277
902.020	0.0147589
902.098	0.0147958
902.176	0.0147973
902.254	0.0147392
902.332	0.0147847
902.410	0.0149265
902.488	0.0146691
902.567	0.0147284
902.645	0.0146929
902.723	0.0147618
902.801	0.0147334
902.879	0.0147466
902.957	0.0147184
903.035	0.0146623
903.113	0.0145428
903.192	0.0146737
903.270	0.0145786
903.348	0.0145874
903.426	0.0146782
903.504	0.0145906
903.582	0.0147044
903.660	0.0146781
903.738	0.0146496
903.817	0.0145029
903.895	0.0146434
903.973	0.0145861
904.051	0.0146824
904.129	0.0145840
904.207	0.0145662
904.285	0.0146034
904.363	0.0148483
904.442	0.0147146
904.520	0.0146716
904.598	0.0147199
904.676	0.0148965
904.754	0.0147690
904.832	0.0148662
904.910	0.0146835
904.988	0.0147193
905.067	0.0146802
905.145	0.0148093
905.223	0.0146626
905.301	0.0147534
905.379	0.0147556
905.457	0.0147539
905.535	0.0148666
905.613	0.0148606
905.692	0.0146265
905.770	0.0147524
905.848	0.0147023
905.926	0.0147163
906.004	0.0148151
906.082	0.0145932
906.160	0.0147537
906.238	0.0148479
906.317	0.0147518
906.395	0.0147498
906.473	0.0147102
906.551	0.0146326
906.629	0.0146385
906.707	0.0147075
906.785	0.0148305
906.863	0.0146388
906.942	0.0147211
907.020	0.0147710
907.098	0.0147382
907.176	0.0147267
907.254	0.0146088
907.332	0.0148044
907.410	0.0145818
907.488	0.0148029
907.567	0.0147057
907.645	0.0147842
907.723	0.0148459
907.801	0.0148814
907.879	0.0146643
907.957	0.0147079
908.035	0.0148077
908.113	0.0147308
908.192	0.0147044
908.270	0.0148136
908.348	0.0147096
908.426	0.0147222
908.504	0.0146851
908.582	0.0147560
908.660	0.0148025
908.738	0.0146624
908.817	0.0147004
908.895	0.0147000
908.973	0.0147196
909.051	0.0147172
909.129	0.0147640
909.207	0.0147529
909.285	0.0147163
909.363	0.0148695
909.442	0.0149754
909.520	0.0147107
909.598	0.0147667
909.676	0.0147778
909.754	0.0148338
909.832	0.0148990
909.910	0.0148732
909.988	0.0149982
910.067	0.0148763
910.145	0.0148932
910.223	0.0150719
910.301	0.0149050
910.379	0.0149613
910.457	0.0148901
910.535	0.0149526
910.613	0.0150046
910.692	0.0150512
910.770	0.0150040
910.848	0.0149397
910.926	0.0150340
911.004	0.0150533
911.082	0.0149650
911.160	0.0148618
911.238	0.0150656
911.317	0.0150415
911.395	0.0149787
911.473	0.0152061
911.551	0.0151773
911.629	0.0151376
911.707	0.0151624
911.785	0.0150893
911.863	0.0151538
911.942	0.0150035
912.020	0.0150468
912.098	0.0151086
912.176	0.0149848
912.254	0.0151248
912.332	0.0151477
912.410	0.0151588
912.488	0.0151220
912.567	0.0151128
912.645	0.0151153
912.723	0.0150513
912.801	0.0150485
912.879	0.0150072
912.957	0.0150346
913.035	0.0150433
913.113	0.0150157
913.192	0.0149713
913.270	0.0149913
913.348	0.0150362
913.426	0.0150216
913.504	0.0150852
913.582	0.0148064
913.660	0.0148853
913.738	0.0148636
913.817	0.0151530
913.895	0.0150594
913.973	0.0148519
914.051	0.0149601
914.129	0.0150182
914.207	0.0149371
914.285	0.0149848
914.363	0.0150273
914.442	0.0149183
914.520	0.0148810
914.598	0.0148849
914.676	0.0149034
914.754	0.0147758
914.832	0.0149029
914.910	0.0147548
914.988	0.0147295
915.067	0.0148298
915.145	0.0147941
915.223	0.0147784
915.301	0.0147392
915.379	0.0147058
915.457	0.0147335
915.535	0.0148032
915.613	0.0147045
915.692	0.0146978
915.770	0.0148354
915.848	0.0147402
915.926	0.0146832
916.004	0.0147923
916.082	0.0146003
916.160	0.0146996
916.238	0.0147671
916.317	0.0147049
916.395	0.0147316
916.473	0.0146536
916.551	0.0146429
916.629	0.0147141
916.707	0.0146259
916.785	0.0145554
916.863	0.0147035
916.942	0.0144729
917.020	0.0145537
917.098	0.0145525
917.176	0.0144728
917.254	0.0144151
917.332	0.0144492
917.410	0.0144791
917.488	0.0145374
917.567	0.0145368
917.645	0.0144179
917.723	0.0144011
917.801	0.0142843
917.879	0.0144523
917.957	0.0144804
918.035	0.0143989
918.113	0.0143779
918.192	0.0144942
918.270	0.0144265
918.348	0.0144775
918.426	0.0144164
918.504	0.0143974
918.582	0.0145112
918.660	0.0144672
918.738	0.0143918
918.817	0.0143498
918.895	0.0145587
918.973	0.0146779
919.051	0.0144896
919.129	0.0145574
919.207	0.0146498
919.285	0.0146175
919.363	0.0145963
919.442	0.0145743
919.520	0.0145437
919.598	0.0146783
919.676	0.0146857
919.754	0.0146960
919.832	0.0146601
919.910	0.0146617
