05/28/2022	14:27:42	Ver.	4.1	UNKNOWN
Optical Delay	599.988409	Delta X		0.078125	Sweeps	1	Scan Rate	0/0
Coordinates	Axis 1	NaN	Axis 2	NaN	Axis 3	NaN	Axis 4	NaN	Axis 5	NaN	Axis 6	0.000000
TX Power	0.000000	RX Power	0.000000

599.988	0.0145754
600.067	0.0145625
600.145	0.0144215
600.223	0.0144059
600.301	0.0145882
600.379	0.0146310
600.457	0.0146530
600.535	0.0146830
600.613	0.0147559
600.692	0.0145983
600.770	0.0146088
600.848	0.0146426
600.926	0.0146709
601.004	0.0148270
601.082	0.0147028
601.160	0.0146262
601.238	0.0148267
601.317	0.0148634
601.395	0.0148000
601.473	0.0148475
601.551	0.0146703
601.629	0.0146830
601.707	0.0146960
601.785	0.0146149
601.863	0.0146957
601.942	0.0146259
602.020	0.0148501
602.098	0.0146790
602.176	0.0146791
602.254	0.0147159
602.332	0.0146592
602.410	0.0145773
602.488	0.0146224
602.567	0.0147092
602.645	0.0146697
602.723	0.0147062
602.801	0.0146945
602.879	0.0146609
602.957	0.0144880
603.035	0.0146430
603.113	0.0145989
603.192	0.0147141
603.270	0.0146578
603.348	0.0146069
603.426	0.0147295
603.504	0.0147340
603.582	0.0146420
603.660	0.0146965
603.738	0.0147135
603.817	0.0146165
603.895	0.0147655
603.973	0.0148460
604.051	0.0147415
604.129	0.0146011
604.207	0.0147796
604.285	0.0147153
604.363	0.0148518
604.442	0.0146969
604.520	0.0148320
604.598	0.0148103
604.676	0.0149103
604.754	0.0149889
604.832	0.0147572
604.910	0.0149078
604.988	0.0148303
605.067	0.0148065
605.145	0.0147750
605.223	0.0149288
605.301	0.0148843
605.379	0.0149672
605.457	0.0148591
605.535	0.0148936
605.613	0.0148563
605.692	0.0149068
605.770	0.0148731
605.848	0.0149074
605.926	0.0148243
606.004	0.0148283
606.082	0.0148079
606.160	0.0149406
606.238	0.0149245
606.317	0.0149358
606.395	0.0147132
606.473	0.0147048
606.551	0.0147132
606.629	0.0148015
606.707	0.0148729
606.785	0.0147402
606.863	0.0147095
606.942	0.0148000
607.020	0.0146441
607.098	0.0147491
607.176	0.0147540
607.254	0.0146440
607.332	0.0147554
607.410	0.0146922
607.488	0.0146770
607.567	0.0147412
607.645	0.0147317
607.723	0.0147153
607.801	0.0146782
607.879	0.0145709
607.957	0.0146182
608.035	0.0146716
608.113	0.0146146
608.192	0.0145847
608.270	0.0146909
608.348	0.0146410
608.426	0.0146179
608.504	0.0145361
608.582	0.0146931
608.660	0.0146569
608.738	0.0145634
608.817	0.0146342
608.895	0.0146442
608.973	0.0146754
609.051	0.0146091
609.129	0.0145992
609.207	0.0146779
609.285	0.0146889
609.363	0.0146085
609.442	0.0147417
609.520	0.0147421
609.598	0.0146996
609.676	0.0146918
609.754	0.0146191
609.832	0.0147652
609.910	0.0147884
609.988	0.0148074
610.067	0.0147498
610.145	0.0148302
610.223	0.0147278
610.301	0.0148332
610.379	0.0147582
610.457	0.0148785
610.535	0.0146635
610.613	0.0147243
610.692	0.0147117
610.770	0.0148244
610.848	0.0147874
610.926	0.0147525
611.004	0.0148729
611.082	0.0146497
611.160	0.0147170
611.238	0.0146896
611.317	0.0148502
611.395	0.0145945
611.473	0.0147072
611.551	0.0147422
611.629	0.0147825
611.707	0.0148030
611.785	0.0147480
611.863	0.0147240
611.942	0.0148564
612.020	0.0147988
612.098	0.0148661
612.176	0.0147830
612.254	0.0149510
612.332	0.0148919
612.410	0.0149063
612.488	0.0147636
612.567	0.0148138
612.645	0.0149751
612.723	0.0148512
612.801	0.0147211
612.879	0.0148618
612.957	0.0148637
613.035	0.0147657
613.113	0.0147698
613.192	0.0148567
613.270	0.0148291
613.348	0.0148009
613.426	0.0148168
613.504	0.0149531
613.582	0.0148021
613.660	0.0147646
613.738	0.0148050
613.817	0.0148446
613.895	0.0147276
613.973	0.0147939
614.051	0.0148024
614.129	0.0147504
614.207	0.0147926
614.285	0.0147891
614.363	0.0146927
614.442	0.0147099
614.520	0.0147601
614.598	0.0148174
614.676	0.0147186
614.754	0.0147775
614.832	0.0148645
614.910	0.0148780
614.988	0.0148945
615.067	0.0148517
615.145	0.0147470
615.223	0.0147496
615.301	0.0147762
615.379	0.0148001
615.457	0.0148103
615.535	0.0147836
615.613	0.0147590
615.692	0.0147492
615.770	0.0147882
615.848	0.0146981
615.926	0.0149941
616.004	0.0148959
616.082	0.0147710
616.160	0.0148867
616.238	0.0147929
616.317	0.0147762
616.395	0.0146824
616.473	0.0148036
616.551	0.0147744
616.629	0.0148133
616.707	0.0147622
616.785	0.0148061
616.863	0.0147519
616.942	0.0148989
617.020	0.0148129
617.098	0.0147929
617.176	0.0146149
617.254	0.0147424
617.332	0.0147370
617.410	0.0145538
617.488	0.0147188
617.567	0.0146407
617.645	0.0146476
617.723	0.0146826
617.801	0.0145974
617.879	0.0146281
617.957	0.0145545
618.035	0.0147189
618.113	0.0147339
618.192	0.0147007
618.270	0.0147151
618.348	0.0147176
618.426	0.0148449
618.504	0.0147038
618.582	0.0146928
618.660	0.0148194
618.738	0.0147096
618.817	0.0145636
618.895	0.0147037
618.973	0.0147691
619.051	0.0147725
619.129	0.0149003
619.207	0.0145953
619.285	0.0146781
619.363	0.0147041
619.442	0.0147912
619.520	0.0145702
619.598	0.0146657
619.676	0.0146793
619.754	0.0146152
619.832	0.0146355
619.910	0.0147061
619.988	0.0146673
620.067	0.0146539
620.145	0.0146349
620.223	0.0145180
620.301	0.0145866
620.379	0.0147514
620.457	0.0147572
620.535	0.0144895
620.613	0.0146475
620.692	0.0146912
620.770	0.0144637
620.848	0.0146984
620.926	0.0145594
621.004	0.0145593
621.082	0.0146510
621.160	0.0147135
621.238	0.0146919
621.317	0.0145920
621.395	0.0146694
621.473	0.0146261
621.551	0.0147311
621.629	0.0146670
621.707	0.0144888
621.785	0.0147675
621.863	0.0145157
621.942	0.0144226
622.020	0.0146950
622.098	0.0147151
622.176	0.0145819
622.254	0.0146290
622.332	0.0146748
622.410	0.0146678
622.488	0.0146933
622.567	0.0146300
622.645	0.0148763
622.723	0.0145759
622.801	0.0147074
622.879	0.0145840
622.957	0.0147181
623.035	0.0146578
623.113	0.0146276
623.192	0.0147709
623.270	0.0146733
623.348	0.0146386
623.426	0.0147858
623.504	0.0147571
623.582	0.0147246
623.660	0.0146970
623.738	0.0147182
623.817	0.0148080
623.895	0.0148116
623.973	0.0146996
624.051	0.0147367
624.129	0.0147148
624.207	0.0145289
624.285	0.0147962
624.363	0.0146084
624.442	0.0147187
624.520	0.0146227
624.598	0.0145802
624.676	0.0146984
624.754	0.0147181
624.832	0.0147343
624.910	0.0147429
624.988	0.0147524
625.067	0.0146625
625.145	0.0147926
625.223	0.0146624
625.301	0.0148215
625.379	0.0146761
625.457	0.0147250
625.535	0.0147559
625.613	0.0146906
625.692	0.0146912
625.770	0.0146720
625.848	0.0147164
625.926	0.0148184
626.004	0.0147421
626.082	0.0148072
626.160	0.0147679
626.238	0.0146129
626.317	0.0147082
626.395	0.0147543
626.473	0.0147643
626.551	0.0147390
626.629	0.0146317
626.707	0.0146048
626.785	0.0148576
626.863	0.0147094
626.942	0.0148244
627.020	0.0147153
627.098	0.0146632
627.176	0.0147272
627.254	0.0148553
627.332	0.0147323
627.410	0.0147651
627.488	0.0147910
627.567	0.0147572
627.645	0.0148158
627.723	0.0147414
627.801	0.0146859
627.879	0.0148147
627.957	0.0148269
628.035	0.0148077
628.113	0.0147879
628.192	0.0147522
628.270	0.0146638
628.348	0.0148588
628.426	0.0146496
628.504	0.0146442
628.582	0.0148098
628.660	0.0147364
628.738	0.0146732
628.817	0.0146171
628.895	0.0145992
628.973	0.0146553
629.051	0.0147468
629.129	0.0146433
629.207	0.0146899
629.285	0.0147005
629.363	0.0146804
629.442	0.0146577
629.520	0.0146449
629.598	0.0148017
629.676	0.0146152
629.754	0.0145811
629.832	0.0146709
629.910	0.0148145
629.988	0.0146792
630.067	0.0146146
630.145	0.0146056
630.223	0.0147361
630.301	0.0145702
630.379	0.0145553
630.457	0.0147977
630.535	0.0147178
630.613	0.0147234
630.692	0.0146864
630.770	0.0146046
630.848	0.0148421
630.926	0.0147639
631.004	0.0147026
631.082	0.0147260
631.160	0.0148572
631.238	0.0146606
631.317	0.0147820
631.395	0.0146108
631.473	0.0147459
631.551	0.0147921
631.629	0.0147647
631.707	0.0147040
631.785	0.0147290
631.863	0.0146999
631.942	0.0147935
632.020	0.0147340
632.098	0.0146851
632.176	0.0147241
632.254	0.0146112
632.332	0.0145883
632.410	0.0145556
632.488	0.0145645
632.567	0.0146825
632.645	0.0145985
632.723	0.0146146
632.801	0.0145905
632.879	0.0145246
632.957	0.0147741
633.035	0.0146736
633.113	0.0145650
633.192	0.0148287
633.270	0.0145667
633.348	0.0147702
633.426	0.0147937
633.504	0.0147276
633.582	0.0148402
633.660	0.0148508
633.738	0.0148034
633.817	0.0149186
633.895	0.0148855
633.973	0.0148954
634.051	0.0148492
634.129	0.0147898
634.207	0.0148390
634.285	0.0148798
634.363	0.0149390
634.442	0.0148524
634.520	0.0148846
634.598	0.0149731
634.676	0.0148823
634.754	0.0147379
634.832	0.0147099
634.910	0.0146569
634.988	0.0147298
635.067	0.0147579
635.145	0.0146300
635.223	0.0146941
635.301	0.0146842
635.379	0.0147053
635.457	0.0145924
635.535	0.0146566
635.613	0.0147091
635.692	0.0147137
635.770	0.0148431
635.848	0.0147922
635.926	0.0148297
636.004	0.0148029
636.082	0.0148621
636.160	0.0146931
636.238	0.0147481
636.317	0.0146041
636.395	0.0147443
636.473	0.0145245
636.551	0.0145440
636.629	0.0146149
636.707	0.0144136
636.785	0.0143614
636.863	0.0143205
636.942	0.0142768
637.020	0.0144312
637.098	0.0143194
637.176	0.0143369
637.254	0.0143221
637.332	0.0144868
637.410	0.0144375
637.488	0.0144948
637.567	0.0144373
637.645	0.0145930
637.723	0.0145578
637.801	0.0146884
637.879	0.0147149
637.957	0.0146835
638.035	0.0147351
638.113	0.0148665
638.192	0.0148020
638.270	0.0147485
638.348	0.0148151
638.426	0.0148161
638.504	0.0147681
638.582	0.0148077
638.660	0.0148624
638.738	0.0149419
638.817	0.0148729
638.895	0.0148678
638.973	0.0148824
639.051	0.0146710
639.129	0.0146649
639.207	0.0147657
639.285	0.0147884
639.363	0.0147803
639.442	0.0147887
639.520	0.0147482
639.598	0.0149043
639.676	0.0148714
639.754	0.0147950
639.832	0.0147256
639.910	0.0147018
639.988	0.0147253
640.067	0.0147063
640.145	0.0145044
640.223	0.0143954
640.301	0.0143021
640.379	0.0143488
640.457	0.0143606
640.535	0.0145069
640.613	0.0144460
640.692	0.0144279
640.770	0.0145212
640.848	0.0144487
640.926	0.0144190
641.004	0.0142566
641.082	0.0142577
641.160	0.0144207
641.238	0.0143417
641.317	0.0142973
641.395	0.0142468
641.473	0.0146848
641.551	0.0144166
641.629	0.0143600
641.707	0.0144066
641.785	0.0146349
641.863	0.0148086
641.942	0.0146758
642.020	0.0147123
642.098	0.0145526
642.176	0.0146587
642.254	0.0148182
642.332	0.0147953
642.410	0.0148707
642.488	0.0149654
642.567	0.0150721
642.645	0.0150151
642.723	0.0148879
642.801	0.0149771
642.879	0.0149803
642.957	0.0148705
643.035	0.0150348
643.113	0.0148758
643.192	0.0149810
643.270	0.0148730
643.348	0.0149673
643.426	0.0148980
643.504	0.0148648
643.582	0.0149126
643.660	0.0149943
643.738	0.0149504
643.817	0.0146909
643.895	0.0146951
643.973	0.0146747
644.051	0.0147693
644.129	0.0147086
644.207	0.0148116
644.285	0.0145185
644.363	0.0145534
644.442	0.0147257
644.520	0.0145855
644.598	0.0143464
644.676	0.0144235
644.754	0.0145087
644.832	0.0144275
644.910	0.0143109
644.988	0.0143146
645.067	0.0141767
645.145	0.0142942
645.223	0.0140861
645.301	0.0141193
645.379	0.0141613
645.457	0.0141965
645.535	0.0142348
645.613	0.0142671
645.692	0.0143098
645.770	0.0143208
645.848	0.0143137
645.926	0.0144500
646.004	0.0145712
646.082	0.0144382
646.160	0.0145603
646.238	0.0145467
646.317	0.0145223
646.395	0.0146708
646.473	0.0145818
646.551	0.0144814
646.629	0.0145857
646.707	0.0146800
646.785	0.0145936
646.863	0.0146377
646.942	0.0146998
647.020	0.0147360
647.098	0.0146652
647.176	0.0145909
647.254	0.0146690
647.332	0.0146629
647.410	0.0147314
647.488	0.0147137
647.567	0.0148222
647.645	0.0148770
647.723	0.0147433
647.801	0.0148256
647.879	0.0150163
647.957	0.0148488
648.035	0.0149332
648.113	0.0148315
648.192	0.0149507
648.270	0.0148713
648.348	0.0149844
648.426	0.0148730
648.504	0.0148844
648.582	0.0147320
648.660	0.0147571
648.738	0.0148360
648.817	0.0148209
648.895	0.0148589
648.973	0.0147029
649.051	0.0146324
649.129	0.0147749
649.207	0.0145881
649.285	0.0146384
649.363	0.0146571
649.442	0.0146059
649.520	0.0147416
649.598	0.0147387
649.676	0.0146264
649.754	0.0146923
649.832	0.0146918
649.910	0.0147594
649.988	0.0147826
650.067	0.0147219
650.145	0.0146993
650.223	0.0147860
650.301	0.0149780
650.379	0.0148843
650.457	0.0147825
650.535	0.0147746
650.613	0.0147166
650.692	0.0147920
650.770	0.0147582
650.848	0.0147010
650.926	0.0145852
651.004	0.0146552
651.082	0.0145634
651.160	0.0146308
651.238	0.0146055
651.317	0.0146501
651.395	0.0145840
651.473	0.0145004
651.551	0.0146123
651.629	0.0145042
651.707	0.0144077
651.785	0.0145273
651.863	0.0146260
651.942	0.0144667
652.020	0.0144682
652.098	0.0146167
652.176	0.0147944
652.254	0.0148217
652.332	0.0147256
652.410	0.0147816
652.488	0.0148942
652.567	0.0149285
652.645	0.0149643
652.723	0.0147941
652.801	0.0149231
652.879	0.0149255
652.957	0.0148644
653.035	0.0149514
653.113	0.0151083
653.192	0.0152542
653.270	0.0151106
653.348	0.0152857
653.426	0.0152174
653.504	0.0151743
653.582	0.0154381
653.660	0.0153870
653.738	0.0153334
653.817	0.0152413
653.895	0.0152924
653.973	0.0153792
654.051	0.0152212
654.129	0.0152946
654.207	0.0151656
654.285	0.0150481
654.363	0.0149606
654.442	0.0148544
654.520	0.0148682
654.598	0.0148317
654.676	0.0146896
654.754	0.0145214
654.832	0.0145580
654.910	0.0146334
654.988	0.0145023
655.067	0.0142489
655.145	0.0143084
655.223	0.0144731
655.301	0.0143632
655.379	0.0144646
655.457	0.0145179
655.535	0.0145734
655.613	0.0146690
655.692	0.0145545
655.770	0.0147449
655.848	0.0147337
655.926	0.0147442
656.004	0.0147612
656.082	0.0146657
656.160	0.0148284
656.238	0.0146584
656.317	0.0145967
656.395	0.0146095
656.473	0.0145599
656.551	0.0145706
656.629	0.0145774
656.707	0.0143599
656.785	0.0143097
656.863	0.0143856
656.942	0.0142223
657.020	0.0141616
657.098	0.0142659
657.176	0.0142810
657.254	0.0142167
657.332	0.0141495
657.410	0.0141911
657.488	0.0143176
657.567	0.0144266
657.645	0.0142608
657.723	0.0143834
657.801	0.0144302
657.879	0.0144462
657.957	0.0145868
658.035	0.0145415
658.113	0.0146318
658.192	0.0147809
658.270	0.0146751
658.348	0.0147319
658.426	0.0149162
658.504	0.0148602
658.582	0.0148114
658.660	0.0149915
658.738	0.0149529
658.817	0.0148880
658.895	0.0148500
658.973	0.0148918
659.051	0.0149136
659.129	0.0148853
659.207	0.0148927
659.285	0.0147138
659.363	0.0147261
659.442	0.0145808
659.520	0.0146088
659.598	0.0147427
659.676	0.0145210
659.754	0.0143867
659.832	0.0143877
659.910	0.0144926
659.988	0.0144157
660.067	0.0145403
660.145	0.0144888
660.223	0.0145969
660.301	0.0145360
660.379	0.0146004
660.457	0.0145494
660.535	0.0145914
660.613	0.0146072
660.692	0.0147045
660.770	0.0147939
660.848	0.0147159
660.926	0.0147351
661.004	0.0147496
661.082	0.0147373
661.160	0.0146355
661.238	0.0146507
661.317	0.0145168
661.395	0.0144880
661.473	0.0145561
661.551	0.0143761
661.629	0.0144180
661.707	0.0142512
661.785	0.0142732
661.863	0.0143687
661.942	0.0141603
662.020	0.0141687
662.098	0.0139778
662.176	0.0141067
662.254	0.0141380
662.332	0.0141354
662.410	0.0141655
662.488	0.0141355
662.567	0.0141489
662.645	0.0144137
662.723	0.0145354
662.801	0.0145350
662.879	0.0146297
662.957	0.0146527
663.035	0.0147234
663.113	0.0150016
663.192	0.0148452
663.270	0.0149480
663.348	0.0151416
663.426	0.0150266
663.504	0.0150683
663.582	0.0150880
663.660	0.0151798
663.738	0.0151775
663.817	0.0151033
663.895	0.0150338
663.973	0.0150646
664.051	0.0148824
664.129	0.0148464
664.207	0.0149311
664.285	0.0149773
664.363	0.0148342
664.442	0.0147427
664.520	0.0146751
664.598	0.0146683
664.676	0.0148299
664.754	0.0148707
664.832	0.0146812
664.910	0.0148481
664.988	0.0147102
665.067	0.0146889
665.145	0.0148314
665.223	0.0148611
665.301	0.0148123
665.379	0.0147556
665.457	0.0147882
665.535	0.0146828
665.613	0.0146715
665.692	0.0148006
665.770	0.0148912
665.848	0.0147269
665.926	0.0148442
666.004	0.0148725
666.082	0.0148552
666.160	0.0148367
666.238	0.0147269
666.317	0.0147594
666.395	0.0147782
666.473	0.0148618
666.551	0.0148093
666.629	0.0148294
666.707	0.0147344
666.785	0.0145931
666.863	0.0145930
666.942	0.0146758
667.020	0.0145571
667.098	0.0144389
667.176	0.0143697
667.254	0.0144779
667.332	0.0142992
667.410	0.0143382
667.488	0.0142733
667.567	0.0142508
667.645	0.0143206
667.723	0.0143933
667.801	0.0143257
667.879	0.0143155
667.957	0.0144440
668.035	0.0143395
668.113	0.0145013
668.192	0.0145901
668.270	0.0145504
668.348	0.0148001
668.426	0.0148692
668.504	0.0147533
668.582	0.0149497
668.660	0.0147879
668.738	0.0148322
668.817	0.0149567
668.895	0.0147999
668.973	0.0148481
669.051	0.0147249
669.129	0.0147717
669.207	0.0148426
669.285	0.0148132
669.363	0.0146358
669.442	0.0145594
669.520	0.0145983
669.598	0.0145749
669.676	0.0145852
669.754	0.0144244
669.832	0.0144404
669.910	0.0145027
669.988	0.0145306
670.067	0.0146136
670.145	0.0145935
670.223	0.0146111
670.301	0.0147192
670.379	0.0148438
670.457	0.0147307
670.535	0.0148222
670.613	0.0149194
670.692	0.0150730
670.770	0.0150896
670.848	0.0149490
670.926	0.0150044
671.004	0.0149756
671.082	0.0151093
671.160	0.0149707
671.238	0.0150034
671.317	0.0147803
671.395	0.0147496
671.473	0.0145454
671.551	0.0144460
671.629	0.0144011
671.707	0.0143921
671.785	0.0141704
671.863	0.0141357
671.942	0.0138918
672.020	0.0139700
672.098	0.0139292
672.176	0.0138406
672.254	0.0138977
672.332	0.0139998
672.410	0.0142151
672.488	0.0142319
672.567	0.0144188
672.645	0.0144192
672.723	0.0146236
672.801	0.0148286
672.879	0.0148933
672.957	0.0149420
673.035	0.0151852
673.113	0.0152919
673.192	0.0153188
673.270	0.0154971
673.348	0.0154463
673.426	0.0155716
673.504	0.0155454
673.582	0.0155885
673.660	0.0155478
673.738	0.0154745
673.817	0.0153148
673.895	0.0152426
673.973	0.0151698
674.051	0.0150111
674.129	0.0150717
674.207	0.0149533
674.285	0.0148396
674.363	0.0147773
674.442	0.0147340
674.520	0.0147388
674.598	0.0145901
674.676	0.0145573
674.754	0.0145705
674.832	0.0144526
674.910	0.0144618
674.988	0.0143739
675.067	0.0143667
675.145	0.0144057
675.223	0.0144958
675.301	0.0142953
675.379	0.0142672
675.457	0.0142747
675.535	0.0143106
675.613	0.0144576
675.692	0.0146578
675.770	0.0147006
675.848	0.0147468
675.926	0.0149770
676.004	0.0149692
676.082	0.0150662
676.160	0.0151543
676.238	0.0151011
676.317	0.0151867
676.395	0.0152751
676.473	0.0153823
676.551	0.0152488
676.629	0.0152719
676.707	0.0152858
676.785	0.0153637
676.863	0.0152112
676.942	0.0152140
677.020	0.0153156
677.098	0.0151185
677.176	0.0150883
677.254	0.0150584
677.332	0.0151934
677.410	0.0149569
677.488	0.0149634
677.567	0.0150069
677.645	0.0148503
677.723	0.0147868
677.801	0.0148344
677.879	0.0149052
677.957	0.0147237
678.035	0.0147688
678.113	0.0147395
678.192	0.0146426
678.270	0.0146912
678.348	0.0145809
678.426	0.0144460
678.504	0.0144742
678.582	0.0145367
678.660	0.0143800
678.738	0.0145454
678.817	0.0144934
678.895	0.0143963
678.973	0.0143719
679.051	0.0143365
679.129	0.0144342
679.207	0.0144437
679.285	0.0144554
679.363	0.0144362
679.442	0.0146326
679.520	0.0145344
679.598	0.0147570
679.676	0.0146509
679.754	0.0149093
679.832	0.0148926
679.910	0.0149412
679.988	0.0150208
680.067	0.0150520
680.145	0.0151311
680.223	0.0149973
680.301	0.0151751
680.379	0.0152016
680.457	0.0153707
680.535	0.0153180
680.613	0.0151435
680.692	0.0150439
680.770	0.0151905
680.848	0.0150723
680.926	0.0151305
681.004	0.0149508
681.082	0.0149879
681.160	0.0148883
681.238	0.0149368
681.317	0.0150725
681.395	0.0149854
681.473	0.0149197
681.551	0.0149045
681.629	0.0149529
681.707	0.0148898
681.785	0.0147816
681.863	0.0147276
681.942	0.0146011
682.020	0.0147414
682.098	0.0144028
682.176	0.0143714
682.254	0.0145435
682.332	0.0142873
682.410	0.0143062
682.488	0.0140054
682.567	0.0139955
682.645	0.0139275
682.723	0.0139575
682.801	0.0137637
682.879	0.0138847
682.957	0.0140794
683.035	0.0140591
683.113	0.0140649
683.192	0.0141052
683.270	0.0141971
683.348	0.0143180
683.426	0.0143764
683.504	0.0143032
683.582	0.0143756
683.660	0.0145329
683.738	0.0146823
683.817	0.0145358
683.895	0.0146576
683.973	0.0149059
684.051	0.0148661
684.129	0.0148316
684.207	0.0149620
684.285	0.0150564
684.363	0.0150892
684.442	0.0152668
684.520	0.0154153
684.598	0.0153914
684.676	0.0154935
684.754	0.0155798
684.832	0.0159014
684.910	0.0157381
684.988	0.0157577
685.067	0.0159100
685.145	0.0159151
685.223	0.0157553
685.301	0.0157351
685.379	0.0156679
685.457	0.0155003
685.535	0.0152708
685.613	0.0152676
685.692	0.0150579
685.770	0.0149295
685.848	0.0147460
685.926	0.0145606
686.004	0.0145581
686.082	0.0143672
686.160	0.0142312
686.238	0.0139983
686.317	0.0141041
686.395	0.0141744
686.473	0.0139909
686.551	0.0140835
686.629	0.0141414
686.707	0.0141511
686.785	0.0141518
686.863	0.0141471
686.942	0.0141901
687.020	0.0142872
687.098	0.0143637
687.176	0.0142867
687.254	0.0143140
687.332	0.0144968
687.410	0.0143966
687.488	0.0144773
687.567	0.0145385
687.645	0.0145235
687.723	0.0145653
687.801	0.0146407
687.879	0.0145700
687.957	0.0146653
688.035	0.0147500
688.113	0.0148611
688.192	0.0147851
688.270	0.0147874
688.348	0.0148611
688.426	0.0149806
688.504	0.0149209
688.582	0.0149097
688.660	0.0151070
688.738	0.0150717
688.817	0.0151299
688.895	0.0151556
688.973	0.0151929
689.051	0.0153091
689.129	0.0153461
689.207	0.0153841
689.285	0.0151843
689.363	0.0151571
689.442	0.0153042
689.520	0.0153363
689.598	0.0153062
689.676	0.0151328
689.754	0.0150355
689.832	0.0150447
689.910	0.0148544
689.988	0.0149335
690.067	0.0150516
690.145	0.0148232
690.223	0.0148266
690.301	0.0146974
690.379	0.0146654
690.457	0.0148230
690.535	0.0147802
690.613	0.0146993
690.692	0.0146140
690.770	0.0146792
690.848	0.0147242
690.926	0.0148557
691.004	0.0146104
691.082	0.0146556
691.160	0.0147984
691.238	0.0146080
691.317	0.0146568
691.395	0.0145703
691.473	0.0144952
691.551	0.0144430
691.629	0.0143458
691.707	0.0142242
691.785	0.0142954
691.863	0.0142269
691.942	0.0141995
692.020	0.0140121
692.098	0.0139726
692.176	0.0140968
692.254	0.0140530
692.332	0.0142219
692.410	0.0140932
692.488	0.0141576
692.567	0.0140692
692.645	0.0142796
692.723	0.0142308
692.801	0.0142119
692.879	0.0142134
692.957	0.0141315
693.035	0.0143039
693.113	0.0144312
693.192	0.0143839
693.270	0.0143339
693.348	0.0145772
693.426	0.0147277
693.504	0.0146080
693.582	0.0150053
693.660	0.0150426
693.738	0.0150179
693.817	0.0152028
693.895	0.0151089
693.973	0.0152020
694.051	0.0152145
694.129	0.0154071
694.207	0.0154819
694.285	0.0153491
694.363	0.0152793
694.442	0.0153481
694.520	0.0153098
694.598	0.0152574
694.676	0.0151152
694.754	0.0152172
694.832	0.0150249
694.910	0.0151830
694.988	0.0150278
695.067	0.0148962
695.145	0.0147238
695.223	0.0147506
695.301	0.0148947
695.379	0.0148492
695.457	0.0145932
695.535	0.0145377
695.613	0.0145535
695.692	0.0144266
695.770	0.0142771
695.848	0.0144661
695.926	0.0142554
696.004	0.0142571
696.082	0.0140524
696.160	0.0139857
696.238	0.0139713
696.317	0.0138514
696.395	0.0138714
696.473	0.0137888
696.551	0.0136964
696.629	0.0136856
696.707	0.0136379
696.785	0.0136223
696.863	0.0137711
696.942	0.0139030
697.020	0.0139577
697.098	0.0140221
697.176	0.0141736
697.254	0.0142152
697.332	0.0144365
697.410	0.0144441
697.488	0.0144161
697.567	0.0146432
697.645	0.0147296
697.723	0.0148787
697.801	0.0149913
697.879	0.0150644
697.957	0.0152335
698.035	0.0152394
698.113	0.0153497
698.192	0.0155531
698.270	0.0155743
698.348	0.0155651
698.426	0.0157738
698.504	0.0156785
698.582	0.0156821
698.660	0.0157098
698.738	0.0158192
698.817	0.0158498
698.895	0.0158978
698.973	0.0159674
699.051	0.0158950
699.129	0.0158385
699.207	0.0158708
699.285	0.0159224
699.363	0.0157994
699.442	0.0156066
699.520	0.0154485
699.598	0.0153555
699.676	0.0152317
699.754	0.0152630
699.832	0.0150952
699.910	0.0148612
699.988	0.0145270
700.067	0.0143442
700.145	0.0143274
700.223	0.0141869
700.301	0.0140784
700.379	0.0140383
700.457	0.0138520
700.535	0.0138102
700.613	0.0139246
700.692	0.0139097
700.770	0.0138572
700.848	0.0139312
700.926	0.0139925
701.004	0.0140341
701.082	0.0140290
701.160	0.0140720
701.238	0.0140778
701.317	0.0141801
701.395	0.0141776
701.473	0.0142918
701.551	0.0143362
701.629	0.0143743
701.707	0.0143986
701.785	0.0144375
701.863	0.0144986
701.942	0.0145003
702.020	0.0146806
702.098	0.0147713
702.176	0.0146810
702.254	0.0150125
702.332	0.0147950
702.410	0.0150140
702.488	0.0151411
702.567	0.0152262
702.645	0.0153267
702.723	0.0154969
702.801	0.0155406
702.879	0.0156831
702.957	0.0155273
703.035	0.0155862
703.113	0.0158790
703.192	0.0157360
703.270	0.0157636
703.348	0.0158504
703.426	0.0157610
703.504	0.0157025
703.582	0.0156767
703.660	0.0156696
703.738	0.0156242
703.817	0.0153955
703.895	0.0152016
703.973	0.0153826
704.051	0.0152013
704.129	0.0150505
704.207	0.0150571
704.285	0.0149899
704.363	0.0147164
704.442	0.0146162
704.520	0.0145418
704.598	0.0144511
704.676	0.0145024
704.754	0.0143262
704.832	0.0142558
704.910	0.0141930
704.988	0.0141203
705.067	0.0141177
705.145	0.0141672
705.223	0.0141764
705.301	0.0141643
705.379	0.0140880
705.457	0.0140372
705.535	0.0141401
705.613	0.0141892
705.692	0.0143058
705.770	0.0143499
705.848	0.0144067
705.926	0.0142535
706.004	0.0143387
706.082	0.0143747
706.160	0.0144098
706.238	0.0144854
706.317	0.0144170
706.395	0.0143227
706.473	0.0143111
706.551	0.0143430
706.629	0.0145284
706.707	0.0142316
706.785	0.0140648
706.863	0.0142878
706.942	0.0141135
707.020	0.0142358
707.098	0.0141463
707.176	0.0142186
707.254	0.0142776
707.332	0.0142869
707.410	0.0142185
707.488	0.0143345
707.567	0.0143761
707.645	0.0144784
707.723	0.0144886
707.801	0.0144333
707.879	0.0146091
707.957	0.0147776
708.035	0.0146549
708.113	0.0145013
708.192	0.0145821
708.270	0.0147633
708.348	0.0147957
708.426	0.0145161
708.504	0.0148073
708.582	0.0148224
708.660	0.0146588
708.738	0.0147298
708.817	0.0146864
708.895	0.0148085
708.973	0.0147955
709.051	0.0147561
709.129	0.0148415
709.207	0.0149174
709.285	0.0149663
709.363	0.0148717
709.442	0.0149570
709.520	0.0148171
709.598	0.0148167
709.676	0.0148501
709.754	0.0147872
709.832	0.0146101
709.910	0.0146889
709.988	0.0147266
710.067	0.0146282
710.145	0.0144975
710.223	0.0146040
710.301	0.0146179
710.379	0.0146216
710.457	0.0147782
710.535	0.0147623
710.613	0.0146221
710.692	0.0146332
710.770	0.0147744
710.848	0.0147048
710.926	0.0149462
711.004	0.0149402
711.082	0.0148477
711.160	0.0150111
711.238	0.0148818
711.317	0.0149674
711.395	0.0147901
711.473	0.0146803
711.551	0.0149254
711.629	0.0146979
711.707	0.0147256
711.785	0.0148106
711.863	0.0148051
711.942	0.0147039
712.020	0.0147120
712.098	0.0147550
712.176	0.0148904
712.254	0.0148279
712.332	0.0147379
712.410	0.0147966
712.488	0.0146281
712.567	0.0147654
712.645	0.0147771
712.723	0.0147341
712.801	0.0148006
712.879	0.0148153
712.957	0.0147790
713.035	0.0147354
713.113	0.0146826
713.192	0.0148006
713.270	0.0147015
713.348	0.0147481
713.426	0.0147460
713.504	0.0146802
713.582	0.0146390
713.660	0.0146941
713.738	0.0147561
713.817	0.0145988
713.895	0.0148435
713.973	0.0149065
714.051	0.0147714
714.129	0.0147604
714.207	0.0147572
714.285	0.0149263
714.363	0.0147298
714.442	0.0147578
714.520	0.0148985
714.598	0.0149004
714.676	0.0148742
714.754	0.0147869
714.832	0.0147638
714.910	0.0147427
714.988	0.0147839
715.067	0.0146982
715.145	0.0146087
715.223	0.0146510
715.301	0.0146744
715.379	0.0145161
715.457	0.0145906
715.535	0.0144894
715.613	0.0146581
715.692	0.0145490
715.770	0.0144897
715.848	0.0142870
715.926	0.0143370
716.004	0.0144320
716.082	0.0144057
716.160	0.0143757
716.238	0.0143786
716.317	0.0145351
716.395	0.0144757
716.473	0.0145534
716.551	0.0146809
716.629	0.0147564
716.707	0.0146490
716.785	0.0148093
716.863	0.0148923
716.942	0.0149198
717.020	0.0150415
717.098	0.0148668
717.176	0.0149728
717.254	0.0148566
717.332	0.0149560
717.410	0.0151394
717.488	0.0150009
717.567	0.0149168
717.645	0.0149021
717.723	0.0149056
717.801	0.0148419
717.879	0.0147832
717.957	0.0146979
718.035	0.0146414
718.113	0.0147237
718.192	0.0146230
718.270	0.0146883
718.348	0.0145138
718.426	0.0146330
718.504	0.0147114
718.582	0.0147820
718.660	0.0146290
718.738	0.0145490
718.817	0.0146852
718.895	0.0146577
718.973	0.0145822
719.051	0.0149122
719.129	0.0148885
719.207	0.0148819
719.285	0.0148304
719.363	0.0148606
719.442	0.0149640
719.520	0.0149321
719.598	0.0149491
719.676	0.0150872
719.754	0.0149835
719.832	0.0149976
719.910	0.0149897
719.988	0.0150129
720.067	0.0151293
720.145	0.0149716
720.223	0.0149980
720.301	0.0149811
720.379	0.0149287
720.457	0.0148060
720.535	0.0149528
720.613	0.0147987
720.692	0.0146976
720.770	0.0147094
720.848	0.0147722
720.926	0.0148569
721.004	0.0147132
721.082	0.0147009
721.160	0.0147098
721.238	0.0147580
721.317	0.0147928
721.395	0.0147505
721.473	0.0146141
721.551	0.0146861
721.629	0.0148311
721.707	0.0147970
721.785	0.0147461
721.863	0.0148032
721.942	0.0149577
722.020	0.0147874
722.098	0.0147313
722.176	0.0147637
722.254	0.0146978
722.332	0.0147536
722.410	0.0146879
722.488	0.0147039
722.567	0.0147156
722.645	0.0145642
722.723	0.0145309
722.801	0.0145860
722.879	0.0144479
722.957	0.0142635
723.035	0.0143201
723.113	0.0143783
723.192	0.0142434
723.270	0.0142756
723.348	0.0142852
723.426	0.0142743
723.504	0.0141702
723.582	0.0142299
723.660	0.0141508
723.738	0.0141850
723.817	0.0143075
723.895	0.0144168
723.973	0.0145145
724.051	0.0143883
724.129	0.0144622
724.207	0.0145708
724.285	0.0146072
724.363	0.0145473
724.442	0.0145038
724.520	0.0146259
724.598	0.0145591
724.676	0.0146722
724.754	0.0146577
724.832	0.0147443
724.910	0.0147440
724.988	0.0148161
725.067	0.0148330
725.145	0.0147301
725.223	0.0147665
725.301	0.0149803
725.379	0.0149432
725.457	0.0147661
725.535	0.0148566
725.613	0.0148373
725.692	0.0148409
725.770	0.0148827
725.848	0.0149641
725.926	0.0148306
726.004	0.0148971
726.082	0.0150027
726.160	0.0150086
726.238	0.0148095
726.317	0.0148435
726.395	0.0149252
726.473	0.0149317
726.551	0.0148951
726.629	0.0149586
726.707	0.0150349
726.785	0.0147691
726.863	0.0148840
726.942	0.0148479
727.020	0.0147121
727.098	0.0148522
727.176	0.0147935
727.254	0.0147330
727.332	0.0146656
727.410	0.0146095
727.488	0.0146854
727.567	0.0145692
727.645	0.0145131
727.723	0.0144491
727.801	0.0144575
727.879	0.0145219
727.957	0.0144945
728.035	0.0144864
728.113	0.0145110
728.192	0.0145850
728.270	0.0145337
728.348	0.0143468
728.426	0.0143492
728.504	0.0144412
728.582	0.0145241
728.660	0.0142929
728.738	0.0142759
728.817	0.0145103
728.895	0.0144371
728.973	0.0143532
729.051	0.0144409
729.129	0.0143691
729.207	0.0145969
729.285	0.0145393
729.363	0.0146815
729.442	0.0148292
729.520	0.0147274
729.598	0.0147337
729.676	0.0147695
729.754	0.0147643
729.832	0.0146429
729.910	0.0148325
729.988	0.0147987
730.067	0.0148708
730.145	0.0149124
730.223	0.0148827
730.301	0.0147375
730.379	0.0145507
730.457	0.0146743
730.535	0.0147758
730.613	0.0147069
730.692	0.0146919
730.770	0.0148101
730.848	0.0146745
730.926	0.0144692
731.004	0.0145618
731.082	0.0145070
731.160	0.0147907
731.238	0.0146636
731.317	0.0145982
731.395	0.0147443
731.473	0.0147697
731.551	0.0147237
731.629	0.0145723
731.707	0.0149117
731.785	0.0146107
731.863	0.0147256
731.942	0.0148003
732.020	0.0147305
732.098	0.0147452
732.176	0.0148219
732.254	0.0147233
732.332	0.0148452
732.410	0.0148730
732.488	0.0147957
732.567	0.0148576
732.645	0.0147944
732.723	0.0148470
732.801	0.0150110
732.879	0.0146517
732.957	0.0148162
733.035	0.0148574
733.113	0.0148682
733.192	0.0146819
733.270	0.0147748
733.348	0.0147720
733.426	0.0145596
733.504	0.0146717
733.582	0.0148589
733.660	0.0145893
733.738	0.0148054
733.817	0.0149343
733.895	0.0149469
733.973	0.0146630
734.051	0.0147343
734.129	0.0149443
734.207	0.0147546
734.285	0.0149403
734.363	0.0150163
734.442	0.0148193
734.520	0.0147900
734.598	0.0150221
734.676	0.0148003
734.754	0.0145847
734.832	0.0145780
734.910	0.0147340
734.988	0.0147550
735.067	0.0146880
735.145	0.0146404
735.223	0.0147344
735.301	0.0145947
735.379	0.0144768
735.457	0.0146195
735.535	0.0145354
735.613	0.0145686
735.692	0.0144344
735.770	0.0143899
735.848	0.0145649
735.926	0.0145969
736.004	0.0145483
736.082	0.0145638
736.160	0.0144698
736.238	0.0146177
736.317	0.0145734
736.395	0.0144826
736.473	0.0145258
736.551	0.0145604
736.629	0.0145143
736.707	0.0144851
736.785	0.0143877
736.863	0.0143616
736.942	0.0143957
737.020	0.0143960
737.098	0.0143249
737.176	0.0142941
737.254	0.0144324
737.332	0.0143610
737.410	0.0145101
737.488	0.0143899
737.567	0.0144624
737.645	0.0144472
737.723	0.0144280
737.801	0.0145436
737.879	0.0146796
737.957	0.0146719
738.035	0.0146339
738.113	0.0146886
738.192	0.0146068
738.270	0.0146282
738.348	0.0147502
738.426	0.0146936
738.504	0.0147008
738.582	0.0146308
738.660	0.0148306
738.738	0.0147122
738.817	0.0147280
738.895	0.0147263
738.973	0.0145758
739.051	0.0146881
739.129	0.0146402
739.207	0.0146783
739.285	0.0146008
739.363	0.0144759
739.442	0.0146076
739.520	0.0147807
739.598	0.0145989
739.676	0.0144721
739.754	0.0145741
739.832	0.0145720
739.910	0.0145047
739.988	0.0144970
740.067	0.0145546
740.145	0.0144777
740.223	0.0144973
740.301	0.0146320
740.379	0.0144991
740.457	0.0146502
740.535	0.0146541
740.613	0.0146895
740.692	0.0145926
740.770	0.0146209
740.848	0.0146989
740.926	0.0147548
741.004	0.0147287
741.082	0.0148564
741.160	0.0148270
741.238	0.0146612
741.317	0.0149174
741.395	0.0148505
741.473	0.0148801
741.551	0.0148301
741.629	0.0147724
741.707	0.0149482
741.785	0.0146782
741.863	0.0146704
741.942	0.0147826
742.020	0.0148058
742.098	0.0148991
742.176	0.0147511
742.254	0.0148366
742.332	0.0148327
742.410	0.0148115
742.488	0.0148148
742.567	0.0147749
742.645	0.0148024
742.723	0.0147839
742.801	0.0148896
742.879	0.0147404
742.957	0.0148049
743.035	0.0147433
743.113	0.0148660
743.192	0.0148439
743.270	0.0148364
743.348	0.0149176
743.426	0.0149530
743.504	0.0149426
743.582	0.0148890
743.660	0.0149245
743.738	0.0149887
743.817	0.0148969
743.895	0.0148576
743.973	0.0148569
744.051	0.0149506
744.129	0.0150794
744.207	0.0150832
744.285	0.0150125
744.363	0.0151048
744.442	0.0150342
744.520	0.0151505
744.598	0.0150696
744.676	0.0150671
744.754	0.0150998
744.832	0.0150336
744.910	0.0151716
744.988	0.0150542
745.067	0.0151431
745.145	0.0149307
745.223	0.0149963
745.301	0.0151199
745.379	0.0149922
745.457	0.0151347
745.535	0.0149418
745.613	0.0148903
745.692	0.0149214
745.770	0.0150722
745.848	0.0149123
745.926	0.0149078
746.004	0.0148257
746.082	0.0148989
746.160	0.0148693
746.238	0.0147263
746.317	0.0149332
746.395	0.0147853
746.473	0.0146470
746.551	0.0147311
746.629	0.0145586
746.707	0.0146573
746.785	0.0147199
746.863	0.0146049
746.942	0.0145960
747.020	0.0146711
747.098	0.0146410
747.176	0.0145858
747.254	0.0146316
747.332	0.0145787
747.410	0.0145692
747.488	0.0146076
747.567	0.0145134
747.645	0.0145128
747.723	0.0144057
747.801	0.0145087
747.879	0.0144183
747.957	0.0144901
748.035	0.0145840
748.113	0.0144568
748.192	0.0144604
748.270	0.0144225
748.348	0.0145437
748.426	0.0146259
748.504	0.0144060
748.582	0.0145250
748.660	0.0146056
748.738	0.0145328
748.817	0.0146158
748.895	0.0145247
748.973	0.0145733
749.051	0.0145341
749.129	0.0145251
749.207	0.0144390
749.285	0.0144867
749.363	0.0145881
749.442	0.0145862
749.520	0.0145673
749.598	0.0145114
749.676	0.0145152
749.754	0.0145190
749.832	0.0145725
749.910	0.0145512
749.988	0.0146793
750.067	0.0145864
750.145	0.0146009
750.223	0.0147087
750.301	0.0146179
750.379	0.0146117
750.457	0.0147852
750.535	0.0147221
750.613	0.0147958
750.692	0.0148886
750.770	0.0148763
750.848	0.0146805
750.926	0.0148318
751.004	0.0148201
751.082	0.0149313
751.160	0.0147591
751.238	0.0148228
751.317	0.0146928
751.395	0.0147258
751.473	0.0147017
751.551	0.0147271
751.629	0.0147089
751.707	0.0147213
751.785	0.0147485
751.863	0.0146277
751.942	0.0147737
752.020	0.0147049
752.098	0.0148092
752.176	0.0147897
752.254	0.0146252
752.332	0.0146525
752.410	0.0148548
752.488	0.0146959
752.567	0.0147391
752.645	0.0147511
752.723	0.0149223
752.801	0.0146081
752.879	0.0147705
752.957	0.0148880
753.035	0.0148144
753.113	0.0147544
753.192	0.0147110
753.270	0.0147917
753.348	0.0147054
753.426	0.0148206
753.504	0.0146307
753.582	0.0146639
753.660	0.0146485
753.738	0.0147954
753.817	0.0146112
753.895	0.0146824
753.973	0.0146321
754.051	0.0146674
754.129	0.0147128
754.207	0.0148019
754.285	0.0147984
754.363	0.0146104
754.442	0.0147811
754.520	0.0148111
754.598	0.0148458
754.676	0.0148090
754.754	0.0149046
754.832	0.0148884
754.910	0.0149800
754.988	0.0149009
755.067	0.0148213
755.145	0.0149973
755.223	0.0149603
755.301	0.0149498
755.379	0.0150349
755.457	0.0151124
755.535	0.0150777
755.613	0.0149178
755.692	0.0149814
755.770	0.0148970
755.848	0.0150842
755.926	0.0150594
756.004	0.0150694
756.082	0.0150519
756.160	0.0149196
756.238	0.0149961
756.317	0.0148450
756.395	0.0149814
756.473	0.0149463
756.551	0.0148629
756.629	0.0149284
756.707	0.0149327
756.785	0.0149503
756.863	0.0149776
756.942	0.0148122
757.020	0.0147327
757.098	0.0147284
757.176	0.0148215
757.254	0.0146460
757.332	0.0147984
757.410	0.0148064
757.488	0.0149383
757.567	0.0147410
757.645	0.0148117
757.723	0.0147553
757.801	0.0148026
757.879	0.0147948
757.957	0.0146303
758.035	0.0147430
758.113	0.0147332
758.192	0.0148527
758.270	0.0148338
758.348	0.0146938
758.426	0.0147718
758.504	0.0148306
758.582	0.0146979
758.660	0.0149091
758.738	0.0148030
758.817	0.0147165
758.895	0.0146533
758.973	0.0149174
759.051	0.0147160
759.129	0.0148028
759.207	0.0148627
759.285	0.0147694
759.363	0.0147818
759.442	0.0147765
759.520	0.0147448
759.598	0.0147572
759.676	0.0145290
759.754	0.0147542
759.832	0.0145827
759.910	0.0146853
759.988	0.0145323
760.067	0.0145737
760.145	0.0144376
760.223	0.0145060
760.301	0.0144016
760.379	0.0145328
760.457	0.0144506
760.535	0.0143996
760.613	0.0143784
760.692	0.0144119
760.770	0.0145077
760.848	0.0143551
760.926	0.0144016
761.004	0.0144308
761.082	0.0145226
761.160	0.0145821
761.238	0.0144721
761.317	0.0144442
761.395	0.0143515
761.473	0.0144971
761.551	0.0144876
761.629	0.0144742
761.707	0.0145313
761.785	0.0145478
761.863	0.0146090
761.942	0.0146317
762.020	0.0146836
762.098	0.0146780
762.176	0.0145419
762.254	0.0146220
762.332	0.0146316
762.410	0.0146358
762.488	0.0147426
762.567	0.0146086
762.645	0.0147072
762.723	0.0147684
762.801	0.0147710
762.879	0.0144705
762.957	0.0144440
763.035	0.0146030
763.113	0.0145939
763.192	0.0145971
763.270	0.0147845
763.348	0.0146388
763.426	0.0145377
763.504	0.0146423
763.582	0.0147702
763.660	0.0145686
763.738	0.0144729
763.817	0.0145226
763.895	0.0146593
763.973	0.0145669
764.051	0.0146140
764.129	0.0146389
764.207	0.0145888
764.285	0.0145511
764.363	0.0144371
764.442	0.0147832
764.520	0.0147413
764.598	0.0145678
764.676	0.0145119
764.754	0.0147017
764.832	0.0145142
764.910	0.0145687
764.988	0.0146929
765.067	0.0145614
765.145	0.0146653
765.223	0.0147163
765.301	0.0147665
765.379	0.0148060
765.457	0.0147453
765.535	0.0147855
765.613	0.0147414
765.692	0.0146754
765.770	0.0148882
765.848	0.0147735
765.926	0.0146853
766.004	0.0148474
766.082	0.0147642
766.160	0.0147533
766.238	0.0147941
766.317	0.0147648
766.395	0.0147251
766.473	0.0149119
766.551	0.0149056
766.629	0.0147952
766.707	0.0149556
766.785	0.0148337
766.863	0.0149707
766.942	0.0149731
767.020	0.0147699
767.098	0.0148591
767.176	0.0149827
767.254	0.0148983
767.332	0.0148136
767.410	0.0147404
767.488	0.0148724
767.567	0.0149072
767.645	0.0147095
767.723	0.0147919
767.801	0.0147438
767.879	0.0147783
767.957	0.0146584
768.035	0.0147427
768.113	0.0147655
768.192	0.0148184
768.270	0.0147991
768.348	0.0147849
768.426	0.0147809
768.504	0.0148246
768.582	0.0147060
768.660	0.0148541
768.738	0.0146992
768.817	0.0146436
768.895	0.0146488
768.973	0.0146941
769.051	0.0146765
769.129	0.0147189
769.207	0.0145867
769.285	0.0146032
769.363	0.0148244
769.442	0.0146909
769.520	0.0147478
769.598	0.0146317
769.676	0.0146442
769.754	0.0146222
769.832	0.0146877
769.910	0.0147651
769.988	0.0146612
770.067	0.0146437
770.145	0.0146845
770.223	0.0146727
770.301	0.0146468
770.379	0.0146219
770.457	0.0145638
770.535	0.0144634
770.613	0.0145934
770.692	0.0145190
770.770	0.0145846
770.848	0.0146130
770.926	0.0144392
771.004	0.0144106
771.082	0.0146016
771.160	0.0145947
771.238	0.0145755
771.317	0.0146095
771.395	0.0146434
771.473	0.0147364
771.551	0.0147652
771.629	0.0147689
771.707	0.0147299
771.785	0.0147460
771.863	0.0146835
771.942	0.0147421
772.020	0.0148477
772.098	0.0147655
772.176	0.0147606
772.254	0.0148329
772.332	0.0148300
772.410	0.0147549
772.488	0.0147867
772.567	0.0150035
772.645	0.0149432
772.723	0.0149050
772.801	0.0147469
772.879	0.0147562
772.957	0.0149825
773.035	0.0148511
773.113	0.0149030
773.192	0.0148559
773.270	0.0148458
773.348	0.0149039
773.426	0.0149382
773.504	0.0149651
773.582	0.0149567
773.660	0.0149868
773.738	0.0149625
773.817	0.0148692
773.895	0.0148951
773.973	0.0149140
774.051	0.0150036
774.129	0.0150301
774.207	0.0150668
774.285	0.0149312
774.363	0.0149006
774.442	0.0149174
774.520	0.0148463
774.598	0.0148235
774.676	0.0147560
774.754	0.0148024
774.832	0.0149077
774.910	0.0149664
774.988	0.0148990
775.067	0.0148941
775.145	0.0147929
775.223	0.0148375
775.301	0.0148105
775.379	0.0149981
775.457	0.0149352
775.535	0.0148270
775.613	0.0148777
775.692	0.0148389
775.770	0.0150740
775.848	0.0150003
775.926	0.0149364
776.004	0.0149110
776.082	0.0149358
776.160	0.0150984
776.238	0.0150075
776.317	0.0148801
776.395	0.0149516
776.473	0.0150671
776.551	0.0148747
776.629	0.0147762
776.707	0.0149506
776.785	0.0149638
776.863	0.0149373
776.942	0.0148518
777.020	0.0147905
777.098	0.0147140
777.176	0.0148370
777.254	0.0147906
777.332	0.0148464
777.410	0.0147938
777.488	0.0147892
777.567	0.0148478
777.645	0.0149021
777.723	0.0147791
777.801	0.0146954
777.879	0.0147713
777.957	0.0148570
778.035	0.0148655
778.113	0.0147235
778.192	0.0147499
778.270	0.0148388
778.348	0.0147067
778.426	0.0146925
778.504	0.0147294
778.582	0.0145918
778.660	0.0146604
778.738	0.0146035
778.817	0.0145822
778.895	0.0147366
778.973	0.0147183
779.051	0.0147037
779.129	0.0146323
779.207	0.0145522
779.285	0.0146832
779.363	0.0146321
779.442	0.0146421
779.520	0.0145610
779.598	0.0147562
779.676	0.0147531
779.754	0.0146220
779.832	0.0146588
779.910	0.0147667
779.988	0.0146133
780.067	0.0147060
780.145	0.0146976
780.223	0.0147768
780.301	0.0146914
780.379	0.0147602
780.457	0.0148270
780.535	0.0148516
780.613	0.0147558
780.692	0.0147643
780.770	0.0145882
780.848	0.0147800
780.926	0.0147513
781.004	0.0147402
781.082	0.0148342
781.160	0.0147065
781.238	0.0147244
781.317	0.0147279
781.395	0.0147298
781.473	0.0149499
781.551	0.0148753
781.629	0.0146425
781.707	0.0146751
781.785	0.0147700
781.863	0.0146443
781.942	0.0146960
782.020	0.0146709
782.098	0.0147795
782.176	0.0147047
782.254	0.0146585
782.332	0.0147171
782.410	0.0146216
782.488	0.0146665
782.567	0.0145393
782.645	0.0146225
782.723	0.0145814
782.801	0.0146986
782.879	0.0145292
782.957	0.0146040
783.035	0.0147492
783.113	0.0147410
783.192	0.0145634
783.270	0.0144915
783.348	0.0148114
783.426	0.0145867
783.504	0.0147176
783.582	0.0148616
783.660	0.0147834
783.738	0.0147920
783.817	0.0145799
783.895	0.0148250
783.973	0.0148263
784.051	0.0147025
784.129	0.0146716
784.207	0.0147504
784.285	0.0147572
784.363	0.0148487
784.442	0.0147990
784.520	0.0148206
784.598	0.0146400
784.676	0.0147346
784.754	0.0147093
784.832	0.0147559
784.910	0.0147850
784.988	0.0149084
785.067	0.0146787
785.145	0.0146635
785.223	0.0147630
785.301	0.0146579
785.379	0.0147643
785.457	0.0148641
785.535	0.0147516
785.613	0.0148832
785.692	0.0148245
785.770	0.0148372
785.848	0.0148375
785.926	0.0147549
786.004	0.0147681
786.082	0.0148315
786.160	0.0147137
786.238	0.0148190
786.317	0.0147574
786.395	0.0147879
786.473	0.0148174
786.551	0.0146793
786.629	0.0146732
786.707	0.0145758
786.785	0.0146180
786.863	0.0146291
786.942	0.0146349
787.020	0.0145852
787.098	0.0147576
787.176	0.0145908
787.254	0.0146126
787.332	0.0146070
787.410	0.0146475
787.488	0.0145113
787.567	0.0145663
787.645	0.0146302
787.723	0.0146258
787.801	0.0146532
787.879	0.0145318
787.957	0.0145453
788.035	0.0145747
788.113	0.0146453
788.192	0.0146150
788.270	0.0146185
788.348	0.0147763
788.426	0.0146002
788.504	0.0146822
788.582	0.0146565
788.660	0.0145818
788.738	0.0145407
788.817	0.0146819
788.895	0.0146499
788.973	0.0145986
789.051	0.0145862
789.129	0.0145271
789.207	0.0146559
789.285	0.0145149
789.363	0.0146255
789.442	0.0144761
789.520	0.0145561
789.598	0.0146089
789.676	0.0145055
789.754	0.0144718
789.832	0.0145399
789.910	0.0146357
789.988	0.0146061
790.067	0.0145018
790.145	0.0144467
790.223	0.0145691
790.301	0.0146440
790.379	0.0146273
790.457	0.0145991
790.535	0.0144460
790.613	0.0146791
790.692	0.0146069
790.770	0.0145468
790.848	0.0146918
790.926	0.0146754
791.004	0.0145834
791.082	0.0146349
791.160	0.0145797
791.238	0.0146315
791.317	0.0145653
791.395	0.0146223
791.473	0.0145966
791.551	0.0145418
791.629	0.0146218
791.707	0.0145287
791.785	0.0145458
791.863	0.0143771
791.942	0.0145923
792.020	0.0145351
792.098	0.0146524
792.176	0.0144556
792.254	0.0145882
792.332	0.0146956
792.410	0.0145216
792.488	0.0145000
792.567	0.0143602
792.645	0.0145167
792.723	0.0144952
792.801	0.0143568
792.879	0.0145134
792.957	0.0144550
793.035	0.0144101
793.113	0.0145710
793.192	0.0144662
793.270	0.0143761
793.348	0.0144215
793.426	0.0143868
793.504	0.0144835
793.582	0.0144968
793.660	0.0146171
793.738	0.0144736
793.817	0.0145863
793.895	0.0144284
793.973	0.0145085
794.051	0.0146709
794.129	0.0145541
794.207	0.0145683
794.285	0.0146447
794.363	0.0146500
794.442	0.0146615
794.520	0.0147758
794.598	0.0147159
794.676	0.0146615
794.754	0.0147309
794.832	0.0147884
794.910	0.0146487
794.988	0.0148049
795.067	0.0147622
795.145	0.0147777
795.223	0.0149454
795.301	0.0148603
795.379	0.0148344
795.457	0.0147826
795.535	0.0149641
795.613	0.0149599
795.692	0.0148907
795.770	0.0148055
795.848	0.0148765
795.926	0.0150036
796.004	0.0148890
796.082	0.0148759
796.160	0.0148985
796.238	0.0147960
796.317	0.0148862
796.395	0.0147566
796.473	0.0148807
796.551	0.0147977
796.629	0.0149231
796.707	0.0146814
796.785	0.0147206
796.863	0.0148837
796.942	0.0147640
797.020	0.0148787
797.098	0.0147929
797.176	0.0146761
797.254	0.0146857
797.332	0.0147011
797.410	0.0146260
797.488	0.0146901
797.567	0.0146373
797.645	0.0146233
797.723	0.0146387
797.801	0.0146404
797.879	0.0147068
797.957	0.0145062
798.035	0.0146226
798.113	0.0147232
798.192	0.0147166
798.270	0.0147012
798.348	0.0147478
798.426	0.0147688
798.504	0.0147179
798.582	0.0146371
798.660	0.0146468
798.738	0.0147933
798.817	0.0148476
798.895	0.0148657
798.973	0.0148942
799.051	0.0148903
799.129	0.0149426
799.207	0.0149406
799.285	0.0150674
799.363	0.0149816
799.442	0.0148332
799.520	0.0150365
799.598	0.0149978
799.676	0.0150241
799.754	0.0150601
799.832	0.0149924
799.910	0.0149739
799.988	0.0150612
800.067	0.0150224
800.145	0.0149928
800.223	0.0149367
800.301	0.0150342
800.379	0.0149487
800.457	0.0149410
800.535	0.0149788
800.613	0.0150478
800.692	0.0149114
800.770	0.0149171
800.848	0.0149595
800.926	0.0149328
801.004	0.0150367
801.082	0.0150608
801.160	0.0148068
801.238	0.0149686
801.317	0.0147710
801.395	0.0147974
801.473	0.0147072
801.551	0.0148267
801.629	0.0147530
801.707	0.0147050
801.785	0.0147472
801.863	0.0147863
801.942	0.0147725
802.020	0.0147854
802.098	0.0147110
802.176	0.0147472
802.254	0.0146909
802.332	0.0146748
802.410	0.0146262
802.488	0.0146757
802.567	0.0146737
802.645	0.0146815
802.723	0.0145425
802.801	0.0146861
802.879	0.0144684
802.957	0.0145150
803.035	0.0144549
803.113	0.0145615
803.192	0.0145438
803.270	0.0146843
803.348	0.0145477
803.426	0.0144987
803.504	0.0144277
803.582	0.0144942
803.660	0.0146154
803.738	0.0145089
803.817	0.0145208
803.895	0.0146427
803.973	0.0146017
804.051	0.0145186
804.129	0.0145429
804.207	0.0145293
804.285	0.0146725
804.363	0.0146146
804.442	0.0144408
804.520	0.0146082
804.598	0.0145499
804.676	0.0145341
804.754	0.0145327
804.832	0.0145159
804.910	0.0145928
804.988	0.0146377
805.067	0.0146194
805.145	0.0145261
805.223	0.0144393
805.301	0.0144167
805.379	0.0145073
805.457	0.0144637
805.535	0.0143873
805.613	0.0145914
805.692	0.0145214
805.770	0.0145489
805.848	0.0144729
805.926	0.0144923
806.004	0.0144373
806.082	0.0146030
806.160	0.0145187
806.238	0.0145912
806.317	0.0146146
806.395	0.0145766
806.473	0.0145837
806.551	0.0144843
806.629	0.0145330
806.707	0.0144028
806.785	0.0145248
806.863	0.0145839
806.942	0.0145896
807.020	0.0145850
807.098	0.0145283
807.176	0.0147030
807.254	0.0145267
807.332	0.0146214
807.410	0.0146268
807.488	0.0145444
807.567	0.0145415
807.645	0.0144987
807.723	0.0146130
807.801	0.0145786
807.879	0.0144916
807.957	0.0144689
808.035	0.0146992
808.113	0.0146571
808.192	0.0145742
808.270	0.0146900
808.348	0.0146519
808.426	0.0145470
808.504	0.0145920
808.582	0.0146141
808.660	0.0144985
808.738	0.0144781
808.817	0.0147009
808.895	0.0145833
808.973	0.0145438
809.051	0.0145924
809.129	0.0145808
809.207	0.0146631
809.285	0.0145757
809.363	0.0145126
809.442	0.0145204
809.520	0.0145599
809.598	0.0146239
809.676	0.0146323
809.754	0.0146742
809.832	0.0146617
809.910	0.0146365
809.988	0.0147117
810.067	0.0146888
810.145	0.0147239
810.223	0.0145048
810.301	0.0145484
810.379	0.0146008
810.457	0.0147112
810.535	0.0146565
810.613	0.0146688
810.692	0.0146030
810.770	0.0146666
810.848	0.0145017
810.926	0.0146069
811.004	0.0146152
811.082	0.0147003
811.160	0.0145878
811.238	0.0146095
811.317	0.0146022
811.395	0.0145168
811.473	0.0146426
811.551	0.0147256
811.629	0.0146175
811.707	0.0146772
811.785	0.0146286
811.863	0.0147372
811.942	0.0147211
812.020	0.0147179
812.098	0.0146326
812.176	0.0147337
812.254	0.0147382
812.332	0.0146959
812.410	0.0146231
812.488	0.0148405
812.567	0.0148576
812.645	0.0146072
812.723	0.0146336
812.801	0.0145611
812.879	0.0146423
812.957	0.0147627
813.035	0.0147511
813.113	0.0146478
813.192	0.0146804
813.270	0.0146230
813.348	0.0145857
813.426	0.0145655
813.504	0.0146206
813.582	0.0146349
813.660	0.0146790
813.738	0.0146249
813.817	0.0145967
813.895	0.0146170
813.973	0.0145091
814.051	0.0146738
814.129	0.0146384
814.207	0.0145002
814.285	0.0145535
814.363	0.0146477
814.442	0.0147092
814.520	0.0145891
814.598	0.0145068
814.676	0.0145571
814.754	0.0146658
814.832	0.0147585
814.910	0.0147423
814.988	0.0146474
815.067	0.0146606
815.145	0.0148962
815.223	0.0147469
815.301	0.0147669
815.379	0.0147829
815.457	0.0147073
815.535	0.0149142
815.613	0.0148612
815.692	0.0146511
815.770	0.0146957
815.848	0.0147292
815.926	0.0147353
816.004	0.0147549
816.082	0.0147845
816.160	0.0146792
816.238	0.0145570
816.317	0.0147082
816.395	0.0147942
816.473	0.0146869
816.551	0.0146552
816.629	0.0146995
816.707	0.0147221
816.785	0.0147355
816.863	0.0145834
816.942	0.0147532
817.020	0.0146844
817.098	0.0146133
817.176	0.0146503
817.254	0.0147032
817.332	0.0146698
817.410	0.0146895
817.488	0.0147177
817.567	0.0148172
817.645	0.0148631
817.723	0.0148458
817.801	0.0147992
817.879	0.0148755
817.957	0.0147841
818.035	0.0147860
818.113	0.0147669
818.192	0.0148130
818.270	0.0150026
818.348	0.0148217
818.426	0.0148200
818.504	0.0149656
818.582	0.0148300
818.660	0.0147895
818.738	0.0147487
818.817	0.0148637
818.895	0.0149038
818.973	0.0147434
819.051	0.0147495
819.129	0.0147781
819.207	0.0149350
819.285	0.0148238
819.363	0.0148108
819.442	0.0148428
819.520	0.0148836
819.598	0.0147927
819.676	0.0148262
819.754	0.0147816
819.832	0.0146926
819.910	0.0146925
819.988	0.0148133
820.067	0.0147914
820.145	0.0148338
820.223	0.0147807
820.301	0.0147018
820.379	0.0148730
820.457	0.0148491
820.535	0.0148444
820.613	0.0147213
820.692	0.0147337
820.770	0.0147748
820.848	0.0147139
820.926	0.0148475
821.004	0.0147932
821.082	0.0147703
821.160	0.0147775
821.238	0.0147836
821.317	0.0148232
821.395	0.0147860
821.473	0.0147192
821.551	0.0148724
821.629	0.0148690
821.707	0.0148629
821.785	0.0146558
821.863	0.0148312
821.942	0.0148432
822.020	0.0148999
822.098	0.0147769
822.176	0.0148927
822.254	0.0149810
822.332	0.0148872
822.410	0.0147932
822.488	0.0149254
822.567	0.0149445
822.645	0.0149342
822.723	0.0150615
822.801	0.0148752
822.879	0.0149416
822.957	0.0148874
823.035	0.0148967
823.113	0.0148342
823.192	0.0149154
823.270	0.0148367
823.348	0.0150159
823.426	0.0150070
823.504	0.0147974
823.582	0.0147704
823.660	0.0149010
823.738	0.0148992
823.817	0.0148412
823.895	0.0148614
823.973	0.0148225
824.051	0.0147571
824.129	0.0147706
824.207	0.0147457
824.285	0.0145879
824.363	0.0147211
824.442	0.0147318
824.520	0.0146864
824.598	0.0147434
824.676	0.0145792
824.754	0.0146781
824.832	0.0147212
824.910	0.0145802
824.988	0.0146030
825.067	0.0146192
825.145	0.0145785
825.223	0.0145940
825.301	0.0145098
825.379	0.0146185
825.457	0.0145988
825.535	0.0145332
825.613	0.0144889
825.692	0.0145081
825.770	0.0145387
825.848	0.0145930
825.926	0.0146279
826.004	0.0146356
826.082	0.0145963
826.160	0.0146743
826.238	0.0147082
826.317	0.0146531
826.395	0.0145728
826.473	0.0145980
826.551	0.0145180
826.629	0.0145207
826.707	0.0147158
826.785	0.0145512
826.863	0.0144826
826.942	0.0145613
827.020	0.0145167
827.098	0.0146030
827.176	0.0145349
827.254	0.0144530
827.332	0.0145483
827.410	0.0145778
827.488	0.0146525
827.567	0.0145564
827.645	0.0145750
827.723	0.0145167
827.801	0.0144486
827.879	0.0144180
827.957	0.0143992
828.035	0.0145203
828.113	0.0144572
828.192	0.0144898
828.270	0.0144809
828.348	0.0144814
828.426	0.0144621
828.504	0.0144892
828.582	0.0144063
828.660	0.0144830
828.738	0.0144840
828.817	0.0145683
828.895	0.0145721
828.973	0.0144420
829.051	0.0145601
829.129	0.0145899
829.207	0.0146382
829.285	0.0146223
829.363	0.0145573
829.442	0.0146272
829.520	0.0146553
829.598	0.0145747
829.676	0.0144833
829.754	0.0146451
829.832	0.0146707
829.910	0.0145993
829.988	0.0146205
830.067	0.0145971
830.145	0.0146687
830.223	0.0145978
830.301	0.0146167
830.379	0.0145456
830.457	0.0146962
830.535	0.0145938
830.613	0.0145569
830.692	0.0148063
830.770	0.0146840
830.848	0.0147090
830.926	0.0147369
831.004	0.0148692
831.082	0.0146961
831.160	0.0147646
831.238	0.0147069
831.317	0.0148166
831.395	0.0147687
831.473	0.0148330
831.551	0.0148901
831.629	0.0149474
831.707	0.0148972
831.785	0.0148179
831.863	0.0147790
831.942	0.0148865
832.020	0.0150367
832.098	0.0148469
832.176	0.0149197
832.254	0.0149423
832.332	0.0149567
832.410	0.0148587
832.488	0.0148098
832.567	0.0149442
832.645	0.0148357
832.723	0.0147934
832.801	0.0148914
832.879	0.0149355
832.957	0.0147932
833.035	0.0150559
833.113	0.0148942
833.192	0.0148962
833.270	0.0148410
833.348	0.0147750
833.426	0.0146976
833.504	0.0148264
833.582	0.0147105
833.660	0.0146671
833.738	0.0147302
833.817	0.0146961
833.895	0.0147683
833.973	0.0146805
834.051	0.0147980
834.129	0.0147781
834.207	0.0147092
834.285	0.0146587
834.363	0.0147549
834.442	0.0147482
834.520	0.0147349
834.598	0.0147794
834.676	0.0148820
834.754	0.0146998
834.832	0.0147591
834.910	0.0147729
834.988	0.0146664
835.067	0.0147718
835.145	0.0147362
835.223	0.0144955
835.301	0.0145287
835.379	0.0147591
835.457	0.0145347
835.535	0.0145344
835.613	0.0147063
835.692	0.0145154
835.770	0.0145737
835.848	0.0146124
835.926	0.0146000
836.004	0.0145883
836.082	0.0147133
836.160	0.0146635
836.238	0.0146758
836.317	0.0145522
836.395	0.0146101
836.473	0.0146221
836.551	0.0146458
836.629	0.0147488
836.707	0.0146841
836.785	0.0147099
836.863	0.0146804
836.942	0.0146336
837.020	0.0147491
837.098	0.0147572
837.176	0.0147356
837.254	0.0145727
837.332	0.0149358
837.410	0.0146642
837.488	0.0145184
837.567	0.0148745
837.645	0.0147863
837.723	0.0146556
837.801	0.0148320
837.879	0.0147892
837.957	0.0147590
838.035	0.0147989
838.113	0.0148732
838.192	0.0148772
838.270	0.0147909
838.348	0.0148252
838.426	0.0148489
838.504	0.0149075
838.582	0.0148639
838.660	0.0148302
838.738	0.0149535
838.817	0.0148297
838.895	0.0148048
838.973	0.0149163
839.051	0.0148712
839.129	0.0149368
839.207	0.0151742
839.285	0.0147956
839.363	0.0149344
839.442	0.0148608
839.520	0.0148793
839.598	0.0151168
839.676	0.0150110
839.754	0.0150845
839.832	0.0150311
839.910	0.0149693
839.988	0.0151208
840.067	0.0149974
840.145	0.0149648
840.223	0.0150899
840.301	0.0149751
840.379	0.0149830
840.457	0.0149271
840.535	0.0151026
840.613	0.0151074
840.692	0.0149792
840.770	0.0149853
840.848	0.0150919
840.926	0.0150278
841.004	0.0150207
841.082	0.0149844
841.160	0.0149599
841.238	0.0150449
841.317	0.0150772
841.395	0.0148804
841.473	0.0147630
841.551	0.0150225
841.629	0.0149886
841.707	0.0147707
841.785	0.0148844
841.863	0.0148811
841.942	0.0147585
842.020	0.0147093
842.098	0.0147278
842.176	0.0147582
842.254	0.0148624
842.332	0.0148119
842.410	0.0148288
842.488	0.0147610
842.567	0.0147449
842.645	0.0146973
842.723	0.0148012
842.801	0.0146902
842.879	0.0147689
842.957	0.0147153
843.035	0.0148096
843.113	0.0146554
843.192	0.0147463
843.270	0.0146782
843.348	0.0147095
843.426	0.0147520
843.504	0.0148982
843.582	0.0148739
843.660	0.0147243
843.738	0.0148249
843.817	0.0147534
843.895	0.0146985
843.973	0.0147173
844.051	0.0149512
844.129	0.0148469
844.207	0.0146967
844.285	0.0148870
844.363	0.0149323
844.442	0.0147038
844.520	0.0147616
844.598	0.0147871
844.676	0.0148440
844.754	0.0147642
844.832	0.0147369
844.910	0.0146034
844.988	0.0147586
845.067	0.0147703
845.145	0.0147584
845.223	0.0147363
845.301	0.0146973
845.379	0.0146905
845.457	0.0146912
845.535	0.0147454
845.613	0.0147073
845.692	0.0144891
845.770	0.0146889
845.848	0.0146368
845.926	0.0146801
846.004	0.0147222
846.082	0.0147334
846.160	0.0146679
846.238	0.0147742
846.317	0.0147198
846.395	0.0146391
846.473	0.0145385
846.551	0.0147161
846.629	0.0148206
846.707	0.0147533
846.785	0.0147414
846.863	0.0147218
846.942	0.0147613
847.020	0.0146304
847.098	0.0147563
847.176	0.0147805
847.254	0.0146259
847.332	0.0147324
847.410	0.0147770
847.488	0.0148880
847.567	0.0147673
847.645	0.0146218
847.723	0.0145259
847.801	0.0147777
847.879	0.0147690
847.957	0.0148025
848.035	0.0146735
848.113	0.0147748
848.192	0.0148559
848.270	0.0147842
848.348	0.0148170
848.426	0.0147916
848.504	0.0145512
848.582	0.0146148
848.660	0.0146680
848.738	0.0145908
848.817	0.0146272
848.895	0.0146851
848.973	0.0147640
849.051	0.0149211
849.129	0.0147651
849.207	0.0146782
849.285	0.0145790
849.363	0.0146820
849.442	0.0146343
849.520	0.0146015
849.598	0.0146829
849.676	0.0147713
849.754	0.0147678
849.832	0.0146606
849.910	0.0146649
849.988	0.0146062
850.067	0.0146670
850.145	0.0147181
850.223	0.0146672
850.301	0.0146239
850.379	0.0145242
850.457	0.0146595
850.535	0.0145256
850.613	0.0147261
850.692	0.0147216
850.770	0.0145300
850.848	0.0143821
850.926	0.0145681
851.004	0.0145589
851.082	0.0145657
851.160	0.0144878
851.238	0.0144078
851.317	0.0145386
851.395	0.0145076
851.473	0.0145345
851.551	0.0144413
851.629	0.0144254
851.707	0.0144571
851.785	0.0144991
851.863	0.0146701
851.942	0.0146704
852.020	0.0146206
852.098	0.0147006
852.176	0.0147791
852.254	0.0145974
852.332	0.0146223
852.410	0.0147186
852.488	0.0147353
852.567	0.0147372
852.645	0.0147050
852.723	0.0147340
852.801	0.0147735
852.879	0.0147221
852.957	0.0147369
853.035	0.0148381
853.113	0.0147519
853.192	0.0148809
853.270	0.0147179
853.348	0.0148048
853.426	0.0149371
853.504	0.0148860
853.582	0.0148041
853.660	0.0148799
853.738	0.0149200
853.817	0.0148788
853.895	0.0148463
853.973	0.0150419
854.051	0.0149973
854.129	0.0150783
854.207	0.0149317
854.285	0.0149911
854.363	0.0149532
854.442	0.0150050
854.520	0.0150775
854.598	0.0150244
854.676	0.0150761
854.754	0.0151879
854.832	0.0150263
854.910	0.0150935
854.988	0.0150549
855.067	0.0150421
855.145	0.0148855
855.223	0.0149271
855.301	0.0150542
855.379	0.0150681
855.457	0.0150555
855.535	0.0148916
855.613	0.0149912
855.692	0.0148770
855.770	0.0149454
855.848	0.0148761
855.926	0.0148715
856.004	0.0147413
856.082	0.0148697
856.160	0.0148857
856.238	0.0148624
856.317	0.0148342
856.395	0.0146683
856.473	0.0146904
856.551	0.0147623
856.629	0.0146854
856.707	0.0146986
856.785	0.0145908
856.863	0.0146212
856.942	0.0146491
857.020	0.0146812
857.098	0.0147082
857.176	0.0146280
857.254	0.0146845
857.332	0.0146979
857.410	0.0146483
857.488	0.0146799
857.567	0.0146941
857.645	0.0147644
857.723	0.0146739
857.801	0.0147260
857.879	0.0147236
857.957	0.0146120
858.035	0.0147111
858.113	0.0147295
858.192	0.0146082
858.270	0.0148293
858.348	0.0145931
858.426	0.0146461
858.504	0.0147008
858.582	0.0146505
858.660	0.0147485
858.738	0.0147730
858.817	0.0146967
858.895	0.0146301
858.973	0.0146484
859.051	0.0148269
859.129	0.0146611
859.207	0.0147089
859.285	0.0146790
859.363	0.0146218
859.442	0.0146844
859.520	0.0147895
859.598	0.0146557
859.676	0.0146964
859.754	0.0147663
859.832	0.0147670
859.910	0.0146809
859.988	0.0147813
860.067	0.0146343
860.145	0.0147189
860.223	0.0148611
860.301	0.0147751
860.379	0.0147452
860.457	0.0148358
860.535	0.0147436
860.613	0.0147225
860.692	0.0148450
860.770	0.0147890
860.848	0.0147306
860.926	0.0147359
861.004	0.0146850
861.082	0.0147403
861.160	0.0148220
861.238	0.0147497
861.317	0.0147125
861.395	0.0147173
861.473	0.0148553
861.551	0.0146524
861.629	0.0147697
861.707	0.0148475
861.785	0.0147967
861.863	0.0147604
861.942	0.0147374
862.020	0.0146814
862.098	0.0148370
862.176	0.0149370
862.254	0.0146661
862.332	0.0148039
862.410	0.0148351
862.488	0.0148182
862.567	0.0147597
862.645	0.0149324
862.723	0.0148444
862.801	0.0149089
862.879	0.0148200
862.957	0.0150198
863.035	0.0149141
863.113	0.0148316
863.192	0.0149052
863.270	0.0148966
863.348	0.0148202
863.426	0.0148463
863.504	0.0146713
863.582	0.0147916
863.660	0.0149349
863.738	0.0147536
863.817	0.0148503
863.895	0.0148286
863.973	0.0148473
864.051	0.0147370
864.129	0.0147194
864.207	0.0148912
864.285	0.0147553
864.363	0.0148824
864.442	0.0148433
864.520	0.0147420
864.598	0.0149960
864.676	0.0148380
864.754	0.0148923
864.832	0.0149559
864.910	0.0150508
864.988	0.0149207
865.067	0.0147534
865.145	0.0149527
865.223	0.0149152
865.301	0.0148540
865.379	0.0149907
865.457	0.0148090
865.535	0.0149234
865.613	0.0149207
865.692	0.0148852
865.770	0.0147752
865.848	0.0148753
865.926	0.0149219
866.004	0.0148460
866.082	0.0148203
866.160	0.0148346
866.238	0.0146426
866.317	0.0147285
866.395	0.0148209
866.473	0.0147733
866.551	0.0148673
866.629	0.0146548
866.707	0.0147565
866.785	0.0146556
866.863	0.0146639
866.942	0.0147357
867.020	0.0146709
867.098	0.0147806
867.176	0.0147095
867.254	0.0147257
867.332	0.0147379
867.410	0.0147147
867.488	0.0145375
867.567	0.0146764
867.645	0.0147028
867.723	0.0147665
867.801	0.0146710
867.879	0.0147327
867.957	0.0146194
868.035	0.0146933
868.113	0.0147102
868.192	0.0146179
868.270	0.0145805
868.348	0.0145088
868.426	0.0145369
868.504	0.0146455
868.582	0.0144078
868.660	0.0145568
868.738	0.0145741
868.817	0.0146172
868.895	0.0145853
868.973	0.0145752
869.051	0.0146217
869.129	0.0145481
869.207	0.0145640
869.285	0.0145480
869.363	0.0146121
869.442	0.0145968
869.520	0.0145612
869.598	0.0145557
869.676	0.0145528
869.754	0.0144280
869.832	0.0144806
869.910	0.0145415
869.988	0.0145641
870.067	0.0146590
870.145	0.0145579
870.223	0.0146826
870.301	0.0146084
870.379	0.0146013
870.457	0.0146092
870.535	0.0145491
870.613	0.0146356
870.692	0.0147672
870.770	0.0144944
870.848	0.0146952
870.926	0.0146513
871.004	0.0147153
871.082	0.0148116
871.160	0.0147258
871.238	0.0147881
871.317	0.0147747
871.395	0.0146358
871.473	0.0147620
871.551	0.0147515
871.629	0.0147530
871.707	0.0148750
871.785	0.0148117
871.863	0.0147094
871.942	0.0146850
872.020	0.0148477
872.098	0.0149735
872.176	0.0149406
872.254	0.0148219
872.332	0.0148499
872.410	0.0148260
872.488	0.0148588
872.567	0.0149133
872.645	0.0149104
872.723	0.0148039
872.801	0.0147299
872.879	0.0148742
872.957	0.0149911
873.035	0.0149345
873.113	0.0147964
873.192	0.0148602
873.270	0.0148716
873.348	0.0148365
873.426	0.0148479
873.504	0.0150330
873.582	0.0148703
873.660	0.0148083
873.738	0.0148970
873.817	0.0148929
873.895	0.0149459
873.973	0.0149265
874.051	0.0149927
874.129	0.0148518
874.207	0.0148334
874.285	0.0148821
874.363	0.0148672
874.442	0.0149259
874.520	0.0149395
874.598	0.0149009
874.676	0.0149928
874.754	0.0149111
874.832	0.0149156
874.910	0.0149468
874.988	0.0148794
875.067	0.0147687
875.145	0.0149750
875.223	0.0149579
875.301	0.0149572
875.379	0.0148135
875.457	0.0148930
875.535	0.0149426
875.613	0.0147889
875.692	0.0148089
875.770	0.0147312
875.848	0.0147691
875.926	0.0147219
876.004	0.0147192
876.082	0.0147727
876.160	0.0147846
876.238	0.0147833
876.317	0.0145461
876.395	0.0147207
876.473	0.0146864
876.551	0.0147030
876.629	0.0146880
876.707	0.0146331
876.785	0.0147158
876.863	0.0145856
876.942	0.0145247
877.020	0.0145571
877.098	0.0146295
877.176	0.0146466
877.254	0.0145702
877.332	0.0143855
877.410	0.0145097
877.488	0.0146056
877.567	0.0146855
877.645	0.0145335
877.723	0.0144640
877.801	0.0145862
877.879	0.0145874
877.957	0.0146404
878.035	0.0145365
878.113	0.0145684
878.192	0.0145498
878.270	0.0145322
878.348	0.0146420
878.426	0.0145258
878.504	0.0145286
878.582	0.0146568
878.660	0.0144591
878.738	0.0146402
878.817	0.0145067
878.895	0.0146123
878.973	0.0145844
879.051	0.0146410
879.129	0.0145739
879.207	0.0144871
879.285	0.0146222
879.363	0.0146089
879.442	0.0146489
879.520	0.0146336
879.598	0.0146883
879.676	0.0146220
879.754	0.0146249
879.832	0.0146266
879.910	0.0147803
879.988	0.0147554
880.067	0.0146807
880.145	0.0146953
880.223	0.0146947
880.301	0.0146706
880.379	0.0147715
880.457	0.0148091
880.535	0.0146304
880.613	0.0146491
880.692	0.0145466
880.770	0.0147738
880.848	0.0148447
880.926	0.0147511
881.004	0.0147508
881.082	0.0147213
881.160	0.0147540
881.238	0.0146934
881.317	0.0147413
881.395	0.0146089
881.473	0.0147025
881.551	0.0149389
881.629	0.0148207
881.707	0.0147686
881.785	0.0146922
881.863	0.0145216
881.942	0.0146886
882.020	0.0147797
882.098	0.0146980
882.176	0.0146626
882.254	0.0146662
882.332	0.0147458
882.410	0.0147568
882.488	0.0148205
882.567	0.0146411
882.645	0.0146844
882.723	0.0147601
882.801	0.0146289
882.879	0.0146020
882.957	0.0147333
883.035	0.0146627
883.113	0.0146684
883.192	0.0146108
883.270	0.0146506
883.348	0.0146429
883.426	0.0145470
883.504	0.0146341
883.582	0.0145834
883.660	0.0146880
883.738	0.0148115
883.817	0.0145199
883.895	0.0146102
883.973	0.0145682
884.051	0.0145402
884.129	0.0146455
884.207	0.0146914
884.285	0.0145741
884.363	0.0147699
884.442	0.0146107
884.520	0.0146308
884.598	0.0146676
884.676	0.0146436
884.754	0.0146433
884.832	0.0146458
884.910	0.0146657
884.988	0.0147513
885.067	0.0148094
885.145	0.0147620
885.223	0.0146825
885.301	0.0147449
885.379	0.0146291
885.457	0.0147064
885.535	0.0147972
885.613	0.0147906
885.692	0.0147565
885.770	0.0147668
885.848	0.0146791
885.926	0.0149001
886.004	0.0148592
886.082	0.0146644
886.160	0.0146543
886.238	0.0147433
886.317	0.0148369
886.395	0.0148300
886.473	0.0147697
886.551	0.0148107
886.629	0.0145962
886.707	0.0146904
886.785	0.0147887
886.863	0.0146535
886.942	0.0146616
887.020	0.0146373
887.098	0.0147055
887.176	0.0147049
887.254	0.0146513
887.332	0.0146914
887.410	0.0146998
887.488	0.0147629
887.567	0.0147109
887.645	0.0146476
887.723	0.0145913
887.801	0.0145699
887.879	0.0145840
887.957	0.0146181
888.035	0.0144900
888.113	0.0144846
888.192	0.0144390
888.270	0.0145933
888.348	0.0146169
888.426	0.0144697
888.504	0.0146639
888.582	0.0147028
888.660	0.0146875
888.738	0.0146181
888.817	0.0147253
888.895	0.0147995
888.973	0.0145934
889.051	0.0146137
889.129	0.0145969
889.207	0.0147437
889.285	0.0146512
889.363	0.0146252
889.442	0.0147439
889.520	0.0146126
889.598	0.0147679
889.676	0.0147617
889.754	0.0145943
889.832	0.0145440
889.910	0.0146068
889.988	0.0147614
890.067	0.0145871
890.145	0.0145822
890.223	0.0146662
890.301	0.0146709
890.379	0.0145028
890.457	0.0147021
890.535	0.0145245
890.613	0.0145995
890.692	0.0144884
890.770	0.0144216
890.848	0.0144414
890.926	0.0144111
891.004	0.0144944
891.082	0.0143802
891.160	0.0144823
891.238	0.0144394
891.317	0.0144123
891.395	0.0144165
891.473	0.0144052
891.551	0.0143888
891.629	0.0143374
891.707	0.0145077
891.785	0.0144107
891.863	0.0143814
891.942	0.0144592
892.020	0.0144388
892.098	0.0144183
892.176	0.0144980
892.254	0.0144368
892.332	0.0143763
892.410	0.0144543
892.488	0.0145082
892.567	0.0146818
892.645	0.0145248
892.723	0.0146158
892.801	0.0144783
892.879	0.0145765
892.957	0.0146400
893.035	0.0145018
893.113	0.0146759
893.192	0.0146871
893.270	0.0146436
893.348	0.0145924
893.426	0.0147075
893.504	0.0145979
893.582	0.0146066
893.660	0.0147604
893.738	0.0146201
893.817	0.0147074
893.895	0.0146644
893.973	0.0145840
894.051	0.0146917
894.129	0.0147471
894.207	0.0147342
894.285	0.0148165
894.363	0.0147079
894.442	0.0147819
894.520	0.0148051
894.598	0.0148615
894.676	0.0146514
894.754	0.0147189
894.832	0.0148800
894.910	0.0148290
894.988	0.0147881
895.067	0.0148137
895.145	0.0147242
895.223	0.0148533
895.301	0.0147151
895.379	0.0147466
895.457	0.0147375
895.535	0.0147702
895.613	0.0149563
895.692	0.0147868
895.770	0.0147750
895.848	0.0147350
895.926	0.0147300
896.004	0.0146550
896.082	0.0147720
896.160	0.0146302
896.238	0.0145692
896.317	0.0146330
896.395	0.0147710
896.473	0.0145316
896.551	0.0146166
896.629	0.0147042
896.707	0.0144817
896.785	0.0146991
896.863	0.0147717
896.942	0.0146766
897.020	0.0147482
897.098	0.0148217
897.176	0.0146421
897.254	0.0146643
897.332	0.0146919
897.410	0.0146760
897.488	0.0148214
897.567	0.0147332
897.645	0.0149424
897.723	0.0147414
897.801	0.0146742
897.879	0.0147385
897.957	0.0146545
898.035	0.0148730
898.113	0.0146712
898.192	0.0150047
898.270	0.0146898
898.348	0.0146938
898.426	0.0147302
898.504	0.0146873
898.582	0.0147172
898.660	0.0147072
898.738	0.0146783
898.817	0.0147768
898.895	0.0147966
898.973	0.0147933
899.051	0.0148280
899.129	0.0148280
899.207	0.0147757
899.285	0.0148917
899.363	0.0146752
899.442	0.0147653
899.520	0.0149261
899.598	0.0147226
899.676	0.0147573
899.754	0.0148932
899.832	0.0147346
899.910	0.0147991
899.988	0.0148652
900.067	0.0149018
900.145	0.0148768
900.223	0.0147797
900.301	0.0148092
900.379	0.0148627
900.457	0.0148827
900.535	0.0146594
900.613	0.0148631
900.692	0.0148173
900.770	0.0148176
900.848	0.0148131
900.926	0.0146900
901.004	0.0147446
901.082	0.0147227
901.160	0.0146075
901.238	0.0145206
901.317	0.0145656
901.395	0.0146114
901.473	0.0146067
901.551	0.0146321
901.629	0.0146052
901.707	0.0145257
901.785	0.0144405
901.863	0.0145461
901.942	0.0144372
902.020	0.0145622
902.098	0.0145383
902.176	0.0146392
902.254	0.0145187
902.332	0.0146828
902.410	0.0145737
902.488	0.0145966
902.567	0.0145819
902.645	0.0145753
902.723	0.0146260
902.801	0.0147023
902.879	0.0145782
902.957	0.0145255
903.035	0.0146030
903.113	0.0146806
903.192	0.0145513
903.270	0.0145410
903.348	0.0146880
903.426	0.0145546
903.504	0.0144804
903.582	0.0145452
903.660	0.0145978
903.738	0.0143970
903.817	0.0144944
903.895	0.0144277
903.973	0.0145500
904.051	0.0146765
904.129	0.0144289
904.207	0.0146076
904.285	0.0145312
904.363	0.0144934
904.442	0.0145174
904.520	0.0145335
904.598	0.0145482
904.676	0.0146508
904.754	0.0146708
904.832	0.0147182
904.910	0.0146008
904.988	0.0144581
905.067	0.0145440
905.145	0.0145402
905.223	0.0146761
905.301	0.0145952
905.379	0.0146140
905.457	0.0145374
905.535	0.0145665
905.613	0.0144932
905.692	0.0145627
905.770	0.0144655
905.848	0.0146182
905.926	0.0145957
906.004	0.0145721
906.082	0.0146100
906.160	0.0145364
906.238	0.0145820
906.317	0.0145822
906.395	0.0145619
906.473	0.0144939
906.551	0.0146294
906.629	0.0146470
906.707	0.0146559
906.785	0.0146870
906.863	0.0146883
906.942	0.0149117
907.020	0.0147032
907.098	0.0146197
907.176	0.0146809
907.254	0.0145599
907.332	0.0145908
907.410	0.0146634
907.488	0.0147054
907.567	0.0146037
907.645	0.0147145
907.723	0.0148196
907.801	0.0146381
907.879	0.0145695
907.957	0.0146854
908.035	0.0146223
908.113	0.0146503
908.192	0.0145747
908.270	0.0147171
908.348	0.0146516
908.426	0.0146276
908.504	0.0146217
908.582	0.0146626
908.660	0.0145816
908.738	0.0145776
908.817	0.0147073
908.895	0.0146416
908.973	0.0146931
909.051	0.0145748
909.129	0.0146487
909.207	0.0145970
909.285	0.0148689
909.363	0.0147353
909.442	0.0147289
909.520	0.0146770
909.598	0.0147027
909.676	0.0147195
909.754	0.0147253
909.832	0.0146930
909.910	0.0145943
909.988	0.0147673
910.067	0.0147250
910.145	0.0145888
910.223	0.0146587
910.301	0.0146867
910.379	0.0146014
910.457	0.0145882
910.535	0.0147466
910.613	0.0146804
910.692	0.0146312
910.770	0.0147243
910.848	0.0144741
910.926	0.0146026
911.004	0.0146970
911.082	0.0146735
911.160	0.0145047
911.238	0.0145042
911.317	0.0145300
911.395	0.0143953
911.473	0.0144490
911.551	0.0144012
911.629	0.0143963
911.707	0.0143923
911.785	0.0143571
911.863	0.0143855
911.942	0.0143850
912.020	0.0143578
912.098	0.0144549
912.176	0.0142967
912.254	0.0142804
912.332	0.0143101
912.410	0.0143987
912.488	0.0143617
912.567	0.0143795
912.645	0.0144614
912.723	0.0144373
912.801	0.0145296
912.879	0.0145200
912.957	0.0144720
913.035	0.0146207
913.113	0.0146011
913.192	0.0146007
913.270	0.0147009
913.348	0.0147673
913.426	0.0146602
913.504	0.0147095
913.582	0.0146450
913.660	0.0146445
913.738	0.0147561
913.817	0.0146723
913.895	0.0146956
913.973	0.0146965
914.051	0.0146609
914.129	0.0145954
914.207	0.0148440
914.285	0.0148836
914.363	0.0147462
914.442	0.0147406
914.520	0.0148985
914.598	0.0147567
914.676	0.0147245
914.754	0.0148862
914.832	0.0147058
914.910	0.0147174
914.988	0.0147470
915.067	0.0147514
915.145	0.0146921
915.223	0.0147366
915.301	0.0147692
915.379	0.0147694
915.457	0.0147460
915.535	0.0148207
915.613	0.0147361
915.692	0.0148054
915.770	0.0147057
915.848	0.0148074
915.926	0.0147343
916.004	0.0148492
916.082	0.0147028
916.160	0.0148112
916.238	0.0149355
916.317	0.0149139
916.395	0.0148896
916.473	0.0148287
916.551	0.0147565
916.629	0.0149604
916.707	0.0149335
916.785	0.0149277
916.863	0.0150855
916.942	0.0147107
917.020	0.0149749
917.098	0.0148865
917.176	0.0148071
917.254	0.0147352
917.332	0.0148353
917.410	0.0149289
917.488	0.0149080
917.567	0.0148122
917.645	0.0149127
917.723	0.0148565
917.801	0.0147612
917.879	0.0148551
917.957	0.0149863
918.035	0.0149347
918.113	0.0148650
918.192	0.0148008
918.270	0.0148353
918.348	0.0148203
918.426	0.0148145
918.504	0.0148112
918.582	0.0149076
918.660	0.0148677
918.738	0.0149722
918.817	0.0149444
918.895	0.0149038
918.973	0.0148767
919.051	0.0147694
919.129	0.0148563
919.207	0.0148147
919.285	0.0148621
919.363	0.0148801
919.442	0.0149873
919.520	0.0147253
919.598	0.0148154
919.676	0.0149230
919.754	0.0148624
919.832	0.0147794
919.910	0.0149286
