06/29/2022	21:12:58	Ver.	4.1	UNKNOWN
Optical Delay	629.995835	Delta X		0.078125	Sweeps	1	Scan Rate	0/0
Coordinates	Axis 1	NaN	Axis 2	NaN	Axis 3	NaN	Axis 4	NaN	Axis 5	NaN	Axis 6	0.000000
TX Power	0.000000	RX Power	0.000000

629.996	0.0157815
630.074	0.0158280
630.152	0.0158356
630.230	0.0158275
630.308	0.0157596
630.386	0.0158757
630.465	0.0157758
630.543	0.0158536
630.621	0.0156828
630.699	0.0158167
630.777	0.0159028
630.855	0.0158470
630.933	0.0157420
631.011	0.0157308
631.090	0.0157502
631.168	0.0157873
631.246	0.0158736
631.324	0.0158683
631.402	0.0157639
631.480	0.0158575
631.558	0.0157253
631.636	0.0158315
631.715	0.0158135
631.793	0.0158055
631.871	0.0159219
631.949	0.0156992
632.027	0.0157009
632.105	0.0157991
632.183	0.0157639
632.261	0.0157738
632.340	0.0157524
632.418	0.0158472
632.496	0.0157626
632.574	0.0157636
632.652	0.0156567
632.730	0.0158665
632.808	0.0157373
632.886	0.0158473
632.965	0.0158698
633.043	0.0157956
633.121	0.0157628
633.199	0.0158983
633.277	0.0157108
633.355	0.0157195
633.433	0.0157697
633.511	0.0157858
633.590	0.0158538
633.668	0.0158575
633.746	0.0157583
633.824	0.0157607
633.902	0.0158661
633.980	0.0158079
634.058	0.0157561
634.136	0.0157173
634.215	0.0158753
634.293	0.0157860
634.371	0.0158866
634.449	0.0157717
634.527	0.0158120
634.605	0.0156607
634.683	0.0158864
634.761	0.0158378
634.840	0.0158694
634.918	0.0158370
634.996	0.0158537
635.074	0.0158858
635.152	0.0157026
635.230	0.0156786
635.308	0.0158030
635.386	0.0157350
635.465	0.0157779
635.543	0.0156624
635.621	0.0159073
635.699	0.0159118
635.777	0.0158499
635.855	0.0157761
635.933	0.0157072
636.011	0.0157664
636.090	0.0157607
636.168	0.0157168
636.246	0.0157491
636.324	0.0157787
636.402	0.0157738
636.480	0.0158048
636.558	0.0159307
636.636	0.0158807
636.715	0.0158252
636.793	0.0157124
636.871	0.0159772
636.949	0.0158394
637.027	0.0157552
637.105	0.0157587
637.183	0.0157189
637.261	0.0159544
637.340	0.0157728
637.418	0.0156354
637.496	0.0157600
637.574	0.0157866
637.652	0.0158731
637.730	0.0158022
637.808	0.0158118
637.886	0.0158553
637.965	0.0157607
638.043	0.0158630
638.121	0.0157656
638.199	0.0158477
638.277	0.0159158
638.355	0.0158321
638.433	0.0158237
638.511	0.0157702
638.590	0.0158047
638.668	0.0158443
638.746	0.0157463
638.824	0.0158273
638.902	0.0157896
638.980	0.0158569
639.058	0.0159978
639.136	0.0157895
639.215	0.0158302
639.293	0.0156998
639.371	0.0158079
639.449	0.0158243
639.527	0.0157726
639.605	0.0157431
639.683	0.0158839
639.761	0.0156719
639.840	0.0157659
639.918	0.0157600
639.996	0.0157626
640.074	0.0158521
640.152	0.0158359
640.230	0.0158778
640.308	0.0156445
640.386	0.0157944
640.465	0.0156888
640.543	0.0158536
640.621	0.0158590
640.699	0.0157255
640.777	0.0157092
640.855	0.0158587
640.933	0.0158764
641.011	0.0158382
641.090	0.0156556
641.168	0.0157530
641.246	0.0158314
641.324	0.0158428
641.402	0.0158524
641.480	0.0158733
641.558	0.0157307
641.636	0.0157304
641.715	0.0158765
641.793	0.0157976
641.871	0.0157077
641.949	0.0158559
642.027	0.0158918
642.105	0.0158590
642.183	0.0158753
642.261	0.0157748
642.340	0.0156557
642.418	0.0158520
642.496	0.0157862
642.574	0.0157816
642.652	0.0158733
642.730	0.0157125
642.808	0.0159030
642.886	0.0156882
642.965	0.0157355
643.043	0.0158346
643.121	0.0158215
643.199	0.0157894
643.277	0.0157806
643.355	0.0158896
643.433	0.0157392
643.511	0.0157724
643.590	0.0159603
643.668	0.0157560
643.746	0.0157095
643.824	0.0158360
643.902	0.0157868
643.980	0.0157469
644.058	0.0157848
644.136	0.0156819
644.215	0.0157973
644.293	0.0158911
644.371	0.0158179
644.449	0.0157000
644.527	0.0157907
644.605	0.0157470
644.683	0.0158309
644.761	0.0157557
644.840	0.0158045
644.918	0.0159046
644.996	0.0158642
645.074	0.0159413
645.152	0.0157845
645.230	0.0158714
645.308	0.0157864
645.386	0.0158456
645.465	0.0158236
645.543	0.0157626
645.621	0.0158277
645.699	0.0159799
645.777	0.0157893
645.855	0.0158813
645.933	0.0158988
646.011	0.0158410
646.090	0.0157315
646.168	0.0158068
646.246	0.0157951
646.324	0.0159515
646.402	0.0158698
646.480	0.0157021
646.558	0.0158248
646.636	0.0158181
646.715	0.0158310
646.793	0.0157274
646.871	0.0157900
646.949	0.0158760
647.027	0.0158018
647.105	0.0157837
647.183	0.0159483
647.261	0.0159305
647.340	0.0159026
647.418	0.0157716
647.496	0.0158649
647.574	0.0158578
647.652	0.0157310
647.730	0.0158277
647.808	0.0157799
647.886	0.0159547
647.965	0.0158503
648.043	0.0158410
648.121	0.0157617
648.199	0.0156496
648.277	0.0159293
648.355	0.0158198
648.433	0.0158129
648.511	0.0158054
648.590	0.0157648
648.668	0.0156880
648.746	0.0158274
648.824	0.0157071
648.902	0.0158233
648.980	0.0157643
649.058	0.0157169
649.136	0.0157650
649.215	0.0157391
649.293	0.0157896
649.371	0.0157112
649.449	0.0157892
649.527	0.0158072
649.605	0.0157191
649.683	0.0157638
649.761	0.0157954
649.840	0.0158362
649.918	0.0158730
649.996	0.0158659
650.074	0.0158368
650.152	0.0158108
650.230	0.0157204
650.308	0.0158728
650.386	0.0158496
650.465	0.0158800
650.543	0.0158984
650.621	0.0157556
650.699	0.0158118
650.777	0.0158237
650.855	0.0158906
650.933	0.0158243
651.011	0.0157275
651.090	0.0158025
651.168	0.0157998
651.246	0.0157373
651.324	0.0157280
651.402	0.0158820
651.480	0.0158514
651.558	0.0158462
651.636	0.0157912
651.715	0.0158064
651.793	0.0159018
651.871	0.0157758
651.949	0.0158279
652.027	0.0158046
652.105	0.0159312
652.183	0.0158468
652.261	0.0157720
652.340	0.0158475
652.418	0.0158402
652.496	0.0158139
652.574	0.0157707
652.652	0.0158034
652.730	0.0159124
652.808	0.0157846
652.886	0.0157358
652.965	0.0158346
653.043	0.0158897
653.121	0.0158308
653.199	0.0158730
653.277	0.0158936
653.355	0.0157372
653.433	0.0157315
653.511	0.0158081
653.590	0.0158349
653.668	0.0158073
653.746	0.0158490
653.824	0.0158379
653.902	0.0157777
653.980	0.0158672
654.058	0.0158296
654.136	0.0159263
654.215	0.0158392
654.293	0.0158260
654.371	0.0158083
654.449	0.0156979
654.527	0.0159256
654.605	0.0159093
654.683	0.0157613
654.761	0.0158169
654.840	0.0159299
654.918	0.0158556
654.996	0.0158640
655.074	0.0157465
655.152	0.0159149
655.230	0.0158016
655.308	0.0158260
655.386	0.0158246
655.465	0.0159061
655.543	0.0157862
655.621	0.0158270
655.699	0.0158634
655.777	0.0158570
655.855	0.0158325
655.933	0.0158579
656.011	0.0158063
656.090	0.0159145
656.168	0.0158163
656.246	0.0155866
656.324	0.0156750
656.402	0.0159999
656.480	0.0159529
656.558	0.0157580
656.636	0.0156772
656.715	0.0158569
656.793	0.0158029
656.871	0.0158018
656.949	0.0158537
657.027	0.0158805
657.105	0.0158014
657.183	0.0158205
657.261	0.0158747
657.340	0.0159056
657.418	0.0156777
657.496	0.0159111
657.574	0.0158447
657.652	0.0158671
657.730	0.0158049
657.808	0.0158952
657.886	0.0157292
657.965	0.0159237
658.043	0.0159084
658.121	0.0157286
658.199	0.0157814
658.277	0.0158648
658.355	0.0159921
658.433	0.0159535
658.511	0.0158551
658.590	0.0158687
658.668	0.0159108
658.746	0.0158244
658.824	0.0158495
658.902	0.0157944
658.980	0.0159045
659.058	0.0157529
659.136	0.0158442
659.215	0.0157253
659.293	0.0158351
659.371	0.0158089
659.449	0.0158134
659.527	0.0159755
659.605	0.0156947
659.683	0.0159130
659.761	0.0159387
659.840	0.0158141
659.918	0.0158089
659.996	0.0158148
660.074	0.0157571
660.152	0.0158430
660.230	0.0159123
660.308	0.0158732
660.386	0.0158167
660.465	0.0157105
660.543	0.0158399
660.621	0.0158040
660.699	0.0157339
660.777	0.0158141
660.855	0.0156857
660.933	0.0157747
661.011	0.0157896
661.090	0.0158195
661.168	0.0157262
661.246	0.0157809
661.324	0.0159179
661.402	0.0158598
661.480	0.0157570
661.558	0.0158423
661.636	0.0157680
661.715	0.0158289
661.793	0.0158413
661.871	0.0158954
661.949	0.0158487
662.027	0.0157284
662.105	0.0157465
662.183	0.0158886
662.261	0.0158576
662.340	0.0157034
662.418	0.0158501
662.496	0.0157976
662.574	0.0157920
662.652	0.0159312
662.730	0.0158089
662.808	0.0157764
662.886	0.0157825
662.965	0.0157153
663.043	0.0157456
663.121	0.0157136
663.199	0.0158058
663.277	0.0156913
663.355	0.0157855
663.433	0.0159066
663.511	0.0157990
663.590	0.0155997
663.668	0.0158335
663.746	0.0158539
663.824	0.0158476
663.902	0.0158170
663.980	0.0158646
664.058	0.0158527
664.136	0.0157822
664.215	0.0159251
664.293	0.0157680
664.371	0.0156659
664.449	0.0157664
664.527	0.0157572
664.605	0.0158260
664.683	0.0158624
664.761	0.0158604
664.840	0.0157436
664.918	0.0158291
664.996	0.0157121
665.074	0.0156931
665.152	0.0158662
665.230	0.0156734
665.308	0.0157980
665.386	0.0157571
665.465	0.0158809
665.543	0.0157493
665.621	0.0159278
665.699	0.0157252
665.777	0.0157468
665.855	0.0158372
665.933	0.0158250
666.011	0.0157848
666.090	0.0156207
666.168	0.0158182
666.246	0.0157224
666.324	0.0157866
666.402	0.0157905
666.480	0.0158057
666.558	0.0159420
666.636	0.0157995
666.715	0.0158508
666.793	0.0157288
666.871	0.0158167
666.949	0.0156821
667.027	0.0158276
667.105	0.0157760
667.183	0.0158896
667.261	0.0158559
667.340	0.0157314
667.418	0.0157767
667.496	0.0158393
667.574	0.0159059
667.652	0.0157439
667.730	0.0157286
667.808	0.0158128
667.886	0.0157635
667.965	0.0159063
668.043	0.0158604
668.121	0.0157922
668.199	0.0157957
668.277	0.0157469
668.355	0.0156562
668.433	0.0158830
668.511	0.0158720
668.590	0.0158374
668.668	0.0158399
668.746	0.0158787
668.824	0.0158421
668.902	0.0157938
668.980	0.0157531
669.058	0.0158958
669.136	0.0159135
669.215	0.0157684
669.293	0.0157623
669.371	0.0159071
669.449	0.0158454
669.527	0.0159274
669.605	0.0158128
669.683	0.0157758
669.761	0.0157815
669.840	0.0158273
669.918	0.0159500
669.996	0.0157510
670.074	0.0158595
670.152	0.0157322
670.230	0.0157632
670.308	0.0158693
670.386	0.0157770
670.465	0.0157070
670.543	0.0158405
670.621	0.0159103
670.699	0.0156557
670.777	0.0157575
670.855	0.0157580
670.933	0.0157901
671.011	0.0158859
671.090	0.0156582
671.168	0.0158758
671.246	0.0158283
671.324	0.0159103
671.402	0.0157332
671.480	0.0156680
671.558	0.0159209
671.636	0.0159135
671.715	0.0157773
671.793	0.0158300
671.871	0.0157686
671.949	0.0157537
672.027	0.0156555
672.105	0.0157383
672.183	0.0159069
672.261	0.0159169
672.340	0.0158192
672.418	0.0158774
672.496	0.0157755
672.574	0.0158881
672.652	0.0157196
672.730	0.0158237
672.808	0.0158068
672.886	0.0158533
672.965	0.0158157
673.043	0.0157948
673.121	0.0158182
673.199	0.0159247
673.277	0.0157147
673.355	0.0157304
673.433	0.0158810
673.511	0.0158464
673.590	0.0158715
673.668	0.0158514
673.746	0.0158350
673.824	0.0158765
673.902	0.0157665
673.980	0.0157804
674.058	0.0158438
674.136	0.0158714
674.215	0.0157550
674.293	0.0158996
674.371	0.0156879
674.449	0.0157301
674.527	0.0159055
674.605	0.0157669
674.683	0.0157091
674.761	0.0157384
674.840	0.0157890
674.918	0.0158073
674.996	0.0156546
675.074	0.0157906
675.152	0.0157975
675.230	0.0157494
675.308	0.0158233
675.386	0.0157658
675.465	0.0158350
675.543	0.0156833
675.621	0.0158208
675.699	0.0159007
675.777	0.0156670
675.855	0.0158994
675.933	0.0158186
676.011	0.0157065
676.090	0.0157087
676.168	0.0158825
676.246	0.0159036
676.324	0.0157215
676.402	0.0157262
676.480	0.0157634
676.558	0.0156796
676.636	0.0158089
676.715	0.0157285
676.793	0.0157504
676.871	0.0157289
676.949	0.0158591
677.027	0.0158295
677.105	0.0159180
677.183	0.0158546
677.261	0.0158762
677.340	0.0159012
677.418	0.0158474
677.496	0.0158637
677.574	0.0158624
677.652	0.0157132
677.730	0.0157229
677.808	0.0157355
677.886	0.0157430
677.965	0.0157876
678.043	0.0157616
678.121	0.0158418
678.199	0.0158343
678.277	0.0158328
678.355	0.0158508
678.433	0.0156790
678.511	0.0157572
678.590	0.0158491
678.668	0.0156894
678.746	0.0158855
678.824	0.0158060
678.902	0.0158195
678.980	0.0157701
679.058	0.0158445
679.136	0.0158453
679.215	0.0157034
679.293	0.0157883
679.371	0.0157738
679.449	0.0157352
679.527	0.0157852
679.605	0.0157104
679.683	0.0157316
679.761	0.0159483
679.840	0.0158366
679.918	0.0157773
679.996	0.0157735
680.074	0.0157778
680.152	0.0158983
680.230	0.0158898
680.308	0.0158463
680.386	0.0157037
680.465	0.0158520
680.543	0.0157645
680.621	0.0158708
680.699	0.0157536
680.777	0.0156528
680.855	0.0157890
680.933	0.0157878
681.011	0.0156577
681.090	0.0156599
681.168	0.0157067
681.246	0.0157954
681.324	0.0158504
681.402	0.0157320
681.480	0.0158057
681.558	0.0157835
681.636	0.0158966
681.715	0.0157916
681.793	0.0158494
681.871	0.0158582
681.949	0.0157994
682.027	0.0158265
682.105	0.0157914
682.183	0.0158851
682.261	0.0158979
682.340	0.0156025
682.418	0.0159454
682.496	0.0157710
682.574	0.0157150
682.652	0.0159039
682.730	0.0157772
682.808	0.0158228
682.886	0.0157340
682.965	0.0157253
683.043	0.0157880
683.121	0.0157544
683.199	0.0158347
683.277	0.0157291
683.355	0.0156937
683.433	0.0157555
683.511	0.0157061
683.590	0.0157949
683.668	0.0158208
683.746	0.0158205
683.824	0.0158291
683.902	0.0157357
683.980	0.0157259
684.058	0.0157748
684.136	0.0157413
684.215	0.0158026
684.293	0.0157197
684.371	0.0158713
684.449	0.0157768
684.527	0.0156873
684.605	0.0157771
684.683	0.0156660
684.761	0.0158053
684.840	0.0157652
684.918	0.0158596
684.996	0.0156887
685.074	0.0157677
685.152	0.0157416
685.230	0.0157911
685.308	0.0157894
685.386	0.0157897
685.465	0.0159290
685.543	0.0158090
685.621	0.0156338
685.699	0.0157847
685.777	0.0158620
685.855	0.0158134
685.933	0.0158139
686.011	0.0158400
686.090	0.0157207
686.168	0.0157830
686.246	0.0157582
686.324	0.0158195
686.402	0.0157008
686.480	0.0155998
686.558	0.0158086
686.636	0.0157500
686.715	0.0158044
686.793	0.0158833
686.871	0.0157468
686.949	0.0158061
687.027	0.0157874
687.105	0.0158238
687.183	0.0158955
687.261	0.0158241
687.340	0.0157300
687.418	0.0158220
687.496	0.0158513
687.574	0.0157819
687.652	0.0157823
687.730	0.0158733
687.808	0.0158533
687.886	0.0157365
687.965	0.0157902
688.043	0.0157833
688.121	0.0157563
688.199	0.0156638
688.277	0.0156870
688.355	0.0158157
688.433	0.0158617
688.511	0.0157748
688.590	0.0158202
688.668	0.0158908
688.746	0.0159228
688.824	0.0158301
688.902	0.0158666
688.980	0.0158101
689.058	0.0157632
689.136	0.0159003
689.215	0.0157384
689.293	0.0157755
689.371	0.0158661
689.449	0.0158959
689.527	0.0159182
689.605	0.0158199
689.683	0.0158639
689.761	0.0158060
689.840	0.0158839
689.918	0.0158479
689.996	0.0157291
690.074	0.0159055
690.152	0.0159375
690.230	0.0159047
690.308	0.0157777
690.386	0.0158881
690.465	0.0158649
690.543	0.0158810
690.621	0.0158594
690.699	0.0158276
690.777	0.0158294
690.855	0.0158736
690.933	0.0157109
691.011	0.0157226
691.090	0.0158588
691.168	0.0158096
691.246	0.0158421
691.324	0.0158150
691.402	0.0158176
691.480	0.0158395
691.558	0.0159155
691.636	0.0158231
691.715	0.0158040
691.793	0.0158821
691.871	0.0159162
691.949	0.0158060
692.027	0.0157716
692.105	0.0158559
692.183	0.0157783
692.261	0.0157481
692.340	0.0158868
692.418	0.0157720
692.496	0.0158127
692.574	0.0157906
692.652	0.0156532
692.730	0.0158379
692.808	0.0157549
692.886	0.0158198
692.965	0.0158115
693.043	0.0157862
693.121	0.0157940
693.199	0.0159391
693.277	0.0158549
693.355	0.0158868
693.433	0.0157662
693.511	0.0158336
693.590	0.0157636
693.668	0.0157127
693.746	0.0158462
693.824	0.0159161
693.902	0.0159260
693.980	0.0158132
694.058	0.0157834
694.136	0.0158217
694.215	0.0158392
694.293	0.0158523
694.371	0.0157532
694.449	0.0158292
694.527	0.0158766
694.605	0.0158138
694.683	0.0158233
694.761	0.0158701
694.840	0.0158932
694.918	0.0158705
694.996	0.0157604
695.074	0.0158430
695.152	0.0158574
695.230	0.0157359
695.308	0.0157548
695.386	0.0156706
695.465	0.0157381
695.543	0.0157847
695.621	0.0159081
695.699	0.0158389
695.777	0.0158331
695.855	0.0158077
695.933	0.0157993
696.011	0.0158740
696.090	0.0158656
696.168	0.0159456
696.246	0.0157666
696.324	0.0158372
696.402	0.0157903
696.480	0.0158155
696.558	0.0158247
696.636	0.0157409
696.715	0.0157280
696.793	0.0159241
696.871	0.0158965
696.949	0.0158009
697.027	0.0158157
697.105	0.0158096
697.183	0.0158245
697.261	0.0157412
697.340	0.0158109
697.418	0.0158310
697.496	0.0158096
697.574	0.0157805
697.652	0.0158231
697.730	0.0157307
697.808	0.0157851
697.886	0.0158917
697.965	0.0158642
698.043	0.0158493
698.121	0.0159597
698.199	0.0157426
698.277	0.0158775
698.355	0.0157860
698.433	0.0158125
698.511	0.0157540
698.590	0.0157320
698.668	0.0156506
698.746	0.0158208
698.824	0.0159334
698.902	0.0158218
698.980	0.0159130
699.058	0.0159389
699.136	0.0157479
699.215	0.0157440
699.293	0.0158701
699.371	0.0158277
699.449	0.0158012
699.527	0.0157492
699.605	0.0158665
699.683	0.0158005
699.761	0.0157747
699.840	0.0159290
699.918	0.0157058
699.996	0.0158794
700.074	0.0158548
700.152	0.0157392
700.230	0.0159014
700.308	0.0156911
700.386	0.0157315
700.465	0.0157091
700.543	0.0158138
700.621	0.0157793
700.699	0.0157022
700.777	0.0157716
700.855	0.0157634
700.933	0.0157955
701.011	0.0159062
701.090	0.0158533
701.168	0.0159010
701.246	0.0156665
701.324	0.0157028
701.402	0.0158837
701.480	0.0158558
701.558	0.0159097
701.636	0.0157773
701.715	0.0157290
701.793	0.0157668
701.871	0.0158240
701.949	0.0157772
702.027	0.0158203
702.105	0.0157015
702.183	0.0157500
702.261	0.0157748
702.340	0.0157146
702.418	0.0158789
702.496	0.0157439
702.574	0.0157355
702.652	0.0157374
702.730	0.0157626
702.808	0.0159425
702.886	0.0158453
702.965	0.0157870
703.043	0.0157112
703.121	0.0157549
703.199	0.0156974
703.277	0.0156044
703.355	0.0158399
703.433	0.0157706
703.511	0.0157078
703.590	0.0156303
703.668	0.0158188
703.746	0.0156769
703.824	0.0158017
703.902	0.0156627
703.980	0.0157699
704.058	0.0158311
704.136	0.0157306
704.215	0.0156715
704.293	0.0157997
704.371	0.0158782
704.449	0.0156450
704.527	0.0156463
704.605	0.0158127
704.683	0.0158181
704.761	0.0158315
704.840	0.0158318
704.918	0.0158213
704.996	0.0159016
705.074	0.0159383
705.152	0.0157918
705.230	0.0157604
705.308	0.0156705
705.386	0.0157679
705.465	0.0157531
705.543	0.0157668
705.621	0.0156905
705.699	0.0158657
705.777	0.0157778
705.855	0.0157751
705.933	0.0160040
706.011	0.0158522
706.090	0.0158717
706.168	0.0158810
706.246	0.0158360
706.324	0.0158858
706.402	0.0158418
706.480	0.0158037
706.558	0.0157565
706.636	0.0157433
706.715	0.0158282
706.793	0.0158202
706.871	0.0155765
706.949	0.0156695
707.027	0.0157025
707.105	0.0157729
707.183	0.0158543
707.261	0.0157961
707.340	0.0157514
707.418	0.0157433
707.496	0.0158011
707.574	0.0158952
707.652	0.0157858
707.730	0.0158223
707.808	0.0157768
707.886	0.0158960
707.965	0.0157964
708.043	0.0157662
708.121	0.0158288
708.199	0.0158577
708.277	0.0157928
708.355	0.0157265
708.433	0.0158223
708.511	0.0156468
708.590	0.0156760
708.668	0.0157561
708.746	0.0158167
708.824	0.0157664
708.902	0.0158790
708.980	0.0158728
709.058	0.0157236
709.136	0.0158389
709.215	0.0158315
709.293	0.0157743
709.371	0.0158235
709.449	0.0157281
709.527	0.0157509
709.605	0.0156625
709.683	0.0157719
709.761	0.0156819
709.840	0.0157673
709.918	0.0158968
709.996	0.0159470
710.074	0.0158447
710.152	0.0158745
710.230	0.0159090
710.308	0.0158887
710.386	0.0158249
710.465	0.0157419
710.543	0.0157495
710.621	0.0157229
710.699	0.0157958
710.777	0.0156638
710.855	0.0155044
710.933	0.0155593
711.011	0.0156868
711.090	0.0156147
711.168	0.0156401
711.246	0.0156478
711.324	0.0156812
711.402	0.0156706
711.480	0.0158152
711.558	0.0157706
711.636	0.0156589
711.715	0.0157918
711.793	0.0157906
711.871	0.0158041
711.949	0.0158119
712.027	0.0159277
712.105	0.0157851
712.183	0.0159824
712.261	0.0160604
712.340	0.0158740
712.418	0.0158854
712.496	0.0160541
712.574	0.0159900
712.652	0.0161575
712.730	0.0160599
712.808	0.0162265
712.886	0.0162951
712.965	0.0163332
713.043	0.0163841
713.121	0.0165371
713.199	0.0164213
713.277	0.0165862
713.355	0.0164153
713.433	0.0162788
713.511	0.0161651
713.590	0.0160642
713.668	0.0158922
713.746	0.0157453
713.824	0.0158185
713.902	0.0156712
713.980	0.0154970
714.058	0.0154151
714.136	0.0154044
714.215	0.0152414
714.293	0.0151145
714.371	0.0150719
714.449	0.0149020
714.527	0.0147617
714.605	0.0147392
714.683	0.0145367
714.761	0.0145103
714.840	0.0145654
714.918	0.0145172
714.996	0.0146584
715.074	0.0147488
715.152	0.0149897
715.230	0.0150640
715.308	0.0152962
715.386	0.0155148
715.465	0.0156738
715.543	0.0159068
715.621	0.0161418
715.699	0.0163999
715.777	0.0164420
715.855	0.0166898
715.933	0.0167725
716.011	0.0170129
716.090	0.0169027
716.168	0.0170207
716.246	0.0170074
716.324	0.0169854
716.402	0.0168038
716.480	0.0167877
716.558	0.0169178
716.636	0.0166646
716.715	0.0166353
716.793	0.0166539
716.871	0.0165915
716.949	0.0164794
717.027	0.0165204
717.105	0.0167272
717.183	0.0165678
717.261	0.0165676
717.340	0.0166183
717.418	0.0163560
717.496	0.0162506
717.574	0.0163322
717.652	0.0160000
717.730	0.0161208
717.808	0.0159020
717.886	0.0157240
717.965	0.0155738
718.043	0.0153431
718.121	0.0153284
718.199	0.0149612
718.277	0.0148093
718.355	0.0146680
718.433	0.0143459
718.511	0.0138600
718.590	0.0136624
718.668	0.0133102
718.746	0.0129598
718.824	0.0126973
718.902	0.0125183
718.980	0.0122935
719.058	0.0121742
719.136	0.0122406
719.215	0.0124382
719.293	0.0127560
719.371	0.0130434
719.449	0.0135793
719.527	0.0143202
719.605	0.0148784
719.683	0.0156387
719.761	0.0163354
719.840	0.0172563
719.918	0.0178077
719.996	0.0183490
720.074	0.0189561
720.152	0.0194178
720.230	0.0197570
720.308	0.0197848
720.386	0.0197477
720.465	0.0197444
720.543	0.0194718
720.621	0.0192689
720.699	0.0188380
720.777	0.0180829
720.855	0.0176772
720.933	0.0172727
721.011	0.0168703
721.090	0.0162165
721.168	0.0159399
721.246	0.0154871
721.324	0.0153151
721.402	0.0153784
721.480	0.0154149
721.558	0.0151945
721.636	0.0154172
721.715	0.0157619
721.793	0.0158476
721.871	0.0161138
721.949	0.0163325
722.027	0.0164567
722.105	0.0165076
722.183	0.0167812
722.261	0.0168781
722.340	0.0169520
722.418	0.0168522
722.496	0.0167154
722.574	0.0165868
722.652	0.0161874
722.730	0.0158498
722.808	0.0152981
722.886	0.0148948
722.965	0.0143480
723.043	0.0136796
723.121	0.0131194
723.199	0.0123899
723.277	0.0117285
723.355	0.0112463
723.433	0.0106918
723.511	0.0103691
723.590	0.0100316
723.668	0.00999756
723.746	0.0101389
723.824	0.0104632
723.902	0.0108304
723.980	0.0115014
724.058	0.0122875
724.136	0.0131931
724.215	0.0141125
724.293	0.0150865
724.371	0.0160442
724.449	0.0170248
724.527	0.0180592
724.605	0.0188821
724.683	0.0194928
724.761	0.0202936
724.840	0.0207776
724.918	0.0211256
724.996	0.0212228
725.074	0.0212395
725.152	0.0209966
725.230	0.0206915
725.308	0.0201135
725.386	0.0195631
725.465	0.0188458
725.543	0.0182291
725.621	0.0175632
725.699	0.0169833
725.777	0.0164871
725.855	0.0161272
725.933	0.0158128
726.011	0.0158907
726.090	0.0158655
726.168	0.0160726
726.246	0.0162194
726.324	0.0164699
726.402	0.0167707
726.480	0.0170404
726.558	0.0172928
726.636	0.0173357
726.715	0.0173830
726.793	0.0172936
726.871	0.0170596
726.949	0.0167917
727.027	0.0166251
727.105	0.0161214
727.183	0.0157178
727.261	0.0152836
727.340	0.0146581
727.418	0.0143029
727.496	0.0138933
727.574	0.0134840
727.652	0.0130362
727.730	0.0123944
727.808	0.0118474
727.886	0.0115903
727.965	0.0113888
728.043	0.0110532
728.121	0.0108975
728.199	0.0110666
728.277	0.0109988
728.355	0.0111625
728.433	0.0115009
728.511	0.0117880
728.590	0.0122985
728.668	0.0128462
728.746	0.0134607
728.824	0.0141430
728.902	0.0148080
728.980	0.0154620
729.058	0.0162835
729.136	0.0168548
729.215	0.0173150
729.293	0.0178995
729.371	0.0182661
729.449	0.0187569
729.527	0.0189682
729.605	0.0191283
729.683	0.0190181
729.761	0.0191903
729.840	0.0189233
729.918	0.0187167
729.996	0.0184004
730.074	0.0180975
730.152	0.0178532
730.230	0.0177251
730.308	0.0173555
730.386	0.0173236
730.465	0.0170014
730.543	0.0170070
730.621	0.0169151
730.699	0.0167442
730.777	0.0167178
730.855	0.0166949
730.933	0.0168503
731.011	0.0168948
731.090	0.0167608
731.168	0.0169088
731.246	0.0167098
731.324	0.0167888
731.402	0.0165287
731.480	0.0164216
731.558	0.0161515
731.636	0.0159985
731.715	0.0158549
731.793	0.0153841
731.871	0.0151265
731.949	0.0149464
732.027	0.0143510
732.105	0.0140099
732.183	0.0137196
732.261	0.0135307
732.340	0.0133041
732.418	0.0130304
732.496	0.0129696
732.574	0.0128780
732.652	0.0130184
732.730	0.0130757
732.808	0.0133546
732.886	0.0135836
732.965	0.0139912
733.043	0.0144806
733.121	0.0148022
733.199	0.0152852
733.277	0.0156858
733.355	0.0161108
733.433	0.0166279
733.511	0.0169517
733.590	0.0171730
733.668	0.0174737
733.746	0.0176105
733.824	0.0176612
733.902	0.0175220
733.980	0.0175416
734.058	0.0173735
734.136	0.0170699
734.215	0.0168105
734.293	0.0166241
734.371	0.0164098
734.449	0.0161467
734.527	0.0157909
734.605	0.0156222
734.683	0.0155000
734.761	0.0152169
734.840	0.0153238
734.918	0.0151485
734.996	0.0152390
735.074	0.0151157
735.152	0.0149008
735.230	0.0151020
735.308	0.0152837
735.386	0.0152074
735.465	0.0153828
735.543	0.0153172
735.621	0.0155357
735.699	0.0155456
735.777	0.0156063
735.855	0.0157434
735.933	0.0156683
736.011	0.0158139
736.090	0.0158120
736.168	0.0157537
736.246	0.0158518
736.324	0.0159274
736.402	0.0157385
736.480	0.0155212
736.558	0.0154375
736.636	0.0154858
736.715	0.0154102
736.793	0.0153145
736.871	0.0152963
736.949	0.0151804
737.027	0.0155090
737.105	0.0154201
737.183	0.0154521
737.261	0.0157932
737.340	0.0158498
737.418	0.0160886
737.496	0.0162802
737.574	0.0165970
737.652	0.0166526
737.730	0.0169211
737.808	0.0171039
737.886	0.0170969
737.965	0.0172466
738.043	0.0173443
738.121	0.0171054
738.199	0.0170383
738.277	0.0170513
738.355	0.0167199
738.433	0.0164436
738.511	0.0162902
738.590	0.0159624
738.668	0.0157829
738.746	0.0157262
738.824	0.0155663
738.902	0.0153387
738.980	0.0151347
739.058	0.0154269
739.136	0.0154132
739.215	0.0155405
739.293	0.0155656
739.371	0.0157353
739.449	0.0159157
739.527	0.0159650
739.605	0.0159908
739.683	0.0160662
739.761	0.0160290
739.840	0.0159688
739.918	0.0158031
739.996	0.0157635
740.074	0.0156612
740.152	0.0153309
740.230	0.0152190
740.308	0.0151148
740.386	0.0149767
740.465	0.0147950
740.543	0.0146593
740.621	0.0146079
740.699	0.0144972
740.777	0.0144933
740.855	0.0144489
740.933	0.0145279
741.011	0.0145473
741.090	0.0147883
741.168	0.0149981
741.246	0.0150455
741.324	0.0153204
741.402	0.0154747
741.480	0.0156728
741.558	0.0158557
741.636	0.0160094
741.715	0.0162159
741.793	0.0162482
741.871	0.0164198
741.949	0.0164523
742.027	0.0165586
742.105	0.0165994
742.183	0.0166004
742.261	0.0164327
742.340	0.0163693
742.418	0.0164221
742.496	0.0161748
742.574	0.0159453
742.652	0.0160454
742.730	0.0158529
742.808	0.0157337
742.886	0.0156802
742.965	0.0156113
743.043	0.0155560
743.121	0.0156120
743.199	0.0156581
743.277	0.0156136
743.355	0.0156599
743.433	0.0157674
743.511	0.0158071
743.590	0.0159206
743.668	0.0160228
743.746	0.0161216
743.824	0.0161948
743.902	0.0161566
743.980	0.0163799
744.058	0.0164084
744.136	0.0162788
744.215	0.0164040
744.293	0.0163827
744.371	0.0163029
744.449	0.0161580
744.527	0.0161749
744.605	0.0161627
744.683	0.0161530
744.761	0.0162144
744.840	0.0161501
744.918	0.0159618
744.996	0.0159005
745.074	0.0158210
745.152	0.0157365
745.230	0.0157072
745.308	0.0155222
745.386	0.0153852
745.465	0.0153707
745.543	0.0151503
745.621	0.0150443
745.699	0.0149028
745.777	0.0149292
745.855	0.0150165
745.933	0.0149958
746.011	0.0150578
746.090	0.0151575
746.168	0.0151408
746.246	0.0152377
746.324	0.0152581
746.402	0.0152898
746.480	0.0153954
746.558	0.0154569
746.636	0.0155524
746.715	0.0155828
746.793	0.0157561
746.871	0.0157259
746.949	0.0158041
747.027	0.0159126
747.105	0.0158323
747.183	0.0160033
747.261	0.0160066
747.340	0.0160193
747.418	0.0158759
747.496	0.0157516
747.574	0.0158015
747.652	0.0158257
747.730	0.0159149
747.808	0.0158974
747.886	0.0160894
747.965	0.0161922
748.043	0.0162605
748.121	0.0163848
748.199	0.0165103
748.277	0.0165961
748.355	0.0166075
748.433	0.0166032
748.511	0.0165034
748.590	0.0166367
748.668	0.0165411
748.746	0.0164700
748.824	0.0164491
748.902	0.0163692
748.980	0.0163342
749.058	0.0162500
749.136	0.0159715
749.215	0.0158290
749.293	0.0157778
749.371	0.0156455
749.449	0.0154081
749.527	0.0153739
749.605	0.0151694
749.683	0.0150162
749.761	0.0150506
749.840	0.0149024
749.918	0.0147704
749.996	0.0147504
750.074	0.0148170
750.152	0.0149909
750.230	0.0149419
750.308	0.0150323
750.386	0.0151117
750.465	0.0151060
750.543	0.0152438
750.621	0.0153124
750.699	0.0152322
750.777	0.0154559
750.855	0.0155860
750.933	0.0157962
751.011	0.0159335
751.090	0.0158967
751.168	0.0160222
751.246	0.0160117
751.324	0.0161891
751.402	0.0161972
751.480	0.0162387
751.558	0.0161224
751.636	0.0161504
751.715	0.0161541
751.793	0.0160818
751.871	0.0162263
751.949	0.0162829
752.027	0.0160746
752.105	0.0160728
752.183	0.0161211
752.261	0.0160224
752.340	0.0160640
752.418	0.0159937
752.496	0.0160348
752.574	0.0161565
752.652	0.0163628
752.730	0.0164252
752.808	0.0163702
752.886	0.0166322
752.965	0.0165746
753.043	0.0164921
753.121	0.0166666
753.199	0.0166019
753.277	0.0166101
753.355	0.0165697
753.433	0.0163802
753.511	0.0162933
753.590	0.0162365
753.668	0.0159869
753.746	0.0158300
753.824	0.0157581
753.902	0.0154816
753.980	0.0152589
754.058	0.0150301
754.136	0.0149634
754.215	0.0146301
754.293	0.0146407
754.371	0.0145647
754.449	0.0145073
754.527	0.0145061
754.605	0.0145306
754.683	0.0145964
754.761	0.0147794
754.840	0.0149089
754.918	0.0150763
754.996	0.0151298
755.074	0.0153883
755.152	0.0155483
755.230	0.0157569
755.308	0.0157696
755.386	0.0160101
755.465	0.0162042
755.543	0.0162978
755.621	0.0163650
755.699	0.0165422
755.777	0.0165841
755.855	0.0164510
755.933	0.0163878
756.011	0.0165726
756.090	0.0164801
756.168	0.0165502
756.246	0.0164671
756.324	0.0165092
756.402	0.0165206
756.480	0.0162832
756.558	0.0162583
756.636	0.0162119
756.715	0.0161772
756.793	0.0160822
756.871	0.0160975
756.949	0.0159179
757.027	0.0157480
757.105	0.0158010
757.183	0.0156060
757.261	0.0156284
757.340	0.0155881
757.418	0.0154776
757.496	0.0155415
757.574	0.0152622
757.652	0.0154369
757.730	0.0154589
757.808	0.0155002
757.886	0.0154572
757.965	0.0154839
758.043	0.0153401
758.121	0.0154351
758.199	0.0152668
758.277	0.0154269
758.355	0.0155119
758.433	0.0153564
758.511	0.0154734
758.590	0.0153230
758.668	0.0154230
758.746	0.0153250
758.824	0.0155154
758.902	0.0154803
758.980	0.0154001
759.058	0.0154288
759.136	0.0154558
759.215	0.0154990
759.293	0.0154987
759.371	0.0154522
759.449	0.0153703
759.527	0.0153979
759.605	0.0156253
759.683	0.0156649
759.761	0.0156096
759.840	0.0156898
759.918	0.0156836
759.996	0.0159204
760.074	0.0159866
760.152	0.0161430
760.230	0.0161547
760.308	0.0161551
760.386	0.0163240
760.465	0.0164009
760.543	0.0164190
760.621	0.0165533
760.699	0.0165829
760.777	0.0164725
760.855	0.0163786
760.933	0.0165147
761.011	0.0164415
761.090	0.0164854
761.168	0.0163744
761.246	0.0161105
761.324	0.0161978
761.402	0.0160140
761.480	0.0160868
761.558	0.0158797
761.636	0.0156932
761.715	0.0155650
761.793	0.0155937
761.871	0.0154917
761.949	0.0152417
762.027	0.0152763
762.105	0.0151812
762.183	0.0151801
762.261	0.0151273
762.340	0.0150779
762.418	0.0149574
762.496	0.0149903
762.574	0.0149117
762.652	0.0150327
762.730	0.0149545
762.808	0.0149142
762.886	0.0151061
762.965	0.0152341
763.043	0.0152952
763.121	0.0154102
763.199	0.0155259
763.277	0.0155122
763.355	0.0157658
763.433	0.0158397
763.511	0.0160460
763.590	0.0161037
763.668	0.0161375
763.746	0.0162918
763.824	0.0164150
763.902	0.0163784
763.980	0.0162901
764.058	0.0164361
764.136	0.0164304
764.215	0.0163380
764.293	0.0163500
764.371	0.0163463
764.449	0.0163308
764.527	0.0163351
764.605	0.0162412
764.683	0.0161941
764.761	0.0160166
764.840	0.0162240
764.918	0.0159647
764.996	0.0159926
765.074	0.0159580
765.152	0.0159071
765.230	0.0159327
765.308	0.0157328
765.386	0.0159446
765.465	0.0159084
765.543	0.0158090
765.621	0.0157375
765.699	0.0155640
765.777	0.0157005
765.855	0.0158352
765.933	0.0156285
766.011	0.0155907
766.090	0.0156087
766.168	0.0155898
766.246	0.0155476
766.324	0.0154803
766.402	0.0155149
766.480	0.0154877
766.558	0.0153269
766.636	0.0152110
766.715	0.0153390
766.793	0.0152049
766.871	0.0152679
766.949	0.0151908
767.027	0.0152330
767.105	0.0151720
767.183	0.0152225
767.261	0.0152360
767.340	0.0152451
767.418	0.0154504
767.496	0.0153684
767.574	0.0154566
767.652	0.0153622
767.730	0.0154601
767.808	0.0154359
767.886	0.0156781
767.965	0.0156199
768.043	0.0155933
768.121	0.0157823
768.199	0.0160247
768.277	0.0159345
768.355	0.0160285
768.433	0.0159421
768.511	0.0161833
768.590	0.0161550
768.668	0.0162022
768.746	0.0163706
768.824	0.0164027
768.902	0.0164807
768.980	0.0163966
769.058	0.0165244
769.136	0.0165681
769.215	0.0166368
769.293	0.0165392
769.371	0.0165155
769.449	0.0165473
769.527	0.0163284
769.605	0.0162731
769.683	0.0163801
769.761	0.0161808
769.840	0.0161769
769.918	0.0160404
769.996	0.0158797
770.074	0.0158360
770.152	0.0156386
770.230	0.0154547
770.308	0.0153596
770.386	0.0152331
770.465	0.0152019
770.543	0.0153325
770.621	0.0152425
770.699	0.0150667
770.777	0.0150359
770.855	0.0150508
770.933	0.0149973
771.011	0.0150981
771.090	0.0149808
771.168	0.0149966
771.246	0.0151811
771.324	0.0151667
771.402	0.0151849
771.480	0.0152546
771.558	0.0152617
771.636	0.0155212
771.715	0.0155514
771.793	0.0156372
771.871	0.0158281
771.949	0.0160117
772.027	0.0159293
772.105	0.0160485
772.183	0.0161555
772.261	0.0160900
772.340	0.0163769
772.418	0.0162748
772.496	0.0163245
772.574	0.0163160
772.652	0.0162330
772.730	0.0162782
772.808	0.0162048
772.886	0.0162333
772.965	0.0161698
773.043	0.0162185
773.121	0.0161378
773.199	0.0162391
773.277	0.0160332
773.355	0.0159731
773.433	0.0161710
773.511	0.0161785
773.590	0.0160629
773.668	0.0160670
773.746	0.0160984
773.824	0.0161053
773.902	0.0160238
773.980	0.0161868
774.058	0.0161367
774.136	0.0160123
774.215	0.0160306
774.293	0.0160224
774.371	0.0159418
774.449	0.0159030
774.527	0.0158018
774.605	0.0157874
774.683	0.0157467
774.761	0.0154961
774.840	0.0154352
774.918	0.0154424
774.996	0.0155043
775.074	0.0154445
775.152	0.0151752
775.230	0.0150806
775.308	0.0151775
775.386	0.0150394
775.465	0.0150654
775.543	0.0151248
775.621	0.0149939
775.699	0.0150308
775.777	0.0151413
775.855	0.0150900
775.933	0.0152432
776.011	0.0153217
776.090	0.0153835
776.168	0.0155987
776.246	0.0155259
776.324	0.0155385
776.402	0.0156820
776.480	0.0158701
776.558	0.0160043
776.636	0.0160081
776.715	0.0161889
776.793	0.0163023
776.871	0.0163522
776.949	0.0161311
777.027	0.0164355
777.105	0.0164239
777.183	0.0164297
777.261	0.0165971
777.340	0.0165324
777.418	0.0164142
777.496	0.0164559
777.574	0.0163985
777.652	0.0163599
777.730	0.0164719
777.808	0.0163781
777.886	0.0162553
777.965	0.0162505
778.043	0.0161399
778.121	0.0161087
778.199	0.0159704
778.277	0.0160156
778.355	0.0158801
778.433	0.0158420
778.511	0.0157321
778.590	0.0158381
778.668	0.0157544
778.746	0.0157605
778.824	0.0157145
778.902	0.0156623
778.980	0.0155036
779.058	0.0156828
779.136	0.0157314
779.215	0.0156857
779.293	0.0155630
779.371	0.0156368
779.449	0.0156774
779.527	0.0156688
779.605	0.0156076
779.683	0.0154220
779.761	0.0157521
779.840	0.0155836
779.918	0.0154416
779.996	0.0154581
780.074	0.0154555
780.152	0.0155495
780.230	0.0154929
780.308	0.0155650
780.386	0.0156229
780.465	0.0155045
780.543	0.0155598
780.621	0.0155975
780.699	0.0155562
780.777	0.0155077
780.855	0.0156938
780.933	0.0155531
781.011	0.0157908
781.090	0.0157902
781.168	0.0158921
781.246	0.0157510
781.324	0.0158418
781.402	0.0160443
781.480	0.0159389
781.558	0.0159886
781.636	0.0159869
781.715	0.0162447
781.793	0.0161385
781.871	0.0160406
781.949	0.0160674
782.027	0.0162461
782.105	0.0162045
782.183	0.0160477
782.261	0.0161496
782.340	0.0160381
782.418	0.0159898
782.496	0.0160896
782.574	0.0162035
782.652	0.0160175
782.730	0.0160120
782.808	0.0160412
782.886	0.0159857
782.965	0.0161846
783.043	0.0160147
783.121	0.0158084
783.199	0.0158039
783.277	0.0158916
783.355	0.0157685
783.433	0.0156352
783.511	0.0157899
783.590	0.0156546
783.668	0.0154515
783.746	0.0155322
783.824	0.0155515
783.902	0.0155430
783.980	0.0155772
784.058	0.0153924
784.136	0.0153928
784.215	0.0154601
784.293	0.0153217
784.371	0.0154012
784.449	0.0154220
784.527	0.0154331
784.605	0.0154723
784.683	0.0154835
784.761	0.0155390
784.840	0.0154495
784.918	0.0155910
784.996	0.0156239
785.074	0.0156464
785.152	0.0156521
785.230	0.0157036
785.308	0.0157009
785.386	0.0156968
785.465	0.0159147
785.543	0.0159740
785.621	0.0159187
785.699	0.0158537
785.777	0.0161263
785.855	0.0160831
785.933	0.0160787
786.011	0.0159306
786.090	0.0161294
786.168	0.0160881
786.246	0.0159927
786.324	0.0160422
786.402	0.0159225
786.480	0.0160972
786.558	0.0160969
786.636	0.0162029
786.715	0.0160493
786.793	0.0161250
786.871	0.0159951
786.949	0.0159580
787.027	0.0158664
787.105	0.0159536
787.183	0.0159861
787.261	0.0160872
787.340	0.0159156
787.418	0.0157336
787.496	0.0156383
787.574	0.0158189
787.652	0.0157099
787.730	0.0155611
787.808	0.0154904
787.886	0.0156686
787.965	0.0156496
788.043	0.0156527
788.121	0.0156365
788.199	0.0155754
788.277	0.0155901
788.355	0.0155309
788.433	0.0155553
788.511	0.0155633
788.590	0.0154757
788.668	0.0155236
788.746	0.0154919
788.824	0.0154848
788.902	0.0155193
788.980	0.0155839
789.058	0.0155215
789.136	0.0156353
789.215	0.0155301
789.293	0.0155794
789.371	0.0156657
789.449	0.0156509
789.527	0.0155435
789.605	0.0156479
789.683	0.0158892
789.761	0.0157877
789.840	0.0159345
789.918	0.0158812
789.996	0.0160115
790.074	0.0160564
790.152	0.0160375
790.230	0.0160786
790.308	0.0158930
790.386	0.0158736
790.465	0.0158774
790.543	0.0159654
790.621	0.0159271
790.699	0.0159631
790.777	0.0160837
790.855	0.0158715
790.933	0.0159830
791.011	0.0158384
791.090	0.0157923
791.168	0.0158709
791.246	0.0158958
791.324	0.0157075
791.402	0.0156704
791.480	0.0156522
791.558	0.0155748
791.636	0.0156835
791.715	0.0156378
791.793	0.0156310
791.871	0.0155106
791.949	0.0157158
792.027	0.0156269
792.105	0.0156944
792.183	0.0155757
792.261	0.0156157
792.340	0.0156615
792.418	0.0155635
792.496	0.0156441
792.574	0.0156410
792.652	0.0156515
792.730	0.0158758
792.808	0.0157811
792.886	0.0157413
792.965	0.0157533
793.043	0.0157507
793.121	0.0157441
793.199	0.0156956
793.277	0.0159113
793.355	0.0158554
793.433	0.0156985
793.511	0.0158566
793.590	0.0158423
793.668	0.0158858
793.746	0.0157823
793.824	0.0157495
793.902	0.0157845
793.980	0.0158864
794.058	0.0158265
794.136	0.0158767
794.215	0.0156093
794.293	0.0157668
794.371	0.0158273
794.449	0.0157449
794.527	0.0159586
794.605	0.0158065
794.683	0.0158150
794.761	0.0159245
794.840	0.0159079
794.918	0.0158458
794.996	0.0158704
795.074	0.0157677
795.152	0.0159409
795.230	0.0158346
795.308	0.0157710
795.386	0.0158843
795.465	0.0159230
795.543	0.0158678
795.621	0.0158871
795.699	0.0160036
795.777	0.0159546
795.855	0.0159303
795.933	0.0158204
796.011	0.0157191
796.090	0.0157228
796.168	0.0157451
796.246	0.0157235
796.324	0.0156727
796.402	0.0155928
796.480	0.0155016
796.558	0.0156743
796.636	0.0155518
796.715	0.0155208
796.793	0.0155070
796.871	0.0156149
796.949	0.0154950
797.027	0.0157486
797.105	0.0155016
797.183	0.0156746
797.261	0.0157048
797.340	0.0157195
797.418	0.0158179
797.496	0.0158556
797.574	0.0158669
797.652	0.0159229
797.730	0.0158042
797.808	0.0159089
797.886	0.0158871
797.965	0.0158501
798.043	0.0159837
798.121	0.0159614
798.199	0.0159001
798.277	0.0160142
798.355	0.0159740
798.433	0.0157890
798.511	0.0158832
798.590	0.0157761
798.668	0.0158919
798.746	0.0157800
798.824	0.0158707
798.902	0.0157866
798.980	0.0158596
799.058	0.0158731
799.136	0.0158516
799.215	0.0157346
799.293	0.0158147
799.371	0.0157700
799.449	0.0157897
799.527	0.0158394
799.605	0.0158485
799.683	0.0158813
799.761	0.0158521
799.840	0.0158158
799.918	0.0158836
799.996	0.0159148
800.074	0.0157912
800.152	0.0158135
800.230	0.0157944
800.308	0.0156100
800.386	0.0157951
800.465	0.0157564
800.543	0.0156584
800.621	0.0156763
800.699	0.0154532
800.777	0.0156448
800.855	0.0156266
800.933	0.0154955
801.011	0.0155878
801.090	0.0156307
801.168	0.0156407
801.246	0.0156499
801.324	0.0156924
801.402	0.0159352
801.480	0.0157173
801.558	0.0157428
801.636	0.0156594
801.715	0.0157178
801.793	0.0158617
801.871	0.0157145
801.949	0.0157058
802.027	0.0157504
802.105	0.0158613
802.183	0.0158680
802.261	0.0157936
802.340	0.0158628
802.418	0.0157742
802.496	0.0157928
802.574	0.0159593
802.652	0.0159326
802.730	0.0159742
802.808	0.0158466
802.886	0.0159462
802.965	0.0158610
803.043	0.0158919
803.121	0.0158953
803.199	0.0158659
803.277	0.0159465
803.355	0.0160515
803.433	0.0159941
803.511	0.0160281
803.590	0.0159827
803.668	0.0159938
803.746	0.0159238
803.824	0.0159353
803.902	0.0159602
803.980	0.0159413
804.058	0.0160265
804.136	0.0158596
804.215	0.0157501
804.293	0.0158900
804.371	0.0158372
804.449	0.0158296
804.527	0.0157545
804.605	0.0158345
804.683	0.0159801
804.761	0.0158175
804.840	0.0156229
804.918	0.0157892
804.996	0.0157216
805.074	0.0158595
805.152	0.0158308
805.230	0.0158524
805.308	0.0158063
805.386	0.0157223
805.465	0.0156496
805.543	0.0157630
805.621	0.0158510
805.699	0.0157262
805.777	0.0158436
805.855	0.0158476
805.933	0.0157523
806.011	0.0157301
806.090	0.0157675
806.168	0.0156967
806.246	0.0156092
806.324	0.0156705
806.402	0.0157626
806.480	0.0157596
806.558	0.0155629
806.636	0.0157388
806.715	0.0157462
806.793	0.0157836
806.871	0.0156874
806.949	0.0157961
807.027	0.0156051
807.105	0.0156601
807.183	0.0157331
807.261	0.0156773
807.340	0.0157156
807.418	0.0156173
807.496	0.0156669
807.574	0.0157838
807.652	0.0155184
807.730	0.0155955
807.808	0.0157465
807.886	0.0156343
807.965	0.0157042
808.043	0.0157098
808.121	0.0158160
808.199	0.0157846
808.277	0.0159152
808.355	0.0158315
808.433	0.0158571
808.511	0.0158067
808.590	0.0158776
808.668	0.0158282
808.746	0.0159801
808.824	0.0159673
808.902	0.0158406
808.980	0.0158286
809.058	0.0160245
809.136	0.0160285
809.215	0.0158969
809.293	0.0160181
809.371	0.0160914
809.449	0.0159456
809.527	0.0159692
809.605	0.0159810
809.683	0.0160866
809.761	0.0159490
809.840	0.0158408
809.918	0.0160123
809.996	0.0158502
810.074	0.0158928
810.152	0.0159282
810.230	0.0158873
810.308	0.0157587
810.386	0.0157027
810.465	0.0157360
810.543	0.0157992
810.621	0.0156622
810.699	0.0155887
810.777	0.0155767
810.855	0.0156676
810.933	0.0156091
811.011	0.0155696
811.090	0.0155227
811.168	0.0155417
811.246	0.0154662
811.324	0.0154657
811.402	0.0153885
811.480	0.0153369
811.558	0.0154655
811.636	0.0154990
811.715	0.0154697
811.793	0.0155747
811.871	0.0154209
811.949	0.0155887
812.027	0.0155644
812.105	0.0155507
812.183	0.0157186
812.261	0.0157259
812.340	0.0158533
812.418	0.0158804
812.496	0.0160352
812.574	0.0159398
812.652	0.0160802
812.730	0.0160371
812.808	0.0160291
812.886	0.0162717
812.965	0.0161047
813.043	0.0161941
813.121	0.0162785
813.199	0.0162594
813.277	0.0161939
813.355	0.0161253
813.433	0.0162662
813.511	0.0161911
813.590	0.0161539
813.668	0.0161509
813.746	0.0161398
813.824	0.0160537
813.902	0.0160120
813.980	0.0158781
814.058	0.0157544
814.136	0.0159336
814.215	0.0158439
814.293	0.0158493
814.371	0.0158350
814.449	0.0156638
814.527	0.0156557
814.605	0.0156112
814.683	0.0153535
814.761	0.0154363
814.840	0.0153276
814.918	0.0153908
814.996	0.0152540
815.074	0.0152340
815.152	0.0151103
815.230	0.0152477
815.308	0.0152763
815.386	0.0150433
815.465	0.0150256
815.543	0.0150744
815.621	0.0152010
815.699	0.0150777
815.777	0.0150730
815.855	0.0152428
815.933	0.0153297
816.011	0.0153483
816.090	0.0153826
816.168	0.0156207
816.246	0.0156723
816.324	0.0158725
816.402	0.0159160
816.480	0.0159863
816.558	0.0161381
816.636	0.0162759
816.715	0.0163155
816.793	0.0163442
816.871	0.0166154
816.949	0.0164490
817.027	0.0164787
817.105	0.0165575
817.183	0.0165314
817.261	0.0165075
817.340	0.0163525
817.418	0.0165375
817.496	0.0165987
817.574	0.0164990
817.652	0.0164008
817.730	0.0163676
817.808	0.0162173
817.886	0.0163424
817.965	0.0162768
818.043	0.0161154
818.121	0.0161080
818.199	0.0161287
818.277	0.0160596
818.355	0.0159433
818.433	0.0159424
818.511	0.0156197
818.590	0.0158258
818.668	0.0160334
818.746	0.0157990
818.824	0.0156592
818.902	0.0156226
818.980	0.0156525
819.058	0.0155466
819.136	0.0153974
819.215	0.0154685
819.293	0.0153740
819.371	0.0151781
819.449	0.0151901
819.527	0.0149323
819.605	0.0148943
819.683	0.0149337
819.761	0.0148926
819.840	0.0147295
819.918	0.0148158
819.996	0.0148628
820.074	0.0148880
820.152	0.0148031
820.230	0.0149255
820.308	0.0149023
820.386	0.0149540
820.465	0.0151046
820.543	0.0151195
820.621	0.0151691
820.699	0.0152900
820.777	0.0155611
820.855	0.0157684
820.933	0.0156929
821.011	0.0159439
821.090	0.0162677
821.168	0.0163317
821.246	0.0162364
821.324	0.0163545
821.402	0.0166795
821.480	0.0165762
821.558	0.0167035
821.636	0.0167627
821.715	0.0167195
821.793	0.0167304
821.871	0.0168081
821.949	0.0168297
822.027	0.0168034
822.105	0.0168068
822.183	0.0166999
822.261	0.0165411
822.340	0.0166335
822.418	0.0165360
822.496	0.0165675
822.574	0.0163274
822.652	0.0164201
822.730	0.0163613
822.808	0.0162392
822.886	0.0162293
822.965	0.0161191
823.043	0.0160657
823.121	0.0159642
823.199	0.0157805
823.277	0.0156383
823.355	0.0155497
823.433	0.0156185
823.511	0.0155412
823.590	0.0153582
823.668	0.0152559
823.746	0.0153278
823.824	0.0152152
823.902	0.0152627
823.980	0.0151830
824.058	0.0150853
824.136	0.0151125
824.215	0.0150195
824.293	0.0150268
824.371	0.0148823
824.449	0.0150176
824.527	0.0147078
824.605	0.0149529
824.683	0.0149223
824.761	0.0148249
824.840	0.0149279
824.918	0.0150443
824.996	0.0149845
825.074	0.0152232
825.152	0.0151591
825.230	0.0152167
825.308	0.0153418
825.386	0.0154486
825.465	0.0155621
825.543	0.0158021
825.621	0.0159489
825.699	0.0159840
825.777	0.0160014
825.855	0.0162996
825.933	0.0162597
826.011	0.0163227
826.090	0.0164255
826.168	0.0165498
826.246	0.0166077
826.324	0.0165457
826.402	0.0167023
826.480	0.0166389
826.558	0.0165614
826.636	0.0164306
826.715	0.0164370
826.793	0.0164091
826.871	0.0164978
826.949	0.0165137
827.027	0.0164023
827.105	0.0164046
827.183	0.0164327
827.261	0.0164342
827.340	0.0162640
827.418	0.0162035
827.496	0.0161511
827.574	0.0161560
827.652	0.0160948
827.730	0.0160722
827.808	0.0159201
827.886	0.0158169
827.965	0.0158879
828.043	0.0157303
828.121	0.0156519
828.199	0.0155714
828.277	0.0156084
828.355	0.0155295
828.433	0.0153770
828.511	0.0154305
828.590	0.0153593
828.668	0.0153600
828.746	0.0153475
828.824	0.0153724
828.902	0.0154074
828.980	0.0154906
829.058	0.0154309
829.136	0.0155473
829.215	0.0155054
829.293	0.0155981
829.371	0.0156718
829.449	0.0156317
829.527	0.0157215
829.605	0.0158219
829.683	0.0157750
829.761	0.0158190
829.840	0.0157565
829.918	0.0157813
829.996	0.0157980
830.074	0.0159238
830.152	0.0157773
830.230	0.0158347
830.308	0.0159369
830.386	0.0157769
830.465	0.0157614
830.543	0.0159206
830.621	0.0158810
830.699	0.0158353
830.777	0.0159182
830.855	0.0157500
830.933	0.0158212
831.011	0.0157848
831.090	0.0158470
831.168	0.0157350
831.246	0.0157982
831.324	0.0157640
831.402	0.0157747
831.480	0.0158128
831.558	0.0158412
831.636	0.0158595
831.715	0.0159155
831.793	0.0159277
831.871	0.0158701
831.949	0.0158127
832.027	0.0157898
832.105	0.0157726
832.183	0.0157631
832.261	0.0157261
832.340	0.0155638
832.418	0.0157758
832.496	0.0158234
832.574	0.0158463
832.652	0.0158443
832.730	0.0156820
832.808	0.0157739
832.886	0.0157104
832.965	0.0155432
833.043	0.0158513
833.121	0.0158372
833.199	0.0156860
833.277	0.0158984
833.355	0.0159361
833.433	0.0160683
833.511	0.0161182
833.590	0.0160753
833.668	0.0161169
833.746	0.0160968
833.824	0.0162222
833.902	0.0161612
833.980	0.0161337
834.058	0.0161584
834.136	0.0162161
834.215	0.0161630
834.293	0.0161457
834.371	0.0161264
834.449	0.0160551
834.527	0.0159528
834.605	0.0158710
834.683	0.0158501
834.761	0.0157594
834.840	0.0158654
834.918	0.0158108
834.996	0.0157624
835.074	0.0157618
835.152	0.0157038
835.230	0.0156832
835.308	0.0157461
835.386	0.0155785
835.465	0.0156321
835.543	0.0157406
835.621	0.0156815
835.699	0.0157053
835.777	0.0157267
835.855	0.0155915
835.933	0.0156230
836.011	0.0155846
836.090	0.0155932
836.168	0.0155874
836.246	0.0156267
836.324	0.0156448
836.402	0.0155365
836.480	0.0156625
836.558	0.0155601
836.636	0.0157015
836.715	0.0157059
836.793	0.0155125
836.871	0.0154327
836.949	0.0155624
837.027	0.0155692
837.105	0.0155805
837.183	0.0155428
837.261	0.0157500
837.340	0.0156516
837.418	0.0157146
837.496	0.0158324
837.574	0.0159815
837.652	0.0159052
837.730	0.0159273
837.808	0.0159932
837.886	0.0160139
837.965	0.0159869
838.043	0.0159890
838.121	0.0160010
838.199	0.0161602
838.277	0.0160629
838.355	0.0159750
838.433	0.0159872
838.511	0.0159143
838.590	0.0158703
838.668	0.0159164
838.746	0.0159245
838.824	0.0158092
838.902	0.0157757
838.980	0.0158037
839.058	0.0157536
839.136	0.0157561
839.215	0.0157182
839.293	0.0156149
839.371	0.0157565
839.449	0.0157117
839.527	0.0157133
839.605	0.0157841
839.683	0.0156735
839.761	0.0156799
839.840	0.0156886
839.918	0.0157709
839.996	0.0157415
840.074	0.0158665
840.152	0.0158376
840.230	0.0157465
840.308	0.0158647
840.386	0.0159495
840.465	0.0159176
840.543	0.0159396
840.621	0.0159140
840.699	0.0158372
840.777	0.0157142
840.855	0.0157644
840.933	0.0159859
841.011	0.0158678
841.090	0.0157059
841.168	0.0157942
841.246	0.0156007
841.324	0.0156741
841.402	0.0157929
841.480	0.0157158
841.558	0.0155763
841.636	0.0155311
841.715	0.0156880
841.793	0.0155754
841.871	0.0155312
841.949	0.0155970
842.027	0.0157327
842.105	0.0155581
842.183	0.0155672
842.261	0.0157437
842.340	0.0157035
842.418	0.0158305
842.496	0.0158348
842.574	0.0159537
842.652	0.0157468
842.730	0.0159019
842.808	0.0159367
842.886	0.0158782
842.965	0.0157793
843.043	0.0159183
843.121	0.0159973
843.199	0.0158410
843.277	0.0158039
843.355	0.0157958
843.433	0.0158014
843.511	0.0157433
843.590	0.0158051
843.668	0.0156906
843.746	0.0158032
843.824	0.0157256
843.902	0.0157563
843.980	0.0158927
844.058	0.0158190
844.136	0.0159763
844.215	0.0158864
844.293	0.0158280
844.371	0.0160888
844.449	0.0160162
844.527	0.0158160
844.605	0.0159790
844.683	0.0159535
844.761	0.0159574
844.840	0.0160503
844.918	0.0159929
844.996	0.0159801
845.074	0.0160128
845.152	0.0159595
845.230	0.0159399
845.308	0.0160040
845.386	0.0159524
845.465	0.0160322
845.543	0.0159398
845.621	0.0158226
845.699	0.0159225
845.777	0.0157208
845.855	0.0157993
845.933	0.0158054
846.011	0.0156197
846.090	0.0156647
846.168	0.0156035
846.246	0.0155563
846.324	0.0156001
846.402	0.0154546
846.480	0.0156480
846.558	0.0154448
846.636	0.0155949
846.715	0.0155562
846.793	0.0157377
846.871	0.0156200
846.949	0.0154935
847.027	0.0155598
847.105	0.0155111
847.183	0.0155859
847.261	0.0156261
847.340	0.0156895
847.418	0.0155692
847.496	0.0156591
847.574	0.0157350
847.652	0.0157947
847.730	0.0156998
847.808	0.0158463
847.886	0.0158462
847.965	0.0158558
848.043	0.0158834
848.121	0.0159668
848.199	0.0159451
848.277	0.0160451
848.355	0.0158720
848.433	0.0159134
848.511	0.0160229
848.590	0.0160921
848.668	0.0160946
848.746	0.0160892
848.824	0.0160657
848.902	0.0159512
848.980	0.0159996
849.058	0.0160671
849.136	0.0159113
849.215	0.0158759
849.293	0.0159676
849.371	0.0159718
849.449	0.0159276
849.527	0.0160401
849.605	0.0159818
849.683	0.0159587
849.761	0.0158647
849.840	0.0158476
849.918	0.0157609
849.996	0.0158675
850.074	0.0158006
850.152	0.0158112
850.230	0.0158495
850.308	0.0156925
850.386	0.0158129
850.465	0.0158570
850.543	0.0157330
850.621	0.0158355
850.699	0.0157604
850.777	0.0156049
850.855	0.0156190
850.933	0.0157027
851.011	0.0155909
851.090	0.0156346
851.168	0.0157275
851.246	0.0155340
851.324	0.0155273
851.402	0.0156186
851.480	0.0157454
851.558	0.0156296
851.636	0.0156757
851.715	0.0155568
851.793	0.0155750
851.871	0.0156333
851.949	0.0157627
852.027	0.0157712
852.105	0.0158244
852.183	0.0158878
852.261	0.0159245
852.340	0.0158141
852.418	0.0159599
852.496	0.0159507
852.574	0.0159839
852.652	0.0158611
852.730	0.0160791
852.808	0.0161451
852.886	0.0160040
852.965	0.0160710
853.043	0.0161034
853.121	0.0159332
853.199	0.0159933
853.277	0.0160003
853.355	0.0160824
853.433	0.0159489
853.511	0.0159487
853.590	0.0160027
853.668	0.0160883
853.746	0.0160649
853.824	0.0159953
853.902	0.0159689
853.980	0.0160538
854.058	0.0161283
854.136	0.0159577
854.215	0.0159957
854.293	0.0159187
854.371	0.0159895
854.449	0.0158044
854.527	0.0157905
854.605	0.0156975
854.683	0.0158562
854.761	0.0158466
854.840	0.0158002
854.918	0.0157677
854.996	0.0156827
855.074	0.0156108
855.152	0.0156523
855.230	0.0156529
855.308	0.0155743
855.386	0.0155201
855.465	0.0157079
855.543	0.0156365
855.621	0.0155659
855.699	0.0156512
855.777	0.0157070
855.855	0.0157556
855.933	0.0156834
856.011	0.0155528
856.090	0.0156974
856.168	0.0157574
856.246	0.0155946
856.324	0.0156449
856.402	0.0157026
856.480	0.0157719
856.558	0.0157951
856.636	0.0158118
856.715	0.0158459
856.793	0.0157455
856.871	0.0157406
856.949	0.0157397
857.027	0.0158495
857.105	0.0157743
857.183	0.0159614
857.261	0.0159592
857.340	0.0159154
857.418	0.0159428
857.496	0.0158745
857.574	0.0160429
857.652	0.0160627
857.730	0.0159627
857.808	0.0158453
857.886	0.0160027
857.965	0.0160153
858.043	0.0161940
858.121	0.0160948
858.199	0.0160386
858.277	0.0161036
858.355	0.0161643
858.433	0.0160137
858.511	0.0160941
858.590	0.0160256
858.668	0.0159619
858.746	0.0158791
858.824	0.0159148
858.902	0.0158218
858.980	0.0158321
859.058	0.0158732
859.136	0.0157874
859.215	0.0157027
859.293	0.0158475
859.371	0.0157037
859.449	0.0157983
859.527	0.0157616
859.605	0.0156543
859.683	0.0158755
859.761	0.0157946
859.840	0.0156129
859.918	0.0158221
859.996	0.0157364
860.074	0.0157634
860.152	0.0157303
860.230	0.0158157
860.308	0.0157116
860.386	0.0157755
860.465	0.0157287
860.543	0.0157494
860.621	0.0157148
860.699	0.0157207
860.777	0.0157373
860.855	0.0157911
860.933	0.0156500
861.011	0.0157260
861.090	0.0157890
861.168	0.0158820
861.246	0.0157060
861.324	0.0156912
861.402	0.0157548
861.480	0.0155639
861.558	0.0158077
861.636	0.0157430
861.715	0.0156556
861.793	0.0157629
861.871	0.0157285
861.949	0.0157672
862.027	0.0158455
862.105	0.0158852
862.183	0.0158079
862.261	0.0159174
862.340	0.0159211
862.418	0.0158925
862.496	0.0157529
862.574	0.0159231
862.652	0.0158839
862.730	0.0160007
862.808	0.0160468
862.886	0.0160423
862.965	0.0159966
863.043	0.0159721
863.121	0.0158621
863.199	0.0160960
863.277	0.0159941
863.355	0.0159755
863.433	0.0159628
863.511	0.0159985
863.590	0.0159602
863.668	0.0159818
863.746	0.0159107
863.824	0.0158045
863.902	0.0158282
863.980	0.0159626
864.058	0.0159003
864.136	0.0157960
864.215	0.0158185
864.293	0.0157946
864.371	0.0157694
864.449	0.0158251
864.527	0.0158056
864.605	0.0157693
864.683	0.0156487
864.761	0.0157256
864.840	0.0157138
864.918	0.0157999
864.996	0.0157469
865.074	0.0156308
865.152	0.0158237
865.230	0.0158285
865.308	0.0157305
865.386	0.0157827
865.465	0.0158189
865.543	0.0159544
865.621	0.0158361
865.699	0.0158227
865.777	0.0158153
865.855	0.0159469
865.933	0.0158497
866.011	0.0157650
866.090	0.0157381
866.168	0.0158128
866.246	0.0159095
866.324	0.0157207
866.402	0.0158237
866.480	0.0158085
866.558	0.0157237
866.636	0.0158170
866.715	0.0156612
866.793	0.0158022
866.871	0.0158382
866.949	0.0158743
867.027	0.0157188
867.105	0.0158669
867.183	0.0157650
867.261	0.0159377
867.340	0.0158347
867.418	0.0159286
867.496	0.0159832
867.574	0.0158788
867.652	0.0157930
867.730	0.0157915
867.808	0.0158634
867.886	0.0159976
867.965	0.0157883
868.043	0.0157861
868.121	0.0159388
868.199	0.0158912
868.277	0.0159383
868.355	0.0159540
868.433	0.0159259
868.511	0.0158755
868.590	0.0158559
868.668	0.0159015
868.746	0.0159341
868.824	0.0159721
868.902	0.0158976
868.980	0.0158973
869.058	0.0158843
869.136	0.0156786
869.215	0.0157154
869.293	0.0158256
869.371	0.0157381
869.449	0.0158363
869.527	0.0159452
869.605	0.0159167
869.683	0.0157366
869.761	0.0157390
869.840	0.0158173
869.918	0.0158624
869.996	0.0158895
870.074	0.0157546
870.152	0.0156957
870.230	0.0157796
870.308	0.0157874
870.386	0.0158608
870.465	0.0157053
870.543	0.0158096
870.621	0.0157870
870.699	0.0158403
870.777	0.0157882
870.855	0.0156621
870.933	0.0157326
871.011	0.0159377
871.090	0.0157225
871.168	0.0158353
871.246	0.0157269
871.324	0.0157962
871.402	0.0158678
871.480	0.0158060
871.558	0.0158335
871.636	0.0157990
871.715	0.0157998
871.793	0.0158811
871.871	0.0157096
871.949	0.0157424
872.027	0.0157459
872.105	0.0157838
872.183	0.0158581
872.261	0.0157507
872.340	0.0156390
872.418	0.0158699
872.496	0.0159327
872.574	0.0157730
872.652	0.0157409
872.730	0.0156561
872.808	0.0157665
872.886	0.0158960
872.965	0.0158749
873.043	0.0156674
873.121	0.0157736
873.199	0.0157767
873.277	0.0157878
873.355	0.0158305
873.433	0.0159070
873.511	0.0157382
873.590	0.0157581
873.668	0.0156973
873.746	0.0158508
873.824	0.0158232
873.902	0.0158605
873.980	0.0158646
874.058	0.0158897
874.136	0.0158633
874.215	0.0159544
874.293	0.0160252
874.371	0.0158229
874.449	0.0158997
874.527	0.0159727
874.605	0.0159464
874.683	0.0158336
874.761	0.0158051
874.840	0.0159452
874.918	0.0158633
874.996	0.0158360
875.074	0.0159682
875.152	0.0157658
875.230	0.0158873
875.308	0.0157628
875.386	0.0158171
875.465	0.0158580
875.543	0.0158685
875.621	0.0158698
875.699	0.0158570
875.777	0.0158151
875.855	0.0158092
875.933	0.0159123
876.011	0.0157635
876.090	0.0156486
876.168	0.0157501
876.246	0.0157941
876.324	0.0157069
876.402	0.0158114
876.480	0.0158884
876.558	0.0157970
876.636	0.0157865
876.715	0.0159127
876.793	0.0159017
876.871	0.0157764
876.949	0.0157527
877.027	0.0158065
877.105	0.0158418
877.183	0.0157533
877.261	0.0157923
877.340	0.0158117
877.418	0.0157700
877.496	0.0155780
877.574	0.0155696
877.652	0.0157432
877.730	0.0157133
877.808	0.0158199
877.886	0.0156918
877.965	0.0157471
878.043	0.0157415
878.121	0.0157561
878.199	0.0156928
878.277	0.0157957
878.355	0.0158920
878.433	0.0159156
878.511	0.0158498
878.590	0.0157719
878.668	0.0158906
878.746	0.0157835
878.824	0.0158371
878.902	0.0158342
878.980	0.0157769
879.058	0.0160410
879.136	0.0158667
879.215	0.0158441
879.293	0.0159451
879.371	0.0158565
879.449	0.0156919
879.527	0.0156834
879.605	0.0157867
879.683	0.0157066
879.761	0.0157943
879.840	0.0157636
879.918	0.0158322
879.996	0.0159085
880.074	0.0158788
880.152	0.0158365
880.230	0.0158957
880.308	0.0158700
880.386	0.0159116
880.465	0.0159342
880.543	0.0159539
880.621	0.0159558
880.699	0.0159712
880.777	0.0160158
880.855	0.0159866
880.933	0.0159607
881.011	0.0160481
881.090	0.0159061
881.168	0.0158580
881.246	0.0160580
881.324	0.0160473
881.402	0.0158597
881.480	0.0158910
881.558	0.0158741
881.636	0.0158646
881.715	0.0159377
881.793	0.0157955
881.871	0.0155988
881.949	0.0156886
882.027	0.0157609
882.105	0.0157498
882.183	0.0155615
882.261	0.0155760
882.340	0.0157095
882.418	0.0156380
882.496	0.0157872
882.574	0.0158582
882.652	0.0157394
882.730	0.0157501
882.808	0.0156245
882.886	0.0156078
882.965	0.0157669
883.043	0.0157494
883.121	0.0158170
883.199	0.0157446
883.277	0.0157018
883.355	0.0157725
883.433	0.0158281
883.511	0.0158463
883.590	0.0156876
883.668	0.0156033
883.746	0.0157193
883.824	0.0157065
883.902	0.0156675
883.980	0.0158062
884.058	0.0157938
884.136	0.0157630
884.215	0.0157375
884.293	0.0157575
884.371	0.0158528
884.449	0.0157714
884.527	0.0156952
884.605	0.0157101
884.683	0.0158893
884.761	0.0160248
884.840	0.0159065
884.918	0.0159921
884.996	0.0159657
885.074	0.0159169
885.152	0.0159557
885.230	0.0160114
885.308	0.0159451
885.386	0.0159998
885.465	0.0158568
885.543	0.0158877
885.621	0.0158621
885.699	0.0157116
885.777	0.0158824
885.855	0.0160581
885.933	0.0159038
886.011	0.0157852
886.090	0.0157378
886.168	0.0157082
886.246	0.0156653
886.324	0.0158132
886.402	0.0157169
886.480	0.0155479
886.558	0.0157214
886.636	0.0157692
886.715	0.0156719
886.793	0.0157460
886.871	0.0157430
886.949	0.0156435
887.027	0.0157449
887.105	0.0158058
887.183	0.0156768
887.261	0.0158083
887.340	0.0158270
887.418	0.0157617
887.496	0.0158254
887.574	0.0159332
887.652	0.0159200
887.730	0.0158198
887.808	0.0158099
887.886	0.0157360
887.965	0.0158316
888.043	0.0158244
888.121	0.0157557
888.199	0.0157328
888.277	0.0157253
888.355	0.0157462
888.433	0.0156778
888.511	0.0156836
888.590	0.0156470
888.668	0.0156262
888.746	0.0156986
888.824	0.0155914
888.902	0.0155964
888.980	0.0157087
889.058	0.0158075
889.136	0.0157980
889.215	0.0158112
889.293	0.0158782
889.371	0.0157806
889.449	0.0158781
889.527	0.0159205
889.605	0.0160122
889.683	0.0157616
889.761	0.0158620
889.840	0.0159132
889.918	0.0159974
889.996	0.0159393
890.074	0.0158229
890.152	0.0158807
890.230	0.0159137
890.308	0.0158874
890.386	0.0156902
890.465	0.0158295
890.543	0.0157042
890.621	0.0158576
890.699	0.0157455
890.777	0.0157153
890.855	0.0156667
890.933	0.0156062
891.011	0.0156732
891.090	0.0156470
891.168	0.0156922
891.246	0.0155587
891.324	0.0157151
891.402	0.0156129
891.480	0.0156017
891.558	0.0156894
891.636	0.0156631
891.715	0.0157805
891.793	0.0157807
891.871	0.0158139
891.949	0.0158741
892.027	0.0158500
892.105	0.0156763
892.183	0.0157751
892.261	0.0159295
892.340	0.0158041
892.418	0.0158256
892.496	0.0158659
892.574	0.0157279
892.652	0.0158264
892.730	0.0157773
892.808	0.0156847
892.886	0.0157054
892.965	0.0157166
893.043	0.0156667
893.121	0.0156295
893.199	0.0156562
893.277	0.0156854
893.355	0.0155909
893.433	0.0157024
893.511	0.0157593
893.590	0.0155630
893.668	0.0157030
893.746	0.0157254
893.824	0.0158334
893.902	0.0158484
893.980	0.0157321
894.058	0.0159815
894.136	0.0158284
894.215	0.0158715
894.293	0.0158151
894.371	0.0160110
894.449	0.0159856
894.527	0.0158518
894.605	0.0158195
894.683	0.0158607
894.761	0.0158607
894.840	0.0159450
894.918	0.0158748
894.996	0.0159444
895.074	0.0158960
895.152	0.0156889
895.230	0.0157798
895.308	0.0157529
895.386	0.0157458
895.465	0.0157764
895.543	0.0156385
895.621	0.0157902
895.699	0.0156915
895.777	0.0156503
895.855	0.0158138
895.933	0.0157597
896.011	0.0157597
896.090	0.0156978
896.168	0.0157904
896.246	0.0158422
896.324	0.0159284
896.402	0.0158858
896.480	0.0157256
896.558	0.0158176
896.636	0.0157451
896.715	0.0157902
896.793	0.0156507
896.871	0.0158135
896.949	0.0158344
897.027	0.0158112
897.105	0.0158767
897.183	0.0157391
897.261	0.0157972
897.340	0.0158775
897.418	0.0157351
897.496	0.0159432
897.574	0.0158534
897.652	0.0158234
897.730	0.0157816
897.808	0.0158459
897.886	0.0158674
897.965	0.0158179
898.043	0.0157515
898.121	0.0158018
898.199	0.0157848
898.277	0.0156654
898.355	0.0159462
898.433	0.0158576
898.511	0.0157235
898.590	0.0157061
898.668	0.0156206
898.746	0.0156734
898.824	0.0157365
898.902	0.0158866
898.980	0.0158758
899.058	0.0157145
899.136	0.0157951
899.215	0.0158733
899.293	0.0157150
899.371	0.0157346
899.449	0.0157985
899.527	0.0157962
899.605	0.0158339
899.683	0.0157480
899.761	0.0157845
899.840	0.0157796
899.918	0.0157309
899.996	0.0158566
900.074	0.0158552
900.152	0.0157714
900.230	0.0158291
900.308	0.0158567
900.386	0.0158799
900.465	0.0157321
900.543	0.0157486
900.621	0.0157173
900.699	0.0156523
900.777	0.0157952
900.855	0.0158661
900.933	0.0157698
901.011	0.0156869
901.090	0.0155487
901.168	0.0157053
901.246	0.0157130
901.324	0.0157301
901.402	0.0156796
901.480	0.0158157
901.558	0.0157454
901.636	0.0158042
901.715	0.0158109
901.793	0.0158076
901.871	0.0158257
901.949	0.0159002
902.027	0.0159209
902.105	0.0158336
902.183	0.0158902
902.261	0.0157766
902.340	0.0158195
902.418	0.0158573
902.496	0.0157669
902.574	0.0158240
902.652	0.0158611
902.730	0.0158580
902.808	0.0158514
902.886	0.0158980
902.965	0.0158210
903.043	0.0158584
903.121	0.0157859
903.199	0.0157722
903.277	0.0158639
903.355	0.0159430
903.433	0.0158437
903.511	0.0156290
903.590	0.0156654
903.668	0.0157853
903.746	0.0157201
903.824	0.0157757
903.902	0.0157796
903.980	0.0156884
904.058	0.0156073
904.136	0.0157541
904.215	0.0158233
904.293	0.0158440
904.371	0.0157068
904.449	0.0157350
904.527	0.0159062
904.605	0.0158334
904.683	0.0159165
904.761	0.0157603
904.840	0.0157461
904.918	0.0158761
904.996	0.0158469
905.074	0.0157340
905.152	0.0158083
905.230	0.0158083
905.308	0.0156489
905.386	0.0155541
905.465	0.0157238
905.543	0.0155318
905.621	0.0155585
905.699	0.0156740
905.777	0.0157040
905.855	0.0154832
905.933	0.0156126
906.011	0.0156179
906.090	0.0157002
906.168	0.0156301
906.246	0.0157909
906.324	0.0159032
906.402	0.0157240
906.480	0.0157234
906.558	0.0158144
906.636	0.0159459
906.715	0.0157780
906.793	0.0156975
906.871	0.0159649
906.949	0.0159681
907.027	0.0160239
907.105	0.0158824
907.183	0.0159901
907.261	0.0159332
907.340	0.0160624
907.418	0.0158958
907.496	0.0159162
907.574	0.0159293
907.652	0.0158639
907.730	0.0158277
907.808	0.0159905
907.886	0.0159027
907.965	0.0158124
908.043	0.0158399
908.121	0.0158741
908.199	0.0158786
908.277	0.0157065
908.355	0.0157941
908.433	0.0156941
908.511	0.0156732
908.590	0.0156750
908.668	0.0157953
908.746	0.0157327
908.824	0.0158092
908.902	0.0157288
908.980	0.0157709
909.058	0.0157210
909.136	0.0158543
909.215	0.0158187
909.293	0.0156895
909.371	0.0157430
909.449	0.0158204
909.527	0.0156884
909.605	0.0156873
909.683	0.0155616
909.761	0.0155990
909.840	0.0156894
909.918	0.0157172
909.996	0.0156515
910.074	0.0156351
910.152	0.0155789
910.230	0.0155344
910.308	0.0155694
910.386	0.0155106
910.465	0.0156804
910.543	0.0156385
910.621	0.0155681
910.699	0.0156200
910.777	0.0156242
910.855	0.0156435
910.933	0.0157222
911.011	0.0157384
911.090	0.0157657
911.168	0.0159187
911.246	0.0158492
911.324	0.0158776
911.402	0.0159541
911.480	0.0161655
911.558	0.0161298
911.636	0.0160946
911.715	0.0160357
911.793	0.0160779
911.871	0.0161004
911.949	0.0162483
912.027	0.0161081
912.105	0.0160630
912.183	0.0160065
912.261	0.0157455
912.340	0.0157320
912.418	0.0157643
912.496	0.0155550
912.574	0.0154469
912.652	0.0156327
912.730	0.0155363
912.808	0.0154590
912.886	0.0153585
912.965	0.0153911
913.043	0.0153658
913.121	0.0154705
913.199	0.0155996
913.277	0.0155254
913.355	0.0156035
913.433	0.0155301
913.511	0.0156070
913.590	0.0157425
913.668	0.0157217
913.746	0.0157449
913.824	0.0158019
913.902	0.0157973
913.980	0.0158775
914.058	0.0159648
914.136	0.0159050
914.215	0.0158121
914.293	0.0159235
914.371	0.0160154
914.449	0.0159276
914.527	0.0158029
914.605	0.0157890
914.683	0.0157994
914.761	0.0157030
914.840	0.0157791
914.918	0.0156764
914.996	0.0155875
915.074	0.0156564
915.152	0.0156155
915.230	0.0154982
915.308	0.0156391
915.386	0.0156129
915.465	0.0156200
915.543	0.0156991
915.621	0.0156931
915.699	0.0157803
915.777	0.0157838
915.855	0.0156396
915.933	0.0157967
916.011	0.0159323
916.090	0.0161006
916.168	0.0159308
916.246	0.0161411
916.324	0.0161426
916.402	0.0162186
916.480	0.0162914
916.558	0.0162187
916.636	0.0161963
916.715	0.0162090
916.793	0.0161565
916.871	0.0159483
916.949	0.0158465
917.027	0.0158671
917.105	0.0157800
917.183	0.0154786
917.261	0.0155316
917.340	0.0155603
917.418	0.0155196
917.496	0.0154652
917.574	0.0154255
917.652	0.0153522
917.730	0.0155054
917.808	0.0153775
917.886	0.0154270
917.965	0.0155843
918.043	0.0157143
918.121	0.0157325
918.199	0.0157660
918.277	0.0157709
918.355	0.0157080
918.433	0.0158974
918.511	0.0158804
918.590	0.0161331
918.668	0.0160236
918.746	0.0159796
918.824	0.0159804
918.902	0.0159793
918.980	0.0159844
919.058	0.0161060
919.136	0.0160854
919.215	0.0160165
919.293	0.0159465
919.371	0.0159709
919.449	0.0160862
919.527	0.0160183
919.605	0.0158456
919.683	0.0159486
919.761	0.0158892
919.840	0.0159003
919.918	0.0158369
919.996	0.0159126
920.074	0.0158111
920.152	0.0157364
920.230	0.0157407
920.308	0.0157733
920.386	0.0158649
920.465	0.0157341
920.543	0.0160050
920.621	0.0160213
920.699	0.0160006
920.777	0.0159387
920.855	0.0160854
920.933	0.0161964
921.011	0.0159137
921.090	0.0161265
921.168	0.0160320
921.246	0.0158978
921.324	0.0157630
921.402	0.0158572
921.480	0.0157372
921.558	0.0156870
921.636	0.0156061
921.715	0.0157118
921.793	0.0156131
921.871	0.0155887
921.949	0.0153542
922.027	0.0153802
922.105	0.0153947
922.183	0.0154649
922.261	0.0155792
922.340	0.0155777
922.418	0.0157032
922.496	0.0156960
922.574	0.0156506
922.652	0.0159081
922.730	0.0157646
922.808	0.0159728
922.886	0.0160937
922.965	0.0159967
923.043	0.0158064
923.121	0.0158940
923.199	0.0159764
923.277	0.0159468
923.355	0.0160034
923.433	0.0160500
923.511	0.0158706
923.590	0.0159999
923.668	0.0159200
923.746	0.0158910
923.824	0.0158980
923.902	0.0158659
923.980	0.0157090
924.058	0.0158339
924.136	0.0158659
924.215	0.0158282
924.293	0.0159007
924.371	0.0159042
924.449	0.0158152
924.527	0.0158279
924.605	0.0159270
924.683	0.0159664
924.761	0.0159579
924.840	0.0159517
924.918	0.0158828
924.996	0.0159087
925.074	0.0158691
925.152	0.0159628
925.230	0.0157594
925.308	0.0158548
925.386	0.0158212
925.465	0.0158201
925.543	0.0157836
925.621	0.0156938
925.699	0.0156192
925.777	0.0156966
925.855	0.0157840
925.933	0.0155977
926.011	0.0156313
926.090	0.0156676
926.168	0.0156818
926.246	0.0156001
926.324	0.0157582
926.402	0.0157031
926.480	0.0158301
926.558	0.0157287
926.636	0.0157313
926.715	0.0159224
926.793	0.0159410
926.871	0.0158085
926.949	0.0158825
927.027	0.0159095
927.105	0.0158334
927.183	0.0157970
927.261	0.0158518
927.340	0.0159736
927.418	0.0160186
927.496	0.0158866
927.574	0.0159820
927.652	0.0159968
927.730	0.0160109
927.808	0.0160055
927.886	0.0159381
927.965	0.0160085
928.043	0.0159782
928.121	0.0160413
928.199	0.0159285
928.277	0.0158171
928.355	0.0158679
928.433	0.0158206
928.511	0.0156484
928.590	0.0157566
928.668	0.0157822
928.746	0.0155751
928.824	0.0157412
928.902	0.0157531
928.980	0.0157373
929.058	0.0157212
929.136	0.0156094
929.215	0.0157660
929.293	0.0155627
929.371	0.0156860
929.449	0.0157838
929.527	0.0157684
929.605	0.0156363
929.683	0.0156758
929.761	0.0156766
929.840	0.0158316
929.918	0.0157994
929.996	0.0158091
930.074	0.0158462
930.152	0.0159183
930.230	0.0159441
930.308	0.0159057
930.386	0.0159019
930.465	0.0159541
930.543	0.0160772
930.621	0.0159935
930.699	0.0160853
930.777	0.0160236
930.855	0.0159728
930.933	0.0160365
931.011	0.0158949
931.090	0.0159325
931.168	0.0159470
931.246	0.0159548
931.324	0.0159298
931.402	0.0159068
931.480	0.0158424
931.558	0.0159219
931.636	0.0158168
931.715	0.0159934
931.793	0.0159259
931.871	0.0157520
931.949	0.0159705
932.027	0.0159173
932.105	0.0158130
932.183	0.0159156
932.261	0.0158954
932.340	0.0158552
932.418	0.0159785
932.496	0.0158072
932.574	0.0158582
932.652	0.0157919
932.730	0.0156384
932.808	0.0157305
932.886	0.0159039
932.965	0.0157402
933.043	0.0156737
933.121	0.0157601
933.199	0.0157736
933.277	0.0156717
933.355	0.0155519
933.433	0.0155750
933.511	0.0155548
933.590	0.0156047
933.668	0.0155457
933.746	0.0156033
933.824	0.0156049
933.902	0.0156621
933.980	0.0157154
934.058	0.0157652
934.136	0.0157558
934.215	0.0157629
934.293	0.0158322
934.371	0.0158180
934.449	0.0158778
934.527	0.0157823
934.605	0.0159084
934.683	0.0161726
934.761	0.0159710
934.840	0.0159009
934.918	0.0159732
934.996	0.0159033
935.074	0.0160617
935.152	0.0160048
935.230	0.0158032
935.308	0.0160188
935.386	0.0159819
935.465	0.0159066
935.543	0.0160041
935.621	0.0159219
935.699	0.0158804
935.777	0.0158839
935.855	0.0157434
935.933	0.0158879
936.011	0.0158920
936.090	0.0158451
936.168	0.0159073
936.246	0.0159182
936.324	0.0158258
936.402	0.0159649
936.480	0.0160378
936.558	0.0158730
936.636	0.0158790
936.715	0.0158204
936.793	0.0158885
936.871	0.0158607
936.949	0.0158599
937.027	0.0158705
937.105	0.0157426
937.183	0.0157281
937.261	0.0158354
937.340	0.0158533
937.418	0.0157420
937.496	0.0156641
937.574	0.0156413
937.652	0.0156278
937.730	0.0155644
937.808	0.0157269
937.886	0.0158829
937.965	0.0157421
938.043	0.0156411
938.121	0.0157118
938.199	0.0157362
938.277	0.0158598
938.355	0.0156860
938.433	0.0157846
938.511	0.0157545
938.590	0.0157611
938.668	0.0158200
938.746	0.0159771
938.824	0.0157651
938.902	0.0159457
938.980	0.0159374
939.058	0.0157760
939.136	0.0159534
939.215	0.0159341
939.293	0.0159078
939.371	0.0157095
939.449	0.0159538
939.527	0.0159575
939.605	0.0158421
939.683	0.0157679
939.761	0.0159384
939.840	0.0158318
939.918	0.0158179
939.996	0.0159826
940.074	0.0159245
940.152	0.0158737
940.230	0.0158271
940.308	0.0157828
940.386	0.0159470
940.465	0.0159724
940.543	0.0158268
940.621	0.0158128
940.699	0.0157906
940.777	0.0157803
940.855	0.0158021
940.933	0.0158070
941.011	0.0157655
941.090	0.0158609
941.168	0.0157508
941.246	0.0156856
941.324	0.0157717
941.402	0.0158253
941.480	0.0158244
941.558	0.0158028
941.636	0.0158524
941.715	0.0157770
941.793	0.0157334
941.871	0.0156644
941.949	0.0156893
942.027	0.0157660
942.105	0.0158482
942.183	0.0157748
942.261	0.0157429
942.340	0.0157505
942.418	0.0157288
942.496	0.0158932
942.574	0.0158154
942.652	0.0158902
942.730	0.0158158
942.808	0.0157094
942.886	0.0158479
942.965	0.0158011
943.043	0.0158416
943.121	0.0160145
943.199	0.0158791
943.277	0.0159212
943.355	0.0158275
943.433	0.0159201
943.511	0.0158462
943.590	0.0158104
943.668	0.0158530
943.746	0.0157965
943.824	0.0156925
943.902	0.0156712
943.980	0.0158044
944.058	0.0158849
944.136	0.0158411
944.215	0.0158342
944.293	0.0158610
944.371	0.0160086
944.449	0.0159708
944.527	0.0158596
944.605	0.0158478
944.683	0.0159333
944.761	0.0159565
944.840	0.0158095
944.918	0.0160429
944.996	0.0159541
945.074	0.0159061
945.152	0.0160235
945.230	0.0159534
945.308	0.0158768
945.386	0.0160150
945.465	0.0160185
945.543	0.0158139
945.621	0.0157654
945.699	0.0158592
945.777	0.0157272
945.855	0.0157840
945.933	0.0158485
946.011	0.0158360
946.090	0.0158559
946.168	0.0157948
946.246	0.0158656
946.324	0.0158044
946.402	0.0159411
946.480	0.0159131
946.558	0.0158358
946.636	0.0158826
946.715	0.0158200
946.793	0.0159373
946.871	0.0159102
946.949	0.0157818
947.027	0.0157382
947.105	0.0158407
947.183	0.0158035
947.261	0.0157677
947.340	0.0157182
947.418	0.0157806
947.496	0.0158006
947.574	0.0156816
947.652	0.0157164
947.730	0.0157466
947.808	0.0156909
947.886	0.0159188
947.965	0.0158771
948.043	0.0158162
948.121	0.0157957
948.199	0.0159298
948.277	0.0159951
948.355	0.0159006
948.433	0.0158519
948.511	0.0158744
948.590	0.0159068
948.668	0.0158705
948.746	0.0159256
948.824	0.0159121
948.902	0.0157443
948.980	0.0159351
949.058	0.0158038
949.136	0.0157051
949.215	0.0158067
949.293	0.0157869
949.371	0.0157378
949.449	0.0157558
949.527	0.0157315
949.605	0.0157533
949.683	0.0156493
949.761	0.0157434
949.840	0.0157665
949.918	0.0158449
