06/29/2022	21:19:03	Ver.	4.1	UNKNOWN
Optical Delay	629.995835	Delta X		0.078125	Sweeps	1	Scan Rate	0/0
Coordinates	Axis 1	NaN	Axis 2	NaN	Axis 3	NaN	Axis 4	NaN	Axis 5	NaN	Axis 6	0.000000
TX Power	0.000000	RX Power	0.000000

629.996	0.0150432
630.074	0.0150455
630.152	0.0150214
630.230	0.0150420
630.308	0.0149503
630.386	0.0150535
630.465	0.0149550
630.543	0.0149425
630.621	0.0150374
630.699	0.0150561
630.777	0.0150509
630.855	0.0150269
630.933	0.0149594
631.011	0.0150087
631.090	0.0149168
631.168	0.0149432
631.246	0.0151460
631.324	0.0150370
631.402	0.0150399
631.480	0.0150404
631.558	0.0150198
631.636	0.0149395
631.715	0.0149908
631.793	0.0151693
631.871	0.0150179
631.949	0.0152175
632.027	0.0151629
632.105	0.0150856
632.183	0.0150623
632.261	0.0150339
632.340	0.0150233
632.418	0.0151475
632.496	0.0149311
632.574	0.0150140
632.652	0.0150782
632.730	0.0150203
632.808	0.0150901
632.886	0.0150347
632.965	0.0150090
633.043	0.0150813
633.121	0.0150832
633.199	0.0150384
633.277	0.0150610
633.355	0.0150690
633.433	0.0149610
633.511	0.0151070
633.590	0.0150150
633.668	0.0150282
633.746	0.0150226
633.824	0.0152251
633.902	0.0149386
633.980	0.0150546
634.058	0.0150719
634.136	0.0150883
634.215	0.0150317
634.293	0.0150475
634.371	0.0149796
634.449	0.0150946
634.527	0.0149684
634.605	0.0150570
634.683	0.0150932
634.761	0.0150309
634.840	0.0150604
634.918	0.0149940
634.996	0.0151046
635.074	0.0149826
635.152	0.0150504
635.230	0.0151052
635.308	0.0150101
635.386	0.0149277
635.465	0.0150397
635.543	0.0151176
635.621	0.0149879
635.699	0.0151190
635.777	0.0150628
635.855	0.0151716
635.933	0.0149053
636.011	0.0149364
636.090	0.0151235
636.168	0.0150875
636.246	0.0149745
636.324	0.0150568
636.402	0.0150884
636.480	0.0151015
636.558	0.0149508
636.636	0.0150580
636.715	0.0150230
636.793	0.0150150
636.871	0.0149264
636.949	0.0149225
637.027	0.0151053
637.105	0.0150210
637.183	0.0150303
637.261	0.0150504
637.340	0.0149312
637.418	0.0150665
637.496	0.0151082
637.574	0.0150289
637.652	0.0149373
637.730	0.0150258
637.808	0.0151128
637.886	0.0150481
637.965	0.0150860
638.043	0.0150871
638.121	0.0150163
638.199	0.0150287
638.277	0.0150533
638.355	0.0150919
638.433	0.0149943
638.511	0.0149822
638.590	0.0150048
638.668	0.0150886
638.746	0.0149720
638.824	0.0149393
638.902	0.0149707
638.980	0.0150425
639.058	0.0150681
639.136	0.0152290
639.215	0.0150510
639.293	0.0149741
639.371	0.0150816
639.449	0.0150430
639.527	0.0151404
639.605	0.0151329
639.683	0.0149165
639.761	0.0149616
639.840	0.0149908
639.918	0.0150356
639.996	0.0151256
640.074	0.0149395
640.152	0.0151215
640.230	0.0149688
640.308	0.0150790
640.386	0.0150725
640.465	0.0151217
640.543	0.0152058
640.621	0.0150315
640.699	0.0150085
640.777	0.0150533
640.855	0.0150275
640.933	0.0150060
641.011	0.0149637
641.090	0.0151209
641.168	0.0150405
641.246	0.0151183
641.324	0.0151611
641.402	0.0150048
641.480	0.0150458
641.558	0.0151250
641.636	0.0149841
641.715	0.0150350
641.793	0.0149494
641.871	0.0150298
641.949	0.0150276
642.027	0.0150305
642.105	0.0149969
642.183	0.0149707
642.261	0.0150823
642.340	0.0149606
642.418	0.0150874
642.496	0.0150138
642.574	0.0149949
642.652	0.0149149
642.730	0.0148052
642.808	0.0151318
642.886	0.0151816
642.965	0.0149579
643.043	0.0150318
643.121	0.0149735
643.199	0.0150079
643.277	0.0149493
643.355	0.0150610
643.433	0.0150282
643.511	0.0150554
643.590	0.0151128
643.668	0.0148959
643.746	0.0150333
643.824	0.0149058
643.902	0.0150566
643.980	0.0151642
644.058	0.0150209
644.136	0.0150233
644.215	0.0150134
644.293	0.0150490
644.371	0.0150174
644.449	0.0150317
644.527	0.0150336
644.605	0.0151993
644.683	0.0151530
644.761	0.0151444
644.840	0.0149328
644.918	0.0149789
644.996	0.0149883
645.074	0.0151306
645.152	0.0151009
645.230	0.0150375
645.308	0.0150300
645.386	0.0150195
645.465	0.0150653
645.543	0.0149891
645.621	0.0151376
645.699	0.0149368
645.777	0.0151250
645.855	0.0149025
645.933	0.0150849
646.011	0.0149811
646.090	0.0149500
646.168	0.0151409
646.246	0.0150086
646.324	0.0149981
646.402	0.0150719
646.480	0.0150643
646.558	0.0150434
646.636	0.0150321
646.715	0.0149952
646.793	0.0149850
646.871	0.0151063
646.949	0.0149826
647.027	0.0149137
647.105	0.0150105
647.183	0.0150892
647.261	0.0150710
647.340	0.0150499
647.418	0.0150488
647.496	0.0149397
647.574	0.0150372
647.652	0.0150911
647.730	0.0151613
647.808	0.0148956
647.886	0.0150384
647.965	0.0149682
648.043	0.0150031
648.121	0.0150132
648.199	0.0149554
648.277	0.0150507
648.355	0.0150070
648.433	0.0150809
648.511	0.0150227
648.590	0.0151930
648.668	0.0150517
648.746	0.0149353
648.824	0.0151931
648.902	0.0150921
648.980	0.0151711
649.058	0.0149969
649.136	0.0149525
649.215	0.0149970
649.293	0.0151239
649.371	0.0149989
649.449	0.0150415
649.527	0.0149570
649.605	0.0149831
649.683	0.0149202
649.761	0.0149982
649.840	0.0149897
649.918	0.0151711
649.996	0.0151517
650.074	0.0150900
650.152	0.0149639
650.230	0.0149387
650.308	0.0150236
650.386	0.0150159
650.465	0.0151235
650.543	0.0150729
650.621	0.0150390
650.699	0.0151072
650.777	0.0151366
650.855	0.0150434
650.933	0.0149837
651.011	0.0151199
651.090	0.0150967
651.168	0.0150528
651.246	0.0150704
651.324	0.0150100
651.402	0.0150853
651.480	0.0150797
651.558	0.0151410
651.636	0.0149606
651.715	0.0149299
651.793	0.0149944
651.871	0.0149242
651.949	0.0149493
652.027	0.0150603
652.105	0.0148984
652.183	0.0150765
652.261	0.0151599
652.340	0.0150089
652.418	0.0149984
652.496	0.0149083
652.574	0.0150811
652.652	0.0151355
652.730	0.0148969
652.808	0.0150534
652.886	0.0150072
652.965	0.0152091
653.043	0.0150386
653.121	0.0149852
653.199	0.0151061
653.277	0.0151197
653.355	0.0150871
653.433	0.0151402
653.511	0.0150169
653.590	0.0150628
653.668	0.0149122
653.746	0.0151738
653.824	0.0150095
653.902	0.0151411
653.980	0.0150092
654.058	0.0149880
654.136	0.0150502
654.215	0.0150777
654.293	0.0150919
654.371	0.0150594
654.449	0.0150215
654.527	0.0150610
654.605	0.0150871
654.683	0.0150260
654.761	0.0149564
654.840	0.0150161
654.918	0.0151112
654.996	0.0150188
655.074	0.0149821
655.152	0.0151116
655.230	0.0150637
655.308	0.0150031
655.386	0.0150737
655.465	0.0149777
655.543	0.0149017
655.621	0.0149875
655.699	0.0151116
655.777	0.0150559
655.855	0.0150226
655.933	0.0150823
656.011	0.0151680
656.090	0.0151275
656.168	0.0149421
656.246	0.0149431
656.324	0.0149326
656.402	0.0151551
656.480	0.0151060
656.558	0.0149036
656.636	0.0150702
656.715	0.0149841
656.793	0.0150535
656.871	0.0150202
656.949	0.0149045
657.027	0.0149445
657.105	0.0150249
657.183	0.0150877
657.261	0.0149641
657.340	0.0150734
657.418	0.0150488
657.496	0.0150383
657.574	0.0150480
657.652	0.0150407
657.730	0.0150803
657.808	0.0151549
657.886	0.0150227
657.965	0.0150837
658.043	0.0151883
658.121	0.0150916
658.199	0.0151385
658.277	0.0149902
658.355	0.0149966
658.433	0.0149764
658.511	0.0151616
658.590	0.0151422
658.668	0.0150488
658.746	0.0150125
658.824	0.0150616
658.902	0.0150733
658.980	0.0150729
659.058	0.0150417
659.136	0.0149313
659.215	0.0152038
659.293	0.0151754
659.371	0.0151038
659.449	0.0151537
659.527	0.0151548
659.605	0.0149820
659.683	0.0150799
659.761	0.0150388
659.840	0.0150275
659.918	0.0149662
659.996	0.0150553
660.074	0.0151231
660.152	0.0150533
660.230	0.0150458
660.308	0.0149810
660.386	0.0150264
660.465	0.0149580
660.543	0.0150843
660.621	0.0150207
660.699	0.0150849
660.777	0.0150182
660.855	0.0150086
660.933	0.0150267
661.011	0.0150714
661.090	0.0151393
661.168	0.0150676
661.246	0.0150065
661.324	0.0150053
661.402	0.0150044
661.480	0.0150578
661.558	0.0150503
661.636	0.0150656
661.715	0.0150254
661.793	0.0150761
661.871	0.0150113
661.949	0.0150002
662.027	0.0151009
662.105	0.0149961
662.183	0.0149734
662.261	0.0150224
662.340	0.0149968
662.418	0.0150860
662.496	0.0150889
662.574	0.0151192
662.652	0.0150427
662.730	0.0149899
662.808	0.0151540
662.886	0.0150315
662.965	0.0149931
663.043	0.0149411
663.121	0.0150584
663.199	0.0150908
663.277	0.0150169
663.355	0.0150859
663.433	0.0150645
663.511	0.0151431
663.590	0.0152131
663.668	0.0149139
663.746	0.0149667
663.824	0.0150336
663.902	0.0149041
663.980	0.0150755
664.058	0.0149670
664.136	0.0150372
664.215	0.0149461
664.293	0.0150837
664.371	0.0150220
664.449	0.0150490
664.527	0.0151273
664.605	0.0150356
664.683	0.0151851
664.761	0.0150467
664.840	0.0151801
664.918	0.0150742
664.996	0.0150308
665.074	0.0150127
665.152	0.0151043
665.230	0.0149892
665.308	0.0150140
665.386	0.0150909
665.465	0.0151218
665.543	0.0149314
665.621	0.0149000
665.699	0.0151118
665.777	0.0151444
665.855	0.0150500
665.933	0.0150037
666.011	0.0150356
666.090	0.0149113
666.168	0.0150859
666.246	0.0150297
666.324	0.0150445
666.402	0.0151283
666.480	0.0149987
666.558	0.0149702
666.636	0.0150504
666.715	0.0150422
666.793	0.0150086
666.871	0.0150290
666.949	0.0150082
667.027	0.0150018
667.105	0.0150108
667.183	0.0150932
667.261	0.0150671
667.340	0.0149310
667.418	0.0149886
667.496	0.0149407
667.574	0.0150920
667.652	0.0151048
667.730	0.0149531
667.808	0.0149939
667.886	0.0149397
667.965	0.0150598
668.043	0.0150569
668.121	0.0150347
668.199	0.0149976
668.277	0.0151591
668.355	0.0151663
668.433	0.0150022
668.511	0.0150919
668.590	0.0151123
668.668	0.0150241
668.746	0.0150042
668.824	0.0151260
668.902	0.0149409
668.980	0.0149404
669.058	0.0150329
669.136	0.0151047
669.215	0.0150906
669.293	0.0151372
669.371	0.0151354
669.449	0.0149982
669.527	0.0150173
669.605	0.0151133
669.683	0.0149896
669.761	0.0151537
669.840	0.0150287
669.918	0.0149564
669.996	0.0150050
670.074	0.0149669
670.152	0.0150561
670.230	0.0151962
670.308	0.0150373
670.386	0.0151379
670.465	0.0150425
670.543	0.0149673
670.621	0.0150843
670.699	0.0151453
670.777	0.0150249
670.855	0.0149737
670.933	0.0150311
671.011	0.0151088
671.090	0.0151443
671.168	0.0151090
671.246	0.0150633
671.324	0.0149793
671.402	0.0151007
671.480	0.0151085
671.558	0.0151412
671.636	0.0149155
671.715	0.0150588
671.793	0.0150423
671.871	0.0150827
671.949	0.0150893
672.027	0.0150685
672.105	0.0151360
672.183	0.0150108
672.261	0.0149628
672.340	0.0150742
672.418	0.0149615
672.496	0.0149768
672.574	0.0151740
672.652	0.0150789
672.730	0.0150945
672.808	0.0150675
672.886	0.0152125
672.965	0.0150197
673.043	0.0150883
673.121	0.0151512
673.199	0.0150665
673.277	0.0149727
673.355	0.0151372
673.433	0.0150320
673.511	0.0150369
673.590	0.0150758
673.668	0.0151001
673.746	0.0150492
673.824	0.0151356
673.902	0.0150201
673.980	0.0150448
674.058	0.0151069
674.136	0.0150687
674.215	0.0150565
674.293	0.0151550
674.371	0.0151566
674.449	0.0151325
674.527	0.0150896
674.605	0.0150253
674.683	0.0149554
674.761	0.0150384
674.840	0.0151117
674.918	0.0150868
674.996	0.0149280
675.074	0.0150821
675.152	0.0151983
675.230	0.0150935
675.308	0.0149816
675.386	0.0150751
675.465	0.0149849
675.543	0.0151278
675.621	0.0150343
675.699	0.0150111
675.777	0.0150069
675.855	0.0150910
675.933	0.0150576
676.011	0.0150517
676.090	0.0149586
676.168	0.0150430
676.246	0.0150578
676.324	0.0150576
676.402	0.0151847
676.480	0.0150866
676.558	0.0149947
676.636	0.0151035
676.715	0.0150822
676.793	0.0149361
676.871	0.0150719
676.949	0.0150517
677.027	0.0149123
677.105	0.0150727
677.183	0.0150494
677.261	0.0150288
677.340	0.0151437
677.418	0.0150533
677.496	0.0149969
677.574	0.0149802
677.652	0.0150414
677.730	0.0151317
677.808	0.0150488
677.886	0.0150328
677.965	0.0150309
678.043	0.0149953
678.121	0.0150407
678.199	0.0152081
678.277	0.0152428
678.355	0.0151193
678.433	0.0151031
678.511	0.0151681
678.590	0.0149081
678.668	0.0151093
678.746	0.0151044
678.824	0.0150394
678.902	0.0151346
678.980	0.0150903
679.058	0.0151464
679.136	0.0150388
679.215	0.0150242
679.293	0.0151967
679.371	0.0150600
679.449	0.0151534
679.527	0.0151382
679.605	0.0149959
679.683	0.0149501
679.761	0.0150883
679.840	0.0151063
679.918	0.0151640
679.996	0.0150719
680.074	0.0149701
680.152	0.0150345
680.230	0.0150374
680.308	0.0149378
680.386	0.0150163
680.465	0.0150214
680.543	0.0150654
680.621	0.0150082
680.699	0.0150410
680.777	0.0150934
680.855	0.0151035
680.933	0.0149972
681.011	0.0148489
681.090	0.0149754
681.168	0.0150837
681.246	0.0151767
681.324	0.0151250
681.402	0.0150214
681.480	0.0152234
681.558	0.0150768
681.636	0.0149369
681.715	0.0150496
681.793	0.0150948
681.871	0.0151138
681.949	0.0150735
682.027	0.0150353
682.105	0.0150587
682.183	0.0149959
682.261	0.0149887
682.340	0.0151247
682.418	0.0149686
682.496	0.0150921
682.574	0.0150377
682.652	0.0150439
682.730	0.0150095
682.808	0.0150903
682.886	0.0148042
682.965	0.0151529
683.043	0.0150801
683.121	0.0149947
683.199	0.0151237
683.277	0.0150587
683.355	0.0149190
683.433	0.0150909
683.511	0.0150655
683.590	0.0150658
683.668	0.0151045
683.746	0.0149868
683.824	0.0149277
683.902	0.0151914
683.980	0.0150555
684.058	0.0151422
684.136	0.0150741
684.215	0.0149718
684.293	0.0149124
684.371	0.0149248
684.449	0.0149245
684.527	0.0149248
684.605	0.0149464
684.683	0.0149959
684.761	0.0150199
684.840	0.0151200
684.918	0.0150574
684.996	0.0150981
685.074	0.0151446
685.152	0.0150501
685.230	0.0149220
685.308	0.0151276
685.386	0.0150626
685.465	0.0150424
685.543	0.0151261
685.621	0.0152151
685.699	0.0150618
685.777	0.0149417
685.855	0.0150303
685.933	0.0150007
686.011	0.0150623
686.090	0.0148752
686.168	0.0150238
686.246	0.0150956
686.324	0.0150526
686.402	0.0150277
686.480	0.0150732
686.558	0.0151575
686.636	0.0150335
686.715	0.0150781
686.793	0.0152037
686.871	0.0151380
686.949	0.0152397
687.027	0.0150682
687.105	0.0151385
687.183	0.0151891
687.261	0.0149664
687.340	0.0149647
687.418	0.0150789
687.496	0.0149884
687.574	0.0150489
687.652	0.0151398
687.730	0.0149598
687.808	0.0150755
687.886	0.0151232
687.965	0.0151057
688.043	0.0149051
688.121	0.0149877
688.199	0.0150321
688.277	0.0150259
688.355	0.0150581
688.433	0.0150092
688.511	0.0150052
688.590	0.0149658
688.668	0.0151669
688.746	0.0150967
688.824	0.0149458
688.902	0.0149738
688.980	0.0150739
689.058	0.0149842
689.136	0.0148674
689.215	0.0148706
689.293	0.0149647
689.371	0.0149608
689.449	0.0150189
689.527	0.0149485
689.605	0.0150381
689.683	0.0150986
689.761	0.0148701
689.840	0.0149059
689.918	0.0149067
689.996	0.0147684
690.074	0.0149655
690.152	0.0148820
690.230	0.0148717
690.308	0.0149850
690.386	0.0150233
690.465	0.0149863
690.543	0.0150537
690.621	0.0152083
690.699	0.0152411
690.777	0.0151536
690.855	0.0151260
690.933	0.0151321
691.011	0.0150212
691.090	0.0150566
691.168	0.0150098
691.246	0.0149893
691.324	0.0148029
691.402	0.0148051
691.480	0.0149601
691.558	0.0151203
691.636	0.0150100
691.715	0.0149850
691.793	0.0150349
691.871	0.0151305
691.949	0.0150860
692.027	0.0149960
692.105	0.0149494
692.183	0.0150294
692.261	0.0150160
692.340	0.0150268
692.418	0.0151326
692.496	0.0151978
692.574	0.0150591
692.652	0.0149686
692.730	0.0149834
692.808	0.0150993
692.886	0.0151205
692.965	0.0150220
693.043	0.0150216
693.121	0.0150361
693.199	0.0149535
693.277	0.0148691
693.355	0.0150014
693.433	0.0150909
693.511	0.0150270
693.590	0.0151201
693.668	0.0150562
693.746	0.0150643
693.824	0.0152172
693.902	0.0150204
693.980	0.0148975
694.058	0.0149631
694.136	0.0150405
694.215	0.0149469
694.293	0.0148421
694.371	0.0150043
694.449	0.0148988
694.527	0.0150563
694.605	0.0152011
694.683	0.0150322
694.761	0.0151325
694.840	0.0153118
694.918	0.0152079
694.996	0.0151244
695.074	0.0152846
695.152	0.0152360
695.230	0.0151231
695.308	0.0150553
695.386	0.0149884
695.465	0.0150585
695.543	0.0151132
695.621	0.0150233
695.699	0.0149790
695.777	0.0149036
695.855	0.0150240
695.933	0.0149342
696.011	0.0149361
696.090	0.0150282
696.168	0.0150103
696.246	0.0150548
696.324	0.0152355
696.402	0.0151517
696.480	0.0150698
696.558	0.0151353
696.636	0.0151522
696.715	0.0151832
696.793	0.0150173
696.871	0.0152179
696.949	0.0149963
697.027	0.0150555
697.105	0.0150297
697.183	0.0149470
697.261	0.0150679
697.340	0.0148991
697.418	0.0149823
697.496	0.0151461
697.574	0.0149866
697.652	0.0150629
697.730	0.0152191
697.808	0.0150771
697.886	0.0149847
697.965	0.0150145
698.043	0.0150442
698.121	0.0149568
698.199	0.0149171
698.277	0.0149023
698.355	0.0147847
698.433	0.0147747
698.511	0.0148094
698.590	0.0147868
698.668	0.0148625
698.746	0.0148260
698.824	0.0150837
698.902	0.0150465
698.980	0.0151936
699.058	0.0151012
699.136	0.0152640
699.215	0.0152036
699.293	0.0152724
699.371	0.0153822
699.449	0.0150976
699.527	0.0152460
699.605	0.0149895
699.683	0.0150831
699.761	0.0148986
699.840	0.0148526
699.918	0.0149281
699.996	0.0148449
700.074	0.0149298
700.152	0.0148888
700.230	0.0148392
700.308	0.0148502
700.386	0.0148731
700.465	0.0151263
700.543	0.0151597
700.621	0.0150181
700.699	0.0152671
700.777	0.0152197
700.855	0.0152072
700.933	0.0153725
701.011	0.0152999
701.090	0.0151479
701.168	0.0153445
701.246	0.0150918
701.324	0.0150957
701.402	0.0150839
701.480	0.0150063
701.558	0.0148734
701.636	0.0149598
701.715	0.0148661
701.793	0.0149022
701.871	0.0147705
701.949	0.0149249
702.027	0.0149011
702.105	0.0149535
702.183	0.0149108
702.261	0.0150348
702.340	0.0149373
702.418	0.0150564
702.496	0.0150642
702.574	0.0151449
702.652	0.0151404
702.730	0.0151644
702.808	0.0151829
702.886	0.0150896
702.965	0.0151994
703.043	0.0151192
703.121	0.0151317
703.199	0.0151331
703.277	0.0150795
703.355	0.0150278
703.433	0.0150201
703.511	0.0150716
703.590	0.0151760
703.668	0.0150655
703.746	0.0151310
703.824	0.0150826
703.902	0.0151261
703.980	0.0152200
704.058	0.0151841
704.136	0.0153022
704.215	0.0152145
704.293	0.0152914
704.371	0.0152540
704.449	0.0152406
704.527	0.0154109
704.605	0.0152718
704.683	0.0149968
704.761	0.0149397
704.840	0.0148977
704.918	0.0149178
704.996	0.0148603
705.074	0.0148483
705.152	0.0147684
705.230	0.0148095
705.308	0.0147837
705.386	0.0150460
705.465	0.0150080
705.543	0.0151134
705.621	0.0151447
705.699	0.0151285
705.777	0.0151927
705.855	0.0150404
705.933	0.0151577
706.011	0.0149426
706.090	0.0149039
706.168	0.0147701
706.246	0.0146207
706.324	0.0146593
706.402	0.0147596
706.480	0.0145656
706.558	0.0147353
706.636	0.0148239
706.715	0.0149403
706.793	0.0149630
706.871	0.0152771
706.949	0.0151086
707.027	0.0153239
707.105	0.0155318
707.183	0.0156371
707.261	0.0155296
707.340	0.0156850
707.418	0.0156606
707.496	0.0154832
707.574	0.0153810
707.652	0.0152879
707.730	0.0152915
707.808	0.0152356
707.886	0.0151951
707.965	0.0152193
708.043	0.0150505
708.121	0.0149704
708.199	0.0148380
708.277	0.0147775
708.355	0.0148521
708.433	0.0148157
708.511	0.0148148
708.590	0.0147800
708.668	0.0148637
708.746	0.0148952
708.824	0.0149374
708.902	0.0148769
708.980	0.0149047
709.058	0.0148516
709.136	0.0148783
709.215	0.0148398
709.293	0.0148625
709.371	0.0149204
709.449	0.0148830
709.527	0.0149754
709.605	0.0150423
709.683	0.0151588
709.761	0.0149722
709.840	0.0148415
709.918	0.0150623
709.996	0.0150998
710.074	0.0149837
710.152	0.0151327
710.230	0.0149934
710.308	0.0151355
710.386	0.0152436
710.465	0.0153157
710.543	0.0150542
710.621	0.0152261
710.699	0.0152412
710.777	0.0151049
710.855	0.0152518
710.933	0.0151472
711.011	0.0151109
711.090	0.0149828
711.168	0.0151844
711.246	0.0151418
711.324	0.0150283
711.402	0.0148616
711.480	0.0148949
711.558	0.0149497
711.636	0.0148421
711.715	0.0148364
711.793	0.0147925
711.871	0.0147038
711.949	0.0148629
712.027	0.0148725
712.105	0.0148201
712.183	0.0147642
712.261	0.0148408
712.340	0.0148991
712.418	0.0151218
712.496	0.0151315
712.574	0.0151034
712.652	0.0150703
712.730	0.0152545
712.808	0.0153073
712.886	0.0153472
712.965	0.0151169
713.043	0.0151524
713.121	0.0152607
713.199	0.0152524
713.277	0.0152213
713.355	0.0150558
713.433	0.0153040
713.511	0.0152133
713.590	0.0152929
713.668	0.0152927
713.746	0.0151548
713.824	0.0152718
713.902	0.0154543
713.980	0.0152347
714.058	0.0153851
714.136	0.0154317
714.215	0.0153145
714.293	0.0153061
714.371	0.0151173
714.449	0.0150687
714.527	0.0150793
714.605	0.0150138
714.683	0.0150379
714.761	0.0150105
714.840	0.0148392
714.918	0.0147108
714.996	0.0147470
715.074	0.0147972
715.152	0.0148631
715.230	0.0149235
715.308	0.0147482
715.386	0.0149531
715.465	0.0148347
715.543	0.0149757
715.621	0.0149542
715.699	0.0149881
715.777	0.0149495
715.855	0.0148013
715.933	0.0150156
716.011	0.0149368
716.090	0.0149932
716.168	0.0149635
716.246	0.0148618
716.324	0.0148976
716.402	0.0147004
716.480	0.0148289
716.558	0.0147006
716.636	0.0146587
716.715	0.0145742
716.793	0.0145966
716.871	0.0148588
716.949	0.0146941
717.027	0.0148737
717.105	0.0148009
717.183	0.0149937
717.261	0.0150478
717.340	0.0149974
717.418	0.0150253
717.496	0.0151985
717.574	0.0150237
717.652	0.0151400
717.730	0.0151291
717.808	0.0150922
717.886	0.0151799
717.965	0.0152596
718.043	0.0150176
718.121	0.0150534
718.199	0.0151725
718.277	0.0151665
718.355	0.0151711
718.433	0.0151220
718.511	0.0149833
718.590	0.0148785
718.668	0.0149902
718.746	0.0149700
718.824	0.0150014
718.902	0.0150017
718.980	0.0150497
719.058	0.0151320
719.136	0.0151101
719.215	0.0150309
719.293	0.0152022
719.371	0.0153558
719.449	0.0154037
719.527	0.0154211
719.605	0.0155621
719.683	0.0155299
719.761	0.0155453
719.840	0.0155978
719.918	0.0158067
719.996	0.0156710
720.074	0.0157040
720.152	0.0157761
720.230	0.0157879
720.308	0.0156218
720.386	0.0157565
720.465	0.0155404
720.543	0.0156419
720.621	0.0156092
720.699	0.0154773
720.777	0.0153326
720.855	0.0153791
720.933	0.0154163
721.011	0.0152917
721.090	0.0150925
721.168	0.0150513
721.246	0.0150748
721.324	0.0148555
721.402	0.0146040
721.480	0.0145298
721.558	0.0144372
721.636	0.0143256
721.715	0.0143039
721.793	0.0141073
721.871	0.0141827
721.949	0.0139273
722.027	0.0141672
722.105	0.0142465
722.183	0.0141547
722.261	0.0141654
722.340	0.0141510
722.418	0.0143038
722.496	0.0142758
722.574	0.0143539
722.652	0.0144333
722.730	0.0143677
722.808	0.0145021
722.886	0.0145806
722.965	0.0147964
723.043	0.0148081
723.121	0.0147271
723.199	0.0149327
723.277	0.0150525
723.355	0.0150468
723.433	0.0152384
723.511	0.0153603
723.590	0.0154922
723.668	0.0155050
723.746	0.0155721
723.824	0.0154642
723.902	0.0155797
723.980	0.0156236
724.058	0.0154872
724.136	0.0155951
724.215	0.0156097
724.293	0.0153992
724.371	0.0151645
724.449	0.0152569
724.527	0.0150190
724.605	0.0150033
724.683	0.0149609
724.761	0.0149575
724.840	0.0148732
724.918	0.0147289
724.996	0.0147122
725.074	0.0146656
725.152	0.0147210
725.230	0.0148347
725.308	0.0148988
725.386	0.0148628
725.465	0.0149371
725.543	0.0150509
725.621	0.0151067
725.699	0.0150681
725.777	0.0152482
725.855	0.0152216
725.933	0.0153255
726.011	0.0153808
726.090	0.0151438
726.168	0.0153146
726.246	0.0155058
726.324	0.0153781
726.402	0.0153677
726.480	0.0155291
726.558	0.0155619
726.636	0.0155518
726.715	0.0155563
726.793	0.0156434
726.871	0.0159208
726.949	0.0158134
727.027	0.0157954
727.105	0.0157919
727.183	0.0157822
727.261	0.0157442
727.340	0.0158882
727.418	0.0157431
727.496	0.0158621
727.574	0.0157095
727.652	0.0155406
727.730	0.0154986
727.808	0.0154998
727.886	0.0152380
727.965	0.0153383
728.043	0.0152694
728.121	0.0151167
728.199	0.0150350
728.277	0.0148794
728.355	0.0148869
728.433	0.0146150
728.511	0.0144373
728.590	0.0142684
728.668	0.0140839
728.746	0.0138146
728.824	0.0136253
728.902	0.0133998
728.980	0.0132423
729.058	0.0131829
729.136	0.0129319
729.215	0.0128013
729.293	0.0128678
729.371	0.0130145
729.449	0.0131562
729.527	0.0132071
729.605	0.0135580
729.683	0.0137872
729.761	0.0139740
729.840	0.0142656
729.918	0.0144028
729.996	0.0146875
730.074	0.0148766
730.152	0.0152280
730.230	0.0154417
730.308	0.0157088
730.386	0.0158179
730.465	0.0159049
730.543	0.0159914
730.621	0.0159943
730.699	0.0161266
730.777	0.0161356
730.855	0.0162011
730.933	0.0163091
731.011	0.0162354
731.090	0.0162183
731.168	0.0161795
731.246	0.0161100
731.324	0.0161009
731.402	0.0158712
731.480	0.0158291
731.558	0.0157987
731.636	0.0156469
731.715	0.0156485
731.793	0.0154162
731.871	0.0155470
731.949	0.0153502
732.027	0.0153147
732.105	0.0152648
732.183	0.0153406
732.261	0.0153288
732.340	0.0152562
732.418	0.0151579
732.496	0.0154121
732.574	0.0155093
732.652	0.0154330
732.730	0.0154404
732.808	0.0153406
732.886	0.0154673
732.965	0.0155472
733.043	0.0155740
733.121	0.0155034
733.199	0.0155839
733.277	0.0152729
733.355	0.0154481
733.433	0.0152676
733.511	0.0151227
733.590	0.0150635
733.668	0.0151462
733.746	0.0151434
733.824	0.0149472
733.902	0.0149246
733.980	0.0150669
734.058	0.0150653
734.136	0.0149628
734.215	0.0149529
734.293	0.0150092
734.371	0.0150022
734.449	0.0150487
734.527	0.0149665
734.605	0.0149806
734.683	0.0150595
734.761	0.0151624
734.840	0.0151491
734.918	0.0152991
734.996	0.0152280
735.074	0.0153215
735.152	0.0150661
735.230	0.0151503
735.308	0.0150083
735.386	0.0147359
735.465	0.0143686
735.543	0.0141996
735.621	0.0139355
735.699	0.0137655
735.777	0.0132877
735.855	0.0130525
735.933	0.0125695
736.011	0.0123521
736.090	0.0123367
736.168	0.0121799
736.246	0.0122369
736.324	0.0121252
736.402	0.0122345
736.480	0.0126421
736.558	0.0130341
736.636	0.0132403
736.715	0.0136940
736.793	0.0141613
736.871	0.0145923
736.949	0.0152058
737.027	0.0155837
737.105	0.0160271
737.183	0.0164851
737.261	0.0169737
737.340	0.0173701
737.418	0.0176002
737.496	0.0177290
737.574	0.0178060
737.652	0.0176896
737.730	0.0177801
737.808	0.0174598
737.886	0.0173737
737.965	0.0170258
738.043	0.0167897
738.121	0.0165907
738.199	0.0161272
738.277	0.0159821
738.355	0.0156003
738.433	0.0154376
738.511	0.0152782
738.590	0.0151174
738.668	0.0149883
738.746	0.0148544
738.824	0.0148600
738.902	0.0148821
738.980	0.0148807
739.058	0.0149373
739.136	0.0151389
739.215	0.0152336
739.293	0.0153009
739.371	0.0153809
739.449	0.0154163
739.527	0.0153706
739.605	0.0155537
739.683	0.0155315
739.761	0.0157220
739.840	0.0156648
739.918	0.0158139
739.996	0.0157727
740.074	0.0155561
740.152	0.0155345
740.230	0.0155273
740.308	0.0153926
740.386	0.0153075
740.465	0.0154523
740.543	0.0150961
740.621	0.0149869
740.699	0.0150070
740.777	0.0148122
740.855	0.0147671
740.933	0.0146787
741.011	0.0143427
741.090	0.0144236
741.168	0.0141735
741.246	0.0143423
741.324	0.0141743
741.402	0.0141256
741.480	0.0142577
741.558	0.0143889
741.636	0.0141396
741.715	0.0143169
741.793	0.0144080
741.871	0.0143976
741.949	0.0144675
742.027	0.0146340
742.105	0.0145972
742.183	0.0146189
742.261	0.0146514
742.340	0.0144710
742.418	0.0144186
742.496	0.0143412
742.574	0.0142931
742.652	0.0143542
742.730	0.0138925
742.808	0.0137903
742.886	0.0139497
742.965	0.0138627
743.043	0.0136962
743.121	0.0136857
743.199	0.0137330
743.277	0.0137899
743.355	0.0139664
743.433	0.0140114
743.511	0.0141402
743.590	0.0142447
743.668	0.0144044
743.746	0.0146653
743.824	0.0147267
743.902	0.0148733
743.980	0.0150109
744.058	0.0152556
744.136	0.0155856
744.215	0.0156948
744.293	0.0161066
744.371	0.0159604
744.449	0.0161022
744.527	0.0165009
744.605	0.0165449
744.683	0.0166861
744.761	0.0169041
744.840	0.0168307
744.918	0.0170497
744.996	0.0170114
745.074	0.0170503
745.152	0.0169031
745.230	0.0168808
745.308	0.0169703
745.386	0.0165929
745.465	0.0166132
745.543	0.0164672
745.621	0.0162888
745.699	0.0160937
745.777	0.0160615
745.855	0.0156831
745.933	0.0154998
746.011	0.0153294
746.090	0.0151265
746.168	0.0149404
746.246	0.0148784
746.324	0.0146283
746.402	0.0144828
746.480	0.0142922
746.558	0.0140652
746.636	0.0140889
746.715	0.0139063
746.793	0.0138741
746.871	0.0139102
746.949	0.0140395
747.027	0.0140589
747.105	0.0142077
747.183	0.0144368
747.261	0.0144347
747.340	0.0145960
747.418	0.0149225
747.496	0.0150797
747.574	0.0151344
747.652	0.0151521
747.730	0.0151995
747.808	0.0152895
747.886	0.0152666
747.965	0.0152970
748.043	0.0152266
748.121	0.0149851
748.199	0.0150893
748.277	0.0151211
748.355	0.0148622
748.433	0.0148428
748.511	0.0147120
748.590	0.0144378
748.668	0.0144568
748.746	0.0142812
748.824	0.0142233
748.902	0.0142426
748.980	0.0142075
749.058	0.0142098
749.136	0.0142297
749.215	0.0141743
749.293	0.0142860
749.371	0.0142502
749.449	0.0144338
749.527	0.0146600
749.605	0.0145865
749.683	0.0146388
749.761	0.0147533
749.840	0.0149340
749.918	0.0150159
749.996	0.0149401
750.074	0.0150501
750.152	0.0152799
750.230	0.0152953
750.308	0.0153091
750.386	0.0152975
750.465	0.0153269
750.543	0.0152862
750.621	0.0152312
750.699	0.0152586
750.777	0.0151761
750.855	0.0149773
750.933	0.0151038
751.011	0.0149186
751.090	0.0146811
751.168	0.0147307
751.246	0.0145705
751.324	0.0145634
751.402	0.0145573
751.480	0.0146266
751.558	0.0146721
751.636	0.0146230
751.715	0.0148804
751.793	0.0150101
751.871	0.0152267
751.949	0.0152861
752.027	0.0157882
752.105	0.0158187
752.183	0.0160667
752.261	0.0163597
752.340	0.0166225
752.418	0.0166063
752.496	0.0167760
752.574	0.0170250
752.652	0.0169544
752.730	0.0168700
752.808	0.0167540
752.886	0.0166557
752.965	0.0164082
753.043	0.0160662
753.121	0.0158926
753.199	0.0154803
753.277	0.0152298
753.355	0.0148811
753.433	0.0145507
753.511	0.0143164
753.590	0.0141200
753.668	0.0137952
753.746	0.0137791
753.824	0.0136474
753.902	0.0135423
753.980	0.0136989
754.058	0.0137645
754.136	0.0139548
754.215	0.0140009
754.293	0.0142401
754.371	0.0144737
754.449	0.0146034
754.527	0.0148495
754.605	0.0149136
754.683	0.0151637
754.761	0.0152216
754.840	0.0152769
754.918	0.0153320
754.996	0.0155462
755.074	0.0154983
755.152	0.0155038
755.230	0.0153807
755.308	0.0153351
755.386	0.0152039
755.465	0.0151675
755.543	0.0151800
755.621	0.0150191
755.699	0.0148608
755.777	0.0147088
755.855	0.0146085
755.933	0.0147246
756.011	0.0146468
756.090	0.0146835
756.168	0.0146448
756.246	0.0147609
756.324	0.0148859
756.402	0.0149725
756.480	0.0150468
756.558	0.0151723
756.636	0.0154375
756.715	0.0152959
756.793	0.0154477
756.871	0.0156398
756.949	0.0158646
757.027	0.0158426
757.105	0.0158344
757.183	0.0159341
757.261	0.0158794
757.340	0.0157847
757.418	0.0157401
757.496	0.0155059
757.574	0.0152738
757.652	0.0152733
757.730	0.0150587
757.808	0.0148091
757.886	0.0146864
757.965	0.0142601
758.043	0.0141662
758.121	0.0141483
758.199	0.0138154
758.277	0.0137373
758.355	0.0137749
758.433	0.0137038
758.511	0.0138540
758.590	0.0136830
758.668	0.0136964
758.746	0.0139512
758.824	0.0142085
758.902	0.0143969
758.980	0.0145440
759.058	0.0147831
759.136	0.0151384
759.215	0.0154121
759.293	0.0156264
759.371	0.0159817
759.449	0.0162371
759.527	0.0163022
759.605	0.0163721
759.683	0.0164912
759.761	0.0166106
759.840	0.0164967
759.918	0.0163702
759.996	0.0162389
760.074	0.0160880
760.152	0.0159988
760.230	0.0157587
760.308	0.0156870
760.386	0.0153865
760.465	0.0152228
760.543	0.0150771
760.621	0.0150082
760.699	0.0147929
760.777	0.0146186
760.855	0.0146116
760.933	0.0146944
761.011	0.0146078
761.090	0.0146025
761.168	0.0146092
761.246	0.0146204
761.324	0.0146118
761.402	0.0146873
761.480	0.0147021
761.558	0.0147321
761.636	0.0148497
761.715	0.0149986
761.793	0.0147785
761.871	0.0149420
761.949	0.0150669
762.027	0.0148776
762.105	0.0150114
762.183	0.0151178
762.261	0.0151585
762.340	0.0150523
762.418	0.0150994
762.496	0.0151168
762.574	0.0152087
762.652	0.0152996
762.730	0.0154784
762.808	0.0154341
762.886	0.0154868
762.965	0.0154819
763.043	0.0156778
763.121	0.0155432
763.199	0.0156449
763.277	0.0155882
763.355	0.0157436
763.433	0.0156310
763.511	0.0156006
763.590	0.0154089
763.668	0.0155198
763.746	0.0153828
763.824	0.0153398
763.902	0.0150824
763.980	0.0149719
764.058	0.0149757
764.136	0.0148769
764.215	0.0147389
764.293	0.0146388
764.371	0.0146648
764.449	0.0145255
764.527	0.0147721
764.605	0.0146205
764.683	0.0143291
764.761	0.0145699
764.840	0.0145909
764.918	0.0145508
764.996	0.0145192
765.074	0.0145554
765.152	0.0147148
765.230	0.0147195
765.308	0.0145942
765.386	0.0144304
765.465	0.0145707
765.543	0.0146499
765.621	0.0145790
765.699	0.0145303
765.777	0.0146669
765.855	0.0146861
765.933	0.0146540
766.011	0.0145428
766.090	0.0147713
766.168	0.0148697
766.246	0.0147673
766.324	0.0147000
766.402	0.0147935
766.480	0.0148396
766.558	0.0150758
766.636	0.0150024
766.715	0.0152205
766.793	0.0152493
766.871	0.0152721
766.949	0.0153355
767.027	0.0154877
767.105	0.0155715
767.183	0.0155452
767.261	0.0157246
767.340	0.0157090
767.418	0.0158572
767.496	0.0159248
767.574	0.0158655
767.652	0.0157393
767.730	0.0158298
767.808	0.0156530
767.886	0.0157107
767.965	0.0156496
768.043	0.0155149
768.121	0.0154269
768.199	0.0152573
768.277	0.0151289
768.355	0.0148961
768.433	0.0148132
768.511	0.0147514
768.590	0.0145339
768.668	0.0145142
768.746	0.0145872
768.824	0.0145793
768.902	0.0145419
768.980	0.0146000
769.058	0.0145308
769.136	0.0147321
769.215	0.0149165
769.293	0.0150815
769.371	0.0151070
769.449	0.0151847
769.527	0.0154599
769.605	0.0155441
769.683	0.0156263
769.761	0.0157404
769.840	0.0157438
769.918	0.0157250
769.996	0.0157910
770.074	0.0157055
770.152	0.0156757
770.230	0.0157575
770.308	0.0154769
770.386	0.0153180
770.465	0.0153173
770.543	0.0150678
770.621	0.0149654
770.699	0.0147636
770.777	0.0145947
770.855	0.0145675
770.933	0.0144210
771.011	0.0143869
771.090	0.0143311
771.168	0.0143171
771.246	0.0143375
771.324	0.0143315
771.402	0.0143840
771.480	0.0144286
771.558	0.0145461
771.636	0.0146499
771.715	0.0147648
771.793	0.0149353
771.871	0.0151416
771.949	0.0151111
772.027	0.0150760
772.105	0.0152636
772.183	0.0152329
772.261	0.0150244
772.340	0.0153040
772.418	0.0153210
772.496	0.0151045
772.574	0.0149151
772.652	0.0149178
772.730	0.0149046
772.808	0.0147544
772.886	0.0147878
772.965	0.0146051
773.043	0.0146117
773.121	0.0146241
773.199	0.0145129
773.277	0.0147968
773.355	0.0147801
773.433	0.0148321
773.511	0.0148165
773.590	0.0150518
773.668	0.0151398
773.746	0.0151056
773.824	0.0152769
773.902	0.0153191
773.980	0.0153368
774.058	0.0154394
774.136	0.0156016
774.215	0.0156548
774.293	0.0156466
774.371	0.0156620
774.449	0.0157526
774.527	0.0155527
774.605	0.0154861
774.683	0.0154427
774.761	0.0153580
774.840	0.0152174
774.918	0.0151665
774.996	0.0149907
775.074	0.0149424
775.152	0.0149104
775.230	0.0146944
775.308	0.0145890
775.386	0.0143865
775.465	0.0145263
775.543	0.0144009
775.621	0.0144221
775.699	0.0146419
775.777	0.0147024
775.855	0.0148071
775.933	0.0148955
776.011	0.0150145
776.090	0.0152369
776.168	0.0152545
776.246	0.0154522
776.324	0.0155559
776.402	0.0156713
776.480	0.0157399
776.558	0.0157362
776.636	0.0157628
776.715	0.0158209
776.793	0.0159784
776.871	0.0157218
776.949	0.0156060
777.027	0.0155270
777.105	0.0153546
777.183	0.0153232
777.261	0.0151413
777.340	0.0151144
777.418	0.0148788
777.496	0.0146608
777.574	0.0148041
777.652	0.0146443
777.730	0.0145078
777.808	0.0145857
777.886	0.0145679
777.965	0.0145994
778.043	0.0145459
778.121	0.0146267
778.199	0.0147168
778.277	0.0149305
778.355	0.0149989
778.433	0.0150760
778.511	0.0149794
778.590	0.0151493
778.668	0.0151729
778.746	0.0152640
778.824	0.0151791
778.902	0.0152592
778.980	0.0150895
779.058	0.0152049
779.136	0.0151031
779.215	0.0150246
779.293	0.0149281
779.371	0.0148706
779.449	0.0148467
779.527	0.0147616
779.605	0.0146638
779.683	0.0148259
779.761	0.0147354
779.840	0.0146307
779.918	0.0147286
779.996	0.0146270
780.074	0.0147898
780.152	0.0148643
780.230	0.0149535
780.308	0.0149940
780.386	0.0150552
780.465	0.0150861
780.543	0.0152895
780.621	0.0154060
780.699	0.0154230
780.777	0.0153957
780.855	0.0153680
780.933	0.0153362
781.011	0.0153689
781.090	0.0152750
781.168	0.0152621
781.246	0.0151727
781.324	0.0152735
781.402	0.0150474
781.480	0.0149799
781.558	0.0151032
781.636	0.0150095
781.715	0.0148614
781.793	0.0147746
781.871	0.0148033
781.949	0.0147633
782.027	0.0146576
782.105	0.0147674
782.183	0.0149065
782.261	0.0147594
782.340	0.0148405
782.418	0.0148022
782.496	0.0146689
782.574	0.0148930
782.652	0.0149946
782.730	0.0148940
782.808	0.0149653
782.886	0.0148792
782.965	0.0150169
783.043	0.0150616
783.121	0.0150391
783.199	0.0150776
783.277	0.0150493
783.355	0.0151900
783.433	0.0151952
783.511	0.0151501
783.590	0.0152664
783.668	0.0153335
783.746	0.0152844
783.824	0.0153111
783.902	0.0154398
783.980	0.0154610
784.058	0.0152606
784.136	0.0153821
784.215	0.0152891
784.293	0.0152256
784.371	0.0152325
784.449	0.0152534
784.527	0.0152482
784.605	0.0152415
784.683	0.0152384
784.761	0.0150889
784.840	0.0150488
784.918	0.0150507
784.996	0.0150232
785.074	0.0150243
785.152	0.0148994
785.230	0.0149955
785.308	0.0148322
785.386	0.0146622
785.465	0.0148693
785.543	0.0149299
785.621	0.0146577
785.699	0.0147823
785.777	0.0147624
785.855	0.0147301
785.933	0.0148269
786.011	0.0148463
786.090	0.0148367
786.168	0.0148601
786.246	0.0149093
786.324	0.0148923
786.402	0.0148941
786.480	0.0150170
786.558	0.0151237
786.636	0.0150571
786.715	0.0149145
786.793	0.0151323
786.871	0.0151398
786.949	0.0152794
787.027	0.0151175
787.105	0.0151643
787.183	0.0151311
787.261	0.0151558
787.340	0.0152025
787.418	0.0152922
787.496	0.0150840
787.574	0.0149548
787.652	0.0151352
787.730	0.0150574
787.808	0.0150306
787.886	0.0149205
787.965	0.0149100
788.043	0.0148284
788.121	0.0149743
788.199	0.0148776
788.277	0.0148264
788.355	0.0149369
788.433	0.0150077
788.511	0.0149854
788.590	0.0149789
788.668	0.0149542
788.746	0.0150033
788.824	0.0150074
788.902	0.0151156
788.980	0.0150430
789.058	0.0150036
789.136	0.0149454
789.215	0.0150953
789.293	0.0150038
789.371	0.0148238
789.449	0.0149820
789.527	0.0148518
789.605	0.0147781
789.683	0.0147771
789.761	0.0148880
789.840	0.0148984
789.918	0.0149545
789.996	0.0149334
790.074	0.0149905
790.152	0.0150056
790.230	0.0150311
790.308	0.0152120
790.386	0.0150504
790.465	0.0151359
790.543	0.0152623
790.621	0.0153926
790.699	0.0151907
790.777	0.0152979
790.855	0.0151524
790.933	0.0152806
791.011	0.0152253
791.090	0.0152193
791.168	0.0150832
791.246	0.0149793
791.324	0.0149332
791.402	0.0148824
791.480	0.0149912
791.558	0.0149004
791.636	0.0148406
791.715	0.0150045
791.793	0.0148143
791.871	0.0148131
791.949	0.0148337
792.027	0.0149355
792.105	0.0148914
792.183	0.0150253
792.261	0.0150758
792.340	0.0150873
792.418	0.0151589
792.496	0.0152733
792.574	0.0151493
792.652	0.0152131
792.730	0.0153355
792.808	0.0153630
792.886	0.0154305
792.965	0.0153522
793.043	0.0153485
793.121	0.0153300
793.199	0.0153097
793.277	0.0154440
793.355	0.0153167
793.433	0.0152531
793.511	0.0152532
793.590	0.0151125
793.668	0.0150261
793.746	0.0150748
793.824	0.0148634
793.902	0.0149217
793.980	0.0149364
794.058	0.0148765
794.136	0.0149387
794.215	0.0149666
794.293	0.0149332
794.371	0.0149319
794.449	0.0147842
794.527	0.0150304
794.605	0.0151287
794.683	0.0150693
794.761	0.0151161
794.840	0.0151900
794.918	0.0151366
794.996	0.0151531
795.074	0.0152787
795.152	0.0152140
795.230	0.0153345
795.308	0.0151447
795.386	0.0151631
795.465	0.0151508
795.543	0.0150670
795.621	0.0150714
795.699	0.0151329
795.777	0.0148815
795.855	0.0149092
795.933	0.0148852
796.011	0.0148341
796.090	0.0148370
796.168	0.0150050
796.246	0.0148256
796.324	0.0148089
796.402	0.0147958
796.480	0.0149262
796.558	0.0150085
796.636	0.0150803
796.715	0.0151192
796.793	0.0150331
796.871	0.0152517
796.949	0.0152392
797.027	0.0151691
797.105	0.0152412
797.183	0.0151759
797.261	0.0150383
797.340	0.0151070
797.418	0.0151447
797.496	0.0151838
797.574	0.0151559
797.652	0.0149932
797.730	0.0150903
797.808	0.0149305
797.886	0.0147722
797.965	0.0149185
798.043	0.0147787
798.121	0.0147537
798.199	0.0146154
798.277	0.0146375
798.355	0.0147596
798.433	0.0148363
798.511	0.0146791
798.590	0.0147105
798.668	0.0148159
798.746	0.0148762
798.824	0.0147911
798.902	0.0149203
798.980	0.0149889
799.058	0.0149842
799.136	0.0150676
799.215	0.0151066
799.293	0.0150904
799.371	0.0151477
799.449	0.0150697
799.527	0.0151389
799.605	0.0152433
799.683	0.0151572
799.761	0.0151334
799.840	0.0150960
799.918	0.0152309
799.996	0.0150964
800.074	0.0150952
800.152	0.0149996
800.230	0.0150813
800.308	0.0150562
800.386	0.0149643
800.465	0.0148984
800.543	0.0148523
800.621	0.0150275
800.699	0.0149403
800.777	0.0149288
800.855	0.0150376
800.933	0.0149812
801.011	0.0150977
801.090	0.0149375
801.168	0.0150139
801.246	0.0151720
801.324	0.0150338
801.402	0.0150727
801.480	0.0151054
801.558	0.0150790
801.636	0.0150655
801.715	0.0151649
801.793	0.0151042
801.871	0.0149608
801.949	0.0150492
802.027	0.0149621
802.105	0.0149589
802.183	0.0149835
802.261	0.0149552
802.340	0.0151807
802.418	0.0149549
802.496	0.0148927
802.574	0.0147909
802.652	0.0149149
802.730	0.0148381
802.808	0.0148336
802.886	0.0149133
802.965	0.0148315
803.043	0.0149319
803.121	0.0149060
803.199	0.0151077
803.277	0.0150881
803.355	0.0149645
803.433	0.0149488
803.511	0.0150362
803.590	0.0150287
803.668	0.0149094
803.746	0.0150460
803.824	0.0150826
803.902	0.0150679
803.980	0.0150352
804.058	0.0150634
804.136	0.0150478
804.215	0.0151395
804.293	0.0150384
804.371	0.0149792
804.449	0.0150792
804.527	0.0149662
804.605	0.0150177
804.683	0.0149529
804.761	0.0149075
804.840	0.0150225
804.918	0.0149027
804.996	0.0150546
805.074	0.0150523
805.152	0.0149084
805.230	0.0148943
805.308	0.0149478
805.386	0.0151243
805.465	0.0148686
805.543	0.0150660
805.621	0.0149480
805.699	0.0151347
805.777	0.0150223
805.855	0.0150276
805.933	0.0150397
806.011	0.0150733
806.090	0.0151215
806.168	0.0150434
806.246	0.0150204
806.324	0.0151551
806.402	0.0149921
806.480	0.0149574
806.558	0.0149108
806.636	0.0149417
806.715	0.0149549
806.793	0.0149339
806.871	0.0149014
806.949	0.0147382
807.027	0.0148703
807.105	0.0149407
807.183	0.0148552
807.261	0.0148399
807.340	0.0147844
807.418	0.0149976
807.496	0.0149395
807.574	0.0149937
807.652	0.0151057
807.730	0.0150948
807.808	0.0151104
807.886	0.0152873
807.965	0.0152323
808.043	0.0151759
808.121	0.0150590
808.199	0.0153732
808.277	0.0152595
808.355	0.0151009
808.433	0.0151211
808.511	0.0151731
808.590	0.0151673
808.668	0.0150489
808.746	0.0149955
808.824	0.0151211
808.902	0.0149078
808.980	0.0149538
809.058	0.0149239
809.136	0.0149010
809.215	0.0149030
809.293	0.0149168
809.371	0.0150394
809.449	0.0150519
809.527	0.0149214
809.605	0.0150739
809.683	0.0151112
809.761	0.0150664
809.840	0.0152149
809.918	0.0150255
809.996	0.0149487
810.074	0.0151422
810.152	0.0151028
810.230	0.0152462
810.308	0.0151030
810.386	0.0150387
810.465	0.0149696
810.543	0.0151463
810.621	0.0150097
810.699	0.0150418
810.777	0.0150542
810.855	0.0149767
810.933	0.0148813
811.011	0.0149960
811.090	0.0149448
811.168	0.0148825
811.246	0.0149129
811.324	0.0149039
811.402	0.0150728
811.480	0.0151299
811.558	0.0150830
811.636	0.0151134
811.715	0.0152800
811.793	0.0152930
811.871	0.0152242
811.949	0.0153281
812.027	0.0151542
812.105	0.0152612
812.183	0.0152851
812.261	0.0153384
812.340	0.0151553
812.418	0.0152488
812.496	0.0150454
812.574	0.0151468
812.652	0.0151485
812.730	0.0150286
812.808	0.0150092
812.886	0.0151239
812.965	0.0150599
813.043	0.0150114
813.121	0.0149156
813.199	0.0148920
813.277	0.0150450
813.355	0.0149902
813.433	0.0148913
813.511	0.0147427
813.590	0.0147687
813.668	0.0148573
813.746	0.0147346
813.824	0.0148495
813.902	0.0148704
813.980	0.0148434
814.058	0.0148488
814.136	0.0148774
814.215	0.0149090
814.293	0.0149234
814.371	0.0148475
814.449	0.0147862
814.527	0.0149619
814.605	0.0149765
814.683	0.0149708
814.761	0.0149686
814.840	0.0150453
814.918	0.0151329
814.996	0.0150815
815.074	0.0151904
815.152	0.0152243
815.230	0.0151716
815.308	0.0152890
815.386	0.0152901
815.465	0.0152229
815.543	0.0151564
815.621	0.0151982
815.699	0.0151512
815.777	0.0152753
815.855	0.0151776
815.933	0.0152041
816.011	0.0152587
816.090	0.0151539
816.168	0.0150901
816.246	0.0152577
816.324	0.0151389
816.402	0.0151849
816.480	0.0152179
816.558	0.0151114
816.636	0.0151322
816.715	0.0150712
816.793	0.0151179
816.871	0.0151482
816.949	0.0151833
817.027	0.0150386
817.105	0.0150957
817.183	0.0150642
817.261	0.0151051
817.340	0.0150604
817.418	0.0149831
817.496	0.0150919
817.574	0.0148551
817.652	0.0150040
817.730	0.0150397
817.808	0.0149477
817.886	0.0149760
817.965	0.0150456
818.043	0.0149049
818.121	0.0150610
818.199	0.0151369
818.277	0.0150739
818.355	0.0151624
818.433	0.0153130
818.511	0.0153291
818.590	0.0151651
818.668	0.0152923
818.746	0.0153059
818.824	0.0151730
818.902	0.0151827
818.980	0.0150413
819.058	0.0150417
819.136	0.0150542
819.215	0.0150936
819.293	0.0149740
819.371	0.0149438
819.449	0.0148010
819.527	0.0150130
819.605	0.0148199
819.683	0.0148055
819.761	0.0149517
819.840	0.0148318
819.918	0.0150195
819.996	0.0147793
820.074	0.0148966
820.152	0.0149849
820.230	0.0149152
820.308	0.0149655
820.386	0.0149035
820.465	0.0150361
820.543	0.0150776
820.621	0.0150339
820.699	0.0150337
820.777	0.0149398
820.855	0.0151586
820.933	0.0150938
821.011	0.0150222
821.090	0.0150966
821.168	0.0150699
821.246	0.0151401
821.324	0.0150956
821.402	0.0151534
821.480	0.0151958
821.558	0.0150762
821.636	0.0151714
821.715	0.0150862
821.793	0.0152332
821.871	0.0151712
821.949	0.0150094
822.027	0.0150301
822.105	0.0152097
822.183	0.0151336
822.261	0.0151782
822.340	0.0153561
822.418	0.0152370
822.496	0.0151696
822.574	0.0152188
822.652	0.0152268
822.730	0.0153590
822.808	0.0152830
822.886	0.0152319
822.965	0.0153099
823.043	0.0151634
823.121	0.0151287
823.199	0.0151581
823.277	0.0150290
823.355	0.0150602
823.433	0.0150980
823.511	0.0150954
823.590	0.0149518
823.668	0.0149109
823.746	0.0149139
823.824	0.0150229
823.902	0.0149957
823.980	0.0148396
824.058	0.0148283
824.136	0.0149112
824.215	0.0149141
824.293	0.0148835
824.371	0.0151257
824.449	0.0150940
824.527	0.0149221
824.605	0.0151011
824.683	0.0150624
824.761	0.0150729
824.840	0.0149986
824.918	0.0151372
824.996	0.0150925
825.074	0.0150384
825.152	0.0150039
825.230	0.0149901
825.308	0.0148878
825.386	0.0149201
825.465	0.0148395
825.543	0.0148251
825.621	0.0150018
825.699	0.0147809
825.777	0.0149335
825.855	0.0147340
825.933	0.0148627
826.011	0.0146772
826.090	0.0146870
826.168	0.0147990
826.246	0.0149202
826.324	0.0148587
826.402	0.0148598
826.480	0.0148077
826.558	0.0147760
826.636	0.0148510
826.715	0.0149758
826.793	0.0149273
826.871	0.0149666
826.949	0.0149690
827.027	0.0149867
827.105	0.0150024
827.183	0.0150987
827.261	0.0151302
827.340	0.0150927
827.418	0.0150977
827.496	0.0150510
827.574	0.0150563
827.652	0.0152039
827.730	0.0151339
827.808	0.0152773
827.886	0.0152080
827.965	0.0151723
828.043	0.0152431
828.121	0.0153718
828.199	0.0153397
828.277	0.0152282
828.355	0.0153911
828.433	0.0154305
828.511	0.0153130
828.590	0.0153667
828.668	0.0153924
828.746	0.0153225
828.824	0.0153475
828.902	0.0151617
828.980	0.0155137
829.058	0.0154218
829.136	0.0152733
829.215	0.0152663
829.293	0.0153405
829.371	0.0152643
829.449	0.0153144
829.527	0.0151130
829.605	0.0151555
829.683	0.0151184
829.761	0.0149474
829.840	0.0150553
829.918	0.0149829
829.996	0.0151576
830.074	0.0148975
830.152	0.0149035
830.230	0.0148722
830.308	0.0149136
830.386	0.0147517
830.465	0.0148216
830.543	0.0148953
830.621	0.0149033
830.699	0.0149323
830.777	0.0148922
830.855	0.0148554
830.933	0.0149236
831.011	0.0149651
831.090	0.0149012
831.168	0.0150658
831.246	0.0149031
831.324	0.0149568
831.402	0.0150751
831.480	0.0150664
831.558	0.0150783
831.636	0.0150742
831.715	0.0150364
831.793	0.0151261
831.871	0.0150826
831.949	0.0151610
832.027	0.0150913
832.105	0.0149676
832.183	0.0150464
832.261	0.0149906
832.340	0.0148683
832.418	0.0149352
832.496	0.0149986
832.574	0.0148408
832.652	0.0147397
832.730	0.0145873
832.808	0.0147186
832.886	0.0148253
832.965	0.0146439
833.043	0.0147735
833.121	0.0147093
833.199	0.0147064
833.277	0.0147782
833.355	0.0145351
833.433	0.0148970
833.511	0.0148697
833.590	0.0147912
833.668	0.0147902
833.746	0.0150159
833.824	0.0150253
833.902	0.0150145
833.980	0.0152658
834.058	0.0151758
834.136	0.0153860
834.215	0.0151662
834.293	0.0151058
834.371	0.0152849
834.449	0.0153514
834.527	0.0153801
834.605	0.0154939
834.683	0.0153220
834.761	0.0152998
834.840	0.0153262
834.918	0.0153690
834.996	0.0152959
835.074	0.0154512
835.152	0.0154419
835.230	0.0153641
835.308	0.0153587
835.386	0.0153774
835.465	0.0155258
835.543	0.0153237
835.621	0.0152217
835.699	0.0152633
835.777	0.0152729
835.855	0.0151662
835.933	0.0151646
836.011	0.0150344
836.090	0.0151751
836.168	0.0150586
836.246	0.0151446
836.324	0.0150515
836.402	0.0150833
836.480	0.0150299
836.558	0.0151043
836.636	0.0150160
836.715	0.0149817
836.793	0.0150312
836.871	0.0151144
836.949	0.0148699
837.027	0.0150471
837.105	0.0148006
837.183	0.0147307
837.261	0.0148659
837.340	0.0148685
837.418	0.0148933
837.496	0.0148915
837.574	0.0149791
837.652	0.0148357
837.730	0.0148017
837.808	0.0149609
837.886	0.0149015
837.965	0.0149113
838.043	0.0150098
838.121	0.0150198
838.199	0.0150314
838.277	0.0152024
838.355	0.0149988
838.433	0.0149712
838.511	0.0151300
838.590	0.0150880
838.668	0.0149897
838.746	0.0149939
838.824	0.0152560
838.902	0.0150759
838.980	0.0150482
839.058	0.0150908
839.136	0.0151654
839.215	0.0150028
839.293	0.0150980
839.371	0.0150553
839.449	0.0149749
839.527	0.0151318
839.605	0.0150051
839.683	0.0149513
839.761	0.0147850
839.840	0.0148562
839.918	0.0148811
839.996	0.0148116
840.074	0.0148108
840.152	0.0149046
840.230	0.0148883
840.308	0.0148061
840.386	0.0148126
840.465	0.0147485
840.543	0.0148867
840.621	0.0150554
840.699	0.0148761
840.777	0.0150628
840.855	0.0151128
840.933	0.0150558
841.011	0.0150896
841.090	0.0151286
841.168	0.0151687
841.246	0.0152579
841.324	0.0153716
841.402	0.0153664
841.480	0.0151954
841.558	0.0154395
841.636	0.0153126
841.715	0.0153318
841.793	0.0153860
841.871	0.0154305
841.949	0.0153716
842.027	0.0152493
842.105	0.0153041
842.183	0.0153902
842.261	0.0152720
842.340	0.0152589
842.418	0.0152668
842.496	0.0150974
842.574	0.0151727
842.652	0.0152065
842.730	0.0151929
842.808	0.0151186
842.886	0.0150298
842.965	0.0149660
843.043	0.0151488
843.121	0.0150002
843.199	0.0149837
843.277	0.0150051
843.355	0.0148475
843.433	0.0149718
843.511	0.0149539
843.590	0.0149551
843.668	0.0149406
843.746	0.0148595
843.824	0.0148636
843.902	0.0149157
843.980	0.0148387
844.058	0.0149758
844.136	0.0149165
844.215	0.0149706
844.293	0.0150605
844.371	0.0149882
844.449	0.0149792
844.527	0.0150010
844.605	0.0149820
844.683	0.0151057
844.761	0.0152196
844.840	0.0151100
844.918	0.0151132
844.996	0.0151588
845.074	0.0152461
845.152	0.0152188
845.230	0.0152887
845.308	0.0153640
845.386	0.0153502
845.465	0.0153032
845.543	0.0152940
845.621	0.0153460
845.699	0.0151955
845.777	0.0152055
845.855	0.0153107
845.933	0.0152024
846.011	0.0151032
846.090	0.0151418
846.168	0.0152361
846.246	0.0150864
846.324	0.0150591
846.402	0.0150990
846.480	0.0150733
846.558	0.0150703
846.636	0.0150095
846.715	0.0150461
846.793	0.0149723
846.871	0.0151169
846.949	0.0150391
847.027	0.0150814
847.105	0.0150803
847.183	0.0149613
847.261	0.0150034
847.340	0.0150622
847.418	0.0150060
847.496	0.0151046
847.574	0.0149805
847.652	0.0150169
847.730	0.0148753
847.808	0.0150859
847.886	0.0150119
847.965	0.0149681
848.043	0.0151556
848.121	0.0150222
848.199	0.0149788
848.277	0.0151527
848.355	0.0149487
848.433	0.0149762
848.511	0.0151662
848.590	0.0151653
848.668	0.0150359
848.746	0.0151893
848.824	0.0151871
848.902	0.0151776
848.980	0.0151421
849.058	0.0151331
849.136	0.0151384
849.215	0.0151505
849.293	0.0150789
849.371	0.0150665
849.449	0.0150922
849.527	0.0152110
849.605	0.0150778
849.683	0.0150128
849.761	0.0150094
849.840	0.0150159
849.918	0.0149831
849.996	0.0149377
850.074	0.0148397
850.152	0.0149137
850.230	0.0148611
850.308	0.0149821
850.386	0.0148897
850.465	0.0148682
850.543	0.0148946
850.621	0.0149471
850.699	0.0148744
850.777	0.0148015
850.855	0.0149435
850.933	0.0150008
851.011	0.0150574
851.090	0.0150033
851.168	0.0150952
851.246	0.0149900
851.324	0.0150853
851.402	0.0151672
851.480	0.0150494
851.558	0.0150319
851.636	0.0151848
851.715	0.0151926
851.793	0.0152382
851.871	0.0152230
851.949	0.0153348
852.027	0.0151579
852.105	0.0152467
852.183	0.0152541
852.261	0.0152944
852.340	0.0153003
852.418	0.0152492
852.496	0.0154289
852.574	0.0152682
852.652	0.0152630
852.730	0.0153984
852.808	0.0153917
852.886	0.0153672
852.965	0.0153106
853.043	0.0152540
853.121	0.0151894
853.199	0.0153011
853.277	0.0151788
853.355	0.0151836
853.433	0.0151057
853.511	0.0150922
853.590	0.0152666
853.668	0.0151852
853.746	0.0150511
853.824	0.0151254
853.902	0.0150130
853.980	0.0150065
854.058	0.0149411
854.136	0.0147899
854.215	0.0149185
854.293	0.0150008
854.371	0.0149275
854.449	0.0149042
854.527	0.0148042
854.605	0.0148481
854.683	0.0149882
854.761	0.0149864
854.840	0.0147705
854.918	0.0148598
854.996	0.0149393
855.074	0.0150849
855.152	0.0150471
855.230	0.0150049
855.308	0.0149881
855.386	0.0151391
855.465	0.0150866
855.543	0.0151248
855.621	0.0151452
855.699	0.0152325
855.777	0.0151182
855.855	0.0151318
855.933	0.0151003
856.011	0.0151922
856.090	0.0153067
856.168	0.0151974
856.246	0.0150601
856.324	0.0150849
856.402	0.0150539
856.480	0.0150981
856.558	0.0149876
856.636	0.0149781
856.715	0.0150504
856.793	0.0149839
856.871	0.0151562
856.949	0.0150616
857.027	0.0149110
857.105	0.0148129
857.183	0.0149348
857.261	0.0149069
857.340	0.0149113
857.418	0.0149224
857.496	0.0148719
857.574	0.0149421
857.652	0.0150386
857.730	0.0151781
857.808	0.0150253
857.886	0.0150465
857.965	0.0150949
858.043	0.0150686
858.121	0.0151264
858.199	0.0151424
858.277	0.0151392
858.355	0.0151765
858.433	0.0150763
858.511	0.0151563
858.590	0.0152075
858.668	0.0151846
858.746	0.0151504
858.824	0.0151637
858.902	0.0152025
858.980	0.0152493
859.058	0.0153150
859.136	0.0151356
859.215	0.0150835
859.293	0.0152194
859.371	0.0150900
859.449	0.0150151
859.527	0.0150523
859.605	0.0152106
859.683	0.0151200
859.761	0.0151148
859.840	0.0150620
859.918	0.0151859
859.996	0.0150851
860.074	0.0148991
860.152	0.0150278
860.230	0.0150822
860.308	0.0150388
860.386	0.0149433
860.465	0.0149937
860.543	0.0149563
860.621	0.0150546
860.699	0.0151305
860.777	0.0150833
860.855	0.0149565
860.933	0.0149390
861.011	0.0148994
861.090	0.0149474
861.168	0.0149551
861.246	0.0149944
861.324	0.0149803
861.402	0.0150268
861.480	0.0151134
861.558	0.0149168
861.636	0.0149883
861.715	0.0149924
861.793	0.0150897
861.871	0.0150618
861.949	0.0150748
862.027	0.0151954
862.105	0.0149693
862.183	0.0150102
862.261	0.0150652
862.340	0.0151281
862.418	0.0152115
862.496	0.0152004
862.574	0.0152384
862.652	0.0152704
862.730	0.0151323
862.808	0.0151515
862.886	0.0151028
862.965	0.0151526
863.043	0.0151205
863.121	0.0151418
863.199	0.0150793
863.277	0.0150824
863.355	0.0151336
863.433	0.0148989
863.511	0.0150246
863.590	0.0150426
863.668	0.0151791
863.746	0.0150064
863.824	0.0149655
863.902	0.0149778
863.980	0.0150615
864.058	0.0150869
864.136	0.0150536
864.215	0.0150440
864.293	0.0149852
864.371	0.0150731
864.449	0.0150443
864.527	0.0151506
864.605	0.0152167
864.683	0.0150767
864.761	0.0150951
864.840	0.0151010
864.918	0.0150814
864.996	0.0151201
865.074	0.0150333
865.152	0.0151867
865.230	0.0150655
865.308	0.0149601
865.386	0.0150047
865.465	0.0153011
865.543	0.0149903
865.621	0.0150594
865.699	0.0149551
865.777	0.0150204
865.855	0.0151070
865.933	0.0150119
866.011	0.0149387
866.090	0.0149628
866.168	0.0150877
866.246	0.0150954
866.324	0.0150131
866.402	0.0151043
866.480	0.0150835
866.558	0.0150859
866.636	0.0149060
866.715	0.0150764
866.793	0.0149742
866.871	0.0149139
866.949	0.0150013
867.027	0.0149004
867.105	0.0149245
867.183	0.0148465
867.261	0.0149344
867.340	0.0150095
867.418	0.0147974
867.496	0.0148430
867.574	0.0148633
867.652	0.0149384
867.730	0.0148863
867.808	0.0149462
867.886	0.0150241
867.965	0.0150745
868.043	0.0149751
868.121	0.0149471
868.199	0.0151296
868.277	0.0150439
868.355	0.0151514
868.433	0.0150871
868.511	0.0151598
868.590	0.0152452
868.668	0.0151845
868.746	0.0151649
868.824	0.0151580
868.902	0.0153175
868.980	0.0152208
869.058	0.0152717
869.136	0.0152500
869.215	0.0151701
869.293	0.0153096
869.371	0.0153095
869.449	0.0151589
869.527	0.0152596
869.605	0.0152886
869.683	0.0152549
869.761	0.0151645
869.840	0.0150404
869.918	0.0151785
869.996	0.0150766
870.074	0.0149722
870.152	0.0149307
870.230	0.0149987
870.308	0.0150946
870.386	0.0149978
870.465	0.0149059
870.543	0.0148418
870.621	0.0149003
870.699	0.0150532
870.777	0.0149580
870.855	0.0150299
870.933	0.0150800
871.011	0.0150271
871.090	0.0150777
871.168	0.0150040
871.246	0.0149815
871.324	0.0149564
871.402	0.0150809
871.480	0.0151124
871.558	0.0151568
871.636	0.0150874
871.715	0.0150639
871.793	0.0150100
871.871	0.0149287
871.949	0.0149936
872.027	0.0151193
872.105	0.0150864
872.183	0.0149173
872.261	0.0148876
872.340	0.0150284
872.418	0.0150285
872.496	0.0150545
872.574	0.0149053
872.652	0.0150003
872.730	0.0150005
872.808	0.0149943
872.886	0.0149452
872.965	0.0150548
873.043	0.0151237
873.121	0.0150233
873.199	0.0150777
873.277	0.0150133
873.355	0.0149693
873.433	0.0148793
873.511	0.0149592
873.590	0.0150833
873.668	0.0149159
873.746	0.0148698
873.824	0.0148881
873.902	0.0150589
873.980	0.0150974
874.058	0.0150253
874.136	0.0149883
874.215	0.0149207
874.293	0.0151033
874.371	0.0150953
874.449	0.0149052
874.527	0.0149942
874.605	0.0149731
874.683	0.0150723
874.761	0.0149999
874.840	0.0151431
874.918	0.0150925
874.996	0.0150559
875.074	0.0151986
875.152	0.0150922
875.230	0.0153966
875.308	0.0152972
875.386	0.0151565
875.465	0.0152419
875.543	0.0152289
875.621	0.0153076
875.699	0.0151741
875.777	0.0153024
875.855	0.0152016
875.933	0.0153392
876.011	0.0151536
876.090	0.0153329
876.168	0.0152217
876.246	0.0151031
876.324	0.0150687
876.402	0.0151219
876.480	0.0150362
876.558	0.0151253
876.636	0.0150524
876.715	0.0148808
876.793	0.0149588
876.871	0.0149617
876.949	0.0149669
877.027	0.0147726
877.105	0.0149704
877.183	0.0150291
877.261	0.0149654
877.340	0.0148914
877.418	0.0149504
877.496	0.0149445
877.574	0.0150505
877.652	0.0151379
877.730	0.0150081
877.808	0.0150388
877.886	0.0150706
877.965	0.0151574
878.043	0.0151699
878.121	0.0150385
878.199	0.0150529
878.277	0.0151367
878.355	0.0149944
878.433	0.0149927
878.511	0.0150820
878.590	0.0150630
878.668	0.0150510
878.746	0.0149365
878.824	0.0151054
878.902	0.0149426
878.980	0.0148721
879.058	0.0149635
879.136	0.0147489
879.215	0.0148038
879.293	0.0148661
879.371	0.0149069
879.449	0.0149539
879.527	0.0149419
879.605	0.0149096
879.683	0.0148489
879.761	0.0148122
879.840	0.0149020
879.918	0.0149106
879.996	0.0150095
880.074	0.0149890
880.152	0.0149144
880.230	0.0149880
880.308	0.0150094
880.386	0.0150717
880.465	0.0151235
880.543	0.0151636
880.621	0.0150016
880.699	0.0151212
880.777	0.0149789
880.855	0.0149821
880.933	0.0150891
881.011	0.0150380
881.090	0.0151437
881.168	0.0151442
881.246	0.0151709
881.324	0.0151681
881.402	0.0151846
881.480	0.0151151
881.558	0.0151882
881.636	0.0151527
881.715	0.0153001
881.793	0.0151750
881.871	0.0150365
881.949	0.0150120
882.027	0.0152486
882.105	0.0153694
882.183	0.0151300
882.261	0.0150560
882.340	0.0150278
882.418	0.0152170
882.496	0.0152065
882.574	0.0152371
882.652	0.0150238
882.730	0.0151048
882.808	0.0151225
882.886	0.0150864
882.965	0.0150315
883.043	0.0148317
883.121	0.0149314
883.199	0.0150134
883.277	0.0150980
883.355	0.0151267
883.433	0.0149689
883.511	0.0150318
883.590	0.0150089
883.668	0.0149778
883.746	0.0149210
883.824	0.0151188
883.902	0.0150880
883.980	0.0151464
884.058	0.0148579
884.136	0.0148695
884.215	0.0150314
884.293	0.0149500
884.371	0.0150122
884.449	0.0149848
884.527	0.0150726
884.605	0.0150298
884.683	0.0150311
884.761	0.0149718
884.840	0.0150141
884.918	0.0151189
884.996	0.0150316
885.074	0.0151901
885.152	0.0151286
885.230	0.0150631
885.308	0.0150064
885.386	0.0149348
885.465	0.0150501
885.543	0.0149016
885.621	0.0149641
885.699	0.0151317
885.777	0.0149615
885.855	0.0150191
885.933	0.0151038
886.011	0.0149570
886.090	0.0149877
886.168	0.0150716
886.246	0.0150577
886.324	0.0150019
886.402	0.0149194
886.480	0.0148605
886.558	0.0149145
886.636	0.0149764
886.715	0.0148658
886.793	0.0150214
886.871	0.0149718
886.949	0.0150872
887.027	0.0150044
887.105	0.0149966
887.183	0.0149709
887.261	0.0150945
887.340	0.0150829
887.418	0.0150793
887.496	0.0150274
887.574	0.0150867
887.652	0.0150745
887.730	0.0152733
887.808	0.0152659
887.886	0.0151889
887.965	0.0152869
888.043	0.0151907
888.121	0.0150654
888.199	0.0152244
888.277	0.0151807
888.355	0.0151825
888.433	0.0151505
888.511	0.0151709
888.590	0.0151008
888.668	0.0150560
888.746	0.0150055
888.824	0.0151495
888.902	0.0150703
888.980	0.0151091
889.058	0.0152134
889.136	0.0150335
889.215	0.0150371
889.293	0.0150350
889.371	0.0151325
889.449	0.0151683
889.527	0.0150323
889.605	0.0151305
889.683	0.0150053
889.761	0.0151781
889.840	0.0150013
889.918	0.0150782
889.996	0.0148544
890.074	0.0150254
890.152	0.0151573
890.230	0.0151004
890.308	0.0149982
890.386	0.0150468
890.465	0.0149996
890.543	0.0150266
890.621	0.0150048
890.699	0.0150429
890.777	0.0150551
890.855	0.0149680
890.933	0.0150435
891.011	0.0150584
891.090	0.0148977
891.168	0.0149817
891.246	0.0151929
891.324	0.0150877
891.402	0.0150727
891.480	0.0151520
891.558	0.0150833
891.636	0.0151928
891.715	0.0152216
891.793	0.0150684
891.871	0.0150550
891.949	0.0151054
892.027	0.0151215
892.105	0.0151021
892.183	0.0151547
892.261	0.0150646
892.340	0.0150772
892.418	0.0149825
892.496	0.0149937
892.574	0.0149588
892.652	0.0150359
892.730	0.0150704
892.808	0.0149757
892.886	0.0148881
892.965	0.0149213
893.043	0.0150401
893.121	0.0150094
893.199	0.0149882
893.277	0.0151312
893.355	0.0150750
893.433	0.0151598
893.511	0.0150429
893.590	0.0151768
893.668	0.0151569
893.746	0.0151791
893.824	0.0151279
893.902	0.0151541
893.980	0.0151192
894.058	0.0151810
894.136	0.0150254
894.215	0.0150278
894.293	0.0151627
894.371	0.0152000
894.449	0.0152021
894.527	0.0151462
894.605	0.0151825
894.683	0.0150780
894.761	0.0151093
894.840	0.0149820
894.918	0.0150191
894.996	0.0150767
895.074	0.0151623
895.152	0.0149767
895.230	0.0150503
895.308	0.0151045
895.386	0.0150606
895.465	0.0150887
895.543	0.0149882
895.621	0.0150991
895.699	0.0150380
895.777	0.0149353
895.855	0.0150228
895.933	0.0149104
896.011	0.0148052
896.090	0.0150324
896.168	0.0149346
896.246	0.0148331
896.324	0.0148635
896.402	0.0148745
896.480	0.0148473
896.558	0.0147672
896.636	0.0147747
896.715	0.0148042
896.793	0.0148786
896.871	0.0147164
896.949	0.0147587
897.027	0.0150170
897.105	0.0149185
897.183	0.0148587
897.261	0.0147887
897.340	0.0149686
897.418	0.0150305
897.496	0.0150045
897.574	0.0150781
897.652	0.0150392
897.730	0.0150463
897.808	0.0151791
897.886	0.0150745
897.965	0.0150963
898.043	0.0151128
898.121	0.0150535
898.199	0.0151218
898.277	0.0151143
898.355	0.0151476
898.433	0.0153044
898.511	0.0150204
898.590	0.0151936
898.668	0.0152847
898.746	0.0151163
898.824	0.0149820
898.902	0.0150748
898.980	0.0150694
899.058	0.0149330
899.136	0.0151035
899.215	0.0149790
899.293	0.0149664
899.371	0.0149227
899.449	0.0149413
899.527	0.0149213
899.605	0.0150100
899.683	0.0149927
899.761	0.0149975
899.840	0.0149133
899.918	0.0150314
899.996	0.0151366
900.074	0.0150059
900.152	0.0150022
900.230	0.0151226
900.308	0.0151368
900.386	0.0151017
900.465	0.0151609
900.543	0.0150941
900.621	0.0152731
900.699	0.0152301
900.777	0.0151888
900.855	0.0152501
900.933	0.0153037
901.011	0.0152522
901.090	0.0152724
901.168	0.0152704
901.246	0.0152248
901.324	0.0150448
901.402	0.0151669
901.480	0.0150499
901.558	0.0152323
901.636	0.0150645
901.715	0.0150945
901.793	0.0150450
901.871	0.0150254
901.949	0.0151940
902.027	0.0150072
902.105	0.0150578
902.183	0.0149813
902.261	0.0149982
902.340	0.0151012
902.418	0.0149712
902.496	0.0148470
902.574	0.0149927
902.652	0.0149315
902.730	0.0148271
902.808	0.0148123
902.886	0.0149915
902.965	0.0148419
903.043	0.0148793
903.121	0.0148955
903.199	0.0148576
903.277	0.0147734
903.355	0.0149117
903.433	0.0148327
903.511	0.0149255
903.590	0.0151029
903.668	0.0150521
903.746	0.0151557
903.824	0.0150657
903.902	0.0150880
903.980	0.0150501
904.058	0.0153023
904.136	0.0151178
904.215	0.0149888
904.293	0.0151352
904.371	0.0149954
904.449	0.0149908
904.527	0.0150571
904.605	0.0150568
904.683	0.0149167
904.761	0.0149969
904.840	0.0149437
904.918	0.0149914
904.996	0.0150083
905.074	0.0148985
905.152	0.0151340
905.230	0.0150050
905.308	0.0149606
905.386	0.0151092
905.465	0.0151799
905.543	0.0150028
905.621	0.0150060
905.699	0.0150570
905.777	0.0150603
905.855	0.0151263
905.933	0.0150782
906.011	0.0149120
906.090	0.0150681
906.168	0.0151104
906.246	0.0148953
906.324	0.0150315
906.402	0.0150021
906.480	0.0149715
906.558	0.0148402
906.636	0.0149995
906.715	0.0150586
906.793	0.0151730
906.871	0.0151291
906.949	0.0151646
907.027	0.0150457
907.105	0.0149865
907.183	0.0151444
907.261	0.0152400
907.340	0.0151839
907.418	0.0150794
907.496	0.0151601
907.574	0.0151254
907.652	0.0152757
907.730	0.0152431
907.808	0.0151208
907.886	0.0151062
907.965	0.0151079
908.043	0.0150815
908.121	0.0150266
908.199	0.0150455
908.277	0.0149444
908.355	0.0149128
908.433	0.0150849
908.511	0.0150768
908.590	0.0150184
908.668	0.0149034
908.746	0.0149696
908.824	0.0149646
908.902	0.0150404
908.980	0.0149044
909.058	0.0149595
909.136	0.0147414
909.215	0.0149028
909.293	0.0150842
909.371	0.0149433
909.449	0.0149509
909.527	0.0150304
909.605	0.0148981
909.683	0.0149436
909.761	0.0149776
909.840	0.0150297
909.918	0.0149031
909.996	0.0150920
910.074	0.0149736
910.152	0.0149654
910.230	0.0149841
910.308	0.0151061
910.386	0.0151082
910.465	0.0151543
910.543	0.0150554
910.621	0.0149483
910.699	0.0151650
910.777	0.0150320
910.855	0.0151225
910.933	0.0151083
911.011	0.0150327
911.090	0.0151164
911.168	0.0149667
911.246	0.0148979
911.324	0.0149974
911.402	0.0150232
911.480	0.0151117
911.558	0.0150197
911.636	0.0149471
911.715	0.0149329
911.793	0.0150449
911.871	0.0151131
911.949	0.0150134
912.027	0.0148849
912.105	0.0148766
912.183	0.0150748
912.261	0.0150266
912.340	0.0150307
912.418	0.0150219
912.496	0.0149235
912.574	0.0149828
912.652	0.0150636
912.730	0.0150510
912.808	0.0151106
912.886	0.0150079
912.965	0.0151103
913.043	0.0150583
913.121	0.0149607
913.199	0.0150752
913.277	0.0151353
913.355	0.0152011
913.433	0.0151865
913.511	0.0150647
913.590	0.0152025
913.668	0.0150996
913.746	0.0150433
913.824	0.0151865
913.902	0.0152368
913.980	0.0153091
914.058	0.0150715
914.136	0.0151013
914.215	0.0152015
914.293	0.0151816
914.371	0.0151004
914.449	0.0150034
914.527	0.0150865
914.605	0.0149873
914.683	0.0149546
914.761	0.0150467
914.840	0.0149336
914.918	0.0149615
914.996	0.0150698
915.074	0.0149413
915.152	0.0149618
915.230	0.0150178
915.308	0.0149934
915.386	0.0150498
915.465	0.0148804
915.543	0.0149522
915.621	0.0148775
915.699	0.0149085
915.777	0.0150033
915.855	0.0150893
915.933	0.0150906
916.011	0.0149652
916.090	0.0150791
916.168	0.0149334
916.246	0.0149469
916.324	0.0150279
916.402	0.0150939
916.480	0.0149892
916.558	0.0149443
916.636	0.0149917
916.715	0.0149284
916.793	0.0150606
916.871	0.0150068
916.949	0.0151608
917.027	0.0151034
917.105	0.0150504
917.183	0.0151701
917.261	0.0151295
917.340	0.0151817
917.418	0.0151329
917.496	0.0151572
917.574	0.0151853
917.652	0.0151217
917.730	0.0150481
917.808	0.0151254
917.886	0.0150530
917.965	0.0151003
918.043	0.0150387
918.121	0.0150634
918.199	0.0150721
918.277	0.0150277
918.355	0.0150741
918.433	0.0149038
918.511	0.0149651
918.590	0.0150211
918.668	0.0149500
918.746	0.0150006
918.824	0.0150659
918.902	0.0150403
918.980	0.0148499
919.058	0.0149223
919.136	0.0150288
919.215	0.0150458
919.293	0.0151254
919.371	0.0151355
919.449	0.0150530
919.527	0.0150781
919.605	0.0152182
919.683	0.0151486
919.761	0.0151643
919.840	0.0151060
919.918	0.0151028
919.996	0.0151731
920.074	0.0152654
920.152	0.0151022
920.230	0.0151595
920.308	0.0151954
920.386	0.0151838
920.465	0.0150961
920.543	0.0152356
920.621	0.0151801
920.699	0.0149397
920.777	0.0150837
920.855	0.0150760
920.933	0.0150219
921.011	0.0149973
921.090	0.0149329
921.168	0.0150896
921.246	0.0150734
921.324	0.0148850
921.402	0.0149883
921.480	0.0148690
921.558	0.0148854
921.636	0.0149168
921.715	0.0148779
921.793	0.0147321
921.871	0.0149189
921.949	0.0149433
922.027	0.0149397
922.105	0.0150092
922.183	0.0149221
922.261	0.0149554
922.340	0.0150730
922.418	0.0149377
922.496	0.0150824
922.574	0.0150269
922.652	0.0151357
922.730	0.0151483
922.808	0.0151897
922.886	0.0150875
922.965	0.0149870
923.043	0.0151409
923.121	0.0151587
923.199	0.0150623
923.277	0.0152342
923.355	0.0152636
923.433	0.0150407
923.511	0.0149690
923.590	0.0150095
923.668	0.0149989
923.746	0.0149780
923.824	0.0150830
923.902	0.0150639
923.980	0.0149364
924.058	0.0149361
924.136	0.0149683
924.215	0.0149437
924.293	0.0150120
924.371	0.0150933
924.449	0.0150074
924.527	0.0150886
924.605	0.0149719
924.683	0.0148096
924.761	0.0149537
924.840	0.0149175
924.918	0.0150351
924.996	0.0150253
925.074	0.0150340
925.152	0.0149975
925.230	0.0149537
925.308	0.0150748
925.386	0.0149640
925.465	0.0150426
925.543	0.0149741
925.621	0.0151436
925.699	0.0150825
925.777	0.0150416
925.855	0.0151070
925.933	0.0151040
926.011	0.0151151
926.090	0.0152016
926.168	0.0152040
926.246	0.0152405
926.324	0.0153462
926.402	0.0152433
926.480	0.0152475
926.558	0.0153055
926.636	0.0152721
926.715	0.0153484
926.793	0.0151839
926.871	0.0151087
926.949	0.0152519
927.027	0.0153249
927.105	0.0151968
927.183	0.0151225
927.261	0.0150596
927.340	0.0150867
927.418	0.0151756
927.496	0.0149487
927.574	0.0148994
927.652	0.0149137
927.730	0.0149256
927.808	0.0148477
927.886	0.0147956
927.965	0.0147100
928.043	0.0146764
928.121	0.0146637
928.199	0.0146951
928.277	0.0148138
928.355	0.0147362
928.433	0.0147273
928.511	0.0147079
928.590	0.0148902
928.668	0.0149746
928.746	0.0150017
928.824	0.0151241
928.902	0.0150794
928.980	0.0150982
929.058	0.0151974
929.136	0.0153998
929.215	0.0151617
929.293	0.0153147
929.371	0.0154172
929.449	0.0153807
929.527	0.0152319
929.605	0.0151376
929.683	0.0151295
929.761	0.0150677
929.840	0.0152155
929.918	0.0151215
929.996	0.0150372
930.074	0.0149492
930.152	0.0151137
930.230	0.0148666
930.308	0.0148754
930.386	0.0151337
930.465	0.0149328
930.543	0.0148190
930.621	0.0149795
930.699	0.0149492
930.777	0.0148293
930.855	0.0149928
930.933	0.0151161
931.011	0.0150787
931.090	0.0151559
931.168	0.0150797
931.246	0.0150980
931.324	0.0150349
931.402	0.0149189
931.480	0.0151093
931.558	0.0150694
931.636	0.0150345
931.715	0.0150883
931.793	0.0151980
931.871	0.0151997
931.949	0.0151862
932.027	0.0151615
932.105	0.0151689
932.183	0.0150027
932.261	0.0151460
932.340	0.0153046
932.418	0.0152021
932.496	0.0151740
932.574	0.0153272
932.652	0.0153233
932.730	0.0153076
932.808	0.0152570
932.886	0.0152255
932.965	0.0152808
933.043	0.0152155
933.121	0.0152152
933.199	0.0154807
933.277	0.0152390
933.355	0.0151097
933.433	0.0151459
933.511	0.0151478
933.590	0.0152235
933.668	0.0149462
933.746	0.0150297
933.824	0.0150462
933.902	0.0150516
933.980	0.0150152
934.058	0.0149339
934.136	0.0149728
934.215	0.0148293
934.293	0.0149033
934.371	0.0148319
934.449	0.0148790
934.527	0.0147511
934.605	0.0147744
934.683	0.0147483
934.761	0.0148064
934.840	0.0147529
934.918	0.0147928
934.996	0.0147926
935.074	0.0147553
935.152	0.0149632
935.230	0.0149474
935.308	0.0149752
935.386	0.0148984
935.465	0.0151562
935.543	0.0151624
935.621	0.0150459
935.699	0.0151577
935.777	0.0150744
935.855	0.0150491
935.933	0.0152766
936.011	0.0151851
936.090	0.0152557
936.168	0.0151945
936.246	0.0152315
936.324	0.0152299
936.402	0.0151130
936.480	0.0149996
936.558	0.0151296
936.636	0.0150366
936.715	0.0150997
936.793	0.0151338
936.871	0.0150907
936.949	0.0150352
937.027	0.0152693
937.105	0.0150098
937.183	0.0149526
937.261	0.0150515
937.340	0.0149892
937.418	0.0149589
937.496	0.0151208
937.574	0.0150040
937.652	0.0150180
937.730	0.0149023
937.808	0.0148933
937.886	0.0149889
937.965	0.0149523
938.043	0.0150134
938.121	0.0150392
938.199	0.0151069
938.277	0.0150653
938.355	0.0150892
938.433	0.0150832
938.511	0.0151088
938.590	0.0149902
938.668	0.0150842
938.746	0.0149566
938.824	0.0150649
938.902	0.0151474
938.980	0.0152240
939.058	0.0151153
939.136	0.0153444
939.215	0.0152840
939.293	0.0153659
939.371	0.0151736
939.449	0.0152418
939.527	0.0152571
939.605	0.0152045
939.683	0.0153738
939.761	0.0151540
939.840	0.0151900
939.918	0.0152426
939.996	0.0152822
940.074	0.0151006
940.152	0.0151807
940.230	0.0152100
940.308	0.0150575
940.386	0.0150562
940.465	0.0150816
940.543	0.0150791
940.621	0.0150243
940.699	0.0148878
940.777	0.0148509
940.855	0.0149500
940.933	0.0148312
941.011	0.0150340
941.090	0.0149034
941.168	0.0148800
941.246	0.0148965
941.324	0.0150219
941.402	0.0147961
941.480	0.0149870
941.558	0.0150893
941.636	0.0150815
941.715	0.0149302
941.793	0.0150610
941.871	0.0151084
941.949	0.0150983
942.027	0.0149596
942.105	0.0150045
942.183	0.0150370
942.261	0.0150151
942.340	0.0151573
942.418	0.0150957
942.496	0.0151866
942.574	0.0151588
942.652	0.0151078
942.730	0.0150005
942.808	0.0150494
942.886	0.0151060
942.965	0.0149582
943.043	0.0150305
943.121	0.0148958
943.199	0.0148179
943.277	0.0150392
943.355	0.0149171
943.433	0.0149033
943.511	0.0150442
943.590	0.0150127
943.668	0.0149797
943.746	0.0149612
943.824	0.0149704
943.902	0.0151175
943.980	0.0151524
944.058	0.0152444
944.136	0.0151585
944.215	0.0150932
944.293	0.0152731
944.371	0.0151580
944.449	0.0151855
944.527	0.0150896
944.605	0.0152313
944.683	0.0150891
944.761	0.0151704
944.840	0.0151131
944.918	0.0150041
944.996	0.0149375
945.074	0.0151171
945.152	0.0151125
945.230	0.0148878
945.308	0.0149877
945.386	0.0149474
945.465	0.0148670
945.543	0.0149280
945.621	0.0150021
945.699	0.0149840
945.777	0.0148921
945.855	0.0150496
945.933	0.0150835
946.011	0.0150758
946.090	0.0151127
946.168	0.0150851
946.246	0.0150763
946.324	0.0151053
946.402	0.0151996
946.480	0.0151891
946.558	0.0151554
946.636	0.0151740
946.715	0.0151709
946.793	0.0151339
946.871	0.0151173
946.949	0.0149955
947.027	0.0150124
947.105	0.0149619
947.183	0.0149788
947.261	0.0151738
947.340	0.0150774
947.418	0.0149392
947.496	0.0150321
947.574	0.0149981
947.652	0.0149948
947.730	0.0149744
947.808	0.0149464
947.886	0.0149069
947.965	0.0149976
948.043	0.0150215
948.121	0.0149556
948.199	0.0150449
948.277	0.0149809
948.355	0.0151955
948.433	0.0149583
948.511	0.0149187
948.590	0.0150362
948.668	0.0150150
948.746	0.0151142
948.824	0.0151196
948.902	0.0150377
948.980	0.0150078
949.058	0.0149134
949.136	0.0150596
949.215	0.0150571
949.293	0.0149789
949.371	0.0151203
949.449	0.0149677
949.527	0.0149737
949.605	0.0149171
949.683	0.0149423
949.761	0.0149711
949.840	0.0149939
949.918	0.0150675
