05/14/2022	16:20:26	Ver.	4.1	UNKNOWN
Optical Delay	639.989416	Delta X		0.078125	Sweeps	1	Scan Rate	0/0
Coordinates	Axis 1	NaN	Axis 2	NaN	Axis 3	NaN	Axis 4	NaN	Axis 5	NaN	Axis 6	0.000000
TX Power	0.000000	RX Power	0.000000

639.989	0.0126389
640.068	0.0127109
640.146	0.0125876
640.224	0.0126546
640.302	0.0128339
640.380	0.0127537
640.458	0.0126532
640.536	0.0127946
640.614	0.0126941
640.693	0.0126443
640.771	0.0126773
640.849	0.0127226
640.927	0.0126443
641.005	0.0126993
641.083	0.0127080
641.161	0.0126887
641.239	0.0127255
641.318	0.0127008
641.396	0.0127500
641.474	0.0126378
641.552	0.0125605
641.630	0.0126218
641.708	0.0126806
641.786	0.0127573
641.864	0.0125818
641.943	0.0126215
642.021	0.0127662
642.099	0.0127875
642.177	0.0126842
642.255	0.0127326
642.333	0.0126424
642.411	0.0126145
642.489	0.0126800
642.568	0.0127046
642.646	0.0126492
642.724	0.0127007
642.802	0.0125951
642.880	0.0126791
642.958	0.0127900
643.036	0.0127724
643.114	0.0127866
643.193	0.0124853
643.271	0.0126006
643.349	0.0126243
643.427	0.0126998
643.505	0.0127368
643.583	0.0128266
643.661	0.0124870
643.739	0.0126360
643.818	0.0127256
643.896	0.0125616
643.974	0.0127248
644.052	0.0126563
644.130	0.0127318
644.208	0.0126585
644.286	0.0125809
644.364	0.0125200
644.443	0.0126052
644.521	0.0126361
644.599	0.0126926
644.677	0.0125856
644.755	0.0126952
644.833	0.0127032
644.911	0.0127324
644.989	0.0125568
645.068	0.0127502
645.146	0.0127495
645.224	0.0126631
645.302	0.0126093
645.380	0.0125539
645.458	0.0127485
645.536	0.0126917
645.614	0.0127391
645.693	0.0125081
645.771	0.0126358
645.849	0.0127413
645.927	0.0126915
646.005	0.0128745
646.083	0.0126738
646.161	0.0126735
646.239	0.0125743
646.318	0.0126796
646.396	0.0127359
646.474	0.0126331
646.552	0.0126138
646.630	0.0126533
646.708	0.0127111
646.786	0.0128231
646.864	0.0127059
646.943	0.0127191
647.021	0.0127268
647.099	0.0126392
647.177	0.0127367
647.255	0.0126887
647.333	0.0125924
647.411	0.0126687
647.489	0.0125657
647.568	0.0125911
647.646	0.0126612
647.724	0.0126267
647.802	0.0126928
647.880	0.0126167
647.958	0.0126329
648.036	0.0127775
648.114	0.0126420
648.193	0.0125567
648.271	0.0127744
648.349	0.0126818
648.427	0.0126689
648.505	0.0126251
648.583	0.0127639
648.661	0.0126808
648.739	0.0125242
648.818	0.0127389
648.896	0.0127531
648.974	0.0126466
649.052	0.0126319
649.130	0.0127405
649.208	0.0127097
649.286	0.0126527
649.364	0.0127016
649.443	0.0126169
649.521	0.0126604
649.599	0.0125985
649.677	0.0126235
649.755	0.0127156
649.833	0.0127029
649.911	0.0126463
649.989	0.0125328
650.068	0.0126314
650.146	0.0125022
650.224	0.0127143
650.302	0.0125876
650.380	0.0125322
650.458	0.0125895
650.536	0.0126493
650.614	0.0125682
650.693	0.0126012
650.771	0.0125597
650.849	0.0126822
650.927	0.0126733
651.005	0.0127139
651.083	0.0126513
651.161	0.0126067
651.239	0.0127183
651.318	0.0126025
651.396	0.0126562
651.474	0.0126474
651.552	0.0126053
651.630	0.0126299
651.708	0.0126398
651.786	0.0125671
651.864	0.0126339
651.943	0.0126636
652.021	0.0127460
652.099	0.0125954
652.177	0.0125852
652.255	0.0127151
652.333	0.0127183
652.411	0.0126235
652.489	0.0126382
652.568	0.0126426
652.646	0.0127762
652.724	0.0124714
652.802	0.0125202
652.880	0.0125327
652.958	0.0125650
653.036	0.0125655
653.114	0.0125611
653.193	0.0126663
653.271	0.0128226
653.349	0.0127564
653.427	0.0126789
653.505	0.0126283
653.583	0.0126559
653.661	0.0126649
653.739	0.0126360
653.818	0.0127043
653.896	0.0125297
653.974	0.0126740
654.052	0.0125845
654.130	0.0127654
654.208	0.0127496
654.286	0.0126799
654.364	0.0126638
654.443	0.0125146
654.521	0.0126867
654.599	0.0126574
654.677	0.0127441
654.755	0.0126792
654.833	0.0126247
654.911	0.0126868
654.989	0.0125826
655.068	0.0125808
655.146	0.0128269
655.224	0.0126674
655.302	0.0125414
655.380	0.0127026
655.458	0.0125990
655.536	0.0126315
655.614	0.0126360
655.693	0.0127097
655.771	0.0126559
655.849	0.0126605
655.927	0.0125936
656.005	0.0125890
656.083	0.0126926
656.161	0.0126006
656.239	0.0126754
656.318	0.0127027
656.396	0.0126664
656.474	0.0127599
656.552	0.0125616
656.630	0.0126306
656.708	0.0126637
656.786	0.0126469
656.864	0.0126624
656.943	0.0126786
657.021	0.0126294
657.099	0.0127328
657.177	0.0127567
657.255	0.0127079
657.333	0.0126289
657.411	0.0126421
657.489	0.0127313
657.568	0.0126715
657.646	0.0125524
657.724	0.0128069
657.802	0.0126598
657.880	0.0125926
657.958	0.0127826
658.036	0.0126402
658.114	0.0125998
658.193	0.0127158
658.271	0.0127634
658.349	0.0125767
658.427	0.0127058
658.505	0.0126782
658.583	0.0127873
658.661	0.0127128
658.739	0.0126385
658.818	0.0126864
658.896	0.0127959
658.974	0.0125755
659.052	0.0126327
659.130	0.0127573
659.208	0.0128131
659.286	0.0126276
659.364	0.0126295
659.443	0.0126569
659.521	0.0126474
659.599	0.0127498
659.677	0.0127213
659.755	0.0126587
659.833	0.0126514
659.911	0.0125373
659.989	0.0125481
660.068	0.0126594
660.146	0.0126944
660.224	0.0127416
660.302	0.0126870
660.380	0.0126402
660.458	0.0127209
660.536	0.0126314
660.614	0.0127126
660.693	0.0128263
660.771	0.0126972
660.849	0.0127512
660.927	0.0127234
661.005	0.0125934
661.083	0.0128312
661.161	0.0127036
661.239	0.0127576
661.318	0.0127119
661.396	0.0127338
661.474	0.0125895
661.552	0.0126676
661.630	0.0127621
661.708	0.0127521
661.786	0.0127482
661.864	0.0125780
661.943	0.0125990
662.021	0.0126875
662.099	0.0126553
662.177	0.0127047
662.255	0.0126582
662.333	0.0126192
662.411	0.0126699
662.489	0.0124835
662.568	0.0126348
662.646	0.0126890
662.724	0.0127084
662.802	0.0126279
662.880	0.0127480
662.958	0.0126613
663.036	0.0127324
663.114	0.0127599
663.193	0.0125733
663.271	0.0126744
663.349	0.0128079
663.427	0.0126879
663.505	0.0126082
663.583	0.0127132
663.661	0.0126574
663.739	0.0127245
663.818	0.0125906
663.896	0.0126187
663.974	0.0127189
664.052	0.0127192
664.130	0.0126393
664.208	0.0125986
664.286	0.0126353
664.364	0.0126638
664.443	0.0128490
664.521	0.0126375
664.599	0.0127571
664.677	0.0126186
664.755	0.0126382
664.833	0.0126247
664.911	0.0126212
664.989	0.0128301
665.068	0.0126786
665.146	0.0126975
665.224	0.0128385
665.302	0.0126480
665.380	0.0126152
665.458	0.0125886
665.536	0.0126572
665.614	0.0126409
665.693	0.0126553
665.771	0.0126278
665.849	0.0127072
665.927	0.0125716
666.005	0.0126192
666.083	0.0126325
666.161	0.0126535
666.239	0.0125787
666.318	0.0127041
666.396	0.0127893
666.474	0.0127216
666.552	0.0127126
666.630	0.0126827
666.708	0.0126077
666.786	0.0127470
666.864	0.0127297
666.943	0.0125533
667.021	0.0127374
667.099	0.0126765
667.177	0.0125540
667.255	0.0125535
667.333	0.0126811
667.411	0.0128656
667.489	0.0127048
667.568	0.0126158
667.646	0.0128520
667.724	0.0128190
667.802	0.0125043
667.880	0.0125175
667.958	0.0126302
668.036	0.0126536
668.114	0.0126045
668.193	0.0125983
668.271	0.0127592
668.349	0.0127417
668.427	0.0125462
668.505	0.0125893
668.583	0.0127070
668.661	0.0125612
668.739	0.0126920
668.818	0.0127016
668.896	0.0126802
668.974	0.0126664
669.052	0.0125834
669.130	0.0126012
669.208	0.0126324
669.286	0.0127125
669.364	0.0125796
669.443	0.0125963
669.521	0.0124927
669.599	0.0126785
669.677	0.0127799
669.755	0.0127125
669.833	0.0126327
669.911	0.0125206
669.989	0.0125449
670.068	0.0126899
670.146	0.0127457
670.224	0.0126606
670.302	0.0126075
670.380	0.0125855
670.458	0.0125241
670.536	0.0124829
670.614	0.0127325
670.693	0.0127052
670.771	0.0125889
670.849	0.0126585
670.927	0.0126818
671.005	0.0128217
671.083	0.0125542
671.161	0.0126781
671.239	0.0126672
671.318	0.0126511
671.396	0.0126370
671.474	0.0127670
671.552	0.0126964
671.630	0.0126948
671.708	0.0126995
671.786	0.0126048
671.864	0.0127012
671.943	0.0126353
672.021	0.0126592
672.099	0.0128310
672.177	0.0127487
672.255	0.0126305
672.333	0.0126698
672.411	0.0126579
672.489	0.0128009
672.568	0.0128207
672.646	0.0127705
672.724	0.0127270
672.802	0.0127397
672.880	0.0127774
672.958	0.0127353
673.036	0.0128078
673.114	0.0125894
673.193	0.0127260
673.271	0.0127076
673.349	0.0127517
673.427	0.0128219
673.505	0.0125893
673.583	0.0127855
673.661	0.0127094
673.739	0.0128198
673.818	0.0128281
673.896	0.0126398
673.974	0.0128385
674.052	0.0127134
674.130	0.0126785
674.208	0.0128156
674.286	0.0126951
674.364	0.0128243
674.443	0.0126441
674.521	0.0127948
674.599	0.0126985
674.677	0.0127654
674.755	0.0126701
674.833	0.0127261
674.911	0.0128270
674.989	0.0127880
675.068	0.0127734
675.146	0.0128053
675.224	0.0126994
675.302	0.0127166
675.380	0.0127660
675.458	0.0128117
675.536	0.0127917
675.614	0.0127947
675.693	0.0126104
675.771	0.0127950
675.849	0.0128163
675.927	0.0128133
676.005	0.0128310
676.083	0.0127499
676.161	0.0126499
676.239	0.0127480
676.318	0.0126084
676.396	0.0126917
676.474	0.0127790
676.552	0.0128388
676.630	0.0126918
676.708	0.0127592
676.786	0.0127345
676.864	0.0127230
676.943	0.0127987
677.021	0.0129063
677.099	0.0127446
677.177	0.0127988
677.255	0.0128024
677.333	0.0126775
677.411	0.0126364
677.489	0.0128000
677.568	0.0125365
677.646	0.0126755
677.724	0.0126881
677.802	0.0127367
677.880	0.0128128
677.958	0.0127124
678.036	0.0126254
678.114	0.0125536
678.193	0.0127353
678.271	0.0126833
678.349	0.0126301
678.427	0.0126997
678.505	0.0127083
678.583	0.0126251
678.661	0.0126413
678.739	0.0126576
678.818	0.0126202
678.896	0.0127164
678.974	0.0126645
679.052	0.0125460
679.130	0.0125777
679.208	0.0127481
679.286	0.0126320
679.364	0.0126114
679.443	0.0126299
679.521	0.0125689
679.599	0.0125928
679.677	0.0125468
679.755	0.0126736
679.833	0.0126637
679.911	0.0126748
679.989	0.0126774
680.068	0.0125403
680.146	0.0125255
680.224	0.0125861
680.302	0.0127304
680.380	0.0125430
680.458	0.0127557
680.536	0.0126548
680.614	0.0125503
680.693	0.0126774
680.771	0.0125731
680.849	0.0126853
680.927	0.0127726
681.005	0.0126466
681.083	0.0125773
681.161	0.0127666
681.239	0.0127521
681.318	0.0125117
681.396	0.0125550
681.474	0.0124460
681.552	0.0126752
681.630	0.0126094
681.708	0.0125470
681.786	0.0126681
681.864	0.0127160
681.943	0.0124982
682.021	0.0127296
682.099	0.0125620
682.177	0.0125937
682.255	0.0125497
682.333	0.0125884
682.411	0.0126891
682.489	0.0126093
682.568	0.0125936
682.646	0.0126514
682.724	0.0125667
682.802	0.0125771
682.880	0.0126034
682.958	0.0126673
683.036	0.0126363
683.114	0.0127786
683.193	0.0126546
683.271	0.0125396
683.349	0.0127847
683.427	0.0127764
683.505	0.0124992
683.583	0.0125999
683.661	0.0126048
683.739	0.0125624
683.818	0.0126784
683.896	0.0125877
683.974	0.0126817
684.052	0.0126015
684.130	0.0125797
684.208	0.0127452
684.286	0.0127827
684.364	0.0126090
684.443	0.0125246
684.521	0.0127051
684.599	0.0126104
684.677	0.0127580
684.755	0.0125347
684.833	0.0126157
684.911	0.0126756
684.989	0.0124662
685.068	0.0126567
685.146	0.0125684
685.224	0.0126754
685.302	0.0127810
685.380	0.0127100
685.458	0.0127288
685.536	0.0126138
685.614	0.0126505
685.693	0.0127978
685.771	0.0126591
685.849	0.0126467
685.927	0.0127803
686.005	0.0127447
686.083	0.0127546
686.161	0.0127216
686.239	0.0126160
686.318	0.0126665
686.396	0.0127142
686.474	0.0127547
686.552	0.0127733
686.630	0.0128001
686.708	0.0126782
686.786	0.0126719
686.864	0.0127306
686.943	0.0128322
687.021	0.0127480
687.099	0.0127258
687.177	0.0126276
687.255	0.0126527
687.333	0.0126245
687.411	0.0127251
687.489	0.0128318
687.568	0.0127934
687.646	0.0126634
687.724	0.0125279
687.802	0.0127515
687.880	0.0126582
687.958	0.0126585
688.036	0.0125580
688.114	0.0126137
688.193	0.0126697
688.271	0.0127592
688.349	0.0128337
688.427	0.0126870
688.505	0.0127401
688.583	0.0128139
688.661	0.0128781
688.739	0.0128435
688.818	0.0126436
688.896	0.0127156
688.974	0.0126561
689.052	0.0125665
689.130	0.0123213
689.208	0.0124935
689.286	0.0123707
689.364	0.0123067
689.443	0.0122749
689.521	0.0123638
689.599	0.0124750
689.677	0.0125068
689.755	0.0127003
689.833	0.0130048
689.911	0.0131685
689.989	0.0132345
690.068	0.0133733
690.146	0.0134597
690.224	0.0134850
690.302	0.0136215
690.380	0.0134655
690.458	0.0134541
690.536	0.0134053
690.614	0.0131741
690.693	0.0128957
690.771	0.0126073
690.849	0.0125668
690.927	0.0123100
691.005	0.0121084
691.083	0.0119489
691.161	0.0115565
691.239	0.0114937
691.318	0.0115128
691.396	0.0112861
691.474	0.0111685
691.552	0.0113784
691.630	0.0114316
691.708	0.0115196
691.786	0.0117802
691.864	0.0119658
691.943	0.0123145
692.021	0.0128174
692.099	0.0132419
692.177	0.0137996
692.255	0.0142196
692.333	0.0146275
692.411	0.0150470
692.489	0.0153409
692.568	0.0154565
692.646	0.0154486
692.724	0.0155238
692.802	0.0154145
692.880	0.0149904
692.958	0.0145831
693.036	0.0139172
693.114	0.0134541
693.193	0.0126069
693.271	0.0119734
693.349	0.0113200
693.427	0.0106634
693.505	0.00987717
693.583	0.00952118
693.661	0.00910576
693.739	0.00871323
693.818	0.00849380
693.896	0.00844276
693.974	0.00849182
694.052	0.00868813
694.130	0.00909920
694.208	0.00942604
694.286	0.0100050
694.364	0.0108828
694.443	0.0117318
694.521	0.0126385
694.599	0.0135959
694.677	0.0146821
694.755	0.0156659
694.833	0.0165444
694.911	0.0173026
694.989	0.0181239
695.068	0.0187688
695.146	0.0190649
695.224	0.0192184
695.302	0.0190427
695.380	0.0186435
695.458	0.0181516
695.536	0.0171948
695.614	0.0163194
695.693	0.0150368
695.771	0.0136460
695.849	0.0124683
695.927	0.0112435
696.005	0.00981369
696.083	0.00868233
696.161	0.00759598
696.239	0.00682350
696.318	0.00612740
696.396	0.00563545
696.474	0.00547447
696.552	0.00539528
696.630	0.00555504
696.708	0.00590401
696.786	0.00636162
696.864	0.00717094
696.943	0.00793404
697.021	0.00902527
697.099	0.0101893
697.177	0.0113322
697.255	0.0123734
697.333	0.0135647
697.411	0.0147208
697.489	0.0160422
697.568	0.0170752
697.646	0.0180661
697.724	0.0190009
697.802	0.0196340
697.880	0.0203537
697.958	0.0205711
698.036	0.0206280
698.114	0.0204401
698.193	0.0199951
698.271	0.0195039
698.349	0.0185518
698.427	0.0174521
698.505	0.0163403
698.583	0.0151391
698.661	0.0139477
698.739	0.0128600
698.818	0.0115492
698.896	0.0105169
698.974	0.00958458
699.052	0.00867409
699.130	0.00778442
699.208	0.00718338
699.286	0.00659210
699.364	0.00632835
699.443	0.00604599
699.521	0.00597382
699.599	0.00600922
699.677	0.00632492
699.755	0.00674492
699.833	0.00722107
699.911	0.00787903
699.989	0.00877213
700.068	0.00967026
700.146	0.0104807
700.224	0.0114584
700.302	0.0124993
700.380	0.0134750
700.458	0.0144287
700.536	0.0152829
700.614	0.0160200
700.693	0.0167386
700.771	0.0173238
700.849	0.0176797
700.927	0.0179872
701.005	0.0181493
701.083	0.0181665
701.161	0.0181344
701.239	0.0179596
701.318	0.0176586
701.396	0.0172673
701.474	0.0167532
701.552	0.0160482
701.630	0.0154899
701.708	0.0148615
701.786	0.0142690
701.864	0.0134532
701.943	0.0127429
702.021	0.0120351
702.099	0.0113754
702.177	0.0107936
702.255	0.0102287
702.333	0.00981590
702.411	0.00928047
702.489	0.00896019
702.568	0.00893730
702.646	0.00878448
702.724	0.00873909
702.802	0.00896751
702.880	0.00920258
702.958	0.00930244
703.036	0.00973145
703.114	0.0101517
703.193	0.0104497
703.271	0.0111877
703.349	0.0114744
703.427	0.0119747
703.505	0.0126032
703.583	0.0130875
703.661	0.0134358
703.739	0.0137437
703.818	0.0142044
703.896	0.0145920
703.974	0.0148617
704.052	0.0149229
704.130	0.0148558
704.208	0.0148623
704.286	0.0147665
704.364	0.0145695
704.443	0.0144741
704.521	0.0141910
704.599	0.0139125
704.677	0.0138002
704.755	0.0133046
704.833	0.0132681
704.911	0.0129352
704.989	0.0126119
705.068	0.0122922
705.146	0.0120261
705.224	0.0118517
705.302	0.0116884
705.380	0.0115887
705.458	0.0116604
705.536	0.0115978
705.614	0.0117759
705.693	0.0120692
705.771	0.0119733
705.849	0.0119884
705.927	0.0120229
706.005	0.0123516
706.083	0.0121237
706.161	0.0123227
706.239	0.0124357
706.318	0.0123248
706.396	0.0125418
706.474	0.0126371
706.552	0.0125188
706.630	0.0125546
706.708	0.0127485
706.786	0.0126738
706.864	0.0128300
706.943	0.0130379
707.021	0.0131214
707.099	0.0133855
707.177	0.0134531
707.255	0.0136342
707.333	0.0135445
707.411	0.0138046
707.489	0.0137844
707.568	0.0137623
707.646	0.0136813
707.724	0.0137527
707.802	0.0135892
707.880	0.0133086
707.958	0.0131388
708.036	0.0128378
708.114	0.0127508
708.193	0.0124438
708.271	0.0122672
708.349	0.0121977
708.427	0.0120338
708.505	0.0119717
708.583	0.0119939
708.661	0.0120573
708.739	0.0119444
708.818	0.0119351
708.896	0.0120358
708.974	0.0119918
709.052	0.0120811
709.130	0.0119737
709.208	0.0119115
709.286	0.0117779
709.364	0.0119044
709.443	0.0119047
709.521	0.0117894
709.599	0.0115921
709.677	0.0115881
709.755	0.0113419
709.833	0.0113740
709.911	0.0112891
709.989	0.0112894
710.068	0.0114321
710.146	0.0113927
710.224	0.0116885
710.302	0.0118361
710.380	0.0120399
710.458	0.0124680
710.536	0.0128300
710.614	0.0130116
710.693	0.0132507
710.771	0.0136625
710.849	0.0139473
710.927	0.0141650
711.005	0.0144543
711.083	0.0145561
711.161	0.0147279
711.239	0.0150082
711.318	0.0151296
711.396	0.0153171
711.474	0.0151677
711.552	0.0152203
711.630	0.0152275
711.708	0.0150509
711.786	0.0149383
711.864	0.0148502
711.943	0.0144093
712.021	0.0141984
712.099	0.0139992
712.177	0.0135617
712.255	0.0133730
712.333	0.0128191
712.411	0.0123079
712.489	0.0120316
712.568	0.0116566
712.646	0.0112949
712.724	0.0111174
712.802	0.0107227
712.880	0.0104342
712.958	0.0103239
713.036	0.0102689
713.114	0.0101958
713.193	0.0103856
713.271	0.0101511
713.349	0.0102473
713.427	0.0103671
713.505	0.0105734
713.583	0.0107951
713.661	0.0111705
713.739	0.0112836
713.818	0.0114572
713.896	0.0118343
713.974	0.0120048
714.052	0.0121655
714.130	0.0123911
714.208	0.0127818
714.286	0.0129006
714.364	0.0130353
714.443	0.0131409
714.521	0.0131245
714.599	0.0132183
714.677	0.0130791
714.755	0.0131969
714.833	0.0130875
714.911	0.0131998
714.989	0.0132265
715.068	0.0132151
715.146	0.0131065
715.224	0.0132135
715.302	0.0131306
715.380	0.0131246
715.458	0.0130843
715.536	0.0133242
715.614	0.0134260
715.693	0.0135458
715.771	0.0134954
715.849	0.0137672
715.927	0.0138395
716.005	0.0139695
716.083	0.0140863
716.161	0.0140585
716.239	0.0141374
716.318	0.0142066
716.396	0.0141852
716.474	0.0142168
716.552	0.0143791
716.630	0.0142050
716.708	0.0141964
716.786	0.0140800
716.864	0.0139544
716.943	0.0137408
717.021	0.0134732
717.099	0.0133015
717.177	0.0130389
717.255	0.0128456
717.333	0.0126292
717.411	0.0124677
717.489	0.0123049
717.568	0.0120440
717.646	0.0117469
717.724	0.0116214
717.802	0.0115116
717.880	0.0111991
717.958	0.0108629
718.036	0.0108979
718.114	0.0108308
718.193	0.0107051
718.271	0.0106185
718.349	0.0105879
718.427	0.0104262
718.505	0.0104089
718.583	0.0105164
718.661	0.0104920
718.739	0.0107378
718.818	0.0107890
718.896	0.0110981
718.974	0.0111938
719.052	0.0112042
719.130	0.0114191
719.208	0.0116258
719.286	0.0119444
719.364	0.0121049
719.443	0.0123644
719.521	0.0125291
719.599	0.0127793
719.677	0.0128249
719.755	0.0132112
719.833	0.0133738
719.911	0.0136029
719.989	0.0136724
720.068	0.0136604
720.146	0.0137180
720.224	0.0138125
720.302	0.0138859
720.380	0.0139294
720.458	0.0137791
720.536	0.0140095
720.614	0.0139124
720.693	0.0137596
720.771	0.0139738
720.849	0.0139434
720.927	0.0138995
721.005	0.0138357
721.083	0.0137434
721.161	0.0137157
721.239	0.0136034
721.318	0.0137094
721.396	0.0136164
721.474	0.0134505
721.552	0.0135593
721.630	0.0132804
721.708	0.0132212
721.786	0.0132244
721.864	0.0132385
721.943	0.0130644
722.021	0.0130656
722.099	0.0131283
722.177	0.0131764
722.255	0.0128975
722.333	0.0129317
722.411	0.0129898
722.489	0.0128958
722.568	0.0126186
722.646	0.0125473
722.724	0.0124767
722.802	0.0122694
722.880	0.0120909
722.958	0.0117891
723.036	0.0116032
723.114	0.0112939
723.193	0.0111378
723.271	0.0109142
723.349	0.0108697
723.427	0.0105534
723.505	0.0105364
723.583	0.0104713
723.661	0.0104056
723.739	0.0104414
723.818	0.0105621
723.896	0.0107375
723.974	0.0109020
724.052	0.0112158
724.130	0.0113863
724.208	0.0114742
724.286	0.0117953
724.364	0.0120609
724.443	0.0124199
724.521	0.0127310
724.599	0.0128938
724.677	0.0131997
724.755	0.0132745
724.833	0.0134921
724.911	0.0137315
724.989	0.0137576
725.068	0.0139942
725.146	0.0140353
725.224	0.0140432
725.302	0.0141891
725.380	0.0140808
725.458	0.0141364
725.536	0.0140749
725.614	0.0139687
725.693	0.0137975
725.771	0.0135783
725.849	0.0134294
725.927	0.0134918
726.005	0.0132970
726.083	0.0130684
726.161	0.0129961
726.239	0.0129216
726.318	0.0128898
726.396	0.0127901
726.474	0.0128841
726.552	0.0127729
726.630	0.0128940
726.708	0.0128109
726.786	0.0128268
726.864	0.0128042
726.943	0.0128967
727.021	0.0127113
727.099	0.0127661
727.177	0.0128114
727.255	0.0129121
727.333	0.0128216
727.411	0.0129219
727.489	0.0129289
727.568	0.0128532
727.646	0.0130647
727.724	0.0131387
727.802	0.0129989
727.880	0.0130336
727.958	0.0131709
728.036	0.0129670
728.114	0.0127589
728.193	0.0127321
728.271	0.0126463
728.349	0.0124110
728.427	0.0122713
728.505	0.0121674
728.583	0.0119093
728.661	0.0117638
728.739	0.0117647
728.818	0.0116357
728.896	0.0114374
728.974	0.0113367
729.052	0.0113836
729.130	0.0113201
729.208	0.0113268
729.286	0.0114237
729.364	0.0114407
729.443	0.0114766
729.521	0.0116278
729.599	0.0118631
729.677	0.0121400
729.755	0.0123685
729.833	0.0124191
729.911	0.0124323
729.989	0.0128972
730.068	0.0130992
730.146	0.0130962
730.224	0.0132216
730.302	0.0133097
730.380	0.0134223
730.458	0.0134013
730.536	0.0134248
730.614	0.0133562
730.693	0.0133289
730.771	0.0132561
730.849	0.0132999
730.927	0.0132839
731.005	0.0131491
731.083	0.0128872
731.161	0.0129272
731.239	0.0128412
731.318	0.0128898
731.396	0.0127042
731.474	0.0128329
731.552	0.0125863
731.630	0.0125919
731.708	0.0126811
731.786	0.0125951
731.864	0.0126091
731.943	0.0124770
732.021	0.0125618
732.099	0.0127158
732.177	0.0128087
732.255	0.0127405
732.333	0.0127641
732.411	0.0129288
732.489	0.0128699
732.568	0.0130182
732.646	0.0131105
732.724	0.0131377
732.802	0.0132310
732.880	0.0135048
732.958	0.0132932
733.036	0.0135155
733.114	0.0135821
733.193	0.0135729
733.271	0.0134837
733.349	0.0133797
733.427	0.0133200
733.505	0.0132500
733.583	0.0131239
733.661	0.0129913
733.739	0.0128529
733.818	0.0127718
733.896	0.0125072
733.974	0.0124361
734.052	0.0122667
734.130	0.0121899
734.208	0.0121098
734.286	0.0119108
734.364	0.0119799
734.443	0.0119685
734.521	0.0119934
734.599	0.0118668
734.677	0.0118939
734.755	0.0119616
734.833	0.0119689
734.911	0.0121332
734.989	0.0121463
735.068	0.0122862
735.146	0.0121413
735.224	0.0124001
735.302	0.0124191
735.380	0.0126061
735.458	0.0125997
735.536	0.0127597
735.614	0.0128464
735.693	0.0127608
735.771	0.0129062
735.849	0.0128239
735.927	0.0128289
736.005	0.0128467
736.083	0.0129095
736.161	0.0126720
736.239	0.0127119
736.318	0.0127095
736.396	0.0127167
736.474	0.0125130
736.552	0.0124052
736.630	0.0124517
736.708	0.0123886
736.786	0.0124020
736.864	0.0122493
736.943	0.0124876
737.021	0.0124976
737.099	0.0124280
737.177	0.0125880
737.255	0.0125208
737.333	0.0126015
737.411	0.0127360
737.489	0.0128955
737.568	0.0129023
737.646	0.0129129
737.724	0.0130180
737.802	0.0131021
737.880	0.0130136
737.958	0.0130653
738.036	0.0131802
738.114	0.0133368
738.193	0.0132890
738.271	0.0133295
738.349	0.0133958
738.427	0.0135853
738.505	0.0133905
738.583	0.0133843
738.661	0.0134786
738.739	0.0134529
738.818	0.0133215
738.896	0.0132317
738.974	0.0131437
739.052	0.0131506
739.130	0.0128856
739.208	0.0128539
739.286	0.0127866
739.364	0.0126162
739.443	0.0127258
739.521	0.0124966
739.599	0.0125471
739.677	0.0125110
739.755	0.0124763
739.833	0.0122279
739.911	0.0122459
739.989	0.0122052
740.068	0.0121941
740.146	0.0122166
740.224	0.0121662
740.302	0.0124012
740.380	0.0121431
740.458	0.0121004
740.536	0.0122131
740.614	0.0123480
740.693	0.0123534
740.771	0.0124329
740.849	0.0123685
740.927	0.0123977
741.005	0.0125528
741.083	0.0124721
741.161	0.0125517
741.239	0.0126097
741.318	0.0125043
741.396	0.0126407
741.474	0.0126507
741.552	0.0123382
741.630	0.0123783
741.708	0.0124930
741.786	0.0124038
741.864	0.0123429
741.943	0.0124538
742.021	0.0125217
742.099	0.0124491
742.177	0.0124390
742.255	0.0124568
742.333	0.0123750
742.411	0.0126683
742.489	0.0126257
742.568	0.0126334
742.646	0.0124903
742.724	0.0126868
742.802	0.0126035
742.880	0.0126499
742.958	0.0126118
743.036	0.0126953
743.114	0.0127727
743.193	0.0126556
743.271	0.0127692
743.349	0.0127658
743.427	0.0127255
743.505	0.0128438
743.583	0.0127708
743.661	0.0127233
743.739	0.0129098
743.818	0.0130183
743.896	0.0132243
743.974	0.0129916
744.052	0.0129757
744.130	0.0131125
744.208	0.0130132
744.286	0.0130254
744.364	0.0130415
744.443	0.0131266
744.521	0.0130602
744.599	0.0129227
744.677	0.0130891
744.755	0.0128633
744.833	0.0129057
744.911	0.0129351
744.989	0.0130662
745.068	0.0128905
745.146	0.0128877
745.224	0.0128271
745.302	0.0126350
745.380	0.0126888
745.458	0.0126080
745.536	0.0125761
745.614	0.0125053
745.693	0.0124353
745.771	0.0124525
745.849	0.0123980
745.927	0.0123582
746.005	0.0122644
746.083	0.0123129
746.161	0.0123271
746.239	0.0124313
746.318	0.0122624
746.396	0.0124026
746.474	0.0124247
746.552	0.0123992
746.630	0.0124203
746.708	0.0126308
746.786	0.0126312
746.864	0.0125369
746.943	0.0125994
747.021	0.0126495
747.099	0.0127660
747.177	0.0128727
747.255	0.0126952
747.333	0.0129699
747.411	0.0130649
747.489	0.0128686
747.568	0.0129604
747.646	0.0129661
747.724	0.0129536
747.802	0.0128252
747.880	0.0127976
747.958	0.0126546
748.036	0.0124806
748.114	0.0124389
748.193	0.0123595
748.271	0.0124876
748.349	0.0123309
748.427	0.0122785
748.505	0.0121387
748.583	0.0122746
748.661	0.0121377
748.739	0.0121556
748.818	0.0122823
748.896	0.0122722
748.974	0.0122594
749.052	0.0124443
749.130	0.0124040
749.208	0.0126326
749.286	0.0126131
749.364	0.0125758
749.443	0.0125311
749.521	0.0127288
749.599	0.0127198
749.677	0.0129341
749.755	0.0128481
749.833	0.0129916
749.911	0.0129878
749.989	0.0130602
750.068	0.0130047
750.146	0.0129624
750.224	0.0131223
750.302	0.0132373
750.380	0.0131981
750.458	0.0130526
750.536	0.0131358
750.614	0.0130567
750.693	0.0131107
750.771	0.0132915
750.849	0.0132159
750.927	0.0131474
751.005	0.0131995
751.083	0.0131758
751.161	0.0131991
751.239	0.0131425
751.318	0.0132365
751.396	0.0130614
751.474	0.0129987
751.552	0.0128709
751.630	0.0128802
751.708	0.0126620
751.786	0.0127081
751.864	0.0126541
751.943	0.0126419
752.021	0.0124843
752.099	0.0124519
752.177	0.0124003
752.255	0.0123312
752.333	0.0122394
752.411	0.0123410
752.489	0.0121992
752.568	0.0122533
752.646	0.0123058
752.724	0.0121859
752.802	0.0123255
752.880	0.0122346
752.958	0.0124160
753.036	0.0123774
753.114	0.0124757
753.193	0.0125314
753.271	0.0125070
753.349	0.0125893
753.427	0.0125549
753.505	0.0126672
753.583	0.0125795
753.661	0.0125415
753.739	0.0124857
753.818	0.0123878
753.896	0.0125816
753.974	0.0126013
754.052	0.0125349
754.130	0.0127350
754.208	0.0126270
754.286	0.0126755
754.364	0.0127158
754.443	0.0128127
754.521	0.0128065
754.599	0.0127624
754.677	0.0127731
754.755	0.0129699
754.833	0.0128195
754.911	0.0130089
754.989	0.0128612
755.068	0.0130996
755.146	0.0128193
755.224	0.0129399
755.302	0.0129269
755.380	0.0130589
755.458	0.0129259
755.536	0.0127789
755.614	0.0128264
755.693	0.0127696
755.771	0.0126344
755.849	0.0127795
755.927	0.0126450
756.005	0.0126087
756.083	0.0126308
756.161	0.0125993
756.239	0.0123943
756.318	0.0125247
756.396	0.0124259
756.474	0.0124492
756.552	0.0123466
756.630	0.0123075
756.708	0.0122553
756.786	0.0124618
756.864	0.0123622
756.943	0.0124937
757.021	0.0124136
757.099	0.0126205
757.177	0.0127802
757.255	0.0127477
757.333	0.0129305
757.411	0.0129062
757.489	0.0130600
757.568	0.0133147
757.646	0.0131718
757.724	0.0130441
757.802	0.0131645
757.880	0.0132165
757.958	0.0132637
758.036	0.0133072
758.114	0.0133244
758.193	0.0130878
758.271	0.0130564
758.349	0.0128876
758.427	0.0130383
758.505	0.0128661
758.583	0.0128699
758.661	0.0128651
758.739	0.0125669
758.818	0.0125628
758.896	0.0125395
758.974	0.0125770
759.052	0.0124687
759.130	0.0125346
759.208	0.0125179
759.286	0.0124661
759.364	0.0123674
759.443	0.0126387
759.521	0.0123919
759.599	0.0123950
759.677	0.0124710
759.755	0.0124699
759.833	0.0125225
759.911	0.0124970
759.989	0.0125498
760.068	0.0124721
760.146	0.0125215
760.224	0.0125831
760.302	0.0125474
760.380	0.0125483
760.458	0.0125784
760.536	0.0125804
760.614	0.0125332
760.693	0.0126472
760.771	0.0126790
760.849	0.0125189
760.927	0.0127324
761.005	0.0126981
761.083	0.0126552
761.161	0.0126365
761.239	0.0127977
761.318	0.0127228
761.396	0.0127500
761.474	0.0127007
761.552	0.0127078
761.630	0.0125425
761.708	0.0126873
761.786	0.0127020
761.864	0.0125527
761.943	0.0125372
762.021	0.0125559
762.099	0.0127776
762.177	0.0127259
762.255	0.0125687
762.333	0.0125331
762.411	0.0125575
762.489	0.0125933
762.568	0.0125597
762.646	0.0127024
762.724	0.0125249
762.802	0.0126598
762.880	0.0127708
762.958	0.0128576
763.036	0.0128809
763.114	0.0128440
763.193	0.0127980
763.271	0.0129083
763.349	0.0131245
763.427	0.0132124
763.505	0.0131055
763.583	0.0133017
763.661	0.0133550
763.739	0.0133591
763.818	0.0134201
763.896	0.0133558
763.974	0.0133780
764.052	0.0133630
764.130	0.0133965
764.208	0.0132491
764.286	0.0132495
764.364	0.0130778
764.443	0.0129947
764.521	0.0128835
764.599	0.0129272
764.677	0.0127823
764.755	0.0128215
764.833	0.0128141
764.911	0.0124483
764.989	0.0125644
765.068	0.0124588
765.146	0.0124635
765.224	0.0124062
765.302	0.0123595
765.380	0.0122768
765.458	0.0123180
765.536	0.0123223
765.614	0.0122762
765.693	0.0121560
765.771	0.0123493
765.849	0.0122268
765.927	0.0120953
766.005	0.0122401
766.083	0.0121207
766.161	0.0121321
766.239	0.0121458
766.318	0.0121150
766.396	0.0121918
766.474	0.0121500
766.552	0.0121690
766.630	0.0123186
766.708	0.0124631
766.786	0.0123164
766.864	0.0123470
766.943	0.0125198
767.021	0.0123506
767.099	0.0126276
767.177	0.0126305
767.255	0.0124969
767.333	0.0127980
767.411	0.0126971
767.489	0.0127802
767.568	0.0129364
767.646	0.0129288
767.724	0.0129572
767.802	0.0130438
767.880	0.0130973
767.958	0.0131467
768.036	0.0130868
768.114	0.0130791
768.193	0.0132256
768.271	0.0131046
768.349	0.0131645
768.427	0.0130569
768.505	0.0131709
768.583	0.0132025
768.661	0.0130137
768.739	0.0130154
768.818	0.0129462
768.896	0.0129617
768.974	0.0129933
769.052	0.0128265
769.130	0.0129330
769.208	0.0127201
769.286	0.0126070
769.364	0.0126473
769.443	0.0125620
769.521	0.0125751
769.599	0.0123611
769.677	0.0123828
769.755	0.0124422
769.833	0.0122871
769.911	0.0124274
769.989	0.0121884
770.068	0.0123447
770.146	0.0122265
770.224	0.0122995
770.302	0.0121790
770.380	0.0123351
770.458	0.0124640
770.536	0.0123136
770.614	0.0124801
770.693	0.0124942
770.771	0.0125072
770.849	0.0124273
770.927	0.0125904
771.005	0.0125726
771.083	0.0126102
771.161	0.0125787
771.239	0.0126529
771.318	0.0127117
771.396	0.0127621
771.474	0.0128388
771.552	0.0128992
771.630	0.0130428
771.708	0.0129504
771.786	0.0130957
771.864	0.0131279
771.943	0.0130222
772.021	0.0130222
772.099	0.0131059
772.177	0.0132368
772.255	0.0131476
772.333	0.0130386
772.411	0.0129921
772.489	0.0130446
772.568	0.0130518
772.646	0.0128207
772.724	0.0128375
772.802	0.0128425
772.880	0.0127491
772.958	0.0128527
773.036	0.0127705
773.114	0.0126751
773.193	0.0126986
773.271	0.0126782
773.349	0.0125742
773.427	0.0126520
773.505	0.0125310
773.583	0.0126752
773.661	0.0126367
773.739	0.0125518
773.818	0.0124709
773.896	0.0125300
773.974	0.0124512
774.052	0.0125321
774.130	0.0124323
774.208	0.0125005
774.286	0.0125467
774.364	0.0125179
774.443	0.0123962
774.521	0.0125342
774.599	0.0123857
774.677	0.0125789
774.755	0.0124318
774.833	0.0124726
774.911	0.0124740
774.989	0.0124975
775.068	0.0125805
775.146	0.0125826
775.224	0.0124429
775.302	0.0124879
775.380	0.0125411
775.458	0.0125764
775.536	0.0125427
775.614	0.0125579
775.693	0.0126744
775.771	0.0125719
775.849	0.0125670
775.927	0.0126717
776.005	0.0127141
776.083	0.0127173
776.161	0.0127824
776.239	0.0127042
776.318	0.0127284
776.396	0.0127779
776.474	0.0126251
776.552	0.0127331
776.630	0.0126838
776.708	0.0126950
776.786	0.0126509
776.864	0.0127688
776.943	0.0128553
777.021	0.0128581
777.099	0.0127710
777.177	0.0127792
777.255	0.0128804
777.333	0.0127175
777.411	0.0126276
777.489	0.0127364
777.568	0.0126328
777.646	0.0128111
777.724	0.0127439
777.802	0.0126817
777.880	0.0126234
777.958	0.0127939
778.036	0.0127206
778.114	0.0128004
778.193	0.0128947
778.271	0.0127191
778.349	0.0127345
778.427	0.0128126
778.505	0.0127363
778.583	0.0127838
778.661	0.0129002
778.739	0.0128603
778.818	0.0128189
778.896	0.0127872
778.974	0.0127522
779.052	0.0126814
779.130	0.0128741
779.208	0.0127601
779.286	0.0126224
779.364	0.0126821
779.443	0.0127889
779.521	0.0126699
779.599	0.0126988
779.677	0.0126516
779.755	0.0124971
779.833	0.0126249
779.911	0.0124780
779.989	0.0125413
780.068	0.0126125
780.146	0.0125518
780.224	0.0125179
780.302	0.0125997
780.380	0.0125534
780.458	0.0125584
780.536	0.0126173
780.614	0.0125076
780.693	0.0124336
780.771	0.0125774
780.849	0.0125774
780.927	0.0125233
781.005	0.0123698
781.083	0.0125352
781.161	0.0126183
781.239	0.0125210
781.318	0.0123740
781.396	0.0125309
781.474	0.0123487
781.552	0.0124817
781.630	0.0125245
781.708	0.0125872
781.786	0.0125130
781.864	0.0124689
781.943	0.0125002
782.021	0.0126221
782.099	0.0126074
782.177	0.0125719
782.255	0.0125767
782.333	0.0126320
782.411	0.0126286
782.489	0.0126802
782.568	0.0126691
782.646	0.0125821
782.724	0.0127158
782.802	0.0127834
782.880	0.0127844
782.958	0.0126315
783.036	0.0126471
783.114	0.0127982
783.193	0.0127657
783.271	0.0127767
783.349	0.0128239
783.427	0.0128368
783.505	0.0127228
783.583	0.0128613
783.661	0.0128178
783.739	0.0128488
783.818	0.0129053
783.896	0.0128874
783.974	0.0128146
784.052	0.0129738
784.130	0.0128938
784.208	0.0128038
784.286	0.0128822
784.364	0.0128963
784.443	0.0130141
784.521	0.0129188
784.599	0.0128511
784.677	0.0128522
784.755	0.0128331
784.833	0.0129518
784.911	0.0127866
784.989	0.0127971
785.068	0.0126907
785.146	0.0127808
785.224	0.0127003
785.302	0.0126667
785.380	0.0127267
785.458	0.0127572
785.536	0.0125931
785.614	0.0126057
785.693	0.0126617
785.771	0.0124602
785.849	0.0124606
785.927	0.0125147
786.005	0.0124265
786.083	0.0125038
786.161	0.0123872
786.239	0.0123600
786.318	0.0124182
786.396	0.0125433
786.474	0.0125177
786.552	0.0125589
786.630	0.0124601
786.708	0.0124901
786.786	0.0126962
786.864	0.0126486
786.943	0.0128354
787.021	0.0128506
787.099	0.0127056
787.177	0.0128647
787.255	0.0128930
787.333	0.0128266
787.411	0.0126755
787.489	0.0128157
787.568	0.0127586
787.646	0.0127435
787.724	0.0125607
787.802	0.0126096
787.880	0.0125967
787.958	0.0123518
788.036	0.0124757
788.114	0.0125889
788.193	0.0125212
788.271	0.0123351
788.349	0.0123663
788.427	0.0125390
788.505	0.0124730
788.583	0.0125944
788.661	0.0126216
788.739	0.0125249
788.818	0.0126638
788.896	0.0127335
788.974	0.0129106
789.052	0.0128673
789.130	0.0129372
789.208	0.0130752
789.286	0.0130682
789.364	0.0129188
789.443	0.0130965
789.521	0.0130989
789.599	0.0128994
789.677	0.0129462
789.755	0.0128471
789.833	0.0127508
789.911	0.0126756
789.989	0.0127916
790.068	0.0125043
790.146	0.0125430
790.224	0.0125786
790.302	0.0123174
790.380	0.0123500
790.458	0.0122951
790.536	0.0122328
790.614	0.0122132
790.693	0.0121570
790.771	0.0121487
790.849	0.0122358
790.927	0.0121218
791.005	0.0122398
791.083	0.0122633
791.161	0.0124355
791.239	0.0124833
791.318	0.0126061
791.396	0.0128288
791.474	0.0128872
791.552	0.0128475
791.630	0.0129646
791.708	0.0130749
791.786	0.0130354
791.864	0.0130946
791.943	0.0131933
792.021	0.0133060
792.099	0.0131808
792.177	0.0132258
792.255	0.0130932
792.333	0.0130025
792.411	0.0129864
792.489	0.0128960
792.568	0.0126722
792.646	0.0126915
792.724	0.0124022
792.802	0.0123448
792.880	0.0122956
792.958	0.0121198
793.036	0.0119149
793.114	0.0119102
793.193	0.0118645
793.271	0.0118409
793.349	0.0119971
793.427	0.0118909
793.505	0.0119644
793.583	0.0121083
793.661	0.0122041
793.739	0.0123822
793.818	0.0125191
793.896	0.0126885
793.974	0.0128033
794.052	0.0128438
794.130	0.0131517
794.208	0.0131291
794.286	0.0131682
794.364	0.0133794
794.443	0.0133540
794.521	0.0135565
794.599	0.0135086
794.677	0.0135345
794.755	0.0133820
794.833	0.0134347
794.911	0.0134776
794.989	0.0134598
795.068	0.0133354
795.146	0.0132038
795.224	0.0130739
795.302	0.0130045
795.380	0.0128577
795.458	0.0128986
795.536	0.0127092
795.614	0.0126127
795.693	0.0124365
795.771	0.0122861
795.849	0.0121310
795.927	0.0120171
796.005	0.0120000
796.083	0.0119115
796.161	0.0119981
796.239	0.0118839
796.318	0.0118507
796.396	0.0117796
796.474	0.0117461
796.552	0.0117337
796.630	0.0118809
796.708	0.0119756
796.786	0.0119306
796.864	0.0119938
796.943	0.0121923
797.021	0.0124517
797.099	0.0125500
797.177	0.0126281
797.255	0.0126465
797.333	0.0129444
797.411	0.0130080
797.489	0.0131884
797.568	0.0131517
797.646	0.0132741
797.724	0.0134621
797.802	0.0132818
797.880	0.0134282
797.958	0.0135028
798.036	0.0134908
798.114	0.0134350
798.193	0.0135023
798.271	0.0133129
798.349	0.0132323
798.427	0.0132892
798.505	0.0131575
798.583	0.0130152
798.661	0.0129688
798.739	0.0127735
798.818	0.0127844
798.896	0.0126206
798.974	0.0126080
799.052	0.0126047
799.130	0.0124995
799.208	0.0124294
799.286	0.0124110
799.364	0.0123314
799.443	0.0122319
799.521	0.0123730
799.599	0.0121493
799.677	0.0120936
799.755	0.0122900
799.833	0.0122701
799.911	0.0123685
799.989	0.0122017
800.068	0.0122655
800.146	0.0123643
800.224	0.0123498
800.302	0.0123735
800.380	0.0125218
800.458	0.0125314
800.536	0.0125043
800.614	0.0125961
800.693	0.0126986
800.771	0.0128555
800.849	0.0129051
800.927	0.0129487
801.005	0.0128702
801.083	0.0128738
801.161	0.0131864
801.239	0.0130655
801.318	0.0130965
801.396	0.0130766
801.474	0.0131590
801.552	0.0131567
801.630	0.0130038
801.708	0.0129880
801.786	0.0129716
801.864	0.0130100
801.943	0.0128228
802.021	0.0126976
802.099	0.0126780
802.177	0.0126346
802.255	0.0124930
802.333	0.0124574
802.411	0.0124389
802.489	0.0122836
802.568	0.0122532
802.646	0.0122482
802.724	0.0121941
802.802	0.0122480
802.880	0.0123553
802.958	0.0122498
803.036	0.0123433
803.114	0.0124415
803.193	0.0124271
803.271	0.0124029
803.349	0.0125776
803.427	0.0125245
803.505	0.0126096
803.583	0.0126447
803.661	0.0128297
803.739	0.0127365
803.818	0.0127970
803.896	0.0128033
803.974	0.0128555
804.052	0.0128417
804.130	0.0130244
804.208	0.0129835
804.286	0.0128767
804.364	0.0129194
804.443	0.0129929
804.521	0.0129742
804.599	0.0128476
804.677	0.0128538
804.755	0.0128186
804.833	0.0128482
804.911	0.0129347
804.989	0.0128300
805.068	0.0127599
805.146	0.0127718
805.224	0.0127914
805.302	0.0126363
805.380	0.0125520
805.458	0.0124645
805.536	0.0125815
805.614	0.0125551
805.693	0.0125683
805.771	0.0124023
805.849	0.0124429
805.927	0.0124147
806.005	0.0123666
806.083	0.0122108
806.161	0.0124550
806.239	0.0125568
806.318	0.0124733
806.396	0.0124039
806.474	0.0125179
806.552	0.0126032
806.630	0.0125466
806.708	0.0124303
806.786	0.0125960
806.864	0.0127139
806.943	0.0126157
807.021	0.0126441
807.099	0.0128031
807.177	0.0128052
807.255	0.0129052
807.333	0.0129501
807.411	0.0129655
807.489	0.0130425
807.568	0.0130467
807.646	0.0131235
807.724	0.0132069
807.802	0.0132298
807.880	0.0130842
807.958	0.0130737
808.036	0.0130188
808.114	0.0130568
808.193	0.0129784
808.271	0.0128484
808.349	0.0126694
808.427	0.0128637
808.505	0.0127206
808.583	0.0127940
808.661	0.0125481
808.739	0.0124801
808.818	0.0125018
808.896	0.0124578
808.974	0.0124625
809.052	0.0124847
809.130	0.0124440
809.208	0.0124341
809.286	0.0123191
809.364	0.0122392
809.443	0.0122394
809.521	0.0121665
809.599	0.0121764
809.677	0.0122299
809.755	0.0121505
809.833	0.0123032
809.911	0.0123604
809.989	0.0123150
810.068	0.0122429
810.146	0.0123542
810.224	0.0124659
810.302	0.0124600
810.380	0.0125898
810.458	0.0124845
810.536	0.0126237
810.614	0.0127130
810.693	0.0126942
810.771	0.0128074
810.849	0.0128894
810.927	0.0128703
811.005	0.0129357
811.083	0.0129336
811.161	0.0129137
811.239	0.0128822
811.318	0.0129110
811.396	0.0128928
811.474	0.0129237
811.552	0.0127547
811.630	0.0129703
811.708	0.0129044
811.786	0.0128754
811.864	0.0128342
811.943	0.0128108
812.021	0.0126897
812.099	0.0127171
812.177	0.0126921
812.255	0.0126778
812.333	0.0127817
812.411	0.0127636
812.489	0.0127528
812.568	0.0127136
812.646	0.0127494
812.724	0.0128718
812.802	0.0128787
812.880	0.0128286
812.958	0.0128458
813.036	0.0128123
813.114	0.0129741
813.193	0.0129216
813.271	0.0127844
813.349	0.0129458
813.427	0.0129842
813.505	0.0129990
813.583	0.0129332
813.661	0.0127253
813.739	0.0127652
813.818	0.0126997
813.896	0.0126444
813.974	0.0127187
814.052	0.0125401
814.130	0.0122869
814.208	0.0122695
814.286	0.0124081
814.364	0.0122853
814.443	0.0122132
814.521	0.0120240
814.599	0.0121907
814.677	0.0121592
814.755	0.0120190
814.833	0.0119622
814.911	0.0121622
814.989	0.0120596
815.068	0.0122641
815.146	0.0122150
815.224	0.0123895
815.302	0.0125003
815.380	0.0125417
815.458	0.0127042
815.536	0.0127952
815.614	0.0128221
815.693	0.0128088
815.771	0.0130235
815.849	0.0128831
815.927	0.0129400
816.005	0.0130523
816.083	0.0130376
816.161	0.0130573
816.239	0.0130110
816.318	0.0129974
816.396	0.0129730
816.474	0.0129255
816.552	0.0129517
816.630	0.0128706
816.708	0.0128017
816.786	0.0127899
816.864	0.0126799
816.943	0.0126792
817.021	0.0125930
817.099	0.0126747
817.177	0.0125323
817.255	0.0125019
817.333	0.0124715
817.411	0.0124747
817.489	0.0125153
817.568	0.0122699
817.646	0.0123225
817.724	0.0122590
817.802	0.0124345
817.880	0.0122927
817.958	0.0125553
818.036	0.0126273
818.114	0.0126189
818.193	0.0126559
818.271	0.0125851
818.349	0.0127328
818.427	0.0127333
818.505	0.0128306
818.583	0.0129578
818.661	0.0128293
818.739	0.0129192
818.818	0.0131048
818.896	0.0130761
818.974	0.0130159
819.052	0.0130798
819.130	0.0129958
819.208	0.0130608
819.286	0.0128510
819.364	0.0129335
819.443	0.0127962
819.521	0.0126714
819.599	0.0127019
819.677	0.0125554
819.755	0.0125883
819.833	0.0123861
819.911	0.0123202
819.989	0.0122930
820.068	0.0122543
820.146	0.0122215
820.224	0.0122708
820.302	0.0121173
820.380	0.0120721
820.458	0.0123236
820.536	0.0122407
820.614	0.0120435
820.693	0.0122999
820.771	0.0124073
820.849	0.0122939
820.927	0.0124001
821.005	0.0124331
821.083	0.0125302
821.161	0.0125079
821.239	0.0126536
821.318	0.0128198
821.396	0.0128161
821.474	0.0127586
821.552	0.0127660
821.630	0.0127692
821.708	0.0127673
821.786	0.0128818
821.864	0.0128898
821.943	0.0127983
822.021	0.0128469
822.099	0.0128379
822.177	0.0126366
822.255	0.0127271
822.333	0.0126693
822.411	0.0126604
822.489	0.0127712
822.568	0.0127098
822.646	0.0126698
822.724	0.0126629
822.802	0.0125029
822.880	0.0126611
822.958	0.0127074
823.036	0.0126224
823.114	0.0126121
823.193	0.0125623
823.271	0.0126793
823.349	0.0127402
823.427	0.0127357
823.505	0.0127216
823.583	0.0127877
823.661	0.0127396
823.739	0.0130060
823.818	0.0130167
823.896	0.0128992
823.974	0.0129667
824.052	0.0129840
824.130	0.0130112
824.208	0.0130927
824.286	0.0131576
824.364	0.0128896
824.443	0.0129436
824.521	0.0130217
824.599	0.0129813
824.677	0.0129818
824.755	0.0127728
824.833	0.0127316
824.911	0.0128094
824.989	0.0127246
825.068	0.0124851
825.146	0.0124590
825.224	0.0126235
825.302	0.0124793
825.380	0.0122957
825.458	0.0121971
825.536	0.0121871
825.614	0.0122832
825.693	0.0122562
825.771	0.0122057
825.849	0.0120058
825.927	0.0121811
826.005	0.0123515
826.083	0.0120393
826.161	0.0122552
826.239	0.0121593
826.318	0.0123194
826.396	0.0122678
826.474	0.0123230
826.552	0.0124990
826.630	0.0124922
826.708	0.0125747
826.786	0.0127267
826.864	0.0126237
826.943	0.0129272
827.021	0.0129668
827.099	0.0129404
827.177	0.0129915
827.255	0.0129205
827.333	0.0130844
827.411	0.0129272
827.489	0.0129923
827.568	0.0129450
827.646	0.0129672
827.724	0.0130442
827.802	0.0129591
827.880	0.0129507
827.958	0.0128648
828.036	0.0130066
828.114	0.0127069
828.193	0.0128385
828.271	0.0126888
828.349	0.0127721
828.427	0.0127547
828.505	0.0127139
828.583	0.0128194
828.661	0.0126345
828.739	0.0126900
828.818	0.0127154
828.896	0.0126052
828.974	0.0125753
829.052	0.0126569
829.130	0.0125804
829.208	0.0125351
829.286	0.0126114
829.364	0.0124996
829.443	0.0126898
829.521	0.0126416
829.599	0.0126948
829.677	0.0126114
829.755	0.0127050
829.833	0.0127880
829.911	0.0126542
829.989	0.0128400
830.068	0.0127701
830.146	0.0128391
830.224	0.0128630
830.302	0.0129141
830.380	0.0127853
830.458	0.0130202
830.536	0.0130142
830.614	0.0130762
830.693	0.0130046
830.771	0.0129061
830.849	0.0129963
830.927	0.0131522
831.005	0.0129804
831.083	0.0127308
831.161	0.0126510
831.239	0.0128480
831.318	0.0126782
831.396	0.0127132
831.474	0.0127478
831.552	0.0126317
831.630	0.0125251
831.708	0.0126529
831.786	0.0125943
831.864	0.0124439
831.943	0.0124895
832.021	0.0123794
832.099	0.0124803
832.177	0.0125441
832.255	0.0124303
832.333	0.0124360
832.411	0.0125906
832.489	0.0125498
832.568	0.0126263
832.646	0.0127084
832.724	0.0127438
832.802	0.0127257
832.880	0.0127296
832.958	0.0128291
833.036	0.0126527
833.114	0.0126727
833.193	0.0126357
833.271	0.0127135
833.349	0.0126492
833.427	0.0125472
833.505	0.0126135
833.583	0.0123258
833.661	0.0125145
833.739	0.0126243
833.818	0.0124458
833.896	0.0124634
833.974	0.0124178
834.052	0.0124052
834.130	0.0125433
834.208	0.0125648
834.286	0.0125568
834.364	0.0123459
834.443	0.0125391
834.521	0.0126491
834.599	0.0125431
834.677	0.0125916
834.755	0.0127614
834.833	0.0127306
834.911	0.0128008
834.989	0.0128849
835.068	0.0128362
835.146	0.0129440
835.224	0.0129759
835.302	0.0129225
835.380	0.0131145
835.458	0.0132033
835.536	0.0132142
835.614	0.0132257
835.693	0.0132335
835.771	0.0131818
835.849	0.0132009
835.927	0.0132140
836.005	0.0133331
836.083	0.0131171
836.161	0.0132286
836.239	0.0133358
836.318	0.0132343
836.396	0.0131998
836.474	0.0130439
836.552	0.0130784
836.630	0.0131075
836.708	0.0129539
836.786	0.0130530
836.864	0.0128004
836.943	0.0128376
837.021	0.0126999
837.099	0.0127299
837.177	0.0127486
837.255	0.0124797
837.333	0.0123796
837.411	0.0125346
837.489	0.0124313
837.568	0.0124065
837.646	0.0123581
837.724	0.0122910
837.802	0.0121920
837.880	0.0120415
837.958	0.0121557
838.036	0.0121610
838.114	0.0121960
838.193	0.0120565
838.271	0.0121599
838.349	0.0122964
838.427	0.0121635
838.505	0.0121279
838.583	0.0121166
838.661	0.0122153
838.739	0.0122881
838.818	0.0120480
838.896	0.0123344
838.974	0.0122799
839.052	0.0124433
839.130	0.0123200
839.208	0.0124896
839.286	0.0125887
839.364	0.0125812
839.443	0.0125116
839.521	0.0124398
839.599	0.0126065
839.677	0.0128204
839.755	0.0127750
839.833	0.0128391
839.911	0.0128397
839.989	0.0129802
840.068	0.0130333
840.146	0.0130405
840.224	0.0129372
840.302	0.0131137
840.380	0.0130712
840.458	0.0132207
840.536	0.0132661
840.614	0.0131550
840.693	0.0130761
840.771	0.0131522
840.849	0.0132250
840.927	0.0131303
841.005	0.0130807
841.083	0.0131966
841.161	0.0130903
841.239	0.0130126
841.318	0.0130609
841.396	0.0130422
841.474	0.0131305
841.552	0.0129617
841.630	0.0129227
841.708	0.0129477
841.786	0.0128703
841.864	0.0129760
841.943	0.0129198
842.021	0.0128593
842.099	0.0127964
842.177	0.0128928
842.255	0.0128835
842.333	0.0127454
842.411	0.0126858
842.489	0.0126665
842.568	0.0126885
842.646	0.0125974
842.724	0.0125323
842.802	0.0125503
842.880	0.0126197
842.958	0.0125072
843.036	0.0123262
843.114	0.0125333
843.193	0.0124079
843.271	0.0124241
843.349	0.0125119
843.427	0.0124389
843.505	0.0121019
843.583	0.0123347
843.661	0.0123439
843.739	0.0122745
843.818	0.0122332
843.896	0.0122844
843.974	0.0121484
844.052	0.0122515
844.130	0.0123607
844.208	0.0123180
844.286	0.0123687
844.364	0.0123499
844.443	0.0123326
844.521	0.0123241
844.599	0.0125109
844.677	0.0125551
844.755	0.0123805
844.833	0.0124355
844.911	0.0124554
844.989	0.0123828
845.068	0.0125205
845.146	0.0125336
845.224	0.0127219
845.302	0.0126657
845.380	0.0126707
845.458	0.0127265
845.536	0.0127869
845.614	0.0127917
845.693	0.0129136
845.771	0.0130975
845.849	0.0130253
845.927	0.0130011
846.005	0.0132986
846.083	0.0129523
846.161	0.0130659
846.239	0.0131315
846.318	0.0132848
846.396	0.0133182
846.474	0.0131140
846.552	0.0131218
846.630	0.0131907
846.708	0.0131262
846.786	0.0132719
846.864	0.0132008
846.943	0.0133041
847.021	0.0131861
847.099	0.0131831
847.177	0.0133147
847.255	0.0131979
847.333	0.0132138
847.411	0.0131697
847.489	0.0129076
847.568	0.0129855
847.646	0.0127960
847.724	0.0129252
847.802	0.0127688
847.880	0.0127019
847.958	0.0125526
848.036	0.0125531
848.114	0.0125485
848.193	0.0123943
848.271	0.0125262
848.349	0.0123126
848.427	0.0122417
848.505	0.0122580
848.583	0.0122147
848.661	0.0121613
848.739	0.0121415
848.818	0.0119884
848.896	0.0121286
848.974	0.0120605
849.052	0.0121152
849.130	0.0120301
849.208	0.0121787
849.286	0.0122464
849.364	0.0122186
849.443	0.0122092
849.521	0.0122249
849.599	0.0125357
849.677	0.0123933
849.755	0.0123440
849.833	0.0125563
849.911	0.0126321
849.989	0.0125690
850.068	0.0126560
850.146	0.0128781
850.224	0.0127979
850.302	0.0128667
850.380	0.0127685
850.458	0.0127816
850.536	0.0128822
850.614	0.0129758
850.693	0.0130451
850.771	0.0131551
850.849	0.0129675
850.927	0.0131091
851.005	0.0131773
851.083	0.0130978
851.161	0.0129387
851.239	0.0132745
851.318	0.0130015
851.396	0.0130531
851.474	0.0129698
851.552	0.0130006
851.630	0.0130956
851.708	0.0130426
851.786	0.0129702
851.864	0.0128749
851.943	0.0128458
852.021	0.0128986
852.099	0.0128156
852.177	0.0127200
852.255	0.0128527
852.333	0.0127142
852.411	0.0128323
852.489	0.0128556
852.568	0.0127814
852.646	0.0125942
852.724	0.0127023
852.802	0.0127309
852.880	0.0127230
852.958	0.0126086
853.036	0.0126822
853.114	0.0125906
853.193	0.0126599
853.271	0.0125580
853.349	0.0124796
853.427	0.0126177
853.505	0.0125781
853.583	0.0124577
853.661	0.0125253
853.739	0.0125018
853.818	0.0125268
853.896	0.0125171
853.974	0.0126546
854.052	0.0126414
854.130	0.0124506
854.208	0.0126244
854.286	0.0125430
854.364	0.0125815
854.443	0.0124680
854.521	0.0126331
854.599	0.0125471
854.677	0.0125945
854.755	0.0125937
854.833	0.0125777
854.911	0.0126084
854.989	0.0127364
855.068	0.0128032
855.146	0.0126749
855.224	0.0127398
855.302	0.0128423
855.380	0.0127045
855.458	0.0126944
855.536	0.0126979
855.614	0.0127915
855.693	0.0128912
855.771	0.0128184
855.849	0.0130183
855.927	0.0127339
856.005	0.0127437
856.083	0.0128660
856.161	0.0129713
856.239	0.0127766
856.318	0.0128183
856.396	0.0129265
856.474	0.0128084
856.552	0.0128273
856.630	0.0127679
856.708	0.0127473
856.786	0.0128452
856.864	0.0127500
856.943	0.0126160
857.021	0.0127755
857.099	0.0127071
857.177	0.0127490
857.255	0.0126392
857.333	0.0126299
857.411	0.0125454
857.489	0.0125576
857.568	0.0126893
857.646	0.0126571
857.724	0.0127840
857.802	0.0126212
857.880	0.0127897
857.958	0.0126369
858.036	0.0126409
858.114	0.0128255
858.193	0.0126347
858.271	0.0126299
858.349	0.0126767
858.427	0.0128136
858.505	0.0128020
858.583	0.0127328
858.661	0.0126993
858.739	0.0127320
858.818	0.0127269
858.896	0.0127277
858.974	0.0127050
859.052	0.0125795
859.130	0.0127097
859.208	0.0125674
859.286	0.0128174
859.364	0.0126637
859.443	0.0127303
859.521	0.0127281
859.599	0.0126794
859.677	0.0127332
859.755	0.0128222
859.833	0.0128303
859.911	0.0127537
859.989	0.0126300
860.068	0.0126600
860.146	0.0127334
860.224	0.0126856
860.302	0.0127556
860.380	0.0127039
860.458	0.0127264
860.536	0.0127705
860.614	0.0128022
860.693	0.0126408
860.771	0.0127348
860.849	0.0127050
860.927	0.0126982
861.005	0.0127525
861.083	0.0127862
861.161	0.0127557
861.239	0.0127048
861.318	0.0127641
861.396	0.0126089
861.474	0.0126491
861.552	0.0126695
861.630	0.0126009
861.708	0.0126888
861.786	0.0127402
861.864	0.0126119
861.943	0.0127258
862.021	0.0126417
862.099	0.0127032
862.177	0.0127119
862.255	0.0126531
862.333	0.0130000
862.411	0.0126880
862.489	0.0127366
862.568	0.0126748
862.646	0.0126897
862.724	0.0126172
862.802	0.0128001
862.880	0.0127726
862.958	0.0126346
863.036	0.0128804
863.114	0.0128034
863.193	0.0127193
863.271	0.0126649
863.349	0.0126888
863.427	0.0126730
863.505	0.0126546
863.583	0.0127237
863.661	0.0126060
863.739	0.0125786
863.818	0.0126395
863.896	0.0125742
863.974	0.0124595
864.052	0.0125659
864.130	0.0124004
864.208	0.0125415
864.286	0.0126874
864.364	0.0127044
864.443	0.0126754
864.521	0.0125809
864.599	0.0126160
864.677	0.0125372
864.755	0.0126388
864.833	0.0126775
864.911	0.0127452
864.989	0.0127039
865.068	0.0127910
865.146	0.0126992
865.224	0.0127676
865.302	0.0128409
865.380	0.0128753
865.458	0.0126817
865.536	0.0127319
865.614	0.0127882
865.693	0.0128136
865.771	0.0127598
865.849	0.0127337
865.927	0.0128963
866.005	0.0127007
866.083	0.0127309
866.161	0.0127194
866.239	0.0126466
866.318	0.0126546
866.396	0.0127928
866.474	0.0125930
866.552	0.0127029
866.630	0.0128076
866.708	0.0126476
866.786	0.0126125
866.864	0.0128149
866.943	0.0126456
867.021	0.0127319
867.099	0.0127152
867.177	0.0127273
867.255	0.0127447
867.333	0.0128512
867.411	0.0127792
867.489	0.0126910
867.568	0.0128190
867.646	0.0127992
867.724	0.0128472
867.802	0.0127795
867.880	0.0128053
867.958	0.0128516
868.036	0.0127536
868.114	0.0126686
868.193	0.0128565
868.271	0.0127753
868.349	0.0127142
868.427	0.0128073
868.505	0.0126514
868.583	0.0127427
868.661	0.0127151
868.739	0.0126023
868.818	0.0125948
868.896	0.0125984
868.974	0.0126093
869.052	0.0125330
869.130	0.0124387
869.208	0.0124570
869.286	0.0123680
869.364	0.0125319
869.443	0.0124189
869.521	0.0123904
869.599	0.0124400
869.677	0.0124384
869.755	0.0125355
869.833	0.0125420
869.911	0.0124389
869.989	0.0123904
870.068	0.0125826
870.146	0.0126627
870.224	0.0125401
870.302	0.0126483
870.380	0.0126603
870.458	0.0128534
870.536	0.0128216
870.614	0.0127427
870.693	0.0127645
870.771	0.0127191
870.849	0.0126784
870.927	0.0127723
871.005	0.0127704
871.083	0.0126081
871.161	0.0127470
871.239	0.0125900
871.318	0.0126637
871.396	0.0128277
871.474	0.0126457
871.552	0.0126290
871.630	0.0127413
871.708	0.0125488
871.786	0.0125475
871.864	0.0126917
871.943	0.0127007
872.021	0.0126189
872.099	0.0126823
872.177	0.0126594
872.255	0.0128362
872.333	0.0128938
872.411	0.0127435
872.489	0.0127814
872.568	0.0126753
872.646	0.0127480
872.724	0.0126999
872.802	0.0127451
872.880	0.0127554
872.958	0.0126098
873.036	0.0127840
873.114	0.0127023
873.193	0.0125993
873.271	0.0127399
873.349	0.0127002
873.427	0.0126385
873.505	0.0126692
873.583	0.0127610
873.661	0.0126984
873.739	0.0128122
873.818	0.0125687
873.896	0.0125578
873.974	0.0125208
874.052	0.0125485
874.130	0.0125848
874.208	0.0125838
874.286	0.0124839
874.364	0.0126458
874.443	0.0125827
874.521	0.0126199
874.599	0.0126283
874.677	0.0127776
874.755	0.0125552
874.833	0.0126075
874.911	0.0126351
874.989	0.0126916
875.068	0.0128364
875.146	0.0126119
875.224	0.0125970
875.302	0.0127365
875.380	0.0126497
875.458	0.0126546
875.536	0.0126645
875.614	0.0126308
875.693	0.0126871
875.771	0.0127666
875.849	0.0126500
875.927	0.0126623
876.005	0.0127048
876.083	0.0126634
876.161	0.0125584
876.239	0.0125751
876.318	0.0126544
876.396	0.0125610
876.474	0.0127454
876.552	0.0125369
876.630	0.0125443
876.708	0.0125864
876.786	0.0125515
876.864	0.0126746
876.943	0.0126376
877.021	0.0125962
877.099	0.0125909
877.177	0.0126508
877.255	0.0126007
877.333	0.0126219
877.411	0.0127092
877.489	0.0126015
877.568	0.0125830
877.646	0.0126347
877.724	0.0126516
877.802	0.0126340
877.880	0.0127273
877.958	0.0127229
878.036	0.0128060
878.114	0.0126234
878.193	0.0126888
878.271	0.0125890
878.349	0.0127316
878.427	0.0126975
878.505	0.0127603
878.583	0.0126868
878.661	0.0127206
878.739	0.0127979
878.818	0.0125842
878.896	0.0127084
878.974	0.0126197
879.052	0.0127776
879.130	0.0129050
879.208	0.0127380
879.286	0.0126804
879.364	0.0127965
879.443	0.0125907
879.521	0.0126398
879.599	0.0127877
879.677	0.0127637
879.755	0.0128226
879.833	0.0128196
879.911	0.0128639
879.989	0.0127718
880.068	0.0126628
880.146	0.0129489
880.224	0.0128318
880.302	0.0128374
880.380	0.0128891
880.458	0.0127541
880.536	0.0128119
880.614	0.0127808
880.693	0.0127562
880.771	0.0126743
880.849	0.0127173
880.927	0.0126807
881.005	0.0126286
881.083	0.0125785
881.161	0.0125851
881.239	0.0125253
881.318	0.0125277
881.396	0.0123447
881.474	0.0125192
881.552	0.0125182
881.630	0.0125362
881.708	0.0126254
881.786	0.0125273
881.864	0.0125430
881.943	0.0125724
882.021	0.0125755
882.099	0.0125343
882.177	0.0125463
882.255	0.0124103
882.333	0.0124337
882.411	0.0123545
882.489	0.0123669
882.568	0.0123707
882.646	0.0122997
882.724	0.0123008
882.802	0.0123735
882.880	0.0123647
882.958	0.0123300
883.036	0.0122974
883.114	0.0123995
883.193	0.0124789
883.271	0.0124736
883.349	0.0124897
883.427	0.0125241
883.505	0.0125826
883.583	0.0126660
883.661	0.0127675
883.739	0.0128358
883.818	0.0129118
883.896	0.0131215
883.974	0.0131732
884.052	0.0131434
884.130	0.0130899
884.208	0.0131026
884.286	0.0131702
884.364	0.0131438
884.443	0.0131738
884.521	0.0129815
884.599	0.0129410
884.677	0.0128701
884.755	0.0128294
884.833	0.0127074
884.911	0.0125334
884.989	0.0123716
885.068	0.0124096
885.146	0.0123582
885.224	0.0122533
885.302	0.0122916
885.380	0.0121812
885.458	0.0122673
885.536	0.0122348
885.614	0.0122810
885.693	0.0121992
885.771	0.0123226
885.849	0.0125197
885.927	0.0127172
886.005	0.0125441
886.083	0.0126847
886.161	0.0128241
886.239	0.0128925
886.318	0.0128571
886.396	0.0131110
886.474	0.0131702
886.552	0.0132396
886.630	0.0132024
886.708	0.0133137
886.786	0.0132674
886.864	0.0131607
886.943	0.0130837
887.021	0.0130542
887.099	0.0129360
887.177	0.0128790
887.255	0.0126469
887.333	0.0126791
887.411	0.0124078
887.489	0.0122557
887.568	0.0121421
887.646	0.0120091
887.724	0.0119039
887.802	0.0117176
887.880	0.0119231
887.958	0.0119208
888.036	0.0117973
888.114	0.0119341
888.193	0.0119682
888.271	0.0119930
888.349	0.0120084
888.427	0.0122393
888.505	0.0123466
888.583	0.0124160
888.661	0.0126117
888.739	0.0127925
888.818	0.0128381
888.896	0.0129069
888.974	0.0130628
889.052	0.0132130
889.130	0.0130821
889.208	0.0131857
889.286	0.0133767
889.364	0.0133588
889.443	0.0133527
889.521	0.0133150
889.599	0.0133637
889.677	0.0132722
889.755	0.0130226
889.833	0.0129757
889.911	0.0129365
889.989	0.0127609
890.068	0.0127481
890.146	0.0125243
890.224	0.0125088
890.302	0.0125280
890.380	0.0123740
890.458	0.0121772
890.536	0.0121361
890.614	0.0122059
890.693	0.0122149
890.771	0.0119307
890.849	0.0122449
890.927	0.0121773
891.005	0.0121813
891.083	0.0123154
891.161	0.0120732
891.239	0.0122946
891.318	0.0125546
891.396	0.0124600
891.474	0.0125550
891.552	0.0125994
891.630	0.0128133
891.708	0.0128069
891.786	0.0127740
891.864	0.0129784
891.943	0.0130275
892.021	0.0131435
892.099	0.0131916
892.177	0.0130389
892.255	0.0132121
892.333	0.0133894
892.411	0.0132911
892.489	0.0130643
892.568	0.0130216
892.646	0.0129967
892.724	0.0130357
892.802	0.0129362
892.880	0.0128507
892.958	0.0127752
893.036	0.0127673
893.114	0.0127312
893.193	0.0126210
893.271	0.0126321
893.349	0.0126936
893.427	0.0125084
893.505	0.0124239
893.583	0.0123804
893.661	0.0123138
893.739	0.0122716
893.818	0.0123782
893.896	0.0122218
893.974	0.0123665
894.052	0.0123138
894.130	0.0122907
894.208	0.0121873
894.286	0.0122242
894.364	0.0123774
894.443	0.0124101
894.521	0.0123920
894.599	0.0123825
894.677	0.0125941
894.755	0.0125365
894.833	0.0126373
894.911	0.0125179
894.989	0.0125169
895.068	0.0125701
895.146	0.0126579
895.224	0.0127322
895.302	0.0128925
895.380	0.0128378
895.458	0.0129517
895.536	0.0129712
895.614	0.0130818
895.693	0.0130988
895.771	0.0129704
895.849	0.0129892
895.927	0.0132244
896.005	0.0131464
896.083	0.0131126
896.161	0.0131576
896.239	0.0130643
896.318	0.0130585
896.396	0.0130412
896.474	0.0129893
896.552	0.0128266
896.630	0.0128581
896.708	0.0126335
896.786	0.0126564
896.864	0.0127069
896.943	0.0124458
897.021	0.0124622
897.099	0.0123685
897.177	0.0124323
897.255	0.0122733
897.333	0.0122096
897.411	0.0122564
897.489	0.0120934
897.568	0.0120802
897.646	0.0119596
897.724	0.0121832
897.802	0.0119695
897.880	0.0120087
897.958	0.0122244
898.036	0.0121397
898.114	0.0121344
898.193	0.0122156
898.271	0.0121690
898.349	0.0124812
898.427	0.0123354
898.505	0.0123302
898.583	0.0125849
898.661	0.0126309
898.739	0.0127329
898.818	0.0128120
898.896	0.0128486
898.974	0.0128388
899.052	0.0129018
899.130	0.0130217
899.208	0.0131701
899.286	0.0129453
899.364	0.0128732
899.443	0.0130767
899.521	0.0129952
899.599	0.0130291
899.677	0.0128432
899.755	0.0129530
899.833	0.0128754
899.911	0.0128250
899.989	0.0127674
900.068	0.0127152
900.146	0.0126904
900.224	0.0126980
900.302	0.0126246
900.380	0.0125683
900.458	0.0126566
900.536	0.0126234
900.614	0.0124450
900.693	0.0125291
900.771	0.0126336
900.849	0.0126664
900.927	0.0126468
901.005	0.0125600
901.083	0.0124413
901.161	0.0124444
901.239	0.0124010
901.318	0.0124860
901.396	0.0124811
901.474	0.0123135
901.552	0.0123307
901.630	0.0123557
901.708	0.0123178
901.786	0.0125880
901.864	0.0123569
901.943	0.0123552
902.021	0.0125446
902.099	0.0126530
902.177	0.0125302
902.255	0.0125304
902.333	0.0127748
902.411	0.0127554
902.489	0.0127268
902.568	0.0126151
902.646	0.0127101
902.724	0.0127873
902.802	0.0127113
902.880	0.0127937
902.958	0.0127893
903.036	0.0127208
903.114	0.0128094
903.193	0.0127839
903.271	0.0128001
903.349	0.0128811
903.427	0.0127637
903.505	0.0127997
903.583	0.0127172
903.661	0.0127744
903.739	0.0127428
903.818	0.0128097
903.896	0.0127307
903.974	0.0126199
904.052	0.0126394
904.130	0.0125175
904.208	0.0125891
904.286	0.0124508
904.364	0.0124118
904.443	0.0125655
904.521	0.0125865
904.599	0.0124725
904.677	0.0124317
904.755	0.0126026
904.833	0.0125548
904.911	0.0125688
904.989	0.0127383
905.068	0.0127180
905.146	0.0126403
905.224	0.0128712
905.302	0.0128480
905.380	0.0127740
905.458	0.0129626
905.536	0.0130523
905.614	0.0130596
905.693	0.0129159
905.771	0.0130672
905.849	0.0130421
905.927	0.0130962
906.005	0.0129263
906.083	0.0129526
906.161	0.0128378
906.239	0.0128058
906.318	0.0128353
906.396	0.0127222
906.474	0.0127387
906.552	0.0125224
906.630	0.0124515
906.708	0.0125346
906.786	0.0124434
906.864	0.0125394
906.943	0.0124448
907.021	0.0122594
907.099	0.0123201
907.177	0.0123685
907.255	0.0124628
907.333	0.0122742
907.411	0.0123238
907.489	0.0124215
907.568	0.0124878
907.646	0.0125112
907.724	0.0125902
907.802	0.0126213
907.880	0.0126424
907.958	0.0127734
908.036	0.0126754
908.114	0.0128441
908.193	0.0129481
908.271	0.0129642
908.349	0.0129478
908.427	0.0129419
908.505	0.0129176
908.583	0.0131516
908.661	0.0130299
908.739	0.0129461
908.818	0.0129080
908.896	0.0129166
908.974	0.0131422
909.052	0.0128268
909.130	0.0130206
909.208	0.0129721
909.286	0.0127753
909.364	0.0128075
909.443	0.0127764
909.521	0.0128712
909.599	0.0125793
909.677	0.0125552
909.755	0.0124703
909.833	0.0124469
909.911	0.0125784
909.989	0.0124976
910.068	0.0124114
910.146	0.0124623
910.224	0.0123817
910.302	0.0124709
910.380	0.0124441
910.458	0.0122970
910.536	0.0123222
910.614	0.0123854
910.693	0.0122872
910.771	0.0123344
910.849	0.0124522
910.927	0.0123876
911.005	0.0124569
911.083	0.0124483
911.161	0.0125871
911.239	0.0125470
911.318	0.0126985
911.396	0.0125835
911.474	0.0126949
911.552	0.0127049
911.630	0.0126067
911.708	0.0127142
911.786	0.0127870
911.864	0.0128458
911.943	0.0127975
912.021	0.0129549
912.099	0.0128551
912.177	0.0127457
912.255	0.0128566
912.333	0.0129244
912.411	0.0128181
912.489	0.0128918
912.568	0.0128674
912.646	0.0126490
912.724	0.0129400
912.802	0.0128394
912.880	0.0128918
912.958	0.0129261
913.036	0.0129321
913.114	0.0128441
913.193	0.0128066
913.271	0.0128632
913.349	0.0129725
913.427	0.0128085
913.505	0.0128136
913.583	0.0128632
913.661	0.0128081
913.739	0.0126479
913.818	0.0128458
913.896	0.0126133
913.974	0.0126852
914.052	0.0125771
914.130	0.0126060
914.208	0.0126827
914.286	0.0126527
914.364	0.0126569
914.443	0.0125657
914.521	0.0127099
914.599	0.0126134
914.677	0.0124450
914.755	0.0125511
914.833	0.0123495
914.911	0.0125452
914.989	0.0126346
915.068	0.0123901
915.146	0.0125263
915.224	0.0126804
915.302	0.0125668
915.380	0.0127547
915.458	0.0126476
915.536	0.0127299
915.614	0.0127612
915.693	0.0128163
915.771	0.0128651
915.849	0.0128638
915.927	0.0128819
916.005	0.0129284
916.083	0.0128003
916.161	0.0128169
916.239	0.0128621
916.318	0.0128891
916.396	0.0128604
916.474	0.0128265
916.552	0.0127465
916.630	0.0128349
916.708	0.0127187
916.786	0.0126249
916.864	0.0126014
916.943	0.0125969
917.021	0.0124786
917.099	0.0124723
917.177	0.0125358
917.255	0.0125398
917.333	0.0126675
917.411	0.0125325
917.489	0.0124979
917.568	0.0126154
917.646	0.0125763
917.724	0.0123730
917.802	0.0124409
917.880	0.0124796
917.958	0.0124972
918.036	0.0125480
918.114	0.0124387
918.193	0.0125682
918.271	0.0126858
918.349	0.0125732
918.427	0.0125571
918.505	0.0126749
918.583	0.0128517
918.661	0.0127172
918.739	0.0127312
918.818	0.0127673
918.896	0.0129028
918.974	0.0129192
919.052	0.0127638
919.130	0.0129391
919.208	0.0129467
919.286	0.0129402
919.364	0.0128948
919.443	0.0129353
919.521	0.0129705
919.599	0.0130591
919.677	0.0130181
919.755	0.0128693
919.833	0.0126730
919.911	0.0127908
919.989	0.0127940
920.068	0.0127193
920.146	0.0128223
920.224	0.0126892
920.302	0.0124865
920.380	0.0124872
920.458	0.0127882
920.536	0.0125471
920.614	0.0124847
920.693	0.0124366
920.771	0.0124467
920.849	0.0125011
920.927	0.0124773
921.005	0.0125429
921.083	0.0124712
921.161	0.0125337
921.239	0.0124728
921.318	0.0124525
921.396	0.0123539
921.474	0.0126034
921.552	0.0126179
921.630	0.0125289
921.708	0.0125727
921.786	0.0125187
921.864	0.0127307
921.943	0.0127200
922.021	0.0125346
922.099	0.0125794
922.177	0.0126084
922.255	0.0125797
922.333	0.0126133
922.411	0.0126412
922.489	0.0125345
922.568	0.0124619
922.646	0.0125348
922.724	0.0125704
922.802	0.0124834
922.880	0.0124868
922.958	0.0124242
923.036	0.0125922
923.114	0.0124961
923.193	0.0124628
923.271	0.0127018
923.349	0.0126964
923.427	0.0125941
923.505	0.0126910
923.583	0.0126260
923.661	0.0125851
923.739	0.0127914
923.818	0.0127871
923.896	0.0126454
923.974	0.0127800
924.052	0.0127800
924.130	0.0126576
924.208	0.0128664
924.286	0.0127958
924.364	0.0128294
924.443	0.0127730
924.521	0.0128767
924.599	0.0128043
924.677	0.0129009
924.755	0.0129009
924.833	0.0128020
924.911	0.0128533
924.989	0.0128666
925.068	0.0129716
925.146	0.0128365
925.224	0.0129203
925.302	0.0127646
925.380	0.0128289
925.458	0.0128466
925.536	0.0126595
925.614	0.0126746
925.693	0.0126675
925.771	0.0126473
925.849	0.0125500
925.927	0.0124560
926.005	0.0124903
926.083	0.0124925
926.161	0.0124461
926.239	0.0125465
926.318	0.0124323
926.396	0.0124692
926.474	0.0124981
926.552	0.0124403
926.630	0.0125262
926.708	0.0124130
926.786	0.0125024
926.864	0.0124902
926.943	0.0126332
927.021	0.0126872
927.099	0.0126865
927.177	0.0127267
927.255	0.0126617
927.333	0.0127274
927.411	0.0127603
927.489	0.0128383
927.568	0.0128560
927.646	0.0129250
927.724	0.0128432
927.802	0.0128338
927.880	0.0127971
927.958	0.0128709
928.036	0.0128571
928.114	0.0128603
928.193	0.0127650
928.271	0.0128074
928.349	0.0128159
928.427	0.0127865
928.505	0.0127918
928.583	0.0126196
928.661	0.0126891
928.739	0.0127176
928.818	0.0127258
928.896	0.0126743
928.974	0.0126411
929.052	0.0127380
929.130	0.0128732
929.208	0.0128644
929.286	0.0127041
929.364	0.0126079
929.443	0.0127116
929.521	0.0127115
929.599	0.0128336
929.677	0.0127419
929.755	0.0126765
929.833	0.0126569
929.911	0.0128609
929.989	0.0127673
930.068	0.0126775
930.146	0.0126598
930.224	0.0126437
930.302	0.0127758
930.380	0.0127376
930.458	0.0125851
930.536	0.0125822
930.614	0.0125723
930.693	0.0126730
930.771	0.0125431
930.849	0.0126419
930.927	0.0125731
931.005	0.0126459
931.083	0.0126099
931.161	0.0125316
931.239	0.0125625
931.318	0.0126822
931.396	0.0128700
931.474	0.0127003
931.552	0.0127982
931.630	0.0127191
931.708	0.0127629
931.786	0.0128085
931.864	0.0128178
931.943	0.0128795
932.021	0.0128284
932.099	0.0128101
932.177	0.0126960
932.255	0.0129010
932.333	0.0128456
932.411	0.0128484
932.489	0.0129048
932.568	0.0129425
932.646	0.0128194
932.724	0.0129092
932.802	0.0128298
932.880	0.0128470
932.958	0.0129219
933.036	0.0128313
933.114	0.0129516
933.193	0.0128874
933.271	0.0127425
933.349	0.0127786
933.427	0.0129019
933.505	0.0128454
933.583	0.0128854
933.661	0.0128187
933.739	0.0128738
933.818	0.0129131
933.896	0.0128008
933.974	0.0127522
934.052	0.0128172
934.130	0.0127560
934.208	0.0128175
934.286	0.0126653
934.364	0.0126611
934.443	0.0126888
934.521	0.0126180
934.599	0.0127429
934.677	0.0127100
934.755	0.0126929
934.833	0.0126364
934.911	0.0125336
934.989	0.0125311
935.068	0.0124880
935.146	0.0124226
935.224	0.0123560
935.302	0.0124705
935.380	0.0125133
935.458	0.0126216
935.536	0.0125025
935.614	0.0125028
935.693	0.0125819
935.771	0.0125864
935.849	0.0126271
935.927	0.0126400
936.005	0.0126243
936.083	0.0126273
936.161	0.0127495
936.239	0.0127448
936.318	0.0129433
936.396	0.0128749
936.474	0.0128510
936.552	0.0128728
936.630	0.0129440
936.708	0.0129904
936.786	0.0128706
936.864	0.0130009
936.943	0.0131019
937.021	0.0130812
937.099	0.0131551
937.177	0.0128995
937.255	0.0129661
937.333	0.0130590
937.411	0.0130786
937.489	0.0130231
937.568	0.0129736
937.646	0.0128450
937.724	0.0128134
937.802	0.0127782
937.880	0.0127973
937.958	0.0127814
938.036	0.0125865
938.114	0.0125332
938.193	0.0126508
938.271	0.0126260
938.349	0.0126236
938.427	0.0125813
938.505	0.0126241
938.583	0.0125273
938.661	0.0126253
938.739	0.0127122
938.818	0.0125845
938.896	0.0126267
938.974	0.0126074
939.052	0.0126332
939.130	0.0126774
939.208	0.0126384
939.286	0.0125610
939.364	0.0128388
939.443	0.0126790
939.521	0.0126483
939.599	0.0126643
939.677	0.0125877
939.755	0.0127020
939.833	0.0126786
939.911	0.0126682
939.989	0.0126552
940.068	0.0125286
940.146	0.0127155
940.224	0.0125047
940.302	0.0126850
940.380	0.0126922
940.458	0.0125891
940.536	0.0126267
940.614	0.0126426
940.693	0.0126884
940.771	0.0126161
940.849	0.0125205
940.927	0.0125824
941.005	0.0126007
941.083	0.0126002
941.161	0.0127373
941.239	0.0127380
941.318	0.0126015
941.396	0.0126519
941.474	0.0126316
941.552	0.0126680
941.630	0.0125732
941.708	0.0126291
941.786	0.0125705
941.864	0.0127469
941.943	0.0126295
942.021	0.0127913
942.099	0.0126176
942.177	0.0126428
942.255	0.0127583
942.333	0.0127079
942.411	0.0127592
942.489	0.0127818
942.568	0.0129405
942.646	0.0128095
942.724	0.0129550
942.802	0.0128919
942.880	0.0128354
942.958	0.0127780
943.036	0.0127229
943.114	0.0126916
943.193	0.0126993
943.271	0.0127473
943.349	0.0125982
943.427	0.0125906
943.505	0.0126551
943.583	0.0126054
943.661	0.0125012
943.739	0.0124088
943.818	0.0124646
943.896	0.0124106
943.974	0.0123515
944.052	0.0125541
944.130	0.0125492
944.208	0.0124777
944.286	0.0125488
944.364	0.0125826
944.443	0.0127436
944.521	0.0126230
944.599	0.0127594
944.677	0.0126312
944.755	0.0126804
944.833	0.0127681
944.911	0.0127406
944.989	0.0127698
945.068	0.0128329
945.146	0.0129498
945.224	0.0130038
945.302	0.0128840
945.380	0.0128307
945.458	0.0128339
945.536	0.0128486
945.614	0.0128313
945.693	0.0127726
945.771	0.0126877
945.849	0.0125059
945.927	0.0126179
946.005	0.0124799
946.083	0.0125259
946.161	0.0124883
946.239	0.0124187
946.318	0.0123624
946.396	0.0123230
946.474	0.0123772
946.552	0.0122711
946.630	0.0123232
946.708	0.0123676
946.786	0.0122740
946.864	0.0124929
946.943	0.0123611
947.021	0.0125394
947.099	0.0124496
947.177	0.0125813
947.255	0.0127511
947.333	0.0126807
947.411	0.0127377
947.489	0.0126865
947.568	0.0128388
947.646	0.0130317
947.724	0.0128732
947.802	0.0129583
947.880	0.0130151
947.958	0.0131248
948.036	0.0129967
948.114	0.0129307
948.193	0.0127944
948.271	0.0128955
948.349	0.0128349
948.427	0.0129034
948.505	0.0129166
948.583	0.0129118
948.661	0.0129014
948.739	0.0127585
948.818	0.0126899
948.896	0.0128450
948.974	0.0128104
949.052	0.0126346
949.130	0.0126257
949.208	0.0125164
949.286	0.0125768
949.364	0.0126121
949.443	0.0125079
949.521	0.0123661
949.599	0.0124722
949.677	0.0126434
949.755	0.0124891
949.833	0.0125762
949.911	0.0125285
949.989	0.0126723
950.068	0.0126282
950.146	0.0127209
950.224	0.0126631
950.302	0.0125602
950.380	0.0125608
950.458	0.0127355
950.536	0.0127197
950.614	0.0128185
950.693	0.0126479
950.771	0.0126736
950.849	0.0126263
950.927	0.0126618
951.005	0.0126783
951.083	0.0128423
951.161	0.0127290
951.239	0.0126593
951.318	0.0126940
951.396	0.0128683
951.474	0.0129625
951.552	0.0128830
951.630	0.0127673
951.708	0.0128400
951.786	0.0126764
951.864	0.0127692
951.943	0.0128388
952.021	0.0127358
952.099	0.0127580
952.177	0.0126339
952.255	0.0125932
952.333	0.0126626
952.411	0.0127656
952.489	0.0127717
952.568	0.0125325
952.646	0.0126945
952.724	0.0126888
952.802	0.0124834
952.880	0.0125910
952.958	0.0126306
953.036	0.0124805
953.114	0.0125449
953.193	0.0125816
953.271	0.0126087
953.349	0.0125880
953.427	0.0126140
953.505	0.0126542
953.583	0.0126858
953.661	0.0126149
953.739	0.0125746
953.818	0.0125764
953.896	0.0127097
953.974	0.0127126
954.052	0.0127172
954.130	0.0128159
954.208	0.0126459
954.286	0.0126596
954.364	0.0125562
954.443	0.0126317
954.521	0.0125852
954.599	0.0125962
954.677	0.0127239
954.755	0.0127234
954.833	0.0127582
954.911	0.0124844
954.989	0.0126213
955.068	0.0125793
955.146	0.0124941
955.224	0.0127065
955.302	0.0126614
955.380	0.0125523
955.458	0.0127077
955.536	0.0125789
955.614	0.0128306
955.693	0.0128160
955.771	0.0127946
955.849	0.0126211
955.927	0.0128248
956.005	0.0127946
956.083	0.0128440
956.161	0.0127608
956.239	0.0127129
956.318	0.0126993
956.396	0.0127790
956.474	0.0128091
956.552	0.0130084
956.630	0.0129591
956.708	0.0128404
956.786	0.0129015
956.864	0.0128346
956.943	0.0128516
957.021	0.0129123
957.099	0.0128467
957.177	0.0127864
957.255	0.0127494
957.333	0.0128793
957.411	0.0127437
957.489	0.0126496
957.568	0.0126762
957.646	0.0125716
957.724	0.0126784
957.802	0.0126310
957.880	0.0124852
957.958	0.0125341
958.036	0.0125515
958.114	0.0125220
958.193	0.0124708
958.271	0.0124660
958.349	0.0125333
958.427	0.0124600
958.505	0.0124812
958.583	0.0124012
958.661	0.0125385
958.739	0.0124484
958.818	0.0126244
958.896	0.0126979
958.974	0.0127606
959.052	0.0127667
959.130	0.0126379
959.208	0.0126166
959.286	0.0126565
959.364	0.0127452
959.443	0.0126734
959.521	0.0128400
959.599	0.0127684
959.677	0.0127807
959.755	0.0127766
959.833	0.0126729
959.911	0.0127699
