05/14/2022	16:36:06	Ver.	4.1	UNKNOWN
Optical Delay	639.989416	Delta X		0.078125	Sweeps	1	Scan Rate	0/0
Coordinates	Axis 1	NaN	Axis 2	NaN	Axis 3	NaN	Axis 4	NaN	Axis 5	NaN	Axis 6	0.000000
TX Power	0.000000	RX Power	0.000000

639.989	0.0129579
640.068	0.0128696
640.146	0.0130466
640.224	0.0127964
640.302	0.0127314
640.380	0.0128825
640.458	0.0129122
640.536	0.0129561
640.614	0.0128587
640.693	0.0128201
640.771	0.0128906
640.849	0.0129156
640.927	0.0127992
641.005	0.0129478
641.083	0.0129915
641.161	0.0128883
641.239	0.0128173
641.318	0.0128857
641.396	0.0129430
641.474	0.0128373
641.552	0.0130463
641.630	0.0129639
641.708	0.0129577
641.786	0.0128358
641.864	0.0129068
641.943	0.0130872
642.021	0.0130538
642.099	0.0130853
642.177	0.0129474
642.255	0.0127230
642.333	0.0129568
642.411	0.0130349
642.489	0.0129852
642.568	0.0129677
642.646	0.0129431
642.724	0.0130176
642.802	0.0130001
642.880	0.0129018
642.958	0.0130276
643.036	0.0129426
643.114	0.0131012
643.193	0.0130114
643.271	0.0129147
643.349	0.0129381
643.427	0.0129713
643.505	0.0128760
643.583	0.0129030
643.661	0.0128380
643.739	0.0130241
643.818	0.0130144
643.896	0.0129303
643.974	0.0130209
644.052	0.0130045
644.130	0.0128771
644.208	0.0130413
644.286	0.0130312
644.364	0.0129613
644.443	0.0130785
644.521	0.0129510
644.599	0.0130389
644.677	0.0130897
644.755	0.0130255
644.833	0.0129208
644.911	0.0129565
644.989	0.0129872
645.068	0.0129581
645.146	0.0129239
645.224	0.0129161
645.302	0.0130402
645.380	0.0130388
645.458	0.0130566
645.536	0.0129642
645.614	0.0129520
645.693	0.0129812
645.771	0.0129802
645.849	0.0128726
645.927	0.0130183
646.005	0.0128547
646.083	0.0129974
646.161	0.0130440
646.239	0.0130238
646.318	0.0129523
646.396	0.0130594
646.474	0.0129720
646.552	0.0130771
646.630	0.0130621
646.708	0.0129298
646.786	0.0130537
646.864	0.0131103
646.943	0.0130212
647.021	0.0129822
647.099	0.0130889
647.177	0.0129962
647.255	0.0130267
647.333	0.0130753
647.411	0.0129549
647.489	0.0130111
647.568	0.0131289
647.646	0.0130918
647.724	0.0131277
647.802	0.0130807
647.880	0.0130616
647.958	0.0130328
648.036	0.0131121
648.114	0.0130543
648.193	0.0130633
648.271	0.0129694
648.349	0.0130875
648.427	0.0130650
648.505	0.0130529
648.583	0.0131339
648.661	0.0130579
648.739	0.0130791
648.818	0.0130508
648.896	0.0130982
648.974	0.0131473
649.052	0.0133105
649.130	0.0130881
649.208	0.0128391
649.286	0.0131449
649.364	0.0131013
649.443	0.0130662
649.521	0.0129974
649.599	0.0131578
649.677	0.0129871
649.755	0.0131483
649.833	0.0132682
649.911	0.0131706
649.989	0.0132682
650.068	0.0131440
650.146	0.0130286
650.224	0.0131371
650.302	0.0132400
650.380	0.0133276
650.458	0.0131757
650.536	0.0131792
650.614	0.0130769
650.693	0.0130740
650.771	0.0132455
650.849	0.0132031
650.927	0.0132987
651.005	0.0132216
651.083	0.0131802
651.161	0.0132378
651.239	0.0131759
651.318	0.0131021
651.396	0.0132059
651.474	0.0131867
651.552	0.0131274
651.630	0.0132535
651.708	0.0132532
651.786	0.0130562
651.864	0.0132152
651.943	0.0131493
652.021	0.0131523
652.099	0.0131283
652.177	0.0131798
652.255	0.0131621
652.333	0.0131550
652.411	0.0132140
652.489	0.0132065
652.568	0.0129483
652.646	0.0130559
652.724	0.0130550
652.802	0.0130491
652.880	0.0131024
652.958	0.0131231
653.036	0.0130345
653.114	0.0129958
653.193	0.0130428
653.271	0.0131268
653.349	0.0129913
653.427	0.0130587
653.505	0.0131421
653.583	0.0131182
653.661	0.0131043
653.739	0.0130522
653.818	0.0128838
653.896	0.0130270
653.974	0.0132263
654.052	0.0131371
654.130	0.0131738
654.208	0.0130463
654.286	0.0131529
654.364	0.0130643
654.443	0.0130618
654.521	0.0130883
654.599	0.0130454
654.677	0.0131142
654.755	0.0130800
654.833	0.0130455
654.911	0.0131497
654.989	0.0130484
655.068	0.0129790
655.146	0.0129290
655.224	0.0129935
655.302	0.0130541
655.380	0.0129708
655.458	0.0128670
655.536	0.0132164
655.614	0.0131091
655.693	0.0130077
655.771	0.0130817
655.849	0.0130473
655.927	0.0130429
656.005	0.0131313
656.083	0.0130729
656.161	0.0130247
656.239	0.0130725
656.318	0.0130738
656.396	0.0131871
656.474	0.0130520
656.552	0.0129335
656.630	0.0130857
656.708	0.0131387
656.786	0.0130838
656.864	0.0130338
656.943	0.0130048
657.021	0.0128933
657.099	0.0130196
657.177	0.0130016
657.255	0.0130463
657.333	0.0131954
657.411	0.0129904
657.489	0.0130939
657.568	0.0130396
657.646	0.0130177
657.724	0.0129462
657.802	0.0129521
657.880	0.0130084
657.958	0.0130450
658.036	0.0129356
658.114	0.0130180
658.193	0.0130415
658.271	0.0130865
658.349	0.0129629
658.427	0.0129383
658.505	0.0130435
658.583	0.0129296
658.661	0.0130812
658.739	0.0129945
658.818	0.0130213
658.896	0.0129503
658.974	0.0129565
659.052	0.0130367
659.130	0.0129753
659.208	0.0130814
659.286	0.0129745
659.364	0.0128780
659.443	0.0129170
659.521	0.0128525
659.599	0.0129169
659.677	0.0129375
659.755	0.0130684
659.833	0.0130354
659.911	0.0129922
659.989	0.0128135
660.068	0.0127793
660.146	0.0128733
660.224	0.0128941
660.302	0.0129226
660.380	0.0128184
660.458	0.0129144
660.536	0.0128165
660.614	0.0129375
660.693	0.0130078
660.771	0.0130408
660.849	0.0129594
660.927	0.0129952
661.005	0.0128417
661.083	0.0129072
661.161	0.0129244
661.239	0.0128057
661.318	0.0129525
661.396	0.0129743
661.474	0.0129247
661.552	0.0129447
661.630	0.0130743
661.708	0.0130015
661.786	0.0130370
661.864	0.0130756
661.943	0.0132022
662.021	0.0130926
662.099	0.0131333
662.177	0.0131191
662.255	0.0130556
662.333	0.0129984
662.411	0.0132026
662.489	0.0131464
662.568	0.0131426
662.646	0.0129256
662.724	0.0129872
662.802	0.0129725
662.880	0.0129028
662.958	0.0129324
663.036	0.0129926
663.114	0.0129587
663.193	0.0130264
663.271	0.0130034
663.349	0.0131386
663.427	0.0131097
663.505	0.0129504
663.583	0.0129681
663.661	0.0131771
663.739	0.0132019
663.818	0.0130250
663.896	0.0131236
663.974	0.0132253
664.052	0.0131135
664.130	0.0132072
664.208	0.0130006
664.286	0.0130474
664.364	0.0130148
664.443	0.0131399
664.521	0.0131120
664.599	0.0129937
664.677	0.0130459
664.755	0.0130029
664.833	0.0130054
664.911	0.0130471
664.989	0.0130753
665.068	0.0131273
665.146	0.0129684
665.224	0.0130629
665.302	0.0129800
665.380	0.0131025
665.458	0.0130170
665.536	0.0131214
665.614	0.0130302
665.693	0.0130769
665.771	0.0130991
665.849	0.0131279
665.927	0.0130500
666.005	0.0130801
666.083	0.0130948
666.161	0.0130453
666.239	0.0130584
666.318	0.0131001
666.396	0.0129906
666.474	0.0129002
666.552	0.0130932
666.630	0.0130767
666.708	0.0131293
666.786	0.0129937
666.864	0.0131465
666.943	0.0129653
667.021	0.0130533
667.099	0.0130449
667.177	0.0131869
667.255	0.0131635
667.333	0.0129790
667.411	0.0129684
667.489	0.0130592
667.568	0.0130198
667.646	0.0130595
667.724	0.0130634
667.802	0.0129539
667.880	0.0130421
667.958	0.0129076
668.036	0.0129469
668.114	0.0129301
668.193	0.0129858
668.271	0.0129166
668.349	0.0129187
668.427	0.0129881
668.505	0.0130293
668.583	0.0130085
668.661	0.0131516
668.739	0.0130737
668.818	0.0130774
668.896	0.0129312
668.974	0.0130306
669.052	0.0130345
669.130	0.0130439
669.208	0.0129552
669.286	0.0129675
669.364	0.0130740
669.443	0.0131055
669.521	0.0130471
669.599	0.0130465
669.677	0.0130574
669.755	0.0129846
669.833	0.0129697
669.911	0.0129406
669.989	0.0128939
670.068	0.0130573
670.146	0.0130432
670.224	0.0129305
670.302	0.0129334
670.380	0.0131796
670.458	0.0130173
670.536	0.0131116
670.614	0.0130922
670.693	0.0129060
670.771	0.0131384
670.849	0.0130333
670.927	0.0130307
671.005	0.0129184
671.083	0.0128928
671.161	0.0130448
671.239	0.0130607
671.318	0.0130080
671.396	0.0128834
671.474	0.0128907
671.552	0.0130261
671.630	0.0130441
671.708	0.0131611
671.786	0.0128363
671.864	0.0129080
671.943	0.0130203
672.021	0.0131145
672.099	0.0129665
672.177	0.0129939
672.255	0.0130314
672.333	0.0130441
672.411	0.0131138
672.489	0.0130848
672.568	0.0129523
672.646	0.0128811
672.724	0.0131934
672.802	0.0128587
672.880	0.0129291
672.958	0.0128999
673.036	0.0129698
673.114	0.0129317
673.193	0.0130027
673.271	0.0129758
673.349	0.0130576
673.427	0.0130019
673.505	0.0129895
673.583	0.0129834
673.661	0.0130305
673.739	0.0129713
673.818	0.0131030
673.896	0.0130614
673.974	0.0128952
674.052	0.0130291
674.130	0.0129626
674.208	0.0129263
674.286	0.0129153
674.364	0.0128551
674.443	0.0129922
674.521	0.0128657
674.599	0.0129634
674.677	0.0130573
674.755	0.0130418
674.833	0.0131075
674.911	0.0128931
674.989	0.0129570
675.068	0.0130289
675.146	0.0129970
675.224	0.0131167
675.302	0.0131683
675.380	0.0131629
675.458	0.0131466
675.536	0.0131644
675.614	0.0132436
675.693	0.0132281
675.771	0.0131664
675.849	0.0133901
675.927	0.0131801
676.005	0.0131599
676.083	0.0131969
676.161	0.0130271
676.239	0.0130023
676.318	0.0129225
676.396	0.0129518
676.474	0.0129088
676.552	0.0127625
676.630	0.0127524
676.708	0.0126285
676.786	0.0127016
676.864	0.0124754
676.943	0.0125353
677.021	0.0127569
677.099	0.0128021
677.177	0.0126819
677.255	0.0126836
677.333	0.0128248
677.411	0.0130264
677.489	0.0130840
677.568	0.0131795
677.646	0.0133288
677.724	0.0133208
677.802	0.0133781
677.880	0.0135580
677.958	0.0135970
678.036	0.0137608
678.114	0.0139726
678.193	0.0138972
678.271	0.0138823
678.349	0.0138853
678.427	0.0139095
678.505	0.0137709
678.583	0.0135732
678.661	0.0135860
678.739	0.0133841
678.818	0.0131701
678.896	0.0128590
678.974	0.0126553
679.052	0.0125928
679.130	0.0123362
679.208	0.0120672
679.286	0.0120814
679.364	0.0118491
679.443	0.0117694
679.521	0.0116891
679.599	0.0115936
679.677	0.0116709
679.755	0.0118929
679.833	0.0119378
679.911	0.0121729
679.989	0.0123827
680.068	0.0126700
680.146	0.0129226
680.224	0.0132111
680.302	0.0135165
680.380	0.0137487
680.458	0.0138952
680.536	0.0143835
680.614	0.0144456
680.693	0.0147442
680.771	0.0149774
680.849	0.0150582
680.927	0.0149251
681.005	0.0150246
681.083	0.0151809
681.161	0.0148640
681.239	0.0147432
681.318	0.0143316
681.396	0.0142856
681.474	0.0140632
681.552	0.0137921
681.630	0.0133544
681.708	0.0131361
681.786	0.0125830
681.864	0.0123595
681.943	0.0120087
682.021	0.0114886
682.099	0.0113151
682.177	0.0112247
682.255	0.0107143
682.333	0.0107261
682.411	0.0105522
682.489	0.0104629
682.568	0.0103566
682.646	0.0103435
682.724	0.0104778
682.802	0.0106399
682.880	0.0108537
682.958	0.0111665
683.036	0.0115201
683.114	0.0120253
683.193	0.0124647
683.271	0.0128183
683.349	0.0132927
683.427	0.0139334
683.505	0.0144742
683.583	0.0149055
683.661	0.0153138
683.739	0.0157959
683.818	0.0161587
683.896	0.0163762
683.974	0.0166235
684.052	0.0166823
684.130	0.0166412
684.208	0.0164719
684.286	0.0163935
684.364	0.0160553
684.443	0.0157298
684.521	0.0151221
684.599	0.0146336
684.677	0.0140856
684.755	0.0135182
684.833	0.0129813
684.911	0.0123985
684.989	0.0118848
685.068	0.0114286
685.146	0.0109632
685.224	0.0105556
685.302	0.0101872
685.380	0.00985123
685.458	0.00985657
685.536	0.00979553
685.614	0.00965355
685.693	0.00983269
685.771	0.00977531
685.849	0.0100705
685.927	0.0103002
686.005	0.0106032
686.083	0.0108900
686.161	0.0113360
686.239	0.0118139
686.318	0.0121604
686.396	0.0126482
686.474	0.0128925
686.552	0.0132705
686.630	0.0137332
686.708	0.0139425
686.786	0.0144430
686.864	0.0146925
686.943	0.0148457
687.021	0.0151183
687.099	0.0153205
687.177	0.0152837
687.255	0.0155641
687.333	0.0156184
687.411	0.0157726
687.489	0.0157475
687.568	0.0154922
687.646	0.0152676
687.724	0.0150401
687.802	0.0148305
687.880	0.0146663
687.958	0.0142648
688.036	0.0139210
688.114	0.0136054
688.193	0.0133479
688.271	0.0131370
688.349	0.0128928
688.427	0.0124316
688.505	0.0122630
688.583	0.0119984
688.661	0.0118356
688.739	0.0114188
688.818	0.0113366
688.896	0.0113331
688.974	0.0110692
689.052	0.0109440
689.130	0.0109563
689.208	0.0109583
689.286	0.0109988
689.364	0.0109472
689.443	0.0111246
689.521	0.0112417
689.599	0.0116244
689.677	0.0118224
689.755	0.0121247
689.833	0.0123708
689.911	0.0127092
689.989	0.0131424
690.068	0.0136105
690.146	0.0137518
690.224	0.0140145
690.302	0.0142030
690.380	0.0143472
690.458	0.0145000
690.536	0.0147622
690.614	0.0145868
690.693	0.0145565
690.771	0.0146030
690.849	0.0144332
690.927	0.0143358
691.005	0.0142399
691.083	0.0141999
691.161	0.0140655
691.239	0.0138184
691.318	0.0135477
691.396	0.0135030
691.474	0.0133453
691.552	0.0130699
691.630	0.0129624
691.708	0.0126859
691.786	0.0124475
691.864	0.0123653
691.943	0.0121716
692.021	0.0118150
692.099	0.0119511
692.177	0.0118722
692.255	0.0115635
692.333	0.0116203
692.411	0.0116830
692.489	0.0117155
692.568	0.0118398
692.646	0.0118210
692.724	0.0120004
692.802	0.0119443
692.880	0.0122575
692.958	0.0123297
693.036	0.0123663
693.114	0.0125520
693.193	0.0126810
693.271	0.0128286
693.349	0.0130808
693.427	0.0132504
693.505	0.0134081
693.583	0.0135815
693.661	0.0137147
693.739	0.0139675
693.818	0.0141654
693.896	0.0142818
693.974	0.0145261
694.052	0.0146127
694.130	0.0146855
694.208	0.0148837
694.286	0.0149036
694.364	0.0150438
694.443	0.0150626
694.521	0.0150922
694.599	0.0148399
694.677	0.0146037
694.755	0.0143951
694.833	0.0141460
694.911	0.0140156
694.989	0.0136044
695.068	0.0131996
695.146	0.0126905
695.224	0.0121775
695.302	0.0118615
695.380	0.0114873
695.458	0.0109319
695.536	0.0104086
695.614	0.0100705
695.693	0.00988106
695.771	0.00944786
695.849	0.00930305
695.927	0.00939980
696.005	0.00928589
696.083	0.00907715
696.161	0.00926216
696.239	0.00945435
696.318	0.00973831
696.396	0.0100255
696.474	0.0103810
696.552	0.0108066
696.630	0.0114001
696.708	0.0119016
696.786	0.0125020
696.864	0.0131576
696.943	0.0136416
697.021	0.0143803
697.099	0.0150555
697.177	0.0155909
697.255	0.0159906
697.333	0.0164109
697.411	0.0167741
697.489	0.0170741
697.568	0.0173058
697.646	0.0174104
697.724	0.0174033
697.802	0.0175050
697.880	0.0173022
697.958	0.0171847
698.036	0.0168307
698.114	0.0164384
698.193	0.0161942
698.271	0.0156297
698.349	0.0152240
698.427	0.0146569
698.505	0.0140871
698.583	0.0136555
698.661	0.0130344
698.739	0.0126597
698.818	0.0120343
698.896	0.0115903
698.974	0.0112386
699.052	0.0108659
699.130	0.0105511
699.208	0.0102293
699.286	0.00998779
699.364	0.00991318
699.443	0.0100123
699.521	0.00996948
699.599	0.0100823
699.677	0.0102646
699.755	0.0103381
699.833	0.0105424
699.911	0.0107582
699.989	0.0110139
700.068	0.0113597
700.146	0.0116668
700.224	0.0116470
700.302	0.0120483
700.380	0.0120467
700.458	0.0122917
700.536	0.0125842
700.614	0.0127232
700.693	0.0129970
700.771	0.0131469
700.849	0.0132194
700.927	0.0135014
701.005	0.0136175
701.083	0.0137695
701.161	0.0140157
701.239	0.0139721
701.318	0.0141407
701.396	0.0142102
701.474	0.0143418
701.552	0.0141479
701.630	0.0141196
701.708	0.0140971
701.786	0.0138119
701.864	0.0138768
701.943	0.0137704
702.021	0.0135892
702.099	0.0134991
702.177	0.0134159
702.255	0.0134242
702.333	0.0133579
702.411	0.0134727
702.489	0.0136555
702.568	0.0136433
702.646	0.0137659
702.724	0.0140112
702.802	0.0144044
702.880	0.0144254
702.958	0.0145347
703.036	0.0147580
703.114	0.0150420
703.193	0.0150793
703.271	0.0150845
703.349	0.0150752
703.427	0.0150412
703.505	0.0149948
703.583	0.0145847
703.661	0.0144765
703.739	0.0142059
703.818	0.0138025
703.896	0.0135786
703.974	0.0133864
704.052	0.0129417
704.130	0.0124664
704.208	0.0123057
704.286	0.0118346
704.364	0.0115771
704.443	0.0114258
704.521	0.0110822
704.599	0.0108199
704.677	0.0106335
704.755	0.0105086
704.833	0.0103992
704.911	0.0104257
704.989	0.0104550
705.068	0.0105637
705.146	0.0107579
705.224	0.0108652
705.302	0.0110865
705.380	0.0113422
705.458	0.0114892
705.536	0.0117982
705.614	0.0121825
705.693	0.0123607
705.771	0.0125053
705.849	0.0125826
705.927	0.0128856
706.005	0.0131021
706.083	0.0131503
706.161	0.0132878
706.239	0.0136258
706.318	0.0135986
706.396	0.0137130
706.474	0.0140670
706.552	0.0139869
706.630	0.0143534
706.708	0.0143140
706.786	0.0143376
706.864	0.0143805
706.943	0.0143186
707.021	0.0145099
707.099	0.0143006
707.177	0.0143605
707.255	0.0142589
707.333	0.0141103
707.411	0.0138274
707.489	0.0139815
707.568	0.0139070
707.646	0.0137131
707.724	0.0136723
707.802	0.0137388
707.880	0.0137032
707.958	0.0137396
708.036	0.0138071
708.114	0.0137250
708.193	0.0138348
708.271	0.0138560
708.349	0.0138689
708.427	0.0137729
708.505	0.0137802
708.583	0.0137914
708.661	0.0135940
708.739	0.0134584
708.818	0.0134537
708.896	0.0133283
708.974	0.0132327
709.052	0.0132973
709.130	0.0132184
709.208	0.0129865
709.286	0.0128111
709.364	0.0128504
709.443	0.0127242
709.521	0.0128853
709.599	0.0127383
709.677	0.0126966
709.755	0.0125443
709.833	0.0125447
709.911	0.0124144
709.989	0.0125426
710.068	0.0126850
710.146	0.0124763
710.224	0.0125082
710.302	0.0126612
710.380	0.0127408
710.458	0.0126556
710.536	0.0126793
710.614	0.0127324
710.693	0.0125740
710.771	0.0125282
710.849	0.0125811
710.927	0.0124274
711.005	0.0124419
711.083	0.0121947
711.161	0.0120860
711.239	0.0120591
711.318	0.0118845
711.396	0.0118871
711.474	0.0117063
711.552	0.0115392
711.630	0.0118134
711.708	0.0117782
711.786	0.0119118
711.864	0.0118652
711.943	0.0120837
712.021	0.0123512
712.099	0.0125328
712.177	0.0126923
712.255	0.0129994
712.333	0.0132225
712.411	0.0134203
712.489	0.0135579
712.568	0.0138151
712.646	0.0138850
712.724	0.0139419
712.802	0.0137736
712.880	0.0138657
712.958	0.0138477
713.036	0.0138133
713.114	0.0137167
713.193	0.0135650
713.271	0.0134212
713.349	0.0133098
713.427	0.0131515
713.505	0.0131263
713.583	0.0129863
713.661	0.0130385
713.739	0.0129501
713.818	0.0130141
713.896	0.0130943
713.974	0.0131461
714.052	0.0133459
714.130	0.0135735
714.208	0.0135998
714.286	0.0137177
714.364	0.0138436
714.443	0.0140488
714.521	0.0141687
714.599	0.0144010
714.677	0.0145525
714.755	0.0146597
714.833	0.0146587
714.911	0.0146447
714.989	0.0146231
715.068	0.0146462
715.146	0.0145138
715.224	0.0145046
715.302	0.0141884
715.380	0.0140307
715.458	0.0138850
715.536	0.0134435
715.614	0.0132920
715.693	0.0131728
715.771	0.0128978
715.849	0.0126794
715.927	0.0124295
716.005	0.0123272
716.083	0.0122342
716.161	0.0119390
716.239	0.0115865
716.318	0.0113521
716.396	0.0113781
716.474	0.0113219
716.552	0.0111194
716.630	0.0110450
716.708	0.0109494
716.786	0.0107595
716.864	0.0107785
716.943	0.0106963
717.021	0.0105965
717.099	0.0106627
717.177	0.0106860
717.255	0.0107535
717.333	0.0108244
717.411	0.0110323
717.489	0.0111411
717.568	0.0114651
717.646	0.0115475
717.724	0.0117783
717.802	0.0120536
717.880	0.0124470
717.958	0.0125946
718.036	0.0127288
718.114	0.0129130
718.193	0.0130148
718.271	0.0131123
718.349	0.0130978
718.427	0.0130154
718.505	0.0129752
718.583	0.0131335
718.661	0.0132201
718.739	0.0130842
718.818	0.0132344
718.896	0.0133594
718.974	0.0134920
719.052	0.0138785
719.130	0.0138316
719.208	0.0141471
719.286	0.0145978
719.364	0.0149609
719.443	0.0149254
719.521	0.0152651
719.599	0.0153058
719.677	0.0157349
719.755	0.0157314
719.833	0.0158289
719.911	0.0159060
719.989	0.0159635
720.068	0.0159722
720.146	0.0159194
720.224	0.0159491
720.302	0.0157951
720.380	0.0155553
720.458	0.0153982
720.536	0.0152167
720.614	0.0150729
720.693	0.0148196
720.771	0.0146363
720.849	0.0142675
720.927	0.0139086
721.005	0.0135130
721.083	0.0132903
721.161	0.0128288
721.239	0.0125105
721.318	0.0122547
721.396	0.0117522
721.474	0.0115503
721.552	0.0111207
721.630	0.0108399
721.708	0.0104258
721.786	0.0100745
721.864	0.00985191
721.943	0.00966644
722.021	0.00947441
722.099	0.00929634
722.177	0.00930847
722.255	0.00934486
722.333	0.00942810
722.411	0.00931709
722.489	0.00960754
722.568	0.00975861
722.646	0.0100065
722.724	0.0103094
722.802	0.0106084
722.880	0.0107583
722.958	0.0110114
723.036	0.0115355
723.114	0.0119721
723.193	0.0120608
723.271	0.0124827
723.349	0.0128352
723.427	0.0129826
723.505	0.0133424
723.583	0.0136477
723.661	0.0138226
723.739	0.0140072
723.818	0.0143391
723.896	0.0144161
723.974	0.0144906
724.052	0.0144955
724.130	0.0146163
724.208	0.0145831
724.286	0.0147066
724.364	0.0146804
724.443	0.0146639
724.521	0.0147630
724.599	0.0149197
724.677	0.0149094
724.755	0.0149809
724.833	0.0152795
724.911	0.0152020
724.989	0.0153126
725.068	0.0154390
725.146	0.0154610
725.224	0.0156168
725.302	0.0154990
725.380	0.0156045
725.458	0.0154633
725.536	0.0153355
725.614	0.0150993
725.693	0.0150977
725.771	0.0147475
725.849	0.0144212
725.927	0.0143311
726.005	0.0140948
726.083	0.0136454
726.161	0.0135250
726.239	0.0132197
726.318	0.0129568
726.396	0.0127188
726.474	0.0125168
726.552	0.0124437
726.630	0.0121887
726.708	0.0118745
726.786	0.0118302
726.864	0.0118015
726.943	0.0115413
727.021	0.0113330
727.099	0.0113085
727.177	0.0112563
727.255	0.0110168
727.333	0.0110390
727.411	0.0109494
727.489	0.0110142
727.568	0.0110681
727.646	0.0110136
727.724	0.0111012
727.802	0.0112274
727.880	0.0112725
727.958	0.0113026
728.036	0.0113134
728.114	0.0115184
728.193	0.0118179
728.271	0.0118641
728.349	0.0119779
728.427	0.0119469
728.505	0.0122495
728.583	0.0125822
728.661	0.0125967
728.739	0.0127187
728.818	0.0129373
728.896	0.0131905
728.974	0.0133710
729.052	0.0135176
729.130	0.0138115
729.208	0.0139431
729.286	0.0140905
729.364	0.0141798
729.443	0.0143338
729.521	0.0142455
729.599	0.0144750
729.677	0.0146220
729.755	0.0144216
729.833	0.0142159
729.911	0.0141692
729.989	0.0141022
730.068	0.0139623
730.146	0.0137922
730.224	0.0137229
730.302	0.0135127
730.380	0.0135261
730.458	0.0135352
730.536	0.0134563
730.614	0.0135764
730.693	0.0136633
730.771	0.0138782
730.849	0.0139618
730.927	0.0140365
731.005	0.0141853
731.083	0.0142402
731.161	0.0143649
731.239	0.0145934
731.318	0.0143762
731.396	0.0143347
731.474	0.0143506
731.552	0.0141729
731.630	0.0140939
731.708	0.0139214
731.786	0.0135957
731.864	0.0133434
731.943	0.0131342
732.021	0.0129579
732.099	0.0128281
732.177	0.0125916
732.255	0.0123247
732.333	0.0123791
732.411	0.0122717
732.489	0.0123843
732.568	0.0124169
732.646	0.0125586
732.724	0.0126633
732.802	0.0127133
732.880	0.0129506
732.958	0.0132622
733.036	0.0134167
733.114	0.0135146
733.193	0.0135621
733.271	0.0136719
733.349	0.0136546
733.427	0.0133996
733.505	0.0134171
733.583	0.0131765
733.661	0.0129909
733.739	0.0128718
733.818	0.0127888
733.896	0.0122589
733.974	0.0119405
734.052	0.0119197
734.130	0.0115392
734.208	0.0113167
734.286	0.0112376
734.364	0.0111488
734.443	0.0111352
734.521	0.0111103
734.599	0.0110710
734.677	0.0110397
734.755	0.0113126
734.833	0.0115043
734.911	0.0115450
734.989	0.0116873
735.068	0.0118873
735.146	0.0120242
735.224	0.0122009
735.302	0.0125400
735.380	0.0126974
735.458	0.0127797
735.536	0.0129746
735.614	0.0130126
735.693	0.0129733
735.771	0.0131703
735.849	0.0133345
735.927	0.0132158
736.005	0.0134086
736.083	0.0135611
736.161	0.0136218
736.239	0.0139117
736.318	0.0139085
736.396	0.0141341
736.474	0.0143843
736.552	0.0145612
736.630	0.0146275
736.708	0.0148587
736.786	0.0149543
736.864	0.0149368
736.943	0.0148868
737.021	0.0148937
737.099	0.0148578
737.177	0.0147207
737.255	0.0145905
737.333	0.0144533
737.411	0.0143228
737.489	0.0142194
737.568	0.0141722
737.646	0.0139797
737.724	0.0138469
737.802	0.0138223
737.880	0.0136913
737.958	0.0135827
738.036	0.0133614
738.114	0.0132867
738.193	0.0132429
738.271	0.0131258
738.349	0.0130152
738.427	0.0130013
738.505	0.0130338
738.583	0.0129024
738.661	0.0127440
738.739	0.0126511
738.818	0.0127269
738.896	0.0125984
738.974	0.0124326
739.052	0.0124238
739.130	0.0122501
739.208	0.0120373
739.286	0.0119075
739.364	0.0117011
739.443	0.0114304
739.521	0.0113206
739.599	0.0112715
739.677	0.0111734
739.755	0.0110287
739.833	0.0109480
739.911	0.0110190
739.989	0.0111499
740.068	0.0111903
740.146	0.0112536
740.224	0.0113707
740.302	0.0116019
740.380	0.0116548
740.458	0.0119394
740.536	0.0121243
740.614	0.0122942
740.693	0.0123759
740.771	0.0124875
740.849	0.0129237
740.927	0.0128655
741.005	0.0132291
741.083	0.0132579
741.161	0.0134232
741.239	0.0136232
741.318	0.0136929
741.396	0.0138573
741.474	0.0141324
741.552	0.0141227
741.630	0.0141518
741.708	0.0142127
741.786	0.0142170
741.864	0.0142345
741.943	0.0141335
742.021	0.0140691
742.099	0.0139365
742.177	0.0138605
742.255	0.0138618
742.333	0.0136346
742.411	0.0136349
742.489	0.0135168
742.568	0.0133767
742.646	0.0133930
742.724	0.0134001
742.802	0.0132742
742.880	0.0133100
742.958	0.0132143
743.036	0.0134079
743.114	0.0134880
743.193	0.0134235
743.271	0.0133688
743.349	0.0133823
743.427	0.0134928
743.505	0.0134568
743.583	0.0135548
743.661	0.0133633
743.739	0.0132497
743.818	0.0132877
743.896	0.0133566
743.974	0.0133120
744.052	0.0131906
744.130	0.0130669
744.208	0.0129983
744.286	0.0130392
744.364	0.0131559
744.443	0.0130611
744.521	0.0131096
744.599	0.0130683
744.677	0.0129787
744.755	0.0130153
744.833	0.0130971
744.911	0.0131361
744.989	0.0130141
745.068	0.0130492
745.146	0.0129800
745.224	0.0130358
745.302	0.0129424
745.380	0.0129685
745.458	0.0128686
745.536	0.0128326
745.614	0.0127705
745.693	0.0127789
745.771	0.0127245
745.849	0.0128371
745.927	0.0128041
746.005	0.0126318
746.083	0.0127798
746.161	0.0127525
746.239	0.0127914
746.318	0.0128458
746.396	0.0127637
746.474	0.0126596
746.552	0.0127875
746.630	0.0128055
746.708	0.0124583
746.786	0.0125828
746.864	0.0125856
746.943	0.0125861
747.021	0.0125780
747.099	0.0126004
747.177	0.0125805
747.255	0.0125713
747.333	0.0125745
747.411	0.0128975
747.489	0.0128648
747.568	0.0128649
747.646	0.0130376
747.724	0.0129126
747.802	0.0130224
747.880	0.0130496
747.958	0.0131066
748.036	0.0131403
748.114	0.0130828
748.193	0.0132391
748.271	0.0132216
748.349	0.0131618
748.427	0.0130835
748.505	0.0131795
748.583	0.0130942
748.661	0.0130656
748.739	0.0131046
748.818	0.0130679
748.896	0.0132521
748.974	0.0133182
749.052	0.0132645
749.130	0.0134507
749.208	0.0135305
749.286	0.0134745
749.364	0.0137130
749.443	0.0136126
749.521	0.0138101
749.599	0.0136399
749.677	0.0137736
749.755	0.0135974
749.833	0.0136121
749.911	0.0135864
749.989	0.0136414
750.068	0.0135838
750.146	0.0135931
750.224	0.0135015
750.302	0.0134363
750.380	0.0132479
750.458	0.0132671
750.536	0.0132758
750.614	0.0133382
750.693	0.0131599
750.771	0.0133309
750.849	0.0131654
750.927	0.0131258
751.005	0.0131318
751.083	0.0132107
751.161	0.0130705
751.239	0.0129552
751.318	0.0129745
751.396	0.0129668
751.474	0.0128164
751.552	0.0129467
751.630	0.0128035
751.708	0.0129607
751.786	0.0127724
751.864	0.0127454
751.943	0.0127444
752.021	0.0127053
752.099	0.0126054
752.177	0.0125858
752.255	0.0127582
752.333	0.0126816
752.411	0.0125990
752.489	0.0124608
752.568	0.0124299
752.646	0.0125011
752.724	0.0122838
752.802	0.0123302
752.880	0.0124335
752.958	0.0123666
753.036	0.0123336
753.114	0.0122287
753.193	0.0125216
753.271	0.0124880
753.349	0.0126991
753.427	0.0128445
753.505	0.0129029
753.583	0.0130426
753.661	0.0130815
753.739	0.0131606
753.818	0.0132425
753.896	0.0133392
753.974	0.0135129
754.052	0.0136207
754.130	0.0136481
754.208	0.0136859
754.286	0.0136813
754.364	0.0136112
754.443	0.0136037
754.521	0.0137450
754.599	0.0135590
754.677	0.0134270
754.755	0.0134408
754.833	0.0134312
754.911	0.0133789
754.989	0.0133820
755.068	0.0132682
755.146	0.0131466
755.224	0.0131844
755.302	0.0131090
755.380	0.0131340
755.458	0.0131913
755.536	0.0131631
755.614	0.0130685
755.693	0.0130338
755.771	0.0130006
755.849	0.0130115
755.927	0.0130590
756.005	0.0129417
756.083	0.0129012
756.161	0.0130287
756.239	0.0129468
756.318	0.0130900
756.396	0.0129214
756.474	0.0129876
756.552	0.0129957
756.630	0.0129432
756.708	0.0131298
756.786	0.0132158
756.864	0.0130449
756.943	0.0130213
757.021	0.0131966
757.099	0.0130927
757.177	0.0131618
757.255	0.0132030
757.333	0.0132326
757.411	0.0132719
757.489	0.0131242
757.568	0.0131915
757.646	0.0132063
757.724	0.0131261
757.802	0.0130389
757.880	0.0130791
757.958	0.0130727
758.036	0.0130500
758.114	0.0130603
758.193	0.0129807
758.271	0.0129104
758.349	0.0129066
758.427	0.0127264
758.505	0.0125661
758.583	0.0126378
758.661	0.0125364
758.739	0.0125492
758.818	0.0123753
758.896	0.0123951
758.974	0.0123759
759.052	0.0124908
759.130	0.0124902
759.208	0.0124703
759.286	0.0125926
759.364	0.0125282
759.443	0.0126199
759.521	0.0126879
759.599	0.0126800
759.677	0.0128354
759.755	0.0127708
759.833	0.0128577
759.911	0.0128336
759.989	0.0129640
760.068	0.0129518
760.146	0.0130823
760.224	0.0132108
760.302	0.0132526
760.380	0.0131816
760.458	0.0131912
760.536	0.0132821
760.614	0.0132999
760.693	0.0132723
760.771	0.0133170
760.849	0.0132957
760.927	0.0133189
761.005	0.0132774
761.083	0.0133245
761.161	0.0134304
761.239	0.0133797
761.318	0.0133644
761.396	0.0134958
761.474	0.0133736
761.552	0.0133319
761.630	0.0133472
761.708	0.0133187
761.786	0.0136601
761.864	0.0134454
761.943	0.0133159
762.021	0.0132199
762.099	0.0132375
762.177	0.0132980
762.255	0.0132174
762.333	0.0132220
762.411	0.0130312
762.489	0.0129977
762.568	0.0130237
762.646	0.0128845
762.724	0.0128700
762.802	0.0126427
762.880	0.0126463
762.958	0.0126086
763.036	0.0126878
763.114	0.0126880
763.193	0.0126685
763.271	0.0128667
763.349	0.0129284
763.427	0.0129516
763.505	0.0130252
763.583	0.0130667
763.661	0.0132924
763.739	0.0131837
763.818	0.0132698
763.896	0.0132625
763.974	0.0132347
764.052	0.0133080
764.130	0.0131639
764.208	0.0131247
764.286	0.0131689
764.364	0.0131539
764.443	0.0132344
764.521	0.0130289
764.599	0.0131112
764.677	0.0131197
764.755	0.0129812
764.833	0.0129108
764.911	0.0131155
764.989	0.0130755
765.068	0.0131267
765.146	0.0131424
765.224	0.0131470
765.302	0.0131572
765.380	0.0131586
765.458	0.0131611
765.536	0.0133065
765.614	0.0132767
765.693	0.0133531
765.771	0.0133088
765.849	0.0133740
765.927	0.0133294
766.005	0.0132762
766.083	0.0131952
766.161	0.0132719
766.239	0.0131854
766.318	0.0133362
766.396	0.0130217
766.474	0.0128722
766.552	0.0127782
766.630	0.0126639
766.708	0.0125694
766.786	0.0126421
766.864	0.0126289
766.943	0.0125388
767.021	0.0125933
767.099	0.0124976
767.177	0.0124954
767.255	0.0126334
767.333	0.0127284
767.411	0.0127013
767.489	0.0128904
767.568	0.0129709
767.646	0.0129247
767.724	0.0129924
767.802	0.0130767
767.880	0.0132073
767.958	0.0132302
768.036	0.0133559
768.114	0.0133778
768.193	0.0133953
768.271	0.0134158
768.349	0.0134497
768.427	0.0134613
768.505	0.0135180
768.583	0.0135734
768.661	0.0135216
768.739	0.0134906
768.818	0.0135445
768.896	0.0134785
768.974	0.0134692
769.052	0.0133257
769.130	0.0133358
769.208	0.0130510
769.286	0.0130933
769.364	0.0130189
769.443	0.0129698
769.521	0.0129904
769.599	0.0130949
769.677	0.0130631
769.755	0.0129607
769.833	0.0129005
769.911	0.0128500
769.989	0.0128644
770.068	0.0128476
770.146	0.0129514
770.224	0.0128738
770.302	0.0128596
770.380	0.0129722
770.458	0.0128309
770.536	0.0127994
770.614	0.0128615
770.693	0.0128049
770.771	0.0127677
770.849	0.0127525
770.927	0.0127883
771.005	0.0127252
771.083	0.0128383
771.161	0.0125665
771.239	0.0127289
771.318	0.0128307
771.396	0.0127635
771.474	0.0128661
771.552	0.0129263
771.630	0.0128984
771.708	0.0128954
771.786	0.0129048
771.864	0.0130298
771.943	0.0130207
772.021	0.0131030
772.099	0.0131867
772.177	0.0131742
772.255	0.0131164
772.333	0.0131070
772.411	0.0132034
772.489	0.0132337
772.568	0.0131934
772.646	0.0131456
772.724	0.0132306
772.802	0.0131208
772.880	0.0131421
772.958	0.0129297
773.036	0.0130029
773.114	0.0129368
773.193	0.0128999
773.271	0.0128462
773.349	0.0128048
773.427	0.0128798
773.505	0.0128849
773.583	0.0128553
773.661	0.0126870
773.739	0.0129546
773.818	0.0130198
773.896	0.0129780
773.974	0.0128229
774.052	0.0131117
774.130	0.0131742
774.208	0.0131901
774.286	0.0131934
774.364	0.0132619
774.443	0.0132285
774.521	0.0133684
774.599	0.0131819
774.677	0.0132989
774.755	0.0131457
774.833	0.0131820
774.911	0.0131461
774.989	0.0130289
775.068	0.0129961
775.146	0.0129425
775.224	0.0129082
775.302	0.0127585
775.380	0.0127044
775.458	0.0127676
775.536	0.0126270
775.614	0.0126168
775.693	0.0125429
775.771	0.0126828
775.849	0.0127190
775.927	0.0126287
776.005	0.0125820
776.083	0.0126649
776.161	0.0126245
776.239	0.0125928
776.318	0.0126199
776.396	0.0125799
776.474	0.0127234
776.552	0.0128153
776.630	0.0127782
776.708	0.0127186
776.786	0.0127987
776.864	0.0129243
776.943	0.0131211
777.021	0.0129950
777.099	0.0129899
777.177	0.0131861
777.255	0.0131992
777.333	0.0132301
777.411	0.0133859
777.489	0.0134020
777.568	0.0133577
777.646	0.0133043
777.724	0.0133639
777.802	0.0134988
777.880	0.0135571
777.958	0.0136993
778.036	0.0135725
778.114	0.0134595
778.193	0.0134062
778.271	0.0134859
778.349	0.0133998
778.427	0.0134174
778.505	0.0132778
778.583	0.0131067
778.661	0.0132030
778.739	0.0131329
778.818	0.0129697
778.896	0.0129553
778.974	0.0127498
779.052	0.0125967
779.130	0.0127104
779.208	0.0125321
779.286	0.0125550
779.364	0.0125537
779.443	0.0125808
779.521	0.0124336
779.599	0.0125076
779.677	0.0125961
779.755	0.0127100
779.833	0.0128500
779.911	0.0128741
779.989	0.0130373
780.068	0.0130860
780.146	0.0132064
780.224	0.0131050
780.302	0.0131811
780.380	0.0132650
780.458	0.0133302
780.536	0.0133478
780.614	0.0134404
780.693	0.0133807
780.771	0.0134966
780.849	0.0134359
780.927	0.0133514
781.005	0.0131929
781.083	0.0132525
781.161	0.0132818
781.239	0.0131379
781.318	0.0131087
781.396	0.0131034
781.474	0.0130962
781.552	0.0128941
781.630	0.0128551
781.708	0.0127507
781.786	0.0126929
781.864	0.0128687
781.943	0.0129283
782.021	0.0128380
782.099	0.0127255
782.177	0.0127275
782.255	0.0129227
782.333	0.0129214
782.411	0.0128757
782.489	0.0127897
782.568	0.0129539
782.646	0.0128085
782.724	0.0129076
782.802	0.0129012
782.880	0.0129385
782.958	0.0128019
783.036	0.0127710
783.114	0.0129527
783.193	0.0129110
783.271	0.0129607
783.349	0.0128669
783.427	0.0129032
783.505	0.0129751
783.583	0.0128634
783.661	0.0130351
783.739	0.0129895
783.818	0.0129079
783.896	0.0129073
783.974	0.0129794
784.052	0.0130314
784.130	0.0132737
784.208	0.0131939
784.286	0.0130984
784.364	0.0133110
784.443	0.0134133
784.521	0.0133267
784.599	0.0135148
784.677	0.0133965
784.755	0.0135715
784.833	0.0134261
784.911	0.0134662
784.989	0.0134346
785.068	0.0134218
785.146	0.0133143
785.224	0.0131337
785.302	0.0131104
785.380	0.0130978
785.458	0.0129944
785.536	0.0129076
785.614	0.0128918
785.693	0.0127836
785.771	0.0130419
785.849	0.0129279
785.927	0.0129268
786.005	0.0131158
786.083	0.0128925
786.161	0.0129879
786.239	0.0130276
786.318	0.0130014
786.396	0.0130149
786.474	0.0130984
786.552	0.0131829
786.630	0.0132401
786.708	0.0131615
786.786	0.0131514
786.864	0.0132742
786.943	0.0132314
787.021	0.0132219
787.099	0.0132378
787.177	0.0133775
787.255	0.0133096
787.333	0.0133345
787.411	0.0135338
787.489	0.0133250
787.568	0.0134185
787.646	0.0132968
787.724	0.0132776
787.802	0.0132188
787.880	0.0130954
787.958	0.0130933
788.036	0.0129958
788.114	0.0129900
788.193	0.0130458
788.271	0.0129565
788.349	0.0128719
788.427	0.0129326
788.505	0.0128919
788.583	0.0128999
788.661	0.0127795
788.739	0.0129052
788.818	0.0128462
788.896	0.0128737
788.974	0.0127934
789.052	0.0128807
789.130	0.0128251
789.208	0.0128275
789.286	0.0128566
789.364	0.0127529
789.443	0.0130031
789.521	0.0129943
789.599	0.0129280
789.677	0.0126851
789.755	0.0126568
789.833	0.0129102
789.911	0.0129154
789.989	0.0128123
790.068	0.0127751
790.146	0.0127509
790.224	0.0130049
790.302	0.0130405
790.380	0.0131364
790.458	0.0132481
790.536	0.0132020
790.614	0.0130597
790.693	0.0132972
790.771	0.0133299
790.849	0.0133914
790.927	0.0134452
791.005	0.0134820
791.083	0.0133507
791.161	0.0134491
791.239	0.0136182
791.318	0.0134818
791.396	0.0134640
791.474	0.0136559
791.552	0.0135304
791.630	0.0133286
791.708	0.0133990
791.786	0.0133787
791.864	0.0132549
791.943	0.0132447
792.021	0.0132036
792.099	0.0129433
792.177	0.0131905
792.255	0.0130155
792.333	0.0128968
792.411	0.0126570
792.489	0.0125950
792.568	0.0128010
792.646	0.0127549
792.724	0.0125498
792.802	0.0127222
792.880	0.0128529
792.958	0.0128502
793.036	0.0128604
793.114	0.0128345
793.193	0.0128162
793.271	0.0127728
793.349	0.0129058
793.427	0.0131066
793.505	0.0130924
793.583	0.0130521
793.661	0.0131926
793.739	0.0132729
793.818	0.0132594
793.896	0.0133001
793.974	0.0133051
794.052	0.0135069
794.130	0.0134450
794.208	0.0134390
794.286	0.0132935
794.364	0.0133167
794.443	0.0133705
794.521	0.0134129
794.599	0.0133228
794.677	0.0131641
794.755	0.0132677
794.833	0.0131691
794.911	0.0132201
794.989	0.0131785
795.068	0.0131711
795.146	0.0129497
795.224	0.0127787
795.302	0.0128709
795.380	0.0127943
795.458	0.0128341
795.536	0.0127790
795.614	0.0128357
795.693	0.0127157
795.771	0.0127550
795.849	0.0128236
795.927	0.0127385
796.005	0.0127785
796.083	0.0127811
796.161	0.0127663
796.239	0.0127357
796.318	0.0127321
796.396	0.0127433
796.474	0.0127220
796.552	0.0126075
796.630	0.0126241
796.708	0.0127168
796.786	0.0127036
796.864	0.0127096
796.943	0.0128858
797.021	0.0127125
797.099	0.0127522
797.177	0.0127917
797.255	0.0127457
797.333	0.0126749
797.411	0.0127681
797.489	0.0128600
797.568	0.0129362
797.646	0.0130151
797.724	0.0129525
797.802	0.0129623
797.880	0.0131441
797.958	0.0130968
798.036	0.0131056
798.114	0.0132069
798.193	0.0133103
798.271	0.0132865
798.349	0.0132691
798.427	0.0132600
798.505	0.0133055
798.583	0.0135126
798.661	0.0134158
798.739	0.0134383
798.818	0.0135807
798.896	0.0134595
798.974	0.0134172
799.052	0.0135301
799.130	0.0134317
799.208	0.0133988
799.286	0.0133927
799.364	0.0135186
799.443	0.0134779
799.521	0.0135851
799.599	0.0134509
799.677	0.0135340
799.755	0.0133154
799.833	0.0134103
799.911	0.0135443
799.989	0.0134620
800.068	0.0133672
800.146	0.0133757
800.224	0.0133580
800.302	0.0132028
800.380	0.0132594
800.458	0.0131245
800.536	0.0129214
800.614	0.0130572
800.693	0.0129510
800.771	0.0128142
800.849	0.0128591
800.927	0.0128308
801.005	0.0128471
801.083	0.0127025
801.161	0.0125707
801.239	0.0126086
801.318	0.0125929
801.396	0.0126203
801.474	0.0126125
801.552	0.0125476
801.630	0.0126643
801.708	0.0124746
801.786	0.0125881
801.864	0.0127265
801.943	0.0125864
802.021	0.0124895
802.099	0.0125669
802.177	0.0126115
802.255	0.0126455
802.333	0.0126180
802.411	0.0126165
802.489	0.0127258
802.568	0.0126890
802.646	0.0128989
802.724	0.0128415
802.802	0.0129051
802.880	0.0128565
802.958	0.0128996
803.036	0.0129729
803.114	0.0131886
803.193	0.0130193
803.271	0.0130614
803.349	0.0130879
803.427	0.0132009
803.505	0.0132058
803.583	0.0132616
803.661	0.0131281
803.739	0.0132726
803.818	0.0132957
803.896	0.0131430
803.974	0.0131939
804.052	0.0133230
804.130	0.0133236
804.208	0.0132123
804.286	0.0132674
804.364	0.0131773
804.443	0.0133414
804.521	0.0132009
804.599	0.0132488
804.677	0.0133553
804.755	0.0133236
804.833	0.0132726
804.911	0.0132409
804.989	0.0132144
805.068	0.0131580
805.146	0.0131693
805.224	0.0131435
805.302	0.0131348
805.380	0.0131990
805.458	0.0130560
805.536	0.0130009
805.614	0.0130463
805.693	0.0130137
805.771	0.0131101
805.849	0.0130688
805.927	0.0129594
806.005	0.0129734
806.083	0.0127793
806.161	0.0130240
806.239	0.0129270
806.318	0.0130246
806.396	0.0130090
806.474	0.0129279
806.552	0.0129102
806.630	0.0129968
806.708	0.0128773
806.786	0.0128699
806.864	0.0129231
806.943	0.0129395
807.021	0.0128529
807.099	0.0127233
807.177	0.0130419
807.255	0.0128682
807.333	0.0126894
807.411	0.0129150
807.489	0.0128355
807.568	0.0127351
807.646	0.0126985
807.724	0.0127725
807.802	0.0127744
807.880	0.0127557
807.958	0.0129090
808.036	0.0128960
808.114	0.0128522
808.193	0.0129806
808.271	0.0128419
808.349	0.0129349
808.427	0.0129774
808.505	0.0128781
808.583	0.0130886
808.661	0.0129990
808.739	0.0130251
808.818	0.0129565
808.896	0.0131519
808.974	0.0131688
809.052	0.0131081
809.130	0.0132325
809.208	0.0130982
809.286	0.0131421
809.364	0.0130894
809.443	0.0131973
809.521	0.0131413
809.599	0.0131590
809.677	0.0131967
809.755	0.0132636
809.833	0.0132545
809.911	0.0133034
809.989	0.0132501
810.068	0.0134136
810.146	0.0132822
810.224	0.0133588
810.302	0.0132233
810.380	0.0133292
810.458	0.0133155
810.536	0.0132854
810.614	0.0132449
810.693	0.0131915
810.771	0.0131212
810.849	0.0131853
810.927	0.0132420
811.005	0.0130555
811.083	0.0130469
811.161	0.0131152
811.239	0.0130403
811.318	0.0130971
811.396	0.0130659
811.474	0.0130801
811.552	0.0131183
811.630	0.0131691
811.708	0.0131928
811.786	0.0130936
811.864	0.0129195
811.943	0.0130980
812.021	0.0131831
812.099	0.0131409
812.177	0.0130074
812.255	0.0130739
812.333	0.0130693
812.411	0.0130299
812.489	0.0128618
812.568	0.0129488
812.646	0.0128919
812.724	0.0128936
812.802	0.0127063
812.880	0.0128697
812.958	0.0127544
813.036	0.0128140
813.114	0.0127294
813.193	0.0127262
813.271	0.0127187
813.349	0.0126541
813.427	0.0125903
813.505	0.0126147
813.583	0.0126510
813.661	0.0126119
813.739	0.0124873
813.818	0.0125419
813.896	0.0126064
813.974	0.0125079
814.052	0.0126607
814.130	0.0126176
814.208	0.0126110
814.286	0.0126530
814.364	0.0127156
814.443	0.0126357
814.521	0.0127580
814.599	0.0128526
814.677	0.0127874
814.755	0.0127016
814.833	0.0129849
814.911	0.0129929
814.989	0.0130574
815.068	0.0130343
815.146	0.0131466
815.224	0.0131941
815.302	0.0131770
815.380	0.0131339
815.458	0.0132635
815.536	0.0133834
815.614	0.0133520
815.693	0.0134115
815.771	0.0135804
815.849	0.0136210
815.927	0.0136736
816.005	0.0137072
816.083	0.0136073
816.161	0.0136712
816.239	0.0139215
816.318	0.0137459
816.396	0.0137891
816.474	0.0138637
816.552	0.0138309
816.630	0.0137557
816.708	0.0138689
816.786	0.0137627
816.864	0.0136360
816.943	0.0137492
817.021	0.0135565
817.099	0.0133454
817.177	0.0133043
817.255	0.0132880
817.333	0.0131481
817.411	0.0131183
817.489	0.0130303
817.568	0.0129242
817.646	0.0127264
817.724	0.0126718
817.802	0.0125335
817.880	0.0126473
817.958	0.0125283
818.036	0.0122848
818.114	0.0123350
818.193	0.0122895
818.271	0.0123241
818.349	0.0122332
818.427	0.0121678
818.505	0.0123500
818.583	0.0122173
818.661	0.0121523
818.739	0.0122645
818.818	0.0123759
818.896	0.0123751
818.974	0.0122726
819.052	0.0125060
819.130	0.0123857
819.208	0.0125150
819.286	0.0125111
819.364	0.0124003
819.443	0.0126904
819.521	0.0127439
819.599	0.0126118
819.677	0.0128353
819.755	0.0129407
819.833	0.0128873
819.911	0.0130202
819.989	0.0130603
820.068	0.0132070
820.146	0.0133568
820.224	0.0134292
820.302	0.0134600
820.380	0.0134506
820.458	0.0134460
820.536	0.0135845
820.614	0.0137394
820.693	0.0136067
820.771	0.0135300
820.849	0.0136485
820.927	0.0136148
821.005	0.0136973
821.083	0.0135980
821.161	0.0135354
821.239	0.0135461
821.318	0.0135004
821.396	0.0134811
821.474	0.0135305
821.552	0.0134109
821.630	0.0134559
821.708	0.0135061
821.786	0.0133277
821.864	0.0133891
821.943	0.0133291
822.021	0.0132628
822.099	0.0133073
822.177	0.0132307
822.255	0.0131023
822.333	0.0130745
822.411	0.0130959
822.489	0.0131796
822.568	0.0130577
822.646	0.0130956
822.724	0.0129862
822.802	0.0129848
822.880	0.0127600
822.958	0.0129572
823.036	0.0128642
823.114	0.0127673
823.193	0.0127480
823.271	0.0127421
823.349	0.0128829
823.427	0.0128290
823.505	0.0128104
823.583	0.0127477
823.661	0.0128515
823.739	0.0129292
823.818	0.0128235
823.896	0.0127603
823.974	0.0128435
824.052	0.0128764
824.130	0.0128641
824.208	0.0128003
824.286	0.0127447
824.364	0.0127818
824.443	0.0128299
824.521	0.0129111
824.599	0.0128287
824.677	0.0127765
824.755	0.0126756
824.833	0.0127132
824.911	0.0129078
824.989	0.0128957
825.068	0.0129229
825.146	0.0129425
825.224	0.0129183
825.302	0.0128918
825.380	0.0130740
825.458	0.0131597
825.536	0.0130646
825.614	0.0130239
825.693	0.0130037
825.771	0.0131599
825.849	0.0132243
825.927	0.0132816
826.005	0.0132770
826.083	0.0133004
826.161	0.0134782
826.239	0.0132106
826.318	0.0133871
826.396	0.0133762
826.474	0.0134502
826.552	0.0135471
826.630	0.0133622
826.708	0.0133196
826.786	0.0133578
826.864	0.0134978
826.943	0.0134364
827.021	0.0132939
827.099	0.0133110
827.177	0.0132959
827.255	0.0133482
827.333	0.0133389
827.411	0.0133366
827.489	0.0131448
827.568	0.0131433
827.646	0.0130576
827.724	0.0131755
827.802	0.0130633
827.880	0.0129452
827.958	0.0128612
828.036	0.0129498
828.114	0.0128993
828.193	0.0128775
828.271	0.0128594
828.349	0.0129409
828.427	0.0129258
828.505	0.0128125
828.583	0.0128283
828.661	0.0128366
828.739	0.0127659
828.818	0.0128613
828.896	0.0129888
828.974	0.0129723
829.052	0.0130254
829.130	0.0130593
829.208	0.0128621
829.286	0.0129931
829.364	0.0131679
829.443	0.0130815
829.521	0.0132162
829.599	0.0131651
829.677	0.0131474
829.755	0.0132596
829.833	0.0133136
829.911	0.0132431
829.989	0.0132353
830.068	0.0132357
830.146	0.0131928
830.224	0.0131172
830.302	0.0131293
830.380	0.0131879
830.458	0.0130384
830.536	0.0130134
830.614	0.0131577
830.693	0.0131424
830.771	0.0131119
830.849	0.0128734
830.927	0.0129089
831.005	0.0129734
831.083	0.0131184
831.161	0.0129524
831.239	0.0128969
831.318	0.0130773
831.396	0.0129838
831.474	0.0129169
831.552	0.0129731
831.630	0.0129983
831.708	0.0129889
831.786	0.0129684
831.864	0.0129145
831.943	0.0131252
832.021	0.0129927
832.099	0.0130573
832.177	0.0130155
832.255	0.0130852
832.333	0.0129883
832.411	0.0130586
832.489	0.0130228
832.568	0.0131219
832.646	0.0130443
832.724	0.0130653
832.802	0.0130190
832.880	0.0129814
832.958	0.0130339
833.036	0.0131927
833.114	0.0131556
833.193	0.0130567
833.271	0.0130642
833.349	0.0129572
833.427	0.0129135
833.505	0.0129503
833.583	0.0130495
833.661	0.0129917
833.739	0.0128917
833.818	0.0128782
833.896	0.0129667
833.974	0.0129566
834.052	0.0128404
834.130	0.0128539
834.208	0.0127998
834.286	0.0129047
834.364	0.0129137
834.443	0.0127357
834.521	0.0129131
834.599	0.0129120
834.677	0.0128294
834.755	0.0128813
834.833	0.0129112
834.911	0.0129418
834.989	0.0129971
835.068	0.0131083
835.146	0.0130119
835.224	0.0130201
835.302	0.0129968
835.380	0.0130496
835.458	0.0129374
835.536	0.0131113
835.614	0.0131880
835.693	0.0131597
835.771	0.0130106
835.849	0.0130265
835.927	0.0128262
836.005	0.0128434
836.083	0.0129755
836.161	0.0129233
836.239	0.0129316
836.318	0.0127782
836.396	0.0128603
836.474	0.0128642
836.552	0.0127648
836.630	0.0127857
836.708	0.0127268
836.786	0.0126657
836.864	0.0128599
836.943	0.0128033
837.021	0.0128088
837.099	0.0127385
837.177	0.0127702
837.255	0.0128352
837.333	0.0128001
837.411	0.0127983
837.489	0.0128826
837.568	0.0129792
837.646	0.0127486
837.724	0.0128497
837.802	0.0128171
837.880	0.0128012
837.958	0.0128815
838.036	0.0128802
838.114	0.0131316
838.193	0.0130306
838.271	0.0130428
838.349	0.0130104
838.427	0.0129389
838.505	0.0130179
838.583	0.0131004
838.661	0.0131702
838.739	0.0131454
838.818	0.0130658
838.896	0.0130639
838.974	0.0129505
839.052	0.0130256
839.130	0.0131039
839.208	0.0131955
839.286	0.0132689
839.364	0.0131116
839.443	0.0129868
839.521	0.0130934
839.599	0.0130733
839.677	0.0129140
839.755	0.0130044
839.833	0.0129486
839.911	0.0127539
839.989	0.0130280
840.068	0.0129543
840.146	0.0130074
840.224	0.0129337
840.302	0.0129587
840.380	0.0131247
840.458	0.0129842
840.536	0.0130397
840.614	0.0131591
840.693	0.0130829
840.771	0.0130841
840.849	0.0129874
840.927	0.0130070
841.005	0.0131703
841.083	0.0130781
841.161	0.0131482
841.239	0.0133224
841.318	0.0130915
841.396	0.0132375
841.474	0.0133369
841.552	0.0132217
841.630	0.0132103
841.708	0.0131982
841.786	0.0132484
841.864	0.0133044
841.943	0.0132803
842.021	0.0131788
842.099	0.0131900
842.177	0.0131534
842.255	0.0131259
842.333	0.0131728
842.411	0.0130251
842.489	0.0131187
842.568	0.0131293
842.646	0.0130891
842.724	0.0130857
842.802	0.0129946
842.880	0.0130893
842.958	0.0128926
843.036	0.0129838
843.114	0.0128624
843.193	0.0128490
843.271	0.0129195
843.349	0.0128054
843.427	0.0130666
843.505	0.0128442
843.583	0.0128737
843.661	0.0128445
843.739	0.0130121
843.818	0.0129275
843.896	0.0130149
843.974	0.0129705
844.052	0.0129839
844.130	0.0131644
844.208	0.0130019
844.286	0.0129641
844.364	0.0131423
844.443	0.0129086
844.521	0.0130161
844.599	0.0130501
844.677	0.0130470
844.755	0.0129342
844.833	0.0130023
844.911	0.0130245
844.989	0.0130010
845.068	0.0131174
845.146	0.0130547
845.224	0.0130512
845.302	0.0131464
845.380	0.0130857
845.458	0.0130098
845.536	0.0130965
845.614	0.0131707
845.693	0.0129967
845.771	0.0131178
845.849	0.0130994
845.927	0.0130790
846.005	0.0131794
846.083	0.0131605
846.161	0.0131533
846.239	0.0131247
846.318	0.0131739
846.396	0.0132066
846.474	0.0131085
846.552	0.0131434
846.630	0.0131159
846.708	0.0133762
846.786	0.0132338
846.864	0.0132881
846.943	0.0133041
847.021	0.0133167
847.099	0.0132893
847.177	0.0133240
847.255	0.0131644
847.333	0.0131368
847.411	0.0130531
847.489	0.0130441
847.568	0.0131210
847.646	0.0130672
847.724	0.0129598
847.802	0.0128980
847.880	0.0129599
847.958	0.0129434
848.036	0.0129288
848.114	0.0127848
848.193	0.0128536
848.271	0.0129846
848.349	0.0130159
848.427	0.0129084
848.505	0.0128443
848.583	0.0127921
848.661	0.0126176
848.739	0.0129121
848.818	0.0127435
848.896	0.0128599
848.974	0.0129178
849.052	0.0129366
849.130	0.0127362
849.208	0.0128366
849.286	0.0127261
849.364	0.0127748
849.443	0.0128546
849.521	0.0127652
849.599	0.0126541
849.677	0.0129785
849.755	0.0129340
849.833	0.0129340
849.911	0.0129642
849.989	0.0128551
850.068	0.0128960
850.146	0.0128738
850.224	0.0129394
850.302	0.0130470
850.380	0.0130521
850.458	0.0130505
850.536	0.0130371
850.614	0.0130798
850.693	0.0132295
850.771	0.0130256
850.849	0.0131641
850.927	0.0131862
851.005	0.0131422
851.083	0.0131696
851.161	0.0133607
851.239	0.0132431
851.318	0.0133260
851.396	0.0132531
851.474	0.0133530
851.552	0.0133586
851.630	0.0134399
851.708	0.0134180
851.786	0.0133860
851.864	0.0134215
851.943	0.0133414
852.021	0.0133424
852.099	0.0132583
852.177	0.0133635
852.255	0.0133735
852.333	0.0133086
852.411	0.0131398
852.489	0.0131610
852.568	0.0131712
852.646	0.0130691
852.724	0.0130670
852.802	0.0130316
852.880	0.0130717
852.958	0.0130948
853.036	0.0130336
853.114	0.0129324
853.193	0.0127045
853.271	0.0129077
853.349	0.0131119
853.427	0.0130768
853.505	0.0129250
853.583	0.0129748
853.661	0.0130226
853.739	0.0129650
853.818	0.0131216
853.896	0.0131183
853.974	0.0130282
854.052	0.0131180
854.130	0.0128972
854.208	0.0130286
854.286	0.0131507
854.364	0.0129194
854.443	0.0128568
854.521	0.0129821
854.599	0.0130643
854.677	0.0128040
854.755	0.0129190
854.833	0.0129227
854.911	0.0129072
854.989	0.0129808
855.068	0.0129149
855.146	0.0128709
855.224	0.0129336
855.302	0.0129460
855.380	0.0130090
855.458	0.0128241
855.536	0.0129676
855.614	0.0129311
855.693	0.0130801
855.771	0.0129673
855.849	0.0130013
855.927	0.0129379
856.005	0.0130534
856.083	0.0130472
856.161	0.0131828
856.239	0.0131033
856.318	0.0130588
856.396	0.0130628
856.474	0.0130580
856.552	0.0131654
856.630	0.0131189
856.708	0.0131539
856.786	0.0132643
856.864	0.0131205
856.943	0.0131722
857.021	0.0131189
857.099	0.0133034
857.177	0.0132380
857.255	0.0131918
857.333	0.0131390
857.411	0.0133528
857.489	0.0132494
857.568	0.0130644
857.646	0.0130972
857.724	0.0131879
857.802	0.0130165
857.880	0.0131491
857.958	0.0131190
858.036	0.0131589
858.114	0.0130302
858.193	0.0128049
858.271	0.0128933
858.349	0.0131192
858.427	0.0129322
858.505	0.0129406
858.583	0.0129731
858.661	0.0128989
858.739	0.0128837
858.818	0.0128371
858.896	0.0129530
858.974	0.0129337
859.052	0.0129168
859.130	0.0128127
859.208	0.0129425
859.286	0.0129869
859.364	0.0129568
859.443	0.0129632
859.521	0.0129752
859.599	0.0129710
859.677	0.0130975
859.755	0.0130303
859.833	0.0129492
859.911	0.0130037
859.989	0.0130096
860.068	0.0128099
860.146	0.0129405
860.224	0.0128730
860.302	0.0129108
860.380	0.0128541
860.458	0.0127673
860.536	0.0128018
860.614	0.0129433
860.693	0.0127745
860.771	0.0128359
860.849	0.0129103
860.927	0.0126300
861.005	0.0128744
861.083	0.0130072
861.161	0.0131083
861.239	0.0128777
861.318	0.0129324
861.396	0.0130356
861.474	0.0129893
861.552	0.0131159
861.630	0.0130505
861.708	0.0132726
861.786	0.0130053
861.864	0.0131512
861.943	0.0132209
862.021	0.0132486
862.099	0.0131786
862.177	0.0132689
862.255	0.0132770
862.333	0.0131460
862.411	0.0132417
862.489	0.0131624
862.568	0.0131547
862.646	0.0132050
862.724	0.0132173
862.802	0.0132274
862.880	0.0132758
862.958	0.0131445
863.036	0.0131020
863.114	0.0131728
863.193	0.0131160
863.271	0.0131376
863.349	0.0129174
863.427	0.0131776
863.505	0.0132500
863.583	0.0128934
863.661	0.0129778
863.739	0.0130170
863.818	0.0128913
863.896	0.0129610
863.974	0.0129994
864.052	0.0129804
864.130	0.0129494
864.208	0.0130763
864.286	0.0130470
864.364	0.0129295
864.443	0.0129546
864.521	0.0129805
864.599	0.0130254
864.677	0.0130325
864.755	0.0131203
864.833	0.0130825
864.911	0.0131346
864.989	0.0129265
865.068	0.0129741
865.146	0.0130264
865.224	0.0131168
865.302	0.0130640
865.380	0.0129643
865.458	0.0130032
865.536	0.0130859
865.614	0.0129437
865.693	0.0129623
865.771	0.0130627
865.849	0.0131577
865.927	0.0129585
866.005	0.0128635
866.083	0.0130247
866.161	0.0129223
866.239	0.0129509
866.318	0.0130108
866.396	0.0130745
866.474	0.0130703
866.552	0.0130222
866.630	0.0129754
866.708	0.0130242
866.786	0.0130407
866.864	0.0131006
866.943	0.0131356
867.021	0.0129962
867.099	0.0130788
867.177	0.0130267
867.255	0.0130976
867.333	0.0131831
867.411	0.0130953
867.489	0.0130399
867.568	0.0129881
867.646	0.0129682
867.724	0.0131062
867.802	0.0130585
867.880	0.0132056
867.958	0.0130396
868.036	0.0130428
868.114	0.0129285
868.193	0.0131427
868.271	0.0131451
868.349	0.0128806
868.427	0.0130618
868.505	0.0130154
868.583	0.0130695
868.661	0.0131755
868.739	0.0130094
868.818	0.0129916
868.896	0.0130596
868.974	0.0130347
869.052	0.0131409
869.130	0.0130868
869.208	0.0131519
869.286	0.0131834
869.364	0.0132758
869.443	0.0132477
869.521	0.0132293
869.599	0.0130988
869.677	0.0131415
869.755	0.0131039
869.833	0.0131793
869.911	0.0131532
869.989	0.0131789
870.068	0.0132556
870.146	0.0132602
870.224	0.0130960
870.302	0.0131717
870.380	0.0130661
870.458	0.0131265
870.536	0.0130702
870.614	0.0131506
870.693	0.0130828
870.771	0.0129512
870.849	0.0129671
870.927	0.0129453
871.005	0.0129830
871.083	0.0129134
871.161	0.0130206
871.239	0.0129904
871.318	0.0128580
871.396	0.0128793
871.474	0.0129710
871.552	0.0130327
871.630	0.0129605
871.708	0.0129795
871.786	0.0128809
871.864	0.0130769
871.943	0.0130425
872.021	0.0130737
872.099	0.0130684
872.177	0.0129868
872.255	0.0131062
872.333	0.0131409
872.411	0.0131958
872.489	0.0131444
872.568	0.0130705
872.646	0.0130054
872.724	0.0128538
872.802	0.0130779
872.880	0.0130965
872.958	0.0129525
873.036	0.0129678
873.114	0.0128341
873.193	0.0128342
873.271	0.0128596
873.349	0.0129005
873.427	0.0126996
873.505	0.0126897
873.583	0.0127669
873.661	0.0127953
873.739	0.0127600
873.818	0.0127779
873.896	0.0128152
873.974	0.0128055
874.052	0.0130196
874.130	0.0128287
874.208	0.0129962
874.286	0.0128479
874.364	0.0130052
874.443	0.0130249
874.521	0.0130936
874.599	0.0130531
874.677	0.0131858
874.755	0.0131367
874.833	0.0131911
874.911	0.0133072
874.989	0.0133994
875.068	0.0133708
875.146	0.0132712
875.224	0.0134675
875.302	0.0133939
875.380	0.0134331
875.458	0.0133135
875.536	0.0134010
875.614	0.0133890
875.693	0.0133965
875.771	0.0133287
875.849	0.0133559
875.927	0.0133496
876.005	0.0132097
876.083	0.0132874
876.161	0.0132040
876.239	0.0130169
876.318	0.0130494
876.396	0.0130396
876.474	0.0128883
876.552	0.0128184
876.630	0.0128580
876.708	0.0127589
876.786	0.0126557
876.864	0.0128826
876.943	0.0127166
877.021	0.0127121
877.099	0.0127084
877.177	0.0126284
877.255	0.0127737
877.333	0.0127289
877.411	0.0128316
877.489	0.0128027
877.568	0.0128284
877.646	0.0127962
877.724	0.0129476
877.802	0.0129398
877.880	0.0128117
877.958	0.0130427
878.036	0.0129112
878.114	0.0130708
878.193	0.0129523
878.271	0.0129913
878.349	0.0130394
878.427	0.0129658
878.505	0.0130487
878.583	0.0128869
878.661	0.0130322
878.739	0.0130512
878.818	0.0130922
878.896	0.0130194
878.974	0.0129289
879.052	0.0128695
879.130	0.0130453
879.208	0.0129100
879.286	0.0131020
879.364	0.0129745
879.443	0.0128222
879.521	0.0128520
879.599	0.0130105
879.677	0.0128674
879.755	0.0129739
879.833	0.0129195
879.911	0.0128583
879.989	0.0130127
880.068	0.0129067
880.146	0.0128857
880.224	0.0128722
880.302	0.0128658
880.380	0.0128271
880.458	0.0130765
880.536	0.0129329
880.614	0.0128412
880.693	0.0130276
880.771	0.0128603
880.849	0.0128413
880.927	0.0130795
881.005	0.0130106
881.083	0.0130636
881.161	0.0131078
881.239	0.0131113
881.318	0.0131470
881.396	0.0130474
881.474	0.0130209
881.552	0.0130900
881.630	0.0130788
881.708	0.0131955
881.786	0.0129351
881.864	0.0130980
881.943	0.0130395
882.021	0.0129567
882.099	0.0129505
882.177	0.0130536
882.255	0.0130986
882.333	0.0131117
882.411	0.0128992
882.489	0.0129668
882.568	0.0129919
882.646	0.0130013
882.724	0.0130121
882.802	0.0130015
882.880	0.0129758
882.958	0.0129142
883.036	0.0129671
883.114	0.0130080
883.193	0.0130545
883.271	0.0129205
883.349	0.0131261
883.427	0.0129989
883.505	0.0130427
883.583	0.0128943
883.661	0.0129655
883.739	0.0130264
883.818	0.0129642
883.896	0.0128680
883.974	0.0128557
884.052	0.0129191
884.130	0.0130515
884.208	0.0128756
884.286	0.0128392
884.364	0.0129576
884.443	0.0129671
884.521	0.0130284
884.599	0.0130037
884.677	0.0130454
884.755	0.0132087
884.833	0.0131026
884.911	0.0132581
884.989	0.0133253
885.068	0.0132488
885.146	0.0132204
885.224	0.0131893
885.302	0.0132475
885.380	0.0132500
885.458	0.0131172
885.536	0.0133836
885.614	0.0133900
885.693	0.0131624
885.771	0.0131847
885.849	0.0132159
885.927	0.0133380
886.005	0.0132979
886.083	0.0133400
886.161	0.0131903
886.239	0.0131988
886.318	0.0131044
886.396	0.0130978
886.474	0.0130371
886.552	0.0130268
886.630	0.0130656
886.708	0.0131645
886.786	0.0130403
886.864	0.0128867
886.943	0.0130182
887.021	0.0130177
887.099	0.0130743
887.177	0.0127838
887.255	0.0130450
887.333	0.0129407
887.411	0.0127575
887.489	0.0130437
887.568	0.0129717
887.646	0.0129061
887.724	0.0130471
887.802	0.0130592
887.880	0.0129940
887.958	0.0131116
888.036	0.0129524
888.114	0.0131630
888.193	0.0131232
888.271	0.0132014
888.349	0.0131979
888.427	0.0133329
888.505	0.0130981
888.583	0.0132103
888.661	0.0133838
888.739	0.0134892
888.818	0.0136248
888.896	0.0134922
888.974	0.0135175
889.052	0.0136276
889.130	0.0135715
889.208	0.0134248
889.286	0.0134241
889.364	0.0135686
889.443	0.0133475
889.521	0.0133707
889.599	0.0133994
889.677	0.0133633
889.755	0.0132156
889.833	0.0132479
889.911	0.0132322
889.989	0.0131513
890.068	0.0130706
890.146	0.0131292
890.224	0.0130420
890.302	0.0129765
890.380	0.0131706
890.458	0.0129796
890.536	0.0129276
890.614	0.0130103
890.693	0.0130141
890.771	0.0130426
890.849	0.0129493
890.927	0.0129578
891.005	0.0130692
891.083	0.0129733
891.161	0.0131682
891.239	0.0131976
891.318	0.0130363
891.396	0.0130832
891.474	0.0132283
891.552	0.0132077
891.630	0.0132810
891.708	0.0131545
891.786	0.0131747
891.864	0.0130795
891.943	0.0130455
892.021	0.0131830
892.099	0.0132134
892.177	0.0130688
892.255	0.0131145
892.333	0.0129593
892.411	0.0129083
892.489	0.0131026
892.568	0.0130229
892.646	0.0130067
892.724	0.0129025
892.802	0.0129613
892.880	0.0130852
892.958	0.0130286
893.036	0.0131322
893.114	0.0130736
893.193	0.0129702
893.271	0.0131001
893.349	0.0129263
893.427	0.0131898
893.505	0.0130898
893.583	0.0129729
893.661	0.0130974
893.739	0.0130407
893.818	0.0129850
893.896	0.0129649
893.974	0.0129157
894.052	0.0131067
894.130	0.0130909
894.208	0.0129156
894.286	0.0129582
894.364	0.0130196
894.443	0.0130735
894.521	0.0128368
894.599	0.0128928
894.677	0.0130715
894.755	0.0130396
894.833	0.0129452
894.911	0.0129383
894.989	0.0129330
895.068	0.0128981
895.146	0.0129379
895.224	0.0128192
895.302	0.0127759
895.380	0.0126881
895.458	0.0128711
895.536	0.0128112
895.614	0.0127365
895.693	0.0127776
895.771	0.0127515
895.849	0.0128650
895.927	0.0126778
896.005	0.0127028
896.083	0.0129206
896.161	0.0127663
896.239	0.0129073
896.318	0.0129980
896.396	0.0130431
896.474	0.0130588
896.552	0.0130217
896.630	0.0131429
896.708	0.0132551
896.786	0.0131905
896.864	0.0133750
896.943	0.0132665
897.021	0.0134828
897.099	0.0133159
897.177	0.0133295
897.255	0.0134778
897.333	0.0135098
897.411	0.0134148
897.489	0.0133320
897.568	0.0133473
897.646	0.0131899
897.724	0.0132049
897.802	0.0132927
897.880	0.0131715
897.958	0.0131150
898.036	0.0131622
898.114	0.0129684
898.193	0.0130616
898.271	0.0129092
898.349	0.0129034
898.427	0.0128249
898.505	0.0128854
898.583	0.0126999
898.661	0.0127460
898.739	0.0127582
898.818	0.0127142
898.896	0.0127074
898.974	0.0125973
899.052	0.0125947
899.130	0.0127254
899.208	0.0126975
899.286	0.0127048
899.364	0.0127949
899.443	0.0129073
899.521	0.0129676
899.599	0.0127873
899.677	0.0127150
899.755	0.0128642
899.833	0.0127734
899.911	0.0129004
899.989	0.0130021
900.068	0.0129177
900.146	0.0129956
900.224	0.0132008
900.302	0.0130350
900.380	0.0130684
900.458	0.0130939
900.536	0.0131464
900.614	0.0130772
900.693	0.0130622
900.771	0.0132666
900.849	0.0132390
900.927	0.0130982
901.005	0.0131454
901.083	0.0132525
901.161	0.0131374
901.239	0.0131143
901.318	0.0131660
901.396	0.0131268
901.474	0.0131252
901.552	0.0131054
901.630	0.0131711
901.708	0.0130837
901.786	0.0130173
901.864	0.0130575
901.943	0.0130978
902.021	0.0129756
902.099	0.0129565
902.177	0.0128746
902.255	0.0130051
902.333	0.0129844
902.411	0.0130458
902.489	0.0129202
902.568	0.0128458
902.646	0.0127300
902.724	0.0128074
902.802	0.0128423
902.880	0.0129182
902.958	0.0127798
903.036	0.0127268
903.114	0.0126144
903.193	0.0126223
903.271	0.0125195
903.349	0.0127638
903.427	0.0127094
903.505	0.0126921
903.583	0.0127132
903.661	0.0126994
903.739	0.0126693
903.818	0.0127516
903.896	0.0129451
903.974	0.0129680
904.052	0.0129604
904.130	0.0130718
904.208	0.0130270
904.286	0.0129375
904.364	0.0131017
904.443	0.0131934
904.521	0.0132460
904.599	0.0131955
904.677	0.0132101
904.755	0.0133566
904.833	0.0132034
904.911	0.0133139
904.989	0.0133119
905.068	0.0132033
905.146	0.0131144
905.224	0.0130709
905.302	0.0130543
905.380	0.0133702
905.458	0.0132708
905.536	0.0131107
905.614	0.0132152
905.693	0.0131532
905.771	0.0132771
905.849	0.0133911
905.927	0.0131776
906.005	0.0130515
906.083	0.0131380
906.161	0.0130680
906.239	0.0132636
906.318	0.0131469
906.396	0.0131967
906.474	0.0129926
906.552	0.0131371
906.630	0.0130679
906.708	0.0130783
906.786	0.0131777
906.864	0.0131531
906.943	0.0130518
907.021	0.0131162
907.099	0.0130184
907.177	0.0130772
907.255	0.0129860
907.333	0.0130611
907.411	0.0130328
907.489	0.0130505
907.568	0.0129563
907.646	0.0129844
907.724	0.0130228
907.802	0.0130474
907.880	0.0130676
907.958	0.0129198
908.036	0.0130423
908.114	0.0131105
908.193	0.0130154
908.271	0.0129879
908.349	0.0130331
908.427	0.0130054
908.505	0.0129455
908.583	0.0128909
908.661	0.0130251
908.739	0.0130226
908.818	0.0128054
908.896	0.0130808
908.974	0.0130159
909.052	0.0130795
909.130	0.0130003
909.208	0.0128896
909.286	0.0130608
909.364	0.0131669
909.443	0.0129749
909.521	0.0130533
909.599	0.0130920
909.677	0.0130317
909.755	0.0131393
909.833	0.0130987
909.911	0.0131200
909.989	0.0131894
910.068	0.0131070
910.146	0.0130405
910.224	0.0130321
910.302	0.0129806
910.380	0.0130783
910.458	0.0129848
910.536	0.0130855
910.614	0.0130592
910.693	0.0130060
910.771	0.0129613
910.849	0.0130754
910.927	0.0131995
911.005	0.0131071
911.083	0.0130939
911.161	0.0131809
911.239	0.0132065
911.318	0.0133443
911.396	0.0133426
911.474	0.0131747
911.552	0.0132185
911.630	0.0132578
911.708	0.0133303
911.786	0.0132204
911.864	0.0132050
911.943	0.0130252
912.021	0.0130409
912.099	0.0131100
912.177	0.0131276
912.255	0.0131651
912.333	0.0131654
912.411	0.0130603
912.489	0.0131248
912.568	0.0131149
912.646	0.0130169
912.724	0.0129951
912.802	0.0129659
912.880	0.0129305
912.958	0.0129345
913.036	0.0129572
913.114	0.0130664
913.193	0.0129400
913.271	0.0127380
913.349	0.0128857
913.427	0.0130097
913.505	0.0130299
913.583	0.0128890
913.661	0.0128184
913.739	0.0130302
913.818	0.0130682
913.896	0.0130244
913.974	0.0130506
914.052	0.0130145
914.130	0.0130206
914.208	0.0131509
914.286	0.0130060
914.364	0.0130450
914.443	0.0130422
914.521	0.0130065
914.599	0.0131139
914.677	0.0130599
914.755	0.0131451
914.833	0.0129993
914.911	0.0130413
914.989	0.0131757
915.068	0.0131844
915.146	0.0131096
915.224	0.0130922
915.302	0.0131336
915.380	0.0130253
915.458	0.0129424
915.536	0.0129533
915.614	0.0129162
915.693	0.0127826
915.771	0.0128021
915.849	0.0127991
915.927	0.0127483
916.005	0.0127225
916.083	0.0128036
916.161	0.0127131
916.239	0.0127609
916.318	0.0127076
916.396	0.0128624
916.474	0.0128391
916.552	0.0128946
916.630	0.0128815
916.708	0.0131212
916.786	0.0130901
916.864	0.0131197
916.943	0.0129801
917.021	0.0132291
917.099	0.0131990
917.177	0.0130150
917.255	0.0129762
917.333	0.0131239
917.411	0.0131552
917.489	0.0130196
917.568	0.0131380
917.646	0.0130846
917.724	0.0129360
917.802	0.0129987
917.880	0.0130202
917.958	0.0131078
918.036	0.0129726
918.114	0.0129084
918.193	0.0130199
918.271	0.0131756
918.349	0.0130331
918.427	0.0131306
918.505	0.0131175
918.583	0.0131355
918.661	0.0129862
918.739	0.0130805
918.818	0.0132234
918.896	0.0131486
918.974	0.0131649
919.052	0.0131628
919.130	0.0131504
919.208	0.0129746
919.286	0.0131491
919.364	0.0132150
919.443	0.0130402
919.521	0.0131545
919.599	0.0131601
919.677	0.0131230
919.755	0.0132288
919.833	0.0131573
919.911	0.0132056
919.989	0.0132143
920.068	0.0132529
920.146	0.0130602
920.224	0.0131016
920.302	0.0131551
920.380	0.0130875
920.458	0.0130894
920.536	0.0131306
920.614	0.0131718
920.693	0.0131691
920.771	0.0130157
920.849	0.0131237
920.927	0.0130148
921.005	0.0131298
921.083	0.0132565
921.161	0.0131931
921.239	0.0129891
921.318	0.0132870
921.396	0.0131640
921.474	0.0130630
921.552	0.0130289
921.630	0.0130438
921.708	0.0129452
921.786	0.0131081
921.864	0.0130545
921.943	0.0129790
922.021	0.0129609
922.099	0.0129142
922.177	0.0130568
922.255	0.0129727
922.333	0.0129025
922.411	0.0129669
922.489	0.0129317
922.568	0.0131019
922.646	0.0130574
922.724	0.0130367
922.802	0.0129226
922.880	0.0129440
922.958	0.0130845
923.036	0.0131516
923.114	0.0130917
923.193	0.0130463
923.271	0.0130569
923.349	0.0131092
923.427	0.0130837
923.505	0.0129462
923.583	0.0132193
923.661	0.0133493
923.739	0.0129672
923.818	0.0130667
923.896	0.0130315
923.974	0.0132458
924.052	0.0132150
924.130	0.0131388
924.208	0.0131297
924.286	0.0132697
924.364	0.0132052
924.443	0.0131651
924.521	0.0133937
924.599	0.0132965
924.677	0.0133310
924.755	0.0133634
924.833	0.0134235
924.911	0.0133604
924.989	0.0133566
925.068	0.0133763
925.146	0.0133199
925.224	0.0131664
925.302	0.0130696
925.380	0.0131252
925.458	0.0130849
925.536	0.0131195
925.614	0.0129522
925.693	0.0130612
925.771	0.0131013
925.849	0.0129375
925.927	0.0129375
926.005	0.0130286
926.083	0.0129128
926.161	0.0129288
926.239	0.0129488
926.318	0.0129649
926.396	0.0127862
926.474	0.0128661
926.552	0.0128121
926.630	0.0128342
926.708	0.0127840
926.786	0.0127737
926.864	0.0127959
926.943	0.0128583
927.021	0.0128363
927.099	0.0128550
927.177	0.0126983
927.255	0.0129008
927.333	0.0128902
927.411	0.0129008
927.489	0.0128361
927.568	0.0126595
927.646	0.0127783
927.724	0.0128414
927.802	0.0127962
927.880	0.0126785
927.958	0.0128501
928.036	0.0128759
928.114	0.0128558
928.193	0.0128815
928.271	0.0129187
928.349	0.0130027
928.427	0.0129594
928.505	0.0130929
928.583	0.0130583
928.661	0.0129972
928.739	0.0130350
928.818	0.0129874
928.896	0.0130054
928.974	0.0130140
929.052	0.0130832
929.130	0.0131324
929.208	0.0131756
929.286	0.0130953
929.364	0.0130913
929.443	0.0132320
929.521	0.0131792
929.599	0.0130624
929.677	0.0131361
929.755	0.0131562
929.833	0.0131738
929.911	0.0132409
929.989	0.0132012
930.068	0.0131754
930.146	0.0131632
930.224	0.0132347
930.302	0.0131358
930.380	0.0132098
930.458	0.0133108
930.536	0.0130991
930.614	0.0132362
930.693	0.0132867
930.771	0.0132727
930.849	0.0130796
930.927	0.0131255
931.005	0.0131426
931.083	0.0129956
931.161	0.0130849
931.239	0.0130923
931.318	0.0128973
931.396	0.0128004
931.474	0.0129420
931.552	0.0129768
931.630	0.0128979
931.708	0.0128777
931.786	0.0128497
931.864	0.0129300
931.943	0.0129350
932.021	0.0128058
932.099	0.0128608
932.177	0.0128616
932.255	0.0129356
932.333	0.0130105
932.411	0.0129263
932.489	0.0130227
932.568	0.0129165
932.646	0.0129456
932.724	0.0129467
932.802	0.0129243
932.880	0.0129578
932.958	0.0129279
933.036	0.0129336
933.114	0.0129734
933.193	0.0128481
933.271	0.0130216
933.349	0.0129683
933.427	0.0130025
933.505	0.0131139
933.583	0.0131105
933.661	0.0132196
933.739	0.0130747
933.818	0.0130190
933.896	0.0129500
933.974	0.0130810
934.052	0.0129375
934.130	0.0129102
934.208	0.0128574
934.286	0.0129723
934.364	0.0129047
934.443	0.0128873
934.521	0.0127876
934.599	0.0128931
934.677	0.0127880
934.755	0.0128263
934.833	0.0129102
934.911	0.0128841
934.989	0.0128521
935.068	0.0128687
935.146	0.0127612
935.224	0.0127908
935.302	0.0129850
935.380	0.0128950
935.458	0.0128722
935.536	0.0128876
935.614	0.0129457
935.693	0.0128856
935.771	0.0129292
935.849	0.0129408
935.927	0.0129556
936.005	0.0130753
936.083	0.0129718
936.161	0.0129299
936.239	0.0129945
936.318	0.0131212
936.396	0.0129380
936.474	0.0130352
936.552	0.0130505
936.630	0.0129739
936.708	0.0129816
936.786	0.0129344
936.864	0.0130946
936.943	0.0131459
937.021	0.0129655
937.099	0.0129195
937.177	0.0131891
937.255	0.0132417
937.333	0.0131604
937.411	0.0131322
937.489	0.0132874
937.568	0.0131701
937.646	0.0130762
937.724	0.0130499
937.802	0.0131348
937.880	0.0132718
937.958	0.0132013
938.036	0.0130585
938.114	0.0130939
938.193	0.0131401
938.271	0.0130418
938.349	0.0130960
938.427	0.0130368
938.505	0.0128840
938.583	0.0130069
938.661	0.0129791
938.739	0.0129745
938.818	0.0129298
938.896	0.0128947
938.974	0.0130097
939.052	0.0129587
939.130	0.0129946
939.208	0.0128912
939.286	0.0128944
939.364	0.0129783
939.443	0.0130613
939.521	0.0129173
939.599	0.0131248
939.677	0.0130452
939.755	0.0129962
939.833	0.0130856
939.911	0.0131420
939.989	0.0129777
940.068	0.0129801
940.146	0.0130161
940.224	0.0129899
940.302	0.0130216
940.380	0.0129059
940.458	0.0131354
940.536	0.0129998
940.614	0.0131026
940.693	0.0132488
940.771	0.0131712
940.849	0.0131368
940.927	0.0132650
941.005	0.0132154
941.083	0.0130807
941.161	0.0131202
941.239	0.0133077
941.318	0.0133171
941.396	0.0133156
941.474	0.0131927
941.552	0.0132365
941.630	0.0133081
941.708	0.0131999
941.786	0.0133147
941.864	0.0131517
941.943	0.0131123
942.021	0.0132542
942.099	0.0130595
942.177	0.0131326
942.255	0.0132428
942.333	0.0131634
942.411	0.0130833
942.489	0.0131146
942.568	0.0131616
942.646	0.0130537
942.724	0.0130355
942.802	0.0130233
942.880	0.0130415
942.958	0.0129762
943.036	0.0129690
943.114	0.0129919
943.193	0.0130140
943.271	0.0130704
943.349	0.0130001
943.427	0.0130456
943.505	0.0128781
943.583	0.0129633
943.661	0.0129829
943.739	0.0130845
943.818	0.0131869
943.896	0.0131832
943.974	0.0129707
944.052	0.0131059
944.130	0.0131371
944.208	0.0129987
944.286	0.0131554
944.364	0.0131001
944.443	0.0132482
944.521	0.0132104
944.599	0.0130628
944.677	0.0131533
944.755	0.0131634
944.833	0.0130517
944.911	0.0131224
944.989	0.0132098
945.068	0.0131707
945.146	0.0131766
945.224	0.0132700
945.302	0.0132243
945.380	0.0132680
945.458	0.0130107
945.536	0.0132114
945.614	0.0131637
945.693	0.0131677
945.771	0.0130496
945.849	0.0131380
945.927	0.0131565
946.005	0.0130471
946.083	0.0131287
946.161	0.0131373
946.239	0.0130008
946.318	0.0130523
946.396	0.0131267
946.474	0.0130074
946.552	0.0131517
946.630	0.0132008
946.708	0.0131120
946.786	0.0130859
946.864	0.0130780
946.943	0.0131400
947.021	0.0130224
947.099	0.0131441
947.177	0.0129907
947.255	0.0131348
947.333	0.0131158
947.411	0.0130946
947.489	0.0131015
947.568	0.0131188
947.646	0.0130923
947.724	0.0130656
947.802	0.0130035
947.880	0.0130562
947.958	0.0131459
948.036	0.0132758
948.114	0.0130512
948.193	0.0131615
948.271	0.0131587
948.349	0.0131361
948.427	0.0131322
948.505	0.0130876
948.583	0.0131245
948.661	0.0131104
948.739	0.0131213
948.818	0.0130858
948.896	0.0130365
948.974	0.0128953
949.052	0.0129066
949.130	0.0128973
949.208	0.0130800
949.286	0.0128321
949.364	0.0129640
949.443	0.0128322
949.521	0.0129549
949.599	0.0129701
949.677	0.0129317
949.755	0.0131157
949.833	0.0128740
949.911	0.0128768
949.989	0.0129455
950.068	0.0130112
950.146	0.0130090
950.224	0.0130112
950.302	0.0129542
950.380	0.0131558
950.458	0.0131438
950.536	0.0128691
950.614	0.0129327
950.693	0.0130598
950.771	0.0130452
950.849	0.0130933
950.927	0.0131264
951.005	0.0130692
951.083	0.0131349
951.161	0.0131248
951.239	0.0130586
951.318	0.0130850
951.396	0.0131074
951.474	0.0131194
951.552	0.0131033
951.630	0.0131873
951.708	0.0131071
951.786	0.0131224
951.864	0.0131078
951.943	0.0130559
952.021	0.0130663
952.099	0.0130662
952.177	0.0130994
952.255	0.0131488
952.333	0.0131971
952.411	0.0131731
952.489	0.0132281
952.568	0.0132870
952.646	0.0131389
952.724	0.0131332
952.802	0.0133514
952.880	0.0133368
952.958	0.0132098
953.036	0.0132323
953.114	0.0132017
953.193	0.0132124
953.271	0.0131220
953.349	0.0132334
953.427	0.0133273
953.505	0.0133628
953.583	0.0131706
953.661	0.0131889
953.739	0.0131467
953.818	0.0133599
953.896	0.0131911
953.974	0.0130596
954.052	0.0132685
954.130	0.0133315
954.208	0.0131596
954.286	0.0132431
954.364	0.0131651
954.443	0.0130266
954.521	0.0130038
954.599	0.0131210
954.677	0.0129704
954.755	0.0129266
954.833	0.0128677
954.911	0.0129025
954.989	0.0128600
955.068	0.0129054
955.146	0.0128269
955.224	0.0130016
955.302	0.0128080
955.380	0.0126556
955.458	0.0128288
955.536	0.0127831
955.614	0.0126578
955.693	0.0127919
955.771	0.0127669
955.849	0.0127813
955.927	0.0130187
956.005	0.0129556
956.083	0.0128928
956.161	0.0127380
956.239	0.0127388
956.318	0.0127937
956.396	0.0127286
956.474	0.0128023
956.552	0.0127638
956.630	0.0127167
956.708	0.0127809
956.786	0.0128632
956.864	0.0128943
956.943	0.0128684
957.021	0.0128154
957.099	0.0127999
957.177	0.0127657
957.255	0.0128803
957.333	0.0127898
957.411	0.0129255
957.489	0.0129444
957.568	0.0130062
957.646	0.0130125
957.724	0.0128397
957.802	0.0128017
957.880	0.0129627
957.958	0.0129662
958.036	0.0128783
958.114	0.0128162
958.193	0.0130018
958.271	0.0129404
958.349	0.0128513
958.427	0.0128473
958.505	0.0128555
958.583	0.0129803
958.661	0.0129099
958.739	0.0128551
958.818	0.0128424
958.896	0.0129731
958.974	0.0128669
959.052	0.0128326
959.130	0.0129625
959.208	0.0129821
959.286	0.0130205
959.364	0.0130257
959.443	0.0130656
959.521	0.0130688
959.599	0.0130427
959.677	0.0130630
959.755	0.0129210
959.833	0.0130507
959.911	0.0130703
