05/17/2022	16:29:02	Ver.	4.1	UNKNOWN
Optical Delay	639.989416	Delta X		0.078125	Sweeps	1	Scan Rate	0/0
Coordinates	Axis 1	NaN	Axis 2	NaN	Axis 3	NaN	Axis 4	NaN	Axis 5	NaN	Axis 6	0.000000
TX Power	0.000000	RX Power	0.000000

639.989	0.0147699
640.068	0.0147762
640.146	0.0147383
640.224	0.0146104
640.302	0.0147517
640.380	0.0148847
640.458	0.0148143
640.536	0.0147135
640.614	0.0147855
640.693	0.0146517
640.771	0.0146776
640.849	0.0149254
640.927	0.0147063
641.005	0.0147721
641.083	0.0148176
641.161	0.0147633
641.239	0.0147655
641.318	0.0148653
641.396	0.0148668
641.474	0.0148714
641.552	0.0148749
641.630	0.0147675
641.708	0.0148438
641.786	0.0147490
641.864	0.0148743
641.943	0.0148348
642.021	0.0147811
642.099	0.0148373
642.177	0.0147266
642.255	0.0148254
642.333	0.0148483
642.411	0.0148788
642.489	0.0148675
642.568	0.0148029
642.646	0.0148372
642.724	0.0149643
642.802	0.0148221
642.880	0.0148522
642.958	0.0147650
643.036	0.0149009
643.114	0.0148725
643.193	0.0148426
643.271	0.0149178
643.349	0.0149190
643.427	0.0148801
643.505	0.0147362
643.583	0.0147777
643.661	0.0146472
643.739	0.0147390
643.818	0.0148125
643.896	0.0146455
643.974	0.0148779
644.052	0.0148453
644.130	0.0147299
644.208	0.0146974
644.286	0.0147945
644.364	0.0148161
644.443	0.0149969
644.521	0.0147385
644.599	0.0148553
644.677	0.0146941
644.755	0.0148161
644.833	0.0147398
644.911	0.0147466
644.989	0.0147303
645.068	0.0147391
645.146	0.0148231
645.224	0.0147784
645.302	0.0147717
645.380	0.0148460
645.458	0.0148465
645.536	0.0148690
645.614	0.0148047
645.693	0.0147482
645.771	0.0148463
645.849	0.0147617
645.927	0.0147743
646.005	0.0147149
646.083	0.0147019
646.161	0.0146705
646.239	0.0148737
646.318	0.0148575
646.396	0.0148012
646.474	0.0145992
646.552	0.0146978
646.630	0.0148515
646.708	0.0147906
646.786	0.0148689
646.864	0.0146730
646.943	0.0147278
647.021	0.0148078
647.099	0.0147460
647.177	0.0148282
647.255	0.0147961
647.333	0.0145615
647.411	0.0147547
647.489	0.0147201
647.568	0.0147588
647.646	0.0148197
647.724	0.0149086
647.802	0.0147630
647.880	0.0148277
647.958	0.0146978
648.036	0.0148168
648.114	0.0147614
648.193	0.0147357
648.271	0.0147355
648.349	0.0147760
648.427	0.0147387
648.505	0.0147334
648.583	0.0147975
648.661	0.0147256
648.739	0.0146703
648.818	0.0147487
648.896	0.0147634
648.974	0.0148042
649.052	0.0146947
649.130	0.0146480
649.208	0.0148225
649.286	0.0148392
649.364	0.0146725
649.443	0.0147489
649.521	0.0147527
649.599	0.0147039
649.677	0.0147881
649.755	0.0148303
649.833	0.0147256
649.911	0.0147754
649.989	0.0148669
650.068	0.0146923
650.146	0.0147404
650.224	0.0148143
650.302	0.0149058
650.380	0.0147267
650.458	0.0147077
650.536	0.0148880
650.614	0.0147968
650.693	0.0148362
650.771	0.0147626
650.849	0.0146311
650.927	0.0147880
651.005	0.0148900
651.083	0.0148508
651.161	0.0147600
651.239	0.0148095
651.318	0.0147429
651.396	0.0147497
651.474	0.0147810
651.552	0.0148194
651.630	0.0148739
651.708	0.0147437
651.786	0.0148144
651.864	0.0147571
651.943	0.0147601
652.021	0.0147683
652.099	0.0147529
652.177	0.0148017
652.255	0.0147211
652.333	0.0147707
652.411	0.0148677
652.489	0.0147534
652.568	0.0147832
652.646	0.0147999
652.724	0.0145856
652.802	0.0146996
652.880	0.0148221
652.958	0.0147798
653.036	0.0147563
653.114	0.0148109
653.193	0.0147982
653.271	0.0148351
653.349	0.0148681
653.427	0.0148201
653.505	0.0148490
653.583	0.0148280
653.661	0.0147805
653.739	0.0148563
653.818	0.0147890
653.896	0.0147178
653.974	0.0146873
654.052	0.0148190
654.130	0.0148320
654.208	0.0148175
654.286	0.0148177
654.364	0.0148321
654.443	0.0148105
654.521	0.0148559
654.599	0.0146156
654.677	0.0147582
654.755	0.0147359
654.833	0.0147295
654.911	0.0146992
654.989	0.0148527
655.068	0.0147901
655.146	0.0148436
655.224	0.0148354
655.302	0.0147333
655.380	0.0147433
655.458	0.0148710
655.536	0.0148026
655.614	0.0148173
655.693	0.0147985
655.771	0.0146836
655.849	0.0147623
655.927	0.0147523
656.005	0.0148117
656.083	0.0147404
656.161	0.0146043
656.239	0.0147310
656.318	0.0147740
656.396	0.0147380
656.474	0.0149717
656.552	0.0147570
656.630	0.0147563
656.708	0.0147788
656.786	0.0148122
656.864	0.0148215
656.943	0.0147392
657.021	0.0148304
657.099	0.0148873
657.177	0.0148159
657.255	0.0147150
657.333	0.0147505
657.411	0.0148013
657.489	0.0148270
657.568	0.0146915
657.646	0.0147943
657.724	0.0148457
657.802	0.0147088
657.880	0.0147298
657.958	0.0147600
658.036	0.0147453
658.114	0.0148280
658.193	0.0147255
658.271	0.0146717
658.349	0.0146844
658.427	0.0148035
658.505	0.0147824
658.583	0.0148479
658.661	0.0147380
658.739	0.0147502
658.818	0.0149088
658.896	0.0148607
658.974	0.0148066
659.052	0.0147485
659.130	0.0148061
659.208	0.0147159
659.286	0.0147222
659.364	0.0147932
659.443	0.0149075
659.521	0.0148164
659.599	0.0147866
659.677	0.0146703
659.755	0.0148710
659.833	0.0148457
659.911	0.0147437
659.989	0.0148608
660.068	0.0147733
660.146	0.0148856
660.224	0.0148773
660.302	0.0148389
660.380	0.0148221
660.458	0.0147575
660.536	0.0147560
660.614	0.0147620
660.693	0.0149011
660.771	0.0147598
660.849	0.0147580
660.927	0.0147455
661.005	0.0148105
661.083	0.0147103
661.161	0.0146920
661.239	0.0147099
661.318	0.0146906
661.396	0.0147586
661.474	0.0148400
661.552	0.0147044
661.630	0.0148384
661.708	0.0146873
661.786	0.0148301
661.864	0.0147758
661.943	0.0147115
662.021	0.0147810
662.099	0.0148060
662.177	0.0148026
662.255	0.0148512
662.333	0.0147656
662.411	0.0148020
662.489	0.0146918
662.568	0.0147971
662.646	0.0147707
662.724	0.0147840
662.802	0.0147868
662.880	0.0147801
662.958	0.0146737
663.036	0.0146285
663.114	0.0149371
663.193	0.0147869
663.271	0.0147481
663.349	0.0149209
663.427	0.0147956
663.505	0.0148597
663.583	0.0148595
663.661	0.0148056
663.739	0.0148023
663.818	0.0147549
663.896	0.0148338
663.974	0.0148577
664.052	0.0148824
664.130	0.0148433
664.208	0.0147612
664.286	0.0148161
664.364	0.0149682
664.443	0.0149045
664.521	0.0148012
664.599	0.0148105
664.677	0.0147114
664.755	0.0148637
664.833	0.0146975
664.911	0.0146986
664.989	0.0146671
665.068	0.0147043
665.146	0.0147404
665.224	0.0147608
665.302	0.0147653
665.380	0.0149510
665.458	0.0147839
665.536	0.0148118
665.614	0.0147382
665.693	0.0148994
665.771	0.0148878
665.849	0.0149418
665.927	0.0147621
666.005	0.0147272
666.083	0.0147343
666.161	0.0147787
666.239	0.0148817
666.318	0.0147530
666.396	0.0147396
666.474	0.0148243
666.552	0.0148166
666.630	0.0148558
666.708	0.0147142
666.786	0.0147782
666.864	0.0148228
666.943	0.0147636
667.021	0.0148525
667.099	0.0147770
667.177	0.0147197
667.255	0.0147368
667.333	0.0147313
667.411	0.0147500
667.489	0.0147594
667.568	0.0148866
667.646	0.0147620
667.724	0.0147520
667.802	0.0147871
667.880	0.0148046
667.958	0.0148110
668.036	0.0148217
668.114	0.0147727
668.193	0.0148764
668.271	0.0148629
668.349	0.0147784
668.427	0.0147771
668.505	0.0146341
668.583	0.0146710
668.661	0.0149306
668.739	0.0148613
668.818	0.0148957
668.896	0.0147963
668.974	0.0149537
669.052	0.0146832
669.130	0.0147414
669.208	0.0148891
669.286	0.0148031
669.364	0.0147852
669.443	0.0147527
669.521	0.0147043
669.599	0.0148988
669.677	0.0147844
669.755	0.0148579
669.833	0.0147776
669.911	0.0148060
669.989	0.0148094
670.068	0.0148440
670.146	0.0149440
670.224	0.0147767
670.302	0.0146616
670.380	0.0148063
670.458	0.0148138
670.536	0.0147748
670.614	0.0148471
670.693	0.0147665
670.771	0.0146517
670.849	0.0148058
670.927	0.0148863
671.005	0.0148328
671.083	0.0148553
671.161	0.0147176
671.239	0.0147746
671.318	0.0147403
671.396	0.0146706
671.474	0.0147231
671.552	0.0148604
671.630	0.0147296
671.708	0.0146911
671.786	0.0148105
671.864	0.0147528
671.943	0.0147960
672.021	0.0146975
672.099	0.0147182
672.177	0.0147765
672.255	0.0146770
672.333	0.0148943
672.411	0.0148666
672.489	0.0146593
672.568	0.0146858
672.646	0.0146278
672.724	0.0147871
672.802	0.0147690
672.880	0.0145183
672.958	0.0146347
673.036	0.0147948
673.114	0.0146202
673.193	0.0148399
673.271	0.0146921
673.349	0.0148200
673.427	0.0147570
673.505	0.0147548
673.583	0.0147332
673.661	0.0146432
673.739	0.0148126
673.818	0.0147229
673.896	0.0147193
673.974	0.0147711
674.052	0.0146803
674.130	0.0146099
674.208	0.0148483
674.286	0.0148193
674.364	0.0147791
674.443	0.0146957
674.521	0.0148079
674.599	0.0148030
674.677	0.0147795
674.755	0.0146426
674.833	0.0148053
674.911	0.0146928
674.989	0.0147173
675.068	0.0147171
675.146	0.0148080
675.224	0.0148317
675.302	0.0147594
675.380	0.0147351
675.458	0.0146750
675.536	0.0146722
675.614	0.0148319
675.693	0.0147697
675.771	0.0146906
675.849	0.0146241
675.927	0.0147221
676.005	0.0147427
676.083	0.0146885
676.161	0.0146341
676.239	0.0147661
676.318	0.0147823
676.396	0.0146777
676.474	0.0148455
676.552	0.0147327
676.630	0.0147157
676.708	0.0147330
676.786	0.0146669
676.864	0.0146983
676.943	0.0146992
677.021	0.0147706
677.099	0.0147359
677.177	0.0146658
677.255	0.0147742
677.333	0.0148633
677.411	0.0146648
677.489	0.0147129
677.568	0.0148587
677.646	0.0149224
677.724	0.0147839
677.802	0.0147755
677.880	0.0146964
677.958	0.0147449
678.036	0.0147686
678.114	0.0148581
678.193	0.0147617
678.271	0.0148325
678.349	0.0149424
678.427	0.0147540
678.505	0.0148051
678.583	0.0147036
678.661	0.0148419
678.739	0.0147195
678.818	0.0148904
678.896	0.0148474
678.974	0.0147622
679.052	0.0148093
679.130	0.0148978
679.208	0.0148898
679.286	0.0148655
679.364	0.0148010
679.443	0.0148158
679.521	0.0148616
679.599	0.0148606
679.677	0.0149326
679.755	0.0147791
679.833	0.0148563
679.911	0.0148350
679.989	0.0147419
680.068	0.0148434
680.146	0.0147545
680.224	0.0148051
680.302	0.0148782
680.380	0.0148295
680.458	0.0148423
680.536	0.0148672
680.614	0.0147540
680.693	0.0148642
680.771	0.0148802
680.849	0.0149691
680.927	0.0149238
681.005	0.0148412
681.083	0.0147758
681.161	0.0147404
681.239	0.0148563
681.318	0.0147633
681.396	0.0148547
681.474	0.0150891
681.552	0.0148102
681.630	0.0148872
681.708	0.0149107
681.786	0.0149449
681.864	0.0149239
681.943	0.0148679
682.021	0.0147608
682.099	0.0148885
682.177	0.0148598
682.255	0.0149291
682.333	0.0148576
682.411	0.0149111
682.489	0.0149216
682.568	0.0147089
682.646	0.0149373
682.724	0.0149513
682.802	0.0148427
682.880	0.0148545
682.958	0.0149172
683.036	0.0148662
683.114	0.0148330
683.193	0.0148140
683.271	0.0149449
683.349	0.0147524
683.427	0.0147567
683.505	0.0149255
683.583	0.0148445
683.661	0.0148431
683.739	0.0147765
683.818	0.0149831
683.896	0.0148113
683.974	0.0148190
684.052	0.0147778
684.130	0.0147588
684.208	0.0148318
684.286	0.0148939
684.364	0.0147835
684.443	0.0148811
684.521	0.0148682
684.599	0.0148460
684.677	0.0147813
684.755	0.0148669
684.833	0.0148735
684.911	0.0149264
684.989	0.0147360
685.068	0.0148737
685.146	0.0148672
685.224	0.0147580
685.302	0.0147513
685.380	0.0148320
685.458	0.0146503
685.536	0.0146622
685.614	0.0148277
685.693	0.0148527
685.771	0.0150103
685.849	0.0149267
685.927	0.0147078
686.005	0.0148165
686.083	0.0149477
686.161	0.0147338
686.239	0.0148335
686.318	0.0147839
686.396	0.0147877
686.474	0.0147674
686.552	0.0148261
686.630	0.0146976
686.708	0.0148868
686.786	0.0148804
686.864	0.0148795
686.943	0.0148468
687.021	0.0147971
687.099	0.0148194
687.177	0.0147968
687.255	0.0148817
687.333	0.0148347
687.411	0.0148427
687.489	0.0148238
687.568	0.0149424
687.646	0.0148537
687.724	0.0148376
687.802	0.0147690
687.880	0.0146986
687.958	0.0148167
688.036	0.0149373
688.114	0.0146948
688.193	0.0147428
688.271	0.0147331
688.349	0.0147677
688.427	0.0147948
688.505	0.0148361
688.583	0.0147051
688.661	0.0147044
688.739	0.0147453
688.818	0.0146932
688.896	0.0147145
688.974	0.0146869
689.052	0.0147821
689.130	0.0147265
689.208	0.0147210
689.286	0.0148348
689.364	0.0148238
689.443	0.0149229
689.521	0.0149130
689.599	0.0146262
689.677	0.0148582
689.755	0.0146614
689.833	0.0148122
689.911	0.0148668
689.989	0.0148117
690.068	0.0148119
690.146	0.0149612
690.224	0.0147414
690.302	0.0147202
690.380	0.0146559
690.458	0.0147483
690.536	0.0148882
690.614	0.0148003
690.693	0.0146464
690.771	0.0147593
690.849	0.0147729
690.927	0.0147961
691.005	0.0148542
691.083	0.0148018
691.161	0.0146930
691.239	0.0148271
691.318	0.0149545
691.396	0.0148995
691.474	0.0149564
691.552	0.0148581
691.630	0.0147827
691.708	0.0150652
691.786	0.0149125
691.864	0.0147897
691.943	0.0148466
692.021	0.0147329
692.099	0.0146984
692.177	0.0147906
692.255	0.0146311
692.333	0.0147300
692.411	0.0147390
692.489	0.0146431
692.568	0.0145984
692.646	0.0145705
692.724	0.0146140
692.802	0.0146836
692.880	0.0147284
692.958	0.0147917
693.036	0.0148204
693.114	0.0148302
693.193	0.0147522
693.271	0.0147822
693.349	0.0148786
693.427	0.0150629
693.505	0.0147614
693.583	0.0148454
693.661	0.0149860
693.739	0.0149519
693.818	0.0148436
693.896	0.0148407
693.974	0.0148438
694.052	0.0150071
694.130	0.0148630
694.208	0.0146786
694.286	0.0149397
694.364	0.0147356
694.443	0.0146502
694.521	0.0147491
694.599	0.0147417
694.677	0.0148935
694.755	0.0146588
694.833	0.0146851
694.911	0.0147167
694.989	0.0146991
695.068	0.0146135
695.146	0.0146141
695.224	0.0146130
695.302	0.0146298
695.380	0.0146075
695.458	0.0146447
695.536	0.0145867
695.614	0.0147145
695.693	0.0147400
695.771	0.0148312
695.849	0.0147790
695.927	0.0147939
696.005	0.0147536
696.083	0.0148618
696.161	0.0148607
696.239	0.0147957
696.318	0.0149358
696.396	0.0148141
696.474	0.0147606
696.552	0.0148386
696.630	0.0147588
696.708	0.0148042
696.786	0.0150294
696.864	0.0148993
696.943	0.0147247
697.021	0.0147543
697.099	0.0147292
697.177	0.0148517
697.255	0.0148610
697.333	0.0149030
697.411	0.0148121
697.489	0.0148591
697.568	0.0149089
697.646	0.0148485
697.724	0.0147573
697.802	0.0147573
697.880	0.0148351
697.958	0.0147890
698.036	0.0146799
698.114	0.0148569
698.193	0.0148994
698.271	0.0147588
698.349	0.0147233
698.427	0.0147462
698.505	0.0147375
698.583	0.0147668
698.661	0.0145837
698.739	0.0145838
698.818	0.0146519
698.896	0.0146957
698.974	0.0146648
699.052	0.0146630
699.130	0.0145082
699.208	0.0146100
699.286	0.0145278
699.364	0.0146944
699.443	0.0146964
699.521	0.0145234
699.599	0.0145535
699.677	0.0145306
699.755	0.0146340
699.833	0.0146432
699.911	0.0147489
699.989	0.0147096
700.068	0.0147247
700.146	0.0147887
700.224	0.0148464
700.302	0.0148363
700.380	0.0150042
700.458	0.0148949
700.536	0.0150415
700.614	0.0149358
700.693	0.0149357
700.771	0.0149879
700.849	0.0149891
700.927	0.0149100
701.005	0.0149170
701.083	0.0149057
701.161	0.0148256
701.239	0.0147910
701.318	0.0147412
701.396	0.0146308
701.474	0.0145710
701.552	0.0144202
701.630	0.0145577
701.708	0.0145721
701.786	0.0145547
701.864	0.0146617
701.943	0.0146946
702.021	0.0147341
702.099	0.0148608
702.177	0.0147118
702.255	0.0148056
702.333	0.0147874
702.411	0.0148191
702.489	0.0148151
702.568	0.0147951
702.646	0.0149211
702.724	0.0147740
702.802	0.0147330
702.880	0.0147587
702.958	0.0147226
703.036	0.0147008
703.114	0.0147791
703.193	0.0148299
703.271	0.0148106
703.349	0.0147195
703.427	0.0147497
703.505	0.0147068
703.583	0.0146753
703.661	0.0147234
703.739	0.0147079
703.818	0.0147285
703.896	0.0147337
703.974	0.0146926
704.052	0.0148032
704.130	0.0148196
704.208	0.0150035
704.286	0.0148395
704.364	0.0148049
704.443	0.0148992
704.521	0.0149509
704.599	0.0148051
704.677	0.0148906
704.755	0.0147816
704.833	0.0148567
704.911	0.0149456
704.989	0.0148574
705.068	0.0147363
705.146	0.0146809
705.224	0.0146009
705.302	0.0146613
705.380	0.0147462
705.458	0.0148464
705.536	0.0146709
705.614	0.0147382
705.693	0.0147026
705.771	0.0147503
705.849	0.0148272
705.927	0.0146931
706.005	0.0147249
706.083	0.0148507
706.161	0.0148621
706.239	0.0148744
706.318	0.0148370
706.396	0.0148919
706.474	0.0149848
706.552	0.0150617
706.630	0.0148900
706.708	0.0149613
706.786	0.0149490
706.864	0.0148919
706.943	0.0148824
707.021	0.0148051
707.099	0.0146574
707.177	0.0146373
707.255	0.0145552
707.333	0.0146453
707.411	0.0145870
707.489	0.0146262
707.568	0.0145064
707.646	0.0145709
707.724	0.0143916
707.802	0.0145184
707.880	0.0145149
707.958	0.0147425
708.036	0.0147537
708.114	0.0147488
708.193	0.0147539
708.271	0.0148098
708.349	0.0147283
708.427	0.0148839
708.505	0.0148083
708.583	0.0148543
708.661	0.0149013
708.739	0.0147985
708.818	0.0148904
708.896	0.0150097
708.974	0.0150178
709.052	0.0149289
709.130	0.0150749
709.208	0.0148545
709.286	0.0147602
709.364	0.0150106
709.443	0.0151218
709.521	0.0149648
709.599	0.0147768
709.677	0.0148463
709.755	0.0147804
709.833	0.0147445
709.911	0.0146048
709.989	0.0147244
710.068	0.0146262
710.146	0.0145737
710.224	0.0145772
710.302	0.0145004
710.380	0.0146101
710.458	0.0146037
710.536	0.0145827
710.614	0.0145964
710.693	0.0147198
710.771	0.0145942
710.849	0.0147024
710.927	0.0147790
711.005	0.0149649
711.083	0.0149709
711.161	0.0150520
711.239	0.0153670
711.318	0.0152411
711.396	0.0152615
711.474	0.0152486
711.552	0.0151786
711.630	0.0151610
711.708	0.0153654
711.786	0.0150427
711.864	0.0149264
711.943	0.0149176
712.021	0.0145671
712.099	0.0145652
712.177	0.0143951
712.255	0.0143262
712.333	0.0142397
712.411	0.0141801
712.489	0.0141518
712.568	0.0140659
712.646	0.0141739
712.724	0.0144413
712.802	0.0145475
712.880	0.0145986
712.958	0.0147935
713.036	0.0148428
713.114	0.0149377
713.193	0.0152737
713.271	0.0153526
713.349	0.0155081
713.427	0.0156509
713.505	0.0156194
713.583	0.0156197
713.661	0.0156177
713.739	0.0155640
713.818	0.0153400
713.896	0.0151650
713.974	0.0150436
714.052	0.0148219
714.130	0.0147044
714.208	0.0144614
714.286	0.0142978
714.364	0.0141351
714.443	0.0140570
714.521	0.0139674
714.599	0.0139437
714.677	0.0140206
714.755	0.0139357
714.833	0.0140375
714.911	0.0142291
714.989	0.0143457
715.068	0.0145763
715.146	0.0147857
715.224	0.0148514
715.302	0.0150748
715.380	0.0151692
715.458	0.0153315
715.536	0.0154829
715.614	0.0153684
715.693	0.0153795
715.771	0.0153165
715.849	0.0152408
715.927	0.0152201
716.005	0.0149255
716.083	0.0148649
716.161	0.0145957
716.239	0.0145214
716.318	0.0143294
716.396	0.0142621
716.474	0.0143524
716.552	0.0145397
716.630	0.0144205
716.708	0.0144814
716.786	0.0146736
716.864	0.0150460
716.943	0.0149920
717.021	0.0150969
717.099	0.0151086
717.177	0.0150274
717.255	0.0149846
717.333	0.0148787
717.411	0.0149228
717.489	0.0148042
717.568	0.0147761
717.646	0.0146937
717.724	0.0146541
717.802	0.0147179
717.880	0.0146017
717.958	0.0145213
718.036	0.0145933
718.114	0.0146586
718.193	0.0146317
718.271	0.0145922
718.349	0.0146713
718.427	0.0145842
718.505	0.0146389
718.583	0.0147148
718.661	0.0146568
718.739	0.0148367
718.818	0.0146517
718.896	0.0146620
718.974	0.0148874
719.052	0.0150289
719.130	0.0150252
719.208	0.0147899
719.286	0.0149271
719.364	0.0149741
719.443	0.0150115
719.521	0.0150636
719.599	0.0150029
719.677	0.0148025
719.755	0.0149831
719.833	0.0150573
719.911	0.0148948
719.989	0.0147961
720.068	0.0147418
720.146	0.0145384
720.224	0.0145000
720.302	0.0145843
720.380	0.0145144
720.458	0.0145047
720.536	0.0144749
720.614	0.0144214
720.693	0.0145420
720.771	0.0145497
720.849	0.0146868
720.927	0.0148759
721.005	0.0148726
721.083	0.0151382
721.161	0.0152619
721.239	0.0152653
721.318	0.0153858
721.396	0.0153574
721.474	0.0154643
721.552	0.0153461
721.630	0.0153041
721.708	0.0152586
721.786	0.0149952
721.864	0.0151092
721.943	0.0148495
722.021	0.0146447
722.099	0.0145293
722.177	0.0145049
722.255	0.0144337
722.333	0.0143357
722.411	0.0143340
722.489	0.0141308
722.568	0.0143021
722.646	0.0145030
722.724	0.0144612
722.802	0.0143649
722.880	0.0145190
722.958	0.0145852
723.036	0.0146625
723.114	0.0148314
723.193	0.0149171
723.271	0.0150426
723.349	0.0150539
723.427	0.0149413
723.505	0.0151506
723.583	0.0150224
723.661	0.0149152
723.739	0.0151145
723.818	0.0149940
723.896	0.0150018
723.974	0.0148936
724.052	0.0147559
724.130	0.0147227
724.208	0.0147610
724.286	0.0146721
724.364	0.0145158
724.443	0.0147419
724.521	0.0146842
724.599	0.0144770
724.677	0.0146830
724.755	0.0146735
724.833	0.0146117
724.911	0.0146101
724.989	0.0145113
725.068	0.0148164
725.146	0.0147299
725.224	0.0146239
725.302	0.0145953
725.380	0.0146004
725.458	0.0147088
725.536	0.0149143
725.614	0.0147856
725.693	0.0146754
725.771	0.0150221
725.849	0.0149393
725.927	0.0149954
726.005	0.0148679
726.083	0.0149433
726.161	0.0149545
726.239	0.0149213
726.318	0.0148786
726.396	0.0148959
726.474	0.0149877
726.552	0.0148894
726.630	0.0149384
726.708	0.0148515
726.786	0.0147782
726.864	0.0147291
726.943	0.0148337
727.021	0.0148724
727.099	0.0148357
727.177	0.0146594
727.255	0.0144052
727.333	0.0145277
727.411	0.0145352
727.489	0.0146193
727.568	0.0145383
727.646	0.0145081
727.724	0.0145471
727.802	0.0147041
727.880	0.0146848
727.958	0.0146188
728.036	0.0147449
728.114	0.0148256
728.193	0.0149216
728.271	0.0150323
728.349	0.0150471
728.427	0.0149947
728.505	0.0150495
728.583	0.0149773
728.661	0.0150998
728.739	0.0149549
728.818	0.0148244
728.896	0.0149754
728.974	0.0147665
729.052	0.0146844
729.130	0.0147217
729.208	0.0147598
729.286	0.0144083
729.364	0.0144452
729.443	0.0144544
729.521	0.0144098
729.599	0.0145316
729.677	0.0144338
729.755	0.0145046
729.833	0.0145492
729.911	0.0145467
729.989	0.0146295
730.068	0.0145491
730.146	0.0147108
730.224	0.0147402
730.302	0.0147076
730.380	0.0148359
730.458	0.0149589
730.536	0.0148357
730.614	0.0149117
730.693	0.0148773
730.771	0.0148410
730.849	0.0149926
730.927	0.0148283
731.005	0.0147049
731.083	0.0146166
731.161	0.0146255
731.239	0.0146467
731.318	0.0146213
731.396	0.0145199
731.474	0.0146553
731.552	0.0146169
731.630	0.0144219
731.708	0.0146130
731.786	0.0145157
731.864	0.0146937
731.943	0.0149073
732.021	0.0148235
732.099	0.0148075
732.177	0.0148608
732.255	0.0149944
732.333	0.0150667
732.411	0.0151589
732.489	0.0150282
732.568	0.0149635
732.646	0.0150433
732.724	0.0149734
732.802	0.0151510
732.880	0.0148757
732.958	0.0147939
733.036	0.0148465
733.114	0.0147154
733.193	0.0145827
733.271	0.0147551
733.349	0.0147667
733.427	0.0146909
733.505	0.0146893
733.583	0.0149417
733.661	0.0149056
733.739	0.0148917
733.818	0.0149288
733.896	0.0149726
733.974	0.0148814
734.052	0.0149226
734.130	0.0149780
734.208	0.0147963
734.286	0.0147234
734.364	0.0148792
734.443	0.0148689
734.521	0.0147791
734.599	0.0148255
734.677	0.0146838
734.755	0.0147195
734.833	0.0145918
734.911	0.0146693
734.989	0.0147443
735.068	0.0146244
735.146	0.0144618
735.224	0.0144627
735.302	0.0145930
735.380	0.0147067
735.458	0.0145958
735.536	0.0147604
735.614	0.0146946
735.693	0.0147314
735.771	0.0149063
735.849	0.0149319
735.927	0.0150015
736.005	0.0150280
736.083	0.0150407
736.161	0.0148895
736.239	0.0150298
736.318	0.0149757
736.396	0.0148363
736.474	0.0146690
736.552	0.0147224
736.630	0.0146051
736.708	0.0146754
736.786	0.0144769
736.864	0.0145161
736.943	0.0144520
737.021	0.0144409
737.099	0.0146689
737.177	0.0146581
737.255	0.0144759
737.333	0.0146767
737.411	0.0147938
737.489	0.0146692
737.568	0.0148277
737.646	0.0149104
737.724	0.0148311
737.802	0.0148676
737.880	0.0148746
737.958	0.0149035
738.036	0.0148970
738.114	0.0148188
738.193	0.0148660
738.271	0.0147272
738.349	0.0147534
738.427	0.0148251
738.505	0.0147045
738.583	0.0145950
738.661	0.0145937
738.739	0.0146891
738.818	0.0147060
738.896	0.0146086
738.974	0.0145760
739.052	0.0145573
739.130	0.0146452
739.208	0.0148115
739.286	0.0148224
739.364	0.0148369
739.443	0.0146822
739.521	0.0148687
739.599	0.0148443
739.677	0.0150104
739.755	0.0149971
739.833	0.0150507
739.911	0.0149178
739.989	0.0148471
740.068	0.0149367
740.146	0.0149583
740.224	0.0150296
740.302	0.0148442
740.380	0.0148701
740.458	0.0147425
740.536	0.0147836
740.614	0.0147577
740.693	0.0147388
740.771	0.0147998
740.849	0.0146475
740.927	0.0147310
741.005	0.0148026
741.083	0.0146819
741.161	0.0147097
741.239	0.0147762
741.318	0.0147973
741.396	0.0147504
741.474	0.0146756
741.552	0.0148432
741.630	0.0147971
741.708	0.0147540
741.786	0.0148318
741.864	0.0148393
741.943	0.0147890
742.021	0.0146853
742.099	0.0147231
742.177	0.0147852
742.255	0.0148265
742.333	0.0148502
742.411	0.0145647
742.489	0.0147682
742.568	0.0146635
742.646	0.0145581
742.724	0.0145226
742.802	0.0146741
742.880	0.0147740
742.958	0.0146741
743.036	0.0146562
743.114	0.0145626
743.193	0.0148321
743.271	0.0147427
743.349	0.0150256
743.427	0.0150438
743.505	0.0150262
743.583	0.0149068
743.661	0.0150102
743.739	0.0151442
743.818	0.0149255
743.896	0.0148196
743.974	0.0148656
744.052	0.0147945
744.130	0.0148028
744.208	0.0146233
744.286	0.0145702
744.364	0.0146225
744.443	0.0145319
744.521	0.0146085
744.599	0.0144701
744.677	0.0144549
744.755	0.0144425
744.833	0.0146448
744.911	0.0146580
744.989	0.0147047
745.068	0.0147777
745.146	0.0147532
745.224	0.0147373
745.302	0.0149100
745.380	0.0149713
745.458	0.0149313
745.536	0.0149021
745.614	0.0150886
745.693	0.0148857
745.771	0.0148425
745.849	0.0149429
745.927	0.0150117
746.005	0.0147329
746.083	0.0149793
746.161	0.0148151
746.239	0.0148784
746.318	0.0147087
746.396	0.0147314
746.474	0.0147441
746.552	0.0148076
746.630	0.0147085
746.708	0.0145719
746.786	0.0146805
746.864	0.0146804
746.943	0.0147350
747.021	0.0147924
747.099	0.0148474
747.177	0.0148465
747.255	0.0148685
747.333	0.0148406
747.411	0.0148621
747.489	0.0148045
747.568	0.0149463
747.646	0.0149572
747.724	0.0148705
747.802	0.0149570
747.880	0.0149452
747.958	0.0148000
748.036	0.0149741
748.114	0.0149004
748.193	0.0146753
748.271	0.0148199
748.349	0.0148731
748.427	0.0147968
748.505	0.0148115
748.583	0.0147531
748.661	0.0149181
748.739	0.0147572
748.818	0.0148960
748.896	0.0147865
748.974	0.0148634
749.052	0.0148484
749.130	0.0148086
749.208	0.0149129
749.286	0.0150047
749.364	0.0148132
749.443	0.0147415
749.521	0.0148582
749.599	0.0148757
749.677	0.0148982
749.755	0.0148973
749.833	0.0148686
749.911	0.0149013
749.989	0.0146959
750.068	0.0147647
750.146	0.0150111
750.224	0.0146667
750.302	0.0147047
750.380	0.0148912
750.458	0.0146677
750.536	0.0145921
750.614	0.0147001
750.693	0.0146661
750.771	0.0145750
750.849	0.0146584
750.927	0.0147662
751.005	0.0149480
751.083	0.0147968
751.161	0.0148981
751.239	0.0150365
751.318	0.0147833
751.396	0.0147755
751.474	0.0149373
751.552	0.0149209
751.630	0.0147551
751.708	0.0148415
751.786	0.0148806
751.864	0.0147090
751.943	0.0148166
752.021	0.0147476
752.099	0.0146459
752.177	0.0147478
752.255	0.0146786
752.333	0.0146131
752.411	0.0147050
752.489	0.0145978
752.568	0.0147274
752.646	0.0147167
752.724	0.0148549
752.802	0.0146024
752.880	0.0147630
752.958	0.0148792
753.036	0.0148353
753.114	0.0147636
753.193	0.0147948
753.271	0.0146992
753.349	0.0150312
753.427	0.0148904
753.505	0.0148865
753.583	0.0149036
753.661	0.0147524
753.739	0.0147394
753.818	0.0148771
753.896	0.0148477
753.974	0.0148521
754.052	0.0146272
754.130	0.0146416
754.208	0.0145409
754.286	0.0146655
754.364	0.0145968
754.443	0.0146585
754.521	0.0146771
754.599	0.0146202
754.677	0.0147777
754.755	0.0147823
754.833	0.0147079
754.911	0.0147010
754.989	0.0147559
755.068	0.0147496
755.146	0.0147523
755.224	0.0147031
755.302	0.0147665
755.380	0.0147997
755.458	0.0148037
755.536	0.0148003
755.614	0.0148760
755.693	0.0149408
755.771	0.0148258
755.849	0.0148978
755.927	0.0148531
756.005	0.0148898
756.083	0.0148735
756.161	0.0148827
756.239	0.0148566
756.318	0.0146777
756.396	0.0149279
756.474	0.0149754
756.552	0.0148811
756.630	0.0147371
756.708	0.0148299
756.786	0.0148341
756.864	0.0148835
756.943	0.0148976
757.021	0.0147729
757.099	0.0147506
757.177	0.0148552
757.255	0.0148157
757.333	0.0147409
757.411	0.0148987
757.489	0.0150592
757.568	0.0149394
757.646	0.0149014
757.724	0.0149373
757.802	0.0149416
757.880	0.0148487
757.958	0.0148276
758.036	0.0148752
758.114	0.0146800
758.193	0.0145827
758.271	0.0147921
758.349	0.0147283
758.427	0.0145631
758.505	0.0146107
758.583	0.0147422
758.661	0.0146480
758.739	0.0146096
758.818	0.0146958
758.896	0.0148112
758.974	0.0147636
759.052	0.0147900
759.130	0.0148013
759.208	0.0147542
759.286	0.0147916
759.364	0.0149046
759.443	0.0148937
759.521	0.0148769
759.599	0.0147562
759.677	0.0146774
759.755	0.0146701
759.833	0.0146717
759.911	0.0146937
759.989	0.0146374
760.068	0.0145580
760.146	0.0145490
760.224	0.0146031
760.302	0.0146701
760.380	0.0145274
760.458	0.0145039
760.536	0.0145949
760.614	0.0147083
760.693	0.0146399
760.771	0.0147869
760.849	0.0148405
760.927	0.0147188
761.005	0.0147457
761.083	0.0149055
761.161	0.0147920
761.239	0.0148319
761.318	0.0147497
761.396	0.0150402
761.474	0.0150131
761.552	0.0148412
761.630	0.0147887
761.708	0.0147942
761.786	0.0148889
761.864	0.0147290
761.943	0.0146796
762.021	0.0147064
762.099	0.0147449
762.177	0.0146078
762.255	0.0146416
762.333	0.0145705
762.411	0.0147132
762.489	0.0145923
762.568	0.0146175
762.646	0.0147617
762.724	0.0147577
762.802	0.0146902
762.880	0.0147363
762.958	0.0146854
763.036	0.0146638
763.114	0.0148022
763.193	0.0148112
763.271	0.0147845
763.349	0.0148324
763.427	0.0148498
763.505	0.0147369
763.583	0.0148042
763.661	0.0148435
763.739	0.0147595
763.818	0.0146808
763.896	0.0147263
763.974	0.0147775
764.052	0.0147304
764.130	0.0147269
764.208	0.0146578
764.286	0.0146027
764.364	0.0146133
764.443	0.0145125
764.521	0.0148896
764.599	0.0146855
764.677	0.0147130
764.755	0.0146990
764.833	0.0147558
764.911	0.0148080
764.989	0.0146234
765.068	0.0147278
765.146	0.0147948
765.224	0.0145302
765.302	0.0147761
765.380	0.0147161
765.458	0.0148538
765.536	0.0147715
765.614	0.0146409
765.693	0.0146233
765.771	0.0147067
765.849	0.0146833
765.927	0.0146677
766.005	0.0146269
766.083	0.0147659
766.161	0.0147646
766.239	0.0146812
766.318	0.0146762
766.396	0.0146679
766.474	0.0146224
766.552	0.0146744
766.630	0.0147789
766.708	0.0147229
766.786	0.0148028
766.864	0.0147373
766.943	0.0147594
767.021	0.0149494
767.099	0.0148025
767.177	0.0148310
767.255	0.0149079
767.333	0.0147856
767.411	0.0148771
767.489	0.0148453
767.568	0.0147142
767.646	0.0146729
767.724	0.0146410
767.802	0.0148003
767.880	0.0147169
767.958	0.0147982
768.036	0.0146075
768.114	0.0146716
768.193	0.0147492
768.271	0.0148359
768.349	0.0148086
768.427	0.0147050
768.505	0.0148006
768.583	0.0146927
768.661	0.0147311
768.739	0.0147665
768.818	0.0146300
768.896	0.0147538
768.974	0.0149353
769.052	0.0148069
769.130	0.0147675
769.208	0.0148168
769.286	0.0147598
769.364	0.0147381
769.443	0.0147038
769.521	0.0147461
769.599	0.0148071
769.677	0.0148822
769.755	0.0147120
769.833	0.0145931
769.911	0.0147380
769.989	0.0147353
770.068	0.0145332
770.146	0.0145451
770.224	0.0146717
770.302	0.0147425
770.380	0.0146091
770.458	0.0145564
770.536	0.0145559
770.614	0.0147018
770.693	0.0145852
770.771	0.0145512
770.849	0.0145807
770.927	0.0146348
771.005	0.0146001
771.083	0.0147426
771.161	0.0146191
771.239	0.0147545
771.318	0.0147511
771.396	0.0147751
771.474	0.0147645
771.552	0.0148944
771.630	0.0146661
771.708	0.0148229
771.786	0.0149710
771.864	0.0147850
771.943	0.0149281
772.021	0.0149291
772.099	0.0148964
772.177	0.0148672
772.255	0.0147904
772.333	0.0148843
772.411	0.0147787
772.489	0.0148085
772.568	0.0147482
772.646	0.0146555
772.724	0.0148213
772.802	0.0146220
772.880	0.0146365
772.958	0.0148016
773.036	0.0146489
773.114	0.0148060
773.193	0.0147958
773.271	0.0147681
773.349	0.0147733
773.427	0.0147559
773.505	0.0147998
773.583	0.0148347
773.661	0.0147868
773.739	0.0148375
773.818	0.0147855
773.896	0.0148380
773.974	0.0146574
774.052	0.0148002
774.130	0.0147472
774.208	0.0148151
774.286	0.0148685
774.364	0.0148343
774.443	0.0148145
774.521	0.0148436
774.599	0.0148602
774.677	0.0148570
774.755	0.0147946
774.833	0.0148641
774.911	0.0148625
774.989	0.0148351
775.068	0.0148595
775.146	0.0148591
775.224	0.0149780
775.302	0.0148017
775.380	0.0150075
775.458	0.0147575
775.536	0.0147664
775.614	0.0148277
775.693	0.0149371
775.771	0.0147144
775.849	0.0148109
775.927	0.0148837
776.005	0.0147467
776.083	0.0146825
776.161	0.0145992
776.239	0.0146423
776.318	0.0147742
776.396	0.0147376
776.474	0.0146949
776.552	0.0147623
776.630	0.0147912
776.708	0.0147600
776.786	0.0148167
776.864	0.0148634
776.943	0.0148977
777.021	0.0148583
777.099	0.0146851
777.177	0.0148193
777.255	0.0148418
777.333	0.0148839
777.411	0.0149084
777.489	0.0148524
777.568	0.0148129
777.646	0.0147507
777.724	0.0148521
777.802	0.0147894
777.880	0.0149090
777.958	0.0148891
778.036	0.0147298
778.114	0.0147559
778.193	0.0148959
778.271	0.0149158
778.349	0.0147461
778.427	0.0149144
778.505	0.0147107
778.583	0.0147433
778.661	0.0148077
778.739	0.0148111
778.818	0.0148479
778.896	0.0147941
778.974	0.0147579
779.052	0.0148458
779.130	0.0148179
779.208	0.0148788
779.286	0.0148566
779.364	0.0149249
779.443	0.0149667
779.521	0.0148823
779.599	0.0148988
779.677	0.0147620
779.755	0.0148822
779.833	0.0149603
779.911	0.0147779
779.989	0.0149213
780.068	0.0148608
780.146	0.0148281
780.224	0.0149359
780.302	0.0146630
780.380	0.0147202
780.458	0.0148528
780.536	0.0147713
780.614	0.0147369
780.693	0.0149363
780.771	0.0147653
780.849	0.0146372
780.927	0.0148350
781.005	0.0148456
781.083	0.0148464
781.161	0.0148594
781.239	0.0147603
781.318	0.0148158
781.396	0.0149992
781.474	0.0148859
781.552	0.0149070
781.630	0.0149348
781.708	0.0149319
781.786	0.0149003
781.864	0.0147171
781.943	0.0147071
782.021	0.0147659
782.099	0.0148531
782.177	0.0148101
782.255	0.0146610
782.333	0.0148042
782.411	0.0148152
782.489	0.0146923
782.568	0.0146468
782.646	0.0147289
782.724	0.0147217
782.802	0.0148441
782.880	0.0147704
782.958	0.0147421
783.036	0.0148698
783.114	0.0147654
783.193	0.0148066
783.271	0.0148895
783.349	0.0149678
783.427	0.0149988
783.505	0.0147829
783.583	0.0149853
783.661	0.0149714
783.739	0.0148715
783.818	0.0148262
783.896	0.0147971
783.974	0.0147964
784.052	0.0147718
784.130	0.0147050
784.208	0.0147111
784.286	0.0147468
784.364	0.0147630
784.443	0.0147703
784.521	0.0147446
784.599	0.0147416
784.677	0.0147548
784.755	0.0148184
784.833	0.0147489
784.911	0.0148394
784.989	0.0147369
785.068	0.0148254
785.146	0.0149062
785.224	0.0149879
785.302	0.0149925
785.380	0.0149148
785.458	0.0149110
785.536	0.0148712
785.614	0.0147533
785.693	0.0148756
785.771	0.0148100
785.849	0.0150551
785.927	0.0148765
786.005	0.0148450
786.083	0.0148681
786.161	0.0147783
786.239	0.0146255
786.318	0.0147288
786.396	0.0148878
786.474	0.0146638
786.552	0.0147145
786.630	0.0147832
786.708	0.0147729
786.786	0.0147080
786.864	0.0147228
786.943	0.0146991
787.021	0.0146954
787.099	0.0148839
787.177	0.0147536
787.255	0.0148435
787.333	0.0148454
787.411	0.0148752
787.489	0.0148674
787.568	0.0148775
787.646	0.0148396
787.724	0.0149696
787.802	0.0147677
787.880	0.0148478
787.958	0.0147259
788.036	0.0147893
788.114	0.0147126
788.193	0.0146935
788.271	0.0148171
788.349	0.0147162
788.427	0.0145666
788.505	0.0148223
788.583	0.0148016
788.661	0.0148030
788.739	0.0148785
788.818	0.0149111
788.896	0.0147408
788.974	0.0147494
789.052	0.0147092
789.130	0.0146593
789.208	0.0147838
789.286	0.0147940
789.364	0.0146863
789.443	0.0147256
789.521	0.0147218
789.599	0.0147205
789.677	0.0147546
789.755	0.0148453
789.833	0.0148188
789.911	0.0147821
789.989	0.0148400
790.068	0.0147445
790.146	0.0148144
790.224	0.0148065
790.302	0.0148050
790.380	0.0148329
790.458	0.0147663
790.536	0.0146854
790.614	0.0148666
790.693	0.0149474
790.771	0.0147814
790.849	0.0147050
790.927	0.0149263
791.005	0.0148015
791.083	0.0147245
791.161	0.0148961
791.239	0.0147847
791.318	0.0148769
791.396	0.0147256
791.474	0.0146113
791.552	0.0148447
791.630	0.0147141
791.708	0.0147284
791.786	0.0147264
791.864	0.0145754
791.943	0.0147438
792.021	0.0147206
792.099	0.0147269
792.177	0.0146214
792.255	0.0146983
792.333	0.0147498
792.411	0.0147765
792.489	0.0147741
792.568	0.0148162
792.646	0.0147555
792.724	0.0147366
792.802	0.0146947
792.880	0.0147100
792.958	0.0148222
793.036	0.0148584
793.114	0.0148481
793.193	0.0148441
793.271	0.0147526
793.349	0.0149519
793.427	0.0148760
793.505	0.0149049
793.583	0.0147752
793.661	0.0147950
793.739	0.0149029
793.818	0.0147757
793.896	0.0147458
793.974	0.0147303
794.052	0.0147996
794.130	0.0148651
794.208	0.0147851
794.286	0.0146569
794.364	0.0146705
794.443	0.0148206
794.521	0.0148283
794.599	0.0147790
794.677	0.0147718
794.755	0.0147910
794.833	0.0146973
794.911	0.0148513
794.989	0.0148154
795.068	0.0149283
795.146	0.0148069
795.224	0.0148441
795.302	0.0147698
795.380	0.0147973
795.458	0.0148991
795.536	0.0148654
795.614	0.0147749
795.693	0.0147148
795.771	0.0147479
795.849	0.0147427
795.927	0.0148264
796.005	0.0146795
796.083	0.0147763
796.161	0.0147784
796.239	0.0147881
796.318	0.0147257
796.396	0.0146650
796.474	0.0147672
796.552	0.0147794
796.630	0.0147866
796.708	0.0146068
796.786	0.0146212
796.864	0.0147587
796.943	0.0147832
797.021	0.0147342
797.099	0.0146457
797.177	0.0146846
797.255	0.0148625
797.333	0.0148822
797.411	0.0147308
797.489	0.0148177
797.568	0.0148239
797.646	0.0148276
797.724	0.0148923
797.802	0.0146918
797.880	0.0146748
797.958	0.0148400
798.036	0.0147334
798.114	0.0147701
798.193	0.0148558
798.271	0.0146780
798.349	0.0147314
798.427	0.0146736
798.505	0.0147692
798.583	0.0147781
798.661	0.0147980
798.739	0.0147243
798.818	0.0147003
798.896	0.0148272
798.974	0.0147260
799.052	0.0147591
799.130	0.0147491
799.208	0.0148315
799.286	0.0149448
799.364	0.0148182
799.443	0.0147646
799.521	0.0148032
799.599	0.0146788
799.677	0.0147683
799.755	0.0147921
799.833	0.0148026
799.911	0.0146510
799.989	0.0147426
800.068	0.0147239
800.146	0.0148362
800.224	0.0148489
800.302	0.0146552
800.380	0.0146733
800.458	0.0149370
800.536	0.0148244
800.614	0.0146769
800.693	0.0147736
800.771	0.0146997
800.849	0.0146640
800.927	0.0149236
801.005	0.0147958
801.083	0.0149726
801.161	0.0149294
801.239	0.0149847
801.318	0.0149206
801.396	0.0147784
801.474	0.0148137
801.552	0.0149497
801.630	0.0148645
801.708	0.0148343
801.786	0.0147702
801.864	0.0149420
801.943	0.0148154
802.021	0.0147097
802.099	0.0147375
802.177	0.0147044
802.255	0.0146939
802.333	0.0147687
802.411	0.0147423
802.489	0.0146790
802.568	0.0149210
802.646	0.0147983
802.724	0.0147639
802.802	0.0147079
802.880	0.0147580
802.958	0.0148232
803.036	0.0149686
803.114	0.0148490
803.193	0.0147459
803.271	0.0149038
803.349	0.0148701
803.427	0.0148212
803.505	0.0147646
803.583	0.0148344
803.661	0.0148017
803.739	0.0148412
803.818	0.0146915
803.896	0.0146417
803.974	0.0147958
804.052	0.0146012
804.130	0.0146071
804.208	0.0148067
804.286	0.0147279
804.364	0.0146790
804.443	0.0148658
804.521	0.0147343
804.599	0.0147790
804.677	0.0147296
804.755	0.0147254
804.833	0.0147139
804.911	0.0148823
804.989	0.0147186
805.068	0.0146657
805.146	0.0147675
805.224	0.0146490
805.302	0.0148997
805.380	0.0147175
805.458	0.0147613
805.536	0.0148260
805.614	0.0147318
805.693	0.0147778
805.771	0.0148660
805.849	0.0147601
805.927	0.0146649
806.005	0.0146970
806.083	0.0147179
806.161	0.0147604
806.239	0.0147292
806.318	0.0147429
806.396	0.0146399
806.474	0.0147756
806.552	0.0148023
806.630	0.0148473
806.708	0.0146545
806.786	0.0148569
806.864	0.0147910
806.943	0.0147058
807.021	0.0148363
807.099	0.0149492
807.177	0.0148153
807.255	0.0149970
807.333	0.0148170
807.411	0.0147617
807.489	0.0149109
807.568	0.0148416
807.646	0.0146751
807.724	0.0148943
807.802	0.0147633
807.880	0.0147184
807.958	0.0146819
808.036	0.0146816
808.114	0.0148067
808.193	0.0147069
808.271	0.0147611
808.349	0.0148741
808.427	0.0146767
808.505	0.0145889
808.583	0.0146259
808.661	0.0147502
808.739	0.0147655
808.818	0.0147845
808.896	0.0146635
808.974	0.0148214
809.052	0.0149251
809.130	0.0147783
809.208	0.0148042
809.286	0.0149628
809.364	0.0148325
809.443	0.0148440
809.521	0.0149062
809.599	0.0149197
809.677	0.0148811
809.755	0.0149301
809.833	0.0148390
809.911	0.0148864
809.989	0.0148438
810.068	0.0147627
810.146	0.0148447
810.224	0.0149339
810.302	0.0146976
810.380	0.0146946
810.458	0.0146901
810.536	0.0146905
810.614	0.0147134
810.693	0.0145666
810.771	0.0147569
810.849	0.0146628
810.927	0.0146746
811.005	0.0147193
811.083	0.0147762
811.161	0.0147350
811.239	0.0147994
811.318	0.0147570
811.396	0.0147996
811.474	0.0148170
811.552	0.0148304
811.630	0.0148746
811.708	0.0149225
811.786	0.0149261
811.864	0.0150172
811.943	0.0149761
812.021	0.0148777
812.099	0.0148455
812.177	0.0148892
812.255	0.0147791
812.333	0.0147704
812.411	0.0147715
812.489	0.0148573
812.568	0.0146733
812.646	0.0147299
812.724	0.0147117
812.802	0.0146644
812.880	0.0145965
812.958	0.0147238
813.036	0.0146510
813.114	0.0146332
813.193	0.0148047
813.271	0.0147409
813.349	0.0146107
813.427	0.0147675
813.505	0.0148649
813.583	0.0147969
813.661	0.0148682
813.739	0.0148125
813.818	0.0148631
813.896	0.0148819
813.974	0.0148341
814.052	0.0148666
814.130	0.0148879
814.208	0.0148980
814.286	0.0147327
814.364	0.0147716
814.443	0.0148042
814.521	0.0148555
814.599	0.0147636
814.677	0.0147828
814.755	0.0147800
814.833	0.0146597
814.911	0.0146671
814.989	0.0146667
815.068	0.0147958
815.146	0.0146608
815.224	0.0146841
815.302	0.0146143
815.380	0.0147690
815.458	0.0146285
815.536	0.0147064
815.614	0.0147775
815.693	0.0147897
815.771	0.0147850
815.849	0.0148441
815.927	0.0146766
816.005	0.0148618
816.083	0.0147266
816.161	0.0146908
816.239	0.0146075
816.318	0.0147350
816.396	0.0148660
816.474	0.0146174
816.552	0.0146644
816.630	0.0147166
816.708	0.0146130
816.786	0.0145844
816.864	0.0146865
816.943	0.0148146
817.021	0.0146856
817.099	0.0146150
817.177	0.0146764
817.255	0.0147060
817.333	0.0147768
817.411	0.0148219
817.489	0.0148211
817.568	0.0149183
817.646	0.0147736
817.724	0.0147627
817.802	0.0147603
817.880	0.0149277
817.958	0.0148399
818.036	0.0148660
818.114	0.0148778
818.193	0.0147753
818.271	0.0149129
818.349	0.0148188
818.427	0.0148288
818.505	0.0148913
818.583	0.0148326
818.661	0.0147072
818.739	0.0149207
818.818	0.0147059
818.896	0.0148545
818.974	0.0148941
819.052	0.0148395
819.130	0.0148255
819.208	0.0148479
819.286	0.0148820
819.364	0.0148365
819.443	0.0149014
819.521	0.0147697
819.599	0.0148440
819.677	0.0149330
819.755	0.0148479
819.833	0.0148023
819.911	0.0146806
819.989	0.0147706
820.068	0.0148724
820.146	0.0149162
820.224	0.0148631
820.302	0.0146752
820.380	0.0147114
820.458	0.0147676
820.536	0.0147919
820.614	0.0148301
820.693	0.0148018
820.771	0.0146799
820.849	0.0145617
820.927	0.0148117
821.005	0.0147276
821.083	0.0147256
821.161	0.0148322
821.239	0.0146059
821.318	0.0145992
821.396	0.0145161
821.474	0.0146586
821.552	0.0146000
821.630	0.0145416
821.708	0.0146109
821.786	0.0146570
821.864	0.0145137
821.943	0.0146078
822.021	0.0147128
822.099	0.0146501
822.177	0.0145840
822.255	0.0146352
822.333	0.0147346
822.411	0.0147045
822.489	0.0145808
822.568	0.0146494
822.646	0.0146037
822.724	0.0146428
822.802	0.0146740
822.880	0.0147787
822.958	0.0146991
823.036	0.0146880
823.114	0.0147044
823.193	0.0146660
823.271	0.0146816
823.349	0.0147528
823.427	0.0147713
823.505	0.0146790
823.583	0.0147488
823.661	0.0147888
823.739	0.0147860
823.818	0.0147647
823.896	0.0148378
823.974	0.0149359
824.052	0.0148321
824.130	0.0148609
824.208	0.0149706
824.286	0.0149450
824.364	0.0149400
824.443	0.0149843
824.521	0.0149094
824.599	0.0149169
824.677	0.0149393
824.755	0.0149213
824.833	0.0149634
824.911	0.0150352
824.989	0.0148636
825.068	0.0147512
825.146	0.0148078
825.224	0.0148492
825.302	0.0148601
825.380	0.0147668
825.458	0.0148779
825.536	0.0148068
825.614	0.0148151
825.693	0.0149210
825.771	0.0145936
825.849	0.0146971
825.927	0.0148087
826.005	0.0147801
826.083	0.0146941
826.161	0.0146796
826.239	0.0147045
826.318	0.0145931
826.396	0.0145694
826.474	0.0146441
826.552	0.0147543
826.630	0.0146614
826.708	0.0146382
826.786	0.0147606
826.864	0.0146222
826.943	0.0146510
827.021	0.0145254
827.099	0.0145103
827.177	0.0146259
827.255	0.0145614
827.333	0.0145330
827.411	0.0146054
827.489	0.0145266
827.568	0.0146026
827.646	0.0145953
827.724	0.0145106
827.802	0.0146458
827.880	0.0146479
827.958	0.0146840
828.036	0.0146362
828.114	0.0146971
828.193	0.0147575
828.271	0.0146880
828.349	0.0146329
828.427	0.0146455
828.505	0.0146899
828.583	0.0148119
828.661	0.0146980
828.739	0.0147603
828.818	0.0146571
828.896	0.0147861
828.974	0.0146691
829.052	0.0148006
829.130	0.0148080
829.208	0.0148450
829.286	0.0148019
829.364	0.0147753
829.443	0.0147727
829.521	0.0148175
829.599	0.0147623
829.677	0.0147913
829.755	0.0149310
829.833	0.0148399
829.911	0.0147521
829.989	0.0149254
830.068	0.0150449
830.146	0.0148845
830.224	0.0149544
830.302	0.0150038
830.380	0.0148637
830.458	0.0148750
830.536	0.0149291
830.614	0.0149596
830.693	0.0149030
830.771	0.0149254
830.849	0.0150310
830.927	0.0148309
831.005	0.0148278
831.083	0.0149596
831.161	0.0149770
831.239	0.0148082
831.318	0.0147198
831.396	0.0146544
831.474	0.0147054
831.552	0.0146558
831.630	0.0147224
831.708	0.0146743
831.786	0.0146288
831.864	0.0145815
831.943	0.0145943
832.021	0.0146231
832.099	0.0145947
832.177	0.0146078
832.255	0.0145926
832.333	0.0145501
832.411	0.0146876
832.489	0.0146674
832.568	0.0147104
832.646	0.0145295
832.724	0.0146859
832.802	0.0146262
832.880	0.0146177
832.958	0.0146059
833.036	0.0144910
833.114	0.0145876
833.193	0.0145426
833.271	0.0146725
833.349	0.0146014
833.427	0.0144665
833.505	0.0147181
833.583	0.0146896
833.661	0.0147456
833.739	0.0147809
833.818	0.0147655
833.896	0.0146914
833.974	0.0147308
834.052	0.0148833
834.130	0.0147506
834.208	0.0146056
834.286	0.0148365
834.364	0.0147648
834.443	0.0148762
834.521	0.0148838
834.599	0.0146828
834.677	0.0149484
834.755	0.0150121
834.833	0.0148694
834.911	0.0148796
834.989	0.0147879
835.068	0.0147385
835.146	0.0148187
835.224	0.0150430
835.302	0.0148283
835.380	0.0147371
835.458	0.0148742
835.536	0.0148064
835.614	0.0149245
835.693	0.0147918
835.771	0.0148933
835.849	0.0147840
835.927	0.0147314
836.005	0.0148369
836.083	0.0149043
836.161	0.0148906
836.239	0.0149167
836.318	0.0148769
836.396	0.0148638
836.474	0.0147745
836.552	0.0147805
836.630	0.0147114
836.708	0.0147729
836.786	0.0146551
836.864	0.0146483
836.943	0.0146924
837.021	0.0148755
837.099	0.0147757
837.177	0.0145864
837.255	0.0144653
837.333	0.0145994
837.411	0.0147492
837.489	0.0147607
837.568	0.0146276
837.646	0.0146314
837.724	0.0146613
837.802	0.0147420
837.880	0.0147501
837.958	0.0146854
838.036	0.0146553
838.114	0.0147436
838.193	0.0148199
838.271	0.0146584
838.349	0.0147212
838.427	0.0147131
838.505	0.0146935
838.583	0.0148229
838.661	0.0146998
838.739	0.0146933
838.818	0.0148490
838.896	0.0147415
838.974	0.0147895
839.052	0.0148007
839.130	0.0147878
839.208	0.0146021
839.286	0.0148159
839.364	0.0148701
839.443	0.0147856
839.521	0.0147952
839.599	0.0149119
839.677	0.0147881
839.755	0.0148497
839.833	0.0148360
839.911	0.0149138
839.989	0.0147895
840.068	0.0147765
840.146	0.0148753
840.224	0.0149948
840.302	0.0148439
840.380	0.0147551
840.458	0.0148943
840.536	0.0147955
840.614	0.0149297
840.693	0.0147879
840.771	0.0148488
840.849	0.0148125
840.927	0.0146568
841.005	0.0149279
841.083	0.0150069
841.161	0.0148241
841.239	0.0148624
841.318	0.0147664
841.396	0.0147620
841.474	0.0147770
841.552	0.0147166
841.630	0.0147740
841.708	0.0147432
841.786	0.0147984
841.864	0.0147446
841.943	0.0148747
842.021	0.0146304
842.099	0.0148397
842.177	0.0147686
842.255	0.0147580
842.333	0.0146357
842.411	0.0148206
842.489	0.0147412
842.568	0.0148014
842.646	0.0149233
842.724	0.0147335
842.802	0.0148137
842.880	0.0147353
842.958	0.0149195
843.036	0.0148495
843.114	0.0148253
843.193	0.0147749
843.271	0.0149234
843.349	0.0148724
843.427	0.0148528
843.505	0.0146455
843.583	0.0148137
843.661	0.0146782
843.739	0.0148360
843.818	0.0147430
843.896	0.0147781
843.974	0.0148818
844.052	0.0148216
844.130	0.0147489
844.208	0.0148553
844.286	0.0146825
844.364	0.0147077
844.443	0.0147608
844.521	0.0147550
844.599	0.0148102
844.677	0.0147205
844.755	0.0147391
844.833	0.0146334
844.911	0.0148512
844.989	0.0148405
845.068	0.0147616
845.146	0.0148393
845.224	0.0147669
845.302	0.0147140
845.380	0.0147665
845.458	0.0147213
845.536	0.0147150
845.614	0.0148134
845.693	0.0146537
845.771	0.0147900
845.849	0.0147176
845.927	0.0146427
846.005	0.0147832
846.083	0.0148253
846.161	0.0147758
846.239	0.0147692
846.318	0.0147993
846.396	0.0146684
846.474	0.0148173
846.552	0.0146697
846.630	0.0148132
846.708	0.0148495
846.786	0.0147131
846.864	0.0147999
846.943	0.0148056
847.021	0.0146167
847.099	0.0147941
847.177	0.0148054
847.255	0.0149629
847.333	0.0148476
847.411	0.0147941
847.489	0.0147871
847.568	0.0147748
847.646	0.0148665
847.724	0.0149426
847.802	0.0149187
847.880	0.0148837
847.958	0.0148249
848.036	0.0147014
848.114	0.0148032
848.193	0.0148761
848.271	0.0147913
848.349	0.0148689
848.427	0.0147908
848.505	0.0148340
848.583	0.0147268
848.661	0.0150376
848.739	0.0149087
848.818	0.0148327
848.896	0.0148975
848.974	0.0148412
849.052	0.0148318
849.130	0.0149761
849.208	0.0147390
849.286	0.0149004
849.364	0.0147735
849.443	0.0147870
849.521	0.0147898
849.599	0.0147636
849.677	0.0149603
849.755	0.0147460
849.833	0.0147720
849.911	0.0147613
849.989	0.0147752
850.068	0.0147745
850.146	0.0148168
850.224	0.0147923
850.302	0.0147926
850.380	0.0149355
850.458	0.0147875
850.536	0.0147729
850.614	0.0147902
850.693	0.0147697
850.771	0.0147337
850.849	0.0148644
850.927	0.0148161
851.005	0.0148216
851.083	0.0148722
851.161	0.0148541
851.239	0.0147232
851.318	0.0147522
851.396	0.0146712
851.474	0.0147834
851.552	0.0147240
851.630	0.0147910
851.708	0.0148012
851.786	0.0146671
851.864	0.0146745
851.943	0.0147009
852.021	0.0147698
852.099	0.0147192
852.177	0.0147565
852.255	0.0147717
852.333	0.0148364
852.411	0.0148483
852.489	0.0148924
852.568	0.0148211
852.646	0.0147705
852.724	0.0147975
852.802	0.0147543
852.880	0.0146113
852.958	0.0147491
853.036	0.0147428
853.114	0.0145679
853.193	0.0147847
853.271	0.0148367
853.349	0.0147981
853.427	0.0146884
853.505	0.0146607
853.583	0.0148535
853.661	0.0147596
853.739	0.0146630
853.818	0.0147275
853.896	0.0146970
853.974	0.0146839
854.052	0.0148042
854.130	0.0146852
854.208	0.0147600
854.286	0.0148074
854.364	0.0148055
854.443	0.0147225
854.521	0.0149506
854.599	0.0147702
854.677	0.0149382
854.755	0.0148394
854.833	0.0148650
854.911	0.0147500
854.989	0.0148725
855.068	0.0149397
855.146	0.0149304
855.224	0.0148611
855.302	0.0150278
855.380	0.0150666
855.458	0.0148870
855.536	0.0148324
855.614	0.0148447
855.693	0.0151003
855.771	0.0148764
855.849	0.0147977
855.927	0.0150067
856.005	0.0149019
856.083	0.0148959
856.161	0.0147501
856.239	0.0148240
856.318	0.0147877
856.396	0.0147112
856.474	0.0148995
856.552	0.0148928
856.630	0.0148354
856.708	0.0148878
856.786	0.0148548
856.864	0.0147882
856.943	0.0148654
857.021	0.0147152
857.099	0.0147560
857.177	0.0147845
857.255	0.0147861
857.333	0.0147932
857.411	0.0148209
857.489	0.0147401
857.568	0.0146268
857.646	0.0147031
857.724	0.0147827
857.802	0.0146214
857.880	0.0146444
857.958	0.0144910
858.036	0.0144643
858.114	0.0147141
858.193	0.0147131
858.271	0.0146329
858.349	0.0145213
858.427	0.0144579
858.505	0.0145408
858.583	0.0146644
858.661	0.0146669
858.739	0.0146569
858.818	0.0145784
858.896	0.0144193
858.974	0.0146941
859.052	0.0146034
859.130	0.0146632
859.208	0.0146988
859.286	0.0146130
859.364	0.0146200
859.443	0.0147637
859.521	0.0147272
859.599	0.0147975
859.677	0.0147643
859.755	0.0147168
859.833	0.0147834
859.911	0.0147231
859.989	0.0148633
860.068	0.0148657
860.146	0.0148017
860.224	0.0147383
860.302	0.0148859
860.380	0.0149265
860.458	0.0148932
860.536	0.0148794
860.614	0.0149666
860.693	0.0147740
860.771	0.0148100
860.849	0.0148858
860.927	0.0149097
861.005	0.0148656
861.083	0.0148904
861.161	0.0149064
861.239	0.0149043
861.318	0.0149878
861.396	0.0149748
861.474	0.0148618
861.552	0.0147693
861.630	0.0148640
861.708	0.0148667
861.786	0.0150130
861.864	0.0148678
861.943	0.0149165
862.021	0.0148534
862.099	0.0147718
862.177	0.0148534
862.255	0.0149311
862.333	0.0150498
862.411	0.0147393
862.489	0.0147861
862.568	0.0147392
862.646	0.0148907
862.724	0.0148854
862.802	0.0148171
862.880	0.0146758
862.958	0.0147691
863.036	0.0146954
863.114	0.0148019
863.193	0.0146004
863.271	0.0145634
863.349	0.0147070
863.427	0.0146398
863.505	0.0146458
863.583	0.0147215
863.661	0.0148206
863.739	0.0146912
863.818	0.0147478
863.896	0.0147744
863.974	0.0147799
864.052	0.0146939
864.130	0.0148814
864.208	0.0147423
864.286	0.0147593
864.364	0.0147567
864.443	0.0147497
864.521	0.0148062
864.599	0.0148322
864.677	0.0146478
864.755	0.0148437
864.833	0.0148253
864.911	0.0147620
864.989	0.0148307
865.068	0.0147820
865.146	0.0147603
865.224	0.0147926
865.302	0.0147260
865.380	0.0147953
865.458	0.0147867
865.536	0.0147395
865.614	0.0148309
865.693	0.0148518
865.771	0.0147634
865.849	0.0148145
865.927	0.0147343
866.005	0.0148197
866.083	0.0148177
866.161	0.0147401
866.239	0.0147776
866.318	0.0148560
866.396	0.0146871
866.474	0.0147489
866.552	0.0149391
866.630	0.0149595
866.708	0.0146861
866.786	0.0147762
866.864	0.0148830
866.943	0.0148354
867.021	0.0147450
867.099	0.0149014
867.177	0.0148534
867.255	0.0147948
867.333	0.0147971
867.411	0.0147296
867.489	0.0148858
867.568	0.0148800
867.646	0.0147945
867.724	0.0146445
867.802	0.0147879
867.880	0.0147041
867.958	0.0146594
868.036	0.0147411
868.114	0.0147726
868.193	0.0148185
868.271	0.0148075
868.349	0.0147478
868.427	0.0147978
868.505	0.0148429
868.583	0.0147115
868.661	0.0148270
868.739	0.0147229
868.818	0.0146781
868.896	0.0146681
868.974	0.0148936
869.052	0.0146912
869.130	0.0147964
869.208	0.0147549
869.286	0.0146390
869.364	0.0148392
869.443	0.0149030
869.521	0.0148284
869.599	0.0147710
869.677	0.0146667
869.755	0.0147114
869.833	0.0146896
869.911	0.0145742
869.989	0.0145795
870.068	0.0148180
870.146	0.0146000
870.224	0.0147836
870.302	0.0147157
870.380	0.0147860
870.458	0.0145771
870.536	0.0147689
870.614	0.0146146
870.693	0.0147647
870.771	0.0145673
870.849	0.0146276
870.927	0.0146483
871.005	0.0146728
871.083	0.0147137
871.161	0.0147556
871.239	0.0147074
871.318	0.0146164
871.396	0.0147329
871.474	0.0147953
871.552	0.0147310
871.630	0.0146869
871.708	0.0147400
871.786	0.0147932
871.864	0.0147310
871.943	0.0147929
872.021	0.0148425
872.099	0.0147423
872.177	0.0146996
872.255	0.0146568
872.333	0.0147729
872.411	0.0146548
872.489	0.0146336
872.568	0.0147475
872.646	0.0146980
872.724	0.0145736
872.802	0.0145927
872.880	0.0147476
872.958	0.0146306
873.036	0.0146751
873.114	0.0147464
873.193	0.0149184
873.271	0.0148450
873.349	0.0147874
873.427	0.0148338
873.505	0.0148401
873.583	0.0148563
873.661	0.0146825
873.739	0.0148376
873.818	0.0147808
873.896	0.0147260
873.974	0.0148681
874.052	0.0148216
874.130	0.0146806
874.208	0.0148209
874.286	0.0147479
874.364	0.0147195
874.443	0.0147762
874.521	0.0147613
874.599	0.0147847
874.677	0.0148394
874.755	0.0147488
874.833	0.0147488
874.911	0.0149302
874.989	0.0148469
875.068	0.0146751
875.146	0.0146974
875.224	0.0149156
875.302	0.0148089
875.380	0.0148335
875.458	0.0148825
875.536	0.0147780
875.614	0.0147819
875.693	0.0149178
875.771	0.0150111
875.849	0.0148547
875.927	0.0147558
876.005	0.0149020
876.083	0.0147486
876.161	0.0147577
876.239	0.0149702
876.318	0.0149121
876.396	0.0148883
876.474	0.0148489
876.552	0.0147245
876.630	0.0148409
876.708	0.0148281
876.786	0.0148096
876.864	0.0147630
876.943	0.0148578
877.021	0.0149461
877.099	0.0149361
877.177	0.0148514
877.255	0.0148486
877.333	0.0148655
877.411	0.0148045
877.489	0.0148003
877.568	0.0148177
877.646	0.0151090
877.724	0.0147485
877.802	0.0147769
877.880	0.0146835
877.958	0.0146821
878.036	0.0148012
878.114	0.0148166
878.193	0.0147559
878.271	0.0146600
878.349	0.0147022
878.427	0.0146771
878.505	0.0147127
878.583	0.0147783
878.661	0.0146423
878.739	0.0145831
878.818	0.0147648
878.896	0.0147077
878.974	0.0146255
879.052	0.0145439
879.130	0.0146394
879.208	0.0148650
879.286	0.0146155
879.364	0.0146200
879.443	0.0147290
879.521	0.0146964
879.599	0.0147591
879.677	0.0149423
879.755	0.0147942
879.833	0.0147858
879.911	0.0147687
879.989	0.0148837
880.068	0.0148269
880.146	0.0148595
880.224	0.0148443
880.302	0.0148277
880.380	0.0149397
880.458	0.0148566
880.536	0.0150127
880.614	0.0149541
880.693	0.0150558
880.771	0.0150388
880.849	0.0149890
880.927	0.0150298
881.005	0.0150122
881.083	0.0150091
881.161	0.0149372
881.239	0.0148125
881.318	0.0149429
881.396	0.0149524
881.474	0.0149180
881.552	0.0148841
881.630	0.0148486
881.708	0.0149652
881.786	0.0148138
881.864	0.0149619
881.943	0.0148205
882.021	0.0148289
882.099	0.0148620
882.177	0.0147270
882.255	0.0147130
882.333	0.0147370
882.411	0.0148255
882.489	0.0147906
882.568	0.0147266
882.646	0.0148161
882.724	0.0150082
882.802	0.0148754
882.880	0.0147490
882.958	0.0147328
883.036	0.0148477
883.114	0.0148443
883.193	0.0148919
883.271	0.0147202
883.349	0.0146757
883.427	0.0147580
883.505	0.0148743
883.583	0.0149044
883.661	0.0147736
883.739	0.0147011
883.818	0.0148006
883.896	0.0149870
883.974	0.0146472
884.052	0.0145831
884.130	0.0146299
884.208	0.0148193
884.286	0.0147250
884.364	0.0148137
884.443	0.0149131
884.521	0.0147570
884.599	0.0147256
884.677	0.0147520
884.755	0.0146573
884.833	0.0148486
884.911	0.0148817
884.989	0.0146648
885.068	0.0148181
885.146	0.0148324
885.224	0.0146508
885.302	0.0146951
885.380	0.0147552
885.458	0.0148113
885.536	0.0147878
885.614	0.0147680
885.693	0.0146626
885.771	0.0146309
885.849	0.0148976
885.927	0.0146862
886.005	0.0145740
886.083	0.0146809
886.161	0.0147629
886.239	0.0146953
886.318	0.0146015
886.396	0.0144888
886.474	0.0147748
886.552	0.0148359
886.630	0.0148451
886.708	0.0147624
886.786	0.0148183
886.864	0.0147836
886.943	0.0147621
887.021	0.0146917
887.099	0.0147876
887.177	0.0148923
887.255	0.0149205
887.333	0.0146655
887.411	0.0148339
887.489	0.0148825
887.568	0.0148012
887.646	0.0148361
887.724	0.0147744
887.802	0.0148230
887.880	0.0148328
887.958	0.0148763
888.036	0.0148687
888.114	0.0149205
888.193	0.0149150
888.271	0.0148035
888.349	0.0147549
888.427	0.0148629
888.505	0.0148888
888.583	0.0147490
888.661	0.0148055
888.739	0.0148530
888.818	0.0147380
888.896	0.0146675
888.974	0.0146822
889.052	0.0147058
889.130	0.0146620
889.208	0.0147945
889.286	0.0146042
889.364	0.0146881
889.443	0.0147444
889.521	0.0146932
889.599	0.0145425
889.677	0.0144141
889.755	0.0146242
889.833	0.0145945
889.911	0.0146478
889.989	0.0146104
890.068	0.0144150
890.146	0.0146963
890.224	0.0146950
890.302	0.0146253
890.380	0.0145559
890.458	0.0147022
890.536	0.0145879
890.614	0.0145239
890.693	0.0145386
890.771	0.0145602
890.849	0.0146563
890.927	0.0147646
891.005	0.0147026
891.083	0.0145804
891.161	0.0149003
891.239	0.0147689
891.318	0.0146774
891.396	0.0147616
891.474	0.0147496
891.552	0.0146646
891.630	0.0147209
891.708	0.0149182
891.786	0.0148606
891.864	0.0148532
891.943	0.0149372
892.021	0.0148576
892.099	0.0148766
892.177	0.0148887
892.255	0.0149085
892.333	0.0148618
892.411	0.0147972
892.489	0.0149542
892.568	0.0148529
892.646	0.0148652
892.724	0.0148363
892.802	0.0149451
892.880	0.0147923
892.958	0.0147034
893.036	0.0147464
893.114	0.0147160
893.193	0.0146455
893.271	0.0148378
893.349	0.0148228
893.427	0.0148186
893.505	0.0148753
893.583	0.0147195
893.661	0.0147210
893.739	0.0146659
893.818	0.0147176
893.896	0.0148022
893.974	0.0146690
894.052	0.0147216
894.130	0.0146812
894.208	0.0147042
894.286	0.0146376
894.364	0.0147659
894.443	0.0148112
894.521	0.0147016
894.599	0.0146152
894.677	0.0147396
894.755	0.0146462
894.833	0.0145663
894.911	0.0146696
894.989	0.0147198
895.068	0.0146319
895.146	0.0146902
895.224	0.0147379
895.302	0.0147230
895.380	0.0147605
895.458	0.0146145
895.536	0.0147057
895.614	0.0148066
895.693	0.0145891
895.771	0.0146648
895.849	0.0148328
895.927	0.0146108
896.005	0.0146481
896.083	0.0148648
896.161	0.0148236
896.239	0.0147913
896.318	0.0148402
896.396	0.0147760
896.474	0.0147381
896.552	0.0149194
896.630	0.0148153
896.708	0.0149800
896.786	0.0148091
896.864	0.0147321
896.943	0.0148121
897.021	0.0147189
897.099	0.0147144
897.177	0.0147509
897.255	0.0148250
897.333	0.0149401
897.411	0.0146031
897.489	0.0148042
897.568	0.0147478
897.646	0.0147325
897.724	0.0147750
897.802	0.0147958
897.880	0.0148090
897.958	0.0148755
898.036	0.0147721
898.114	0.0148787
898.193	0.0148449
898.271	0.0148808
898.349	0.0147971
898.427	0.0148315
898.505	0.0147914
898.583	0.0148763
898.661	0.0148372
898.739	0.0147364
898.818	0.0148016
898.896	0.0148019
898.974	0.0147481
899.052	0.0149302
899.130	0.0148067
899.208	0.0147595
899.286	0.0149452
899.364	0.0147987
899.443	0.0147199
899.521	0.0146973
899.599	0.0148203
899.677	0.0148148
899.755	0.0147900
899.833	0.0148051
899.911	0.0148972
899.989	0.0147859
900.068	0.0148785
900.146	0.0147561
900.224	0.0147574
900.302	0.0148727
900.380	0.0147523
900.458	0.0148054
900.536	0.0148865
900.614	0.0148080
900.693	0.0147399
900.771	0.0147676
900.849	0.0148892
900.927	0.0147782
901.005	0.0147965
901.083	0.0148196
901.161	0.0148118
901.239	0.0147990
901.318	0.0146834
901.396	0.0147636
901.474	0.0147761
901.552	0.0148129
901.630	0.0147392
901.708	0.0146482
901.786	0.0147820
901.864	0.0148472
901.943	0.0148232
902.021	0.0146435
902.099	0.0147447
902.177	0.0147771
902.255	0.0147995
902.333	0.0147962
902.411	0.0148314
902.489	0.0146865
902.568	0.0149316
902.646	0.0148255
902.724	0.0147118
902.802	0.0148081
902.880	0.0148041
902.958	0.0148994
903.036	0.0147868
903.114	0.0146262
903.193	0.0147202
903.271	0.0147224
903.349	0.0147805
903.427	0.0147935
903.505	0.0147730
903.583	0.0147626
903.661	0.0147160
903.739	0.0147607
903.818	0.0146918
903.896	0.0147086
903.974	0.0148939
904.052	0.0147954
904.130	0.0147996
904.208	0.0148788
904.286	0.0148788
904.364	0.0147521
904.443	0.0148333
904.521	0.0147852
904.599	0.0148730
904.677	0.0148547
904.755	0.0148580
904.833	0.0148158
904.911	0.0148416
904.989	0.0147688
905.068	0.0147430
905.146	0.0147147
905.224	0.0148859
905.302	0.0148415
905.380	0.0147125
905.458	0.0146330
905.536	0.0148351
905.614	0.0146901
905.693	0.0147294
905.771	0.0147012
905.849	0.0147855
905.927	0.0145715
906.005	0.0147641
906.083	0.0147227
906.161	0.0147275
906.239	0.0147007
906.318	0.0148635
906.396	0.0148433
906.474	0.0147815
906.552	0.0147523
906.630	0.0147298
906.708	0.0150257
906.786	0.0150385
906.864	0.0147819
906.943	0.0148420
907.021	0.0148607
907.099	0.0147884
907.177	0.0149276
907.255	0.0148820
907.333	0.0148209
907.411	0.0147771
907.489	0.0148164
907.568	0.0147065
907.646	0.0146108
907.724	0.0146650
907.802	0.0146181
907.880	0.0146339
907.958	0.0146249
908.036	0.0144306
908.114	0.0146751
908.193	0.0148066
908.271	0.0145248
908.349	0.0147075
908.427	0.0149291
908.505	0.0147646
908.583	0.0147369
908.661	0.0147604
908.739	0.0148936
908.818	0.0148326
908.896	0.0148391
908.974	0.0147293
909.052	0.0146452
909.130	0.0148221
909.208	0.0148968
909.286	0.0147756
909.364	0.0145547
909.443	0.0147461
909.521	0.0147150
909.599	0.0146015
909.677	0.0146101
909.755	0.0146017
909.833	0.0146146
909.911	0.0145811
909.989	0.0146962
910.068	0.0146739
910.146	0.0145711
910.224	0.0146336
910.302	0.0145686
910.380	0.0147728
910.458	0.0147315
910.536	0.0145941
910.614	0.0147347
910.693	0.0148009
910.771	0.0147253
910.849	0.0147005
910.927	0.0147845
911.005	0.0147152
911.083	0.0147898
911.161	0.0147364
911.239	0.0148319
911.318	0.0147262
911.396	0.0147765
911.474	0.0148306
911.552	0.0148092
911.630	0.0148451
911.708	0.0148051
911.786	0.0146707
911.864	0.0148486
911.943	0.0148958
912.021	0.0147133
912.099	0.0146407
912.177	0.0147866
912.255	0.0147318
912.333	0.0146346
912.411	0.0146855
912.489	0.0147471
912.568	0.0145695
912.646	0.0147375
912.724	0.0147850
912.802	0.0146662
912.880	0.0148144
912.958	0.0147483
913.036	0.0147964
913.114	0.0146349
913.193	0.0146014
913.271	0.0148443
913.349	0.0147752
913.427	0.0145838
913.505	0.0146678
913.583	0.0147282
913.661	0.0146111
913.739	0.0146254
913.818	0.0148270
913.896	0.0147709
913.974	0.0146630
914.052	0.0148238
914.130	0.0147265
914.208	0.0147086
914.286	0.0148222
914.364	0.0147000
914.443	0.0147296
914.521	0.0147426
914.599	0.0147489
914.677	0.0145432
914.755	0.0147441
914.833	0.0146945
914.911	0.0146972
914.989	0.0146578
915.068	0.0146611
915.146	0.0146903
915.224	0.0147378
915.302	0.0148420
915.380	0.0147330
915.458	0.0146544
915.536	0.0148824
915.614	0.0146729
915.693	0.0147351
915.771	0.0147237
915.849	0.0148508
915.927	0.0148495
916.005	0.0148346
916.083	0.0147317
916.161	0.0147126
916.239	0.0148588
916.318	0.0146580
916.396	0.0146863
916.474	0.0147356
916.552	0.0145812
916.630	0.0147289
916.708	0.0147833
916.786	0.0146901
916.864	0.0147827
916.943	0.0147900
917.021	0.0147099
917.099	0.0145780
917.177	0.0148061
917.255	0.0147285
917.333	0.0146702
917.411	0.0147426
917.489	0.0147539
917.568	0.0146453
917.646	0.0145918
917.724	0.0146791
917.802	0.0147133
917.880	0.0147677
917.958	0.0147265
918.036	0.0146648
918.114	0.0146437
918.193	0.0147908
918.271	0.0147333
918.349	0.0147792
918.427	0.0147084
918.505	0.0147554
918.583	0.0148151
918.661	0.0148882
918.739	0.0148546
918.818	0.0146566
918.896	0.0147913
918.974	0.0147050
919.052	0.0147265
919.130	0.0146963
919.208	0.0148623
919.286	0.0147444
919.364	0.0147769
919.443	0.0146306
919.521	0.0148055
919.599	0.0147952
919.677	0.0149033
919.755	0.0147679
919.833	0.0148756
919.911	0.0148361
919.989	0.0147708
920.068	0.0147356
920.146	0.0149223
920.224	0.0149143
920.302	0.0147326
920.380	0.0147155
920.458	0.0148060
920.536	0.0147131
920.614	0.0148532
920.693	0.0146940
920.771	0.0146491
920.849	0.0147100
920.927	0.0147610
921.005	0.0147472
921.083	0.0146527
921.161	0.0147504
921.239	0.0147073
921.318	0.0148010
921.396	0.0147664
921.474	0.0147369
921.552	0.0146865
921.630	0.0147746
921.708	0.0148243
921.786	0.0148285
921.864	0.0148044
921.943	0.0147778
922.021	0.0147550
922.099	0.0147573
922.177	0.0148228
922.255	0.0148885
922.333	0.0149021
922.411	0.0147456
922.489	0.0148050
922.568	0.0147464
922.646	0.0147607
922.724	0.0148965
922.802	0.0148009
922.880	0.0147211
922.958	0.0148452
923.036	0.0147745
923.114	0.0148072
923.193	0.0147101
923.271	0.0148082
923.349	0.0147900
923.427	0.0147511
923.505	0.0147943
923.583	0.0146712
923.661	0.0147550
923.739	0.0148341
923.818	0.0147405
923.896	0.0146877
923.974	0.0147608
924.052	0.0148017
924.130	0.0148038
924.208	0.0147951
924.286	0.0147593
924.364	0.0148952
924.443	0.0147414
924.521	0.0146815
924.599	0.0148418
924.677	0.0147997
924.755	0.0147263
924.833	0.0147961
924.911	0.0147923
924.989	0.0147009
925.068	0.0148438
925.146	0.0147987
925.224	0.0149610
925.302	0.0147140
925.380	0.0148917
925.458	0.0148653
925.536	0.0148035
925.614	0.0147929
925.693	0.0146431
925.771	0.0148407
925.849	0.0147704
925.927	0.0149516
926.005	0.0148717
926.083	0.0148147
926.161	0.0147491
926.239	0.0147711
926.318	0.0148264
926.396	0.0147030
926.474	0.0145826
926.552	0.0147076
926.630	0.0148178
926.708	0.0147004
926.786	0.0147231
926.864	0.0148212
926.943	0.0147826
927.021	0.0147355
927.099	0.0147034
927.177	0.0148949
927.255	0.0147858
927.333	0.0148206
927.411	0.0148207
927.489	0.0148558
927.568	0.0150044
927.646	0.0148578
927.724	0.0148442
927.802	0.0147656
927.880	0.0148164
927.958	0.0148841
928.036	0.0147943
928.114	0.0148425
928.193	0.0146566
928.271	0.0147379
928.349	0.0147340
928.427	0.0147380
928.505	0.0146581
928.583	0.0146423
928.661	0.0147568
928.739	0.0146841
928.818	0.0147017
928.896	0.0147765
928.974	0.0146577
929.052	0.0146513
929.130	0.0145850
929.208	0.0147078
929.286	0.0146883
929.364	0.0146887
929.443	0.0146629
929.521	0.0146458
929.599	0.0148022
929.677	0.0146985
929.755	0.0145981
929.833	0.0148011
929.911	0.0146117
929.989	0.0147469
930.068	0.0147939
930.146	0.0147794
930.224	0.0147810
930.302	0.0146888
930.380	0.0147053
930.458	0.0146358
930.536	0.0146398
930.614	0.0147031
930.693	0.0146832
930.771	0.0148392
930.849	0.0147881
930.927	0.0146965
931.005	0.0147668
931.083	0.0147693
931.161	0.0147418
931.239	0.0148012
931.318	0.0146645
931.396	0.0148222
931.474	0.0147842
931.552	0.0147556
931.630	0.0148328
931.708	0.0146368
931.786	0.0147932
931.864	0.0149001
931.943	0.0147123
932.021	0.0147456
932.099	0.0148237
932.177	0.0147717
932.255	0.0146705
932.333	0.0147107
932.411	0.0147806
932.489	0.0148073
932.568	0.0146706
932.646	0.0146184
932.724	0.0146648
932.802	0.0148016
932.880	0.0147598
932.958	0.0148240
933.036	0.0148808
933.114	0.0148218
933.193	0.0146581
933.271	0.0147475
933.349	0.0147337
933.427	0.0147093
933.505	0.0147662
933.583	0.0147523
933.661	0.0147594
933.739	0.0149288
933.818	0.0147826
933.896	0.0149500
933.974	0.0146217
934.052	0.0148133
934.130	0.0148100
934.208	0.0146056
934.286	0.0148779
934.364	0.0147736
934.443	0.0147758
934.521	0.0147397
934.599	0.0147485
934.677	0.0147831
934.755	0.0147761
934.833	0.0147937
934.911	0.0147677
934.989	0.0146660
935.068	0.0147823
935.146	0.0148465
935.224	0.0147885
935.302	0.0147315
935.380	0.0147760
935.458	0.0146835
935.536	0.0148367
935.614	0.0147289
935.693	0.0148053
935.771	0.0148828
935.849	0.0148137
935.927	0.0147729
936.005	0.0147071
936.083	0.0147154
936.161	0.0147017
936.239	0.0146329
936.318	0.0147203
936.396	0.0147253
936.474	0.0146341
936.552	0.0147695
936.630	0.0147488
936.708	0.0147570
936.786	0.0146922
936.864	0.0147513
936.943	0.0148584
937.021	0.0148543
937.099	0.0148788
937.177	0.0147767
937.255	0.0147622
937.333	0.0146437
937.411	0.0146703
937.489	0.0148096
937.568	0.0148244
937.646	0.0147525
937.724	0.0148032
937.802	0.0147015
937.880	0.0146709
937.958	0.0147119
938.036	0.0147572
938.114	0.0146996
938.193	0.0145728
938.271	0.0147155
938.349	0.0147924
938.427	0.0146745
938.505	0.0146871
938.583	0.0148282
938.661	0.0148707
938.739	0.0147408
938.818	0.0147568
938.896	0.0146888
938.974	0.0149033
939.052	0.0148773
939.130	0.0147463
939.208	0.0147099
939.286	0.0147713
939.364	0.0147005
939.443	0.0148226
939.521	0.0146596
939.599	0.0148235
939.677	0.0147723
939.755	0.0145980
939.833	0.0147469
939.911	0.0147664
939.989	0.0147527
940.068	0.0146872
940.146	0.0147320
940.224	0.0148467
940.302	0.0146580
940.380	0.0146725
940.458	0.0146615
940.536	0.0148238
940.614	0.0148904
940.693	0.0147209
940.771	0.0148540
940.849	0.0146976
940.927	0.0147982
941.005	0.0146666
941.083	0.0148147
941.161	0.0147710
941.239	0.0147732
941.318	0.0147800
941.396	0.0146558
941.474	0.0148733
941.552	0.0148208
941.630	0.0147997
941.708	0.0148425
941.786	0.0147502
941.864	0.0147782
941.943	0.0148158
942.021	0.0149470
942.099	0.0147766
942.177	0.0147580
942.255	0.0147198
942.333	0.0146409
942.411	0.0147121
942.489	0.0146497
942.568	0.0147456
942.646	0.0147310
942.724	0.0149145
942.802	0.0148591
942.880	0.0148140
942.958	0.0147066
943.036	0.0147323
943.114	0.0148514
943.193	0.0148494
943.271	0.0149044
943.349	0.0146962
943.427	0.0147343
943.505	0.0146990
943.583	0.0149155
943.661	0.0148583
943.739	0.0148383
943.818	0.0147725
943.896	0.0148069
943.974	0.0149290
944.052	0.0147672
944.130	0.0148988
944.208	0.0148054
944.286	0.0148221
944.364	0.0148396
944.443	0.0148219
944.521	0.0149234
944.599	0.0148898
944.677	0.0147956
944.755	0.0148250
944.833	0.0147115
944.911	0.0148056
944.989	0.0147793
945.068	0.0148097
945.146	0.0147059
945.224	0.0148750
945.302	0.0148266
945.380	0.0148653
945.458	0.0148702
945.536	0.0146178
945.614	0.0147488
945.693	0.0146821
945.771	0.0147842
945.849	0.0147657
945.927	0.0147268
946.005	0.0148647
946.083	0.0148058
946.161	0.0147437
946.239	0.0147935
946.318	0.0149674
946.396	0.0148507
946.474	0.0147917
946.552	0.0147152
946.630	0.0148959
946.708	0.0147092
946.786	0.0148471
946.864	0.0149327
946.943	0.0148633
947.021	0.0147608
947.099	0.0148293
947.177	0.0147811
947.255	0.0147451
947.333	0.0148638
947.411	0.0148129
947.489	0.0147916
947.568	0.0147426
947.646	0.0147533
947.724	0.0147834
947.802	0.0148063
947.880	0.0147703
947.958	0.0146671
948.036	0.0148100
948.114	0.0148355
948.193	0.0147586
948.271	0.0148144
948.349	0.0147211
948.427	0.0147820
948.505	0.0148689
948.583	0.0149837
948.661	0.0147403
948.739	0.0147089
948.818	0.0147475
948.896	0.0147532
948.974	0.0148453
949.052	0.0147763
949.130	0.0149506
949.208	0.0147709
949.286	0.0147086
949.364	0.0148739
949.443	0.0148304
949.521	0.0147008
949.599	0.0148627
949.677	0.0148267
949.755	0.0148192
949.833	0.0147417
949.911	0.0148083
949.989	0.0147802
950.068	0.0147305
950.146	0.0148606
950.224	0.0148746
950.302	0.0147708
950.380	0.0147726
950.458	0.0147643
950.536	0.0148608
950.614	0.0148993
950.693	0.0146742
950.771	0.0148935
950.849	0.0149612
950.927	0.0148003
951.005	0.0149024
951.083	0.0148586
951.161	0.0147224
951.239	0.0148737
951.318	0.0148538
951.396	0.0147517
951.474	0.0148106
951.552	0.0147136
951.630	0.0145740
951.708	0.0147909
951.786	0.0147880
951.864	0.0147869
951.943	0.0148196
952.021	0.0147729
952.099	0.0146936
952.177	0.0147202
952.255	0.0148241
952.333	0.0147585
952.411	0.0147608
952.489	0.0148425
952.568	0.0147626
952.646	0.0147811
952.724	0.0148297
952.802	0.0146277
952.880	0.0148188
952.958	0.0147610
953.036	0.0145052
953.114	0.0148695
953.193	0.0148629
953.271	0.0149424
953.349	0.0147513
953.427	0.0146570
953.505	0.0146363
953.583	0.0147199
953.661	0.0148129
953.739	0.0146585
953.818	0.0147460
953.896	0.0147594
953.974	0.0148023
954.052	0.0146985
954.130	0.0146692
954.208	0.0148716
954.286	0.0148024
954.364	0.0147420
954.443	0.0146867
954.521	0.0148801
954.599	0.0149883
954.677	0.0148064
954.755	0.0148158
954.833	0.0147553
954.911	0.0147049
954.989	0.0147482
955.068	0.0147794
955.146	0.0148296
955.224	0.0147851
955.302	0.0146230
955.380	0.0148008
955.458	0.0148196
955.536	0.0148661
955.614	0.0147396
955.693	0.0146970
955.771	0.0146103
955.849	0.0147054
955.927	0.0148222
956.005	0.0147521
956.083	0.0148219
956.161	0.0146796
956.239	0.0147955
956.318	0.0148416
956.396	0.0148259
956.474	0.0147896
956.552	0.0147421
956.630	0.0147916
956.708	0.0148511
956.786	0.0148994
956.864	0.0147123
956.943	0.0147327
957.021	0.0149087
957.099	0.0148140
957.177	0.0147924
957.255	0.0148254
957.333	0.0149146
957.411	0.0145921
957.489	0.0148129
957.568	0.0149101
957.646	0.0147554
957.724	0.0148173
957.802	0.0147932
957.880	0.0148771
957.958	0.0146970
958.036	0.0149100
958.114	0.0147664
958.193	0.0147330
958.271	0.0147910
958.349	0.0147170
958.427	0.0147301
958.505	0.0147201
958.583	0.0148995
958.661	0.0147797
958.739	0.0146971
958.818	0.0147314
958.896	0.0147046
958.974	0.0148067
959.052	0.0147092
959.130	0.0147862
959.208	0.0148073
959.286	0.0148470
959.364	0.0147955
959.443	0.0147104
959.521	0.0147888
959.599	0.0147585
959.677	0.0147347
959.755	0.0147296
959.833	0.0147717
959.911	0.0148562
