05/04/2022	21:35:19	Ver.	4.1	UNKNOWN
Optical Delay	678.989730	Delta X		0.078125	Sweeps	1	Scan Rate	0/0
Coordinates	Axis 1	NaN	Axis 2	NaN	Axis 3	NaN	Axis 4	NaN	Axis 5	NaN	Axis 6	0.000000
TX Power	0.000000	RX Power	0.000000

678.990	0.0146137
679.068	0.0146878
679.146	0.0145103
679.224	0.0146855
679.302	0.0145464
679.380	0.0145381
679.458	0.0146334
679.537	0.0146148
679.615	0.0145702
679.693	0.0145139
679.771	0.0147559
679.849	0.0145890
679.927	0.0145276
680.005	0.0145013
680.083	0.0147394
680.162	0.0146005
680.240	0.0147543
680.318	0.0145399
680.396	0.0145524
680.474	0.0144084
680.552	0.0144917
680.630	0.0146510
680.708	0.0145889
680.787	0.0146225
680.865	0.0145728
680.943	0.0144903
681.021	0.0146426
681.099	0.0146822
681.177	0.0145244
681.255	0.0147562
681.333	0.0144816
681.412	0.0145724
681.490	0.0145408
681.568	0.0144921
681.646	0.0142973
681.724	0.0145212
681.802	0.0145949
681.880	0.0145318
681.958	0.0146782
682.037	0.0146233
682.115	0.0146573
682.193	0.0148533
682.271	0.0146788
682.349	0.0145625
682.427	0.0145679
682.505	0.0145687
682.583	0.0146367
682.662	0.0145575
682.740	0.0145212
682.818	0.0146292
682.896	0.0145753
682.974	0.0147208
683.052	0.0147913
683.130	0.0147257
683.208	0.0145980
683.287	0.0147630
683.365	0.0146445
683.443	0.0146568
683.521	0.0146001
683.599	0.0144998
683.677	0.0144049
683.755	0.0145992
683.833	0.0145422
683.912	0.0144372
683.990	0.0144453
684.068	0.0144248
684.146	0.0146985
684.224	0.0144582
684.302	0.0143603
684.380	0.0145004
684.458	0.0145467
684.537	0.0144929
684.615	0.0144239
684.693	0.0143860
684.771	0.0147662
684.849	0.0145834
684.927	0.0146470
685.005	0.0147423
685.083	0.0149816
685.162	0.0149535
685.240	0.0148205
685.318	0.0148913
685.396	0.0149744
685.474	0.0149020
685.552	0.0146600
685.630	0.0146152
685.708	0.0146872
685.787	0.0147961
685.865	0.0145589
685.943	0.0145844
686.021	0.0144990
686.099	0.0144563
686.177	0.0142996
686.255	0.0143542
686.333	0.0143288
686.412	0.0144229
686.490	0.0141598
686.568	0.0140417
686.646	0.0141545
686.724	0.0142349
686.802	0.0142864
686.880	0.0144539
686.958	0.0145953
687.037	0.0144812
687.115	0.0145796
687.193	0.0147225
687.271	0.0147112
687.349	0.0148061
687.427	0.0147917
687.505	0.0147297
687.583	0.0147011
687.662	0.0147850
687.740	0.0151017
687.818	0.0148956
687.896	0.0149351
687.974	0.0148152
688.052	0.0149113
688.130	0.0147675
688.208	0.0146955
688.287	0.0147547
688.365	0.0148121
688.443	0.0146888
688.521	0.0146053
688.599	0.0144183
688.677	0.0146090
688.755	0.0145480
688.833	0.0144864
688.912	0.0145753
688.990	0.0144975
689.068	0.0146066
689.146	0.0147205
689.224	0.0145901
689.302	0.0145042
689.380	0.0144649
689.458	0.0143743
689.537	0.0141994
689.615	0.0142850
689.693	0.0143491
689.771	0.0144247
689.849	0.0146307
689.927	0.0144795
690.005	0.0145047
690.083	0.0146947
690.162	0.0145531
690.240	0.0145065
690.318	0.0147176
690.396	0.0147799
690.474	0.0146867
690.552	0.0147565
690.630	0.0148823
690.708	0.0147924
690.787	0.0148399
690.865	0.0150606
690.943	0.0149846
691.021	0.0151343
691.099	0.0148713
691.177	0.0149542
691.255	0.0148415
691.333	0.0146803
691.412	0.0146190
691.490	0.0146738
691.568	0.0147684
691.646	0.0146475
691.724	0.0147377
691.802	0.0147284
691.880	0.0146659
691.958	0.0147707
692.037	0.0147330
692.115	0.0146040
692.193	0.0145220
692.271	0.0145045
692.349	0.0144002
692.427	0.0142488
692.505	0.0142490
692.583	0.0143551
692.662	0.0143864
692.740	0.0143512
692.818	0.0143749
692.896	0.0145494
692.974	0.0142882
693.052	0.0144744
693.130	0.0145824
693.208	0.0147467
693.287	0.0146227
693.365	0.0145186
693.443	0.0146575
693.521	0.0147085
693.599	0.0146786
693.677	0.0148508
693.755	0.0148330
693.833	0.0149287
693.912	0.0150041
693.990	0.0150967
694.068	0.0151253
694.146	0.0148563
694.224	0.0149561
694.302	0.0147424
694.380	0.0148145
694.458	0.0149262
694.537	0.0148915
694.615	0.0148367
694.693	0.0149256
694.771	0.0148845
694.849	0.0150285
694.927	0.0151331
695.005	0.0149547
695.083	0.0150996
695.162	0.0148814
695.240	0.0148864
695.318	0.0147895
695.396	0.0145689
695.474	0.0146443
695.552	0.0143831
695.630	0.0142481
695.708	0.0141846
695.787	0.0141289
695.865	0.0141465
695.943	0.0142141
696.021	0.0142180
696.099	0.0142772
696.177	0.0142927
696.255	0.0142233
696.333	0.0143543
696.412	0.0143469
696.490	0.0144377
696.568	0.0145226
696.646	0.0145161
696.724	0.0144930
696.802	0.0146382
696.880	0.0146143
696.958	0.0146185
697.037	0.0146052
697.115	0.0145773
697.193	0.0147499
697.271	0.0147931
697.349	0.0147791
697.427	0.0147817
697.505	0.0148948
697.583	0.0150163
697.662	0.0151160
697.740	0.0151028
697.818	0.0150421
697.896	0.0151963
697.974	0.0151859
698.052	0.0152104
698.130	0.0151560
698.208	0.0150890
698.287	0.0148349
698.365	0.0148448
698.443	0.0148060
698.521	0.0146378
698.599	0.0144656
698.677	0.0143011
698.755	0.0142584
698.833	0.0143288
698.912	0.0141119
698.990	0.0141392
699.068	0.0140009
699.146	0.0140580
699.224	0.0141942
699.302	0.0142992
699.380	0.0142307
699.458	0.0142410
699.537	0.0146074
699.615	0.0144450
699.693	0.0144172
699.771	0.0146938
699.849	0.0146936
699.927	0.0145735
700.005	0.0147504
700.083	0.0146799
700.162	0.0145528
700.240	0.0145551
700.318	0.0145982
700.396	0.0146213
700.474	0.0145776
700.552	0.0145853
700.630	0.0146207
700.708	0.0147633
700.787	0.0147409
700.865	0.0147784
700.943	0.0149417
701.021	0.0149519
701.099	0.0149544
701.177	0.0151045
701.255	0.0152156
701.333	0.0151284
701.412	0.0151266
701.490	0.0150928
701.568	0.0150739
701.646	0.0148122
701.724	0.0146845
701.802	0.0146793
701.880	0.0144796
701.958	0.0144002
702.037	0.0142771
702.115	0.0143446
702.193	0.0143708
702.271	0.0141572
702.349	0.0141537
702.427	0.0143226
702.505	0.0143110
702.583	0.0143996
702.662	0.0145018
702.740	0.0143429
702.818	0.0143546
702.896	0.0142268
702.974	0.0142463
703.052	0.0142630
703.130	0.0142001
703.208	0.0140797
703.287	0.0141534
703.365	0.0139998
703.443	0.0141065
703.521	0.0140618
703.599	0.0141946
703.677	0.0142807
703.755	0.0143840
703.833	0.0145194
703.912	0.0147813
703.990	0.0148219
704.068	0.0148809
704.146	0.0150596
704.224	0.0151987
704.302	0.0152597
704.380	0.0153237
704.458	0.0152988
704.537	0.0152336
704.615	0.0151350
704.693	0.0151399
704.771	0.0152187
704.849	0.0148377
704.927	0.0147952
705.005	0.0145970
705.083	0.0146387
705.162	0.0143990
705.240	0.0142876
705.318	0.0142548
705.396	0.0142860
705.474	0.0143019
705.552	0.0142426
705.630	0.0143486
705.708	0.0143695
705.787	0.0142769
705.865	0.0144997
705.943	0.0142092
706.021	0.0144434
706.099	0.0145236
706.177	0.0144626
706.255	0.0143443
706.333	0.0144267
706.412	0.0144875
706.490	0.0143118
706.568	0.0145309
706.646	0.0143713
706.724	0.0144155
706.802	0.0143413
706.880	0.0146693
706.958	0.0144591
707.037	0.0144507
707.115	0.0146519
707.193	0.0145898
707.271	0.0145492
707.349	0.0146650
707.427	0.0148509
707.505	0.0149063
707.583	0.0148280
707.662	0.0148462
707.740	0.0148775
707.818	0.0147555
707.896	0.0147735
707.974	0.0147848
708.052	0.0148617
708.130	0.0146200
708.208	0.0145655
708.287	0.0144515
708.365	0.0146251
708.443	0.0147432
708.521	0.0145152
708.599	0.0147195
708.677	0.0145236
708.755	0.0146503
708.833	0.0146940
708.912	0.0148377
708.990	0.0147860
709.068	0.0147623
709.146	0.0145887
709.224	0.0145595
709.302	0.0145114
709.380	0.0146033
709.458	0.0143091
709.537	0.0142635
709.615	0.0143899
709.693	0.0143729
709.771	0.0142020
709.849	0.0142875
709.927	0.0140852
710.005	0.0140859
710.083	0.0140427
710.162	0.0139523
710.240	0.0141903
710.318	0.0141949
710.396	0.0142767
710.474	0.0144682
710.552	0.0145567
710.630	0.0144678
710.708	0.0147165
710.787	0.0147471
710.865	0.0148716
710.943	0.0149418
711.021	0.0151238
711.099	0.0151804
711.177	0.0151215
711.255	0.0149123
711.333	0.0151271
711.412	0.0149754
711.490	0.0150319
711.568	0.0149127
711.646	0.0148334
711.724	0.0149063
711.802	0.0148212
711.880	0.0147441
711.958	0.0146965
712.037	0.0147172
712.115	0.0146892
712.193	0.0147629
712.271	0.0144771
712.349	0.0144417
712.427	0.0144114
712.505	0.0143600
712.583	0.0142443
712.662	0.0143230
712.740	0.0141537
712.818	0.0143192
712.896	0.0143008
712.974	0.0142013
713.052	0.0141592
713.130	0.0142036
713.208	0.0141876
713.287	0.0142797
713.365	0.0143391
713.443	0.0143995
713.521	0.0145008
713.599	0.0145951
713.677	0.0144917
713.755	0.0145929
713.833	0.0146559
713.912	0.0146689
713.990	0.0147720
714.068	0.0148709
714.146	0.0147597
714.224	0.0148338
714.302	0.0148752
714.380	0.0147832
714.458	0.0148601
714.537	0.0148226
714.615	0.0148291
714.693	0.0148175
714.771	0.0145815
714.849	0.0146183
714.927	0.0145590
715.005	0.0146357
715.083	0.0146485
715.162	0.0144850
715.240	0.0144902
715.318	0.0145670
715.396	0.0144691
715.474	0.0145681
715.552	0.0147391
715.630	0.0145788
715.708	0.0145084
715.787	0.0145522
715.865	0.0145973
715.943	0.0144475
716.021	0.0145801
716.099	0.0144849
716.177	0.0145377
716.255	0.0144912
716.333	0.0146636
716.412	0.0144200
716.490	0.0145221
716.568	0.0144276
716.646	0.0145049
716.724	0.0143303
716.802	0.0144469
716.880	0.0143917
716.958	0.0144882
717.037	0.0147183
717.115	0.0145138
717.193	0.0145947
717.271	0.0145632
717.349	0.0145379
717.427	0.0144656
717.505	0.0145727
717.583	0.0146304
717.662	0.0145560
717.740	0.0145792
717.818	0.0146214
717.896	0.0146430
717.974	0.0146705
718.052	0.0146695
718.130	0.0147936
718.208	0.0147135
718.287	0.0147576
718.365	0.0148878
718.443	0.0148923
718.521	0.0148440
718.599	0.0148473
718.677	0.0148013
718.755	0.0147828
718.833	0.0150236
718.912	0.0148870
718.990	0.0149643
719.068	0.0145535
719.146	0.0146238
719.224	0.0146223
719.302	0.0145732
719.380	0.0145438
719.458	0.0144238
719.537	0.0144960
719.615	0.0143813
719.693	0.0143896
719.771	0.0143419
719.849	0.0142294
719.927	0.0143063
720.005	0.0144095
720.083	0.0143964
720.162	0.0143452
720.240	0.0144537
720.318	0.0144630
720.396	0.0144620
720.474	0.0145090
720.552	0.0145454
720.630	0.0147030
720.708	0.0145895
720.787	0.0147540
720.865	0.0147462
720.943	0.0147651
721.021	0.0148125
721.099	0.0148663
721.177	0.0148040
721.255	0.0148058
721.333	0.0148534
721.412	0.0149726
721.490	0.0148841
721.568	0.0146179
721.646	0.0145716
721.724	0.0147158
721.802	0.0147038
721.880	0.0147623
721.958	0.0147306
722.037	0.0147050
722.115	0.0146191
722.193	0.0146374
722.271	0.0146030
722.349	0.0145262
722.427	0.0145520
722.505	0.0145618
722.583	0.0147066
722.662	0.0146458
722.740	0.0145108
722.818	0.0144740
722.896	0.0145688
722.974	0.0145326
723.052	0.0145148
723.130	0.0146185
723.208	0.0145451
723.287	0.0145313
723.365	0.0145810
723.443	0.0146967
723.521	0.0146068
723.599	0.0146469
723.677	0.0145935
723.755	0.0146107
723.833	0.0146963
723.912	0.0145136
723.990	0.0145887
724.068	0.0145808
724.146	0.0146265
724.224	0.0145888
724.302	0.0144595
724.380	0.0145731
724.458	0.0145110
724.537	0.0146186
724.615	0.0147253
724.693	0.0145868
724.771	0.0146244
724.849	0.0148331
724.927	0.0148053
725.005	0.0147112
725.083	0.0147244
725.162	0.0146637
725.240	0.0147858
725.318	0.0147781
725.396	0.0147363
725.474	0.0147208
725.552	0.0147255
725.630	0.0147201
725.708	0.0147343
725.787	0.0146988
725.865	0.0147652
725.943	0.0145984
726.021	0.0147946
726.099	0.0145734
726.177	0.0143813
726.255	0.0141792
726.333	0.0142146
726.412	0.0144525
726.490	0.0143327
726.568	0.0143617
726.646	0.0143246
726.724	0.0144246
726.802	0.0142332
726.880	0.0142507
726.958	0.0144443
727.037	0.0145200
727.115	0.0146085
727.193	0.0146146
727.271	0.0145667
727.349	0.0146231
727.427	0.0146012
727.505	0.0147556
727.583	0.0147266
727.662	0.0147060
727.740	0.0146896
727.818	0.0145159
727.896	0.0146369
727.974	0.0147836
728.052	0.0145464
728.130	0.0145847
728.208	0.0146737
728.287	0.0146322
728.365	0.0146980
728.443	0.0147038
728.521	0.0145135
728.599	0.0146037
728.677	0.0147327
728.755	0.0146118
728.833	0.0145663
728.912	0.0147126
728.990	0.0144362
729.068	0.0144916
729.146	0.0144550
729.224	0.0144556
729.302	0.0144167
729.380	0.0144482
729.458	0.0144745
729.537	0.0145823
729.615	0.0144733
729.693	0.0144666
729.771	0.0144713
729.849	0.0145607
729.927	0.0146037
730.005	0.0145952
730.083	0.0145496
730.162	0.0145149
730.240	0.0145351
730.318	0.0147144
730.396	0.0146773
730.474	0.0146648
730.552	0.0145744
730.630	0.0146708
730.708	0.0146201
730.787	0.0144873
730.865	0.0144657
730.943	0.0146547
731.021	0.0144769
731.099	0.0144474
731.177	0.0146394
731.255	0.0144910
731.333	0.0145403
731.412	0.0145473
731.490	0.0144817
731.568	0.0145648
731.646	0.0145116
731.724	0.0145715
731.802	0.0146333
731.880	0.0146508
731.958	0.0146216
732.037	0.0145847
732.115	0.0144660
732.193	0.0146976
732.271	0.0148316
732.349	0.0147023
732.427	0.0147385
732.505	0.0146626
732.583	0.0147272
732.662	0.0145834
732.740	0.0145743
732.818	0.0146502
732.896	0.0146210
732.974	0.0143783
733.052	0.0145735
733.130	0.0145168
733.208	0.0145427
733.287	0.0144016
733.365	0.0144299
733.443	0.0145171
733.521	0.0144086
733.599	0.0143579
733.677	0.0143233
733.755	0.0143882
733.833	0.0142421
733.912	0.0143365
733.990	0.0142672
734.068	0.0145248
734.146	0.0143479
734.224	0.0144054
734.302	0.0144095
734.380	0.0146021
734.458	0.0147089
734.537	0.0145289
734.615	0.0147331
734.693	0.0148587
734.771	0.0147607
734.849	0.0147847
734.927	0.0149940
735.005	0.0146966
735.083	0.0147572
735.162	0.0147837
735.240	0.0148486
735.318	0.0148197
735.396	0.0146597
735.474	0.0146793
735.552	0.0146131
735.630	0.0146250
735.708	0.0144289
735.787	0.0145860
735.865	0.0145002
735.943	0.0143980
736.021	0.0144163
736.099	0.0142697
736.177	0.0142912
736.255	0.0142970
736.333	0.0144453
736.412	0.0144520
736.490	0.0144067
736.568	0.0144727
736.646	0.0144853
736.724	0.0144370
736.802	0.0143888
736.880	0.0145747
736.958	0.0146172
737.037	0.0147341
737.115	0.0146999
737.193	0.0147842
737.271	0.0147376
737.349	0.0146414
737.427	0.0147305
737.505	0.0147334
737.583	0.0146133
737.662	0.0147930
737.740	0.0147228
737.818	0.0146957
737.896	0.0146533
737.974	0.0146473
738.052	0.0147116
738.130	0.0146265
738.208	0.0144576
738.287	0.0145435
738.365	0.0145444
738.443	0.0145667
738.521	0.0145984
738.599	0.0144390
738.677	0.0145277
738.755	0.0145256
738.833	0.0144042
738.912	0.0144289
738.990	0.0144473
739.068	0.0144331
739.146	0.0145520
739.224	0.0145802
739.302	0.0146494
739.380	0.0147492
739.458	0.0146074
739.537	0.0147526
739.615	0.0148414
739.693	0.0145899
739.771	0.0145934
739.849	0.0146176
739.927	0.0147200
740.005	0.0144417
740.083	0.0145392
740.162	0.0146197
740.240	0.0145554
740.318	0.0146164
740.396	0.0146208
740.474	0.0144633
740.552	0.0146120
740.630	0.0146108
740.708	0.0144614
740.787	0.0144484
740.865	0.0144456
740.943	0.0144817
741.021	0.0146399
741.099	0.0145650
741.177	0.0146621
741.255	0.0146026
741.333	0.0146610
741.412	0.0144517
741.490	0.0146001
741.568	0.0146175
741.646	0.0146619
741.724	0.0146184
741.802	0.0147002
741.880	0.0147468
741.958	0.0146120
742.037	0.0146488
742.115	0.0147147
742.193	0.0146045
742.271	0.0148962
742.349	0.0147446
742.427	0.0146184
742.505	0.0146619
742.583	0.0147909
742.662	0.0147162
742.740	0.0146846
742.818	0.0146781
742.896	0.0146342
742.974	0.0145927
743.052	0.0144889
743.130	0.0145886
743.208	0.0145085
743.287	0.0145611
743.365	0.0144402
743.443	0.0144461
743.521	0.0144958
743.599	0.0144322
743.677	0.0143507
743.755	0.0144138
743.833	0.0144485
743.912	0.0144763
743.990	0.0145456
744.068	0.0145210
744.146	0.0145365
744.224	0.0145957
744.302	0.0145803
744.380	0.0147163
744.458	0.0145961
744.537	0.0146433
744.615	0.0147498
744.693	0.0146804
744.771	0.0146538
744.849	0.0146387
744.927	0.0147713
745.005	0.0146725
745.083	0.0147269
745.162	0.0147963
745.240	0.0147249
745.318	0.0146709
745.396	0.0147556
745.474	0.0145509
745.552	0.0145595
745.630	0.0146560
745.708	0.0145685
745.787	0.0145079
745.865	0.0144682
745.943	0.0145191
746.021	0.0145357
746.099	0.0145267
746.177	0.0143864
746.255	0.0145786
746.333	0.0144091
746.412	0.0144372
746.490	0.0146158
746.568	0.0145194
746.646	0.0145338
746.724	0.0145094
746.802	0.0144778
746.880	0.0144505
746.958	0.0146385
747.037	0.0145147
747.115	0.0146182
747.193	0.0146957
747.271	0.0145648
747.349	0.0145535
747.427	0.0146768
747.505	0.0145878
747.583	0.0146272
747.662	0.0147072
747.740	0.0147833
747.818	0.0147062
747.896	0.0146864
747.974	0.0145838
748.052	0.0146626
748.130	0.0147049
748.208	0.0146198
748.287	0.0146433
748.365	0.0146995
748.443	0.0146313
748.521	0.0146458
748.599	0.0146525
748.677	0.0146210
748.755	0.0147061
748.833	0.0146556
748.912	0.0146609
748.990	0.0145431
749.068	0.0145535
749.146	0.0146592
749.224	0.0145402
749.302	0.0147005
749.380	0.0146407
749.458	0.0146016
749.537	0.0145882
749.615	0.0147198
749.693	0.0146961
749.771	0.0146214
749.849	0.0146413
749.927	0.0146690
750.005	0.0146767
750.083	0.0146214
750.162	0.0146719
750.240	0.0144984
750.318	0.0145860
750.396	0.0146742
750.474	0.0146932
750.552	0.0145490
750.630	0.0145733
750.708	0.0146056
750.787	0.0145968
750.865	0.0145300
750.943	0.0146973
751.021	0.0145620
751.099	0.0147173
751.177	0.0147169
751.255	0.0146091
751.333	0.0146722
751.412	0.0146298
751.490	0.0145471
751.568	0.0145391
751.646	0.0146209
751.724	0.0146941
751.802	0.0145878
751.880	0.0144482
751.958	0.0145399
752.037	0.0144090
752.115	0.0145879
752.193	0.0146183
752.271	0.0145773
752.349	0.0146824
752.427	0.0146730
752.505	0.0145811
752.583	0.0145847
752.662	0.0147690
752.740	0.0146562
752.818	0.0146368
752.896	0.0146235
752.974	0.0146945
753.052	0.0145561
753.130	0.0146831
753.208	0.0147208
753.287	0.0147960
753.365	0.0147491
753.443	0.0148215
753.521	0.0146102
753.599	0.0147156
753.677	0.0147427
753.755	0.0146661
753.833	0.0145513
753.912	0.0145944
753.990	0.0145463
754.068	0.0145113
754.146	0.0144841
754.224	0.0144566
754.302	0.0146159
754.380	0.0145726
754.458	0.0145191
754.537	0.0144852
754.615	0.0145357
754.693	0.0146732
754.771	0.0145451
754.849	0.0144914
754.927	0.0144382
755.005	0.0146023
755.083	0.0145559
755.162	0.0146535
755.240	0.0146072
755.318	0.0147205
755.396	0.0147071
755.474	0.0147213
755.552	0.0145396
755.630	0.0147321
755.708	0.0146226
755.787	0.0145899
755.865	0.0146053
755.943	0.0145361
756.021	0.0146906
756.099	0.0145866
756.177	0.0147154
756.255	0.0145263
756.333	0.0145743
756.412	0.0146741
756.490	0.0143455
756.568	0.0145959
756.646	0.0146508
756.724	0.0145233
756.802	0.0144984
756.880	0.0146133
756.958	0.0146494
757.037	0.0145692
757.115	0.0146152
757.193	0.0145808
757.271	0.0147406
757.349	0.0146532
757.427	0.0145388
757.505	0.0144540
757.583	0.0145972
757.662	0.0145750
757.740	0.0145901
757.818	0.0147157
757.896	0.0148117
757.974	0.0145852
758.052	0.0144980
758.130	0.0145951
758.208	0.0144947
758.287	0.0145397
758.365	0.0145480
758.443	0.0147487
758.521	0.0144989
758.599	0.0144810
758.677	0.0146288
758.755	0.0145078
758.833	0.0145455
758.912	0.0146541
758.990	0.0145578
759.068	0.0146200
759.146	0.0146172
759.224	0.0145718
759.302	0.0146471
759.380	0.0145837
759.458	0.0146144
759.537	0.0146243
759.615	0.0145385
759.693	0.0147042
759.771	0.0149184
759.849	0.0147511
759.927	0.0145557
760.005	0.0146310
760.083	0.0146529
760.162	0.0146638
760.240	0.0147128
760.318	0.0146700
760.396	0.0147707
760.474	0.0146223
760.552	0.0145555
760.630	0.0146855
760.708	0.0146272
760.787	0.0145370
760.865	0.0145387
760.943	0.0147060
761.021	0.0145818
761.099	0.0145067
761.177	0.0144884
761.255	0.0145799
761.333	0.0145945
761.412	0.0145496
761.490	0.0143298
761.568	0.0145572
761.646	0.0145139
761.724	0.0144126
761.802	0.0145801
761.880	0.0146741
761.958	0.0147151
762.037	0.0147062
762.115	0.0146788
762.193	0.0145925
762.271	0.0146809
762.349	0.0146691
762.427	0.0146797
762.505	0.0147231
762.583	0.0146985
762.662	0.0147044
762.740	0.0147424
762.818	0.0147106
762.896	0.0147230
762.974	0.0147105
763.052	0.0146687
763.130	0.0146349
763.208	0.0146719
763.287	0.0147436
763.365	0.0145998
763.443	0.0146407
763.521	0.0145916
763.599	0.0145516
763.677	0.0145733
763.755	0.0146917
763.833	0.0145612
763.912	0.0144819
763.990	0.0144424
764.068	0.0146140
764.146	0.0146970
764.224	0.0147575
764.302	0.0145923
764.380	0.0146541
764.458	0.0145667
764.537	0.0146912
764.615	0.0146745
764.693	0.0147751
764.771	0.0147044
764.849	0.0146303
764.927	0.0146503
765.005	0.0146361
765.083	0.0145907
765.162	0.0145443
765.240	0.0145784
765.318	0.0146458
765.396	0.0146150
765.474	0.0147823
765.552	0.0146404
765.630	0.0145042
765.708	0.0146985
765.787	0.0146603
765.865	0.0146194
765.943	0.0146844
766.021	0.0147065
766.099	0.0146780
766.177	0.0145482
766.255	0.0146420
766.333	0.0145029
766.412	0.0145998
766.490	0.0143948
766.568	0.0146121
766.646	0.0147231
766.724	0.0145948
766.802	0.0145383
766.880	0.0145828
766.958	0.0145473
767.037	0.0145771
767.115	0.0146037
767.193	0.0144835
767.271	0.0144049
767.349	0.0146221
767.427	0.0147045
767.505	0.0145738
767.583	0.0143839
767.662	0.0146267
767.740	0.0145575
767.818	0.0145891
767.896	0.0146075
767.974	0.0146141
768.052	0.0145277
768.130	0.0145552
768.208	0.0145171
768.287	0.0145726
768.365	0.0145257
768.443	0.0146304
768.521	0.0146985
768.599	0.0145683
768.677	0.0146481
768.755	0.0146037
768.833	0.0145425
768.912	0.0146304
768.990	0.0146305
769.068	0.0146538
769.146	0.0145634
769.224	0.0145827
769.302	0.0147170
769.380	0.0146899
769.458	0.0145663
769.537	0.0145076
769.615	0.0146261
769.693	0.0145903
769.771	0.0145853
769.849	0.0145450
769.927	0.0146307
770.005	0.0145975
770.083	0.0146391
770.162	0.0146040
770.240	0.0144924
770.318	0.0145481
770.396	0.0146069
770.474	0.0145811
770.552	0.0146374
770.630	0.0146952
770.708	0.0145931
770.787	0.0146511
770.865	0.0144729
770.943	0.0144628
771.021	0.0145419
771.099	0.0145210
771.177	0.0146090
771.255	0.0146124
771.333	0.0145769
771.412	0.0145537
771.490	0.0146469
771.568	0.0147449
771.646	0.0145360
771.724	0.0144881
771.802	0.0145521
771.880	0.0146824
771.958	0.0145724
772.037	0.0146854
772.115	0.0147127
772.193	0.0145866
772.271	0.0146001
772.349	0.0145327
772.427	0.0146635
772.505	0.0145860
772.583	0.0146237
772.662	0.0146265
772.740	0.0146564
772.818	0.0145712
772.896	0.0146326
772.974	0.0146619
773.052	0.0147230
773.130	0.0146233
773.208	0.0146069
773.287	0.0145185
773.365	0.0147316
773.443	0.0145823
773.521	0.0146470
773.599	0.0145279
773.677	0.0146068
773.755	0.0147149
773.833	0.0145914
773.912	0.0145746
773.990	0.0145414
774.068	0.0145761
774.146	0.0147972
774.224	0.0146704
774.302	0.0145111
774.380	0.0145848
774.458	0.0146815
774.537	0.0145184
774.615	0.0146156
774.693	0.0145995
774.771	0.0145676
774.849	0.0146459
774.927	0.0145370
775.005	0.0146725
775.083	0.0145599
775.162	0.0145632
775.240	0.0146429
775.318	0.0146521
775.396	0.0145503
775.474	0.0146474
775.552	0.0146622
775.630	0.0145599
775.708	0.0145314
775.787	0.0145986
775.865	0.0145659
775.943	0.0145959
776.021	0.0145960
776.099	0.0144433
776.177	0.0145985
776.255	0.0145645
776.333	0.0145400
776.412	0.0146850
776.490	0.0145839
776.568	0.0146114
776.646	0.0144725
776.724	0.0145783
776.802	0.0146512
776.880	0.0146692
776.958	0.0146026
777.037	0.0145135
777.115	0.0145302
777.193	0.0146421
777.271	0.0145988
777.349	0.0145670
777.427	0.0146878
777.505	0.0145760
777.583	0.0145197
777.662	0.0146476
777.740	0.0145767
777.818	0.0144988
777.896	0.0145361
777.974	0.0146312
778.052	0.0146055
778.130	0.0146765
778.208	0.0145644
778.287	0.0145819
778.365	0.0144884
778.443	0.0146005
778.521	0.0147141
778.599	0.0146629
778.677	0.0147061
778.755	0.0145950
778.833	0.0145503
778.912	0.0146725
778.990	0.0146082
779.068	0.0145895
779.146	0.0145554
779.224	0.0146323
779.302	0.0145779
779.380	0.0145857
779.458	0.0146572
779.537	0.0146325
779.615	0.0147395
779.693	0.0145126
779.771	0.0145912
779.849	0.0144495
779.927	0.0145079
780.005	0.0145897
780.083	0.0146446
780.162	0.0147050
780.240	0.0145695
780.318	0.0146177
780.396	0.0145004
780.474	0.0144494
780.552	0.0146291
780.630	0.0144941
780.708	0.0145460
780.787	0.0146007
780.865	0.0147321
780.943	0.0146996
781.021	0.0147178
781.099	0.0145907
781.177	0.0146487
781.255	0.0147198
781.333	0.0147905
781.412	0.0147288
781.490	0.0146465
781.568	0.0146127
781.646	0.0146713
781.724	0.0144817
781.802	0.0146241
781.880	0.0146529
781.958	0.0145585
782.037	0.0146062
782.115	0.0145597
782.193	0.0144686
782.271	0.0146397
782.349	0.0146658
782.427	0.0146044
782.505	0.0145781
782.583	0.0146268
782.662	0.0146316
782.740	0.0146288
782.818	0.0144172
782.896	0.0144799
782.974	0.0146301
783.052	0.0146423
783.130	0.0145808
783.208	0.0146233
783.287	0.0146714
783.365	0.0147537
783.443	0.0147036
783.521	0.0146280
783.599	0.0146755
783.677	0.0146507
783.755	0.0145644
783.833	0.0147509
783.912	0.0146284
783.990	0.0146962
784.068	0.0146179
784.146	0.0146506
784.224	0.0145592
784.302	0.0145799
784.380	0.0146328
784.458	0.0146895
784.537	0.0145307
784.615	0.0145406
784.693	0.0145358
784.771	0.0145131
784.849	0.0146145
784.927	0.0145628
785.005	0.0145818
785.083	0.0145791
785.162	0.0144586
785.240	0.0145873
785.318	0.0144785
785.396	0.0146023
785.474	0.0145679
785.552	0.0145662
785.630	0.0145295
785.708	0.0146029
785.787	0.0146312
785.865	0.0145841
785.943	0.0145087
786.021	0.0147677
786.099	0.0146290
786.177	0.0145606
786.255	0.0146544
786.333	0.0146043
786.412	0.0147244
786.490	0.0148135
786.568	0.0146544
786.646	0.0146382
786.724	0.0145961
786.802	0.0146064
786.880	0.0146829
786.958	0.0146430
787.037	0.0144664
787.115	0.0145899
787.193	0.0145907
787.271	0.0145532
787.349	0.0145736
787.427	0.0146463
787.505	0.0145447
787.583	0.0145292
787.662	0.0145731
787.740	0.0145181
787.818	0.0144999
787.896	0.0145465
787.974	0.0145695
788.052	0.0144392
788.130	0.0145538
788.208	0.0144764
788.287	0.0145859
788.365	0.0146063
788.443	0.0146280
788.521	0.0144535
788.599	0.0146605
788.677	0.0144896
788.755	0.0146722
788.833	0.0146148
788.912	0.0146809
788.990	0.0146951
789.068	0.0145508
789.146	0.0145917
789.224	0.0146252
789.302	0.0146473
789.380	0.0146087
789.458	0.0145822
789.537	0.0146947
789.615	0.0145814
789.693	0.0146733
789.771	0.0146399
789.849	0.0146523
789.927	0.0145862
790.005	0.0145768
790.083	0.0145033
790.162	0.0145969
790.240	0.0144108
790.318	0.0145679
790.396	0.0147114
790.474	0.0146585
790.552	0.0145715
790.630	0.0144725
790.708	0.0145229
790.787	0.0146838
790.865	0.0147594
790.943	0.0146674
791.021	0.0146233
791.099	0.0145770
791.177	0.0145043
791.255	0.0146893
791.333	0.0143501
791.412	0.0144907
791.490	0.0145783
791.568	0.0145341
791.646	0.0146130
791.724	0.0145552
791.802	0.0145447
791.880	0.0145995
791.958	0.0147692
792.037	0.0145142
792.115	0.0145264
792.193	0.0145958
792.271	0.0145461
792.349	0.0146243
792.427	0.0146492
792.505	0.0145786
792.583	0.0145105
792.662	0.0145383
792.740	0.0147789
792.818	0.0146481
792.896	0.0146451
792.974	0.0148380
793.052	0.0145406
793.130	0.0146194
793.208	0.0147381
793.287	0.0145159
793.365	0.0146938
793.443	0.0147545
793.521	0.0146142
793.599	0.0147483
793.677	0.0147133
793.755	0.0146311
793.833	0.0146722
793.912	0.0147775
793.990	0.0146527
794.068	0.0146236
794.146	0.0146339
794.224	0.0147348
794.302	0.0146552
794.380	0.0146830
794.458	0.0146939
794.537	0.0146516
794.615	0.0146474
794.693	0.0146830
794.771	0.0145734
794.849	0.0145417
794.927	0.0144901
795.005	0.0146003
795.083	0.0145660
795.162	0.0145601
795.240	0.0146942
795.318	0.0146051
795.396	0.0145208
795.474	0.0146616
795.552	0.0145580
795.630	0.0145924
795.708	0.0145600
795.787	0.0146005
795.865	0.0146152
795.943	0.0144290
796.021	0.0146844
796.099	0.0145329
796.177	0.0146795
796.255	0.0146319
796.333	0.0146803
796.412	0.0147411
796.490	0.0145829
796.568	0.0146016
796.646	0.0147010
796.724	0.0146825
796.802	0.0147810
796.880	0.0148094
796.958	0.0146823
797.037	0.0145559
797.115	0.0147617
797.193	0.0145840
797.271	0.0145298
797.349	0.0146913
797.427	0.0145668
797.505	0.0145323
797.583	0.0145038
797.662	0.0146367
797.740	0.0144457
797.818	0.0146255
797.896	0.0146005
797.974	0.0144861
798.052	0.0146846
798.130	0.0145378
798.208	0.0145722
798.287	0.0145894
798.365	0.0146754
798.443	0.0145938
798.521	0.0145615
798.599	0.0146272
798.677	0.0146423
798.755	0.0147028
798.833	0.0145522
798.912	0.0145426
798.990	0.0146213
799.068	0.0144942
799.146	0.0144737
799.224	0.0144407
799.302	0.0144841
799.380	0.0146275
799.458	0.0145701
799.537	0.0146692
799.615	0.0145733
799.693	0.0145672
799.771	0.0146721
799.849	0.0146515
799.927	0.0145368
800.005	0.0146009
800.083	0.0145737
800.162	0.0144856
800.240	0.0145216
800.318	0.0147069
800.396	0.0145206
800.474	0.0147678
800.552	0.0146479
800.630	0.0146073
800.708	0.0144864
800.787	0.0146231
800.865	0.0145381
800.943	0.0146979
801.021	0.0146115
801.099	0.0145797
801.177	0.0146944
801.255	0.0145580
801.333	0.0145900
801.412	0.0145308
801.490	0.0146190
801.568	0.0145284
801.646	0.0145972
801.724	0.0145490
801.802	0.0145900
801.880	0.0146424
801.958	0.0146904
802.037	0.0145555
802.115	0.0146974
802.193	0.0145851
802.271	0.0144689
802.349	0.0146098
802.427	0.0145969
802.505	0.0145808
802.583	0.0146230
802.662	0.0146957
802.740	0.0146690
802.818	0.0144926
802.896	0.0145360
802.974	0.0146341
803.052	0.0145320
803.130	0.0145073
803.208	0.0146196
803.287	0.0144554
803.365	0.0145571
803.443	0.0146178
803.521	0.0146704
803.599	0.0146757
803.677	0.0145953
803.755	0.0146272
803.833	0.0146618
803.912	0.0145451
803.990	0.0146244
804.068	0.0146001
804.146	0.0146207
804.224	0.0147344
804.302	0.0147073
804.380	0.0145817
804.458	0.0146007
804.537	0.0146837
804.615	0.0146310
804.693	0.0145326
804.771	0.0147630
804.849	0.0146646
804.927	0.0146562
805.005	0.0145284
805.083	0.0147358
805.162	0.0146501
805.240	0.0146198
805.318	0.0147257
805.396	0.0144504
805.474	0.0145943
805.552	0.0146180
805.630	0.0146142
805.708	0.0145447
805.787	0.0145814
805.865	0.0146055
805.943	0.0144364
806.021	0.0145531
806.099	0.0146671
806.177	0.0146015
806.255	0.0145630
806.333	0.0146745
806.412	0.0145444
806.490	0.0145602
806.568	0.0145145
806.646	0.0145232
806.724	0.0146083
806.802	0.0146329
806.880	0.0145576
806.958	0.0146396
807.037	0.0146515
807.115	0.0146476
807.193	0.0146435
807.271	0.0145252
807.349	0.0146587
807.427	0.0144585
807.505	0.0145522
807.583	0.0145353
807.662	0.0145154
807.740	0.0145303
807.818	0.0146289
807.896	0.0145593
807.974	0.0146831
808.052	0.0145979
808.130	0.0144943
808.208	0.0145148
808.287	0.0144976
808.365	0.0146485
808.443	0.0146797
808.521	0.0146531
808.599	0.0146158
808.677	0.0145796
808.755	0.0145140
808.833	0.0146484
808.912	0.0145317
808.990	0.0145872
809.068	0.0145066
809.146	0.0145872
809.224	0.0145485
809.302	0.0145393
809.380	0.0146249
809.458	0.0145963
809.537	0.0145297
809.615	0.0146677
809.693	0.0146326
809.771	0.0146942
809.849	0.0146373
809.927	0.0144909
810.005	0.0144951
810.083	0.0147049
810.162	0.0146958
810.240	0.0145985
810.318	0.0146069
810.396	0.0145619
810.474	0.0147571
810.552	0.0145296
810.630	0.0146610
810.708	0.0145742
810.787	0.0145654
810.865	0.0146108
810.943	0.0145802
811.021	0.0145793
811.099	0.0145100
811.177	0.0145185
811.255	0.0144411
811.333	0.0144638
811.412	0.0144232
811.490	0.0145988
811.568	0.0145661
811.646	0.0144604
811.724	0.0145819
811.802	0.0146894
811.880	0.0144980
811.958	0.0145400
812.037	0.0146297
812.115	0.0144585
812.193	0.0145468
812.271	0.0146078
812.349	0.0145486
812.427	0.0146627
812.505	0.0146497
812.583	0.0146368
812.662	0.0145567
812.740	0.0146130
812.818	0.0143604
812.896	0.0144967
812.974	0.0145667
813.052	0.0145204
813.130	0.0146686
813.208	0.0145063
813.287	0.0145351
813.365	0.0146493
813.443	0.0144796
813.521	0.0145921
813.599	0.0144587
813.677	0.0144994
813.755	0.0145588
813.833	0.0146358
813.912	0.0146306
813.990	0.0144991
814.068	0.0145641
814.146	0.0145515
814.224	0.0147472
814.302	0.0145647
814.380	0.0144929
814.458	0.0146381
814.537	0.0146655
814.615	0.0147388
814.693	0.0146447
814.771	0.0145908
814.849	0.0145593
814.927	0.0145873
815.005	0.0145682
815.083	0.0145743
815.162	0.0145129
815.240	0.0145290
815.318	0.0145374
815.396	0.0146775
815.474	0.0145438
815.552	0.0145283
815.630	0.0145889
815.708	0.0145210
815.787	0.0145662
815.865	0.0146281
815.943	0.0145040
816.021	0.0145107
816.099	0.0145669
816.177	0.0144780
816.255	0.0145546
816.333	0.0145563
816.412	0.0146125
816.490	0.0146346
816.568	0.0146128
816.646	0.0145052
816.724	0.0145342
816.802	0.0145798
816.880	0.0145747
816.958	0.0146568
817.037	0.0147470
817.115	0.0147224
817.193	0.0146381
817.271	0.0145836
817.349	0.0145768
817.427	0.0144865
817.505	0.0147369
817.583	0.0146615
817.662	0.0146731
817.740	0.0147282
817.818	0.0145435
817.896	0.0144255
817.974	0.0145708
818.052	0.0146013
818.130	0.0146090
818.208	0.0145364
818.287	0.0144712
818.365	0.0147124
818.443	0.0147267
818.521	0.0147582
818.599	0.0145392
818.677	0.0147539
818.755	0.0146378
818.833	0.0146648
818.912	0.0145911
818.990	0.0146937
819.068	0.0146803
819.146	0.0146898
819.224	0.0145531
819.302	0.0145853
819.380	0.0145831
819.458	0.0145441
819.537	0.0146399
819.615	0.0146885
819.693	0.0146551
819.771	0.0145642
819.849	0.0146555
819.927	0.0146496
820.005	0.0145817
820.083	0.0147446
820.162	0.0147384
820.240	0.0146835
820.318	0.0144994
820.396	0.0145580
820.474	0.0147455
820.552	0.0146628
820.630	0.0145743
820.708	0.0146342
820.787	0.0145269
820.865	0.0146708
820.943	0.0147272
821.021	0.0145046
821.099	0.0146568
821.177	0.0145714
821.255	0.0146770
821.333	0.0146671
821.412	0.0145239
821.490	0.0145735
821.568	0.0145653
821.646	0.0144680
821.724	0.0146046
821.802	0.0145844
821.880	0.0144768
821.958	0.0146285
822.037	0.0145337
822.115	0.0144799
822.193	0.0144444
822.271	0.0145396
822.349	0.0144659
822.427	0.0144882
822.505	0.0145999
822.583	0.0145174
822.662	0.0144430
822.740	0.0145180
822.818	0.0145698
822.896	0.0145385
822.974	0.0145866
823.052	0.0146301
823.130	0.0145927
823.208	0.0145630
823.287	0.0145216
823.365	0.0145668
823.443	0.0147209
823.521	0.0146500
823.599	0.0146050
823.677	0.0145667
823.755	0.0144886
823.833	0.0146847
823.912	0.0146166
823.990	0.0146373
824.068	0.0146346
824.146	0.0145433
824.224	0.0145829
824.302	0.0146070
824.380	0.0144917
824.458	0.0144459
824.537	0.0146101
824.615	0.0145186
824.693	0.0146690
824.771	0.0145673
824.849	0.0146124
824.927	0.0146074
825.005	0.0144647
825.083	0.0145200
825.162	0.0146455
825.240	0.0145088
825.318	0.0145097
825.396	0.0145582
825.474	0.0144901
825.552	0.0145641
825.630	0.0145988
825.708	0.0147302
825.787	0.0146478
825.865	0.0147067
825.943	0.0146025
826.021	0.0146921
826.099	0.0146609
826.177	0.0146767
826.255	0.0145415
826.333	0.0147545
826.412	0.0146857
826.490	0.0145758
826.568	0.0145952
826.646	0.0146471
826.724	0.0147064
826.802	0.0146022
826.880	0.0145273
826.958	0.0146478
827.037	0.0146078
827.115	0.0145849
827.193	0.0145810
827.271	0.0145213
827.349	0.0145692
827.427	0.0146201
827.505	0.0145918
827.583	0.0146591
827.662	0.0144966
827.740	0.0146607
827.818	0.0145953
827.896	0.0146657
827.974	0.0146492
828.052	0.0145794
828.130	0.0145866
828.208	0.0146599
828.287	0.0145596
828.365	0.0145012
828.443	0.0146964
828.521	0.0145574
828.599	0.0145551
828.677	0.0146629
828.755	0.0146809
828.833	0.0147054
828.912	0.0146109
828.990	0.0146984
829.068	0.0145371
829.146	0.0145630
829.224	0.0145560
829.302	0.0145502
829.380	0.0146556
829.458	0.0145150
829.537	0.0146442
829.615	0.0145995
829.693	0.0146198
829.771	0.0145477
829.849	0.0146888
829.927	0.0147079
830.005	0.0144990
830.083	0.0145341
830.162	0.0146391
830.240	0.0146814
830.318	0.0146982
830.396	0.0145285
830.474	0.0146095
830.552	0.0146540
830.630	0.0146664
830.708	0.0145415
830.787	0.0146640
830.865	0.0146720
830.943	0.0147857
831.021	0.0146476
831.099	0.0146169
831.177	0.0144688
831.255	0.0145573
831.333	0.0145594
831.412	0.0146166
831.490	0.0145826
831.568	0.0145813
831.646	0.0145519
831.724	0.0145250
831.802	0.0146407
831.880	0.0145912
831.958	0.0144839
832.037	0.0144303
832.115	0.0145928
832.193	0.0145908
832.271	0.0145141
832.349	0.0145251
832.427	0.0145440
832.505	0.0145511
832.583	0.0146004
832.662	0.0145451
832.740	0.0144290
832.818	0.0146500
832.896	0.0146834
832.974	0.0146472
833.052	0.0146002
833.130	0.0145980
833.208	0.0146667
833.287	0.0145781
833.365	0.0145337
833.443	0.0145449
833.521	0.0146194
833.599	0.0146152
833.677	0.0145129
833.755	0.0145419
833.833	0.0144808
833.912	0.0145308
833.990	0.0144814
834.068	0.0145270
834.146	0.0146297
834.224	0.0145879
834.302	0.0146341
834.380	0.0146373
834.458	0.0144867
834.537	0.0146268
834.615	0.0146060
834.693	0.0144939
834.771	0.0145679
834.849	0.0145548
834.927	0.0145038
835.005	0.0146449
835.083	0.0145672
835.162	0.0146870
835.240	0.0145510
835.318	0.0146378
835.396	0.0145848
835.474	0.0145847
835.552	0.0145398
835.630	0.0145438
835.708	0.0146036
835.787	0.0146173
835.865	0.0146606
835.943	0.0145480
836.021	0.0145719
836.099	0.0144839
836.177	0.0146168
836.255	0.0145228
836.333	0.0145708
836.412	0.0145014
836.490	0.0145636
836.568	0.0147010
836.646	0.0145059
836.724	0.0145859
836.802	0.0145734
836.880	0.0144646
836.958	0.0146220
837.037	0.0145213
837.115	0.0146494
837.193	0.0145525
837.271	0.0145414
837.349	0.0145991
837.427	0.0145650
837.505	0.0145817
837.583	0.0145753
837.662	0.0145659
837.740	0.0146510
837.818	0.0146032
837.896	0.0146391
837.974	0.0145673
838.052	0.0146700
838.130	0.0146409
838.208	0.0145827
838.287	0.0146774
838.365	0.0146819
838.443	0.0146987
838.521	0.0145897
838.599	0.0146074
838.677	0.0145922
838.755	0.0147228
838.833	0.0147250
838.912	0.0146983
838.990	0.0146374
839.068	0.0145981
839.146	0.0147048
839.224	0.0146146
839.302	0.0147839
839.380	0.0145669
839.458	0.0147274
839.537	0.0147392
839.615	0.0145393
839.693	0.0147523
839.771	0.0148908
839.849	0.0146617
839.927	0.0145341
840.005	0.0146588
840.083	0.0146127
840.162	0.0147018
840.240	0.0146746
840.318	0.0146186
840.396	0.0146625
840.474	0.0147054
840.552	0.0145779
840.630	0.0146937
840.708	0.0147298
840.787	0.0144632
840.865	0.0146021
840.943	0.0146922
841.021	0.0146754
841.099	0.0145838
841.177	0.0145894
841.255	0.0145486
841.333	0.0146516
841.412	0.0144839
841.490	0.0145964
841.568	0.0147437
841.646	0.0145660
841.724	0.0146191
841.802	0.0146388
841.880	0.0146066
841.958	0.0146134
842.037	0.0147628
842.115	0.0146262
842.193	0.0147520
842.271	0.0146557
842.349	0.0147478
842.427	0.0145386
842.505	0.0146708
842.583	0.0145663
842.662	0.0146399
842.740	0.0145903
842.818	0.0146766
842.896	0.0146640
842.974	0.0147108
843.052	0.0146216
843.130	0.0145805
843.208	0.0146728
843.287	0.0146082
843.365	0.0145795
843.443	0.0146760
843.521	0.0146730
843.599	0.0145891
843.677	0.0145264
843.755	0.0147120
843.833	0.0146477
843.912	0.0145821
843.990	0.0146313
844.068	0.0145730
844.146	0.0144623
844.224	0.0145124
844.302	0.0145974
844.380	0.0145804
844.458	0.0146513
844.537	0.0146275
844.615	0.0147177
844.693	0.0147270
844.771	0.0146508
844.849	0.0146198
844.927	0.0146927
845.005	0.0146314
845.083	0.0146960
845.162	0.0145855
845.240	0.0145985
845.318	0.0145518
845.396	0.0146861
845.474	0.0146915
845.552	0.0147379
845.630	0.0146487
845.708	0.0145100
845.787	0.0146050
845.865	0.0146049
845.943	0.0146285
846.021	0.0147802
846.099	0.0147209
846.177	0.0147925
846.255	0.0145623
846.333	0.0147146
846.412	0.0145810
846.490	0.0146540
846.568	0.0147257
846.646	0.0147005
846.724	0.0147227
846.802	0.0145172
846.880	0.0145950
846.958	0.0146780
847.037	0.0146410
847.115	0.0147260
847.193	0.0147225
847.271	0.0146434
847.349	0.0144908
847.427	0.0145778
847.505	0.0146152
847.583	0.0145322
847.662	0.0145199
847.740	0.0145882
847.818	0.0147182
847.896	0.0146406
847.974	0.0146648
848.052	0.0146751
848.130	0.0145621
848.208	0.0144365
848.287	0.0146172
848.365	0.0145852
848.443	0.0146894
848.521	0.0146407
848.599	0.0146016
848.677	0.0147104
848.755	0.0146519
848.833	0.0145992
848.912	0.0146301
848.990	0.0146913
849.068	0.0146239
849.146	0.0147492
849.224	0.0145776
849.302	0.0146077
849.380	0.0147041
849.458	0.0146308
849.537	0.0146011
849.615	0.0146171
849.693	0.0146924
849.771	0.0146584
849.849	0.0146511
849.927	0.0144835
850.005	0.0146529
850.083	0.0146097
850.162	0.0146281
850.240	0.0144746
850.318	0.0145401
850.396	0.0144791
850.474	0.0145396
850.552	0.0146525
850.630	0.0147133
850.708	0.0146168
850.787	0.0147233
850.865	0.0145667
850.943	0.0145689
851.021	0.0146835
851.099	0.0146663
851.177	0.0147562
851.255	0.0145679
851.333	0.0147338
851.412	0.0146551
851.490	0.0144862
851.568	0.0145750
851.646	0.0146272
851.724	0.0146495
851.802	0.0146979
851.880	0.0145190
851.958	0.0146658
852.037	0.0145535
852.115	0.0146587
852.193	0.0147834
852.271	0.0146661
852.349	0.0146572
852.427	0.0147824
852.505	0.0145744
852.583	0.0145644
852.662	0.0145900
852.740	0.0146723
852.818	0.0145325
852.896	0.0146063
852.974	0.0145493
853.052	0.0146405
853.130	0.0146507
853.208	0.0146763
853.287	0.0145503
853.365	0.0145585
853.443	0.0145704
853.521	0.0145025
853.599	0.0147018
853.677	0.0145475
853.755	0.0145459
853.833	0.0146422
853.912	0.0145522
853.990	0.0145255
854.068	0.0145929
854.146	0.0145903
854.224	0.0145900
854.302	0.0146879
854.380	0.0146249
854.458	0.0144968
854.537	0.0145342
854.615	0.0146051
854.693	0.0146969
854.771	0.0146347
854.849	0.0146009
854.927	0.0145473
855.005	0.0145291
855.083	0.0146102
855.162	0.0145516
855.240	0.0145782
855.318	0.0145874
855.396	0.0144946
855.474	0.0146642
855.552	0.0146332
855.630	0.0146951
855.708	0.0146140
855.787	0.0146436
855.865	0.0145597
855.943	0.0145490
856.021	0.0143866
856.099	0.0145239
856.177	0.0145978
856.255	0.0146426
856.333	0.0146227
856.412	0.0145816
856.490	0.0147279
856.568	0.0145642
856.646	0.0147502
856.724	0.0145812
856.802	0.0145152
856.880	0.0145615
856.958	0.0147551
857.037	0.0148248
857.115	0.0147681
857.193	0.0146148
857.271	0.0147868
857.349	0.0145884
857.427	0.0146494
857.505	0.0145876
857.583	0.0146101
857.662	0.0147358
857.740	0.0145329
857.818	0.0145473
857.896	0.0145234
857.974	0.0146148
858.052	0.0146267
858.130	0.0146589
858.208	0.0146807
858.287	0.0144754
858.365	0.0145885
858.443	0.0144622
858.521	0.0145580
858.599	0.0146408
858.677	0.0146565
858.755	0.0146684
858.833	0.0146382
858.912	0.0144552
858.990	0.0146255
859.068	0.0146704
859.146	0.0145246
859.224	0.0145042
859.302	0.0147066
859.380	0.0146513
859.458	0.0145609
859.537	0.0147369
859.615	0.0145746
859.693	0.0144241
859.771	0.0146488
859.849	0.0146265
859.927	0.0145718
860.005	0.0146793
860.083	0.0144806
860.162	0.0146050
860.240	0.0145280
860.318	0.0145338
860.396	0.0145578
860.474	0.0146610
860.552	0.0147153
860.630	0.0147440
860.708	0.0147290
860.787	0.0146039
860.865	0.0145832
860.943	0.0146658
861.021	0.0145930
861.099	0.0147140
861.177	0.0147608
861.255	0.0145648
861.333	0.0145696
861.412	0.0146905
861.490	0.0146268
861.568	0.0146365
861.646	0.0146056
861.724	0.0145924
861.802	0.0144376
861.880	0.0146792
861.958	0.0146104
862.037	0.0145419
862.115	0.0145694
862.193	0.0146303
862.271	0.0146038
862.349	0.0143748
862.427	0.0145959
862.505	0.0144817
862.583	0.0145431
862.662	0.0145411
862.740	0.0145224
862.818	0.0145465
862.896	0.0146440
862.974	0.0145757
863.052	0.0145260
863.130	0.0144167
863.208	0.0146119
863.287	0.0145937
863.365	0.0145876
863.443	0.0146317
863.521	0.0147834
863.599	0.0145036
863.677	0.0145754
863.755	0.0146434
863.833	0.0146244
863.912	0.0145836
863.990	0.0147197
864.068	0.0146325
864.146	0.0147225
864.224	0.0146605
864.302	0.0147206
864.380	0.0146403
864.458	0.0146342
864.537	0.0146218
864.615	0.0146477
864.693	0.0146145
864.771	0.0145555
864.849	0.0145714
864.927	0.0146062
865.005	0.0145880
865.083	0.0146091
865.162	0.0144678
865.240	0.0146052
865.318	0.0145031
865.396	0.0146154
865.474	0.0148307
865.552	0.0144756
865.630	0.0144992
865.708	0.0144781
865.787	0.0145641
865.865	0.0146101
865.943	0.0145355
866.021	0.0145797
866.099	0.0145422
866.177	0.0145222
866.255	0.0145511
866.333	0.0145742
866.412	0.0146445
866.490	0.0146776
866.568	0.0145426
866.646	0.0147237
866.724	0.0145975
866.802	0.0145628
866.880	0.0146964
866.958	0.0147269
867.037	0.0146520
867.115	0.0146705
867.193	0.0146649
867.271	0.0145974
867.349	0.0147771
867.427	0.0145576
867.505	0.0146056
867.583	0.0145636
867.662	0.0146799
867.740	0.0147270
867.818	0.0145383
867.896	0.0145827
867.974	0.0147431
868.052	0.0147219
868.130	0.0147148
868.208	0.0147537
868.287	0.0146816
868.365	0.0146584
868.443	0.0146254
868.521	0.0147472
868.599	0.0146744
868.677	0.0147545
868.755	0.0145881
868.833	0.0146609
868.912	0.0146043
868.990	0.0146404
869.068	0.0147741
869.146	0.0145805
869.224	0.0146398
869.302	0.0145779
869.380	0.0145874
869.458	0.0146079
869.537	0.0145350
869.615	0.0146813
869.693	0.0146142
869.771	0.0145677
869.849	0.0146546
869.927	0.0146732
870.005	0.0147506
870.083	0.0147259
870.162	0.0146540
870.240	0.0146590
870.318	0.0147607
870.396	0.0146874
870.474	0.0145719
870.552	0.0146970
870.630	0.0147077
870.708	0.0146741
870.787	0.0146965
870.865	0.0145659
870.943	0.0145721
871.021	0.0146883
871.099	0.0146203
871.177	0.0146525
871.255	0.0146614
871.333	0.0147130
871.412	0.0146829
871.490	0.0145774
871.568	0.0147267
871.646	0.0146211
871.724	0.0146176
871.802	0.0145940
871.880	0.0147180
871.958	0.0146416
872.037	0.0146555
872.115	0.0144540
872.193	0.0146367
872.271	0.0146364
872.349	0.0146095
872.427	0.0146799
872.505	0.0146058
872.583	0.0145099
872.662	0.0145373
872.740	0.0146762
872.818	0.0145509
872.896	0.0145702
872.974	0.0146262
873.052	0.0146475
873.130	0.0146828
873.208	0.0146139
873.287	0.0146198
873.365	0.0146090
873.443	0.0147564
873.521	0.0145900
873.599	0.0145996
873.677	0.0146005
873.755	0.0144990
873.833	0.0145505
873.912	0.0146853
873.990	0.0146597
874.068	0.0145783
874.146	0.0145290
874.224	0.0146252
874.302	0.0147301
874.380	0.0145390
874.458	0.0145318
874.537	0.0146084
874.615	0.0145386
874.693	0.0145973
874.771	0.0145564
874.849	0.0144994
874.927	0.0146645
875.005	0.0146381
875.083	0.0144022
875.162	0.0145850
875.240	0.0146450
875.318	0.0144992
875.396	0.0146228
875.474	0.0146014
875.552	0.0147269
875.630	0.0145947
875.708	0.0147345
875.787	0.0146885
875.865	0.0145961
875.943	0.0146619
876.021	0.0145727
876.099	0.0146847
876.177	0.0147266
876.255	0.0146860
876.333	0.0146085
876.412	0.0146645
876.490	0.0146339
876.568	0.0146619
876.646	0.0146255
876.724	0.0146466
876.802	0.0147314
876.880	0.0146569
876.958	0.0145402
877.037	0.0145329
877.115	0.0146967
877.193	0.0147095
877.271	0.0145312
877.349	0.0144471
877.427	0.0146258
877.505	0.0145409
877.583	0.0144617
877.662	0.0147354
877.740	0.0146550
877.818	0.0144030
877.896	0.0145935
877.974	0.0146072
878.052	0.0145947
878.130	0.0145580
878.208	0.0144872
878.287	0.0145515
878.365	0.0145060
878.443	0.0146302
878.521	0.0146507
878.599	0.0147192
878.677	0.0146832
878.755	0.0146490
878.833	0.0147215
878.912	0.0147081
878.990	0.0147393
879.068	0.0147423
879.146	0.0147234
879.224	0.0147495
879.302	0.0146763
879.380	0.0145947
879.458	0.0147660
879.537	0.0146231
879.615	0.0146490
879.693	0.0145049
879.771	0.0145847
879.849	0.0146147
879.927	0.0146384
880.005	0.0145179
880.083	0.0145986
880.162	0.0145917
880.240	0.0146639
880.318	0.0145206
880.396	0.0146688
880.474	0.0145438
880.552	0.0145746
880.630	0.0145723
880.708	0.0145950
880.787	0.0147055
880.865	0.0146153
880.943	0.0147052
881.021	0.0146022
881.099	0.0146697
881.177	0.0148248
881.255	0.0145505
881.333	0.0145691
881.412	0.0146130
881.490	0.0146706
881.568	0.0146126
881.646	0.0144943
881.724	0.0146565
881.802	0.0145787
881.880	0.0147197
881.958	0.0145395
882.037	0.0145546
882.115	0.0146540
882.193	0.0146131
882.271	0.0145660
882.349	0.0147771
882.427	0.0147031
882.505	0.0145161
882.583	0.0146460
882.662	0.0146246
882.740	0.0146225
882.818	0.0145837
882.896	0.0147214
882.974	0.0145764
883.052	0.0145457
883.130	0.0145991
883.208	0.0145917
883.287	0.0145703
883.365	0.0145334
883.443	0.0146147
883.521	0.0145496
883.599	0.0145558
883.677	0.0144732
883.755	0.0146235
883.833	0.0145605
883.912	0.0145387
883.990	0.0145249
884.068	0.0146294
884.146	0.0145766
884.224	0.0146148
884.302	0.0144756
884.380	0.0144773
884.458	0.0146273
884.537	0.0146220
884.615	0.0144908
884.693	0.0146373
884.771	0.0146798
884.849	0.0146941
884.927	0.0146561
885.005	0.0145824
885.083	0.0145601
885.162	0.0145426
885.240	0.0145341
885.318	0.0147364
885.396	0.0147001
885.474	0.0146716
885.552	0.0146975
885.630	0.0144962
885.708	0.0145395
885.787	0.0146628
885.865	0.0146228
885.943	0.0145508
886.021	0.0144887
886.099	0.0144437
886.177	0.0145813
886.255	0.0145223
886.333	0.0144070
886.412	0.0144780
886.490	0.0148003
886.568	0.0145594
886.646	0.0145566
886.724	0.0144769
886.802	0.0145851
886.880	0.0145377
886.958	0.0145180
887.037	0.0146681
887.115	0.0147105
887.193	0.0146120
887.271	0.0145721
887.349	0.0146812
887.427	0.0146426
887.505	0.0145882
887.583	0.0145532
887.662	0.0146400
887.740	0.0147764
887.818	0.0146114
887.896	0.0146426
887.974	0.0145653
888.052	0.0145790
888.130	0.0146840
888.208	0.0146239
888.287	0.0147281
888.365	0.0145947
888.443	0.0147544
888.521	0.0146950
888.599	0.0146744
888.677	0.0146497
888.755	0.0146028
888.833	0.0145770
888.912	0.0145585
888.990	0.0146762
889.068	0.0147057
889.146	0.0146934
889.224	0.0145968
889.302	0.0146614
889.380	0.0146629
889.458	0.0147633
889.537	0.0147047
889.615	0.0146982
889.693	0.0147733
889.771	0.0147148
889.849	0.0146256
889.927	0.0147108
890.005	0.0146088
890.083	0.0145581
890.162	0.0145750
890.240	0.0146362
890.318	0.0146242
890.396	0.0147684
890.474	0.0147114
890.552	0.0145412
890.630	0.0146136
890.708	0.0145673
890.787	0.0146544
890.865	0.0145667
890.943	0.0144903
891.021	0.0146407
891.099	0.0146362
891.177	0.0146233
891.255	0.0146304
891.333	0.0146729
891.412	0.0146101
891.490	0.0146749
891.568	0.0147401
891.646	0.0145948
891.724	0.0145252
891.802	0.0145523
891.880	0.0147130
891.958	0.0147152
892.037	0.0146467
892.115	0.0147057
892.193	0.0147057
892.271	0.0147495
892.349	0.0145812
892.427	0.0146393
892.505	0.0145544
892.583	0.0145712
892.662	0.0145847
892.740	0.0145203
892.818	0.0145407
892.896	0.0146209
892.974	0.0146430
893.052	0.0146555
893.130	0.0146212
893.208	0.0146125
893.287	0.0145171
893.365	0.0145914
893.443	0.0146135
893.521	0.0146445
893.599	0.0145876
893.677	0.0145647
893.755	0.0146657
893.833	0.0145662
893.912	0.0145631
893.990	0.0145793
894.068	0.0145623
894.146	0.0147287
894.224	0.0146583
894.302	0.0147013
894.380	0.0146801
894.458	0.0148099
894.537	0.0146711
894.615	0.0147407
894.693	0.0146276
894.771	0.0146013
894.849	0.0146237
894.927	0.0146040
895.005	0.0145049
895.083	0.0147302
895.162	0.0146631
895.240	0.0145214
895.318	0.0145242
895.396	0.0146852
895.474	0.0145530
895.552	0.0145595
895.630	0.0144930
895.708	0.0147533
895.787	0.0145580
895.865	0.0145011
895.943	0.0144873
896.021	0.0146969
896.099	0.0146464
896.177	0.0145703
896.255	0.0145217
896.333	0.0145248
896.412	0.0146067
896.490	0.0146445
896.568	0.0145442
896.646	0.0146196
896.724	0.0145723
896.802	0.0145083
896.880	0.0144628
896.958	0.0146601
897.037	0.0146764
897.115	0.0146808
897.193	0.0145178
897.271	0.0146249
897.349	0.0146813
897.427	0.0145410
897.505	0.0147018
897.583	0.0147556
897.662	0.0145882
897.740	0.0146408
897.818	0.0147848
897.896	0.0146175
897.974	0.0145589
898.052	0.0145754
898.130	0.0146990
898.208	0.0146195
898.287	0.0145738
898.365	0.0145662
898.443	0.0145866
898.521	0.0146329
898.599	0.0145440
898.677	0.0144995
898.755	0.0145900
898.833	0.0146945
898.912	0.0146481
898.990	0.0145994
899.068	0.0146700
899.146	0.0146399
899.224	0.0146412
899.302	0.0146095
899.380	0.0145557
899.458	0.0145821
899.537	0.0146844
899.615	0.0145737
899.693	0.0145114
899.771	0.0146924
899.849	0.0145925
899.927	0.0145094
900.005	0.0146792
900.083	0.0146922
900.162	0.0146011
900.240	0.0146275
900.318	0.0146111
900.396	0.0146696
900.474	0.0146987
900.552	0.0145759
900.630	0.0146613
900.708	0.0146558
900.787	0.0147445
900.865	0.0147691
900.943	0.0147599
901.021	0.0146291
901.099	0.0145643
901.177	0.0145863
901.255	0.0146318
901.333	0.0146452
901.412	0.0145506
901.490	0.0145768
901.568	0.0145743
901.646	0.0145058
901.724	0.0145918
901.802	0.0146756
901.880	0.0146608
901.958	0.0145000
902.037	0.0145324
902.115	0.0147441
902.193	0.0146284
902.271	0.0147838
902.349	0.0146339
902.427	0.0146569
902.505	0.0145962
902.583	0.0146378
902.662	0.0147209
902.740	0.0147020
902.818	0.0147116
902.896	0.0147475
902.974	0.0146330
903.052	0.0147029
903.130	0.0146841
903.208	0.0146494
903.287	0.0144631
903.365	0.0146811
903.443	0.0146855
903.521	0.0148147
903.599	0.0146236
903.677	0.0145491
903.755	0.0145570
903.833	0.0145786
903.912	0.0146150
903.990	0.0145365
904.068	0.0146861
904.146	0.0144917
904.224	0.0144063
904.302	0.0144970
904.380	0.0145195
904.458	0.0146286
904.537	0.0145197
904.615	0.0145551
904.693	0.0145386
904.771	0.0145969
904.849	0.0146207
904.927	0.0145475
905.005	0.0144936
905.083	0.0144695
905.162	0.0146552
905.240	0.0145854
905.318	0.0146383
905.396	0.0145611
905.474	0.0145191
905.552	0.0146586
905.630	0.0144930
905.708	0.0144656
905.787	0.0145533
905.865	0.0147158
905.943	0.0145346
906.021	0.0145914
906.099	0.0147271
906.177	0.0146658
906.255	0.0145794
906.333	0.0145788
906.412	0.0146880
906.490	0.0146210
906.568	0.0146719
906.646	0.0144582
906.724	0.0145771
906.802	0.0146818
906.880	0.0146591
906.958	0.0146051
907.037	0.0145541
907.115	0.0147820
907.193	0.0147182
907.271	0.0146913
907.349	0.0145940
907.427	0.0146780
907.505	0.0146027
907.583	0.0146484
907.662	0.0145989
907.740	0.0145547
907.818	0.0146136
907.896	0.0147202
907.974	0.0147691
908.052	0.0145955
908.130	0.0146888
908.208	0.0146510
908.287	0.0145961
908.365	0.0146834
908.443	0.0145646
908.521	0.0147457
908.599	0.0146734
908.677	0.0146257
908.755	0.0146085
908.833	0.0145604
908.912	0.0146052
908.990	0.0146905
909.068	0.0145206
909.146	0.0145765
909.224	0.0147072
909.302	0.0145486
909.380	0.0145644
909.458	0.0146073
909.537	0.0144998
909.615	0.0145007
909.693	0.0145827
909.771	0.0147775
909.849	0.0145461
909.927	0.0146552
910.005	0.0146372
910.083	0.0145366
910.162	0.0146211
910.240	0.0146688
910.318	0.0146320
910.396	0.0146295
910.474	0.0145972
910.552	0.0146686
910.630	0.0147472
910.708	0.0147749
910.787	0.0146293
910.865	0.0146708
910.943	0.0146243
911.021	0.0145532
911.099	0.0144968
911.177	0.0145577
911.255	0.0146482
911.333	0.0146329
911.412	0.0144457
911.490	0.0145165
911.568	0.0146445
911.646	0.0145492
911.724	0.0145952
911.802	0.0145081
911.880	0.0145506
911.958	0.0145445
912.037	0.0147015
912.115	0.0146146
912.193	0.0146638
912.271	0.0147347
912.349	0.0146398
912.427	0.0147122
912.505	0.0146126
912.583	0.0146591
912.662	0.0145599
912.740	0.0144242
912.818	0.0144937
912.896	0.0145544
912.974	0.0146545
913.052	0.0145992
913.130	0.0146082
913.208	0.0144032
913.287	0.0144522
913.365	0.0145867
913.443	0.0145228
913.521	0.0145682
913.599	0.0145458
913.677	0.0145538
913.755	0.0146210
913.833	0.0144986
913.912	0.0145908
913.990	0.0145128
914.068	0.0146198
914.146	0.0146293
914.224	0.0146196
914.302	0.0145431
914.380	0.0146004
914.458	0.0145436
914.537	0.0145715
914.615	0.0145682
914.693	0.0145077
914.771	0.0145480
914.849	0.0145450
914.927	0.0144769
915.005	0.0145428
915.083	0.0145448
915.162	0.0145674
915.240	0.0145274
915.318	0.0146404
915.396	0.0146489
915.474	0.0144566
915.552	0.0145499
915.630	0.0145387
915.708	0.0145139
915.787	0.0146220
915.865	0.0146074
915.943	0.0145172
916.021	0.0145409
916.099	0.0145782
916.177	0.0146400
916.255	0.0146017
916.333	0.0145035
916.412	0.0144838
916.490	0.0145152
916.568	0.0145192
916.646	0.0146325
916.724	0.0145683
916.802	0.0145480
916.880	0.0144481
916.958	0.0144672
917.037	0.0144949
917.115	0.0144980
917.193	0.0145793
917.271	0.0145303
917.349	0.0144717
917.427	0.0145270
917.505	0.0143777
917.583	0.0145280
917.662	0.0145553
917.740	0.0146748
917.818	0.0144943
917.896	0.0144512
917.974	0.0145835
918.052	0.0144097
918.130	0.0145281
918.208	0.0146342
918.287	0.0145135
918.365	0.0146479
918.443	0.0144948
918.521	0.0145107
918.599	0.0144846
918.677	0.0145519
918.755	0.0145770
918.833	0.0145261
918.912	0.0145105
918.990	0.0145539
919.068	0.0145355
919.146	0.0144517
919.224	0.0145093
919.302	0.0145811
919.380	0.0145255
919.458	0.0145880
919.537	0.0146423
919.615	0.0146364
919.693	0.0146031
919.771	0.0146228
919.849	0.0146695
919.927	0.0146386
920.005	0.0146706
920.083	0.0146636
920.162	0.0146159
920.240	0.0147083
920.318	0.0146658
920.396	0.0146027
920.474	0.0147169
920.552	0.0146354
920.630	0.0145798
920.708	0.0146372
920.787	0.0146449
920.865	0.0146854
920.943	0.0145770
921.021	0.0144676
921.099	0.0145705
921.177	0.0146471
921.255	0.0146615
921.333	0.0146796
921.412	0.0147416
921.490	0.0147374
921.568	0.0145307
921.646	0.0145457
921.724	0.0146038
921.802	0.0147396
921.880	0.0145839
921.958	0.0145689
922.037	0.0147480
922.115	0.0147088
922.193	0.0147304
922.271	0.0146600
922.349	0.0146915
922.427	0.0145399
922.505	0.0146004
922.583	0.0146217
922.662	0.0146453
922.740	0.0145786
922.818	0.0144766
922.896	0.0146804
922.974	0.0146307
923.052	0.0146004
923.130	0.0145820
923.208	0.0147256
923.287	0.0146512
923.365	0.0146420
923.443	0.0147382
923.521	0.0146954
923.599	0.0147063
923.677	0.0147493
923.755	0.0146664
923.833	0.0147260
923.912	0.0146416
923.990	0.0146239
924.068	0.0146786
924.146	0.0147085
924.224	0.0145657
924.302	0.0146722
924.380	0.0145990
924.458	0.0146878
924.537	0.0147807
924.615	0.0145683
924.693	0.0145901
924.771	0.0145402
924.849	0.0146709
924.927	0.0145929
925.005	0.0145277
925.083	0.0146509
925.162	0.0145790
925.240	0.0145152
925.318	0.0146146
925.396	0.0145864
925.474	0.0146701
925.552	0.0146937
925.630	0.0147018
925.708	0.0147272
925.787	0.0145516
925.865	0.0146021
925.943	0.0145764
926.021	0.0146301
926.099	0.0146780
926.177	0.0146072
926.255	0.0145522
926.333	0.0145647
926.412	0.0145485
926.490	0.0146143
926.568	0.0145702
926.646	0.0144959
926.724	0.0145648
926.802	0.0144702
926.880	0.0145263
926.958	0.0146597
927.037	0.0145451
927.115	0.0145081
927.193	0.0145042
927.271	0.0145171
927.349	0.0145676
927.427	0.0146150
927.505	0.0145922
927.583	0.0145117
927.662	0.0146057
927.740	0.0146282
927.818	0.0145339
927.896	0.0146169
927.974	0.0144629
928.052	0.0144841
928.130	0.0144758
928.208	0.0144653
928.287	0.0146198
928.365	0.0144598
928.443	0.0145518
928.521	0.0145525
928.599	0.0146197
928.677	0.0146103
928.755	0.0145991
928.833	0.0146861
928.912	0.0147315
928.990	0.0146961
929.068	0.0146354
929.146	0.0146264
929.224	0.0145049
929.302	0.0145767
929.380	0.0146710
929.458	0.0147389
929.537	0.0147710
929.615	0.0145950
929.693	0.0145589
929.771	0.0146825
929.849	0.0146613
929.927	0.0144524
930.005	0.0144563
930.083	0.0145669
930.162	0.0147019
930.240	0.0146824
930.318	0.0145402
930.396	0.0144855
930.474	0.0145932
930.552	0.0146438
930.630	0.0147115
930.708	0.0145712
930.787	0.0146597
930.865	0.0145478
930.943	0.0144650
931.021	0.0145357
931.099	0.0145966
931.177	0.0146186
931.255	0.0145452
931.333	0.0147597
931.412	0.0145790
931.490	0.0146348
931.568	0.0147082
931.646	0.0145750
931.724	0.0146996
931.802	0.0145892
931.880	0.0146802
931.958	0.0145482
932.037	0.0146544
932.115	0.0144718
932.193	0.0146550
932.271	0.0145959
932.349	0.0145370
932.427	0.0145098
932.505	0.0145539
932.583	0.0145778
932.662	0.0147374
932.740	0.0144737
932.818	0.0144837
932.896	0.0145438
932.974	0.0146082
933.052	0.0146816
933.130	0.0146026
933.208	0.0146603
933.287	0.0145992
933.365	0.0145989
933.443	0.0146019
933.521	0.0146233
933.599	0.0147021
933.677	0.0146254
933.755	0.0145325
933.833	0.0145679
933.912	0.0147173
933.990	0.0145942
934.068	0.0146925
934.146	0.0147043
934.224	0.0146550
934.302	0.0146093
934.380	0.0146502
934.458	0.0146687
934.537	0.0145792
934.615	0.0145580
934.693	0.0146454
934.771	0.0145515
934.849	0.0146233
934.927	0.0145677
935.005	0.0145168
935.083	0.0145975
935.162	0.0147553
935.240	0.0146731
935.318	0.0146397
935.396	0.0145550
935.474	0.0145784
935.552	0.0145869
935.630	0.0146207
935.708	0.0145364
935.787	0.0145040
935.865	0.0145734
935.943	0.0145450
936.021	0.0145644
936.099	0.0144025
936.177	0.0145235
936.255	0.0147222
936.333	0.0145171
936.412	0.0145281
936.490	0.0145396
936.568	0.0145428
936.646	0.0145342
936.724	0.0145062
936.802	0.0146291
936.880	0.0145644
936.958	0.0143876
937.037	0.0146137
937.115	0.0145669
937.193	0.0145061
937.271	0.0145231
937.349	0.0145707
937.427	0.0146242
937.505	0.0146317
937.583	0.0147041
937.662	0.0147023
937.740	0.0144759
937.818	0.0144433
937.896	0.0146198
937.974	0.0145022
938.052	0.0145255
938.130	0.0145693
938.208	0.0145030
938.287	0.0145638
938.365	0.0145271
938.443	0.0145921
938.521	0.0146503
938.599	0.0145178
938.677	0.0145557
938.755	0.0145792
938.833	0.0145899
938.912	0.0145951
938.990	0.0144898
939.068	0.0146893
939.146	0.0145972
939.224	0.0147688
939.302	0.0145209
939.380	0.0145558
939.458	0.0146408
939.537	0.0146848
939.615	0.0147035
939.693	0.0147316
939.771	0.0146448
939.849	0.0145747
939.927	0.0146104
940.005	0.0145444
940.083	0.0146304
940.162	0.0144526
940.240	0.0145104
940.318	0.0144374
940.396	0.0146011
940.474	0.0145413
940.552	0.0146140
940.630	0.0145287
940.708	0.0146524
940.787	0.0145422
940.865	0.0145419
940.943	0.0146293
941.021	0.0145724
941.099	0.0145882
941.177	0.0145595
941.255	0.0145338
941.333	0.0145445
941.412	0.0146942
941.490	0.0146725
941.568	0.0145470
941.646	0.0146079
941.724	0.0147329
941.802	0.0145615
941.880	0.0144828
941.958	0.0145991
942.037	0.0145837
942.115	0.0144529
942.193	0.0145901
942.271	0.0145827
942.349	0.0144470
942.427	0.0144395
942.505	0.0145885
942.583	0.0144564
942.662	0.0146318
942.740	0.0144831
942.818	0.0146868
942.896	0.0146598
942.974	0.0145286
943.052	0.0144940
943.130	0.0145657
943.208	0.0145322
943.287	0.0146310
943.365	0.0146302
943.443	0.0146397
943.521	0.0146848
943.599	0.0148018
943.677	0.0147089
943.755	0.0145576
943.833	0.0147121
943.912	0.0146908
943.990	0.0146606
944.068	0.0146149
944.146	0.0147391
944.224	0.0146029
944.302	0.0148434
944.380	0.0146642
944.458	0.0146248
944.537	0.0146614
944.615	0.0145428
944.693	0.0146684
944.771	0.0146132
944.849	0.0146475
944.927	0.0146249
945.005	0.0147633
945.083	0.0146401
945.162	0.0146206
945.240	0.0145148
945.318	0.0146965
945.396	0.0147507
945.474	0.0145252
945.552	0.0145325
945.630	0.0145934
945.708	0.0146346
945.787	0.0145967
945.865	0.0147027
945.943	0.0146472
946.021	0.0145777
946.099	0.0145994
946.177	0.0145723
946.255	0.0145480
946.333	0.0147786
946.412	0.0145549
946.490	0.0145911
946.568	0.0145940
946.646	0.0145515
946.724	0.0146992
946.802	0.0145711
946.880	0.0145975
946.958	0.0146729
947.037	0.0146307
947.115	0.0146498
947.193	0.0145913
947.271	0.0145759
947.349	0.0145811
947.427	0.0145981
947.505	0.0145955
947.583	0.0145326
947.662	0.0145961
947.740	0.0144949
947.818	0.0146970
947.896	0.0147774
947.974	0.0147205
948.052	0.0145803
948.130	0.0145747
948.208	0.0146322
948.287	0.0146215
948.365	0.0147036
948.443	0.0146143
948.521	0.0146410
948.599	0.0146648
948.677	0.0148117
948.755	0.0146655
948.833	0.0147536
948.912	0.0147376
948.990	0.0146954
949.068	0.0147726
949.146	0.0146006
949.224	0.0145011
949.302	0.0145922
949.380	0.0147369
949.458	0.0146905
949.537	0.0146519
949.615	0.0146138
949.693	0.0147290
949.771	0.0146777
949.849	0.0146108
949.927	0.0147771
950.005	0.0147071
950.083	0.0147495
950.162	0.0146538
950.240	0.0146565
950.318	0.0147144
950.396	0.0148401
950.474	0.0145813
950.552	0.0145366
950.630	0.0145177
950.708	0.0145373
950.787	0.0148267
950.865	0.0146694
950.943	0.0144881
951.021	0.0145333
951.099	0.0146694
951.177	0.0145535
951.255	0.0145664
951.333	0.0146994
951.412	0.0146474
951.490	0.0146256
951.568	0.0145801
951.646	0.0146225
951.724	0.0146732
951.802	0.0147386
951.880	0.0145676
951.958	0.0146659
952.037	0.0146674
952.115	0.0147873
952.193	0.0145931
952.271	0.0145355
952.349	0.0145466
952.427	0.0146578
952.505	0.0146234
952.583	0.0145337
952.662	0.0146664
952.740	0.0145002
952.818	0.0146878
952.896	0.0147272
952.974	0.0145550
953.052	0.0145509
953.130	0.0146097
953.208	0.0146918
953.287	0.0146785
953.365	0.0146918
953.443	0.0146339
953.521	0.0145466
953.599	0.0145848
953.677	0.0146233
953.755	0.0146413
953.833	0.0146472
953.912	0.0144983
953.990	0.0147398
954.068	0.0146487
954.146	0.0145862
954.224	0.0146004
954.302	0.0146901
954.380	0.0145441
954.458	0.0146065
954.537	0.0146416
954.615	0.0145929
954.693	0.0145300
954.771	0.0145982
954.849	0.0145538
954.927	0.0147400
955.005	0.0146786
955.083	0.0146014
955.162	0.0146931
955.240	0.0147751
955.318	0.0145810
955.396	0.0145804
955.474	0.0144896
955.552	0.0145246
955.630	0.0147009
955.708	0.0146132
955.787	0.0144802
955.865	0.0145786
955.943	0.0144424
956.021	0.0144425
956.099	0.0146468
956.177	0.0145631
956.255	0.0145984
956.333	0.0145572
956.412	0.0144218
956.490	0.0144640
956.568	0.0145648
956.646	0.0144462
956.724	0.0145856
956.802	0.0145843
956.880	0.0145190
956.958	0.0145635
957.037	0.0146106
957.115	0.0145722
957.193	0.0145402
957.271	0.0146534
957.349	0.0146653
957.427	0.0145381
957.505	0.0146435
957.583	0.0145663
957.662	0.0146149
957.740	0.0147131
957.818	0.0146619
957.896	0.0146027
957.974	0.0146804
958.052	0.0146319
958.130	0.0146975
958.208	0.0147408
958.287	0.0146823
958.365	0.0145437
958.443	0.0145954
958.521	0.0147157
958.599	0.0146463
958.677	0.0146273
958.755	0.0145211
958.833	0.0146398
958.912	0.0146347
958.990	0.0146012
959.068	0.0146484
959.146	0.0146578
959.224	0.0146529
959.302	0.0146880
959.380	0.0146675
959.458	0.0145956
959.537	0.0147011
959.615	0.0145650
959.693	0.0145513
959.771	0.0146250
959.849	0.0146135
959.927	0.0147205
960.005	0.0146649
960.083	0.0145765
960.162	0.0144804
960.240	0.0146790
960.318	0.0145100
960.396	0.0144378
960.474	0.0146868
960.552	0.0144916
960.630	0.0145841
960.708	0.0145406
960.787	0.0144952
960.865	0.0144303
960.943	0.0145459
961.021	0.0145563
961.099	0.0144264
961.177	0.0144547
961.255	0.0146101
961.333	0.0145724
961.412	0.0146267
961.490	0.0145867
961.568	0.0143841
961.646	0.0145467
961.724	0.0145325
961.802	0.0146089
961.880	0.0144793
961.958	0.0145545
962.037	0.0145440
962.115	0.0145390
962.193	0.0145639
962.271	0.0145388
962.349	0.0145795
962.427	0.0146140
962.505	0.0146737
962.583	0.0145910
962.662	0.0146023
962.740	0.0146075
962.818	0.0144305
962.896	0.0145889
962.974	0.0145792
963.052	0.0145769
963.130	0.0145377
963.208	0.0144701
963.287	0.0145275
963.365	0.0146118
963.443	0.0145684
963.521	0.0146633
963.599	0.0145890
963.677	0.0145861
963.755	0.0145570
963.833	0.0144501
963.912	0.0146831
963.990	0.0145237
964.068	0.0145517
964.146	0.0146445
964.224	0.0145949
964.302	0.0145843
964.380	0.0145294
964.458	0.0146454
964.537	0.0146265
964.615	0.0145966
964.693	0.0146594
964.771	0.0146230
964.849	0.0145531
964.927	0.0146281
965.005	0.0146448
965.083	0.0146611
965.162	0.0146786
965.240	0.0147343
965.318	0.0146384
965.396	0.0146482
965.474	0.0147395
965.552	0.0145737
965.630	0.0146035
965.708	0.0145386
965.787	0.0145756
965.865	0.0146539
965.943	0.0145348
966.021	0.0145513
966.099	0.0145823
966.177	0.0146883
966.255	0.0144627
966.333	0.0145889
966.412	0.0145650
966.490	0.0145783
966.568	0.0147121
966.646	0.0145839
966.724	0.0145107
966.802	0.0146754
966.880	0.0145406
966.958	0.0145426
967.037	0.0145786
967.115	0.0145539
967.193	0.0146371
967.271	0.0147080
967.349	0.0146284
967.427	0.0145674
967.505	0.0145827
967.583	0.0146877
967.662	0.0146029
967.740	0.0144650
967.818	0.0147189
967.896	0.0145210
967.974	0.0146519
968.052	0.0145885
968.130	0.0146063
968.208	0.0146044
968.287	0.0146858
968.365	0.0145628
968.443	0.0145771
968.521	0.0144574
968.599	0.0144786
968.677	0.0145090
968.755	0.0146108
968.833	0.0148182
968.912	0.0147890
968.990	0.0146646
969.068	0.0146870
969.146	0.0147293
969.224	0.0146540
969.302	0.0147233
969.380	0.0146223
969.458	0.0146056
969.537	0.0146211
969.615	0.0147099
969.693	0.0146165
969.771	0.0145834
969.849	0.0147148
969.927	0.0147235
970.005	0.0146726
970.083	0.0145865
970.162	0.0147109
970.240	0.0146328
970.318	0.0145632
970.396	0.0145479
970.474	0.0145589
970.552	0.0145766
970.630	0.0145850
970.708	0.0147559
970.787	0.0147489
970.865	0.0147858
970.943	0.0146651
971.021	0.0146667
971.099	0.0147267
971.177	0.0146479
971.255	0.0145178
971.333	0.0146357
971.412	0.0146694
971.490	0.0147213
971.568	0.0145894
971.646	0.0145950
971.724	0.0147437
971.802	0.0145822
971.880	0.0146296
971.958	0.0146327
972.037	0.0146259
972.115	0.0146173
972.193	0.0145710
972.271	0.0145929
972.349	0.0144974
972.427	0.0146569
972.505	0.0146258
972.583	0.0145451
972.662	0.0145284
972.740	0.0145391
972.818	0.0147207
972.896	0.0145636
972.974	0.0146514
973.052	0.0145715
973.130	0.0146420
973.208	0.0147577
973.287	0.0146303
973.365	0.0145467
973.443	0.0147934
973.521	0.0147943
973.599	0.0145666
973.677	0.0146745
973.755	0.0146754
973.833	0.0145500
973.912	0.0145395
973.990	0.0147569
974.068	0.0146828
974.146	0.0146354
974.224	0.0147996
974.302	0.0146117
974.380	0.0145992
974.458	0.0146692
974.537	0.0145810
974.615	0.0147978
974.693	0.0145369
974.771	0.0145887
974.849	0.0145837
974.927	0.0146667
975.005	0.0146049
975.083	0.0146445
975.162	0.0146154
975.240	0.0147093
975.318	0.0145583
975.396	0.0146783
975.474	0.0147568
975.552	0.0145694
975.630	0.0147450
975.708	0.0146474
975.787	0.0144386
975.865	0.0145906
975.943	0.0146885
976.021	0.0147648
976.099	0.0146336
976.177	0.0146186
976.255	0.0147632
976.333	0.0146157
976.412	0.0146918
976.490	0.0147589
976.568	0.0146865
976.646	0.0146066
976.724	0.0146636
976.802	0.0146716
976.880	0.0146436
976.958	0.0146915
977.037	0.0144656
977.115	0.0146400
977.193	0.0147544
977.271	0.0145554
977.349	0.0146458
977.427	0.0146912
977.505	0.0146238
977.583	0.0146132
977.662	0.0145515
977.740	0.0145470
977.818	0.0145819
977.896	0.0144823
977.974	0.0145002
978.052	0.0144903
978.130	0.0146027
978.208	0.0145485
978.287	0.0145293
978.365	0.0145094
978.443	0.0146409
978.521	0.0146918
978.599	0.0146915
978.677	0.0147157
978.755	0.0146895
978.833	0.0146394
978.912	0.0145504
978.990	0.0146347
979.068	0.0146452
979.146	0.0144601
979.224	0.0145685
979.302	0.0148206
979.380	0.0146446
979.458	0.0145307
979.537	0.0146327
979.615	0.0145081
979.693	0.0145610
979.771	0.0145854
979.849	0.0147018
979.927	0.0145563
980.005	0.0145277
980.083	0.0145854
980.162	0.0145722
980.240	0.0144518
980.318	0.0144777
980.396	0.0145541
980.474	0.0145441
980.552	0.0145120
980.630	0.0146162
980.708	0.0146341
980.787	0.0144886
980.865	0.0144234
980.943	0.0145879
981.021	0.0146210
981.099	0.0147985
981.177	0.0146069
981.255	0.0145831
981.333	0.0146407
981.412	0.0146813
981.490	0.0144708
981.568	0.0146164
981.646	0.0146277
981.724	0.0147362
981.802	0.0146066
981.880	0.0146040
981.958	0.0145207
982.037	0.0145731
982.115	0.0145000
982.193	0.0144473
982.271	0.0145397
982.349	0.0147067
982.427	0.0145394
982.505	0.0145768
982.583	0.0145892
982.662	0.0144486
982.740	0.0145954
982.818	0.0144765
982.896	0.0145731
982.974	0.0144585
983.052	0.0146363
983.130	0.0146403
983.208	0.0145771
983.287	0.0146626
983.365	0.0145673
983.443	0.0145844
983.521	0.0146124
983.599	0.0146329
983.677	0.0147408
983.755	0.0145700
983.833	0.0145966
983.912	0.0147129
983.990	0.0147055
984.068	0.0144656
984.146	0.0145331
984.224	0.0145596
984.302	0.0146197
984.380	0.0145216
984.458	0.0146033
984.537	0.0146285
984.615	0.0147301
984.693	0.0145776
984.771	0.0145930
984.849	0.0146017
984.927	0.0146455
985.005	0.0145109
985.083	0.0146045
985.162	0.0146582
985.240	0.0146584
985.318	0.0145426
985.396	0.0146864
985.474	0.0145177
985.552	0.0146248
985.630	0.0146191
985.708	0.0144619
985.787	0.0145672
985.865	0.0145694
985.943	0.0145360
986.021	0.0145854
986.099	0.0145622
986.177	0.0145097
986.255	0.0144118
986.333	0.0145174
986.412	0.0145976
986.490	0.0145418
986.568	0.0146251
986.646	0.0146011
986.724	0.0145076
986.802	0.0145760
986.880	0.0144279
986.958	0.0146297
987.037	0.0145629
987.115	0.0145553
987.193	0.0144727
987.271	0.0145231
987.349	0.0145514
987.427	0.0145729
987.505	0.0145198
987.583	0.0145364
987.662	0.0145159
987.740	0.0146405
987.818	0.0145789
987.896	0.0144740
987.974	0.0145383
988.052	0.0145039
988.130	0.0146082
988.208	0.0146088
988.287	0.0145712
988.365	0.0145222
988.443	0.0145374
988.521	0.0146798
988.599	0.0145568
988.677	0.0146428
988.755	0.0145071
988.833	0.0145584
988.912	0.0144336
988.990	0.0144780
989.068	0.0146612
989.146	0.0145843
989.224	0.0145243
989.302	0.0146070
989.380	0.0146267
989.458	0.0145771
989.537	0.0145210
989.615	0.0145818
989.693	0.0145811
989.771	0.0145458
989.849	0.0144704
989.927	0.0145937
990.005	0.0146458
990.083	0.0146251
990.162	0.0144348
990.240	0.0145382
990.318	0.0146114
990.396	0.0144987
990.474	0.0146272
990.552	0.0147089
990.630	0.0146285
990.708	0.0145939
990.787	0.0146242
990.865	0.0146794
990.943	0.0145749
991.021	0.0145457
991.099	0.0144858
991.177	0.0145187
991.255	0.0145753
991.333	0.0146358
991.412	0.0146581
991.490	0.0146272
991.568	0.0145595
991.646	0.0145602
991.724	0.0145306
991.802	0.0145129
991.880	0.0145379
991.958	0.0146186
992.037	0.0145921
992.115	0.0145052
992.193	0.0145484
992.271	0.0146796
992.349	0.0146014
992.427	0.0145534
992.505	0.0146023
992.583	0.0145792
992.662	0.0145049
992.740	0.0144169
992.818	0.0146497
992.896	0.0145910
992.974	0.0146620
993.052	0.0145833
993.130	0.0146160
993.208	0.0147552
993.287	0.0145017
993.365	0.0144655
993.443	0.0146161
993.521	0.0146188
993.599	0.0146921
993.677	0.0145963
993.755	0.0145971
993.833	0.0146387
993.912	0.0146626
993.990	0.0147214
994.068	0.0145786
994.146	0.0146283
994.224	0.0147329
994.302	0.0147688
994.380	0.0146564
994.458	0.0145189
994.537	0.0146691
994.615	0.0147653
994.693	0.0146065
994.771	0.0146918
994.849	0.0146186
994.927	0.0146753
995.005	0.0146448
995.083	0.0147335
995.162	0.0146664
995.240	0.0145447
995.318	0.0145648
995.396	0.0147462
995.474	0.0146581
995.552	0.0146027
995.630	0.0145703
995.708	0.0145375
995.787	0.0145050
995.865	0.0146111
995.943	0.0146900
996.021	0.0146833
996.099	0.0145809
996.177	0.0145591
996.255	0.0146067
996.333	0.0145934
996.412	0.0146584
996.490	0.0146777
996.568	0.0145735
996.646	0.0145945
996.724	0.0147787
996.802	0.0147182
996.880	0.0146714
996.958	0.0147376
997.037	0.0146405
997.115	0.0146018
997.193	0.0146443
997.271	0.0146931
997.349	0.0147555
997.427	0.0146242
997.505	0.0146233
997.583	0.0146342
997.662	0.0146379
997.740	0.0146089
997.818	0.0146603
997.896	0.0146121
997.974	0.0146594
998.052	0.0145824
998.130	0.0146210
998.208	0.0146854
998.287	0.0145257
998.365	0.0147417
998.443	0.0146557
998.521	0.0145348
998.599	0.0144876
998.677	0.0146059
998.755	0.0145903
998.833	0.0145963
998.912	0.0147431
