05/04/2022	21:41:14	Ver.	4.1	UNKNOWN
Optical Delay	678.989730	Delta X		0.078125	Sweeps	1	Scan Rate	0/0
Coordinates	Axis 1	NaN	Axis 2	NaN	Axis 3	NaN	Axis 4	NaN	Axis 5	NaN	Axis 6	0.000000
TX Power	0.000000	RX Power	0.000000

678.990	0.0144467
679.068	0.0145152
679.146	0.0147670
679.224	0.0148129
679.302	0.0148530
679.380	0.0148324
679.458	0.0147578
679.537	0.0147962
679.615	0.0146477
679.693	0.0144693
679.771	0.0143356
679.849	0.0142322
679.927	0.0141502
680.005	0.0141563
680.083	0.0142470
680.162	0.0140942
680.240	0.0142013
680.318	0.0144556
680.396	0.0142445
680.474	0.0144391
680.552	0.0145740
680.630	0.0147180
680.708	0.0147823
680.787	0.0147962
680.865	0.0146959
680.943	0.0148366
681.021	0.0148071
681.099	0.0150082
681.177	0.0147855
681.255	0.0147855
681.333	0.0146551
681.412	0.0146167
681.490	0.0146687
681.568	0.0144336
681.646	0.0141869
681.724	0.0144118
681.802	0.0141791
681.880	0.0142255
681.958	0.0142491
682.037	0.0142731
682.115	0.0143719
682.193	0.0144605
682.271	0.0148096
682.349	0.0148458
682.427	0.0149080
682.505	0.0149543
682.583	0.0149945
682.662	0.0152445
682.740	0.0151414
682.818	0.0151730
682.896	0.0152573
682.974	0.0150706
683.052	0.0147065
683.130	0.0145245
683.208	0.0142950
683.287	0.0139688
683.365	0.0137405
683.443	0.0133936
683.521	0.0132181
683.599	0.0132519
683.677	0.0132550
683.755	0.0133893
683.833	0.0135409
683.912	0.0137870
683.990	0.0141489
684.068	0.0144991
684.146	0.0147826
684.224	0.0151548
684.302	0.0154155
684.380	0.0155374
684.458	0.0156421
684.537	0.0155632
684.615	0.0156267
684.693	0.0154703
684.771	0.0153255
684.849	0.0151005
684.927	0.0150305
685.005	0.0148047
685.083	0.0145972
685.162	0.0145493
685.240	0.0143958
685.318	0.0144366
685.396	0.0144811
685.474	0.0145570
685.552	0.0143625
685.630	0.0144482
685.708	0.0145029
685.787	0.0146194
685.865	0.0146276
685.943	0.0145231
686.021	0.0145034
686.099	0.0143799
686.177	0.0142658
686.255	0.0140021
686.333	0.0138654
686.412	0.0136584
686.490	0.0133823
686.568	0.0133726
686.646	0.0133910
686.724	0.0134775
686.802	0.0135655
686.880	0.0138991
686.958	0.0142283
687.037	0.0144292
687.115	0.0148555
687.193	0.0152921
687.271	0.0155813
687.349	0.0158978
687.427	0.0159241
687.505	0.0160207
687.583	0.0160062
687.662	0.0159085
687.740	0.0155260
687.818	0.0152531
687.896	0.0149219
687.974	0.0146877
688.052	0.0142995
688.130	0.0140418
688.208	0.0137901
688.287	0.0137429
688.365	0.0136241
688.443	0.0136457
688.521	0.0138019
688.599	0.0138210
688.677	0.0139133
688.755	0.0140175
688.833	0.0143313
688.912	0.0144308
688.990	0.0145189
689.068	0.0146673
689.146	0.0145770
689.224	0.0145157
689.302	0.0144121
689.380	0.0144044
689.458	0.0143806
689.537	0.0142010
689.615	0.0141419
689.693	0.0142078
689.771	0.0140855
689.849	0.0141285
689.927	0.0142014
690.005	0.0141891
690.083	0.0143813
690.162	0.0145188
690.240	0.0146811
690.318	0.0149004
690.396	0.0148899
690.474	0.0150177
690.552	0.0149979
690.630	0.0150908
690.708	0.0152896
690.787	0.0152332
690.865	0.0151479
690.943	0.0149998
691.021	0.0149068
691.099	0.0147410
691.177	0.0147762
691.255	0.0144073
691.333	0.0143266
691.412	0.0143958
691.490	0.0142503
691.568	0.0143300
691.646	0.0142457
691.724	0.0143389
691.802	0.0143551
691.880	0.0143200
691.958	0.0144559
692.037	0.0145115
692.115	0.0144099
692.193	0.0143924
692.271	0.0143350
692.349	0.0143692
692.427	0.0143069
692.505	0.0142941
692.583	0.0142628
692.662	0.0142741
692.740	0.0140760
692.818	0.0141017
692.896	0.0141048
692.974	0.0141226
693.052	0.0142374
693.130	0.0143031
693.208	0.0142515
693.287	0.0143292
693.365	0.0143255
693.443	0.0142774
693.521	0.0142184
693.599	0.0143545
693.677	0.0143935
693.755	0.0143222
693.833	0.0146249
693.912	0.0145234
693.990	0.0144704
694.068	0.0144808
694.146	0.0146012
694.224	0.0146451
694.302	0.0147504
694.380	0.0148447
694.458	0.0147941
694.537	0.0147989
694.615	0.0148318
694.693	0.0147392
694.771	0.0147919
694.849	0.0146313
694.927	0.0143330
695.005	0.0143630
695.083	0.0143102
695.162	0.0142489
695.240	0.0140684
695.318	0.0138438
695.396	0.0139696
695.474	0.0140620
695.552	0.0142034
695.630	0.0141521
695.708	0.0141727
695.787	0.0142413
695.865	0.0144407
695.943	0.0145992
696.021	0.0145613
696.099	0.0145419
696.177	0.0146908
696.255	0.0146179
696.333	0.0146254
696.412	0.0143682
696.490	0.0143114
696.568	0.0142873
696.646	0.0143936
696.724	0.0143717
696.802	0.0143613
696.880	0.0142399
696.958	0.0143967
697.037	0.0144695
697.115	0.0144971
697.193	0.0144569
697.271	0.0145016
697.349	0.0145972
697.427	0.0144308
697.505	0.0146124
697.583	0.0143557
697.662	0.0143127
697.740	0.0143820
697.818	0.0142556
697.896	0.0142711
697.974	0.0142832
698.052	0.0143633
698.130	0.0142236
698.208	0.0142757
698.287	0.0142953
698.365	0.0145184
698.443	0.0144836
698.521	0.0145850
698.599	0.0147983
698.677	0.0148863
698.755	0.0149322
698.833	0.0149728
698.912	0.0150285
698.990	0.0150083
699.068	0.0149915
699.146	0.0150784
699.224	0.0150538
699.302	0.0148917
699.380	0.0147814
699.458	0.0146546
699.537	0.0144621
699.615	0.0144762
699.693	0.0142625
699.771	0.0141347
699.849	0.0138080
699.927	0.0138858
700.005	0.0138058
700.083	0.0137977
700.162	0.0137115
700.240	0.0136777
700.318	0.0137360
700.396	0.0138251
700.474	0.0139160
700.552	0.0139978
700.630	0.0140855
700.708	0.0141716
700.787	0.0143332
700.865	0.0143916
700.943	0.0144938
701.021	0.0144347
701.099	0.0148843
701.177	0.0148308
701.255	0.0149491
701.333	0.0148901
701.412	0.0151286
701.490	0.0151415
701.568	0.0151778
701.646	0.0150249
701.724	0.0150326
701.802	0.0151186
701.880	0.0150979
701.958	0.0151408
702.037	0.0149998
702.115	0.0149918
702.193	0.0148783
702.271	0.0149496
702.349	0.0148340
702.427	0.0148408
702.505	0.0146289
702.583	0.0144537
702.662	0.0144389
702.740	0.0141214
702.818	0.0139580
702.896	0.0138222
702.974	0.0135282
703.052	0.0134923
703.130	0.0134590
703.208	0.0136182
703.287	0.0136108
703.365	0.0137180
703.443	0.0139297
703.521	0.0141829
703.599	0.0144012
703.677	0.0146130
703.755	0.0148561
703.833	0.0150661
703.912	0.0150819
703.990	0.0151685
704.068	0.0150273
704.146	0.0150651
704.224	0.0149555
704.302	0.0148785
704.380	0.0147856
704.458	0.0145601
704.537	0.0145292
704.615	0.0144279
704.693	0.0144254
704.771	0.0143930
704.849	0.0143769
704.927	0.0144343
705.005	0.0143831
705.083	0.0144563
705.162	0.0145058
705.240	0.0143742
705.318	0.0145206
705.396	0.0144392
705.474	0.0144590
705.552	0.0145866
705.630	0.0143977
705.708	0.0144965
705.787	0.0146056
705.865	0.0144865
705.943	0.0147539
706.021	0.0147606
706.099	0.0148030
706.177	0.0148813
706.255	0.0149489
706.333	0.0148908
706.412	0.0150980
706.490	0.0150967
706.568	0.0151204
706.646	0.0150292
706.724	0.0148820
706.802	0.0148636
706.880	0.0148540
706.958	0.0144872
707.037	0.0144083
707.115	0.0143281
707.193	0.0140904
707.271	0.0139294
707.349	0.0137855
707.427	0.0136427
707.505	0.0135500
707.583	0.0135622
707.662	0.0136118
707.740	0.0137337
707.818	0.0139149
707.896	0.0138655
707.974	0.0140142
708.052	0.0142035
708.130	0.0143585
708.208	0.0144321
708.287	0.0145424
708.365	0.0146375
708.443	0.0148792
708.521	0.0148891
708.599	0.0150227
708.677	0.0151093
708.755	0.0150220
708.833	0.0151351
708.912	0.0151733
708.990	0.0151330
709.068	0.0150531
709.146	0.0152274
709.224	0.0149790
709.302	0.0148546
709.380	0.0148653
709.458	0.0147636
709.537	0.0146377
709.615	0.0145202
709.693	0.0143346
709.771	0.0144081
709.849	0.0141828
709.927	0.0141523
710.005	0.0140936
710.083	0.0140333
710.162	0.0139070
710.240	0.0140583
710.318	0.0139877
710.396	0.0140315
710.474	0.0139594
710.552	0.0140114
710.630	0.0141779
710.708	0.0142367
710.787	0.0143185
710.865	0.0144651
710.943	0.0145752
711.021	0.0145689
711.099	0.0146506
711.177	0.0148497
711.255	0.0146979
711.333	0.0148876
711.412	0.0148569
711.490	0.0148266
711.568	0.0147436
711.646	0.0147849
711.724	0.0147188
711.802	0.0148034
711.880	0.0146992
711.958	0.0147949
712.037	0.0146704
712.115	0.0145451
712.193	0.0144659
712.271	0.0144391
712.349	0.0143845
712.427	0.0141335
712.505	0.0143847
712.583	0.0144036
712.662	0.0141932
712.740	0.0142131
712.818	0.0143579
712.896	0.0143298
712.974	0.0145074
713.052	0.0144964
713.130	0.0145358
713.208	0.0146890
713.287	0.0146423
713.365	0.0147196
713.443	0.0146796
713.521	0.0147446
713.599	0.0147468
713.677	0.0147700
713.755	0.0148268
713.833	0.0146934
713.912	0.0146185
713.990	0.0144801
714.068	0.0145681
714.146	0.0145500
714.224	0.0142947
714.302	0.0143655
714.380	0.0143851
714.458	0.0144449
714.537	0.0142038
714.615	0.0142838
714.693	0.0142516
714.771	0.0143723
714.849	0.0142820
714.927	0.0142001
715.005	0.0145033
715.083	0.0143910
715.162	0.0144573
715.240	0.0146325
715.318	0.0144736
715.396	0.0144378
715.474	0.0145109
715.552	0.0145444
715.630	0.0145084
715.708	0.0143993
715.787	0.0145183
715.865	0.0145747
715.943	0.0147252
716.021	0.0148183
716.099	0.0145943
716.177	0.0145753
716.255	0.0146741
716.333	0.0146709
716.412	0.0145921
716.490	0.0146638
716.568	0.0145228
716.646	0.0145096
716.724	0.0142438
716.802	0.0143633
716.880	0.0143688
716.958	0.0142856
717.037	0.0141046
717.115	0.0141576
717.193	0.0141967
717.271	0.0143337
717.349	0.0141389
717.427	0.0140411
717.505	0.0142002
717.583	0.0144920
717.662	0.0143604
717.740	0.0144694
717.818	0.0145486
717.896	0.0144995
717.974	0.0144936
718.052	0.0145199
718.130	0.0145799
718.208	0.0147144
718.287	0.0145817
718.365	0.0144500
718.443	0.0145389
718.521	0.0144804
718.599	0.0144730
718.677	0.0143906
718.755	0.0142498
718.833	0.0141689
718.912	0.0144337
718.990	0.0142736
719.068	0.0143224
719.146	0.0144502
719.224	0.0143935
719.302	0.0144405
719.380	0.0142981
719.458	0.0144080
719.537	0.0144090
719.615	0.0144903
719.693	0.0144691
719.771	0.0145744
719.849	0.0147090
719.927	0.0145110
720.005	0.0146790
720.083	0.0145071
720.162	0.0145128
720.240	0.0145360
720.318	0.0146866
720.396	0.0145213
720.474	0.0144075
720.552	0.0144374
720.630	0.0142349
720.708	0.0142471
720.787	0.0142464
720.865	0.0142269
720.943	0.0142004
721.021	0.0141517
721.099	0.0141459
721.177	0.0142358
721.255	0.0142489
721.333	0.0141292
721.412	0.0141783
721.490	0.0142299
721.568	0.0141750
721.646	0.0141333
721.724	0.0142164
721.802	0.0142367
721.880	0.0143116
721.958	0.0142744
722.037	0.0144865
722.115	0.0144819
722.193	0.0143647
722.271	0.0145238
722.349	0.0145661
722.427	0.0144658
722.505	0.0146685
722.583	0.0146844
722.662	0.0147909
722.740	0.0147978
722.818	0.0149126
722.896	0.0149435
722.974	0.0147570
723.052	0.0148109
723.130	0.0148498
723.208	0.0147884
723.287	0.0147587
723.365	0.0146964
723.443	0.0146703
723.521	0.0144709
723.599	0.0143812
723.677	0.0143198
723.755	0.0142780
723.833	0.0142508
723.912	0.0143285
723.990	0.0142712
724.068	0.0142213
724.146	0.0141475
724.224	0.0142082
724.302	0.0143140
724.380	0.0142183
724.458	0.0141515
724.537	0.0143832
724.615	0.0144962
724.693	0.0143333
724.771	0.0144461
724.849	0.0145164
724.927	0.0145581
725.005	0.0147153
725.083	0.0145655
725.162	0.0145236
725.240	0.0145811
725.318	0.0146409
725.396	0.0146288
725.474	0.0146255
725.552	0.0146461
725.630	0.0145598
725.708	0.0145921
725.787	0.0145191
725.865	0.0145374
725.943	0.0146127
726.021	0.0145238
726.099	0.0144919
726.177	0.0145373
726.255	0.0144143
726.333	0.0144477
726.412	0.0144748
726.490	0.0143807
726.568	0.0144326
726.646	0.0143214
726.724	0.0143420
726.802	0.0144188
726.880	0.0143623
726.958	0.0143304
727.037	0.0144320
727.115	0.0144778
727.193	0.0146169
727.271	0.0146323
727.349	0.0145348
727.427	0.0146872
727.505	0.0145197
727.583	0.0146446
727.662	0.0145997
727.740	0.0145896
727.818	0.0146172
727.896	0.0145211
727.974	0.0144722
728.052	0.0145772
728.130	0.0145258
728.208	0.0144094
728.287	0.0143192
728.365	0.0143532
728.443	0.0142820
728.521	0.0143372
728.599	0.0143048
728.677	0.0142883
728.755	0.0141660
728.833	0.0143066
728.912	0.0143183
728.990	0.0142606
729.068	0.0142461
729.146	0.0142991
729.224	0.0143693
729.302	0.0143009
729.380	0.0143875
729.458	0.0145456
729.537	0.0144736
729.615	0.0144114
729.693	0.0146227
729.771	0.0147401
729.849	0.0147064
729.927	0.0145874
730.005	0.0147012
730.083	0.0146597
730.162	0.0147449
730.240	0.0148122
730.318	0.0147641
730.396	0.0146575
730.474	0.0147058
730.552	0.0145530
730.630	0.0146329
730.708	0.0145847
730.787	0.0144815
730.865	0.0145262
730.943	0.0144287
731.021	0.0144228
731.099	0.0142897
731.177	0.0141956
731.255	0.0141805
731.333	0.0143450
731.412	0.0143002
731.490	0.0141940
731.568	0.0142679
731.646	0.0143078
731.724	0.0143346
731.802	0.0144781
731.880	0.0143879
731.958	0.0144475
732.037	0.0144155
732.115	0.0143641
732.193	0.0145073
732.271	0.0145645
732.349	0.0145261
732.427	0.0144324
732.505	0.0145741
732.583	0.0145332
732.662	0.0144699
732.740	0.0146281
732.818	0.0146175
732.896	0.0145346
732.974	0.0146323
733.052	0.0146024
733.130	0.0146413
733.208	0.0146965
733.287	0.0145937
733.365	0.0145670
733.443	0.0146648
733.521	0.0146352
733.599	0.0144843
733.677	0.0144868
733.755	0.0144715
733.833	0.0143871
733.912	0.0143405
733.990	0.0143945
734.068	0.0144119
734.146	0.0143017
734.224	0.0142528
734.302	0.0142300
734.380	0.0145031
734.458	0.0143088
734.537	0.0143493
734.615	0.0143669
734.693	0.0144306
734.771	0.0145213
734.849	0.0145266
734.927	0.0145940
735.005	0.0145007
735.083	0.0144493
735.162	0.0143988
735.240	0.0146059
735.318	0.0145441
735.396	0.0144986
735.474	0.0144621
735.552	0.0146117
735.630	0.0145168
735.708	0.0145158
735.787	0.0144760
735.865	0.0145908
735.943	0.0144508
736.021	0.0144311
736.099	0.0144262
736.177	0.0143718
736.255	0.0143028
736.333	0.0145327
736.412	0.0143456
736.490	0.0142783
736.568	0.0145338
736.646	0.0143931
736.724	0.0144703
736.802	0.0145676
736.880	0.0145162
736.958	0.0146552
737.037	0.0145698
737.115	0.0145691
737.193	0.0145987
737.271	0.0145763
737.349	0.0145348
737.427	0.0145426
737.505	0.0146387
737.583	0.0146513
737.662	0.0146821
737.740	0.0145510
737.818	0.0146053
737.896	0.0146671
737.974	0.0147478
738.052	0.0145246
738.130	0.0145874
738.208	0.0146170
738.287	0.0145278
738.365	0.0145661
738.443	0.0143899
738.521	0.0144672
738.599	0.0144263
738.677	0.0143072
738.755	0.0143638
738.833	0.0143114
738.912	0.0141707
738.990	0.0143697
739.068	0.0143895
739.146	0.0144218
739.224	0.0144328
739.302	0.0144461
739.380	0.0144305
739.458	0.0145227
739.537	0.0144270
739.615	0.0143655
739.693	0.0145426
739.771	0.0144708
739.849	0.0144472
739.927	0.0145644
740.005	0.0145889
740.083	0.0146670
740.162	0.0145365
740.240	0.0146510
740.318	0.0147445
740.396	0.0146720
740.474	0.0146113
740.552	0.0147430
740.630	0.0146986
740.708	0.0147610
740.787	0.0145435
740.865	0.0145992
740.943	0.0146545
741.021	0.0146416
741.099	0.0145039
741.177	0.0144783
741.255	0.0146353
741.333	0.0144160
741.412	0.0144031
741.490	0.0144632
741.568	0.0144682
741.646	0.0144037
741.724	0.0143536
741.802	0.0144781
741.880	0.0143655
741.958	0.0143621
742.037	0.0143681
742.115	0.0142897
742.193	0.0143504
742.271	0.0143181
742.349	0.0142904
742.427	0.0143550
742.505	0.0143540
742.583	0.0144764
742.662	0.0143223
742.740	0.0143694
742.818	0.0143654
742.896	0.0144099
742.974	0.0144079
743.052	0.0145098
743.130	0.0144637
743.208	0.0143921
743.287	0.0144315
743.365	0.0144861
743.443	0.0143404
743.521	0.0144342
743.599	0.0143393
743.677	0.0142873
743.755	0.0145222
743.833	0.0144005
743.912	0.0143583
743.990	0.0142715
744.068	0.0143681
744.146	0.0143472
744.224	0.0146032
744.302	0.0143456
744.380	0.0143455
744.458	0.0144523
744.537	0.0144440
744.615	0.0144573
744.693	0.0144663
744.771	0.0145364
744.849	0.0145070
744.927	0.0143973
745.005	0.0143748
745.083	0.0144532
745.162	0.0143877
745.240	0.0142969
745.318	0.0143647
745.396	0.0144106
745.474	0.0144571
745.552	0.0143417
745.630	0.0144266
745.708	0.0145309
745.787	0.0144432
745.865	0.0144083
745.943	0.0146175
746.021	0.0143923
746.099	0.0144900
746.177	0.0143696
746.255	0.0144604
746.333	0.0145393
746.412	0.0144777
746.490	0.0143793
746.568	0.0144229
746.646	0.0143282
746.724	0.0143733
746.802	0.0143674
746.880	0.0143642
746.958	0.0142617
747.037	0.0143737
747.115	0.0144616
747.193	0.0143497
747.271	0.0143485
747.349	0.0144039
747.427	0.0144700
747.505	0.0144120
747.583	0.0146228
747.662	0.0145839
747.740	0.0144594
747.818	0.0143465
747.896	0.0145319
747.974	0.0145375
748.052	0.0144673
748.130	0.0145932
748.208	0.0146303
748.287	0.0144894
748.365	0.0145845
748.443	0.0145565
748.521	0.0145692
748.599	0.0144392
748.677	0.0144397
748.755	0.0144779
748.833	0.0145822
748.912	0.0145168
748.990	0.0144437
749.068	0.0144989
749.146	0.0143520
749.224	0.0144736
749.302	0.0143677
749.380	0.0142890
749.458	0.0143199
749.537	0.0143636
749.615	0.0142521
749.693	0.0143439
749.771	0.0143053
749.849	0.0143324
749.927	0.0144818
750.005	0.0143496
750.083	0.0143941
750.162	0.0142612
750.240	0.0143726
750.318	0.0145070
750.396	0.0145012
750.474	0.0144225
750.552	0.0145858
750.630	0.0145910
750.708	0.0144441
750.787	0.0144975
750.865	0.0145952
750.943	0.0145483
751.021	0.0146280
751.099	0.0146719
751.177	0.0146095
751.255	0.0145100
751.333	0.0144839
751.412	0.0145138
751.490	0.0145467
751.568	0.0143710
751.646	0.0144821
751.724	0.0144862
751.802	0.0144636
751.880	0.0143738
751.958	0.0142651
752.037	0.0144190
752.115	0.0145698
752.193	0.0145082
752.271	0.0143109
752.349	0.0145153
752.427	0.0146227
752.505	0.0145940
752.583	0.0146958
752.662	0.0145098
752.740	0.0146080
752.818	0.0147044
752.896	0.0146091
752.974	0.0146337
753.052	0.0145095
753.130	0.0145660
753.208	0.0146362
753.287	0.0146467
753.365	0.0145023
753.443	0.0144595
753.521	0.0144223
753.599	0.0145128
753.677	0.0145906
753.755	0.0144340
753.833	0.0145772
753.912	0.0146069
753.990	0.0145650
754.068	0.0144640
754.146	0.0144914
754.224	0.0145522
754.302	0.0143327
754.380	0.0144916
754.458	0.0144786
754.537	0.0146066
754.615	0.0146179
754.693	0.0146487
754.771	0.0145126
754.849	0.0145161
754.927	0.0145116
755.005	0.0145720
755.083	0.0146562
755.162	0.0145412
755.240	0.0145362
755.318	0.0146695
755.396	0.0145943
755.474	0.0145490
755.552	0.0145393
755.630	0.0144936
755.708	0.0146291
755.787	0.0145708
755.865	0.0144933
755.943	0.0144997
756.021	0.0146017
756.099	0.0145462
756.177	0.0146358
756.255	0.0145872
756.333	0.0144035
756.412	0.0145110
756.490	0.0145666
756.568	0.0144953
756.646	0.0144577
756.724	0.0144374
756.802	0.0144465
756.880	0.0144588
756.958	0.0144095
757.037	0.0145616
757.115	0.0146170
757.193	0.0143800
757.271	0.0142131
757.349	0.0145039
757.427	0.0143695
757.505	0.0144804
757.583	0.0144851
757.662	0.0143915
757.740	0.0143551
757.818	0.0143774
757.896	0.0142970
757.974	0.0144331
758.052	0.0145120
758.130	0.0144013
758.208	0.0144415
758.287	0.0144129
758.365	0.0144698
758.443	0.0145171
758.521	0.0144599
758.599	0.0145050
758.677	0.0143960
758.755	0.0144717
758.833	0.0145765
758.912	0.0145287
758.990	0.0144916
759.068	0.0144828
759.146	0.0144547
759.224	0.0144228
759.302	0.0145943
759.380	0.0145959
759.458	0.0145148
759.537	0.0145497
759.615	0.0145256
759.693	0.0142706
759.771	0.0142651
759.849	0.0145020
759.927	0.0144629
760.005	0.0145135
760.083	0.0144665
760.162	0.0144895
760.240	0.0144968
760.318	0.0145308
760.396	0.0145589
760.474	0.0145358
760.552	0.0145247
760.630	0.0145615
760.708	0.0145573
760.787	0.0145512
760.865	0.0144896
760.943	0.0144711
761.021	0.0145600
761.099	0.0146859
761.177	0.0145412
761.255	0.0145494
761.333	0.0145277
761.412	0.0145911
761.490	0.0145448
761.568	0.0145063
761.646	0.0145151
761.724	0.0145804
761.802	0.0145839
761.880	0.0146491
761.958	0.0145866
762.037	0.0145012
762.115	0.0145053
762.193	0.0145688
762.271	0.0146964
762.349	0.0145047
762.427	0.0145090
762.505	0.0144810
762.583	0.0145433
762.662	0.0144700
762.740	0.0146608
762.818	0.0145320
762.896	0.0145538
762.974	0.0145568
763.052	0.0145162
763.130	0.0144379
763.208	0.0146482
763.287	0.0145689
763.365	0.0145240
763.443	0.0145016
763.521	0.0147379
763.599	0.0146388
763.677	0.0146553
763.755	0.0146450
763.833	0.0146535
763.912	0.0146415
763.990	0.0146273
764.068	0.0146288
764.146	0.0144467
764.224	0.0145907
764.302	0.0145102
764.380	0.0146095
764.458	0.0145276
764.537	0.0145418
764.615	0.0144156
764.693	0.0146357
764.771	0.0145113
764.849	0.0145834
764.927	0.0145023
765.005	0.0144322
765.083	0.0145158
765.162	0.0145440
765.240	0.0145630
765.318	0.0143232
765.396	0.0145130
765.474	0.0145481
765.552	0.0145916
765.630	0.0143855
765.708	0.0143620
765.787	0.0144373
765.865	0.0144590
765.943	0.0144944
766.021	0.0145388
766.099	0.0144588
766.177	0.0145803
766.255	0.0145972
766.333	0.0143526
766.412	0.0145997
766.490	0.0144926
766.568	0.0145665
766.646	0.0145212
766.724	0.0144743
766.802	0.0144379
766.880	0.0145036
766.958	0.0145447
767.037	0.0144798
767.115	0.0144666
767.193	0.0145401
767.271	0.0144229
767.349	0.0144863
767.427	0.0145372
767.505	0.0143733
767.583	0.0144550
767.662	0.0143657
767.740	0.0143116
767.818	0.0143604
767.896	0.0144647
767.974	0.0145067
768.052	0.0144505
768.130	0.0144547
768.208	0.0144075
768.287	0.0144653
768.365	0.0144009
768.443	0.0144377
768.521	0.0145663
768.599	0.0145547
768.677	0.0144876
768.755	0.0144033
768.833	0.0144247
768.912	0.0145041
768.990	0.0145652
769.068	0.0144601
769.146	0.0145449
769.224	0.0145792
769.302	0.0143925
769.380	0.0145496
769.458	0.0145551
769.537	0.0144833
769.615	0.0145532
769.693	0.0143913
769.771	0.0144854
769.849	0.0143861
769.927	0.0143689
770.005	0.0144874
770.083	0.0144575
770.162	0.0145274
770.240	0.0144901
770.318	0.0145168
770.396	0.0143665
770.474	0.0143420
770.552	0.0146568
770.630	0.0145464
770.708	0.0143919
770.787	0.0146163
770.865	0.0146237
770.943	0.0145140
771.021	0.0146292
771.099	0.0145190
771.177	0.0144762
771.255	0.0145528
771.333	0.0145667
771.412	0.0145016
771.490	0.0146771
771.568	0.0145959
771.646	0.0142722
771.724	0.0144234
771.802	0.0145132
771.880	0.0144612
771.958	0.0145468
772.037	0.0146331
772.115	0.0144887
772.193	0.0145856
772.271	0.0145858
772.349	0.0146271
772.427	0.0146362
772.505	0.0145866
772.583	0.0145443
772.662	0.0144970
772.740	0.0146236
772.818	0.0146069
772.896	0.0145300
772.974	0.0144799
773.052	0.0145739
773.130	0.0143762
773.208	0.0146452
773.287	0.0146040
773.365	0.0145911
773.443	0.0146598
773.521	0.0145108
773.599	0.0145093
773.677	0.0145557
773.755	0.0146324
773.833	0.0145433
773.912	0.0144675
773.990	0.0146399
774.068	0.0146765
774.146	0.0148351
774.224	0.0145479
774.302	0.0144326
774.380	0.0146294
774.458	0.0145437
774.537	0.0144618
774.615	0.0145747
774.693	0.0145943
774.771	0.0145557
774.849	0.0146225
774.927	0.0145448
775.005	0.0144827
775.083	0.0145479
775.162	0.0145363
775.240	0.0144239
775.318	0.0144598
775.396	0.0145860
775.474	0.0146039
775.552	0.0145166
775.630	0.0145604
775.708	0.0144083
775.787	0.0144124
775.865	0.0144825
775.943	0.0144427
776.021	0.0145069
776.099	0.0143273
776.177	0.0144067
776.255	0.0145218
776.333	0.0143526
776.412	0.0144001
776.490	0.0145608
776.568	0.0144199
776.646	0.0145568
776.724	0.0145413
776.802	0.0145162
776.880	0.0145218
776.958	0.0145065
777.037	0.0145245
777.115	0.0147266
777.193	0.0147118
777.271	0.0145345
777.349	0.0145221
777.427	0.0146133
777.505	0.0145575
777.583	0.0145238
777.662	0.0144093
777.740	0.0146073
777.818	0.0146245
777.896	0.0143528
777.974	0.0144640
778.052	0.0144810
778.130	0.0145180
778.208	0.0145259
778.287	0.0144975
778.365	0.0145466
778.443	0.0145023
778.521	0.0145838
778.599	0.0145041
778.677	0.0144492
778.755	0.0145007
778.833	0.0144365
778.912	0.0143306
778.990	0.0144659
779.068	0.0143185
779.146	0.0145290
779.224	0.0144412
779.302	0.0143044
779.380	0.0142896
779.458	0.0144164
779.537	0.0144460
779.615	0.0144812
779.693	0.0143439
779.771	0.0142908
779.849	0.0144532
779.927	0.0145625
780.005	0.0144845
780.083	0.0143514
780.162	0.0142921
780.240	0.0144935
780.318	0.0145646
780.396	0.0144964
780.474	0.0145277
780.552	0.0144934
780.630	0.0144531
780.708	0.0146574
780.787	0.0145283
780.865	0.0144702
780.943	0.0145676
781.021	0.0145650
781.099	0.0145122
781.177	0.0145892
781.255	0.0146733
781.333	0.0145517
781.412	0.0145237
781.490	0.0145511
781.568	0.0144758
781.646	0.0146529
781.724	0.0146445
781.802	0.0145578
781.880	0.0144611
781.958	0.0145780
782.037	0.0144788
782.115	0.0145692
782.193	0.0145556
782.271	0.0145406
782.349	0.0145584
782.427	0.0145418
782.505	0.0145056
782.583	0.0147229
782.662	0.0145473
782.740	0.0144893
782.818	0.0146361
782.896	0.0146355
782.974	0.0146378
783.052	0.0146006
783.130	0.0146562
783.208	0.0145307
783.287	0.0145901
783.365	0.0146208
783.443	0.0145119
783.521	0.0146922
783.599	0.0144932
783.677	0.0146653
783.755	0.0146696
783.833	0.0145971
783.912	0.0145084
783.990	0.0145219
784.068	0.0145965
784.146	0.0144562
784.224	0.0146023
784.302	0.0145107
784.380	0.0144579
784.458	0.0142789
784.537	0.0144848
784.615	0.0145076
784.693	0.0144529
784.771	0.0144127
784.849	0.0143234
784.927	0.0144249
785.005	0.0144074
785.083	0.0144292
785.162	0.0143545
785.240	0.0144368
785.318	0.0145242
785.396	0.0144499
785.474	0.0145284
785.552	0.0143515
785.630	0.0146044
785.708	0.0145905
785.787	0.0145135
785.865	0.0144527
785.943	0.0145161
786.021	0.0145114
786.099	0.0144772
786.177	0.0144248
786.255	0.0144248
786.333	0.0144775
786.412	0.0146351
786.490	0.0144918
786.568	0.0145666
786.646	0.0145377
786.724	0.0144727
786.802	0.0145193
786.880	0.0144878
786.958	0.0145421
787.037	0.0144628
787.115	0.0145114
787.193	0.0145688
787.271	0.0145374
787.349	0.0145095
787.427	0.0145117
787.505	0.0145114
787.583	0.0145598
787.662	0.0144991
787.740	0.0144778
787.818	0.0144439
787.896	0.0146832
787.974	0.0144389
788.052	0.0145687
788.130	0.0144856
788.208	0.0144303
788.287	0.0145348
788.365	0.0145132
788.443	0.0145538
788.521	0.0144337
788.599	0.0144865
788.677	0.0144714
788.755	0.0144650
788.833	0.0142930
788.912	0.0144273
788.990	0.0144801
789.068	0.0145074
789.146	0.0144773
789.224	0.0143824
789.302	0.0142838
789.380	0.0144971
789.458	0.0144571
789.537	0.0144228
789.615	0.0143564
789.693	0.0144018
789.771	0.0144527
789.849	0.0144041
789.927	0.0144004
790.005	0.0145699
790.083	0.0145167
790.162	0.0144650
790.240	0.0144712
790.318	0.0144146
790.396	0.0145214
790.474	0.0145084
790.552	0.0143343
790.630	0.0144780
790.708	0.0145889
790.787	0.0143884
790.865	0.0144309
790.943	0.0144109
791.021	0.0143739
791.099	0.0144665
791.177	0.0144500
791.255	0.0142704
791.333	0.0143015
791.412	0.0143510
791.490	0.0143488
791.568	0.0144313
791.646	0.0143837
791.724	0.0142699
791.802	0.0144164
791.880	0.0142967
791.958	0.0143269
792.037	0.0143790
792.115	0.0144342
792.193	0.0144729
792.271	0.0144267
792.349	0.0143497
792.427	0.0143748
792.505	0.0144552
792.583	0.0144765
792.662	0.0143816
792.740	0.0144109
792.818	0.0144682
792.896	0.0144140
792.974	0.0145075
793.052	0.0145563
793.130	0.0144364
793.208	0.0143972
793.287	0.0144817
793.365	0.0146592
793.443	0.0145097
793.521	0.0145607
793.599	0.0144966
793.677	0.0144896
793.755	0.0145578
793.833	0.0145217
793.912	0.0145951
793.990	0.0144279
794.068	0.0144853
794.146	0.0144212
794.224	0.0144875
794.302	0.0144121
794.380	0.0144234
794.458	0.0145770
794.537	0.0145457
794.615	0.0143987
794.693	0.0144597
794.771	0.0144290
794.849	0.0144595
794.927	0.0145773
795.005	0.0146575
795.083	0.0143929
795.162	0.0144956
795.240	0.0146054
795.318	0.0144995
795.396	0.0145105
795.474	0.0144971
795.552	0.0144812
795.630	0.0144959
795.708	0.0145640
795.787	0.0146669
795.865	0.0145619
795.943	0.0145771
796.021	0.0145015
796.099	0.0143992
796.177	0.0145251
796.255	0.0144665
796.333	0.0144647
796.412	0.0145392
796.490	0.0146083
796.568	0.0145187
796.646	0.0145065
796.724	0.0145222
796.802	0.0146449
796.880	0.0145168
796.958	0.0145038
797.037	0.0145285
797.115	0.0146459
797.193	0.0145967
797.271	0.0145820
797.349	0.0146947
797.427	0.0145643
797.505	0.0146415
797.583	0.0144769
797.662	0.0145781
797.740	0.0145722
797.818	0.0145957
797.896	0.0146500
797.974	0.0146357
798.052	0.0145375
798.130	0.0145479
798.208	0.0145979
798.287	0.0146716
798.365	0.0145802
798.443	0.0144661
798.521	0.0145980
798.599	0.0144476
798.677	0.0145689
798.755	0.0143913
798.833	0.0143355
798.912	0.0143942
798.990	0.0144030
799.068	0.0144845
799.146	0.0143285
799.224	0.0142709
799.302	0.0143445
799.380	0.0143130
799.458	0.0143894
799.537	0.0143382
799.615	0.0144240
799.693	0.0142461
799.771	0.0144926
799.849	0.0143887
799.927	0.0144003
800.005	0.0143818
800.083	0.0144289
800.162	0.0145263
800.240	0.0144488
800.318	0.0143845
800.396	0.0144202
800.474	0.0144067
800.552	0.0144263
800.630	0.0144605
800.708	0.0142779
800.787	0.0142569
800.865	0.0145435
800.943	0.0145926
801.021	0.0144838
801.099	0.0142757
801.177	0.0143716
801.255	0.0142938
801.333	0.0143946
801.412	0.0145473
801.490	0.0145317
801.568	0.0144792
801.646	0.0145094
801.724	0.0143996
801.802	0.0146175
801.880	0.0146324
801.958	0.0145815
802.037	0.0144011
802.115	0.0144099
802.193	0.0144391
802.271	0.0145287
802.349	0.0145697
802.427	0.0144526
802.505	0.0144445
802.583	0.0144512
802.662	0.0145193
802.740	0.0144985
802.818	0.0145595
802.896	0.0144977
802.974	0.0143813
803.052	0.0144268
803.130	0.0145578
803.208	0.0144227
803.287	0.0143643
803.365	0.0144601
803.443	0.0145605
803.521	0.0144881
803.599	0.0145911
803.677	0.0144173
803.755	0.0143951
803.833	0.0144281
803.912	0.0144646
803.990	0.0146278
804.068	0.0145564
804.146	0.0144189
804.224	0.0145348
804.302	0.0144889
804.380	0.0144958
804.458	0.0146034
804.537	0.0146015
804.615	0.0145109
804.693	0.0146587
804.771	0.0145557
804.849	0.0146184
804.927	0.0145191
805.005	0.0145063
805.083	0.0144552
805.162	0.0145308
805.240	0.0146535
805.318	0.0145119
805.396	0.0144717
805.474	0.0144183
805.552	0.0145915
805.630	0.0146058
805.708	0.0144354
805.787	0.0145087
805.865	0.0144709
805.943	0.0145543
806.021	0.0143549
806.099	0.0144579
806.177	0.0144499
806.255	0.0144439
806.333	0.0145197
806.412	0.0146044
806.490	0.0146382
806.568	0.0145550
806.646	0.0144975
806.724	0.0145213
806.802	0.0143830
806.880	0.0144736
806.958	0.0144190
807.037	0.0143761
807.115	0.0145895
807.193	0.0145922
807.271	0.0145171
807.349	0.0144766
807.427	0.0144433
807.505	0.0145103
807.583	0.0145858
807.662	0.0145188
807.740	0.0144776
807.818	0.0145276
807.896	0.0143433
807.974	0.0145361
808.052	0.0147070
808.130	0.0145004
808.208	0.0144563
808.287	0.0143959
808.365	0.0144168
808.443	0.0146141
808.521	0.0145857
808.599	0.0146042
808.677	0.0145712
808.755	0.0145391
808.833	0.0144315
808.912	0.0145311
808.990	0.0146301
809.068	0.0144655
809.146	0.0146040
809.224	0.0146306
809.302	0.0145190
809.380	0.0144846
809.458	0.0144954
809.537	0.0144000
809.615	0.0144127
809.693	0.0143954
809.771	0.0144830
809.849	0.0143729
809.927	0.0143668
810.005	0.0144640
810.083	0.0144183
810.162	0.0144328
810.240	0.0144711
810.318	0.0144802
810.396	0.0144666
810.474	0.0144215
810.552	0.0144252
810.630	0.0143259
810.708	0.0144246
810.787	0.0143585
810.865	0.0143351
810.943	0.0142552
811.021	0.0144685
811.099	0.0143182
811.177	0.0143441
811.255	0.0143211
811.333	0.0144463
811.412	0.0143877
811.490	0.0145686
811.568	0.0143288
811.646	0.0143457
811.724	0.0143983
811.802	0.0144882
811.880	0.0144570
811.958	0.0143679
812.037	0.0143029
812.115	0.0144894
812.193	0.0145204
812.271	0.0144833
812.349	0.0143353
812.427	0.0143431
812.505	0.0143654
812.583	0.0145664
812.662	0.0143951
812.740	0.0142909
812.818	0.0142416
812.896	0.0143550
812.974	0.0143983
813.052	0.0143408
813.130	0.0143774
813.208	0.0144086
813.287	0.0143961
813.365	0.0143920
813.443	0.0144159
813.521	0.0144605
813.599	0.0142772
813.677	0.0144172
813.755	0.0143192
813.833	0.0144509
813.912	0.0144491
813.990	0.0145142
814.068	0.0145364
814.146	0.0144748
814.224	0.0145553
814.302	0.0145027
814.380	0.0144620
814.458	0.0144456
814.537	0.0144160
814.615	0.0144052
814.693	0.0145232
814.771	0.0145599
814.849	0.0144704
814.927	0.0144386
815.005	0.0144459
815.083	0.0145375
815.162	0.0144503
815.240	0.0144132
815.318	0.0144830
815.396	0.0144991
815.474	0.0143800
815.552	0.0144448
815.630	0.0144272
815.708	0.0144807
815.787	0.0146742
815.865	0.0144971
815.943	0.0144744
816.021	0.0144080
816.099	0.0145110
816.177	0.0145770
816.255	0.0146264
816.333	0.0143891
816.412	0.0144693
816.490	0.0145273
816.568	0.0145676
816.646	0.0145470
816.724	0.0144576
816.802	0.0145437
816.880	0.0145528
816.958	0.0145210
817.037	0.0144035
817.115	0.0145110
817.193	0.0144067
817.271	0.0145180
817.349	0.0145245
817.427	0.0145400
817.505	0.0143594
817.583	0.0145071
817.662	0.0144335
817.740	0.0144044
817.818	0.0144930
817.896	0.0145718
817.974	0.0145186
818.052	0.0144979
818.130	0.0144313
818.208	0.0144727
818.287	0.0143549
818.365	0.0143679
818.443	0.0144564
818.521	0.0144997
818.599	0.0145947
818.677	0.0144698
818.755	0.0145914
818.833	0.0145689
818.912	0.0145293
818.990	0.0144816
819.068	0.0144884
819.146	0.0144552
819.224	0.0144925
819.302	0.0144963
819.380	0.0143261
819.458	0.0145103
819.537	0.0145801
819.615	0.0144292
819.693	0.0145362
819.771	0.0144778
819.849	0.0145756
819.927	0.0144592
820.005	0.0143400
820.083	0.0144062
820.162	0.0145135
820.240	0.0146529
820.318	0.0144879
820.396	0.0144338
820.474	0.0144265
820.552	0.0144743
820.630	0.0144556
820.708	0.0143567
820.787	0.0144527
820.865	0.0144850
820.943	0.0144654
821.021	0.0144709
821.099	0.0144390
821.177	0.0143469
821.255	0.0144305
821.333	0.0144121
821.412	0.0144225
821.490	0.0145880
821.568	0.0144822
821.646	0.0145321
821.724	0.0144735
821.802	0.0143719
821.880	0.0144418
821.958	0.0143764
822.037	0.0145058
822.115	0.0145809
822.193	0.0144232
822.271	0.0144661
822.349	0.0143835
822.427	0.0145174
822.505	0.0143610
822.583	0.0143578
822.662	0.0143629
822.740	0.0144173
822.818	0.0143947
822.896	0.0143405
822.974	0.0143864
823.052	0.0144772
823.130	0.0145184
823.208	0.0143586
823.287	0.0145767
823.365	0.0144527
823.443	0.0143367
823.521	0.0143458
823.599	0.0144031
823.677	0.0144740
823.755	0.0144626
823.833	0.0143290
823.912	0.0145215
823.990	0.0144094
824.068	0.0143550
824.146	0.0144304
824.224	0.0145055
824.302	0.0144456
824.380	0.0144794
824.458	0.0145254
824.537	0.0145360
824.615	0.0144856
824.693	0.0144609
824.771	0.0146076
824.849	0.0145940
824.927	0.0144837
825.005	0.0144889
825.083	0.0145193
825.162	0.0145565
825.240	0.0145021
825.318	0.0144429
825.396	0.0144393
825.474	0.0145976
825.552	0.0144888
825.630	0.0145611
825.708	0.0146375
825.787	0.0145423
825.865	0.0145357
825.943	0.0146729
826.021	0.0144350
826.099	0.0145889
826.177	0.0145034
826.255	0.0146262
826.333	0.0145266
826.412	0.0146035
826.490	0.0145341
826.568	0.0144463
826.646	0.0145588
826.724	0.0144337
826.802	0.0144770
826.880	0.0145065
826.958	0.0144498
827.037	0.0144586
827.115	0.0144124
827.193	0.0145087
827.271	0.0145282
827.349	0.0144347
827.427	0.0145585
827.505	0.0145614
827.583	0.0145342
827.662	0.0144140
827.740	0.0144668
827.818	0.0145803
827.896	0.0144317
827.974	0.0144762
828.052	0.0145502
828.130	0.0145277
828.208	0.0144854
828.287	0.0146602
828.365	0.0145945
828.443	0.0144765
828.521	0.0143757
828.599	0.0144537
828.677	0.0145417
828.755	0.0143752
828.833	0.0144997
828.912	0.0145586
828.990	0.0145791
829.068	0.0145176
829.146	0.0144775
829.224	0.0144450
829.302	0.0144860
829.380	0.0144273
829.458	0.0145447
829.537	0.0144568
829.615	0.0144328
829.693	0.0145068
829.771	0.0145647
829.849	0.0146388
829.927	0.0144740
830.005	0.0144731
830.083	0.0144440
830.162	0.0144016
830.240	0.0145793
830.318	0.0144272
830.396	0.0145556
830.474	0.0146202
830.552	0.0144524
830.630	0.0144588
830.708	0.0146007
830.787	0.0145692
830.865	0.0144091
830.943	0.0145583
831.021	0.0144196
831.099	0.0144759
831.177	0.0143479
831.255	0.0144890
831.333	0.0145016
831.412	0.0143902
831.490	0.0145484
831.568	0.0144756
831.646	0.0143789
831.724	0.0145263
831.802	0.0144667
831.880	0.0146793
831.958	0.0144800
832.037	0.0144136
832.115	0.0145889
832.193	0.0145107
832.271	0.0145630
832.349	0.0145496
832.427	0.0145061
832.505	0.0145154
832.583	0.0143786
832.662	0.0143679
832.740	0.0144570
832.818	0.0144664
832.896	0.0146152
832.974	0.0145676
833.052	0.0143252
833.130	0.0145182
833.208	0.0145431
833.287	0.0145579
833.365	0.0144539
833.443	0.0144122
833.521	0.0145389
833.599	0.0145358
833.677	0.0144740
833.755	0.0146223
833.833	0.0144170
833.912	0.0144624
833.990	0.0144794
834.068	0.0144884
834.146	0.0144803
834.224	0.0146108
834.302	0.0144572
834.380	0.0145340
834.458	0.0145016
834.537	0.0145318
834.615	0.0145911
834.693	0.0144353
834.771	0.0143807
834.849	0.0144880
834.927	0.0144694
835.005	0.0144411
835.083	0.0144382
835.162	0.0145023
835.240	0.0144303
835.318	0.0145074
835.396	0.0145118
835.474	0.0145200
835.552	0.0144451
835.630	0.0143307
835.708	0.0143909
835.787	0.0143119
835.865	0.0144039
835.943	0.0144380
836.021	0.0144041
836.099	0.0145780
836.177	0.0145071
836.255	0.0145020
836.333	0.0144976
836.412	0.0144175
836.490	0.0143999
836.568	0.0143285
836.646	0.0144412
836.724	0.0145406
836.802	0.0146236
836.880	0.0143987
836.958	0.0143813
837.037	0.0144102
837.115	0.0145251
837.193	0.0145541
837.271	0.0143451
837.349	0.0144450
837.427	0.0145158
837.505	0.0143796
837.583	0.0145902
837.662	0.0145979
837.740	0.0144063
837.818	0.0144997
837.896	0.0143983
837.974	0.0145538
838.052	0.0144606
838.130	0.0143934
838.208	0.0145100
838.287	0.0143754
838.365	0.0145414
838.443	0.0145514
838.521	0.0144218
838.599	0.0145816
838.677	0.0146557
838.755	0.0145429
838.833	0.0144396
838.912	0.0145118
838.990	0.0144863
839.068	0.0146263
839.146	0.0145028
839.224	0.0144508
839.302	0.0145622
839.380	0.0145270
839.458	0.0146059
839.537	0.0145728
839.615	0.0144800
839.693	0.0146039
839.771	0.0145840
839.849	0.0145592
839.927	0.0144749
840.005	0.0146949
840.083	0.0144614
840.162	0.0145076
840.240	0.0145316
840.318	0.0145998
840.396	0.0144377
840.474	0.0145539
840.552	0.0145488
840.630	0.0144591
840.708	0.0145752
840.787	0.0143771
840.865	0.0144239
840.943	0.0143987
841.021	0.0145126
841.099	0.0143511
841.177	0.0144207
841.255	0.0144485
841.333	0.0143907
841.412	0.0143236
841.490	0.0145945
841.568	0.0145328
841.646	0.0145795
841.724	0.0144038
841.802	0.0144006
841.880	0.0144844
841.958	0.0144335
842.037	0.0144186
842.115	0.0144927
842.193	0.0144789
842.271	0.0144535
842.349	0.0145296
842.427	0.0145364
842.505	0.0144170
842.583	0.0143231
842.662	0.0144658
842.740	0.0144650
842.818	0.0143501
842.896	0.0145374
842.974	0.0143721
843.052	0.0144437
843.130	0.0144052
843.208	0.0144662
843.287	0.0143195
843.365	0.0143809
843.443	0.0143904
843.521	0.0144621
843.599	0.0144835
843.677	0.0144098
843.755	0.0145237
843.833	0.0144009
843.912	0.0143684
843.990	0.0143508
844.068	0.0144120
844.146	0.0144100
844.224	0.0144741
844.302	0.0145824
844.380	0.0145496
844.458	0.0143155
844.537	0.0145507
844.615	0.0143437
844.693	0.0145760
844.771	0.0144669
844.849	0.0142279
844.927	0.0143682
845.005	0.0145188
845.083	0.0144233
845.162	0.0144287
845.240	0.0144324
845.318	0.0142974
845.396	0.0143624
845.474	0.0144552
845.552	0.0143095
845.630	0.0143008
845.708	0.0144276
845.787	0.0141280
845.865	0.0142989
845.943	0.0143964
846.021	0.0142266
846.099	0.0141695
846.177	0.0143593
846.255	0.0143700
846.333	0.0142908
846.412	0.0143633
846.490	0.0144112
846.568	0.0142827
846.646	0.0144708
846.724	0.0145385
846.802	0.0143928
846.880	0.0144752
846.958	0.0143349
847.037	0.0143767
847.115	0.0143849
847.193	0.0144624
847.271	0.0145155
847.349	0.0144951
847.427	0.0144717
847.505	0.0144043
847.583	0.0144648
847.662	0.0144279
847.740	0.0143732
847.818	0.0144082
847.896	0.0143327
847.974	0.0144273
848.052	0.0145065
848.130	0.0143752
848.208	0.0145451
848.287	0.0144044
848.365	0.0144585
848.443	0.0145020
848.521	0.0144392
848.599	0.0144855
848.677	0.0145999
848.755	0.0144493
848.833	0.0144421
848.912	0.0144350
848.990	0.0145346
849.068	0.0144763
849.146	0.0144185
849.224	0.0143682
849.302	0.0144939
849.380	0.0144324
849.458	0.0143974
849.537	0.0144904
849.615	0.0144863
849.693	0.0144980
849.771	0.0144161
849.849	0.0144816
849.927	0.0143680
850.005	0.0144222
850.083	0.0144688
850.162	0.0144946
850.240	0.0144535
850.318	0.0144827
850.396	0.0145746
850.474	0.0145123
850.552	0.0144597
850.630	0.0145412
850.708	0.0145106
850.787	0.0144599
850.865	0.0145969
850.943	0.0146066
851.021	0.0145279
851.099	0.0145097
851.177	0.0146091
851.255	0.0146957
851.333	0.0145299
851.412	0.0146365
851.490	0.0146581
851.568	0.0144581
851.646	0.0145921
851.724	0.0145253
851.802	0.0145535
851.880	0.0146252
851.958	0.0144392
852.037	0.0146154
852.115	0.0144659
852.193	0.0144475
852.271	0.0145761
852.349	0.0145275
852.427	0.0144854
852.505	0.0143793
852.583	0.0144292
852.662	0.0145731
852.740	0.0145787
852.818	0.0145216
852.896	0.0144476
852.974	0.0144469
853.052	0.0145582
853.130	0.0145322
853.208	0.0144856
853.287	0.0146002
853.365	0.0145768
853.443	0.0145024
853.521	0.0144621
853.599	0.0145466
853.677	0.0146081
853.755	0.0146300
853.833	0.0145128
853.912	0.0145494
853.990	0.0145410
854.068	0.0144854
854.146	0.0145378
854.224	0.0146816
854.302	0.0146167
854.380	0.0145929
854.458	0.0145130
854.537	0.0144376
854.615	0.0145560
854.693	0.0144910
854.771	0.0145228
854.849	0.0145160
854.927	0.0145010
855.005	0.0144659
855.083	0.0144887
855.162	0.0145831
855.240	0.0144817
855.318	0.0144747
855.396	0.0144637
855.474	0.0144761
855.552	0.0144910
855.630	0.0146735
855.708	0.0147010
855.787	0.0146311
855.865	0.0146033
855.943	0.0145098
856.021	0.0145918
856.099	0.0144101
856.177	0.0145473
856.255	0.0145859
856.333	0.0144758
856.412	0.0144858
856.490	0.0145394
856.568	0.0145471
856.646	0.0144836
856.724	0.0145215
856.802	0.0144337
856.880	0.0145480
856.958	0.0144198
857.037	0.0145636
857.115	0.0144838
857.193	0.0144724
857.271	0.0146626
857.349	0.0144559
857.427	0.0144420
857.505	0.0144285
857.583	0.0144443
857.662	0.0145840
857.740	0.0145715
857.818	0.0145734
857.896	0.0144223
857.974	0.0144409
858.052	0.0145353
858.130	0.0144905
858.208	0.0144579
858.287	0.0144831
858.365	0.0144570
858.443	0.0145501
858.521	0.0145006
858.599	0.0145721
858.677	0.0145402
858.755	0.0145004
858.833	0.0145010
858.912	0.0146094
858.990	0.0146222
859.068	0.0145087
859.146	0.0143726
859.224	0.0143817
859.302	0.0145280
859.380	0.0144002
859.458	0.0144535
859.537	0.0146160
859.615	0.0143962
859.693	0.0144197
859.771	0.0145654
859.849	0.0143847
859.927	0.0144110
860.005	0.0145527
860.083	0.0145542
860.162	0.0146038
860.240	0.0145267
860.318	0.0144842
860.396	0.0145011
860.474	0.0145946
860.552	0.0145307
860.630	0.0144830
860.708	0.0144978
860.787	0.0146461
860.865	0.0144645
860.943	0.0144657
861.021	0.0145531
861.099	0.0145631
861.177	0.0145435
861.255	0.0145393
861.333	0.0145464
861.412	0.0145455
861.490	0.0144728
861.568	0.0144610
861.646	0.0144318
861.724	0.0144463
861.802	0.0145863
861.880	0.0144604
861.958	0.0145831
862.037	0.0145314
862.115	0.0145634
862.193	0.0145354
862.271	0.0145353
862.349	0.0145520
862.427	0.0145296
862.505	0.0146195
862.583	0.0146732
862.662	0.0145745
862.740	0.0146223
862.818	0.0144597
862.896	0.0144249
862.974	0.0145442
863.052	0.0145020
863.130	0.0145316
863.208	0.0146509
863.287	0.0144698
863.365	0.0145906
863.443	0.0146197
863.521	0.0144144
863.599	0.0145142
863.677	0.0145806
863.755	0.0145983
863.833	0.0145421
863.912	0.0144710
863.990	0.0146047
864.068	0.0143982
864.146	0.0144147
864.224	0.0144280
864.302	0.0143945
864.380	0.0144726
864.458	0.0145719
864.537	0.0143919
864.615	0.0145211
864.693	0.0145168
864.771	0.0145107
864.849	0.0144210
864.927	0.0143533
865.005	0.0146342
865.083	0.0144517
865.162	0.0145383
865.240	0.0144498
865.318	0.0145319
865.396	0.0144477
865.474	0.0144930
865.552	0.0144851
865.630	0.0144303
865.708	0.0144894
865.787	0.0144004
865.865	0.0143950
865.943	0.0143552
866.021	0.0145017
866.099	0.0145013
866.177	0.0143695
866.255	0.0144295
866.333	0.0145228
866.412	0.0144489
866.490	0.0145155
866.568	0.0143525
866.646	0.0145052
866.724	0.0145045
866.802	0.0144201
866.880	0.0144218
866.958	0.0145211
867.037	0.0143656
867.115	0.0144022
867.193	0.0144144
867.271	0.0145568
867.349	0.0144814
867.427	0.0144511
867.505	0.0145230
867.583	0.0143346
867.662	0.0144563
867.740	0.0144292
867.818	0.0143854
867.896	0.0144654
867.974	0.0145766
868.052	0.0145504
868.130	0.0144810
868.208	0.0145235
868.287	0.0145750
868.365	0.0143967
868.443	0.0143732
868.521	0.0144779
868.599	0.0144675
868.677	0.0144172
868.755	0.0142765
868.833	0.0144346
868.912	0.0144326
868.990	0.0144641
869.068	0.0143314
869.146	0.0143966
869.224	0.0145592
869.302	0.0145358
869.380	0.0144592
869.458	0.0144827
869.537	0.0145723
869.615	0.0145783
869.693	0.0144441
869.771	0.0145045
869.849	0.0144513
869.927	0.0143983
870.005	0.0144550
870.083	0.0144569
870.162	0.0143269
870.240	0.0143341
870.318	0.0144357
870.396	0.0143912
870.474	0.0144711
870.552	0.0143396
870.630	0.0142577
870.708	0.0144487
870.787	0.0144942
870.865	0.0143774
870.943	0.0144862
871.021	0.0144897
871.099	0.0144707
871.177	0.0144501
871.255	0.0146216
871.333	0.0143433
871.412	0.0144537
871.490	0.0143909
871.568	0.0142979
871.646	0.0145715
871.724	0.0143562
871.802	0.0144462
871.880	0.0143747
871.958	0.0144337
872.037	0.0145043
872.115	0.0144794
872.193	0.0145408
872.271	0.0143223
872.349	0.0145080
872.427	0.0145068
872.505	0.0145827
872.583	0.0146149
872.662	0.0145115
872.740	0.0146363
872.818	0.0144670
872.896	0.0144095
872.974	0.0146648
873.052	0.0146142
873.130	0.0144598
873.208	0.0144880
873.287	0.0144746
873.365	0.0144847
873.443	0.0143542
873.521	0.0144307
873.599	0.0144197
873.677	0.0143047
873.755	0.0145020
873.833	0.0143586
873.912	0.0144725
873.990	0.0146360
874.068	0.0146380
874.146	0.0145045
874.224	0.0145483
874.302	0.0145436
874.380	0.0145598
874.458	0.0145671
874.537	0.0145878
874.615	0.0145739
874.693	0.0144616
874.771	0.0145489
874.849	0.0145331
874.927	0.0144711
875.005	0.0146104
875.083	0.0143660
875.162	0.0143724
875.240	0.0144270
875.318	0.0143417
875.396	0.0143172
875.474	0.0143329
875.552	0.0144265
875.630	0.0145130
875.708	0.0144097
875.787	0.0144979
875.865	0.0144927
875.943	0.0144712
876.021	0.0145309
876.099	0.0146031
876.177	0.0145555
876.255	0.0146317
876.333	0.0145678
876.412	0.0145367
876.490	0.0145309
876.568	0.0144563
876.646	0.0145103
876.724	0.0146465
876.802	0.0145066
876.880	0.0144444
876.958	0.0144600
877.037	0.0144481
877.115	0.0145157
877.193	0.0145325
877.271	0.0144601
877.349	0.0144135
877.427	0.0144498
877.505	0.0145255
877.583	0.0146262
877.662	0.0145729
877.740	0.0145033
877.818	0.0145380
877.896	0.0143361
877.974	0.0143771
878.052	0.0144048
878.130	0.0144050
878.208	0.0144322
878.287	0.0143655
878.365	0.0144232
878.443	0.0144420
878.521	0.0144041
878.599	0.0144466
878.677	0.0143922
878.755	0.0145146
878.833	0.0146181
878.912	0.0146397
878.990	0.0145155
879.068	0.0144444
879.146	0.0146054
879.224	0.0146476
879.302	0.0145771
879.380	0.0146264
879.458	0.0145900
879.537	0.0144580
879.615	0.0143601
879.693	0.0143933
879.771	0.0144951
879.849	0.0142651
879.927	0.0144259
880.005	0.0144500
880.083	0.0144470
880.162	0.0143980
880.240	0.0144573
880.318	0.0145031
880.396	0.0144714
880.474	0.0143942
880.552	0.0146533
880.630	0.0144299
880.708	0.0145042
880.787	0.0145616
880.865	0.0145258
880.943	0.0144889
881.021	0.0145689
881.099	0.0145978
881.177	0.0144463
881.255	0.0144734
881.333	0.0142558
881.412	0.0144373
881.490	0.0144536
881.568	0.0144460
881.646	0.0144245
881.724	0.0144930
881.802	0.0144376
881.880	0.0145300
881.958	0.0144413
882.037	0.0146019
882.115	0.0145625
882.193	0.0145626
882.271	0.0143099
882.349	0.0144431
882.427	0.0145363
882.505	0.0145658
882.583	0.0144982
882.662	0.0144421
882.740	0.0144666
882.818	0.0145670
882.896	0.0143604
882.974	0.0144715
883.052	0.0144569
883.130	0.0142549
883.208	0.0142543
883.287	0.0144032
883.365	0.0143441
883.443	0.0143481
883.521	0.0144289
883.599	0.0143754
883.677	0.0142057
883.755	0.0144588
883.833	0.0144099
883.912	0.0145325
883.990	0.0145031
884.068	0.0142911
884.146	0.0145400
884.224	0.0145355
884.302	0.0144133
884.380	0.0143776
884.458	0.0144003
884.537	0.0144848
884.615	0.0143231
884.693	0.0145669
884.771	0.0144364
884.849	0.0145200
884.927	0.0145088
885.005	0.0144225
885.083	0.0144095
885.162	0.0144573
885.240	0.0144743
885.318	0.0145534
885.396	0.0146530
885.474	0.0144863
885.552	0.0144808
885.630	0.0145980
885.708	0.0143621
885.787	0.0145043
885.865	0.0144967
885.943	0.0144608
886.021	0.0145588
886.099	0.0146230
886.177	0.0145233
886.255	0.0145114
886.333	0.0145370
886.412	0.0146304
886.490	0.0144878
886.568	0.0145952
886.646	0.0144734
886.724	0.0144778
886.802	0.0145391
886.880	0.0144302
886.958	0.0143950
887.037	0.0144826
887.115	0.0144732
887.193	0.0144820
887.271	0.0144271
887.349	0.0145461
887.427	0.0145849
887.505	0.0144958
887.583	0.0146325
887.662	0.0144344
887.740	0.0144316
887.818	0.0145669
887.896	0.0145118
887.974	0.0145058
888.052	0.0146025
888.130	0.0144342
888.208	0.0144247
888.287	0.0143813
888.365	0.0145094
888.443	0.0143644
888.521	0.0145916
888.599	0.0145170
888.677	0.0144863
888.755	0.0143581
888.833	0.0145242
888.912	0.0144836
888.990	0.0145092
889.068	0.0146250
889.146	0.0145006
889.224	0.0145268
889.302	0.0145034
889.380	0.0144830
889.458	0.0143499
889.537	0.0145000
889.615	0.0145682
889.693	0.0144611
889.771	0.0144968
889.849	0.0143977
889.927	0.0141946
890.005	0.0144014
890.083	0.0144604
890.162	0.0144515
890.240	0.0145809
890.318	0.0144892
890.396	0.0146233
890.474	0.0145179
890.552	0.0143586
890.630	0.0144851
890.708	0.0144371
890.787	0.0143454
890.865	0.0145026
890.943	0.0144822
891.021	0.0144183
891.099	0.0144985
891.177	0.0144022
891.255	0.0146045
891.333	0.0143682
891.412	0.0143544
891.490	0.0143906
891.568	0.0144477
891.646	0.0142766
891.724	0.0144456
891.802	0.0144087
891.880	0.0142274
891.958	0.0143558
892.037	0.0143942
892.115	0.0144748
892.193	0.0143665
892.271	0.0144224
892.349	0.0143599
892.427	0.0144218
892.505	0.0145290
892.583	0.0145244
892.662	0.0146388
892.740	0.0145473
892.818	0.0144287
892.896	0.0145258
892.974	0.0145264
893.052	0.0143895
893.130	0.0146024
893.208	0.0145301
893.287	0.0143732
893.365	0.0143902
893.443	0.0144335
893.521	0.0144327
893.599	0.0142939
893.677	0.0143509
893.755	0.0143295
893.833	0.0144350
893.912	0.0144187
893.990	0.0144247
894.068	0.0143329
894.146	0.0142947
894.224	0.0144226
894.302	0.0145265
894.380	0.0144849
894.458	0.0144778
894.537	0.0144069
894.615	0.0143881
894.693	0.0143310
894.771	0.0143852
894.849	0.0144684
894.927	0.0142789
895.005	0.0144245
895.083	0.0144833
895.162	0.0144767
895.240	0.0146731
895.318	0.0146257
895.396	0.0145595
895.474	0.0146662
895.552	0.0144842
895.630	0.0145520
895.708	0.0146151
895.787	0.0144832
895.865	0.0145907
895.943	0.0146510
896.021	0.0145903
896.099	0.0145226
896.177	0.0144157
896.255	0.0144879
896.333	0.0144462
896.412	0.0145168
896.490	0.0144091
896.568	0.0145210
896.646	0.0145418
896.724	0.0145180
896.802	0.0144737
896.880	0.0143477
896.958	0.0145260
897.037	0.0145237
897.115	0.0147289
897.193	0.0146080
897.271	0.0143902
897.349	0.0145145
897.427	0.0145407
897.505	0.0146161
897.583	0.0144630
897.662	0.0145966
897.740	0.0144822
897.818	0.0145221
897.896	0.0144994
897.974	0.0145305
898.052	0.0146365
898.130	0.0146397
898.208	0.0144666
898.287	0.0144514
898.365	0.0145118
898.443	0.0144589
898.521	0.0144469
898.599	0.0145663
898.677	0.0145496
898.755	0.0144278
898.833	0.0143679
898.912	0.0145631
898.990	0.0143468
899.068	0.0143187
899.146	0.0144855
899.224	0.0142793
899.302	0.0143295
899.380	0.0143503
899.458	0.0142397
899.537	0.0143236
899.615	0.0145710
899.693	0.0144572
899.771	0.0145151
899.849	0.0144506
899.927	0.0144217
900.005	0.0144854
900.083	0.0144320
900.162	0.0145822
900.240	0.0144834
900.318	0.0145516
900.396	0.0146024
900.474	0.0145047
900.552	0.0145068
900.630	0.0143495
900.708	0.0144505
900.787	0.0143626
900.865	0.0143969
900.943	0.0145854
901.021	0.0144559
901.099	0.0143569
901.177	0.0143865
901.255	0.0144712
901.333	0.0145278
901.412	0.0143324
901.490	0.0143324
901.568	0.0145399
901.646	0.0143668
901.724	0.0144189
901.802	0.0143977
901.880	0.0143829
901.958	0.0142834
902.037	0.0143862
902.115	0.0143444
902.193	0.0145623
902.271	0.0143543
902.349	0.0144135
902.427	0.0145062
902.505	0.0144819
902.583	0.0145082
902.662	0.0145646
902.740	0.0144585
902.818	0.0145501
902.896	0.0143451
902.974	0.0146152
903.052	0.0147121
903.130	0.0146343
903.208	0.0145443
903.287	0.0144483
903.365	0.0145174
903.443	0.0144544
903.521	0.0144895
903.599	0.0143130
903.677	0.0145269
903.755	0.0144331
903.833	0.0144093
903.912	0.0144035
903.990	0.0145204
904.068	0.0144188
904.146	0.0144733
904.224	0.0145829
904.302	0.0144475
904.380	0.0145277
904.458	0.0144944
904.537	0.0144098
904.615	0.0145444
904.693	0.0145296
904.771	0.0144705
904.849	0.0144267
904.927	0.0145108
905.005	0.0145032
905.083	0.0145502
905.162	0.0145525
905.240	0.0145131
905.318	0.0145902
905.396	0.0146690
905.474	0.0145332
905.552	0.0145303
905.630	0.0145418
905.708	0.0145174
905.787	0.0144598
905.865	0.0144609
905.943	0.0144682
906.021	0.0144316
906.099	0.0145962
906.177	0.0145668
906.255	0.0144313
906.333	0.0144432
906.412	0.0143766
906.490	0.0145483
906.568	0.0143903
906.646	0.0144617
906.724	0.0144945
906.802	0.0143801
906.880	0.0144331
906.958	0.0144370
907.037	0.0144875
907.115	0.0144665
907.193	0.0143054
907.271	0.0145232
907.349	0.0145726
907.427	0.0144366
907.505	0.0144758
907.583	0.0145111
907.662	0.0145292
907.740	0.0144240
907.818	0.0143166
907.896	0.0143834
907.974	0.0144287
908.052	0.0143994
908.130	0.0145554
908.208	0.0145546
908.287	0.0145513
908.365	0.0144067
908.443	0.0144699
908.521	0.0143920
908.599	0.0143272
908.677	0.0145039
908.755	0.0143837
908.833	0.0144810
908.912	0.0143027
908.990	0.0144102
909.068	0.0145086
909.146	0.0144183
909.224	0.0144309
909.302	0.0143979
909.380	0.0145225
909.458	0.0145607
909.537	0.0145045
909.615	0.0145399
909.693	0.0144006
909.771	0.0144435
909.849	0.0144629
909.927	0.0144703
910.005	0.0144604
910.083	0.0144007
910.162	0.0145288
910.240	0.0143964
910.318	0.0144563
910.396	0.0143933
910.474	0.0143418
910.552	0.0145021
910.630	0.0144041
910.708	0.0143972
910.787	0.0144177
910.865	0.0144215
910.943	0.0144396
911.021	0.0145892
911.099	0.0144643
911.177	0.0143658
911.255	0.0145107
911.333	0.0144073
911.412	0.0143102
911.490	0.0143547
911.568	0.0144960
911.646	0.0145342
911.724	0.0142452
911.802	0.0143476
911.880	0.0143695
911.958	0.0144459
912.037	0.0144778
912.115	0.0143577
912.193	0.0145100
912.271	0.0144228
912.349	0.0144851
912.427	0.0144064
912.505	0.0144660
912.583	0.0145243
912.662	0.0144780
912.740	0.0145890
912.818	0.0144580
912.896	0.0145574
912.974	0.0146450
913.052	0.0144420
913.130	0.0145831
913.208	0.0143848
913.287	0.0146210
913.365	0.0145131
913.443	0.0144211
913.521	0.0146591
913.599	0.0145788
913.677	0.0144063
913.755	0.0143224
913.833	0.0145257
913.912	0.0144928
913.990	0.0144571
914.068	0.0145086
914.146	0.0145013
914.224	0.0144539
914.302	0.0145235
914.380	0.0146164
914.458	0.0144791
914.537	0.0145685
914.615	0.0145528
914.693	0.0144912
914.771	0.0145105
914.849	0.0145273
914.927	0.0144445
915.005	0.0142605
915.083	0.0145396
915.162	0.0145210
915.240	0.0144145
915.318	0.0144811
915.396	0.0144675
915.474	0.0144044
915.552	0.0144807
915.630	0.0145264
915.708	0.0143495
915.787	0.0145557
915.865	0.0145625
915.943	0.0144997
916.021	0.0145516
916.099	0.0144168
916.177	0.0144205
916.255	0.0144705
916.333	0.0144864
916.412	0.0144483
916.490	0.0145420
916.568	0.0144300
916.646	0.0144682
916.724	0.0145116
916.802	0.0144022
916.880	0.0144279
916.958	0.0144979
917.037	0.0145867
917.115	0.0145682
917.193	0.0144585
917.271	0.0145535
917.349	0.0145763
917.427	0.0146781
917.505	0.0145843
917.583	0.0146236
917.662	0.0145761
917.740	0.0143545
917.818	0.0144826
917.896	0.0144524
917.974	0.0145336
918.052	0.0144134
918.130	0.0145711
918.208	0.0144691
918.287	0.0143686
918.365	0.0144410
918.443	0.0143264
918.521	0.0145607
918.599	0.0145763
918.677	0.0145042
918.755	0.0144465
918.833	0.0144780
918.912	0.0145506
918.990	0.0146516
919.068	0.0145222
919.146	0.0145702
919.224	0.0145892
919.302	0.0147006
919.380	0.0144958
919.458	0.0144371
919.537	0.0145316
919.615	0.0145859
919.693	0.0146359
919.771	0.0146056
919.849	0.0145428
919.927	0.0145584
920.005	0.0145351
920.083	0.0144345
920.162	0.0144479
920.240	0.0146796
920.318	0.0145600
920.396	0.0144331
920.474	0.0144106
920.552	0.0145521
920.630	0.0147171
920.708	0.0143903
920.787	0.0145930
920.865	0.0144792
920.943	0.0143205
921.021	0.0145748
921.099	0.0145697
921.177	0.0144303
921.255	0.0145605
921.333	0.0144907
921.412	0.0144708
921.490	0.0144733
921.568	0.0145024
921.646	0.0145407
921.724	0.0144142
921.802	0.0143865
921.880	0.0144074
921.958	0.0144338
922.037	0.0144369
922.115	0.0144561
922.193	0.0145537
922.271	0.0145719
922.349	0.0145375
922.427	0.0145209
922.505	0.0143942
922.583	0.0144208
922.662	0.0143362
922.740	0.0143338
922.818	0.0145165
922.896	0.0143739
922.974	0.0143975
923.052	0.0144726
923.130	0.0145296
923.208	0.0144254
923.287	0.0142983
923.365	0.0144815
923.443	0.0145098
923.521	0.0144136
923.599	0.0144388
923.677	0.0144006
923.755	0.0143911
923.833	0.0145844
923.912	0.0144836
923.990	0.0143382
924.068	0.0144714
924.146	0.0145108
924.224	0.0144778
924.302	0.0143790
924.380	0.0144209
924.458	0.0145158
924.537	0.0144406
924.615	0.0143863
924.693	0.0143755
924.771	0.0144572
924.849	0.0144328
924.927	0.0145113
925.005	0.0143585
925.083	0.0144422
925.162	0.0145776
925.240	0.0144020
925.318	0.0145118
925.396	0.0144153
925.474	0.0143642
925.552	0.0143814
925.630	0.0143111
925.708	0.0145655
925.787	0.0145164
925.865	0.0144056
925.943	0.0143653
926.021	0.0143408
926.099	0.0145245
926.177	0.0143974
926.255	0.0144694
926.333	0.0145600
926.412	0.0144526
926.490	0.0144765
926.568	0.0143708
926.646	0.0144933
926.724	0.0144994
926.802	0.0144526
926.880	0.0144928
926.958	0.0145476
927.037	0.0144298
927.115	0.0144588
927.193	0.0144671
927.271	0.0145531
927.349	0.0144630
927.427	0.0146458
927.505	0.0146223
927.583	0.0144605
927.662	0.0144785
927.740	0.0145670
927.818	0.0146340
927.896	0.0145500
927.974	0.0144202
928.052	0.0144554
928.130	0.0145529
928.208	0.0143916
928.287	0.0144953
928.365	0.0145175
928.443	0.0143107
928.521	0.0145446
928.599	0.0144887
928.677	0.0143443
928.755	0.0143811
928.833	0.0143523
928.912	0.0145477
928.990	0.0144188
929.068	0.0144836
929.146	0.0143948
929.224	0.0143706
929.302	0.0144221
929.380	0.0143697
929.458	0.0144777
929.537	0.0145838
929.615	0.0146398
929.693	0.0145670
929.771	0.0143559
929.849	0.0144652
929.927	0.0145828
930.005	0.0144650
930.083	0.0143866
930.162	0.0143230
930.240	0.0144872
930.318	0.0144988
930.396	0.0144783
930.474	0.0144617
930.552	0.0144621
930.630	0.0144150
930.708	0.0143525
930.787	0.0144279
930.865	0.0145158
930.943	0.0144501
931.021	0.0144623
931.099	0.0144334
931.177	0.0145014
931.255	0.0144752
931.333	0.0144571
931.412	0.0144719
931.490	0.0144557
931.568	0.0144428
931.646	0.0145684
931.724	0.0146911
931.802	0.0145859
931.880	0.0144812
931.958	0.0144051
932.037	0.0145233
932.115	0.0144984
932.193	0.0145360
932.271	0.0143881
932.349	0.0144469
932.427	0.0144689
932.505	0.0144075
932.583	0.0144875
932.662	0.0142929
932.740	0.0142804
932.818	0.0145123
932.896	0.0144748
932.974	0.0143801
933.052	0.0145000
933.130	0.0144435
933.208	0.0143158
933.287	0.0144282
933.365	0.0143467
933.443	0.0143556
933.521	0.0145198
933.599	0.0144161
933.677	0.0143928
933.755	0.0145209
933.833	0.0144003
933.912	0.0146143
933.990	0.0144770
934.068	0.0145446
934.146	0.0145627
934.224	0.0144859
934.302	0.0145752
934.380	0.0145516
934.458	0.0144443
934.537	0.0145248
934.615	0.0145168
934.693	0.0143596
934.771	0.0145426
934.849	0.0146653
934.927	0.0145977
935.005	0.0143822
935.083	0.0145209
935.162	0.0144644
935.240	0.0145251
935.318	0.0143575
935.396	0.0144112
935.474	0.0145201
935.552	0.0144555
935.630	0.0145378
935.708	0.0145023
935.787	0.0145044
935.865	0.0144244
935.943	0.0144117
936.021	0.0146027
936.099	0.0146388
936.177	0.0145540
936.255	0.0144312
936.333	0.0145552
936.412	0.0145831
936.490	0.0145541
936.568	0.0145246
936.646	0.0144317
936.724	0.0144825
936.802	0.0145351
936.880	0.0144864
936.958	0.0143934
937.037	0.0144978
937.115	0.0144728
937.193	0.0143978
937.271	0.0144556
937.349	0.0143962
937.427	0.0144994
937.505	0.0144589
937.583	0.0144141
937.662	0.0145363
937.740	0.0144853
937.818	0.0144337
937.896	0.0144942
937.974	0.0144732
938.052	0.0143889
938.130	0.0145636
938.208	0.0143690
938.287	0.0145393
938.365	0.0144032
938.443	0.0144259
938.521	0.0145627
938.599	0.0143429
938.677	0.0144077
938.755	0.0144166
938.833	0.0144936
938.912	0.0144299
938.990	0.0144854
939.068	0.0145105
939.146	0.0144413
939.224	0.0144308
939.302	0.0144913
939.380	0.0144530
939.458	0.0144729
939.537	0.0143221
939.615	0.0144138
939.693	0.0143880
939.771	0.0145744
939.849	0.0145284
939.927	0.0144590
940.005	0.0145103
940.083	0.0145271
940.162	0.0145110
940.240	0.0145342
940.318	0.0145325
940.396	0.0145481
940.474	0.0145722
940.552	0.0145454
940.630	0.0145341
940.708	0.0146152
940.787	0.0145571
940.865	0.0146458
940.943	0.0145755
941.021	0.0145988
941.099	0.0144518
941.177	0.0143465
941.255	0.0145670
941.333	0.0145747
941.412	0.0146032
941.490	0.0144993
941.568	0.0146346
941.646	0.0145929
941.724	0.0145216
941.802	0.0146110
941.880	0.0146961
941.958	0.0145111
942.037	0.0145209
942.115	0.0145856
942.193	0.0144635
942.271	0.0144499
942.349	0.0144858
942.427	0.0145620
942.505	0.0145484
942.583	0.0146009
942.662	0.0146286
942.740	0.0145959
942.818	0.0145675
942.896	0.0145425
942.974	0.0145569
943.052	0.0145336
943.130	0.0145879
943.208	0.0145391
943.287	0.0144280
943.365	0.0145348
943.443	0.0145892
943.521	0.0144700
943.599	0.0144522
943.677	0.0144253
943.755	0.0144188
943.833	0.0145885
943.912	0.0144683
943.990	0.0144837
944.068	0.0146153
944.146	0.0145553
944.224	0.0145203
944.302	0.0146117
944.380	0.0146244
944.458	0.0144849
944.537	0.0144801
944.615	0.0144281
944.693	0.0142918
944.771	0.0144283
944.849	0.0145596
944.927	0.0144862
945.005	0.0143901
945.083	0.0144442
945.162	0.0143652
945.240	0.0144547
945.318	0.0145649
945.396	0.0144915
945.474	0.0144469
945.552	0.0145076
945.630	0.0144727
945.708	0.0144560
945.787	0.0145885
945.865	0.0143589
945.943	0.0145414
946.021	0.0144900
946.099	0.0144658
946.177	0.0144889
946.255	0.0144379
946.333	0.0144197
946.412	0.0144382
946.490	0.0144153
946.568	0.0145040
946.646	0.0143619
946.724	0.0144690
946.802	0.0144458
946.880	0.0144259
946.958	0.0144597
947.037	0.0143634
947.115	0.0143975
947.193	0.0145343
947.271	0.0144621
947.349	0.0144044
947.427	0.0143351
947.505	0.0144501
947.583	0.0145392
947.662	0.0144856
947.740	0.0144685
947.818	0.0145139
947.896	0.0144048
947.974	0.0144629
948.052	0.0145499
948.130	0.0145713
948.208	0.0146285
948.287	0.0145020
948.365	0.0145307
948.443	0.0145498
948.521	0.0145781
948.599	0.0145329
948.677	0.0147175
948.755	0.0144640
948.833	0.0144808
948.912	0.0146150
948.990	0.0145866
949.068	0.0145074
949.146	0.0145143
949.224	0.0144031
949.302	0.0145954
949.380	0.0145514
949.458	0.0145081
949.537	0.0145106
949.615	0.0144432
949.693	0.0143750
949.771	0.0145216
949.849	0.0144988
949.927	0.0143941
950.005	0.0144764
950.083	0.0146397
950.162	0.0145878
950.240	0.0144756
950.318	0.0144197
950.396	0.0146562
950.474	0.0146552
950.552	0.0145839
950.630	0.0145312
950.708	0.0145920
950.787	0.0144363
950.865	0.0144818
950.943	0.0146145
951.021	0.0145628
951.099	0.0144217
951.177	0.0144843
951.255	0.0145679
951.333	0.0145635
951.412	0.0143169
951.490	0.0144394
951.568	0.0145002
951.646	0.0144513
951.724	0.0144392
951.802	0.0144122
951.880	0.0145135
951.958	0.0144136
952.037	0.0145381
952.115	0.0145391
952.193	0.0143484
952.271	0.0144424
952.349	0.0144231
952.427	0.0144267
952.505	0.0145336
952.583	0.0144740
952.662	0.0143898
952.740	0.0144471
952.818	0.0143343
952.896	0.0144608
952.974	0.0144800
953.052	0.0145677
953.130	0.0145569
953.208	0.0144724
953.287	0.0145228
953.365	0.0144141
953.443	0.0144320
953.521	0.0143810
953.599	0.0145128
953.677	0.0143974
953.755	0.0144437
953.833	0.0144409
953.912	0.0144164
953.990	0.0143443
954.068	0.0143414
954.146	0.0143963
954.224	0.0144255
954.302	0.0144837
954.380	0.0144283
954.458	0.0143185
954.537	0.0143343
954.615	0.0144224
954.693	0.0144731
954.771	0.0143431
954.849	0.0143917
954.927	0.0145180
955.005	0.0145204
955.083	0.0143793
955.162	0.0143768
955.240	0.0143322
955.318	0.0143710
955.396	0.0144696
955.474	0.0144754
955.552	0.0143515
955.630	0.0145115
955.708	0.0144804
955.787	0.0144408
955.865	0.0144512
955.943	0.0144496
956.021	0.0143999
956.099	0.0145045
956.177	0.0144405
956.255	0.0143562
956.333	0.0145683
956.412	0.0144469
956.490	0.0143059
956.568	0.0143995
956.646	0.0144363
956.724	0.0145155
956.802	0.0145329
956.880	0.0143864
956.958	0.0143773
957.037	0.0144510
957.115	0.0143787
957.193	0.0144566
957.271	0.0143920
957.349	0.0145790
957.427	0.0144630
957.505	0.0143373
957.583	0.0143469
957.662	0.0144443
957.740	0.0144133
957.818	0.0144499
957.896	0.0144909
957.974	0.0145033
958.052	0.0145383
958.130	0.0145032
958.208	0.0145004
958.287	0.0144973
958.365	0.0144781
958.443	0.0144715
958.521	0.0144553
958.599	0.0145292
958.677	0.0144138
958.755	0.0144949
958.833	0.0145158
958.912	0.0145396
958.990	0.0144754
959.068	0.0144946
959.146	0.0145435
959.224	0.0144857
959.302	0.0144517
959.380	0.0144370
959.458	0.0144490
959.537	0.0144942
959.615	0.0145275
959.693	0.0144574
959.771	0.0146319
959.849	0.0145350
959.927	0.0144057
960.005	0.0145593
960.083	0.0145057
960.162	0.0144640
960.240	0.0144703
960.318	0.0144059
960.396	0.0146136
960.474	0.0145504
960.552	0.0144909
960.630	0.0145341
960.708	0.0145815
960.787	0.0146664
960.865	0.0146227
960.943	0.0145799
961.021	0.0144567
961.099	0.0144627
961.177	0.0146806
961.255	0.0144231
961.333	0.0145037
961.412	0.0145782
961.490	0.0144900
961.568	0.0146457
961.646	0.0144048
961.724	0.0145035
961.802	0.0144551
961.880	0.0145992
961.958	0.0146261
962.037	0.0146024
962.115	0.0144714
962.193	0.0144257
962.271	0.0145006
962.349	0.0144578
962.427	0.0145053
962.505	0.0146426
962.583	0.0144714
962.662	0.0144974
962.740	0.0144978
962.818	0.0144694
962.896	0.0144116
962.974	0.0145051
963.052	0.0144935
963.130	0.0145490
963.208	0.0145747
963.287	0.0146881
963.365	0.0145721
963.443	0.0145118
963.521	0.0144525
963.599	0.0144717
963.677	0.0146381
963.755	0.0143681
963.833	0.0144801
963.912	0.0145351
963.990	0.0144749
964.068	0.0146333
964.146	0.0145467
964.224	0.0144199
964.302	0.0146203
964.380	0.0143485
964.458	0.0146993
964.537	0.0145050
964.615	0.0144599
964.693	0.0145463
964.771	0.0145403
964.849	0.0144931
964.927	0.0144248
965.005	0.0144002
965.083	0.0145160
965.162	0.0145713
965.240	0.0145480
965.318	0.0145683
965.396	0.0144135
965.474	0.0145284
965.552	0.0145444
965.630	0.0145458
965.708	0.0143617
965.787	0.0142638
965.865	0.0143484
965.943	0.0144139
966.021	0.0144669
966.099	0.0145085
966.177	0.0144093
966.255	0.0143968
966.333	0.0143995
966.412	0.0144772
966.490	0.0144129
966.568	0.0145079
966.646	0.0144969
966.724	0.0145290
966.802	0.0144052
966.880	0.0145808
966.958	0.0145303
967.037	0.0144021
967.115	0.0144821
967.193	0.0144846
967.271	0.0144500
967.349	0.0144044
967.427	0.0145050
967.505	0.0143523
967.583	0.0142886
967.662	0.0144949
967.740	0.0143806
967.818	0.0143807
967.896	0.0143385
967.974	0.0143968
968.052	0.0143645
968.130	0.0143792
968.208	0.0143580
968.287	0.0143190
968.365	0.0145766
968.443	0.0145065
968.521	0.0143503
968.599	0.0143652
968.677	0.0143606
968.755	0.0143970
968.833	0.0144143
968.912	0.0142866
968.990	0.0144699
969.068	0.0144300
969.146	0.0144746
969.224	0.0143889
969.302	0.0146518
969.380	0.0144405
969.458	0.0144105
969.537	0.0145658
969.615	0.0145908
969.693	0.0143884
969.771	0.0144754
969.849	0.0144997
969.927	0.0144450
970.005	0.0145345
970.083	0.0143605
970.162	0.0143900
970.240	0.0144798
970.318	0.0143802
970.396	0.0144266
970.474	0.0143846
970.552	0.0145141
970.630	0.0144878
970.708	0.0145221
970.787	0.0145117
970.865	0.0144749
970.943	0.0143901
971.021	0.0144887
971.099	0.0145274
971.177	0.0144322
971.255	0.0144186
971.333	0.0146325
971.412	0.0145199
971.490	0.0144755
971.568	0.0146425
971.646	0.0144263
971.724	0.0146219
971.802	0.0145246
971.880	0.0145265
971.958	0.0145992
972.037	0.0146813
972.115	0.0147234
972.193	0.0146326
972.271	0.0145877
972.349	0.0145168
972.427	0.0146181
972.505	0.0146327
972.583	0.0144721
972.662	0.0145253
972.740	0.0145394
972.818	0.0145571
972.896	0.0145029
972.974	0.0145495
973.052	0.0144905
973.130	0.0145055
973.208	0.0143867
973.287	0.0144575
973.365	0.0145905
973.443	0.0145197
973.521	0.0143272
973.599	0.0144279
973.677	0.0144187
973.755	0.0144280
973.833	0.0145228
973.912	0.0145918
973.990	0.0145151
974.068	0.0142953
974.146	0.0144505
974.224	0.0144715
974.302	0.0143758
974.380	0.0144801
974.458	0.0144209
974.537	0.0145651
974.615	0.0144904
974.693	0.0145088
974.771	0.0144491
974.849	0.0144049
974.927	0.0144865
975.005	0.0144709
975.083	0.0144277
975.162	0.0144642
975.240	0.0144198
975.318	0.0144139
975.396	0.0144720
975.474	0.0144213
975.552	0.0145245
975.630	0.0143533
975.708	0.0143977
975.787	0.0144353
975.865	0.0144429
975.943	0.0143712
976.021	0.0144528
976.099	0.0144737
976.177	0.0143926
976.255	0.0144870
976.333	0.0144012
976.412	0.0144006
976.490	0.0145155
976.568	0.0145307
976.646	0.0144299
976.724	0.0143229
976.802	0.0145732
976.880	0.0145525
976.958	0.0145699
977.037	0.0145547
977.115	0.0144682
977.193	0.0143816
977.271	0.0143860
977.349	0.0143680
977.427	0.0144012
977.505	0.0143867
977.583	0.0145680
977.662	0.0144299
977.740	0.0144406
977.818	0.0145065
977.896	0.0143843
977.974	0.0144353
978.052	0.0144870
978.130	0.0144624
978.208	0.0146422
978.287	0.0147227
978.365	0.0145427
978.443	0.0144210
978.521	0.0145621
978.599	0.0145856
978.677	0.0144824
978.755	0.0145380
978.833	0.0146256
978.912	0.0144546
978.990	0.0145579
979.068	0.0146256
979.146	0.0144115
979.224	0.0143902
979.302	0.0144563
979.380	0.0145785
979.458	0.0144774
979.537	0.0144334
979.615	0.0144449
979.693	0.0145090
979.771	0.0144055
979.849	0.0145703
979.927	0.0145239
980.005	0.0146107
980.083	0.0144906
980.162	0.0145934
980.240	0.0144328
980.318	0.0144759
980.396	0.0145741
980.474	0.0145040
980.552	0.0144782
980.630	0.0146313
980.708	0.0144714
980.787	0.0143504
980.865	0.0143737
980.943	0.0144121
981.021	0.0143668
981.099	0.0144379
981.177	0.0144754
981.255	0.0145256
981.333	0.0145253
981.412	0.0145338
981.490	0.0145621
981.568	0.0144799
981.646	0.0144660
981.724	0.0147379
981.802	0.0145319
981.880	0.0143813
981.958	0.0145096
982.037	0.0147021
982.115	0.0146100
982.193	0.0145086
982.271	0.0144061
982.349	0.0143320
982.427	0.0143790
982.505	0.0144069
982.583	0.0144832
982.662	0.0145365
982.740	0.0144219
982.818	0.0143739
982.896	0.0142982
982.974	0.0144829
983.052	0.0144131
983.130	0.0143874
983.208	0.0144315
983.287	0.0144210
983.365	0.0143876
983.443	0.0145067
983.521	0.0144301
983.599	0.0144293
983.677	0.0145428
983.755	0.0144849
983.833	0.0143192
983.912	0.0145276
983.990	0.0143645
984.068	0.0144798
984.146	0.0144667
984.224	0.0145452
984.302	0.0144202
984.380	0.0144195
984.458	0.0144365
984.537	0.0145352
984.615	0.0144851
984.693	0.0144288
984.771	0.0144690
984.849	0.0144735
984.927	0.0144810
985.005	0.0142873
985.083	0.0144667
985.162	0.0143490
985.240	0.0143870
985.318	0.0145424
985.396	0.0143474
985.474	0.0143542
985.552	0.0143391
985.630	0.0142453
985.708	0.0143127
985.787	0.0143884
985.865	0.0143530
985.943	0.0143672
986.021	0.0144671
986.099	0.0143812
986.177	0.0143980
986.255	0.0143684
986.333	0.0143559
986.412	0.0143615
986.490	0.0143793
986.568	0.0144984
986.646	0.0144685
986.724	0.0141816
986.802	0.0144186
986.880	0.0144817
986.958	0.0143121
987.037	0.0143098
987.115	0.0144193
987.193	0.0143315
987.271	0.0143751
987.349	0.0144236
987.427	0.0144693
987.505	0.0143973
987.583	0.0144003
987.662	0.0144791
987.740	0.0143965
987.818	0.0144396
987.896	0.0144827
987.974	0.0145017
988.052	0.0144437
988.130	0.0143514
988.208	0.0143663
988.287	0.0144469
988.365	0.0143876
988.443	0.0142858
988.521	0.0144931
988.599	0.0144944
988.677	0.0146267
988.755	0.0144743
988.833	0.0144070
988.912	0.0143822
988.990	0.0143481
989.068	0.0145143
989.146	0.0144879
989.224	0.0143938
989.302	0.0145403
989.380	0.0142633
989.458	0.0143717
989.537	0.0145081
989.615	0.0143238
989.693	0.0143152
989.771	0.0144022
989.849	0.0145067
989.927	0.0144217
990.005	0.0144724
990.083	0.0143611
990.162	0.0143752
990.240	0.0142587
990.318	0.0142978
990.396	0.0144378
990.474	0.0145011
990.552	0.0144407
990.630	0.0143001
990.708	0.0144456
990.787	0.0144512
990.865	0.0143963
990.943	0.0144325
991.021	0.0144337
991.099	0.0144025
991.177	0.0144429
991.255	0.0143048
991.333	0.0144389
991.412	0.0144420
991.490	0.0145672
991.568	0.0145230
991.646	0.0144351
991.724	0.0144414
991.802	0.0144769
991.880	0.0143061
991.958	0.0145190
992.037	0.0144974
992.115	0.0143094
992.193	0.0144416
992.271	0.0145674
992.349	0.0144895
992.427	0.0143401
992.505	0.0143845
992.583	0.0145142
992.662	0.0145572
992.740	0.0145433
992.818	0.0145599
992.896	0.0145544
992.974	0.0145149
993.052	0.0144881
993.130	0.0145387
993.208	0.0144839
993.287	0.0144765
993.365	0.0144828
993.443	0.0143204
993.521	0.0144875
993.599	0.0144294
993.677	0.0143387
993.755	0.0145349
993.833	0.0143456
993.912	0.0143778
993.990	0.0143671
994.068	0.0142984
994.146	0.0143690
994.224	0.0145780
994.302	0.0143900
994.380	0.0143549
994.458	0.0146066
994.537	0.0143712
994.615	0.0145013
994.693	0.0143797
994.771	0.0145774
994.849	0.0144483
994.927	0.0143947
995.005	0.0144869
995.083	0.0143867
995.162	0.0144759
995.240	0.0144965
995.318	0.0145546
995.396	0.0144585
995.474	0.0145179
995.552	0.0145351
995.630	0.0145412
995.708	0.0143742
995.787	0.0145872
995.865	0.0144640
995.943	0.0144223
996.021	0.0145206
996.099	0.0143649
996.177	0.0143327
996.255	0.0145789
996.333	0.0145171
996.412	0.0144469
996.490	0.0144626
996.568	0.0144846
996.646	0.0144833
996.724	0.0144129
996.802	0.0145593
996.880	0.0146528
996.958	0.0143445
997.037	0.0144192
997.115	0.0144592
997.193	0.0145424
997.271	0.0144999
997.349	0.0143899
997.427	0.0144998
997.505	0.0144743
997.583	0.0143781
997.662	0.0144731
997.740	0.0144144
997.818	0.0144382
997.896	0.0144499
997.974	0.0143347
998.052	0.0143851
998.130	0.0145081
998.208	0.0145172
998.287	0.0144990
998.365	0.0144109
998.443	0.0144886
998.521	0.0144102
998.599	0.0144363
998.677	0.0144438
998.755	0.0143085
998.833	0.0145528
998.912	0.0146941
