05/04/2022	20:58:12	Ver.	4.1	UNKNOWN
Optical Delay	678.996401	Delta X		0.078125	Sweeps	1	Scan Rate	0/0
Coordinates	Axis 1	NaN	Axis 2	NaN	Axis 3	NaN	Axis 4	NaN	Axis 5	NaN	Axis 6	0.000000
TX Power	0.000000	RX Power	0.000000

678.996	0.0139265
679.075	0.0140559
679.153	0.0139818
679.231	0.0139031
679.309	0.0139654
679.387	0.0138850
679.465	0.0138844
679.543	0.0139328
679.621	0.0139829
679.700	0.0138793
679.778	0.0138309
679.856	0.0139406
679.934	0.0139326
680.012	0.0139097
680.090	0.0139704
680.168	0.0139822
680.246	0.0137200
680.325	0.0137086
680.403	0.0139813
680.481	0.0139339
680.559	0.0139368
680.637	0.0139096
680.715	0.0138292
680.793	0.0139381
680.871	0.0140257
680.950	0.0140292
681.028	0.0138663
681.106	0.0138673
681.184	0.0138745
681.262	0.0138327
681.340	0.0139914
681.418	0.0140529
681.496	0.0139667
681.575	0.0139774
681.653	0.0139800
681.731	0.0138928
681.809	0.0139933
681.887	0.0139319
681.965	0.0139526
682.043	0.0139610
682.121	0.0139947
682.200	0.0138990
682.278	0.0139220
682.356	0.0141134
682.434	0.0140072
682.512	0.0140045
682.590	0.0139834
682.668	0.0137401
682.746	0.0139369
682.825	0.0138605
682.903	0.0137754
682.981	0.0139135
683.059	0.0139245
683.137	0.0139008
683.215	0.0138458
683.293	0.0140116
683.371	0.0139886
683.450	0.0138448
683.528	0.0138931
683.606	0.0140087
683.684	0.0138840
683.762	0.0138451
683.840	0.0140805
683.918	0.0139501
683.996	0.0138118
684.075	0.0138498
684.153	0.0140902
684.231	0.0139606
684.309	0.0139919
684.387	0.0139907
684.465	0.0139324
684.543	0.0139759
684.621	0.0140623
684.700	0.0139333
684.778	0.0137629
684.856	0.0139697
684.934	0.0139103
685.012	0.0139890
685.090	0.0140494
685.168	0.0139748
685.246	0.0137905
685.325	0.0139314
685.403	0.0140298
685.481	0.0138299
685.559	0.0139906
685.637	0.0139704
685.715	0.0138448
685.793	0.0138448
685.871	0.0138837
685.950	0.0138935
686.028	0.0139588
686.106	0.0139833
686.184	0.0140015
686.262	0.0139427
686.340	0.0138586
686.418	0.0138870
686.496	0.0138729
686.575	0.0138052
686.653	0.0138922
686.731	0.0139178
686.809	0.0140385
686.887	0.0139906
686.965	0.0139366
687.043	0.0138187
687.121	0.0138761
687.200	0.0138451
687.278	0.0138390
687.356	0.0139222
687.434	0.0138514
687.512	0.0139422
687.590	0.0139811
687.668	0.0139867
687.746	0.0138673
687.825	0.0139728
687.903	0.0138248
687.981	0.0138062
688.059	0.0139215
688.137	0.0140542
688.215	0.0138757
688.293	0.0137904
688.371	0.0139095
688.450	0.0138824
688.528	0.0138326
688.606	0.0138809
688.684	0.0139340
688.762	0.0139021
688.840	0.0139685
688.918	0.0139038
688.996	0.0139478
689.075	0.0138723
689.153	0.0139259
689.231	0.0139706
689.309	0.0137243
689.387	0.0138744
689.465	0.0141366
689.543	0.0138838
689.621	0.0138966
689.700	0.0138622
689.778	0.0139973
689.856	0.0139433
689.934	0.0137491
690.012	0.0138509
690.090	0.0138940
690.168	0.0139072
690.246	0.0139069
690.325	0.0140070
690.403	0.0138995
690.481	0.0140051
690.559	0.0139168
690.637	0.0139929
690.715	0.0139735
690.793	0.0138499
690.871	0.0138625
690.950	0.0139349
691.028	0.0138036
691.106	0.0139136
691.184	0.0139893
691.262	0.0138698
691.340	0.0138830
691.418	0.0139307
691.496	0.0138746
691.575	0.0140489
691.653	0.0140665
691.731	0.0138477
691.809	0.0140456
691.887	0.0139407
691.965	0.0138257
692.043	0.0139075
692.121	0.0139555
692.200	0.0138658
692.278	0.0139827
692.356	0.0139057
692.434	0.0139053
692.512	0.0138681
692.590	0.0138551
692.668	0.0138791
692.746	0.0140466
692.825	0.0139747
692.903	0.0138940
692.981	0.0139423
693.059	0.0139519
693.137	0.0138381
693.215	0.0139316
693.293	0.0139089
693.371	0.0139099
693.450	0.0139389
693.528	0.0139864
693.606	0.0138853
693.684	0.0140339
693.762	0.0140522
693.840	0.0140285
693.918	0.0140411
693.996	0.0138501
694.075	0.0137133
694.153	0.0138983
694.231	0.0139311
694.309	0.0139431
694.387	0.0138957
694.465	0.0140576
694.543	0.0139029
694.621	0.0139896
694.700	0.0139684
694.778	0.0140096
694.856	0.0138909
694.934	0.0139135
695.012	0.0140848
695.090	0.0139683
695.168	0.0138593
695.246	0.0139411
695.325	0.0137756
695.403	0.0139017
695.481	0.0139020
695.559	0.0138219
695.637	0.0140417
695.715	0.0139488
695.793	0.0138248
695.871	0.0138958
695.950	0.0139808
696.028	0.0139969
696.106	0.0138661
696.184	0.0139192
696.262	0.0138823
696.340	0.0140311
696.418	0.0139474
696.496	0.0139437
696.575	0.0138786
696.653	0.0139448
696.731	0.0138780
696.809	0.0138868
696.887	0.0140217
696.965	0.0139342
697.043	0.0140524
697.121	0.0139326
697.200	0.0138545
697.278	0.0139462
697.356	0.0138513
697.434	0.0140105
697.512	0.0138721
697.590	0.0137634
697.668	0.0139481
697.746	0.0138862
697.825	0.0139584
697.903	0.0137386
697.981	0.0138690
698.059	0.0139063
698.137	0.0140025
698.215	0.0139109
698.293	0.0139544
698.371	0.0139075
698.450	0.0139365
698.528	0.0140219
698.606	0.0138334
698.684	0.0138254
698.762	0.0139201
698.840	0.0140136
698.918	0.0138812
698.996	0.0139595
699.075	0.0140308
699.153	0.0139182
699.231	0.0139355
699.309	0.0138509
699.387	0.0140184
699.465	0.0138745
699.543	0.0139706
699.621	0.0139270
699.700	0.0139626
699.778	0.0139057
699.856	0.0138612
699.934	0.0139896
700.012	0.0139890
700.090	0.0139514
700.168	0.0139737
700.246	0.0139347
700.325	0.0139729
700.403	0.0139964
700.481	0.0138991
700.559	0.0139397
700.637	0.0139823
700.715	0.0139301
700.793	0.0137757
700.871	0.0139860
700.950	0.0139722
701.028	0.0139083
701.106	0.0139140
701.184	0.0140348
701.262	0.0139707
701.340	0.0139534
701.418	0.0140401
701.496	0.0138995
701.575	0.0138849
701.653	0.0139556
701.731	0.0139960
701.809	0.0138684
701.887	0.0140031
701.965	0.0139073
702.043	0.0140545
702.121	0.0139999
702.200	0.0139188
702.278	0.0139106
702.356	0.0139911
702.434	0.0139062
702.512	0.0139515
702.590	0.0139600
702.668	0.0139553
702.746	0.0137944
702.825	0.0139375
702.903	0.0140031
702.981	0.0139402
703.059	0.0139477
703.137	0.0142123
703.215	0.0139575
703.293	0.0139963
703.371	0.0139631
703.450	0.0139129
703.528	0.0137917
703.606	0.0139835
703.684	0.0140576
703.762	0.0141187
703.840	0.0140778
703.918	0.0139259
703.996	0.0139513
704.075	0.0139323
704.153	0.0139240
704.231	0.0140170
704.309	0.0138580
704.387	0.0137357
704.465	0.0139882
704.543	0.0139972
704.621	0.0139659
704.700	0.0140341
704.778	0.0138205
704.856	0.0139016
704.934	0.0139262
705.012	0.0138789
705.090	0.0140042
705.168	0.0139314
705.246	0.0139552
705.325	0.0139964
705.403	0.0139677
705.481	0.0137915
705.559	0.0137531
705.637	0.0138508
705.715	0.0138605
705.793	0.0138157
705.871	0.0139638
705.950	0.0139918
706.028	0.0139709
706.106	0.0140757
706.184	0.0139384
706.262	0.0139146
706.340	0.0139278
706.418	0.0140318
706.496	0.0140073
706.575	0.0140575
706.653	0.0140405
706.731	0.0140748
706.809	0.0141025
706.887	0.0140797
706.965	0.0140144
707.043	0.0139099
707.121	0.0138751
707.200	0.0140399
707.278	0.0138782
707.356	0.0138379
707.434	0.0138951
707.512	0.0138960
707.590	0.0139713
707.668	0.0140643
707.746	0.0140154
707.825	0.0141454
707.903	0.0140648
707.981	0.0139903
708.059	0.0138911
708.137	0.0136865
708.215	0.0135761
708.293	0.0135789
708.371	0.0136375
708.450	0.0136333
708.528	0.0136971
708.606	0.0138903
708.684	0.0138863
708.762	0.0140752
708.840	0.0142538
708.918	0.0144065
708.996	0.0143166
709.075	0.0142374
709.153	0.0140290
709.231	0.0138641
709.309	0.0137826
709.387	0.0136504
709.465	0.0136080
709.543	0.0134810
709.621	0.0133872
709.700	0.0133933
709.778	0.0134949
709.856	0.0135780
709.934	0.0137321
710.012	0.0140079
710.090	0.0141622
710.168	0.0143084
710.246	0.0143983
710.325	0.0144091
710.403	0.0145503
710.481	0.0146547
710.559	0.0145000
710.637	0.0143462
710.715	0.0142335
710.793	0.0141018
710.871	0.0139242
710.950	0.0137598
711.028	0.0135421
711.106	0.0132497
711.184	0.0130721
711.262	0.0129914
711.340	0.0130430
711.418	0.0131724
711.496	0.0134428
711.575	0.0138686
711.653	0.0145482
711.731	0.0149220
711.809	0.0150524
711.887	0.0154581
711.965	0.0155428
712.043	0.0155611
712.121	0.0152091
712.200	0.0149997
712.278	0.0143896
712.356	0.0138213
712.434	0.0132644
712.512	0.0129114
712.590	0.0125675
712.668	0.0124117
712.746	0.0122341
712.825	0.0122994
712.903	0.0126212
712.981	0.0128797
713.059	0.0134135
713.137	0.0139470
713.215	0.0144118
713.293	0.0147812
713.371	0.0149841
713.450	0.0151538
713.528	0.0150700
713.606	0.0147534
713.684	0.0144987
713.762	0.0140105
713.840	0.0136499
713.918	0.0131735
713.996	0.0127461
714.075	0.0125799
714.153	0.0121538
714.231	0.0119580
714.309	0.0119748
714.387	0.0121657
714.465	0.0125555
714.543	0.0130840
714.621	0.0136629
714.700	0.0143616
714.778	0.0151312
714.856	0.0157727
714.934	0.0159966
715.012	0.0163794
715.090	0.0164454
715.168	0.0163334
715.246	0.0158952
715.325	0.0154942
715.403	0.0148586
715.481	0.0142348
715.559	0.0137227
715.637	0.0130038
715.715	0.0124887
715.793	0.0121471
715.871	0.0119225
715.950	0.0119588
716.028	0.0120983
716.106	0.0125164
716.184	0.0130496
716.262	0.0137467
716.340	0.0142953
716.418	0.0146934
716.496	0.0150317
716.575	0.0153558
716.653	0.0153888
716.731	0.0152654
716.809	0.0150491
716.887	0.0148981
716.965	0.0145692
717.043	0.0143127
717.121	0.0139603
717.200	0.0136211
717.278	0.0134443
717.356	0.0134592
717.434	0.0133679
717.512	0.0135704
717.590	0.0137523
717.668	0.0137134
717.746	0.0138199
717.825	0.0139179
717.903	0.0140521
717.981	0.0142216
718.059	0.0141174
718.137	0.0141212
718.215	0.0142731
718.293	0.0141765
718.371	0.0140247
718.450	0.0137389
718.528	0.0136366
718.606	0.0134633
718.684	0.0133372
718.762	0.0132964
718.840	0.0131057
718.918	0.0128000
718.996	0.0128558
719.075	0.0130685
719.153	0.0131058
719.231	0.0131733
719.309	0.0134856
719.387	0.0139078
719.465	0.0143739
719.543	0.0144901
719.621	0.0148144
719.700	0.0150005
719.778	0.0150153
719.856	0.0151206
719.934	0.0150859
720.012	0.0151550
720.090	0.0149479
720.168	0.0148624
720.246	0.0143340
720.325	0.0142549
720.403	0.0139507
720.481	0.0135240
720.559	0.0131071
720.637	0.0125138
720.715	0.0124546
720.793	0.0123820
720.871	0.0123582
720.950	0.0123417
721.028	0.0126111
721.106	0.0128688
721.184	0.0134351
721.262	0.0139356
721.340	0.0143383
721.418	0.0148341
721.496	0.0153567
721.575	0.0157319
721.653	0.0160177
721.731	0.0162790
721.809	0.0163229
721.887	0.0163111
721.965	0.0160513
722.043	0.0157034
722.121	0.0152162
722.200	0.0145332
722.278	0.0140726
722.356	0.0135036
722.434	0.0127543
722.512	0.0122854
722.590	0.0121124
722.668	0.0118630
722.746	0.0116591
722.825	0.0114631
722.903	0.0118419
722.981	0.0121246
723.059	0.0124174
723.137	0.0128714
723.215	0.0134230
723.293	0.0141203
723.371	0.0145781
723.450	0.0149850
723.528	0.0154811
723.606	0.0157695
723.684	0.0159929
723.762	0.0160115
723.840	0.0160271
723.918	0.0158757
723.996	0.0153708
724.075	0.0149538
724.153	0.0146173
724.231	0.0140938
724.309	0.0135618
724.387	0.0131032
724.465	0.0126624
724.543	0.0123801
724.621	0.0122270
724.700	0.0122409
724.778	0.0124055
724.856	0.0124609
724.934	0.0125083
725.012	0.0127832
725.090	0.0131301
725.168	0.0135345
725.246	0.0139037
725.325	0.0141874
725.403	0.0144560
725.481	0.0146223
725.559	0.0148112
725.637	0.0149844
725.715	0.0149027
725.793	0.0149474
725.871	0.0147807
725.950	0.0146614
726.028	0.0144738
726.106	0.0143863
726.184	0.0142776
726.262	0.0140762
726.340	0.0138109
726.418	0.0136910
726.496	0.0136006
726.575	0.0135003
726.653	0.0135111
726.731	0.0134809
726.809	0.0134668
726.887	0.0135545
726.965	0.0134199
727.043	0.0135967
727.121	0.0137232
727.200	0.0137601
727.278	0.0137464
727.356	0.0137759
727.434	0.0138796
727.512	0.0139294
727.590	0.0140065
727.668	0.0140006
727.746	0.0142101
727.825	0.0142471
727.903	0.0141065
727.981	0.0142620
728.059	0.0143603
728.137	0.0142935
728.215	0.0143510
728.293	0.0143135
728.371	0.0143218
728.450	0.0141901
728.528	0.0138464
728.606	0.0140174
728.684	0.0138197
728.762	0.0136738
728.840	0.0136787
728.918	0.0135526
728.996	0.0137249
729.075	0.0137792
729.153	0.0139046
729.231	0.0140224
729.309	0.0140110
729.387	0.0141032
729.465	0.0140709
729.543	0.0140975
729.621	0.0141820
729.700	0.0142475
729.778	0.0142409
729.856	0.0141752
729.934	0.0140026
730.012	0.0141724
730.090	0.0139408
730.168	0.0137469
730.246	0.0135236
730.325	0.0134903
730.403	0.0134943
730.481	0.0133680
730.559	0.0131902
730.637	0.0134005
730.715	0.0134318
730.793	0.0134448
730.871	0.0135262
730.950	0.0135832
731.028	0.0137219
731.106	0.0137608
731.184	0.0139777
731.262	0.0141379
731.340	0.0142904
731.418	0.0145172
731.496	0.0145199
731.575	0.0145421
731.653	0.0146553
731.731	0.0143290
731.809	0.0144425
731.887	0.0142625
731.965	0.0141827
732.043	0.0141275
732.121	0.0139552
732.200	0.0140881
732.278	0.0138047
732.356	0.0137582
732.434	0.0135830
732.512	0.0135404
732.590	0.0133413
732.668	0.0131747
732.746	0.0129607
732.825	0.0128942
732.903	0.0129710
732.981	0.0130791
733.059	0.0129403
733.137	0.0130412
733.215	0.0132246
733.293	0.0133441
733.371	0.0137348
733.450	0.0140652
733.528	0.0142500
733.606	0.0146139
733.684	0.0149638
733.762	0.0149892
733.840	0.0151810
733.918	0.0150813
733.996	0.0151663
734.075	0.0152515
734.153	0.0149622
734.231	0.0146613
734.309	0.0144469
734.387	0.0141618
734.465	0.0138920
734.543	0.0136085
734.621	0.0133025
734.700	0.0131535
734.778	0.0129999
734.856	0.0128596
734.934	0.0129048
735.012	0.0130269
735.090	0.0131612
735.168	0.0133121
735.246	0.0135378
735.325	0.0136855
735.403	0.0140870
735.481	0.0142019
735.559	0.0143483
735.637	0.0144750
735.715	0.0145544
735.793	0.0147673
735.871	0.0147782
735.950	0.0147582
736.028	0.0147012
736.106	0.0149300
736.184	0.0146853
736.262	0.0148209
736.340	0.0146399
736.418	0.0145395
736.496	0.0146241
736.575	0.0146288
736.653	0.0143147
736.731	0.0141138
736.809	0.0139717
736.887	0.0137624
736.965	0.0134810
737.043	0.0132413
737.121	0.0128875
737.200	0.0126312
737.278	0.0124631
737.356	0.0122339
737.434	0.0123834
737.512	0.0122898
737.590	0.0123709
737.668	0.0127140
737.746	0.0130103
737.825	0.0132662
737.903	0.0137875
737.981	0.0141438
738.059	0.0145039
738.137	0.0148251
738.215	0.0152166
738.293	0.0152872
738.371	0.0154886
738.450	0.0156498
738.528	0.0155257
738.606	0.0155733
738.684	0.0154086
738.762	0.0150554
738.840	0.0148151
738.918	0.0144070
738.996	0.0141737
739.075	0.0138790
739.153	0.0134508
739.231	0.0132334
739.309	0.0130087
739.387	0.0128751
739.465	0.0127992
739.543	0.0126850
739.621	0.0126660
739.700	0.0126267
739.778	0.0128737
739.856	0.0130392
739.934	0.0131712
740.012	0.0133712
740.090	0.0134865
740.168	0.0138650
740.246	0.0139645
740.325	0.0143473
740.403	0.0146238
740.481	0.0148332
740.559	0.0148938
740.637	0.0150438
740.715	0.0151713
740.793	0.0152203
740.871	0.0151315
740.950	0.0149983
741.028	0.0148957
741.106	0.0145946
741.184	0.0142577
741.262	0.0140214
741.340	0.0137386
741.418	0.0134279
741.496	0.0132253
741.575	0.0130930
741.653	0.0130902
741.731	0.0127333
741.809	0.0126359
741.887	0.0127357
741.965	0.0129739
742.043	0.0129894
742.121	0.0132256
742.200	0.0133617
742.278	0.0137090
742.356	0.0139832
742.434	0.0141998
742.512	0.0145341
742.590	0.0147430
742.668	0.0148226
742.746	0.0150617
742.825	0.0151337
742.903	0.0151102
742.981	0.0149585
743.059	0.0148415
743.137	0.0148410
743.215	0.0146573
743.293	0.0144559
743.371	0.0142243
743.450	0.0140859
743.528	0.0138958
743.606	0.0136715
743.684	0.0136193
743.762	0.0133164
743.840	0.0134418
743.918	0.0133390
743.996	0.0133016
744.075	0.0133912
744.153	0.0136407
744.231	0.0136286
744.309	0.0137852
744.387	0.0138783
744.465	0.0139829
744.543	0.0139841
744.621	0.0140131
744.700	0.0140358
744.778	0.0140638
744.856	0.0141193
744.934	0.0141579
745.012	0.0140044
745.090	0.0139230
745.168	0.0138078
745.246	0.0139207
745.325	0.0139921
745.403	0.0141277
745.481	0.0141142
745.559	0.0141139
745.637	0.0142519
745.715	0.0141991
745.793	0.0141937
745.871	0.0142420
745.950	0.0142930
746.028	0.0143830
746.106	0.0142168
746.184	0.0143507
746.262	0.0139927
746.340	0.0139073
746.418	0.0138178
746.496	0.0136832
746.575	0.0136314
746.653	0.0134327
746.731	0.0132600
746.809	0.0132742
746.887	0.0131916
746.965	0.0131555
747.043	0.0130956
747.121	0.0132869
747.200	0.0134677
747.278	0.0136238
747.356	0.0136426
747.434	0.0138497
747.512	0.0139746
747.590	0.0144202
747.668	0.0144118
747.746	0.0145089
747.825	0.0146985
747.903	0.0146263
747.981	0.0145515
748.059	0.0145627
748.137	0.0145463
748.215	0.0145515
748.293	0.0141965
748.371	0.0143702
748.450	0.0142857
748.528	0.0139989
748.606	0.0138255
748.684	0.0138721
748.762	0.0136741
748.840	0.0134563
748.918	0.0134894
748.996	0.0133944
749.075	0.0132452
749.153	0.0132516
749.231	0.0132006
749.309	0.0132374
749.387	0.0132230
749.465	0.0132614
749.543	0.0133248
749.621	0.0136541
749.700	0.0136359
749.778	0.0138737
749.856	0.0140662
749.934	0.0144453
750.012	0.0146336
750.090	0.0147681
750.168	0.0148034
750.246	0.0149693
750.325	0.0149947
750.403	0.0149635
750.481	0.0148085
750.559	0.0147671
750.637	0.0144561
750.715	0.0143117
750.793	0.0140948
750.871	0.0139334
750.950	0.0137648
751.028	0.0135442
751.106	0.0133584
751.184	0.0131830
751.262	0.0130244
751.340	0.0129775
751.418	0.0129322
751.496	0.0130530
751.575	0.0130199
751.653	0.0133492
751.731	0.0134772
751.809	0.0135122
751.887	0.0136473
751.965	0.0139967
752.043	0.0140671
752.121	0.0142574
752.200	0.0141309
752.278	0.0143644
752.356	0.0144125
752.434	0.0144260
752.512	0.0143316
752.590	0.0143875
752.668	0.0144646
752.746	0.0142561
752.825	0.0142233
752.903	0.0142561
752.981	0.0141364
753.059	0.0140621
753.137	0.0139054
753.215	0.0139708
753.293	0.0137107
753.371	0.0136800
753.450	0.0135978
753.528	0.0136101
753.606	0.0135415
753.684	0.0133811
753.762	0.0134694
753.840	0.0134234
753.918	0.0133356
753.996	0.0133342
754.075	0.0134624
754.153	0.0135136
754.231	0.0136626
754.309	0.0137014
754.387	0.0136102
754.465	0.0138820
754.543	0.0139129
754.621	0.0141737
754.700	0.0140882
754.778	0.0143020
754.856	0.0144590
754.934	0.0143899
755.012	0.0143742
755.090	0.0143505
755.168	0.0143664
755.246	0.0143391
755.325	0.0143615
755.403	0.0141785
755.481	0.0140019
755.559	0.0139607
755.637	0.0139189
755.715	0.0137643
755.793	0.0138317
755.871	0.0136385
755.950	0.0136664
756.028	0.0137248
756.106	0.0137464
756.184	0.0136756
756.262	0.0136772
756.340	0.0136757
756.418	0.0136861
756.496	0.0138413
756.575	0.0138584
756.653	0.0138708
756.731	0.0140320
756.809	0.0140106
756.887	0.0141002
756.965	0.0141532
757.043	0.0141504
757.121	0.0140215
757.200	0.0140627
757.278	0.0141703
757.356	0.0142032
757.434	0.0141895
757.512	0.0141521
757.590	0.0141851
757.668	0.0141664
757.746	0.0141650
757.825	0.0141934
757.903	0.0141051
757.981	0.0141560
758.059	0.0139190
758.137	0.0139170
758.215	0.0139721
758.293	0.0140978
758.371	0.0139042
758.450	0.0138919
758.528	0.0137014
758.606	0.0136790
758.684	0.0137637
758.762	0.0137019
758.840	0.0136246
758.918	0.0136842
758.996	0.0136349
759.075	0.0136256
759.153	0.0135686
759.231	0.0136187
759.309	0.0135584
759.387	0.0137122
759.465	0.0137399
759.543	0.0139288
759.621	0.0140220
759.700	0.0140230
759.778	0.0139875
759.856	0.0141370
759.934	0.0141436
760.012	0.0145716
760.090	0.0143272
760.168	0.0143253
760.246	0.0142722
760.325	0.0142828
760.403	0.0142615
760.481	0.0142503
760.559	0.0142222
760.637	0.0140527
760.715	0.0139791
760.793	0.0140141
760.871	0.0137338
760.950	0.0138251
761.028	0.0137076
761.106	0.0136726
761.184	0.0135036
761.262	0.0134798
761.340	0.0136129
761.418	0.0135416
761.496	0.0133311
761.575	0.0135892
761.653	0.0135618
761.731	0.0138667
761.809	0.0138866
761.887	0.0138752
761.965	0.0139539
762.043	0.0141366
762.121	0.0141235
762.200	0.0142580
762.278	0.0142829
762.356	0.0143459
762.434	0.0143905
762.512	0.0144161
762.590	0.0143654
762.668	0.0144126
762.746	0.0143845
762.825	0.0143459
762.903	0.0141720
762.981	0.0141906
763.059	0.0139434
763.137	0.0138321
763.215	0.0137717
763.293	0.0137080
763.371	0.0136932
763.450	0.0136356
763.528	0.0134764
763.606	0.0135691
763.684	0.0135960
763.762	0.0135757
763.840	0.0136586
763.918	0.0138332
763.996	0.0138946
764.075	0.0138275
764.153	0.0139823
764.231	0.0140977
764.309	0.0139512
764.387	0.0140511
764.465	0.0142470
764.543	0.0140708
764.621	0.0140574
764.700	0.0141585
764.778	0.0140852
764.856	0.0140487
764.934	0.0140490
765.012	0.0140343
765.090	0.0139628
765.168	0.0140127
765.246	0.0140636
765.325	0.0139561
765.403	0.0140874
765.481	0.0139885
765.559	0.0140307
765.637	0.0139818
765.715	0.0139107
765.793	0.0140009
765.871	0.0139452
765.950	0.0138265
766.028	0.0138600
766.106	0.0139978
766.184	0.0138158
766.262	0.0138872
766.340	0.0138391
766.418	0.0137676
766.496	0.0139365
766.575	0.0138612
766.653	0.0137403
766.731	0.0138944
766.809	0.0138007
766.887	0.0139071
766.965	0.0141566
767.043	0.0140819
767.121	0.0138808
767.200	0.0141409
767.278	0.0140865
767.356	0.0141541
767.434	0.0140855
767.512	0.0142076
767.590	0.0141150
767.668	0.0142189
767.746	0.0141891
767.825	0.0141823
767.903	0.0141811
767.981	0.0140455
768.059	0.0141014
768.137	0.0140266
768.215	0.0140453
768.293	0.0139604
768.371	0.0140204
768.450	0.0139451
768.528	0.0138731
768.606	0.0138983
768.684	0.0139079
768.762	0.0138541
768.840	0.0137164
768.918	0.0138663
768.996	0.0138427
769.075	0.0139355
769.153	0.0138385
769.231	0.0138840
769.309	0.0139994
769.387	0.0140665
769.465	0.0141911
769.543	0.0140952
769.621	0.0140650
769.700	0.0140193
769.778	0.0142106
769.856	0.0140098
769.934	0.0139761
770.012	0.0140508
770.090	0.0141702
770.168	0.0141300
770.246	0.0140878
770.325	0.0141129
770.403	0.0141057
770.481	0.0139580
770.559	0.0139222
770.637	0.0139455
770.715	0.0139907
770.793	0.0139590
770.871	0.0139609
770.950	0.0141111
771.028	0.0139560
771.106	0.0137381
771.184	0.0139703
771.262	0.0139577
771.340	0.0140098
771.418	0.0139915
771.496	0.0138409
771.575	0.0138401
771.653	0.0139523
771.731	0.0140131
771.809	0.0139703
771.887	0.0139327
771.965	0.0139171
772.043	0.0140469
772.121	0.0139379
772.200	0.0138897
772.278	0.0140623
772.356	0.0142056
772.434	0.0140567
772.512	0.0139581
772.590	0.0140248
772.668	0.0140112
772.746	0.0140192
772.825	0.0138490
772.903	0.0140625
772.981	0.0140385
773.059	0.0139755
773.137	0.0139499
773.215	0.0140121
773.293	0.0141310
773.371	0.0137969
773.450	0.0139584
773.528	0.0137563
773.606	0.0139467
773.684	0.0139027
773.762	0.0138705
773.840	0.0139742
773.918	0.0137634
773.996	0.0138821
774.075	0.0138889
774.153	0.0139196
774.231	0.0138069
774.309	0.0139057
774.387	0.0139285
774.465	0.0138917
774.543	0.0140160
774.621	0.0139398
774.700	0.0139050
774.778	0.0139899
774.856	0.0140857
774.934	0.0140917
775.012	0.0141151
775.090	0.0141570
775.168	0.0141052
775.246	0.0141682
775.325	0.0141860
775.403	0.0140413
775.481	0.0140085
775.559	0.0139745
775.637	0.0138522
775.715	0.0138813
775.793	0.0139290
775.871	0.0138302
775.950	0.0137485
776.028	0.0137159
776.106	0.0138530
776.184	0.0138684
776.262	0.0137666
776.340	0.0137685
776.418	0.0138235
776.496	0.0139118
776.575	0.0139190
776.653	0.0139388
776.731	0.0139416
776.809	0.0139909
776.887	0.0139461
776.965	0.0139901
777.043	0.0139623
777.121	0.0139766
777.200	0.0141051
777.278	0.0139780
777.356	0.0139915
777.434	0.0139263
777.512	0.0138949
777.590	0.0138975
777.668	0.0139645
777.746	0.0138504
777.825	0.0139276
777.903	0.0138162
777.981	0.0138943
778.059	0.0139481
778.137	0.0137979
778.215	0.0138404
778.293	0.0141293
778.371	0.0139134
778.450	0.0138676
778.528	0.0139181
778.606	0.0140142
778.684	0.0139772
778.762	0.0138743
778.840	0.0138048
778.918	0.0139703
778.996	0.0137925
779.075	0.0138012
779.153	0.0137795
779.231	0.0137558
779.309	0.0137943
779.387	0.0138598
779.465	0.0138123
779.543	0.0139218
779.621	0.0138817
779.700	0.0139966
779.778	0.0140179
779.856	0.0139915
779.934	0.0141650
780.012	0.0138740
780.090	0.0140083
780.168	0.0140309
780.246	0.0140011
780.325	0.0139979
780.403	0.0141103
780.481	0.0141000
780.559	0.0139981
780.637	0.0139368
780.715	0.0138943
780.793	0.0139359
780.871	0.0139574
780.950	0.0138326
781.028	0.0138116
781.106	0.0138080
781.184	0.0138330
781.262	0.0139610
781.340	0.0138977
781.418	0.0137646
781.496	0.0138476
781.575	0.0138274
781.653	0.0138238
781.731	0.0139112
781.809	0.0139123
781.887	0.0139212
781.965	0.0139657
782.043	0.0139448
782.121	0.0138610
782.200	0.0138771
782.278	0.0138802
782.356	0.0138219
782.434	0.0139137
782.512	0.0139309
782.590	0.0139593
782.668	0.0140978
782.746	0.0138470
782.825	0.0140110
782.903	0.0140771
782.981	0.0138650
783.059	0.0139361
783.137	0.0139203
783.215	0.0139607
783.293	0.0139291
783.371	0.0140441
783.450	0.0139255
783.528	0.0138802
783.606	0.0138210
783.684	0.0139182
783.762	0.0138554
783.840	0.0138708
783.918	0.0139374
783.996	0.0140060
784.075	0.0139243
784.153	0.0138460
784.231	0.0137837
784.309	0.0138226
784.387	0.0137608
784.465	0.0138173
784.543	0.0138992
784.621	0.0138390
784.700	0.0138304
784.778	0.0138860
784.856	0.0139714
784.934	0.0139261
785.012	0.0140280
785.090	0.0140942
785.168	0.0139967
785.246	0.0141500
785.325	0.0140871
785.403	0.0141162
785.481	0.0141954
785.559	0.0140853
785.637	0.0140375
785.715	0.0139723
785.793	0.0139990
785.871	0.0140216
785.950	0.0139097
786.028	0.0138676
786.106	0.0138574
786.184	0.0139554
786.262	0.0139577
786.340	0.0138506
786.418	0.0139886
786.496	0.0137730
786.575	0.0139548
786.653	0.0139181
786.731	0.0138659
786.809	0.0139549
786.887	0.0139886
786.965	0.0138380
787.043	0.0138960
787.121	0.0139459
787.200	0.0141042
787.278	0.0140714
787.356	0.0140784
787.434	0.0140075
787.512	0.0139229
787.590	0.0141827
787.668	0.0140843
787.746	0.0139599
787.825	0.0140134
787.903	0.0139104
787.981	0.0140196
788.059	0.0141026
788.137	0.0139534
788.215	0.0139303
788.293	0.0139921
788.371	0.0139902
788.450	0.0138902
788.528	0.0137319
788.606	0.0137978
788.684	0.0138835
788.762	0.0137007
788.840	0.0140036
788.918	0.0139404
788.996	0.0139517
789.075	0.0139491
789.153	0.0139623
789.231	0.0139368
789.309	0.0141759
789.387	0.0140388
789.465	0.0139525
789.543	0.0141353
789.621	0.0140166
789.700	0.0139426
789.778	0.0140037
789.856	0.0139342
789.934	0.0138866
790.012	0.0138326
790.090	0.0139373
790.168	0.0139671
790.246	0.0139319
790.325	0.0138779
790.403	0.0139282
790.481	0.0138753
790.559	0.0139781
790.637	0.0140536
790.715	0.0139617
790.793	0.0139727
790.871	0.0140022
790.950	0.0140194
791.028	0.0141335
791.106	0.0140700
791.184	0.0141353
791.262	0.0139429
791.340	0.0140324
791.418	0.0140660
791.496	0.0139749
791.575	0.0141010
791.653	0.0141067
791.731	0.0139010
791.809	0.0139718
791.887	0.0139410
791.965	0.0138663
792.043	0.0139038
792.121	0.0139426
792.200	0.0139496
792.278	0.0139963
792.356	0.0140264
792.434	0.0138905
792.512	0.0139720
792.590	0.0141489
792.668	0.0139577
792.746	0.0140463
792.825	0.0139598
792.903	0.0140554
792.981	0.0140477
793.059	0.0140653
793.137	0.0139506
793.215	0.0138746
793.293	0.0139534
793.371	0.0139496
793.450	0.0140351
793.528	0.0139673
793.606	0.0139227
793.684	0.0139253
793.762	0.0138743
793.840	0.0138851
793.918	0.0138274
793.996	0.0140516
794.075	0.0142651
794.153	0.0139505
794.231	0.0139008
794.309	0.0141207
794.387	0.0140798
794.465	0.0140141
794.543	0.0139919
794.621	0.0139667
794.700	0.0139279
794.778	0.0140787
794.856	0.0139552
794.934	0.0140364
795.012	0.0139806
795.090	0.0139503
795.168	0.0138947
795.246	0.0139924
795.325	0.0139758
795.403	0.0139948
795.481	0.0140368
795.559	0.0138984
795.637	0.0140516
795.715	0.0139397
795.793	0.0138623
795.871	0.0139597
795.950	0.0140342
796.028	0.0140415
796.106	0.0140492
796.184	0.0140186
796.262	0.0138094
796.340	0.0139298
796.418	0.0140876
796.496	0.0138699
796.575	0.0139926
796.653	0.0138880
796.731	0.0138533
796.809	0.0138571
796.887	0.0139226
796.965	0.0139428
797.043	0.0138325
797.121	0.0140089
797.200	0.0138146
797.278	0.0139178
797.356	0.0139098
797.434	0.0138715
797.512	0.0139149
797.590	0.0139648
797.668	0.0140042
797.746	0.0138874
797.825	0.0139570
797.903	0.0138474
797.981	0.0139558
798.059	0.0140792
798.137	0.0139058
798.215	0.0138150
798.293	0.0140176
798.371	0.0139870
798.450	0.0139361
798.528	0.0140195
798.606	0.0140224
798.684	0.0138904
798.762	0.0140200
798.840	0.0138524
798.918	0.0139098
798.996	0.0140370
799.075	0.0140274
799.153	0.0139072
799.231	0.0139622
799.309	0.0137791
799.387	0.0139598
799.465	0.0139880
799.543	0.0139185
799.621	0.0140017
799.700	0.0137976
799.778	0.0137728
799.856	0.0140652
799.934	0.0138926
800.012	0.0139801
800.090	0.0138799
800.168	0.0140597
800.246	0.0140023
800.325	0.0138838
800.403	0.0139511
800.481	0.0139465
800.559	0.0139012
800.637	0.0139538
800.715	0.0139355
800.793	0.0139909
800.871	0.0138666
800.950	0.0140170
801.028	0.0139787
801.106	0.0140001
801.184	0.0139664
801.262	0.0139268
801.340	0.0138098
801.418	0.0139155
801.496	0.0139047
801.575	0.0138408
801.653	0.0140301
801.731	0.0141046
801.809	0.0139046
801.887	0.0139696
801.965	0.0141225
802.043	0.0139706
802.121	0.0139151
802.200	0.0140467
802.278	0.0139739
802.356	0.0138797
802.434	0.0139414
802.512	0.0139615
802.590	0.0140912
802.668	0.0138249
802.746	0.0140016
802.825	0.0138857
802.903	0.0139107
802.981	0.0139834
803.059	0.0139847
803.137	0.0139964
803.215	0.0140010
803.293	0.0139756
803.371	0.0141179
803.450	0.0140355
803.528	0.0139764
803.606	0.0138567
803.684	0.0139023
803.762	0.0138720
803.840	0.0139525
803.918	0.0139582
803.996	0.0138639
804.075	0.0138388
804.153	0.0139580
804.231	0.0138022
804.309	0.0139857
804.387	0.0138649
804.465	0.0138560
804.543	0.0139363
804.621	0.0139424
804.700	0.0139648
804.778	0.0139580
804.856	0.0139917
804.934	0.0138520
805.012	0.0139459
805.090	0.0139307
805.168	0.0138733
805.246	0.0140180
805.325	0.0139231
805.403	0.0139477
805.481	0.0140695
805.559	0.0140173
805.637	0.0140199
805.715	0.0138840
805.793	0.0138801
805.871	0.0137765
805.950	0.0139002
806.028	0.0138658
806.106	0.0138521
806.184	0.0139633
806.262	0.0138165
806.340	0.0139018
806.418	0.0138364
806.496	0.0137605
806.575	0.0138834
806.653	0.0139880
806.731	0.0139502
806.809	0.0140919
806.887	0.0139174
806.965	0.0137845
807.043	0.0139535
807.121	0.0140321
807.200	0.0140031
807.278	0.0140977
807.356	0.0138946
807.434	0.0139044
807.512	0.0139953
807.590	0.0139359
807.668	0.0139111
807.746	0.0138504
807.825	0.0139597
807.903	0.0139314
807.981	0.0138567
808.059	0.0138483
808.137	0.0138567
808.215	0.0140588
808.293	0.0139391
808.371	0.0138030
808.450	0.0138712
808.528	0.0138870
808.606	0.0139589
808.684	0.0139178
808.762	0.0140234
808.840	0.0139751
808.918	0.0138605
808.996	0.0138556
809.075	0.0138396
809.153	0.0139998
809.231	0.0140076
809.309	0.0137897
809.387	0.0138100
809.465	0.0138802
809.543	0.0140305
809.621	0.0138399
809.700	0.0139095
809.778	0.0138112
809.856	0.0137791
809.934	0.0138615
810.012	0.0138705
810.090	0.0136794
810.168	0.0137699
810.246	0.0138924
810.325	0.0138457
810.403	0.0139663
810.481	0.0138451
810.559	0.0138338
810.637	0.0138490
810.715	0.0138902
810.793	0.0140267
810.871	0.0139738
810.950	0.0138865
811.028	0.0140225
811.106	0.0140038
811.184	0.0141426
811.262	0.0140097
811.340	0.0139295
811.418	0.0139475
811.496	0.0138318
811.575	0.0139866
811.653	0.0139650
811.731	0.0140028
811.809	0.0139502
811.887	0.0139424
811.965	0.0138591
812.043	0.0138160
812.121	0.0138699
812.200	0.0138697
812.278	0.0138653
812.356	0.0138635
812.434	0.0139576
812.512	0.0139426
812.590	0.0139049
812.668	0.0139385
812.746	0.0139358
812.825	0.0139646
812.903	0.0139757
812.981	0.0139280
813.059	0.0139831
813.137	0.0138829
813.215	0.0139377
813.293	0.0139013
813.371	0.0138763
813.450	0.0139475
813.528	0.0139234
813.606	0.0139057
813.684	0.0138627
813.762	0.0139043
813.840	0.0140920
813.918	0.0137897
813.996	0.0138759
814.075	0.0138714
814.153	0.0139987
814.231	0.0138476
814.309	0.0138081
814.387	0.0137997
814.465	0.0138065
814.543	0.0138491
814.621	0.0138110
814.700	0.0138433
814.778	0.0138969
814.856	0.0139272
814.934	0.0138950
815.012	0.0139014
815.090	0.0138266
815.168	0.0139680
815.246	0.0139539
815.325	0.0140537
815.403	0.0139726
815.481	0.0139473
815.559	0.0139796
815.637	0.0140427
815.715	0.0140307
815.793	0.0140968
815.871	0.0139369
815.950	0.0140013
816.028	0.0140363
816.106	0.0141499
816.184	0.0140886
816.262	0.0139658
816.340	0.0140676
816.418	0.0139435
816.496	0.0139116
816.575	0.0140136
816.653	0.0139900
816.731	0.0139918
816.809	0.0140501
816.887	0.0139617
816.965	0.0139957
817.043	0.0141299
817.121	0.0140133
817.200	0.0140288
817.278	0.0139483
817.356	0.0140285
817.434	0.0140456
817.512	0.0140239
817.590	0.0141509
817.668	0.0139764
817.746	0.0138493
817.825	0.0140073
817.903	0.0139852
817.981	0.0139727
818.059	0.0140324
818.137	0.0140891
818.215	0.0141322
818.293	0.0139784
818.371	0.0139444
818.450	0.0139801
818.528	0.0138481
818.606	0.0140608
818.684	0.0139542
818.762	0.0139409
818.840	0.0140733
818.918	0.0139750
818.996	0.0138792
819.075	0.0138421
819.153	0.0139409
819.231	0.0139263
819.309	0.0138432
819.387	0.0138902
819.465	0.0138752
819.543	0.0138588
819.621	0.0141045
819.700	0.0139653
819.778	0.0139854
819.856	0.0139912
819.934	0.0139303
820.012	0.0138616
820.090	0.0138927
820.168	0.0140045
820.246	0.0140154
820.325	0.0139458
820.403	0.0138683
820.481	0.0137397
820.559	0.0139578
820.637	0.0139275
820.715	0.0138522
820.793	0.0138361
820.871	0.0138416
820.950	0.0139047
821.028	0.0139891
821.106	0.0139527
821.184	0.0140542
821.262	0.0139977
821.340	0.0139192
821.418	0.0139407
821.496	0.0139494
821.575	0.0139204
821.653	0.0139149
821.731	0.0140540
821.809	0.0139542
821.887	0.0139542
821.965	0.0139816
822.043	0.0140132
822.121	0.0138663
822.200	0.0139403
822.278	0.0139079
822.356	0.0139835
822.434	0.0139370
822.512	0.0139710
822.590	0.0139455
822.668	0.0139763
822.746	0.0140282
822.825	0.0138628
822.903	0.0138870
822.981	0.0138840
823.059	0.0140230
823.137	0.0138322
823.215	0.0138014
823.293	0.0138076
823.371	0.0139053
823.450	0.0138381
823.528	0.0139475
823.606	0.0140405
823.684	0.0139057
823.762	0.0138937
823.840	0.0140192
823.918	0.0139895
823.996	0.0140075
824.075	0.0140201
824.153	0.0139953
824.231	0.0140075
824.309	0.0140921
824.387	0.0140976
824.465	0.0140686
824.543	0.0140164
824.621	0.0140903
824.700	0.0140979
824.778	0.0140874
824.856	0.0140403
824.934	0.0141169
825.012	0.0140870
825.090	0.0139677
825.168	0.0141050
825.246	0.0139543
825.325	0.0139520
825.403	0.0139657
825.481	0.0138193
825.559	0.0139421
825.637	0.0139776
825.715	0.0139149
825.793	0.0138768
825.871	0.0139129
825.950	0.0140176
826.028	0.0140330
826.106	0.0139410
826.184	0.0138819
826.262	0.0139524
826.340	0.0140854
826.418	0.0138995
826.496	0.0139792
826.575	0.0140492
826.653	0.0140319
826.731	0.0139388
826.809	0.0139047
826.887	0.0138507
826.965	0.0141327
827.043	0.0140178
827.121	0.0141405
827.200	0.0138869
827.278	0.0138311
827.356	0.0139569
827.434	0.0139449
827.512	0.0139044
827.590	0.0138663
827.668	0.0139041
827.746	0.0138985
827.825	0.0138984
827.903	0.0140105
827.981	0.0140721
828.059	0.0140215
828.137	0.0140088
828.215	0.0139184
828.293	0.0140146
828.371	0.0140060
828.450	0.0139801
828.528	0.0140025
828.606	0.0140833
828.684	0.0138692
828.762	0.0140871
828.840	0.0138993
828.918	0.0140174
828.996	0.0140629
829.075	0.0139899
829.153	0.0139272
829.231	0.0139260
829.309	0.0139437
829.387	0.0139610
829.465	0.0139082
829.543	0.0140144
829.621	0.0139585
829.700	0.0139043
829.778	0.0141297
829.856	0.0141109
829.934	0.0140586
830.012	0.0138482
830.090	0.0141541
830.168	0.0141389
830.246	0.0140195
830.325	0.0139826
830.403	0.0139611
830.481	0.0140088
830.559	0.0139454
830.637	0.0138938
830.715	0.0140092
830.793	0.0138841
830.871	0.0137540
830.950	0.0139796
831.028	0.0138919
831.106	0.0138827
831.184	0.0138217
831.262	0.0139606
831.340	0.0138953
831.418	0.0137953
831.496	0.0139247
831.575	0.0139162
831.653	0.0138569
831.731	0.0139172
831.809	0.0139828
831.887	0.0139150
831.965	0.0138724
832.043	0.0138851
832.121	0.0138612
832.200	0.0139131
832.278	0.0139480
832.356	0.0140211
832.434	0.0138911
832.512	0.0141009
832.590	0.0139729
832.668	0.0139367
832.746	0.0138379
832.825	0.0140315
832.903	0.0140094
832.981	0.0140165
833.059	0.0141407
833.137	0.0139075
833.215	0.0137758
833.293	0.0139429
833.371	0.0139256
833.450	0.0139306
833.528	0.0139043
833.606	0.0137872
833.684	0.0139198
833.762	0.0139285
833.840	0.0140017
833.918	0.0138692
833.996	0.0138729
834.075	0.0138661
834.153	0.0139480
834.231	0.0139238
834.309	0.0138499
834.387	0.0138888
834.465	0.0138020
834.543	0.0140385
834.621	0.0140960
834.700	0.0139938
834.778	0.0140248
834.856	0.0139642
834.934	0.0139647
835.012	0.0139977
835.090	0.0140314
835.168	0.0141106
835.246	0.0140708
835.325	0.0138885
835.403	0.0139618
835.481	0.0140717
835.559	0.0139557
835.637	0.0139706
835.715	0.0140213
835.793	0.0140585
835.871	0.0139832
835.950	0.0139279
836.028	0.0138389
836.106	0.0139966
836.184	0.0138898
836.262	0.0138947
836.340	0.0139509
836.418	0.0137886
836.496	0.0139341
836.575	0.0138679
836.653	0.0138902
836.731	0.0139587
836.809	0.0139994
836.887	0.0138663
836.965	0.0141101
837.043	0.0139145
837.121	0.0139881
837.200	0.0139908
837.278	0.0139899
837.356	0.0140025
837.434	0.0139277
837.512	0.0139507
837.590	0.0138557
837.668	0.0139732
837.746	0.0140682
837.825	0.0141113
837.903	0.0139920
837.981	0.0140239
838.059	0.0141044
838.137	0.0140023
838.215	0.0139094
838.293	0.0139547
838.371	0.0138886
838.450	0.0140457
838.528	0.0140150
838.606	0.0140315
838.684	0.0140620
838.762	0.0140455
838.840	0.0140661
838.918	0.0140614
838.996	0.0141924
839.075	0.0140260
839.153	0.0140659
839.231	0.0140981
839.309	0.0139169
839.387	0.0139711
839.465	0.0140299
839.543	0.0140131
839.621	0.0139500
839.700	0.0140418
839.778	0.0139615
839.856	0.0140057
839.934	0.0139384
840.012	0.0140072
840.090	0.0140784
840.168	0.0139230
840.246	0.0139310
840.325	0.0138794
840.403	0.0140297
840.481	0.0140507
840.559	0.0140345
840.637	0.0140058
840.715	0.0140578
840.793	0.0141570
840.871	0.0140276
840.950	0.0139717
841.028	0.0138909
841.106	0.0139725
841.184	0.0140465
841.262	0.0138847
841.340	0.0139290
841.418	0.0140039
841.496	0.0138679
841.575	0.0138541
841.653	0.0139840
841.731	0.0140182
841.809	0.0138081
841.887	0.0138571
841.965	0.0138274
842.043	0.0139678
842.121	0.0138638
842.200	0.0138113
842.278	0.0137840
842.356	0.0137571
842.434	0.0138319
842.512	0.0139891
842.590	0.0138766
842.668	0.0139536
842.746	0.0138954
842.825	0.0139119
842.903	0.0139323
842.981	0.0140684
843.059	0.0139281
843.137	0.0141062
843.215	0.0141203
843.293	0.0140896
843.371	0.0140486
843.450	0.0139426
843.528	0.0140062
843.606	0.0141489
843.684	0.0139980
843.762	0.0139055
843.840	0.0140209
843.918	0.0138205
843.996	0.0137834
844.075	0.0139099
844.153	0.0139447
844.231	0.0138656
844.309	0.0138148
844.387	0.0138700
844.465	0.0139039
844.543	0.0139326
844.621	0.0139548
844.700	0.0140295
844.778	0.0140020
844.856	0.0140627
844.934	0.0139697
845.012	0.0139941
845.090	0.0140292
845.168	0.0140546
845.246	0.0140935
845.325	0.0140257
845.403	0.0140742
845.481	0.0140723
845.559	0.0140166
845.637	0.0139754
845.715	0.0140261
845.793	0.0139819
845.871	0.0140411
845.950	0.0139326
846.028	0.0137549
846.106	0.0137462
846.184	0.0140363
846.262	0.0139323
846.340	0.0138136
846.418	0.0139249
846.496	0.0138906
846.575	0.0139889
846.653	0.0139265
846.731	0.0140408
846.809	0.0139034
846.887	0.0140343
846.965	0.0139720
847.043	0.0139407
847.121	0.0139880
847.200	0.0138699
847.278	0.0140704
847.356	0.0140224
847.434	0.0139722
847.512	0.0140402
847.590	0.0140355
847.668	0.0139878
847.746	0.0140145
847.825	0.0140520
847.903	0.0139733
847.981	0.0139759
848.059	0.0138908
848.137	0.0138828
848.215	0.0139516
848.293	0.0140356
848.371	0.0140636
848.450	0.0140403
848.528	0.0139654
848.606	0.0140518
848.684	0.0139908
848.762	0.0138592
848.840	0.0137858
848.918	0.0139433
848.996	0.0139756
849.075	0.0138052
849.153	0.0139213
849.231	0.0140001
849.309	0.0141006
849.387	0.0139484
849.465	0.0138390
849.543	0.0138903
849.621	0.0139316
849.700	0.0139455
849.778	0.0139568
849.856	0.0140896
849.934	0.0140689
850.012	0.0139307
850.090	0.0141287
850.168	0.0140661
850.246	0.0138620
850.325	0.0139104
850.403	0.0140772
850.481	0.0140961
850.559	0.0140054
850.637	0.0139896
850.715	0.0139829
850.793	0.0138937
850.871	0.0140401
850.950	0.0139586
851.028	0.0140450
851.106	0.0138591
851.184	0.0139404
851.262	0.0139214
851.340	0.0140047
851.418	0.0139439
851.496	0.0139686
851.575	0.0140540
851.653	0.0138424
851.731	0.0138672
851.809	0.0139316
851.887	0.0139697
851.965	0.0139710
852.043	0.0140308
852.121	0.0138615
852.200	0.0139216
852.278	0.0140023
852.356	0.0139919
852.434	0.0138909
852.512	0.0140688
852.590	0.0141033
852.668	0.0140566
852.746	0.0139491
852.825	0.0140691
852.903	0.0141145
852.981	0.0140418
853.059	0.0141729
853.137	0.0140575
853.215	0.0140663
853.293	0.0139395
853.371	0.0138977
853.450	0.0139120
853.528	0.0138373
853.606	0.0140359
853.684	0.0137980
853.762	0.0137222
853.840	0.0140207
853.918	0.0138048
853.996	0.0138419
854.075	0.0138551
854.153	0.0138157
854.231	0.0137473
854.309	0.0138830
854.387	0.0139181
854.465	0.0140380
854.543	0.0142139
854.621	0.0141155
854.700	0.0142493
854.778	0.0140134
854.856	0.0139752
854.934	0.0139433
855.012	0.0140594
855.090	0.0141016
855.168	0.0138850
855.246	0.0140575
855.325	0.0140636
855.403	0.0139852
855.481	0.0139312
855.559	0.0140780
855.637	0.0139628
855.715	0.0139152
855.793	0.0139692
855.871	0.0139391
855.950	0.0139677
856.028	0.0139516
856.106	0.0137773
856.184	0.0138674
856.262	0.0139098
856.340	0.0139798
856.418	0.0138575
856.496	0.0138924
856.575	0.0138527
856.653	0.0138271
856.731	0.0139367
856.809	0.0137979
856.887	0.0139256
856.965	0.0139534
857.043	0.0139394
857.121	0.0140672
857.200	0.0140241
857.278	0.0140022
857.356	0.0140556
857.434	0.0141655
857.512	0.0141282
857.590	0.0141103
857.668	0.0140826
857.746	0.0140882
857.825	0.0140612
857.903	0.0140755
857.981	0.0139591
858.059	0.0139933
858.137	0.0141222
858.215	0.0139543
858.293	0.0140529
858.371	0.0138950
858.450	0.0139230
858.528	0.0139388
858.606	0.0138522
858.684	0.0137608
858.762	0.0138411
858.840	0.0138272
858.918	0.0138609
858.996	0.0138777
859.075	0.0140182
859.153	0.0139154
859.231	0.0140112
859.309	0.0141184
859.387	0.0139606
859.465	0.0139416
859.543	0.0141111
859.621	0.0142392
859.700	0.0141270
859.778	0.0141019
859.856	0.0140405
859.934	0.0139722
860.012	0.0139466
860.090	0.0140300
860.168	0.0139845
860.246	0.0139393
860.325	0.0139774
860.403	0.0138390
860.481	0.0138717
860.559	0.0138971
860.637	0.0138647
860.715	0.0138866
860.793	0.0139017
860.871	0.0139267
860.950	0.0138565
861.028	0.0137623
861.106	0.0139520
861.184	0.0138716
861.262	0.0139317
861.340	0.0138712
861.418	0.0138723
861.496	0.0138916
861.575	0.0138606
861.653	0.0139348
861.731	0.0139687
861.809	0.0138739
861.887	0.0139302
861.965	0.0138126
862.043	0.0140388
862.121	0.0140755
862.200	0.0139889
862.278	0.0138955
862.356	0.0140424
862.434	0.0140630
862.512	0.0139296
862.590	0.0139557
862.668	0.0140293
862.746	0.0138046
862.825	0.0139286
862.903	0.0138270
862.981	0.0140232
863.059	0.0140575
863.137	0.0139343
863.215	0.0138787
863.293	0.0139069
863.371	0.0139943
863.450	0.0140034
863.528	0.0138949
863.606	0.0139193
863.684	0.0139356
863.762	0.0139743
863.840	0.0140166
863.918	0.0139684
863.996	0.0139200
864.075	0.0140053
864.153	0.0140623
864.231	0.0140536
864.309	0.0140465
864.387	0.0140678
864.465	0.0139391
864.543	0.0141402
864.621	0.0140627
864.700	0.0139919
864.778	0.0140948
864.856	0.0139887
864.934	0.0140715
865.012	0.0140634
865.090	0.0140452
865.168	0.0139172
865.246	0.0140125
865.325	0.0139111
865.403	0.0138743
865.481	0.0138509
865.559	0.0137733
865.637	0.0138959
865.715	0.0139619
865.793	0.0138052
865.871	0.0139722
865.950	0.0139187
866.028	0.0138838
866.106	0.0139427
866.184	0.0139146
866.262	0.0140012
866.340	0.0138997
866.418	0.0138862
866.496	0.0139497
866.575	0.0139976
866.653	0.0138646
866.731	0.0139886
866.809	0.0138934
866.887	0.0138874
866.965	0.0139353
867.043	0.0140176
867.121	0.0139681
867.200	0.0138874
867.278	0.0140105
867.356	0.0139056
867.434	0.0138886
867.512	0.0139823
867.590	0.0138811
867.668	0.0138608
867.746	0.0138452
867.825	0.0137813
867.903	0.0137936
867.981	0.0138293
868.059	0.0139896
868.137	0.0139407
868.215	0.0138568
868.293	0.0138969
868.371	0.0138465
868.450	0.0139044
868.528	0.0139230
868.606	0.0140265
868.684	0.0140797
868.762	0.0138932
868.840	0.0138750
868.918	0.0139284
868.996	0.0138830
869.075	0.0139199
869.153	0.0140664
869.231	0.0140924
869.309	0.0138604
869.387	0.0138251
869.465	0.0139727
869.543	0.0140126
869.621	0.0138949
869.700	0.0139355
869.778	0.0139983
869.856	0.0138197
869.934	0.0139005
870.012	0.0139017
870.090	0.0137870
870.168	0.0137417
870.246	0.0139442
870.325	0.0139777
870.403	0.0137821
870.481	0.0139339
870.559	0.0139576
870.637	0.0139188
870.715	0.0138435
870.793	0.0138873
870.871	0.0140559
870.950	0.0139443
871.028	0.0140176
871.106	0.0140481
871.184	0.0140568
871.262	0.0139324
871.340	0.0139570
871.418	0.0141145
871.496	0.0140456
871.575	0.0141386
871.653	0.0137750
871.731	0.0140034
871.809	0.0140239
871.887	0.0139022
871.965	0.0139893
872.043	0.0140765
872.121	0.0138949
872.200	0.0137902
872.278	0.0139111
872.356	0.0139601
872.434	0.0138779
872.512	0.0138103
872.590	0.0138387
872.668	0.0138766
872.746	0.0138311
872.825	0.0138189
872.903	0.0139194
872.981	0.0139148
873.059	0.0139180
873.137	0.0139265
873.215	0.0139032
873.293	0.0139933
873.371	0.0138293
873.450	0.0138789
873.528	0.0139152
873.606	0.0139327
873.684	0.0140234
873.762	0.0140885
873.840	0.0140910
873.918	0.0139902
873.996	0.0139956
874.075	0.0140458
874.153	0.0140085
874.231	0.0138589
874.309	0.0140823
874.387	0.0139876
874.465	0.0139444
874.543	0.0139325
874.621	0.0138821
874.700	0.0138123
874.778	0.0137569
874.856	0.0137697
874.934	0.0138273
875.012	0.0139199
875.090	0.0139574
875.168	0.0138609
875.246	0.0137698
875.325	0.0138146
875.403	0.0138580
875.481	0.0138382
875.559	0.0139131
875.637	0.0139301
875.715	0.0139127
875.793	0.0140783
875.871	0.0138899
875.950	0.0139734
876.028	0.0140652
876.106	0.0139902
876.184	0.0140787
876.262	0.0138946
876.340	0.0139888
876.418	0.0138954
876.496	0.0138776
876.575	0.0140045
876.653	0.0138839
876.731	0.0139128
876.809	0.0140889
876.887	0.0139200
876.965	0.0138723
877.043	0.0139215
877.121	0.0139706
877.200	0.0139558
877.278	0.0139209
877.356	0.0139426
877.434	0.0138598
877.512	0.0139774
877.590	0.0139044
877.668	0.0140704
877.746	0.0139902
877.825	0.0140450
877.903	0.0140348
877.981	0.0140449
878.059	0.0141693
878.137	0.0140381
878.215	0.0137807
878.293	0.0138686
878.371	0.0139310
878.450	0.0139405
878.528	0.0139481
878.606	0.0140250
878.684	0.0138205
878.762	0.0137400
878.840	0.0139082
878.918	0.0138079
878.996	0.0139463
879.075	0.0139172
879.153	0.0138615
879.231	0.0139973
879.309	0.0139317
879.387	0.0139500
879.465	0.0139882
879.543	0.0139633
879.621	0.0141003
879.700	0.0139542
879.778	0.0139574
879.856	0.0140034
879.934	0.0141153
880.012	0.0141108
880.090	0.0138842
880.168	0.0137096
880.246	0.0139021
880.325	0.0138847
880.403	0.0138802
880.481	0.0138719
880.559	0.0139427
880.637	0.0138850
880.715	0.0138306
880.793	0.0136090
880.871	0.0136871
880.950	0.0137970
881.028	0.0138973
881.106	0.0138757
881.184	0.0139429
881.262	0.0138966
881.340	0.0139077
881.418	0.0140442
881.496	0.0138941
881.575	0.0139255
881.653	0.0141255
881.731	0.0139751
881.809	0.0139093
881.887	0.0139643
881.965	0.0139455
882.043	0.0140002
882.121	0.0141119
882.200	0.0137212
882.278	0.0139052
882.356	0.0138264
882.434	0.0139044
882.512	0.0138981
882.590	0.0138110
882.668	0.0138623
882.746	0.0138060
882.825	0.0139604
882.903	0.0137939
882.981	0.0137758
883.059	0.0138548
883.137	0.0139034
883.215	0.0139151
883.293	0.0138541
883.371	0.0138638
883.450	0.0139130
883.528	0.0139187
883.606	0.0138278
883.684	0.0138625
883.762	0.0138296
883.840	0.0138396
883.918	0.0138213
883.996	0.0139865
884.075	0.0138636
884.153	0.0139783
884.231	0.0138759
884.309	0.0138961
884.387	0.0138940
884.465	0.0138184
884.543	0.0138072
884.621	0.0139556
884.700	0.0139449
884.778	0.0139436
884.856	0.0138654
884.934	0.0139796
885.012	0.0136967
885.090	0.0138770
885.168	0.0138410
885.246	0.0138412
885.325	0.0138521
885.403	0.0139582
885.481	0.0138876
885.559	0.0139399
885.637	0.0139447
885.715	0.0138508
885.793	0.0138157
885.871	0.0137833
885.950	0.0139182
886.028	0.0139627
886.106	0.0139060
886.184	0.0138576
886.262	0.0139313
886.340	0.0140020
886.418	0.0139851
886.496	0.0139179
886.575	0.0139397
886.653	0.0139596
886.731	0.0138195
886.809	0.0140134
886.887	0.0138017
886.965	0.0139091
887.043	0.0137404
887.121	0.0138550
887.200	0.0138839
887.278	0.0137584
887.356	0.0139694
887.434	0.0141196
887.512	0.0139004
887.590	0.0140157
887.668	0.0140808
887.746	0.0140269
887.825	0.0140781
887.903	0.0139649
887.981	0.0140317
888.059	0.0140501
888.137	0.0139819
888.215	0.0139648
888.293	0.0140482
888.371	0.0140047
888.450	0.0139626
888.528	0.0138414
888.606	0.0139619
888.684	0.0140101
888.762	0.0138411
888.840	0.0139304
888.918	0.0139579
888.996	0.0139823
889.075	0.0139184
889.153	0.0139691
889.231	0.0139757
889.309	0.0138818
889.387	0.0138832
889.465	0.0138654
889.543	0.0139830
889.621	0.0139665
889.700	0.0140195
889.778	0.0139561
889.856	0.0139598
889.934	0.0139088
890.012	0.0137947
890.090	0.0140368
890.168	0.0139155
890.246	0.0139088
890.325	0.0138534
890.403	0.0139641
890.481	0.0140391
890.559	0.0139884
890.637	0.0139478
890.715	0.0138747
890.793	0.0139715
890.871	0.0140215
890.950	0.0138828
891.028	0.0138428
891.106	0.0138050
891.184	0.0137595
891.262	0.0138007
891.340	0.0138135
891.418	0.0137881
891.496	0.0138907
891.575	0.0138794
891.653	0.0138284
891.731	0.0139295
891.809	0.0139252
891.887	0.0138552
891.965	0.0139499
892.043	0.0141402
892.121	0.0140210
892.200	0.0138491
892.278	0.0138100
892.356	0.0139644
892.434	0.0140120
892.512	0.0140657
892.590	0.0140017
892.668	0.0138449
892.746	0.0138836
892.825	0.0137349
892.903	0.0137969
892.981	0.0138204
893.059	0.0138783
893.137	0.0138052
893.215	0.0137695
893.293	0.0137528
893.371	0.0138319
893.450	0.0137958
893.528	0.0137969
893.606	0.0138398
893.684	0.0138277
893.762	0.0138744
893.840	0.0138860
893.918	0.0138725
893.996	0.0138148
894.075	0.0138904
894.153	0.0139513
894.231	0.0138023
894.309	0.0138531
894.387	0.0138451
894.465	0.0138165
894.543	0.0140639
894.621	0.0139182
894.700	0.0138999
894.778	0.0137737
894.856	0.0138920
894.934	0.0140544
895.012	0.0139782
895.090	0.0139075
895.168	0.0139690
895.246	0.0137161
895.325	0.0139104
895.403	0.0139632
895.481	0.0139368
895.559	0.0138964
895.637	0.0138455
895.715	0.0137964
895.793	0.0138663
895.871	0.0138593
895.950	0.0137677
896.028	0.0139400
896.106	0.0138934
896.184	0.0138298
896.262	0.0140979
896.340	0.0138804
896.418	0.0140185
896.496	0.0140486
896.575	0.0141105
896.653	0.0139737
896.731	0.0140397
896.809	0.0140723
896.887	0.0140231
896.965	0.0140527
897.043	0.0139079
897.121	0.0137872
897.200	0.0138322
897.278	0.0138887
897.356	0.0139220
897.434	0.0138715
897.512	0.0139719
897.590	0.0139763
897.668	0.0138294
897.746	0.0138935
897.825	0.0138952
897.903	0.0139081
897.981	0.0140263
898.059	0.0141379
898.137	0.0138898
898.215	0.0139302
898.293	0.0139124
898.371	0.0139941
898.450	0.0140746
898.528	0.0138419
898.606	0.0140144
898.684	0.0140435
898.762	0.0139132
898.840	0.0137170
898.918	0.0138147
898.996	0.0139633
899.075	0.0139513
899.153	0.0137849
899.231	0.0138620
899.309	0.0139840
899.387	0.0140138
899.465	0.0138258
899.543	0.0138217
899.621	0.0139165
899.700	0.0139877
899.778	0.0139249
899.856	0.0138831
899.934	0.0138692
900.012	0.0138061
900.090	0.0139883
900.168	0.0138909
900.246	0.0140594
900.325	0.0140764
900.403	0.0139252
900.481	0.0139793
900.559	0.0139735
900.637	0.0140611
900.715	0.0140206
900.793	0.0139003
900.871	0.0140101
900.950	0.0138252
901.028	0.0139598
901.106	0.0139088
901.184	0.0138674
901.262	0.0140568
901.340	0.0137911
901.418	0.0138472
901.496	0.0139323
901.575	0.0138939
901.653	0.0139741
901.731	0.0137708
901.809	0.0140121
901.887	0.0139565
901.965	0.0140720
902.043	0.0139687
902.121	0.0139590
902.200	0.0140363
902.278	0.0140781
902.356	0.0139828
902.434	0.0140283
902.512	0.0138811
902.590	0.0138052
902.668	0.0139985
902.746	0.0138849
902.825	0.0137547
902.903	0.0139024
902.981	0.0138473
903.059	0.0137965
903.137	0.0138866
903.215	0.0137556
903.293	0.0138263
903.371	0.0138514
903.450	0.0138258
903.528	0.0137743
903.606	0.0139536
903.684	0.0139954
903.762	0.0138981
903.840	0.0139879
903.918	0.0140343
903.996	0.0137852
904.075	0.0138390
904.153	0.0138895
904.231	0.0138716
904.309	0.0138885
904.387	0.0138578
904.465	0.0136758
904.543	0.0138501
904.621	0.0137518
904.700	0.0138641
904.778	0.0138194
904.856	0.0139122
904.934	0.0139943
905.012	0.0140586
905.090	0.0140462
905.168	0.0140594
905.246	0.0139375
905.325	0.0140826
905.403	0.0139145
905.481	0.0138435
905.559	0.0139034
905.637	0.0138544
905.715	0.0137953
905.793	0.0139805
905.871	0.0139156
905.950	0.0139156
906.028	0.0138944
906.106	0.0139807
906.184	0.0140332
906.262	0.0139760
906.340	0.0140286
906.418	0.0139760
906.496	0.0140794
906.575	0.0139901
906.653	0.0141003
906.731	0.0141141
906.809	0.0141596
906.887	0.0142521
906.965	0.0140797
907.043	0.0141076
907.121	0.0139509
907.200	0.0138108
907.278	0.0138136
907.356	0.0139278
907.434	0.0139455
907.512	0.0138078
907.590	0.0137524
907.668	0.0137960
907.746	0.0137485
907.825	0.0136259
907.903	0.0139879
907.981	0.0137431
908.059	0.0139117
908.137	0.0140748
908.215	0.0140199
908.293	0.0140161
908.371	0.0142246
908.450	0.0140578
908.528	0.0139918
908.606	0.0140236
908.684	0.0140202
908.762	0.0140105
908.840	0.0140473
908.918	0.0137840
908.996	0.0138379
909.075	0.0140770
909.153	0.0138803
909.231	0.0140314
909.309	0.0139069
909.387	0.0138673
909.465	0.0138558
909.543	0.0139037
909.621	0.0139391
909.700	0.0139949
909.778	0.0139455
909.856	0.0137064
909.934	0.0138950
910.012	0.0139825
910.090	0.0140274
910.168	0.0139737
910.246	0.0139861
910.325	0.0140418
910.403	0.0139471
910.481	0.0140623
910.559	0.0140099
910.637	0.0139719
910.715	0.0138827
910.793	0.0138853
910.871	0.0139638
910.950	0.0137214
911.028	0.0138845
911.106	0.0138564
911.184	0.0139055
911.262	0.0138981
911.340	0.0139967
911.418	0.0141578
911.496	0.0141866
911.575	0.0140420
911.653	0.0140276
911.731	0.0140457
911.809	0.0140114
911.887	0.0139631
911.965	0.0140963
912.043	0.0139754
912.121	0.0140137
912.200	0.0139605
912.278	0.0140141
912.356	0.0138860
912.434	0.0138352
912.512	0.0140041
912.590	0.0138564
912.668	0.0137145
912.746	0.0137406
912.825	0.0137957
912.903	0.0138762
912.981	0.0138563
913.059	0.0139722
913.137	0.0138996
913.215	0.0139325
913.293	0.0140968
913.371	0.0140619
913.450	0.0139194
913.528	0.0139485
913.606	0.0140836
913.684	0.0140641
913.762	0.0139669
913.840	0.0138357
913.918	0.0137930
913.996	0.0136961
914.075	0.0137865
914.153	0.0139071
914.231	0.0137674
914.309	0.0136185
914.387	0.0134039
914.465	0.0137725
914.543	0.0138858
914.621	0.0137208
914.700	0.0138214
914.778	0.0139149
914.856	0.0139137
914.934	0.0140961
915.012	0.0141598
915.090	0.0140257
915.168	0.0139676
915.246	0.0140894
915.325	0.0141817
915.403	0.0142148
915.481	0.0141652
915.559	0.0140527
915.637	0.0139028
915.715	0.0140883
915.793	0.0140582
915.871	0.0139629
915.950	0.0139044
916.028	0.0139264
916.106	0.0138166
916.184	0.0136193
916.262	0.0136433
916.340	0.0137200
916.418	0.0137285
916.496	0.0137052
916.575	0.0137352
916.653	0.0137051
916.731	0.0137152
916.809	0.0139488
916.887	0.0137521
916.965	0.0139190
917.043	0.0140164
917.121	0.0140614
917.200	0.0140740
917.278	0.0141522
917.356	0.0141074
917.434	0.0140494
917.512	0.0140783
917.590	0.0141753
917.668	0.0142385
917.746	0.0140230
917.825	0.0139457
917.903	0.0139701
917.981	0.0139533
918.059	0.0138860
918.137	0.0138041
918.215	0.0138266
918.293	0.0138201
918.371	0.0137630
918.450	0.0138036
918.528	0.0137685
918.606	0.0139108
918.684	0.0137025
918.762	0.0137682
918.840	0.0138993
918.918	0.0137749
918.996	0.0139240
919.075	0.0138778
919.153	0.0139463
919.231	0.0139165
919.309	0.0139937
919.387	0.0138759
919.465	0.0140027
919.543	0.0139363
919.621	0.0141257
919.700	0.0141706
919.778	0.0141651
919.856	0.0141406
919.934	0.0139291
920.012	0.0139427
920.090	0.0139880
920.168	0.0139616
920.246	0.0138602
920.325	0.0139052
920.403	0.0139716
920.481	0.0138966
920.559	0.0138111
920.637	0.0138893
920.715	0.0137697
920.793	0.0139356
920.871	0.0139351
920.950	0.0138254
921.028	0.0139188
921.106	0.0139651
921.184	0.0139381
921.262	0.0139504
921.340	0.0139789
921.418	0.0139108
921.496	0.0140852
921.575	0.0139807
921.653	0.0139412
921.731	0.0138977
921.809	0.0138690
921.887	0.0138541
921.965	0.0138422
922.043	0.0137323
922.121	0.0139516
922.200	0.0139279
922.278	0.0138228
922.356	0.0139274
922.434	0.0138196
922.512	0.0139207
922.590	0.0139417
922.668	0.0137959
922.746	0.0139359
922.825	0.0139159
922.903	0.0139879
922.981	0.0138970
923.059	0.0140111
923.137	0.0141203
923.215	0.0141995
923.293	0.0141350
923.371	0.0139699
923.450	0.0140182
923.528	0.0140797
923.606	0.0140066
923.684	0.0139399
923.762	0.0138709
923.840	0.0139440
923.918	0.0139130
923.996	0.0139288
924.075	0.0139229
924.153	0.0140511
924.231	0.0139074
924.309	0.0139169
924.387	0.0138805
924.465	0.0138641
924.543	0.0138881
924.621	0.0138775
924.700	0.0139236
924.778	0.0138734
924.856	0.0137767
924.934	0.0138503
925.012	0.0138966
925.090	0.0140032
925.168	0.0138988
925.246	0.0138612
925.325	0.0139428
925.403	0.0140926
925.481	0.0139611
925.559	0.0140402
925.637	0.0141177
925.715	0.0139972
925.793	0.0139647
925.871	0.0139796
925.950	0.0140870
926.028	0.0141192
926.106	0.0139819
926.184	0.0139751
926.262	0.0138760
926.340	0.0139838
926.418	0.0138571
926.496	0.0137724
926.575	0.0137637
926.653	0.0137705
926.731	0.0140486
926.809	0.0139294
926.887	0.0138684
926.965	0.0137296
927.043	0.0137799
927.121	0.0138652
927.200	0.0139664
927.278	0.0139188
927.356	0.0137038
927.434	0.0139960
927.512	0.0139665
927.590	0.0139452
927.668	0.0140160
927.746	0.0140804
927.825	0.0139521
927.903	0.0140209
927.981	0.0138880
928.059	0.0140086
928.137	0.0140475
928.215	0.0139191
928.293	0.0140597
928.371	0.0139872
928.450	0.0140491
928.528	0.0138616
928.606	0.0138884
928.684	0.0140283
928.762	0.0139786
928.840	0.0139952
928.918	0.0139773
928.996	0.0139214
929.075	0.0140768
929.153	0.0140372
929.231	0.0139185
929.309	0.0139771
929.387	0.0140896
929.465	0.0140543
929.543	0.0141048
929.621	0.0140292
929.700	0.0141135
929.778	0.0141602
929.856	0.0141860
929.934	0.0140299
930.012	0.0140645
930.090	0.0140472
930.168	0.0140984
930.246	0.0140404
930.325	0.0141839
930.403	0.0142030
930.481	0.0140146
930.559	0.0139474
930.637	0.0140324
930.715	0.0138583
930.793	0.0137560
930.871	0.0137577
930.950	0.0139905
931.028	0.0140041
931.106	0.0138107
931.184	0.0137623
931.262	0.0138078
931.340	0.0139675
931.418	0.0138713
931.496	0.0139948
931.575	0.0138396
931.653	0.0139096
931.731	0.0138758
931.809	0.0138933
931.887	0.0140243
931.965	0.0140567
932.043	0.0141142
932.121	0.0140890
932.200	0.0140172
932.278	0.0140504
932.356	0.0140855
932.434	0.0141071
932.512	0.0140600
932.590	0.0139297
932.668	0.0140193
932.746	0.0141470
932.825	0.0139806
932.903	0.0138198
932.981	0.0139437
933.059	0.0139024
933.137	0.0139583
933.215	0.0139398
933.293	0.0139426
933.371	0.0139507
933.450	0.0139344
933.528	0.0139191
933.606	0.0139748
933.684	0.0140112
933.762	0.0139998
933.840	0.0140879
933.918	0.0140912
933.996	0.0140746
934.075	0.0140263
934.153	0.0141135
934.231	0.0139999
934.309	0.0140025
934.387	0.0139931
934.465	0.0140231
934.543	0.0140289
934.621	0.0139145
934.700	0.0138883
934.778	0.0139962
934.856	0.0140742
934.934	0.0139283
935.012	0.0139027
935.090	0.0139924
935.168	0.0138914
935.246	0.0139405
935.325	0.0139461
935.403	0.0138442
935.481	0.0140157
935.559	0.0139812
935.637	0.0139494
935.715	0.0139599
935.793	0.0139149
935.871	0.0138927
935.950	0.0140264
936.028	0.0139613
936.106	0.0140678
936.184	0.0140579
936.262	0.0140286
936.340	0.0139471
936.418	0.0139906
936.496	0.0140234
936.575	0.0139126
936.653	0.0140453
936.731	0.0138872
936.809	0.0139462
936.887	0.0139897
936.965	0.0139243
937.043	0.0139067
937.121	0.0139825
937.200	0.0139211
937.278	0.0139528
937.356	0.0138280
937.434	0.0137399
937.512	0.0137746
937.590	0.0140794
937.668	0.0139951
937.746	0.0139257
937.825	0.0139288
937.903	0.0139524
937.981	0.0139777
938.059	0.0140749
938.137	0.0139864
938.215	0.0139832
938.293	0.0139625
938.371	0.0139685
938.450	0.0138864
938.528	0.0139998
938.606	0.0138406
938.684	0.0139605
938.762	0.0140043
938.840	0.0139253
938.918	0.0139138
938.996	0.0139302
939.075	0.0139580
939.153	0.0140562
939.231	0.0140061
939.309	0.0140414
939.387	0.0140127
939.465	0.0139144
939.543	0.0139364
939.621	0.0139767
939.700	0.0140087
939.778	0.0139798
939.856	0.0140086
939.934	0.0139213
940.012	0.0137982
940.090	0.0140345
940.168	0.0139318
940.246	0.0138793
940.325	0.0138183
940.403	0.0139534
940.481	0.0138485
940.559	0.0139091
940.637	0.0138555
940.715	0.0139275
940.793	0.0140233
940.871	0.0139319
940.950	0.0139297
941.028	0.0140233
941.106	0.0140981
941.184	0.0140862
941.262	0.0139928
941.340	0.0140533
941.418	0.0140739
941.496	0.0140257
941.575	0.0139278
941.653	0.0139995
941.731	0.0140722
941.809	0.0140244
941.887	0.0140282
941.965	0.0140633
942.043	0.0140302
942.121	0.0139577
942.200	0.0139479
942.278	0.0138935
942.356	0.0138784
942.434	0.0139089
942.512	0.0136853
942.590	0.0138627
942.668	0.0137434
942.746	0.0138715
942.825	0.0137681
942.903	0.0139179
942.981	0.0139288
943.059	0.0138719
943.137	0.0138295
943.215	0.0138988
943.293	0.0138367
943.371	0.0139465
943.450	0.0141512
943.528	0.0140241
943.606	0.0140701
943.684	0.0141519
943.762	0.0141557
943.840	0.0140171
943.918	0.0140334
943.996	0.0140967
944.075	0.0140919
944.153	0.0141584
944.231	0.0140597
944.309	0.0139539
944.387	0.0140110
944.465	0.0140246
944.543	0.0138591
944.621	0.0139436
944.700	0.0138919
944.778	0.0137921
944.856	0.0138368
944.934	0.0138487
945.012	0.0138639
945.090	0.0140203
945.168	0.0139697
945.246	0.0139828
945.325	0.0139442
945.403	0.0139328
945.481	0.0140479
945.559	0.0140018
945.637	0.0139905
945.715	0.0140604
945.793	0.0139187
945.871	0.0140492
945.950	0.0140601
946.028	0.0140435
946.106	0.0140040
946.184	0.0140090
946.262	0.0139570
946.340	0.0139606
946.418	0.0139021
946.496	0.0139911
946.575	0.0139037
946.653	0.0139359
946.731	0.0140148
946.809	0.0140166
946.887	0.0139530
946.965	0.0138914
947.043	0.0140115
947.121	0.0138425
947.200	0.0139771
947.278	0.0139642
947.356	0.0139133
947.434	0.0139138
947.512	0.0138913
947.590	0.0137769
947.668	0.0138289
947.746	0.0139604
947.825	0.0139353
947.903	0.0138376
947.981	0.0138772
948.059	0.0138296
948.137	0.0139890
948.215	0.0140106
948.293	0.0140955
948.371	0.0140195
948.450	0.0140318
948.528	0.0140411
948.606	0.0139861
948.684	0.0140984
948.762	0.0138989
948.840	0.0139847
948.918	0.0141743
948.996	0.0140908
949.075	0.0139804
949.153	0.0139987
949.231	0.0139360
949.309	0.0139441
949.387	0.0140134
949.465	0.0139407
949.543	0.0139024
949.621	0.0139499
949.700	0.0138873
949.778	0.0138605
949.856	0.0138792
949.934	0.0139697
950.012	0.0140208
950.090	0.0138812
950.168	0.0139964
950.246	0.0139682
950.325	0.0139190
950.403	0.0139528
950.481	0.0140414
950.559	0.0139496
950.637	0.0138937
950.715	0.0139060
950.793	0.0138969
950.871	0.0140007
950.950	0.0140960
951.028	0.0138367
951.106	0.0139008
951.184	0.0139098
951.262	0.0141912
951.340	0.0141644
951.418	0.0140798
951.496	0.0139523
951.575	0.0138586
951.653	0.0140049
951.731	0.0139651
951.809	0.0139059
951.887	0.0139413
951.965	0.0139420
952.043	0.0138635
952.121	0.0139135
952.200	0.0138677
952.278	0.0138472
952.356	0.0136533
952.434	0.0138015
952.512	0.0137698
952.590	0.0138456
952.668	0.0137543
952.746	0.0137685
952.825	0.0139329
952.903	0.0139793
952.981	0.0138192
953.059	0.0138823
953.137	0.0140316
953.215	0.0139941
953.293	0.0139359
953.371	0.0141341
953.450	0.0140239
953.528	0.0140530
953.606	0.0140057
953.684	0.0139602
953.762	0.0140770
953.840	0.0139229
953.918	0.0140180
953.996	0.0140042
954.075	0.0139404
954.153	0.0139358
954.231	0.0140035
954.309	0.0141090
954.387	0.0139115
954.465	0.0138650
954.543	0.0140373
954.621	0.0140155
954.700	0.0140754
954.778	0.0139289
954.856	0.0140284
954.934	0.0139200
955.012	0.0139510
955.090	0.0141751
955.168	0.0140275
955.246	0.0139938
955.325	0.0139882
955.403	0.0139610
955.481	0.0139498
955.559	0.0139504
955.637	0.0140856
955.715	0.0140680
955.793	0.0139870
955.871	0.0140363
955.950	0.0139233
956.028	0.0140002
956.106	0.0140746
956.184	0.0140018
956.262	0.0140950
956.340	0.0139478
956.418	0.0139066
956.496	0.0139085
956.575	0.0140336
956.653	0.0140442
956.731	0.0140324
956.809	0.0140627
956.887	0.0140349
956.965	0.0139342
957.043	0.0139311
957.121	0.0139284
957.200	0.0139295
957.278	0.0140039
957.356	0.0140491
957.434	0.0139804
957.512	0.0137798
957.590	0.0138987
957.668	0.0139488
957.746	0.0140626
957.825	0.0139574
957.903	0.0138493
957.981	0.0138697
958.059	0.0139502
958.137	0.0138592
958.215	0.0139612
958.293	0.0139252
958.371	0.0138306
958.450	0.0138478
958.528	0.0140199
958.606	0.0139021
958.684	0.0140208
958.762	0.0140852
958.840	0.0139996
958.918	0.0138651
958.996	0.0139442
959.075	0.0140243
959.153	0.0140810
959.231	0.0140147
959.309	0.0140102
959.387	0.0139748
959.465	0.0141432
959.543	0.0142641
959.621	0.0140150
959.700	0.0139706
959.778	0.0139999
959.856	0.0140584
959.934	0.0139754
960.012	0.0138503
960.090	0.0139158
960.168	0.0139085
960.246	0.0138149
960.325	0.0138916
960.403	0.0139121
960.481	0.0138199
960.559	0.0138765
960.637	0.0138272
960.715	0.0138740
960.793	0.0139496
960.871	0.0139087
960.950	0.0140087
961.028	0.0138869
961.106	0.0138470
961.184	0.0141231
961.262	0.0138678
961.340	0.0139101
961.418	0.0140530
961.496	0.0139715
961.575	0.0139068
961.653	0.0138691
961.731	0.0139194
961.809	0.0140031
961.887	0.0140042
961.965	0.0139797
962.043	0.0139899
962.121	0.0139188
962.200	0.0138692
962.278	0.0138808
962.356	0.0139661
962.434	0.0139381
962.512	0.0140094
962.590	0.0138267
962.668	0.0139392
962.746	0.0139935
962.825	0.0139193
962.903	0.0139669
962.981	0.0139517
963.059	0.0138034
963.137	0.0137814
963.215	0.0138248
963.293	0.0137859
963.371	0.0138976
963.450	0.0139317
963.528	0.0139078
963.606	0.0138821
963.684	0.0138787
963.762	0.0140059
963.840	0.0139661
963.918	0.0140401
963.996	0.0138934
964.075	0.0140311
964.153	0.0138813
964.231	0.0139651
964.309	0.0139381
964.387	0.0140689
964.465	0.0139406
964.543	0.0139258
964.621	0.0139177
964.700	0.0140162
964.778	0.0138276
964.856	0.0139633
964.934	0.0140925
965.012	0.0140262
965.090	0.0138462
965.168	0.0138971
965.246	0.0140755
965.325	0.0140578
965.403	0.0138792
965.481	0.0138792
965.559	0.0138539
965.637	0.0139242
965.715	0.0140208
965.793	0.0140614
965.871	0.0140833
965.950	0.0140133
966.028	0.0139281
966.106	0.0138768
966.184	0.0138807
966.262	0.0139570
966.340	0.0139697
966.418	0.0139059
966.496	0.0139796
966.575	0.0140481
966.653	0.0139418
966.731	0.0140543
966.809	0.0139411
966.887	0.0138387
966.965	0.0139147
967.043	0.0140273
967.121	0.0138634
967.200	0.0139468
967.278	0.0139138
967.356	0.0140020
967.434	0.0139945
967.512	0.0140060
967.590	0.0140014
967.668	0.0140489
967.746	0.0140054
967.825	0.0140530
967.903	0.0139902
967.981	0.0139749
968.059	0.0140624
968.137	0.0140667
968.215	0.0140553
968.293	0.0139640
968.371	0.0139063
968.450	0.0140720
968.528	0.0140393
968.606	0.0138515
968.684	0.0138001
968.762	0.0138608
968.840	0.0138585
968.918	0.0138983
968.996	0.0139046
969.075	0.0138943
969.153	0.0138753
969.231	0.0137754
969.309	0.0138229
969.387	0.0140466
969.465	0.0139185
969.543	0.0139991
969.621	0.0139954
969.700	0.0140442
969.778	0.0139503
969.856	0.0140456
969.934	0.0141138
970.012	0.0141862
970.090	0.0141257
970.168	0.0141328
970.246	0.0139703
970.325	0.0139568
970.403	0.0139075
970.481	0.0138759
970.559	0.0140000
970.637	0.0139217
970.715	0.0139008
970.793	0.0138569
970.871	0.0139484
970.950	0.0138187
971.028	0.0138795
971.106	0.0138021
971.184	0.0138995
971.262	0.0137707
971.340	0.0137855
971.418	0.0138229
971.496	0.0138780
971.575	0.0138944
971.653	0.0139082
971.731	0.0139757
971.809	0.0141561
971.887	0.0140499
971.965	0.0138715
972.043	0.0139664
972.121	0.0138699
972.200	0.0140659
972.278	0.0140261
972.356	0.0140467
972.434	0.0139610
972.512	0.0141455
972.590	0.0139241
972.668	0.0139632
972.746	0.0138913
972.825	0.0138372
972.903	0.0139044
972.981	0.0137653
973.059	0.0138677
973.137	0.0138142
973.215	0.0137328
973.293	0.0138357
973.371	0.0136844
973.450	0.0138561
973.528	0.0138751
973.606	0.0137480
973.684	0.0138257
973.762	0.0138828
973.840	0.0139957
973.918	0.0139182
973.996	0.0139238
974.075	0.0139438
974.153	0.0139271
974.231	0.0138894
974.309	0.0138764
974.387	0.0141108
974.465	0.0140124
974.543	0.0139680
974.621	0.0138751
974.700	0.0139735
974.778	0.0139565
974.856	0.0138688
974.934	0.0137497
975.012	0.0139159
975.090	0.0139809
975.168	0.0139671
975.246	0.0139059
975.325	0.0138017
975.403	0.0139184
975.481	0.0138052
975.559	0.0139198
975.637	0.0138491
975.715	0.0139461
975.793	0.0138728
975.871	0.0137772
975.950	0.0139101
976.028	0.0139981
976.106	0.0138468
976.184	0.0139522
976.262	0.0139111
976.340	0.0138503
976.418	0.0139169
976.496	0.0139346
976.575	0.0140285
976.653	0.0139824
976.731	0.0139249
976.809	0.0139280
976.887	0.0138708
976.965	0.0140022
977.043	0.0139976
977.121	0.0139021
977.200	0.0138375
977.278	0.0139714
977.356	0.0138543
977.434	0.0138670
977.512	0.0138381
977.590	0.0139214
977.668	0.0138478
977.746	0.0139980
977.825	0.0138645
977.903	0.0139403
977.981	0.0138206
978.059	0.0139993
978.137	0.0138532
978.215	0.0139294
978.293	0.0139996
978.371	0.0138131
978.450	0.0138860
978.528	0.0139845
978.606	0.0140095
978.684	0.0141125
978.762	0.0140166
978.840	0.0139066
978.918	0.0139443
978.996	0.0139678
979.075	0.0137975
979.153	0.0139167
979.231	0.0139114
979.309	0.0137083
979.387	0.0139201
979.465	0.0139168
979.543	0.0138287
979.621	0.0138866
979.700	0.0137241
979.778	0.0138873
979.856	0.0137562
979.934	0.0138318
980.012	0.0138475
980.090	0.0137953
980.168	0.0138468
980.246	0.0139410
980.325	0.0137865
980.403	0.0138734
980.481	0.0138086
980.559	0.0138166
980.637	0.0139304
980.715	0.0139793
980.793	0.0140224
980.871	0.0139041
980.950	0.0138945
981.028	0.0138094
981.106	0.0139612
981.184	0.0139610
981.262	0.0137560
981.340	0.0138800
981.418	0.0137813
981.496	0.0138604
981.575	0.0139808
981.653	0.0137145
981.731	0.0138615
981.809	0.0138715
981.887	0.0140790
981.965	0.0139680
982.043	0.0139537
982.121	0.0138197
982.200	0.0138677
982.278	0.0139405
982.356	0.0140086
982.434	0.0138332
982.512	0.0140446
982.590	0.0139343
982.668	0.0139182
982.746	0.0139037
982.825	0.0137772
982.903	0.0139581
982.981	0.0138695
983.059	0.0138732
983.137	0.0139230
983.215	0.0139423
983.293	0.0139005
983.371	0.0139700
983.450	0.0138422
983.528	0.0139482
983.606	0.0138034
983.684	0.0137749
983.762	0.0138865
983.840	0.0137561
983.918	0.0138847
983.996	0.0139452
984.075	0.0138380
984.153	0.0137791
984.231	0.0138229
984.309	0.0139055
984.387	0.0138266
984.465	0.0138735
984.543	0.0140319
984.621	0.0139462
984.700	0.0138626
984.778	0.0139069
984.856	0.0139026
984.934	0.0139276
985.012	0.0139262
985.090	0.0138590
985.168	0.0139841
985.246	0.0140405
985.325	0.0139350
985.403	0.0139034
985.481	0.0140811
985.559	0.0139036
985.637	0.0139007
985.715	0.0139111
985.793	0.0139617
985.871	0.0139937
985.950	0.0140449
986.028	0.0137733
986.106	0.0138491
986.184	0.0139775
986.262	0.0139552
986.340	0.0139433
986.418	0.0139117
986.496	0.0139292
986.575	0.0138821
986.653	0.0140463
986.731	0.0140868
986.809	0.0137907
986.887	0.0138396
986.965	0.0139057
987.043	0.0140056
987.121	0.0139082
987.200	0.0138932
987.278	0.0139024
987.356	0.0139070
987.434	0.0139319
987.512	0.0139281
987.590	0.0138786
987.668	0.0138720
987.746	0.0138284
987.825	0.0138962
987.903	0.0139092
987.981	0.0139393
988.059	0.0138747
988.137	0.0139557
988.215	0.0139381
988.293	0.0140302
988.371	0.0139054
988.450	0.0139485
988.528	0.0141512
988.606	0.0139255
988.684	0.0141074
988.762	0.0139458
988.840	0.0139615
988.918	0.0139742
988.996	0.0139877
989.075	0.0139029
989.153	0.0139542
989.231	0.0139502
989.309	0.0139132
989.387	0.0138955
989.465	0.0138076
989.543	0.0137630
989.621	0.0139862
989.700	0.0138188
989.778	0.0138373
989.856	0.0138099
989.934	0.0138179
990.012	0.0137852
990.090	0.0138279
990.168	0.0140314
990.246	0.0139328
990.325	0.0138844
990.403	0.0138891
990.481	0.0139614
990.559	0.0138869
990.637	0.0139294
990.715	0.0139870
990.793	0.0138708
990.871	0.0137225
990.950	0.0140409
991.028	0.0138902
991.106	0.0138933
991.184	0.0139153
991.262	0.0137662
991.340	0.0138718
991.418	0.0139673
991.496	0.0140012
991.575	0.0139114
991.653	0.0140820
991.731	0.0140502
991.809	0.0139582
991.887	0.0138808
991.965	0.0139935
992.043	0.0139160
992.121	0.0139072
992.200	0.0137895
992.278	0.0138966
992.356	0.0139033
992.434	0.0138884
992.512	0.0137782
992.590	0.0139246
992.668	0.0139434
992.746	0.0138922
992.825	0.0139815
992.903	0.0141205
992.981	0.0140281
993.059	0.0140191
993.137	0.0139978
993.215	0.0139903
993.293	0.0139017
993.371	0.0139381
993.450	0.0138825
993.528	0.0140023
993.606	0.0139352
993.684	0.0139238
993.762	0.0139278
993.840	0.0139842
993.918	0.0137843
993.996	0.0138747
994.075	0.0139178
994.153	0.0138910
994.231	0.0138794
994.309	0.0139146
994.387	0.0138075
994.465	0.0139516
994.543	0.0140228
994.621	0.0137729
994.700	0.0138097
994.778	0.0140154
994.856	0.0138786
994.934	0.0139428
995.012	0.0139157
995.090	0.0139780
995.168	0.0140226
995.246	0.0138253
995.325	0.0139069
995.403	0.0139021
995.481	0.0139931
995.559	0.0139257
995.637	0.0137974
995.715	0.0138825
995.793	0.0138870
995.871	0.0138921
995.950	0.0138274
996.028	0.0138642
996.106	0.0139109
996.184	0.0139410
996.262	0.0138500
996.340	0.0139638
996.418	0.0138087
996.496	0.0140096
996.575	0.0139462
996.653	0.0139277
996.731	0.0139680
996.809	0.0139909
996.887	0.0139752
996.965	0.0139245
997.043	0.0139090
997.121	0.0138577
997.200	0.0138689
997.278	0.0140647
997.356	0.0140353
997.434	0.0138273
997.512	0.0140086
997.590	0.0138911
997.668	0.0138416
997.746	0.0138453
997.825	0.0138292
997.903	0.0140010
997.981	0.0139291
998.059	0.0139046
998.137	0.0140340
998.215	0.0139154
998.293	0.0139547
998.371	0.0139724
998.450	0.0139177
998.528	0.0139753
998.606	0.0139803
998.684	0.0139280
998.762	0.0137230
998.840	0.0139307
998.918	0.0138901
