05/04/2022	20:59:22	Ver.	4.1	UNKNOWN
Optical Delay	678.996401	Delta X		0.078125	Sweeps	1	Scan Rate	0/0
Coordinates	Axis 1	NaN	Axis 2	NaN	Axis 3	NaN	Axis 4	NaN	Axis 5	NaN	Axis 6	0.000000
TX Power	0.000000	RX Power	0.000000

678.996	0.0140679
679.075	0.0142023
679.153	0.0140302
679.231	0.0140314
679.309	0.0140952
679.387	0.0140247
679.465	0.0139218
679.543	0.0140210
679.621	0.0140736
679.700	0.0140566
679.778	0.0138612
679.856	0.0141257
679.934	0.0140958
680.012	0.0139962
680.090	0.0139922
680.168	0.0142203
680.246	0.0139834
680.325	0.0139497
680.403	0.0141400
680.481	0.0140501
680.559	0.0140659
680.637	0.0139796
680.715	0.0139999
680.793	0.0141227
680.871	0.0140942
680.950	0.0141189
681.028	0.0140459
681.106	0.0139593
681.184	0.0139725
681.262	0.0140592
681.340	0.0140469
681.418	0.0139857
681.496	0.0140862
681.575	0.0139371
681.653	0.0140087
681.731	0.0139375
681.809	0.0139549
681.887	0.0139256
681.965	0.0140446
682.043	0.0139754
682.121	0.0139555
682.200	0.0139881
682.278	0.0140912
682.356	0.0140607
682.434	0.0141424
682.512	0.0139352
682.590	0.0139571
682.668	0.0140845
682.746	0.0139265
682.825	0.0138866
682.903	0.0140329
682.981	0.0140788
683.059	0.0140694
683.137	0.0139410
683.215	0.0140047
683.293	0.0140874
683.371	0.0139375
683.450	0.0139596
683.528	0.0140978
683.606	0.0142065
683.684	0.0140557
683.762	0.0140924
683.840	0.0141378
683.918	0.0140257
683.996	0.0139622
684.075	0.0140217
684.153	0.0140044
684.231	0.0139353
684.309	0.0141601
684.387	0.0141070
684.465	0.0139888
684.543	0.0139054
684.621	0.0138988
684.700	0.0140891
684.778	0.0140761
684.856	0.0141013
684.934	0.0141255
685.012	0.0141707
685.090	0.0139901
685.168	0.0141573
685.246	0.0140352
685.325	0.0139240
685.403	0.0139646
685.481	0.0140262
685.559	0.0140587
685.637	0.0141103
685.715	0.0140687
685.793	0.0140751
685.871	0.0139186
685.950	0.0139969
686.028	0.0140486
686.106	0.0139989
686.184	0.0141286
686.262	0.0141055
686.340	0.0139450
686.418	0.0140594
686.496	0.0140489
686.575	0.0141341
686.653	0.0141286
686.731	0.0139344
686.809	0.0140358
686.887	0.0140537
686.965	0.0140863
687.043	0.0141860
687.121	0.0140504
687.200	0.0141605
687.278	0.0141640
687.356	0.0138350
687.434	0.0139721
687.512	0.0140373
687.590	0.0141388
687.668	0.0140171
687.746	0.0140120
687.825	0.0139777
687.903	0.0139178
687.981	0.0139540
688.059	0.0140322
688.137	0.0140613
688.215	0.0139251
688.293	0.0140524
688.371	0.0139857
688.450	0.0140592
688.528	0.0140843
688.606	0.0141088
688.684	0.0139300
688.762	0.0140379
688.840	0.0141509
688.918	0.0139822
688.996	0.0140611
689.075	0.0140773
689.153	0.0140714
689.231	0.0139933
689.309	0.0139864
689.387	0.0140038
689.465	0.0139290
689.543	0.0141235
689.621	0.0139570
689.700	0.0139893
689.778	0.0140797
689.856	0.0140729
689.934	0.0141146
690.012	0.0140537
690.090	0.0140118
690.168	0.0140666
690.246	0.0139974
690.325	0.0139719
690.403	0.0141247
690.481	0.0140307
690.559	0.0140537
690.637	0.0141815
690.715	0.0140094
690.793	0.0139580
690.871	0.0139550
690.950	0.0140369
691.028	0.0141138
691.106	0.0140245
691.184	0.0141167
691.262	0.0142011
691.340	0.0141818
691.418	0.0140650
691.496	0.0140928
691.575	0.0139430
691.653	0.0141304
691.731	0.0140858
691.809	0.0141647
691.887	0.0141244
691.965	0.0139734
692.043	0.0140885
692.121	0.0141733
692.200	0.0139618
692.278	0.0140186
692.356	0.0140930
692.434	0.0141181
692.512	0.0139974
692.590	0.0140155
692.668	0.0139171
692.746	0.0140071
692.825	0.0139249
692.903	0.0140159
692.981	0.0140057
693.059	0.0140909
693.137	0.0140319
693.215	0.0141355
693.293	0.0141104
693.371	0.0139604
693.450	0.0139187
693.528	0.0140471
693.606	0.0139707
693.684	0.0140295
693.762	0.0140643
693.840	0.0140581
693.918	0.0139899
693.996	0.0139687
694.075	0.0140237
694.153	0.0139873
694.231	0.0141776
694.309	0.0140978
694.387	0.0140617
694.465	0.0140145
694.543	0.0141193
694.621	0.0139954
694.700	0.0139878
694.778	0.0140540
694.856	0.0140038
694.934	0.0140367
695.012	0.0141375
695.090	0.0141042
695.168	0.0140727
695.246	0.0141985
695.325	0.0140827
695.403	0.0139353
695.481	0.0139607
695.559	0.0141026
695.637	0.0141106
695.715	0.0139971
695.793	0.0140083
695.871	0.0141750
695.950	0.0141278
696.028	0.0141534
696.106	0.0139433
696.184	0.0140604
696.262	0.0140990
696.340	0.0140231
696.418	0.0141039
696.496	0.0140522
696.575	0.0141042
696.653	0.0139661
696.731	0.0139844
696.809	0.0140088
696.887	0.0140572
696.965	0.0140137
697.043	0.0140384
697.121	0.0140954
697.200	0.0141157
697.278	0.0141715
697.356	0.0140224
697.434	0.0141731
697.512	0.0140656
697.590	0.0141015
697.668	0.0140314
697.746	0.0141502
697.825	0.0141194
697.903	0.0141911
697.981	0.0140884
698.059	0.0139968
698.137	0.0140506
698.215	0.0141036
698.293	0.0140620
698.371	0.0140659
698.450	0.0140923
698.528	0.0140446
698.606	0.0141488
698.684	0.0141071
698.762	0.0139574
698.840	0.0141265
698.918	0.0140195
698.996	0.0139919
699.075	0.0142586
699.153	0.0138967
699.231	0.0140618
699.309	0.0139756
699.387	0.0141611
699.465	0.0140479
699.543	0.0140387
699.621	0.0139140
699.700	0.0140642
699.778	0.0140613
699.856	0.0140402
699.934	0.0140510
700.012	0.0139843
700.090	0.0142271
700.168	0.0140948
700.246	0.0139286
700.325	0.0140575
700.403	0.0140039
700.481	0.0138390
700.559	0.0140910
700.637	0.0140298
700.715	0.0141159
700.793	0.0140546
700.871	0.0139414
700.950	0.0140404
701.028	0.0140863
701.106	0.0139970
701.184	0.0140268
701.262	0.0141370
701.340	0.0139633
701.418	0.0140859
701.496	0.0140131
701.575	0.0140477
701.653	0.0140623
701.731	0.0140775
701.809	0.0140287
701.887	0.0139764
701.965	0.0141180
702.043	0.0140406
702.121	0.0141936
702.200	0.0141303
702.278	0.0139757
702.356	0.0139575
702.434	0.0140469
702.512	0.0140456
702.590	0.0139104
702.668	0.0139895
702.746	0.0141319
702.825	0.0140555
702.903	0.0140239
702.981	0.0140041
703.059	0.0140388
703.137	0.0140827
703.215	0.0140710
703.293	0.0141412
703.371	0.0140898
703.450	0.0140826
703.528	0.0138836
703.606	0.0140791
703.684	0.0139465
703.762	0.0141142
703.840	0.0141090
703.918	0.0140209
703.996	0.0141694
704.075	0.0140660
704.153	0.0140569
704.231	0.0138527
704.309	0.0139155
704.387	0.0140717
704.465	0.0141925
704.543	0.0140245
704.621	0.0140222
704.700	0.0140233
704.778	0.0141207
704.856	0.0140475
704.934	0.0141085
705.012	0.0140498
705.090	0.0139995
705.168	0.0139925
705.246	0.0140125
705.325	0.0142222
705.403	0.0140440
705.481	0.0139154
705.559	0.0140726
705.637	0.0140511
705.715	0.0139868
705.793	0.0140408
705.871	0.0139988
705.950	0.0140578
706.028	0.0140455
706.106	0.0140727
706.184	0.0142683
706.262	0.0142294
706.340	0.0140377
706.418	0.0140703
706.496	0.0140955
706.575	0.0139554
706.653	0.0140315
706.731	0.0140298
706.809	0.0140606
706.887	0.0140247
706.965	0.0140211
707.043	0.0140609
707.121	0.0141481
707.200	0.0140903
707.278	0.0139850
707.356	0.0141042
707.434	0.0141902
707.512	0.0141599
707.590	0.0140724
707.668	0.0138609
707.746	0.0136706
707.825	0.0137288
707.903	0.0135934
707.981	0.0136151
708.059	0.0137016
708.137	0.0137498
708.215	0.0139063
708.293	0.0141497
708.371	0.0142651
708.450	0.0143313
708.528	0.0145243
708.606	0.0145821
708.684	0.0143295
708.762	0.0143228
708.840	0.0142617
708.918	0.0141092
708.996	0.0138217
709.075	0.0136792
709.153	0.0135725
709.231	0.0135037
709.309	0.0133202
709.387	0.0133856
709.465	0.0134090
709.543	0.0135706
709.621	0.0137661
709.700	0.0139240
709.778	0.0141922
709.856	0.0144576
709.934	0.0147325
710.012	0.0147497
710.090	0.0148456
710.168	0.0149168
710.246	0.0148434
710.325	0.0146864
710.403	0.0145287
710.481	0.0141423
710.559	0.0138785
710.637	0.0135636
710.715	0.0131602
710.793	0.0129040
710.871	0.0126575
710.950	0.0126906
711.028	0.0127112
711.106	0.0130599
711.184	0.0135429
711.262	0.0141332
711.340	0.0146637
711.418	0.0152312
711.496	0.0157124
711.575	0.0160575
711.653	0.0161512
711.731	0.0160155
711.809	0.0157192
711.887	0.0152736
711.965	0.0147342
712.043	0.0141289
712.121	0.0135691
712.200	0.0130225
712.278	0.0124424
712.356	0.0122323
712.434	0.0118487
712.512	0.0118961
712.590	0.0120160
712.668	0.0124353
712.746	0.0128777
712.825	0.0133353
712.903	0.0138999
712.981	0.0146146
713.059	0.0150638
713.137	0.0153575
713.215	0.0155073
713.293	0.0153001
713.371	0.0151401
713.450	0.0148756
713.528	0.0143024
713.606	0.0139509
713.684	0.0136201
713.762	0.0130073
713.840	0.0126054
713.918	0.0123900
713.996	0.0121974
714.075	0.0122249
714.153	0.0125832
714.231	0.0127419
714.309	0.0134599
714.387	0.0141756
714.465	0.0149468
714.543	0.0154086
714.621	0.0158966
714.700	0.0163671
714.778	0.0162936
714.856	0.0162721
714.934	0.0159584
715.012	0.0155961
715.090	0.0149486
715.168	0.0145231
715.246	0.0139635
715.325	0.0132881
715.403	0.0128421
715.481	0.0124004
715.559	0.0121840
715.637	0.0121156
715.715	0.0123238
715.793	0.0126109
715.871	0.0130547
715.950	0.0135793
716.028	0.0142716
716.106	0.0145315
716.184	0.0149095
716.262	0.0150940
716.340	0.0152608
716.418	0.0152424
716.496	0.0151451
716.575	0.0149905
716.653	0.0146790
716.731	0.0142192
716.809	0.0139639
716.887	0.0137212
716.965	0.0135227
717.043	0.0134388
717.121	0.0134120
717.200	0.0135228
717.278	0.0136790
717.356	0.0137788
717.434	0.0140344
717.512	0.0142030
717.590	0.0144617
717.668	0.0145492
717.746	0.0146889
717.825	0.0147488
717.903	0.0146878
717.981	0.0145851
718.059	0.0145186
718.137	0.0142229
718.215	0.0140681
718.293	0.0137032
718.371	0.0133943
718.450	0.0131133
718.528	0.0129908
718.606	0.0126952
718.684	0.0124060
718.762	0.0122738
718.840	0.0123524
718.918	0.0126040
718.996	0.0128923
719.075	0.0131530
719.153	0.0135644
719.231	0.0140203
719.309	0.0145909
719.387	0.0150832
719.465	0.0155837
719.543	0.0159757
719.621	0.0162486
719.700	0.0163055
719.778	0.0163416
719.856	0.0158322
719.934	0.0156910
720.012	0.0153320
720.090	0.0148276
720.168	0.0142795
720.246	0.0138975
720.325	0.0133133
720.403	0.0127722
720.481	0.0123135
720.559	0.0120419
720.637	0.0119037
720.715	0.0116987
720.793	0.0118167
720.871	0.0122266
720.950	0.0126165
721.028	0.0132304
721.106	0.0138020
721.184	0.0143684
721.262	0.0150179
721.340	0.0154615
721.418	0.0159711
721.496	0.0162084
721.575	0.0164732
721.653	0.0166245
721.731	0.0164468
721.809	0.0162897
721.887	0.0157695
721.965	0.0154132
722.043	0.0147502
722.121	0.0141520
722.200	0.0136350
722.278	0.0129258
722.356	0.0126778
722.434	0.0121266
722.512	0.0118466
722.590	0.0117309
722.668	0.0118243
722.746	0.0119161
722.825	0.0121108
722.903	0.0123665
722.981	0.0128016
723.059	0.0133180
723.137	0.0136244
723.215	0.0142760
723.293	0.0147612
723.371	0.0151575
723.450	0.0154587
723.528	0.0158472
723.606	0.0158672
723.684	0.0159700
723.762	0.0157666
723.840	0.0154735
723.918	0.0152120
723.996	0.0147239
724.075	0.0144297
724.153	0.0139135
724.231	0.0135625
724.309	0.0133086
724.387	0.0129769
724.465	0.0127630
724.543	0.0125449
724.621	0.0124017
724.700	0.0123381
724.778	0.0126060
724.856	0.0128784
724.934	0.0129932
725.012	0.0132036
725.090	0.0135654
725.168	0.0138094
725.246	0.0142043
725.325	0.0143524
725.403	0.0145278
725.481	0.0146828
725.559	0.0147549
725.637	0.0149377
725.715	0.0148758
725.793	0.0148934
725.871	0.0148816
725.950	0.0146587
726.028	0.0146208
726.106	0.0145531
726.184	0.0144405
726.262	0.0143162
726.340	0.0141879
726.418	0.0141093
726.496	0.0140428
726.575	0.0138499
726.653	0.0137668
726.731	0.0135163
726.809	0.0135499
726.887	0.0136006
726.965	0.0134360
727.043	0.0134191
727.121	0.0134234
727.200	0.0135205
727.278	0.0137193
727.356	0.0136734
727.434	0.0138353
727.512	0.0141079
727.590	0.0141822
727.668	0.0144640
727.746	0.0146594
727.825	0.0145771
727.903	0.0147353
727.981	0.0146418
728.059	0.0145374
728.137	0.0145565
728.215	0.0145747
728.293	0.0144094
728.371	0.0140410
728.450	0.0139527
728.528	0.0139413
728.606	0.0138570
728.684	0.0137327
728.762	0.0137305
728.840	0.0136791
728.918	0.0138882
728.996	0.0140016
729.075	0.0140887
729.153	0.0140274
729.231	0.0140248
729.309	0.0140756
729.387	0.0140173
729.465	0.0141696
729.543	0.0139962
729.621	0.0139749
729.700	0.0138992
729.778	0.0139394
729.856	0.0138783
729.934	0.0136794
730.012	0.0138460
730.090	0.0138341
730.168	0.0135824
730.246	0.0135971
730.325	0.0138052
730.403	0.0137900
730.481	0.0138811
730.559	0.0139162
730.637	0.0138390
730.715	0.0138522
730.793	0.0138612
730.871	0.0139319
730.950	0.0139883
731.028	0.0139843
731.106	0.0140890
731.184	0.0143588
731.262	0.0143536
731.340	0.0143467
731.418	0.0144124
731.496	0.0144391
731.575	0.0143768
731.653	0.0144801
731.731	0.0145747
731.809	0.0144934
731.887	0.0145350
731.965	0.0145203
732.043	0.0142726
732.121	0.0141141
732.200	0.0138917
732.278	0.0138123
732.356	0.0135147
732.434	0.0131343
732.512	0.0130157
732.590	0.0129626
732.668	0.0128104
732.746	0.0129771
732.825	0.0128835
732.903	0.0128591
732.981	0.0130804
733.059	0.0132362
733.137	0.0135871
733.215	0.0139103
733.293	0.0141791
733.371	0.0145341
733.450	0.0147362
733.528	0.0149895
733.606	0.0151611
733.684	0.0152579
733.762	0.0154332
733.840	0.0155854
733.918	0.0151536
733.996	0.0150842
734.075	0.0150250
734.153	0.0145877
734.231	0.0145486
734.309	0.0142475
734.387	0.0139287
734.465	0.0137035
734.543	0.0134417
734.621	0.0133821
734.700	0.0133715
734.778	0.0132735
734.856	0.0131728
734.934	0.0132583
735.012	0.0135125
735.090	0.0135287
735.168	0.0136529
735.246	0.0137755
735.325	0.0137877
735.403	0.0139075
735.481	0.0138609
735.559	0.0140176
735.637	0.0140956
735.715	0.0143281
735.793	0.0144695
735.871	0.0145409
735.950	0.0147708
736.028	0.0148811
736.106	0.0150263
736.184	0.0150814
736.262	0.0150576
736.340	0.0149313
736.418	0.0148049
736.496	0.0148469
736.575	0.0146555
736.653	0.0142631
736.731	0.0138393
736.809	0.0136340
736.887	0.0131036
736.965	0.0128632
737.043	0.0127679
737.121	0.0125456
737.200	0.0122498
737.278	0.0123685
737.356	0.0124515
737.434	0.0126263
737.512	0.0127984
737.590	0.0130558
737.668	0.0135606
737.746	0.0138240
737.825	0.0140522
737.903	0.0144801
737.981	0.0147313
738.059	0.0151155
738.137	0.0153074
738.215	0.0156072
738.293	0.0155441
738.371	0.0157608
738.450	0.0157690
738.528	0.0156990
738.606	0.0154310
738.684	0.0151308
738.762	0.0149217
738.840	0.0146307
738.918	0.0143489
738.996	0.0139792
739.075	0.0138884
739.153	0.0136430
739.231	0.0133035
739.309	0.0130656
739.387	0.0129465
739.465	0.0128400
739.543	0.0126646
739.621	0.0127428
739.700	0.0128028
739.778	0.0127737
739.856	0.0129447
739.934	0.0132348
740.012	0.0136416
740.090	0.0139981
740.168	0.0142638
740.246	0.0146092
740.325	0.0149339
740.403	0.0151997
740.481	0.0152816
740.559	0.0154843
740.637	0.0155335
740.715	0.0156438
740.793	0.0155145
740.871	0.0152740
740.950	0.0150866
741.028	0.0147572
741.106	0.0143288
741.184	0.0143952
741.262	0.0139022
741.340	0.0135433
741.418	0.0133334
741.496	0.0131432
741.575	0.0129828
741.653	0.0127971
741.731	0.0128387
741.809	0.0128838
741.887	0.0129895
741.965	0.0131672
742.043	0.0132922
742.121	0.0134764
742.200	0.0137059
742.278	0.0138763
742.356	0.0143429
742.434	0.0144144
742.512	0.0147549
742.590	0.0148661
742.668	0.0149909
742.746	0.0151160
742.825	0.0150494
742.903	0.0151823
742.981	0.0150275
743.059	0.0149123
743.137	0.0145727
743.215	0.0144205
743.293	0.0143539
743.371	0.0140871
743.450	0.0140057
743.528	0.0137650
743.606	0.0137466
743.684	0.0136998
743.762	0.0135903
743.840	0.0136549
743.918	0.0136961
743.996	0.0134962
744.075	0.0134982
744.153	0.0137453
744.231	0.0137701
744.309	0.0137032
744.387	0.0137546
744.465	0.0138731
744.543	0.0137301
744.621	0.0137064
744.700	0.0137135
744.778	0.0138902
744.856	0.0138534
744.934	0.0137890
745.012	0.0138186
745.090	0.0139716
745.168	0.0140771
745.246	0.0140897
745.325	0.0140650
745.403	0.0144028
745.481	0.0146996
745.559	0.0147089
745.637	0.0147960
745.715	0.0146602
745.793	0.0146812
745.871	0.0146693
745.950	0.0145860
746.028	0.0144537
746.106	0.0143483
746.184	0.0140195
746.262	0.0139520
746.340	0.0138007
746.418	0.0136263
746.496	0.0133414
746.575	0.0131004
746.653	0.0131634
746.731	0.0132478
746.809	0.0132304
746.887	0.0132056
746.965	0.0132243
747.043	0.0134171
747.121	0.0136584
747.200	0.0136992
747.278	0.0137924
747.356	0.0138998
747.434	0.0141560
747.512	0.0143377
747.590	0.0144642
747.668	0.0146319
747.746	0.0147384
747.825	0.0146107
747.903	0.0147506
747.981	0.0147663
748.059	0.0147732
748.137	0.0147835
748.215	0.0146084
748.293	0.0145580
748.371	0.0145272
748.450	0.0144207
748.528	0.0142403
748.606	0.0138602
748.684	0.0139230
748.762	0.0136299
748.840	0.0134129
748.918	0.0132111
748.996	0.0131214
749.075	0.0130653
749.153	0.0129549
749.231	0.0130578
749.309	0.0130367
749.387	0.0132548
749.465	0.0133071
749.543	0.0136550
749.621	0.0138151
749.700	0.0139735
749.778	0.0142952
749.856	0.0145124
749.934	0.0147755
750.012	0.0148909
750.090	0.0151713
750.168	0.0151479
750.246	0.0151772
750.325	0.0152303
750.403	0.0149744
750.481	0.0148986
750.559	0.0147256
750.637	0.0144806
750.715	0.0142433
750.793	0.0139872
750.871	0.0139445
750.950	0.0135870
751.028	0.0135516
751.106	0.0133913
751.184	0.0132182
751.262	0.0131554
751.340	0.0131963
751.418	0.0130801
751.496	0.0132117
751.575	0.0132724
751.653	0.0134106
751.731	0.0136263
751.809	0.0135449
751.887	0.0138770
751.965	0.0140591
752.043	0.0140230
752.121	0.0142311
752.200	0.0143698
752.278	0.0145765
752.356	0.0145197
752.434	0.0145802
752.512	0.0146959
752.590	0.0148469
752.668	0.0148656
752.746	0.0147152
752.825	0.0147583
752.903	0.0146027
752.981	0.0145848
753.059	0.0144105
753.137	0.0141640
753.215	0.0140862
753.293	0.0138622
753.371	0.0138804
753.450	0.0137066
753.528	0.0134340
753.606	0.0134281
753.684	0.0134215
753.762	0.0132639
753.840	0.0132471
753.918	0.0134147
753.996	0.0135608
754.075	0.0134220
754.153	0.0135638
754.231	0.0135526
754.309	0.0138702
754.387	0.0139053
754.465	0.0141911
754.543	0.0142905
754.621	0.0144385
754.700	0.0144956
754.778	0.0145412
754.856	0.0146985
754.934	0.0147385
755.012	0.0147607
755.090	0.0146899
755.168	0.0146104
755.246	0.0144999
755.325	0.0145218
755.403	0.0143809
755.481	0.0143491
755.559	0.0140931
755.637	0.0139820
755.715	0.0140133
755.793	0.0139074
755.871	0.0138529
755.950	0.0138612
756.028	0.0137819
756.106	0.0137851
756.184	0.0138776
756.262	0.0136930
756.340	0.0137737
756.418	0.0138301
756.496	0.0138007
756.575	0.0137556
756.653	0.0138585
756.731	0.0138759
756.809	0.0138779
756.887	0.0139336
756.965	0.0139738
757.043	0.0140237
757.121	0.0139806
757.200	0.0141336
757.278	0.0142110
757.356	0.0142377
757.434	0.0142206
757.512	0.0143163
757.590	0.0143079
757.668	0.0142348
757.746	0.0144174
757.825	0.0143808
757.903	0.0142831
757.981	0.0143845
758.059	0.0142944
758.137	0.0143003
758.215	0.0142244
758.293	0.0140383
758.371	0.0140195
758.450	0.0139045
758.528	0.0138384
758.606	0.0137798
758.684	0.0136832
758.762	0.0136986
758.840	0.0136133
758.918	0.0136279
758.996	0.0134747
759.075	0.0134326
759.153	0.0136497
759.231	0.0135815
759.309	0.0136592
759.387	0.0138357
759.465	0.0140965
759.543	0.0139799
759.621	0.0140724
759.700	0.0140485
759.778	0.0141824
759.856	0.0144730
759.934	0.0145933
760.012	0.0145203
760.090	0.0145861
760.168	0.0146869
760.246	0.0145932
760.325	0.0145374
760.403	0.0146255
760.481	0.0145203
760.559	0.0144303
760.637	0.0143324
760.715	0.0142912
760.793	0.0141232
760.871	0.0139846
760.950	0.0137797
761.028	0.0138388
761.106	0.0136111
761.184	0.0137471
761.262	0.0134903
761.340	0.0135305
761.418	0.0135271
761.496	0.0136466
761.575	0.0136848
761.653	0.0135880
761.731	0.0138759
761.809	0.0140289
761.887	0.0139439
761.965	0.0140376
762.043	0.0142696
762.121	0.0143383
762.200	0.0142435
762.278	0.0145163
762.356	0.0145294
762.434	0.0145468
762.512	0.0147752
762.590	0.0147552
762.668	0.0144003
762.746	0.0142905
762.825	0.0142605
762.903	0.0145060
762.981	0.0140916
763.059	0.0139611
763.137	0.0139844
763.215	0.0139684
763.293	0.0138274
763.371	0.0138241
763.450	0.0137836
763.528	0.0137541
763.606	0.0138919
763.684	0.0138504
763.762	0.0137754
763.840	0.0139137
763.918	0.0138134
763.996	0.0139584
764.075	0.0139026
764.153	0.0139369
764.231	0.0141363
764.309	0.0142029
764.387	0.0141101
764.465	0.0142146
764.543	0.0141508
764.621	0.0142669
764.700	0.0142294
764.778	0.0142413
764.856	0.0142073
764.934	0.0142583
765.012	0.0143080
765.090	0.0142490
765.168	0.0142812
765.246	0.0144530
765.325	0.0142262
765.403	0.0141812
765.481	0.0142754
765.559	0.0141451
765.637	0.0140968
765.715	0.0140372
765.793	0.0141034
765.871	0.0140253
765.950	0.0140294
766.028	0.0140368
766.106	0.0139189
766.184	0.0138003
766.262	0.0137273
766.340	0.0137811
766.418	0.0138506
766.496	0.0138811
766.575	0.0138398
766.653	0.0137852
766.731	0.0138947
766.809	0.0138876
766.887	0.0139379
766.965	0.0142078
767.043	0.0141949
767.121	0.0142846
767.200	0.0143588
767.278	0.0143340
767.356	0.0142319
767.434	0.0144688
767.512	0.0143970
767.590	0.0143916
767.668	0.0143325
767.746	0.0143467
767.825	0.0143192
767.903	0.0142529
767.981	0.0141178
768.059	0.0140997
768.137	0.0141585
768.215	0.0140984
768.293	0.0141462
768.371	0.0139854
768.450	0.0139459
768.528	0.0139482
768.606	0.0139381
768.684	0.0139001
768.762	0.0138270
768.840	0.0139707
768.918	0.0137814
768.996	0.0139809
769.075	0.0140932
769.153	0.0140373
769.231	0.0140718
769.309	0.0140058
769.387	0.0141077
769.465	0.0141705
769.543	0.0141376
769.621	0.0143532
769.700	0.0142342
769.778	0.0141865
769.856	0.0142361
769.934	0.0143008
770.012	0.0143401
770.090	0.0142707
770.168	0.0142915
770.246	0.0142738
770.325	0.0142736
770.403	0.0143248
770.481	0.0142734
770.559	0.0143173
770.637	0.0141718
770.715	0.0141249
770.793	0.0140976
770.871	0.0140555
770.950	0.0140946
771.028	0.0140817
771.106	0.0140250
771.184	0.0140207
771.262	0.0139566
771.340	0.0139040
771.418	0.0140512
771.496	0.0139661
771.575	0.0139421
771.653	0.0138767
771.731	0.0138941
771.809	0.0139687
771.887	0.0139632
771.965	0.0139608
772.043	0.0140127
772.121	0.0141589
772.200	0.0141619
772.278	0.0140522
772.356	0.0142220
772.434	0.0141375
772.512	0.0141853
772.590	0.0141599
772.668	0.0142979
772.746	0.0143912
772.825	0.0142475
772.903	0.0142213
772.981	0.0140906
773.059	0.0141743
773.137	0.0142802
773.215	0.0142426
773.293	0.0140372
773.371	0.0140312
773.450	0.0140514
773.528	0.0140474
773.606	0.0139790
773.684	0.0138927
773.762	0.0138441
773.840	0.0137994
773.918	0.0138239
773.996	0.0140254
774.075	0.0138409
774.153	0.0138300
774.231	0.0139300
774.309	0.0139249
774.387	0.0140112
774.465	0.0140729
774.543	0.0142706
774.621	0.0141530
774.700	0.0141267
774.778	0.0140603
774.856	0.0141492
774.934	0.0142621
775.012	0.0142265
775.090	0.0141809
775.168	0.0142383
775.246	0.0140053
775.325	0.0142354
775.403	0.0141776
775.481	0.0141389
775.559	0.0140211
775.637	0.0139856
775.715	0.0138997
775.793	0.0140277
775.871	0.0140211
775.950	0.0140401
776.028	0.0139516
776.106	0.0139474
776.184	0.0140981
776.262	0.0140952
776.340	0.0139905
776.418	0.0140565
776.496	0.0139586
776.575	0.0139266
776.653	0.0140221
776.731	0.0141173
776.809	0.0140790
776.887	0.0140682
776.965	0.0140347
777.043	0.0140819
777.121	0.0141190
777.200	0.0139814
777.278	0.0139965
777.356	0.0139470
777.434	0.0140073
777.512	0.0140699
777.590	0.0140992
777.668	0.0140273
777.746	0.0140305
777.825	0.0141741
777.903	0.0143039
777.981	0.0141822
778.059	0.0140496
778.137	0.0141365
778.215	0.0142216
778.293	0.0141103
778.371	0.0139785
778.450	0.0141216
778.528	0.0141043
778.606	0.0141578
778.684	0.0139605
778.762	0.0140755
778.840	0.0139208
778.918	0.0139484
778.996	0.0138775
779.075	0.0137611
779.153	0.0138619
779.231	0.0140218
779.309	0.0138734
779.387	0.0140275
779.465	0.0139655
779.543	0.0139421
779.621	0.0140170
779.700	0.0139035
779.778	0.0140767
779.856	0.0141370
779.934	0.0140895
780.012	0.0141479
780.090	0.0141402
780.168	0.0140314
780.246	0.0142371
780.325	0.0141378
780.403	0.0140163
780.481	0.0141598
780.559	0.0141125
780.637	0.0140331
780.715	0.0140133
780.793	0.0141266
780.871	0.0140713
780.950	0.0140134
781.028	0.0140684
781.106	0.0138849
781.184	0.0139403
781.262	0.0140774
781.340	0.0140525
781.418	0.0139211
781.496	0.0139334
781.575	0.0140190
781.653	0.0141731
781.731	0.0139925
781.809	0.0139989
781.887	0.0141705
781.965	0.0139613
782.043	0.0139159
782.121	0.0139592
782.200	0.0140717
782.278	0.0138966
782.356	0.0139772
782.434	0.0140307
782.512	0.0140881
782.590	0.0139143
782.668	0.0140037
782.746	0.0140391
782.825	0.0142216
782.903	0.0140199
782.981	0.0141157
783.059	0.0140993
783.137	0.0141589
783.215	0.0140623
783.293	0.0140520
783.371	0.0142034
783.450	0.0140672
783.528	0.0140103
783.606	0.0140662
783.684	0.0139864
783.762	0.0140876
783.840	0.0140482
783.918	0.0139079
783.996	0.0140588
784.075	0.0140002
784.153	0.0139542
784.231	0.0139058
784.309	0.0138468
784.387	0.0139719
784.465	0.0139764
784.543	0.0140651
784.621	0.0139652
784.700	0.0140348
784.778	0.0141216
784.856	0.0140703
784.934	0.0140830
785.012	0.0143260
785.090	0.0142470
785.168	0.0142250
785.246	0.0141045
785.325	0.0141718
785.403	0.0141333
785.481	0.0141298
785.559	0.0141896
785.637	0.0142673
785.715	0.0141744
785.793	0.0141124
785.871	0.0139536
785.950	0.0139797
786.028	0.0140169
786.106	0.0140665
786.184	0.0140183
786.262	0.0140526
786.340	0.0139006
786.418	0.0139008
786.496	0.0139268
786.575	0.0139301
786.653	0.0139869
786.731	0.0139223
786.809	0.0140328
786.887	0.0139908
786.965	0.0141628
787.043	0.0141516
787.121	0.0140585
787.200	0.0140849
787.278	0.0140110
787.356	0.0141951
787.434	0.0140237
787.512	0.0141220
787.590	0.0140849
787.668	0.0142113
787.746	0.0140616
787.825	0.0141173
787.903	0.0140588
787.981	0.0140697
788.059	0.0140451
788.137	0.0140489
788.215	0.0140129
788.293	0.0139388
788.371	0.0140450
788.450	0.0139959
788.528	0.0140669
788.606	0.0139391
788.684	0.0140853
788.762	0.0142033
788.840	0.0140691
788.918	0.0140274
788.996	0.0140845
789.075	0.0141312
789.153	0.0139834
789.231	0.0139721
789.309	0.0140189
789.387	0.0140530
789.465	0.0140247
789.543	0.0139725
789.621	0.0141171
789.700	0.0139602
789.778	0.0138757
789.856	0.0140162
789.934	0.0139454
790.012	0.0140833
790.090	0.0140026
790.168	0.0140494
790.246	0.0140371
790.325	0.0140553
790.403	0.0140998
790.481	0.0141670
790.559	0.0141125
790.637	0.0141837
790.715	0.0141122
790.793	0.0142529
790.871	0.0142149
790.950	0.0141159
791.028	0.0141202
791.106	0.0141607
791.184	0.0140833
791.262	0.0140482
791.340	0.0140522
791.418	0.0140601
791.496	0.0139368
791.575	0.0140675
791.653	0.0139346
791.731	0.0137888
791.809	0.0139490
791.887	0.0139951
791.965	0.0140485
792.043	0.0141545
792.121	0.0139984
792.200	0.0140260
792.278	0.0141600
792.356	0.0140889
792.434	0.0141285
792.512	0.0140687
792.590	0.0140860
792.668	0.0141781
792.746	0.0142035
792.825	0.0141772
792.903	0.0140149
792.981	0.0139896
793.059	0.0140774
793.137	0.0141673
793.215	0.0139833
793.293	0.0140339
793.371	0.0139729
793.450	0.0140437
793.528	0.0141336
793.606	0.0139891
793.684	0.0140593
793.762	0.0140611
793.840	0.0139065
793.918	0.0140799
793.996	0.0139642
794.075	0.0141449
794.153	0.0141277
794.231	0.0139294
794.309	0.0141088
794.387	0.0140555
794.465	0.0139733
794.543	0.0140624
794.621	0.0140437
794.700	0.0139643
794.778	0.0139849
794.856	0.0140474
794.934	0.0139915
795.012	0.0139648
795.090	0.0140567
795.168	0.0140806
795.246	0.0141007
795.325	0.0139819
795.403	0.0140839
795.481	0.0141670
795.559	0.0141349
795.637	0.0140530
795.715	0.0141183
795.793	0.0142329
795.871	0.0141789
795.950	0.0140949
796.028	0.0140178
796.106	0.0141130
796.184	0.0142206
796.262	0.0141417
796.340	0.0140411
796.418	0.0140283
796.496	0.0140527
796.575	0.0140986
796.653	0.0139857
796.731	0.0140917
796.809	0.0139128
796.887	0.0139518
796.965	0.0140465
797.043	0.0138263
797.121	0.0139379
797.200	0.0139493
797.278	0.0139769
797.356	0.0139283
797.434	0.0139249
797.512	0.0140735
797.590	0.0139606
797.668	0.0140466
797.746	0.0140707
797.825	0.0139542
797.903	0.0140475
797.981	0.0140214
798.059	0.0140626
798.137	0.0140350
798.215	0.0141196
798.293	0.0140459
798.371	0.0140561
798.450	0.0140592
798.528	0.0140649
798.606	0.0140217
798.684	0.0140590
798.762	0.0140712
798.840	0.0140026
798.918	0.0139237
798.996	0.0140134
799.075	0.0139648
799.153	0.0139800
799.231	0.0139486
799.309	0.0140411
799.387	0.0139589
799.465	0.0139703
799.543	0.0139680
799.621	0.0139046
799.700	0.0139881
799.778	0.0140216
799.856	0.0139502
799.934	0.0140591
800.012	0.0140337
800.090	0.0140897
800.168	0.0140842
800.246	0.0141673
800.325	0.0140486
800.403	0.0140007
800.481	0.0142170
800.559	0.0139606
800.637	0.0140236
800.715	0.0140015
800.793	0.0141312
800.871	0.0141501
800.950	0.0139893
801.028	0.0139913
801.106	0.0142038
801.184	0.0140597
801.262	0.0139861
801.340	0.0139021
801.418	0.0140845
801.496	0.0141109
801.575	0.0141651
801.653	0.0141395
801.731	0.0141115
801.809	0.0140013
801.887	0.0141107
801.965	0.0141243
802.043	0.0140662
802.121	0.0140165
802.200	0.0140092
802.278	0.0140044
802.356	0.0139716
802.434	0.0138597
802.512	0.0139359
802.590	0.0139581
802.668	0.0141063
802.746	0.0140433
802.825	0.0141118
802.903	0.0140771
802.981	0.0140521
803.059	0.0141940
803.137	0.0141316
803.215	0.0141459
803.293	0.0140926
803.371	0.0140250
803.450	0.0140478
803.528	0.0141354
803.606	0.0141190
803.684	0.0140483
803.762	0.0140939
803.840	0.0139147
803.918	0.0139568
803.996	0.0140804
804.075	0.0140089
804.153	0.0139628
804.231	0.0138985
804.309	0.0139053
804.387	0.0139876
804.465	0.0139430
804.543	0.0139730
804.621	0.0139836
804.700	0.0140428
804.778	0.0139837
804.856	0.0141663
804.934	0.0140714
805.012	0.0141727
805.090	0.0140694
805.168	0.0140182
805.246	0.0141244
805.325	0.0140523
805.403	0.0140379
805.481	0.0140260
805.559	0.0139453
805.637	0.0139687
805.715	0.0140096
805.793	0.0139215
805.871	0.0139429
805.950	0.0139044
806.028	0.0140704
806.106	0.0140845
806.184	0.0139940
806.262	0.0140598
806.340	0.0140965
806.418	0.0141238
806.496	0.0142063
806.575	0.0140760
806.653	0.0139482
806.731	0.0140466
806.809	0.0140824
806.887	0.0140987
806.965	0.0140161
807.043	0.0140314
807.121	0.0139447
807.200	0.0138995
807.278	0.0141020
807.356	0.0140518
807.434	0.0139314
807.512	0.0140531
807.590	0.0141375
807.668	0.0140125
807.746	0.0140098
807.825	0.0140593
807.903	0.0140598
807.981	0.0141482
808.059	0.0141151
808.137	0.0141801
808.215	0.0140175
808.293	0.0140300
808.371	0.0140455
808.450	0.0140461
808.528	0.0139912
808.606	0.0140443
808.684	0.0139568
808.762	0.0140080
808.840	0.0138730
808.918	0.0140189
808.996	0.0140440
809.075	0.0140569
809.153	0.0139737
809.231	0.0140778
809.309	0.0139919
809.387	0.0140628
809.465	0.0139128
809.543	0.0139010
809.621	0.0138171
809.700	0.0139429
809.778	0.0139475
809.856	0.0138567
809.934	0.0139149
810.012	0.0139011
810.090	0.0138346
810.168	0.0139360
810.246	0.0140529
810.325	0.0140253
810.403	0.0140842
810.481	0.0139999
810.559	0.0140049
810.637	0.0140345
810.715	0.0140787
810.793	0.0141816
810.871	0.0141458
810.950	0.0142382
811.028	0.0141631
811.106	0.0140665
811.184	0.0141177
811.262	0.0141959
811.340	0.0140538
811.418	0.0138889
811.496	0.0140987
811.575	0.0139556
811.653	0.0139375
811.731	0.0139425
811.809	0.0138994
811.887	0.0138590
811.965	0.0141443
812.043	0.0140698
812.121	0.0139369
812.200	0.0140087
812.278	0.0140179
812.356	0.0140609
812.434	0.0141978
812.512	0.0141104
812.590	0.0141463
812.668	0.0140110
812.746	0.0139433
812.825	0.0141205
812.903	0.0141666
812.981	0.0140719
813.059	0.0141318
813.137	0.0140296
813.215	0.0140934
813.293	0.0141587
813.371	0.0139437
813.450	0.0139932
813.528	0.0139872
813.606	0.0140225
813.684	0.0139313
813.762	0.0140382
813.840	0.0138599
813.918	0.0140939
813.996	0.0139858
814.075	0.0138648
814.153	0.0140584
814.231	0.0139590
814.309	0.0139698
814.387	0.0141595
814.465	0.0141592
814.543	0.0140233
814.621	0.0140247
814.700	0.0141261
814.778	0.0141533
814.856	0.0140644
814.934	0.0141322
815.012	0.0141611
815.090	0.0141370
815.168	0.0140734
815.246	0.0141613
815.325	0.0140645
815.403	0.0139948
815.481	0.0139922
815.559	0.0139966
815.637	0.0140651
815.715	0.0139380
815.793	0.0140426
815.871	0.0140618
815.950	0.0141318
816.028	0.0141695
816.106	0.0140705
816.184	0.0139710
816.262	0.0140218
816.340	0.0142535
816.418	0.0141389
816.496	0.0140268
816.575	0.0140399
816.653	0.0142567
816.731	0.0142420
816.809	0.0141606
816.887	0.0140572
816.965	0.0140916
817.043	0.0142590
817.121	0.0141248
817.200	0.0140587
817.278	0.0141561
817.356	0.0140854
817.434	0.0140951
817.512	0.0140932
817.590	0.0141431
817.668	0.0141360
817.746	0.0141266
817.825	0.0140997
817.903	0.0140730
817.981	0.0141256
818.059	0.0140345
818.137	0.0140898
818.215	0.0139400
818.293	0.0141214
818.371	0.0142156
818.450	0.0141549
818.528	0.0138991
818.606	0.0138834
818.684	0.0139034
818.762	0.0138937
818.840	0.0139521
818.918	0.0139156
818.996	0.0139246
819.075	0.0139967
819.153	0.0139577
819.231	0.0139454
819.309	0.0140414
819.387	0.0140168
819.465	0.0140374
819.543	0.0141097
819.621	0.0140073
819.700	0.0140325
819.778	0.0140163
819.856	0.0141372
819.934	0.0141664
820.012	0.0141777
820.090	0.0140804
820.168	0.0140697
820.246	0.0140675
820.325	0.0142167
820.403	0.0141685
820.481	0.0140542
820.559	0.0139056
820.637	0.0139783
820.715	0.0142007
820.793	0.0141861
820.871	0.0140562
820.950	0.0139915
821.028	0.0140732
821.106	0.0140801
821.184	0.0139635
821.262	0.0138746
821.340	0.0139349
821.418	0.0140744
821.496	0.0138686
821.575	0.0139493
821.653	0.0139695
821.731	0.0139581
821.809	0.0139883
821.887	0.0140698
821.965	0.0139877
822.043	0.0140664
822.121	0.0140109
822.200	0.0141160
822.278	0.0140937
822.356	0.0141462
822.434	0.0141853
822.512	0.0138982
822.590	0.0142203
822.668	0.0142764
822.746	0.0141563
822.825	0.0142514
822.903	0.0141203
822.981	0.0140864
823.059	0.0141047
823.137	0.0140520
823.215	0.0140341
823.293	0.0140880
823.371	0.0140297
823.450	0.0139919
823.528	0.0138714
823.606	0.0139648
823.684	0.0138368
823.762	0.0139715
823.840	0.0140717
823.918	0.0139613
823.996	0.0139386
824.075	0.0139919
824.153	0.0139435
824.231	0.0139719
824.309	0.0140706
824.387	0.0139697
824.465	0.0141596
824.543	0.0140647
824.621	0.0141959
824.700	0.0140849
824.778	0.0140408
824.856	0.0142040
824.934	0.0139635
825.012	0.0140434
825.090	0.0140287
825.168	0.0139225
825.246	0.0141384
825.325	0.0140839
825.403	0.0140638
825.481	0.0139121
825.559	0.0140480
825.637	0.0140342
825.715	0.0139519
825.793	0.0139388
825.871	0.0140507
825.950	0.0140997
826.028	0.0141464
826.106	0.0140602
826.184	0.0140566
826.262	0.0140308
826.340	0.0141776
826.418	0.0140326
826.496	0.0140537
826.575	0.0140906
826.653	0.0141380
826.731	0.0142457
826.809	0.0141549
826.887	0.0142576
826.965	0.0142137
827.043	0.0141626
827.121	0.0140676
827.200	0.0141311
827.278	0.0141755
827.356	0.0140647
827.434	0.0138488
827.512	0.0140096
827.590	0.0141480
827.668	0.0141759
827.746	0.0139812
827.825	0.0139240
827.903	0.0142082
827.981	0.0140102
828.059	0.0141284
828.137	0.0140977
828.215	0.0141261
828.293	0.0141022
828.371	0.0141981
828.450	0.0140452
828.528	0.0141626
828.606	0.0141606
828.684	0.0141920
828.762	0.0140909
828.840	0.0140705
828.918	0.0140909
828.996	0.0140556
829.075	0.0141511
829.153	0.0141135
829.231	0.0140693
829.309	0.0139955
829.387	0.0141001
829.465	0.0140735
829.543	0.0140375
829.621	0.0139648
829.700	0.0139937
829.778	0.0140034
829.856	0.0140920
829.934	0.0141055
830.012	0.0140896
830.090	0.0141347
830.168	0.0139534
830.246	0.0140362
830.325	0.0141551
830.403	0.0140803
830.481	0.0140030
830.559	0.0140692
830.637	0.0141198
830.715	0.0141161
830.793	0.0140862
830.871	0.0140671
830.950	0.0141935
831.028	0.0140749
831.106	0.0140240
831.184	0.0140692
831.262	0.0140135
831.340	0.0140819
831.418	0.0140170
831.496	0.0140427
831.575	0.0140842
831.653	0.0140072
831.731	0.0140928
831.809	0.0140691
831.887	0.0140334
831.965	0.0140275
832.043	0.0140801
832.121	0.0142007
832.200	0.0140316
832.278	0.0140482
832.356	0.0140356
832.434	0.0139859
832.512	0.0141733
832.590	0.0141805
832.668	0.0139835
832.746	0.0139873
832.825	0.0139646
832.903	0.0139780
832.981	0.0140396
833.059	0.0140378
833.137	0.0141069
833.215	0.0141290
833.293	0.0140639
833.371	0.0141630
833.450	0.0140884
833.528	0.0140541
833.606	0.0140502
833.684	0.0141413
833.762	0.0141470
833.840	0.0139685
833.918	0.0141376
833.996	0.0142135
834.075	0.0142206
834.153	0.0140199
834.231	0.0140796
834.309	0.0140231
834.387	0.0141216
834.465	0.0139021
834.543	0.0139390
834.621	0.0140744
834.700	0.0140157
834.778	0.0141951
834.856	0.0140197
834.934	0.0139871
835.012	0.0141517
835.090	0.0140807
835.168	0.0141559
835.246	0.0142554
835.325	0.0141216
835.403	0.0142223
835.481	0.0142760
835.559	0.0141103
835.637	0.0141410
835.715	0.0141312
835.793	0.0140392
835.871	0.0141138
835.950	0.0140204
836.028	0.0138895
836.106	0.0138526
836.184	0.0139608
836.262	0.0139851
836.340	0.0139725
836.418	0.0139216
836.496	0.0140337
836.575	0.0139941
836.653	0.0140470
836.731	0.0139712
836.809	0.0140367
836.887	0.0140262
836.965	0.0141518
837.043	0.0141834
837.121	0.0141236
837.200	0.0142354
837.278	0.0141638
837.356	0.0140126
837.434	0.0140972
837.512	0.0141584
837.590	0.0140018
837.668	0.0140932
837.746	0.0140517
837.825	0.0139684
837.903	0.0141222
837.981	0.0140405
838.059	0.0139925
838.137	0.0139835
838.215	0.0140680
838.293	0.0140527
838.371	0.0141650
838.450	0.0141664
838.528	0.0141237
838.606	0.0141103
838.684	0.0141660
838.762	0.0141283
838.840	0.0141548
838.918	0.0142358
838.996	0.0142769
839.075	0.0140997
839.153	0.0142430
839.231	0.0141241
839.309	0.0141785
839.387	0.0142091
839.465	0.0142818
839.543	0.0141456
839.621	0.0140480
839.700	0.0141616
839.778	0.0141239
839.856	0.0141012
839.934	0.0141831
840.012	0.0141248
840.090	0.0140724
840.168	0.0140189
840.246	0.0140015
840.325	0.0139210
840.403	0.0140082
840.481	0.0141270
840.559	0.0139919
840.637	0.0140038
840.715	0.0141033
840.793	0.0139886
840.871	0.0141265
840.950	0.0141058
841.028	0.0140591
841.106	0.0139872
841.184	0.0140386
841.262	0.0141288
841.340	0.0141280
841.418	0.0141127
841.496	0.0139944
841.575	0.0141317
841.653	0.0142341
841.731	0.0141286
841.809	0.0141249
841.887	0.0140566
841.965	0.0140516
842.043	0.0140426
842.121	0.0139937
842.200	0.0139397
842.278	0.0139799
842.356	0.0140390
842.434	0.0140331
842.512	0.0139104
842.590	0.0140347
842.668	0.0140498
842.746	0.0140568
842.825	0.0142558
842.903	0.0142330
842.981	0.0141525
843.059	0.0142281
843.137	0.0142215
843.215	0.0141347
843.293	0.0141553
843.371	0.0141721
843.450	0.0140349
843.528	0.0140841
843.606	0.0141926
843.684	0.0140630
843.762	0.0141981
843.840	0.0141567
843.918	0.0141421
843.996	0.0140060
844.075	0.0139217
844.153	0.0140553
844.231	0.0139051
844.309	0.0139532
844.387	0.0141049
844.465	0.0140670
844.543	0.0140551
844.621	0.0140189
844.700	0.0140867
844.778	0.0140489
844.856	0.0140703
844.934	0.0140868
845.012	0.0141409
845.090	0.0141736
845.168	0.0142532
845.246	0.0142485
845.325	0.0142144
845.403	0.0141596
845.481	0.0140693
845.559	0.0141502
845.637	0.0141437
845.715	0.0141335
845.793	0.0141151
845.871	0.0140423
845.950	0.0140754
846.028	0.0141220
846.106	0.0139933
846.184	0.0140238
846.262	0.0139193
846.340	0.0138618
846.418	0.0140054
846.496	0.0140609
846.575	0.0139642
846.653	0.0141128
846.731	0.0140056
846.809	0.0139954
846.887	0.0141077
846.965	0.0141019
847.043	0.0140488
847.121	0.0140914
847.200	0.0142264
847.278	0.0141465
847.356	0.0141587
847.434	0.0140756
847.512	0.0141586
847.590	0.0142748
847.668	0.0142666
847.746	0.0140762
847.825	0.0141295
847.903	0.0141495
847.981	0.0140348
848.059	0.0141085
848.137	0.0141370
848.215	0.0139315
848.293	0.0140025
848.371	0.0141243
848.450	0.0140482
848.528	0.0140333
848.606	0.0140257
848.684	0.0140549
848.762	0.0138998
848.840	0.0140784
848.918	0.0141013
848.996	0.0140986
849.075	0.0140761
849.153	0.0139745
849.231	0.0140244
849.309	0.0139571
849.387	0.0140246
849.465	0.0141353
849.543	0.0140291
849.621	0.0141381
849.700	0.0140826
849.778	0.0140689
849.856	0.0141560
849.934	0.0140485
850.012	0.0140893
850.090	0.0139452
850.168	0.0140470
850.246	0.0140435
850.325	0.0140944
850.403	0.0140135
850.481	0.0140852
850.559	0.0142003
850.637	0.0140180
850.715	0.0140423
850.793	0.0140118
850.871	0.0139530
850.950	0.0140952
851.028	0.0141139
851.106	0.0140533
851.184	0.0139834
851.262	0.0140575
851.340	0.0139906
851.418	0.0140989
851.496	0.0140086
851.575	0.0139671
851.653	0.0139597
851.731	0.0140547
851.809	0.0141936
851.887	0.0141766
851.965	0.0140110
852.043	0.0140622
852.121	0.0141068
852.200	0.0142258
852.278	0.0142075
852.356	0.0139927
852.434	0.0141600
852.512	0.0141560
852.590	0.0141142
852.668	0.0141266
852.746	0.0140720
852.825	0.0141080
852.903	0.0140331
852.981	0.0140770
853.059	0.0140260
853.137	0.0140186
853.215	0.0140083
853.293	0.0140209
853.371	0.0140151
853.450	0.0140147
853.528	0.0138475
853.606	0.0139907
853.684	0.0138893
853.762	0.0139252
853.840	0.0139988
853.918	0.0140717
853.996	0.0140755
854.075	0.0140080
854.153	0.0141272
854.231	0.0141103
854.309	0.0141514
854.387	0.0141120
854.465	0.0141376
854.543	0.0141159
854.621	0.0141613
854.700	0.0141389
854.778	0.0142234
854.856	0.0140391
854.934	0.0140685
855.012	0.0141126
855.090	0.0140491
855.168	0.0141471
855.246	0.0140794
855.325	0.0141529
855.403	0.0139411
855.481	0.0139602
855.559	0.0140154
855.637	0.0140666
855.715	0.0139417
855.793	0.0141293
855.871	0.0141792
855.950	0.0139828
856.028	0.0140027
856.106	0.0140743
856.184	0.0140428
856.262	0.0140508
856.340	0.0139558
856.418	0.0139336
856.496	0.0139642
856.575	0.0141882
856.653	0.0140552
856.731	0.0140132
856.809	0.0138873
856.887	0.0141431
856.965	0.0141209
857.043	0.0141511
857.121	0.0142117
857.200	0.0140831
857.278	0.0140173
857.356	0.0141711
857.434	0.0142175
857.512	0.0141911
857.590	0.0141628
857.668	0.0141253
857.746	0.0140717
857.825	0.0140989
857.903	0.0139574
857.981	0.0141584
858.059	0.0140359
858.137	0.0140503
858.215	0.0139555
858.293	0.0139666
858.371	0.0138477
858.450	0.0141017
858.528	0.0140391
858.606	0.0139494
858.684	0.0139782
858.762	0.0140814
858.840	0.0139996
858.918	0.0140785
858.996	0.0142088
859.075	0.0141050
859.153	0.0140529
859.231	0.0141812
859.309	0.0142546
859.387	0.0140768
859.465	0.0140296
859.543	0.0141299
859.621	0.0141307
859.700	0.0141692
859.778	0.0141880
859.856	0.0141157
859.934	0.0139692
860.012	0.0140221
860.090	0.0141467
860.168	0.0140247
860.246	0.0140008
860.325	0.0140222
860.403	0.0139486
860.481	0.0139036
860.559	0.0138893
860.637	0.0139482
860.715	0.0140567
860.793	0.0140226
860.871	0.0139854
860.950	0.0138879
861.028	0.0139022
861.106	0.0138599
861.184	0.0140294
861.262	0.0141424
861.340	0.0140257
861.418	0.0140640
861.496	0.0140746
861.575	0.0140384
861.653	0.0140071
861.731	0.0140444
861.809	0.0140927
861.887	0.0140865
861.965	0.0139930
862.043	0.0139341
862.121	0.0141393
862.200	0.0141241
862.278	0.0141058
862.356	0.0142612
862.434	0.0140830
862.512	0.0141785
862.590	0.0140505
862.668	0.0140739
862.746	0.0140460
862.825	0.0139587
862.903	0.0141343
862.981	0.0139728
863.059	0.0138522
863.137	0.0139552
863.215	0.0140183
863.293	0.0139166
863.371	0.0138806
863.450	0.0140298
863.528	0.0139310
863.606	0.0139361
863.684	0.0141384
863.762	0.0140919
863.840	0.0140577
863.918	0.0140494
863.996	0.0141944
864.075	0.0141648
864.153	0.0141370
864.231	0.0141757
864.309	0.0141202
864.387	0.0142391
864.465	0.0142098
864.543	0.0142445
864.621	0.0141424
864.700	0.0142056
864.778	0.0141400
864.856	0.0141490
864.934	0.0139425
865.012	0.0139170
865.090	0.0140704
865.168	0.0140287
865.246	0.0138720
865.325	0.0138810
865.403	0.0139872
865.481	0.0140799
865.559	0.0139321
865.637	0.0138800
865.715	0.0139404
865.793	0.0140192
865.871	0.0138696
865.950	0.0141135
866.028	0.0140626
866.106	0.0141196
866.184	0.0140532
866.262	0.0140347
866.340	0.0140946
866.418	0.0140359
866.496	0.0139323
866.575	0.0141027
866.653	0.0140131
866.731	0.0140097
866.809	0.0141059
866.887	0.0141221
866.965	0.0140688
867.043	0.0138018
867.121	0.0139332
867.200	0.0139200
867.278	0.0139825
867.356	0.0138765
867.434	0.0141684
867.512	0.0139204
867.590	0.0140034
867.668	0.0139221
867.746	0.0139645
867.825	0.0138474
867.903	0.0139723
867.981	0.0138820
868.059	0.0139683
868.137	0.0140775
868.215	0.0140516
868.293	0.0139865
868.371	0.0140999
868.450	0.0140167
868.528	0.0138428
868.606	0.0140560
868.684	0.0140205
868.762	0.0140038
868.840	0.0139839
868.918	0.0141029
868.996	0.0142284
869.075	0.0140792
869.153	0.0141042
869.231	0.0141714
869.309	0.0141685
869.387	0.0140565
869.465	0.0140536
869.543	0.0141557
869.621	0.0141452
869.700	0.0140186
869.778	0.0140427
869.856	0.0139943
869.934	0.0139674
870.012	0.0140192
870.090	0.0140596
870.168	0.0139729
870.246	0.0140501
870.325	0.0140265
870.403	0.0139014
870.481	0.0141604
870.559	0.0139207
870.637	0.0139873
870.715	0.0138935
870.793	0.0139091
870.871	0.0139894
870.950	0.0140987
871.028	0.0141214
871.106	0.0140872
871.184	0.0140453
871.262	0.0141201
871.340	0.0140410
871.418	0.0140069
871.496	0.0141196
871.575	0.0141511
871.653	0.0139697
871.731	0.0139873
871.809	0.0141219
871.887	0.0140927
871.965	0.0139657
872.043	0.0140108
872.121	0.0141022
872.200	0.0138766
872.278	0.0139604
872.356	0.0140627
872.434	0.0139741
872.512	0.0139254
872.590	0.0139949
872.668	0.0139580
872.746	0.0139114
872.825	0.0140334
872.903	0.0139384
872.981	0.0139803
873.059	0.0139194
873.137	0.0141155
873.215	0.0140472
873.293	0.0139108
873.371	0.0140020
873.450	0.0140110
873.528	0.0139645
873.606	0.0141615
873.684	0.0141491
873.762	0.0140701
873.840	0.0140079
873.918	0.0141597
873.996	0.0141631
874.075	0.0139253
874.153	0.0140934
874.231	0.0141573
874.309	0.0140849
874.387	0.0140275
874.465	0.0140403
874.543	0.0139677
874.621	0.0138651
874.700	0.0140089
874.778	0.0139098
874.856	0.0140134
874.934	0.0140470
875.012	0.0140530
875.090	0.0140599
875.168	0.0139369
875.246	0.0139782
875.325	0.0138889
875.403	0.0139489
875.481	0.0140894
875.559	0.0140927
875.637	0.0141497
875.715	0.0140324
875.793	0.0139201
875.871	0.0139812
875.950	0.0141192
876.028	0.0139725
876.106	0.0140077
876.184	0.0141135
876.262	0.0141425
876.340	0.0140119
876.418	0.0140054
876.496	0.0140741
876.575	0.0140820
876.653	0.0140814
876.731	0.0139834
876.809	0.0140437
876.887	0.0140203
876.965	0.0139930
877.043	0.0141691
877.121	0.0141035
877.200	0.0140096
877.278	0.0141365
877.356	0.0140783
877.434	0.0139391
877.512	0.0141964
877.590	0.0140987
877.668	0.0140533
877.746	0.0142121
877.825	0.0141035
877.903	0.0139587
877.981	0.0139601
878.059	0.0140847
878.137	0.0141351
878.215	0.0140878
878.293	0.0138661
878.371	0.0139164
878.450	0.0139829
878.528	0.0139435
878.606	0.0140321
878.684	0.0139931
878.762	0.0140559
878.840	0.0140005
878.918	0.0139738
878.996	0.0141446
879.075	0.0141580
879.153	0.0140509
879.231	0.0140385
879.309	0.0141945
879.387	0.0141358
879.465	0.0139214
879.543	0.0140668
879.621	0.0142137
879.700	0.0140629
879.778	0.0140349
879.856	0.0139954
879.934	0.0141727
880.012	0.0141055
880.090	0.0139672
880.168	0.0140504
880.246	0.0139316
880.325	0.0139702
880.403	0.0140942
880.481	0.0140283
880.559	0.0139839
880.637	0.0138315
880.715	0.0139214
880.793	0.0140929
880.871	0.0139857
880.950	0.0141010
881.028	0.0138625
881.106	0.0139415
881.184	0.0141419
881.262	0.0140453
881.340	0.0140070
881.418	0.0140306
881.496	0.0141771
881.575	0.0140468
881.653	0.0140170
881.731	0.0140782
881.809	0.0141357
881.887	0.0141913
881.965	0.0139684
882.043	0.0139787
882.121	0.0141078
882.200	0.0139730
882.278	0.0140997
882.356	0.0140977
882.434	0.0138965
882.512	0.0140723
882.590	0.0140011
882.668	0.0139296
882.746	0.0138642
882.825	0.0140633
882.903	0.0140298
882.981	0.0138610
883.059	0.0138515
883.137	0.0139507
883.215	0.0139719
883.293	0.0140074
883.371	0.0140595
883.450	0.0139802
883.528	0.0139114
883.606	0.0140435
883.684	0.0141062
883.762	0.0139091
883.840	0.0140073
883.918	0.0141789
883.996	0.0140384
884.075	0.0139423
884.153	0.0138336
884.231	0.0140350
884.309	0.0140181
884.387	0.0140731
884.465	0.0140408
884.543	0.0140083
884.621	0.0139781
884.700	0.0138781
884.778	0.0140100
884.856	0.0139753
884.934	0.0140919
885.012	0.0139799
885.090	0.0140000
885.168	0.0140694
885.246	0.0139716
885.325	0.0138969
885.403	0.0138762
885.481	0.0138864
885.559	0.0140121
885.637	0.0139385
885.715	0.0140369
885.793	0.0140604
885.871	0.0140292
885.950	0.0140019
886.028	0.0140038
886.106	0.0138906
886.184	0.0139632
886.262	0.0141429
886.340	0.0140575
886.418	0.0138535
886.496	0.0140038
886.575	0.0139008
886.653	0.0139382
886.731	0.0139204
886.809	0.0140155
886.887	0.0140009
886.965	0.0139199
887.043	0.0140385
887.121	0.0139921
887.200	0.0139741
887.278	0.0139794
887.356	0.0140397
887.434	0.0141017
887.512	0.0139929
887.590	0.0140231
887.668	0.0141573
887.746	0.0142918
887.825	0.0140233
887.903	0.0140536
887.981	0.0141406
888.059	0.0140910
888.137	0.0142183
888.215	0.0140564
888.293	0.0140155
888.371	0.0141483
888.450	0.0140173
888.528	0.0140449
888.606	0.0139930
888.684	0.0140398
888.762	0.0140601
888.840	0.0138372
888.918	0.0139494
888.996	0.0139760
889.075	0.0139832
889.153	0.0140275
889.231	0.0139689
889.309	0.0140542
889.387	0.0140264
889.465	0.0140081
889.543	0.0140160
889.621	0.0138316
889.700	0.0140269
889.778	0.0141061
889.856	0.0140711
889.934	0.0142172
890.012	0.0141102
890.090	0.0141493
890.168	0.0140045
890.246	0.0140556
890.325	0.0141720
890.403	0.0141035
890.481	0.0140414
890.559	0.0139500
890.637	0.0140491
890.715	0.0140452
890.793	0.0139427
890.871	0.0140107
890.950	0.0139406
891.028	0.0140050
891.106	0.0139301
891.184	0.0138479
891.262	0.0138763
891.340	0.0139046
891.418	0.0141013
891.496	0.0137744
891.575	0.0139991
891.653	0.0141002
891.731	0.0140313
891.809	0.0141521
891.887	0.0141555
891.965	0.0139378
892.043	0.0139601
892.121	0.0140709
892.200	0.0140986
892.278	0.0140045
892.356	0.0140000
892.434	0.0139397
892.512	0.0139924
892.590	0.0140407
892.668	0.0141402
892.746	0.0140193
892.825	0.0139049
892.903	0.0139456
892.981	0.0140022
893.059	0.0139591
893.137	0.0138779
893.215	0.0139463
893.293	0.0139803
893.371	0.0140945
893.450	0.0140745
893.528	0.0139265
893.606	0.0140773
893.684	0.0138844
893.762	0.0139780
893.840	0.0141278
893.918	0.0141843
893.996	0.0141487
894.075	0.0141052
894.153	0.0140861
894.231	0.0139471
894.309	0.0141374
894.387	0.0140653
894.465	0.0140235
894.543	0.0140678
894.621	0.0140654
894.700	0.0140487
894.778	0.0140767
894.856	0.0139973
894.934	0.0139897
895.012	0.0140341
895.090	0.0138908
895.168	0.0140240
895.246	0.0140780
895.325	0.0139956
895.403	0.0141216
895.481	0.0139630
895.559	0.0138470
895.637	0.0139571
895.715	0.0139768
895.793	0.0139069
895.871	0.0140369
895.950	0.0140923
896.028	0.0141624
896.106	0.0140884
896.184	0.0141158
896.262	0.0141351
896.340	0.0139684
896.418	0.0140359
896.496	0.0141244
896.575	0.0141180
896.653	0.0141267
896.731	0.0140795
896.809	0.0141213
896.887	0.0141525
896.965	0.0140142
897.043	0.0140676
897.121	0.0140807
897.200	0.0140436
897.278	0.0140627
897.356	0.0140829
897.434	0.0140546
897.512	0.0141184
897.590	0.0140262
897.668	0.0140536
897.746	0.0139846
897.825	0.0140162
897.903	0.0141101
897.981	0.0140981
898.059	0.0140256
898.137	0.0139380
898.215	0.0140535
898.293	0.0141925
898.371	0.0140223
898.450	0.0140114
898.528	0.0140318
898.606	0.0140231
898.684	0.0141702
898.762	0.0139447
898.840	0.0139299
898.918	0.0139465
898.996	0.0140142
899.075	0.0140775
899.153	0.0141157
899.231	0.0139464
899.309	0.0139368
899.387	0.0141669
899.465	0.0140569
899.543	0.0140141
899.621	0.0140435
899.700	0.0140430
899.778	0.0139487
899.856	0.0140768
899.934	0.0140668
900.012	0.0140324
900.090	0.0140916
900.168	0.0141699
900.246	0.0141000
900.325	0.0140171
900.403	0.0141215
900.481	0.0140593
900.559	0.0139377
900.637	0.0141156
900.715	0.0138907
900.793	0.0140244
900.871	0.0139596
900.950	0.0139244
901.028	0.0140491
901.106	0.0139889
901.184	0.0139364
901.262	0.0140981
901.340	0.0140087
901.418	0.0139399
901.496	0.0141785
901.575	0.0141705
901.653	0.0140437
901.731	0.0141793
901.809	0.0141201
901.887	0.0140907
901.965	0.0141378
902.043	0.0141155
902.121	0.0140564
902.200	0.0140730
902.278	0.0139263
902.356	0.0138313
902.434	0.0137958
902.512	0.0137872
902.590	0.0137632
902.668	0.0137683
902.746	0.0137993
902.825	0.0138126
902.903	0.0140019
902.981	0.0139583
903.059	0.0138382
903.137	0.0139800
903.215	0.0140777
903.293	0.0141736
903.371	0.0141332
903.450	0.0141302
903.528	0.0142728
903.606	0.0140961
903.684	0.0140807
903.762	0.0139503
903.840	0.0140071
903.918	0.0138677
903.996	0.0138854
904.075	0.0139053
904.153	0.0138401
904.231	0.0138500
904.309	0.0138728
904.387	0.0139765
904.465	0.0139330
904.543	0.0140031
904.621	0.0140769
904.700	0.0140539
904.778	0.0142075
904.856	0.0142005
904.934	0.0141030
905.012	0.0141670
905.090	0.0140490
905.168	0.0139590
905.246	0.0140681
905.325	0.0140522
905.403	0.0139499
905.481	0.0140488
905.559	0.0140765
905.637	0.0139395
905.715	0.0141246
905.793	0.0141018
905.871	0.0140441
905.950	0.0141045
906.028	0.0140665
906.106	0.0142256
906.184	0.0142325
906.262	0.0142080
906.340	0.0144163
906.418	0.0143121
906.496	0.0142312
906.575	0.0140807
906.653	0.0142192
906.731	0.0141164
906.809	0.0140983
906.887	0.0139160
906.965	0.0139533
907.043	0.0138563
907.121	0.0138086
907.200	0.0138494
907.278	0.0138898
907.356	0.0139748
907.434	0.0138255
907.512	0.0138905
907.590	0.0140035
907.668	0.0139901
907.746	0.0140926
907.825	0.0140459
907.903	0.0140954
907.981	0.0141461
908.059	0.0143261
908.137	0.0143805
908.215	0.0142751
908.293	0.0142782
908.371	0.0142500
908.450	0.0142149
908.528	0.0142101
908.606	0.0140904
908.684	0.0141309
908.762	0.0141048
908.840	0.0139844
908.918	0.0141511
908.996	0.0139807
909.075	0.0139877
909.153	0.0141233
909.231	0.0140750
909.309	0.0141172
909.387	0.0139563
909.465	0.0141632
909.543	0.0143637
909.621	0.0140854
909.700	0.0140791
909.778	0.0140842
909.856	0.0141751
909.934	0.0141441
910.012	0.0140129
910.090	0.0140915
910.168	0.0140965
910.246	0.0142170
910.325	0.0140416
910.403	0.0140912
910.481	0.0139937
910.559	0.0141228
910.637	0.0139429
910.715	0.0140282
910.793	0.0139124
910.871	0.0141120
910.950	0.0142122
911.028	0.0140471
911.106	0.0141037
911.184	0.0142702
911.262	0.0143682
911.340	0.0142177
911.418	0.0143159
911.496	0.0144728
911.575	0.0143977
911.653	0.0142229
911.731	0.0142491
911.809	0.0142390
911.887	0.0140664
911.965	0.0138943
912.043	0.0139783
912.121	0.0139258
912.200	0.0138816
912.278	0.0137894
912.356	0.0138280
912.434	0.0137455
912.512	0.0138477
912.590	0.0137743
912.668	0.0137691
912.746	0.0138116
912.825	0.0139545
912.903	0.0139899
912.981	0.0139450
913.059	0.0142406
913.137	0.0142075
913.215	0.0142233
913.293	0.0143776
913.371	0.0143506
913.450	0.0142603
913.528	0.0141615
913.606	0.0142496
913.684	0.0141769
913.762	0.0140987
913.840	0.0140272
913.918	0.0141187
913.996	0.0140791
914.075	0.0140795
914.153	0.0139707
914.231	0.0139873
914.309	0.0139295
914.387	0.0139021
914.465	0.0139350
914.543	0.0139890
914.621	0.0139588
914.700	0.0139285
914.778	0.0140021
914.856	0.0140322
914.934	0.0139875
915.012	0.0141934
915.090	0.0141699
915.168	0.0141122
915.246	0.0141554
915.325	0.0141370
915.403	0.0142224
915.481	0.0141486
915.559	0.0142326
915.637	0.0142951
915.715	0.0141380
915.793	0.0141559
915.871	0.0142352
915.950	0.0140846
916.028	0.0140964
916.106	0.0141189
916.184	0.0140522
916.262	0.0139886
916.340	0.0140576
916.418	0.0141013
916.496	0.0141034
916.575	0.0139671
916.653	0.0141353
916.731	0.0141747
916.809	0.0141051
916.887	0.0139371
916.965	0.0140186
917.043	0.0142113
917.121	0.0140450
917.200	0.0141792
917.278	0.0141007
917.356	0.0141067
917.434	0.0139204
917.512	0.0140604
917.590	0.0140261
917.668	0.0140603
917.746	0.0140820
917.825	0.0139828
917.903	0.0140144
917.981	0.0139301
918.059	0.0139135
918.137	0.0140266
918.215	0.0139971
918.293	0.0140327
918.371	0.0140253
918.450	0.0139102
918.528	0.0139356
918.606	0.0141081
918.684	0.0140272
918.762	0.0140377
918.840	0.0141502
918.918	0.0140177
918.996	0.0140606
919.075	0.0141713
919.153	0.0141526
919.231	0.0141487
919.309	0.0141829
919.387	0.0141415
919.465	0.0142277
919.543	0.0140752
919.621	0.0140546
919.700	0.0141512
919.778	0.0141116
919.856	0.0139232
919.934	0.0138785
920.012	0.0139919
920.090	0.0140549
920.168	0.0140136
920.246	0.0139015
920.325	0.0138011
920.403	0.0138284
920.481	0.0139624
920.559	0.0140270
920.637	0.0140540
920.715	0.0139568
920.793	0.0141459
920.871	0.0140424
920.950	0.0140166
921.028	0.0141195
921.106	0.0140556
921.184	0.0141828
921.262	0.0142173
921.340	0.0140138
921.418	0.0141173
921.496	0.0142907
921.575	0.0141963
921.653	0.0141049
921.731	0.0141142
921.809	0.0139752
921.887	0.0140455
921.965	0.0141691
922.043	0.0141484
922.121	0.0140957
922.200	0.0139664
922.278	0.0141817
922.356	0.0140051
922.434	0.0140215
922.512	0.0138689
922.590	0.0139895
922.668	0.0141423
922.746	0.0140269
922.825	0.0139936
922.903	0.0141245
922.981	0.0140845
923.059	0.0140021
923.137	0.0139745
923.215	0.0139644
923.293	0.0140054
923.371	0.0141426
923.450	0.0141669
923.528	0.0141623
923.606	0.0141034
923.684	0.0140318
923.762	0.0140005
923.840	0.0140972
923.918	0.0140997
923.996	0.0139331
924.075	0.0139279
924.153	0.0140318
924.231	0.0138889
924.309	0.0140936
924.387	0.0139387
924.465	0.0140769
924.543	0.0140230
924.621	0.0139366
924.700	0.0139844
924.778	0.0140391
924.856	0.0140411
924.934	0.0140257
925.012	0.0141238
925.090	0.0140685
925.168	0.0140875
925.246	0.0142677
925.325	0.0141597
925.403	0.0140352
925.481	0.0141090
925.559	0.0141950
925.637	0.0141300
925.715	0.0140855
925.793	0.0139349
925.871	0.0140244
925.950	0.0141348
926.028	0.0138907
926.106	0.0138660
926.184	0.0140006
926.262	0.0139661
926.340	0.0140022
926.418	0.0139503
926.496	0.0138647
926.575	0.0137629
926.653	0.0140694
926.731	0.0140456
926.809	0.0140570
926.887	0.0139853
926.965	0.0140609
927.043	0.0140816
927.121	0.0141636
927.200	0.0140688
927.278	0.0140513
927.356	0.0140646
927.434	0.0141552
927.512	0.0142809
927.590	0.0141348
927.668	0.0141432
927.746	0.0141955
927.825	0.0140336
927.903	0.0141901
927.981	0.0143015
928.059	0.0141319
928.137	0.0141283
928.215	0.0140692
928.293	0.0141927
928.371	0.0142490
928.450	0.0141395
928.528	0.0140104
928.606	0.0140775
928.684	0.0139876
928.762	0.0140772
928.840	0.0140767
928.918	0.0140572
928.996	0.0140415
929.075	0.0140092
929.153	0.0140120
929.231	0.0140138
929.309	0.0139982
929.387	0.0142646
929.465	0.0141096
929.543	0.0142082
929.621	0.0141193
929.700	0.0142348
929.778	0.0141812
929.856	0.0142120
929.934	0.0140961
930.012	0.0142874
930.090	0.0141319
930.168	0.0141418
930.246	0.0141162
930.325	0.0140918
930.403	0.0140883
930.481	0.0140803
930.559	0.0141732
930.637	0.0141240
930.715	0.0141491
930.793	0.0139915
930.871	0.0139951
930.950	0.0139545
931.028	0.0139707
931.106	0.0139366
931.184	0.0140505
931.262	0.0140859
931.340	0.0141086
931.418	0.0139825
931.496	0.0140364
931.575	0.0140552
931.653	0.0139599
931.731	0.0140270
931.809	0.0140346
931.887	0.0142083
931.965	0.0142094
932.043	0.0141058
932.121	0.0141242
932.200	0.0142554
932.278	0.0142334
932.356	0.0141581
932.434	0.0143957
932.512	0.0142641
932.590	0.0143200
932.668	0.0141866
932.746	0.0141158
932.825	0.0141077
932.903	0.0140712
932.981	0.0142380
933.059	0.0138303
933.137	0.0139241
933.215	0.0140621
933.293	0.0141129
933.371	0.0139472
933.450	0.0139690
933.528	0.0139806
933.606	0.0140421
933.684	0.0140168
933.762	0.0140166
933.840	0.0141137
933.918	0.0141190
933.996	0.0141362
934.075	0.0139742
934.153	0.0141422
934.231	0.0141454
934.309	0.0142711
934.387	0.0142652
934.465	0.0141260
934.543	0.0140313
934.621	0.0141634
934.700	0.0141245
934.778	0.0143496
934.856	0.0141594
934.934	0.0140548
935.012	0.0140201
935.090	0.0140359
935.168	0.0141040
935.246	0.0141349
935.325	0.0141605
935.403	0.0140781
935.481	0.0139498
935.559	0.0139624
935.637	0.0139977
935.715	0.0139960
935.793	0.0140204
935.871	0.0140932
935.950	0.0140744
936.028	0.0139696
936.106	0.0140192
936.184	0.0140511
936.262	0.0141567
936.340	0.0141970
936.418	0.0139797
936.496	0.0140332
936.575	0.0141383
936.653	0.0139955
936.731	0.0140146
936.809	0.0139484
936.887	0.0141189
936.965	0.0141851
937.043	0.0141291
937.121	0.0140668
937.200	0.0141128
937.278	0.0140594
937.356	0.0142119
937.434	0.0141869
937.512	0.0140054
937.590	0.0141648
937.668	0.0140969
937.746	0.0140279
937.825	0.0140420
937.903	0.0140795
937.981	0.0141234
938.059	0.0141059
938.137	0.0139981
938.215	0.0139891
938.293	0.0139920
938.371	0.0139588
938.450	0.0138714
938.528	0.0139980
938.606	0.0139109
938.684	0.0139934
938.762	0.0139075
938.840	0.0140630
938.918	0.0140727
938.996	0.0139433
939.075	0.0140008
939.153	0.0141991
939.231	0.0141237
939.309	0.0140086
939.387	0.0141533
939.465	0.0140939
939.543	0.0141663
939.621	0.0140830
939.700	0.0141751
939.778	0.0142144
939.856	0.0142326
939.934	0.0139155
940.012	0.0140919
940.090	0.0141895
940.168	0.0141380
940.246	0.0141213
940.325	0.0141016
940.403	0.0140909
940.481	0.0140415
940.559	0.0141358
940.637	0.0140199
940.715	0.0138669
940.793	0.0139606
940.871	0.0140935
940.950	0.0139329
941.028	0.0140221
941.106	0.0140570
941.184	0.0140182
941.262	0.0139580
941.340	0.0138942
941.418	0.0141579
941.496	0.0140849
941.575	0.0140227
941.653	0.0139674
941.731	0.0140041
941.809	0.0139745
941.887	0.0139450
941.965	0.0141150
942.043	0.0140387
942.121	0.0140340
942.200	0.0140147
942.278	0.0139446
942.356	0.0139389
942.434	0.0139587
942.512	0.0139126
942.590	0.0140413
942.668	0.0139914
942.746	0.0139751
942.825	0.0139980
942.903	0.0140002
942.981	0.0139485
943.059	0.0140553
943.137	0.0141145
943.215	0.0140237
943.293	0.0140043
943.371	0.0141743
943.450	0.0139991
943.528	0.0140678
943.606	0.0141026
943.684	0.0141177
943.762	0.0142048
943.840	0.0141254
943.918	0.0142013
943.996	0.0140872
944.075	0.0141157
944.153	0.0141048
944.231	0.0141000
944.309	0.0140222
944.387	0.0141694
944.465	0.0140670
944.543	0.0140769
944.621	0.0140834
944.700	0.0140031
944.778	0.0140612
944.856	0.0140070
944.934	0.0140587
945.012	0.0140382
945.090	0.0140444
945.168	0.0140582
945.246	0.0140793
945.325	0.0141049
945.403	0.0139995
945.481	0.0138864
945.559	0.0140493
945.637	0.0141197
945.715	0.0139792
945.793	0.0138912
945.871	0.0140872
945.950	0.0140550
946.028	0.0140631
946.106	0.0140422
946.184	0.0139510
946.262	0.0141656
946.340	0.0140506
946.418	0.0141845
946.496	0.0141618
946.575	0.0140337
946.653	0.0140582
946.731	0.0140939
946.809	0.0140752
946.887	0.0140965
946.965	0.0139729
947.043	0.0139401
947.121	0.0140356
947.200	0.0139584
947.278	0.0138918
947.356	0.0141079
947.434	0.0141214
947.512	0.0139788
947.590	0.0140077
947.668	0.0139647
947.746	0.0137422
947.825	0.0140446
947.903	0.0140208
947.981	0.0139388
948.059	0.0139526
948.137	0.0141171
948.215	0.0141250
948.293	0.0142248
948.371	0.0140762
948.450	0.0141660
948.528	0.0142284
948.606	0.0140950
948.684	0.0139832
948.762	0.0141148
948.840	0.0141035
948.918	0.0140949
948.996	0.0141383
949.075	0.0141711
949.153	0.0141889
949.231	0.0140325
949.309	0.0139115
949.387	0.0140714
949.465	0.0140347
949.543	0.0140833
949.621	0.0141035
949.700	0.0140590
949.778	0.0140627
949.856	0.0140789
949.934	0.0139667
950.012	0.0141746
950.090	0.0141897
950.168	0.0139780
950.246	0.0140099
950.325	0.0140414
950.403	0.0139435
950.481	0.0141276
950.559	0.0141107
950.637	0.0141315
950.715	0.0141436
950.793	0.0140345
950.871	0.0142069
950.950	0.0142274
951.028	0.0140555
951.106	0.0141712
951.184	0.0141389
951.262	0.0141295
951.340	0.0141255
951.418	0.0140180
951.496	0.0140422
951.575	0.0141512
951.653	0.0142519
951.731	0.0141254
951.809	0.0140590
951.887	0.0141279
951.965	0.0139478
952.043	0.0139654
952.121	0.0139742
952.200	0.0140422
952.278	0.0140571
952.356	0.0140205
952.434	0.0139418
952.512	0.0141199
952.590	0.0140485
952.668	0.0140625
952.746	0.0141032
952.825	0.0141878
952.903	0.0142318
952.981	0.0141256
953.059	0.0139511
953.137	0.0141603
953.215	0.0142746
953.293	0.0141743
953.371	0.0141999
953.450	0.0140570
953.528	0.0141945
953.606	0.0141738
953.684	0.0141160
953.762	0.0141193
953.840	0.0139666
953.918	0.0141075
953.996	0.0140209
954.075	0.0140301
954.153	0.0140834
954.231	0.0140138
954.309	0.0141656
954.387	0.0142495
954.465	0.0141886
954.543	0.0141611
954.621	0.0142619
954.700	0.0140636
954.778	0.0142246
954.856	0.0141339
954.934	0.0142414
955.012	0.0142001
955.090	0.0142444
955.168	0.0141441
955.246	0.0141145
955.325	0.0141306
955.403	0.0139472
955.481	0.0140336
955.559	0.0141580
955.637	0.0139513
955.715	0.0140454
955.793	0.0139459
955.871	0.0139905
955.950	0.0139290
956.028	0.0140861
956.106	0.0140153
956.184	0.0139999
956.262	0.0140296
956.340	0.0141875
956.418	0.0139102
956.496	0.0140585
956.575	0.0139561
956.653	0.0140367
956.731	0.0139540
956.809	0.0141093
956.887	0.0140211
956.965	0.0138618
957.043	0.0138424
957.121	0.0138272
957.200	0.0139944
957.278	0.0139886
957.356	0.0138476
957.434	0.0139561
957.512	0.0140497
957.590	0.0140079
957.668	0.0140522
957.746	0.0139292
957.825	0.0139461
957.903	0.0140534
957.981	0.0140427
958.059	0.0140221
958.137	0.0140887
958.215	0.0141191
958.293	0.0141388
958.371	0.0139590
958.450	0.0139467
958.528	0.0139156
958.606	0.0140840
958.684	0.0141200
958.762	0.0141903
958.840	0.0140697
958.918	0.0141885
958.996	0.0142013
959.075	0.0140400
959.153	0.0141614
959.231	0.0141270
959.309	0.0141539
959.387	0.0142386
959.465	0.0141170
959.543	0.0141094
959.621	0.0141216
959.700	0.0139812
959.778	0.0140604
959.856	0.0140844
959.934	0.0139667
960.012	0.0138383
960.090	0.0140691
960.168	0.0140377
960.246	0.0139811
960.325	0.0140617
960.403	0.0139791
960.481	0.0139063
960.559	0.0140268
960.637	0.0140293
960.715	0.0142228
960.793	0.0140469
960.871	0.0141187
960.950	0.0139040
961.028	0.0141391
961.106	0.0142368
961.184	0.0141496
961.262	0.0141172
961.340	0.0141586
961.418	0.0140678
961.496	0.0142014
961.575	0.0141465
961.653	0.0140830
961.731	0.0141315
961.809	0.0141882
961.887	0.0140398
961.965	0.0140191
962.043	0.0139115
962.121	0.0140249
962.200	0.0140900
962.278	0.0139801
962.356	0.0140015
962.434	0.0139745
962.512	0.0140769
962.590	0.0139561
962.668	0.0140421
962.746	0.0139645
962.825	0.0140660
962.903	0.0140414
962.981	0.0140028
963.059	0.0139214
963.137	0.0140470
963.215	0.0140395
963.293	0.0140176
963.371	0.0140347
963.450	0.0141465
963.528	0.0142545
963.606	0.0140288
963.684	0.0141686
963.762	0.0140495
963.840	0.0140668
963.918	0.0140803
963.996	0.0139874
964.075	0.0141003
964.153	0.0142114
964.231	0.0142175
964.309	0.0142359
964.387	0.0140154
964.465	0.0140661
964.543	0.0140475
964.621	0.0141020
964.700	0.0141360
964.778	0.0141093
964.856	0.0139948
964.934	0.0139662
965.012	0.0140681
965.090	0.0140629
965.168	0.0140874
965.246	0.0141402
965.325	0.0140981
965.403	0.0140023
965.481	0.0140209
965.559	0.0140773
965.637	0.0141018
965.715	0.0141271
965.793	0.0140189
965.871	0.0140879
965.950	0.0140329
966.028	0.0140485
966.106	0.0139985
966.184	0.0141148
966.262	0.0141769
966.340	0.0139949
966.418	0.0141236
966.496	0.0139189
966.575	0.0139723
966.653	0.0138653
966.731	0.0141223
966.809	0.0138950
966.887	0.0139737
966.965	0.0139674
967.043	0.0138755
967.121	0.0140168
967.200	0.0139866
967.278	0.0139838
967.356	0.0139953
967.434	0.0141003
967.512	0.0140067
967.590	0.0140515
967.668	0.0141014
967.746	0.0140862
967.825	0.0140535
967.903	0.0141875
967.981	0.0139854
968.059	0.0140324
968.137	0.0140129
968.215	0.0141398
968.293	0.0140813
968.371	0.0140009
968.450	0.0140002
968.528	0.0141296
968.606	0.0141854
968.684	0.0139152
968.762	0.0138488
968.840	0.0140340
968.918	0.0141374
968.996	0.0139177
969.075	0.0139025
969.153	0.0140170
969.231	0.0140258
969.309	0.0141131
969.387	0.0141586
969.465	0.0141072
969.543	0.0141051
969.621	0.0141447
969.700	0.0140974
969.778	0.0140674
969.856	0.0140448
969.934	0.0139679
970.012	0.0140379
970.090	0.0140067
970.168	0.0141179
970.246	0.0140801
970.325	0.0139693
970.403	0.0139629
970.481	0.0140482
970.559	0.0140454
970.637	0.0141209
970.715	0.0140144
970.793	0.0141412
970.871	0.0140436
970.950	0.0140008
971.028	0.0141079
971.106	0.0141821
971.184	0.0141334
971.262	0.0140677
971.340	0.0140667
971.418	0.0141122
971.496	0.0142075
971.575	0.0141863
971.653	0.0140844
971.731	0.0141486
971.809	0.0140112
971.887	0.0141078
971.965	0.0139705
972.043	0.0140276
972.121	0.0141522
972.200	0.0140366
972.278	0.0139184
972.356	0.0139365
972.434	0.0139474
972.512	0.0141010
972.590	0.0140099
972.668	0.0140213
972.746	0.0140163
972.825	0.0139557
972.903	0.0139930
972.981	0.0138097
973.059	0.0139510
973.137	0.0141380
973.215	0.0142033
973.293	0.0141006
973.371	0.0140549
973.450	0.0141501
973.528	0.0141772
973.606	0.0141040
973.684	0.0141766
973.762	0.0141533
973.840	0.0142036
973.918	0.0142621
973.996	0.0141768
974.075	0.0139956
974.153	0.0139714
974.231	0.0142036
974.309	0.0140881
974.387	0.0140936
974.465	0.0140090
974.543	0.0140005
974.621	0.0140779
974.700	0.0139501
974.778	0.0139616
974.856	0.0140431
974.934	0.0140733
975.012	0.0138640
975.090	0.0138712
975.168	0.0140216
975.246	0.0141174
975.325	0.0139851
975.403	0.0140487
975.481	0.0141274
975.559	0.0140257
975.637	0.0139624
975.715	0.0142126
975.793	0.0141959
975.871	0.0142201
975.950	0.0140771
976.028	0.0140315
976.106	0.0140793
976.184	0.0140510
976.262	0.0140842
976.340	0.0140566
976.418	0.0141017
976.496	0.0140791
976.575	0.0140401
976.653	0.0139433
976.731	0.0139193
976.809	0.0140668
976.887	0.0138967
976.965	0.0139880
977.043	0.0140240
977.121	0.0139856
977.200	0.0138936
977.278	0.0138887
977.356	0.0139605
977.434	0.0138878
977.512	0.0139357
977.590	0.0140075
977.668	0.0139851
977.746	0.0139661
977.825	0.0140227
977.903	0.0140318
977.981	0.0141783
978.059	0.0141825
978.137	0.0142702
978.215	0.0140508
978.293	0.0139241
978.371	0.0139498
978.450	0.0140897
978.528	0.0142629
978.606	0.0141383
978.684	0.0140284
978.762	0.0141159
978.840	0.0139680
978.918	0.0139766
978.996	0.0141377
979.075	0.0139832
979.153	0.0139738
979.231	0.0139164
979.309	0.0138599
979.387	0.0138409
979.465	0.0140247
979.543	0.0139117
979.621	0.0140542
979.700	0.0140876
979.778	0.0139719
979.856	0.0139169
979.934	0.0138055
980.012	0.0140515
980.090	0.0142197
980.168	0.0139809
980.246	0.0140139
980.325	0.0139692
980.403	0.0140144
980.481	0.0140005
980.559	0.0140108
980.637	0.0141157
980.715	0.0141609
980.793	0.0139862
980.871	0.0140981
980.950	0.0141216
981.028	0.0140410
981.106	0.0139799
981.184	0.0139526
981.262	0.0140765
981.340	0.0139880
981.418	0.0138786
981.496	0.0139381
981.575	0.0139584
981.653	0.0139265
981.731	0.0139323
981.809	0.0138711
981.887	0.0140294
981.965	0.0140310
982.043	0.0138760
982.121	0.0140368
982.200	0.0141720
982.278	0.0140366
982.356	0.0139935
982.434	0.0141235
982.512	0.0140769
982.590	0.0140678
982.668	0.0140339
982.746	0.0140270
982.825	0.0140423
982.903	0.0140553
982.981	0.0139521
983.059	0.0142008
983.137	0.0141235
983.215	0.0141030
983.293	0.0140246
983.371	0.0139907
983.450	0.0139210
983.528	0.0140343
983.606	0.0139890
983.684	0.0139680
983.762	0.0138906
983.840	0.0139907
983.918	0.0140736
983.996	0.0139716
984.075	0.0139223
984.153	0.0140683
984.231	0.0140155
984.309	0.0139146
984.387	0.0140598
984.465	0.0142237
984.543	0.0139546
984.621	0.0138758
984.700	0.0141602
984.778	0.0140687
984.856	0.0140573
984.934	0.0140282
985.012	0.0140533
985.090	0.0140427
985.168	0.0139896
985.246	0.0139473
985.325	0.0139988
985.403	0.0139703
985.481	0.0139333
985.559	0.0140421
985.637	0.0139386
985.715	0.0139559
985.793	0.0139610
985.871	0.0141096
985.950	0.0141341
986.028	0.0139343
986.106	0.0138625
986.184	0.0139786
986.262	0.0141749
986.340	0.0140240
986.418	0.0138919
986.496	0.0140345
986.575	0.0139568
986.653	0.0140984
986.731	0.0139577
986.809	0.0140117
986.887	0.0140981
986.965	0.0139562
987.043	0.0139955
987.121	0.0139678
987.200	0.0139205
987.278	0.0139684
987.356	0.0140828
987.434	0.0139458
987.512	0.0139552
987.590	0.0139930
987.668	0.0140260
987.746	0.0138709
987.825	0.0139696
987.903	0.0140851
987.981	0.0140038
988.059	0.0139143
988.137	0.0139758
988.215	0.0141642
988.293	0.0141219
988.371	0.0140424
988.450	0.0139732
988.528	0.0140487
988.606	0.0141011
988.684	0.0140121
988.762	0.0140671
988.840	0.0140604
988.918	0.0140009
988.996	0.0141018
989.075	0.0141524
989.153	0.0139883
989.231	0.0140440
989.309	0.0139921
989.387	0.0138504
989.465	0.0138850
989.543	0.0140292
989.621	0.0140534
989.700	0.0139515
989.778	0.0141565
989.856	0.0139878
989.934	0.0138620
990.012	0.0140526
990.090	0.0140465
990.168	0.0139973
990.246	0.0138732
990.325	0.0140298
990.403	0.0141174
990.481	0.0140141
990.559	0.0139510
990.637	0.0141553
990.715	0.0141129
990.793	0.0140498
990.871	0.0140957
990.950	0.0139339
991.028	0.0140584
991.106	0.0141114
991.184	0.0140642
991.262	0.0139593
991.340	0.0140550
991.418	0.0141303
991.496	0.0140552
991.575	0.0140212
991.653	0.0140966
991.731	0.0140243
991.809	0.0140977
991.887	0.0140775
991.965	0.0140700
992.043	0.0139079
992.121	0.0140073
992.200	0.0140210
992.278	0.0139528
992.356	0.0140549
992.434	0.0141591
992.512	0.0140414
992.590	0.0140302
992.668	0.0140289
992.746	0.0141607
992.825	0.0140275
992.903	0.0140472
992.981	0.0140232
993.059	0.0140641
993.137	0.0140068
993.215	0.0140623
993.293	0.0139952
993.371	0.0138819
993.450	0.0139646
993.528	0.0139291
993.606	0.0140132
993.684	0.0138853
993.762	0.0139938
993.840	0.0140421
993.918	0.0138942
993.996	0.0140473
994.075	0.0139414
994.153	0.0140205
994.231	0.0140375
994.309	0.0140293
994.387	0.0140710
994.465	0.0141482
994.543	0.0139970
994.621	0.0140313
994.700	0.0139890
994.778	0.0140688
994.856	0.0140420
994.934	0.0140708
995.012	0.0139743
995.090	0.0139916
995.168	0.0139774
995.246	0.0140058
995.325	0.0139362
995.403	0.0139350
995.481	0.0139574
995.559	0.0140619
995.637	0.0140100
995.715	0.0138663
995.793	0.0139747
995.871	0.0140547
995.950	0.0140398
996.028	0.0139700
996.106	0.0139830
996.184	0.0140524
996.262	0.0140316
996.340	0.0141229
996.418	0.0139599
996.496	0.0138181
996.575	0.0139450
996.653	0.0140733
996.731	0.0140009
996.809	0.0139014
996.887	0.0140891
996.965	0.0140163
997.043	0.0140543
997.121	0.0140384
997.200	0.0140495
997.278	0.0140099
997.356	0.0138927
997.434	0.0141344
997.512	0.0141906
997.590	0.0139925
997.668	0.0140688
997.746	0.0140334
997.825	0.0139644
997.903	0.0139801
997.981	0.0139584
998.059	0.0139812
998.137	0.0139454
998.215	0.0139297
998.293	0.0141000
998.371	0.0139890
998.450	0.0139138
998.528	0.0140430
998.606	0.0139629
998.684	0.0140478
998.762	0.0139554
998.840	0.0139637
998.918	0.0140130
