05/04/2022	21:10:02	Ver.	4.1	UNKNOWN
Optical Delay	678.996401	Delta X		0.078125	Sweeps	1	Scan Rate	0/0
Coordinates	Axis 1	NaN	Axis 2	NaN	Axis 3	NaN	Axis 4	NaN	Axis 5	NaN	Axis 6	0.000000
TX Power	0.000000	RX Power	0.000000

678.996	0.0139748
679.075	0.0138568
679.153	0.0141096
679.231	0.0138630
679.309	0.0139892
679.387	0.0140296
679.465	0.0140232
679.543	0.0139999
679.621	0.0139162
679.700	0.0138831
679.778	0.0139506
679.856	0.0139923
679.934	0.0140059
680.012	0.0139484
680.090	0.0139124
680.168	0.0140994
680.246	0.0140268
680.325	0.0139266
680.403	0.0138648
680.481	0.0139612
680.559	0.0139159
680.637	0.0139929
680.715	0.0139797
680.793	0.0139659
680.871	0.0140054
680.950	0.0140124
681.028	0.0140102
681.106	0.0140034
681.184	0.0139790
681.262	0.0140640
681.340	0.0140587
681.418	0.0139712
681.496	0.0139501
681.575	0.0140041
681.653	0.0139528
681.731	0.0140649
681.809	0.0139793
681.887	0.0140434
681.965	0.0140073
682.043	0.0139577
682.121	0.0140633
682.200	0.0140537
682.278	0.0139687
682.356	0.0139153
682.434	0.0139719
682.512	0.0140398
682.590	0.0139510
682.668	0.0140080
682.746	0.0139165
682.825	0.0139790
682.903	0.0140312
682.981	0.0139947
683.059	0.0138768
683.137	0.0140208
683.215	0.0139885
683.293	0.0140922
683.371	0.0140066
683.450	0.0139664
683.528	0.0139236
683.606	0.0140179
683.684	0.0139934
683.762	0.0139973
683.840	0.0141659
683.918	0.0139240
683.996	0.0140689
684.075	0.0141281
684.153	0.0140289
684.231	0.0140604
684.309	0.0139925
684.387	0.0138812
684.465	0.0140044
684.543	0.0138718
684.621	0.0140826
684.700	0.0137753
684.778	0.0138634
684.856	0.0139925
684.934	0.0139094
685.012	0.0138274
685.090	0.0138840
685.168	0.0139069
685.246	0.0138574
685.325	0.0139281
685.403	0.0138635
685.481	0.0140752
685.559	0.0137812
685.637	0.0136653
685.715	0.0138197
685.793	0.0139318
685.871	0.0138447
685.950	0.0138398
686.028	0.0139355
686.106	0.0138818
686.184	0.0138846
686.262	0.0139332
686.340	0.0138485
686.418	0.0138631
686.496	0.0139323
686.575	0.0139676
686.653	0.0140463
686.731	0.0141201
686.809	0.0140914
686.887	0.0140549
686.965	0.0140265
687.043	0.0140048
687.121	0.0140444
687.200	0.0142035
687.278	0.0141045
687.356	0.0141294
687.434	0.0141238
687.512	0.0140021
687.590	0.0140520
687.668	0.0140294
687.746	0.0140143
687.825	0.0140537
687.903	0.0139939
687.981	0.0140110
688.059	0.0140675
688.137	0.0139998
688.215	0.0140312
688.293	0.0139036
688.371	0.0139806
688.450	0.0138438
688.528	0.0139237
688.606	0.0139363
688.684	0.0139566
688.762	0.0139354
688.840	0.0138982
688.918	0.0138572
688.996	0.0139027
689.075	0.0139612
689.153	0.0139754
689.231	0.0138166
689.309	0.0140082
689.387	0.0140283
689.465	0.0140980
689.543	0.0140876
689.621	0.0140466
689.700	0.0140675
689.778	0.0141824
689.856	0.0140371
689.934	0.0142297
690.012	0.0141987
690.090	0.0140925
690.168	0.0140109
690.246	0.0140218
690.325	0.0139902
690.403	0.0141022
690.481	0.0139182
690.559	0.0138900
690.637	0.0137920
690.715	0.0137364
690.793	0.0138099
690.871	0.0138030
690.950	0.0138674
691.028	0.0138690
691.106	0.0137621
691.184	0.0137155
691.262	0.0137779
691.340	0.0138232
691.418	0.0138845
691.496	0.0137970
691.575	0.0139520
691.653	0.0138871
691.731	0.0139678
691.809	0.0139712
691.887	0.0138872
691.965	0.0140629
692.043	0.0140701
692.121	0.0139760
692.200	0.0140211
692.278	0.0141534
692.356	0.0140578
692.434	0.0140465
692.512	0.0140082
692.590	0.0139601
692.668	0.0141238
692.746	0.0139536
692.825	0.0141938
692.903	0.0141595
692.981	0.0140216
693.059	0.0139490
693.137	0.0140034
693.215	0.0140197
693.293	0.0141000
693.371	0.0140383
693.450	0.0138139
693.528	0.0138280
693.606	0.0139730
693.684	0.0140788
693.762	0.0139147
693.840	0.0139815
693.918	0.0140107
693.996	0.0140326
694.075	0.0139787
694.153	0.0139819
694.231	0.0139731
694.309	0.0139373
694.387	0.0138205
694.465	0.0139758
694.543	0.0140157
694.621	0.0139246
694.700	0.0138785
694.778	0.0139632
694.856	0.0140413
694.934	0.0139761
695.012	0.0139967
695.090	0.0140144
695.168	0.0140189
695.246	0.0140281
695.325	0.0142283
695.403	0.0141328
695.481	0.0141573
695.559	0.0141319
695.637	0.0140633
695.715	0.0141621
695.793	0.0140524
695.871	0.0139985
695.950	0.0140108
696.028	0.0139375
696.106	0.0139590
696.184	0.0137386
696.262	0.0138793
696.340	0.0137900
696.418	0.0138446
696.496	0.0138141
696.575	0.0138786
696.653	0.0138364
696.731	0.0137611
696.809	0.0136687
696.887	0.0139500
696.965	0.0139845
697.043	0.0139404
697.121	0.0139316
697.200	0.0140194
697.278	0.0139570
697.356	0.0139741
697.434	0.0140061
697.512	0.0140007
697.590	0.0141480
697.668	0.0139220
697.746	0.0139860
697.825	0.0140960
697.903	0.0139991
697.981	0.0140613
698.059	0.0139603
698.137	0.0140748
698.215	0.0139279
698.293	0.0139831
698.371	0.0139474
698.450	0.0140740
698.528	0.0140172
698.606	0.0139373
698.684	0.0138066
698.762	0.0139178
698.840	0.0139730
698.918	0.0139145
698.996	0.0138982
699.075	0.0137762
699.153	0.0138593
699.231	0.0140797
699.309	0.0138615
699.387	0.0139578
699.465	0.0139056
699.543	0.0138953
699.621	0.0138489
699.700	0.0139597
699.778	0.0139344
699.856	0.0139502
699.934	0.0139605
700.012	0.0139103
700.090	0.0138275
700.168	0.0139274
700.246	0.0139177
700.325	0.0139864
700.403	0.0139368
700.481	0.0139082
700.559	0.0139461
700.637	0.0138972
700.715	0.0139645
700.793	0.0141318
700.871	0.0140687
700.950	0.0141615
701.028	0.0141111
701.106	0.0141106
701.184	0.0141830
701.262	0.0143137
701.340	0.0141080
701.418	0.0139332
701.496	0.0139304
701.575	0.0139047
701.653	0.0138612
701.731	0.0139843
701.809	0.0140833
701.887	0.0139546
701.965	0.0141763
702.043	0.0142147
702.121	0.0141723
702.200	0.0140260
702.278	0.0139547
702.356	0.0138321
702.434	0.0139137
702.512	0.0136625
702.590	0.0137074
702.668	0.0138747
702.746	0.0139484
702.825	0.0138200
702.903	0.0139075
702.981	0.0141068
703.059	0.0141350
703.137	0.0140144
703.215	0.0141605
703.293	0.0140835
703.371	0.0140060
703.450	0.0139360
703.528	0.0138998
703.606	0.0138950
703.684	0.0138140
703.762	0.0137361
703.840	0.0136548
703.918	0.0137111
703.996	0.0138160
704.075	0.0138767
704.153	0.0140574
704.231	0.0139756
704.309	0.0141547
704.387	0.0141161
704.465	0.0140890
704.543	0.0141217
704.621	0.0140170
704.700	0.0139762
704.778	0.0138441
704.856	0.0140111
704.934	0.0141116
705.012	0.0140016
705.090	0.0140427
705.168	0.0140179
705.246	0.0141369
705.325	0.0140628
705.403	0.0140661
705.481	0.0140240
705.559	0.0139784
705.637	0.0139238
705.715	0.0139182
705.793	0.0140539
705.871	0.0140671
705.950	0.0140368
706.028	0.0139684
706.106	0.0141775
706.184	0.0141782
706.262	0.0140800
706.340	0.0140247
706.418	0.0138026
706.496	0.0136103
706.575	0.0135247
706.653	0.0131502
706.731	0.0131075
706.809	0.0132109
706.887	0.0131281
706.965	0.0132108
707.043	0.0134166
707.121	0.0137100
707.200	0.0139729
707.278	0.0143173
707.356	0.0145538
707.434	0.0147220
707.512	0.0147253
707.590	0.0149096
707.668	0.0149319
707.746	0.0145022
707.825	0.0143443
707.903	0.0142046
707.981	0.0140424
708.059	0.0139060
708.137	0.0138989
708.215	0.0139557
708.293	0.0139656
708.371	0.0139626
708.450	0.0140042
708.528	0.0140424
708.606	0.0142400
708.684	0.0140977
708.762	0.0142159
708.840	0.0143166
708.918	0.0144555
708.996	0.0146345
709.075	0.0145366
709.153	0.0144097
709.231	0.0141572
709.309	0.0139164
709.387	0.0134132
709.465	0.0132996
709.543	0.0130841
709.621	0.0129176
709.700	0.0126244
709.778	0.0126694
709.856	0.0126208
709.934	0.0127817
710.012	0.0130374
710.090	0.0133974
710.168	0.0138157
710.246	0.0142215
710.325	0.0146173
710.403	0.0149220
710.481	0.0153062
710.559	0.0154002
710.637	0.0154504
710.715	0.0152938
710.793	0.0152586
710.871	0.0147339
710.950	0.0144730
711.028	0.0140913
711.106	0.0137473
711.184	0.0134675
711.262	0.0133085
711.340	0.0134161
711.418	0.0135050
711.496	0.0137735
711.575	0.0139925
711.653	0.0142574
711.731	0.0143628
711.809	0.0145605
711.887	0.0147757
711.965	0.0150172
712.043	0.0149165
712.121	0.0147411
712.200	0.0144980
712.278	0.0141683
712.356	0.0137118
712.434	0.0133675
712.512	0.0130102
712.590	0.0125300
712.668	0.0123637
712.746	0.0122451
712.825	0.0124059
712.903	0.0125551
712.981	0.0127463
713.059	0.0130734
713.137	0.0135600
713.215	0.0139690
713.293	0.0141091
713.371	0.0145638
713.450	0.0149652
713.528	0.0152209
713.606	0.0151780
713.684	0.0152641
713.762	0.0151107
713.840	0.0149219
713.918	0.0145332
713.996	0.0143208
714.075	0.0139572
714.153	0.0135383
714.231	0.0133370
714.309	0.0131868
714.387	0.0131664
714.465	0.0130994
714.543	0.0132619
714.621	0.0134972
714.700	0.0138496
714.778	0.0141524
714.856	0.0144032
714.934	0.0144514
715.012	0.0149364
715.090	0.0150612
715.168	0.0150278
715.246	0.0149403
715.325	0.0147938
715.403	0.0144787
715.481	0.0142555
715.559	0.0138420
715.637	0.0134103
715.715	0.0129051
715.793	0.0127928
715.871	0.0126340
715.950	0.0125739
716.028	0.0125540
716.106	0.0127058
716.184	0.0125558
716.262	0.0129542
716.340	0.0131443
716.418	0.0136400
716.496	0.0138224
716.575	0.0142857
716.653	0.0147006
716.731	0.0148634
716.809	0.0149294
716.887	0.0148874
716.965	0.0149111
717.043	0.0147835
717.121	0.0145573
717.200	0.0143105
717.278	0.0140562
717.356	0.0138312
717.434	0.0136861
717.512	0.0136289
717.590	0.0136973
717.668	0.0136953
717.746	0.0136607
717.825	0.0138811
717.903	0.0139515
717.981	0.0141406
718.059	0.0143016
718.137	0.0143924
718.215	0.0144751
718.293	0.0145390
718.371	0.0146481
718.450	0.0146635
718.528	0.0146871
718.606	0.0145480
718.684	0.0144033
718.762	0.0142789
718.840	0.0139551
718.918	0.0137041
718.996	0.0134088
719.075	0.0132368
719.153	0.0130840
719.231	0.0131149
719.309	0.0130441
719.387	0.0129596
719.465	0.0131691
719.543	0.0133331
719.621	0.0132425
719.700	0.0135883
719.778	0.0138070
719.856	0.0139171
719.934	0.0141091
720.012	0.0143404
720.090	0.0143260
720.168	0.0144768
720.246	0.0144102
720.325	0.0142818
720.403	0.0141924
720.481	0.0140764
720.559	0.0138485
720.637	0.0137002
720.715	0.0138258
720.793	0.0136127
720.871	0.0136470
720.950	0.0136046
721.028	0.0136212
721.106	0.0137040
721.184	0.0137093
721.262	0.0139460
721.340	0.0141274
721.418	0.0142668
721.496	0.0143773
721.575	0.0145840
721.653	0.0146549
721.731	0.0146484
721.809	0.0146766
721.887	0.0144238
721.965	0.0147107
722.043	0.0145074
722.121	0.0144454
722.200	0.0143329
722.278	0.0142078
722.356	0.0139867
722.434	0.0137245
722.512	0.0137518
722.590	0.0135785
722.668	0.0134525
722.746	0.0134628
722.825	0.0134316
722.903	0.0133741
722.981	0.0135984
723.059	0.0135987
723.137	0.0138387
723.215	0.0139741
723.293	0.0139774
723.371	0.0141182
723.450	0.0140628
723.528	0.0140098
723.606	0.0140082
723.684	0.0139989
723.762	0.0138754
723.840	0.0136752
723.918	0.0136881
723.996	0.0135748
724.075	0.0135581
724.153	0.0135165
724.231	0.0135760
724.309	0.0136589
724.387	0.0136225
724.465	0.0138533
724.543	0.0139481
724.621	0.0139545
724.700	0.0143180
724.778	0.0143836
724.856	0.0145530
724.934	0.0146268
725.012	0.0146988
725.090	0.0147124
725.168	0.0148313
725.246	0.0146891
725.325	0.0147481
725.403	0.0145951
725.481	0.0145176
725.559	0.0143256
725.637	0.0142039
725.715	0.0141212
725.793	0.0140354
725.871	0.0138445
725.950	0.0138449
726.028	0.0138197
726.106	0.0137852
726.184	0.0136770
726.262	0.0138207
726.340	0.0139050
726.418	0.0136381
726.496	0.0137478
726.575	0.0137516
726.653	0.0138170
726.731	0.0138752
726.809	0.0136420
726.887	0.0136607
726.965	0.0138529
727.043	0.0135963
727.121	0.0134708
727.200	0.0135944
727.278	0.0135334
727.356	0.0135139
727.434	0.0135931
727.512	0.0135745
727.590	0.0136496
727.668	0.0135439
727.746	0.0137317
727.825	0.0139704
727.903	0.0138847
727.981	0.0140201
728.059	0.0141632
728.137	0.0142517
728.215	0.0142553
728.293	0.0142906
728.371	0.0143329
728.450	0.0142741
728.528	0.0142159
728.606	0.0142035
728.684	0.0143037
728.762	0.0142716
728.840	0.0140668
728.918	0.0141803
728.996	0.0141577
729.075	0.0141568
729.153	0.0140787
729.231	0.0141876
729.309	0.0142493
729.387	0.0142950
729.465	0.0143171
729.543	0.0141579
729.621	0.0141164
729.700	0.0141844
729.778	0.0140279
729.856	0.0140180
729.934	0.0139831
730.012	0.0138708
730.090	0.0138954
730.168	0.0137870
730.246	0.0137347
730.325	0.0136418
730.403	0.0135393
730.481	0.0136196
730.559	0.0137364
730.637	0.0136300
730.715	0.0137115
730.793	0.0137821
730.871	0.0137825
730.950	0.0139038
731.028	0.0138749
731.106	0.0138524
731.184	0.0138601
731.262	0.0138467
731.340	0.0138224
731.418	0.0138622
731.496	0.0138486
731.575	0.0139126
731.653	0.0140975
731.731	0.0139922
731.809	0.0141841
731.887	0.0141472
731.965	0.0141148
732.043	0.0140805
732.121	0.0142457
732.200	0.0143778
732.278	0.0141545
732.356	0.0140490
732.434	0.0141437
732.512	0.0138857
732.590	0.0137824
732.668	0.0138927
732.746	0.0138548
732.825	0.0137454
732.903	0.0137379
732.981	0.0137196
733.059	0.0136073
733.137	0.0137772
733.215	0.0136227
733.293	0.0137801
733.371	0.0138847
733.450	0.0139970
733.528	0.0140201
733.606	0.0142141
733.684	0.0141404
733.762	0.0142597
733.840	0.0141949
733.918	0.0141904
733.996	0.0143046
734.075	0.0141799
734.153	0.0141732
734.231	0.0139585
734.309	0.0139423
734.387	0.0139461
734.465	0.0138123
734.543	0.0138116
734.621	0.0138609
734.700	0.0138699
734.778	0.0137709
734.856	0.0139230
734.934	0.0139980
735.012	0.0141043
735.090	0.0141058
735.168	0.0139590
735.246	0.0140388
735.325	0.0140867
735.403	0.0140941
735.481	0.0141116
735.559	0.0139546
735.637	0.0137596
735.715	0.0138075
735.793	0.0139082
735.871	0.0138825
735.950	0.0135912
736.028	0.0136250
736.106	0.0136211
736.184	0.0137067
736.262	0.0137566
736.340	0.0137369
736.418	0.0138068
736.496	0.0138802
736.575	0.0138682
736.653	0.0137628
736.731	0.0138717
736.809	0.0139185
736.887	0.0139613
736.965	0.0141804
737.043	0.0139497
737.121	0.0140696
737.200	0.0140387
737.278	0.0139529
737.356	0.0140653
737.434	0.0140237
737.512	0.0139176
737.590	0.0140287
737.668	0.0140761
737.746	0.0142285
737.825	0.0141895
737.903	0.0140829
737.981	0.0142126
738.059	0.0140337
738.137	0.0142149
738.215	0.0142085
738.293	0.0141209
738.371	0.0139890
738.450	0.0140972
738.528	0.0138588
738.606	0.0139011
738.684	0.0138285
738.762	0.0139633
738.840	0.0140052
738.918	0.0137888
738.996	0.0138454
739.075	0.0138425
739.153	0.0138393
739.231	0.0136581
739.309	0.0137434
739.387	0.0138737
739.465	0.0138115
739.543	0.0137069
739.621	0.0138233
739.700	0.0138213
739.778	0.0137598
739.856	0.0138023
739.934	0.0136789
740.012	0.0136404
740.090	0.0135873
740.168	0.0136380
740.246	0.0135686
740.325	0.0137295
740.403	0.0137650
740.481	0.0136761
740.559	0.0139030
740.637	0.0140001
740.715	0.0139927
740.793	0.0140263
740.871	0.0141533
740.950	0.0141206
741.028	0.0141375
741.106	0.0142258
741.184	0.0143911
741.262	0.0142363
741.340	0.0143021
741.418	0.0141783
741.496	0.0142172
741.575	0.0143316
741.653	0.0142436
741.731	0.0141466
741.809	0.0140499
741.887	0.0141090
741.965	0.0140765
742.043	0.0140363
742.121	0.0141062
742.200	0.0140231
742.278	0.0139561
742.356	0.0138774
742.434	0.0138992
742.512	0.0139750
742.590	0.0139240
742.668	0.0137865
742.746	0.0138629
742.825	0.0139815
742.903	0.0139960
742.981	0.0139082
743.059	0.0138286
743.137	0.0139236
743.215	0.0137513
743.293	0.0137343
743.371	0.0136600
743.450	0.0135442
743.528	0.0135746
743.606	0.0136165
743.684	0.0135640
743.762	0.0137166
743.840	0.0137741
743.918	0.0136922
743.996	0.0137696
744.075	0.0140381
744.153	0.0140143
744.231	0.0139543
744.309	0.0142430
744.387	0.0142089
744.465	0.0142007
744.543	0.0142857
744.621	0.0142786
744.700	0.0142671
744.778	0.0141549
744.856	0.0142727
744.934	0.0143829
745.012	0.0142076
745.090	0.0142764
745.168	0.0142233
745.246	0.0141685
745.325	0.0142123
745.403	0.0141936
745.481	0.0141339
745.559	0.0140157
745.637	0.0139576
745.715	0.0139678
745.793	0.0139440
745.871	0.0139658
745.950	0.0139880
746.028	0.0139588
746.106	0.0139650
746.184	0.0137775
746.262	0.0138124
746.340	0.0138161
746.418	0.0138103
746.496	0.0136743
746.575	0.0139362
746.653	0.0138274
746.731	0.0137296
746.809	0.0137935
746.887	0.0139603
746.965	0.0139022
747.043	0.0139586
747.121	0.0140741
747.200	0.0141815
747.278	0.0141170
747.356	0.0142206
747.434	0.0141421
747.512	0.0141069
747.590	0.0142213
747.668	0.0140539
747.746	0.0140727
747.825	0.0139162
747.903	0.0138761
747.981	0.0139742
748.059	0.0139222
748.137	0.0139668
748.215	0.0138902
748.293	0.0140281
748.371	0.0140630
748.450	0.0141320
748.528	0.0141698
748.606	0.0141265
748.684	0.0140198
748.762	0.0141200
748.840	0.0142155
748.918	0.0140173
748.996	0.0141419
749.075	0.0140748
749.153	0.0139979
749.231	0.0140635
749.309	0.0139624
749.387	0.0137840
749.465	0.0139204
749.543	0.0139362
749.621	0.0140099
749.700	0.0138675
749.778	0.0137535
749.856	0.0137424
749.934	0.0137194
750.012	0.0136974
750.090	0.0138175
750.168	0.0138368
750.246	0.0138358
750.325	0.0138354
750.403	0.0138914
750.481	0.0139563
750.559	0.0139336
750.637	0.0141255
750.715	0.0141310
750.793	0.0140405
750.871	0.0139967
750.950	0.0140822
751.028	0.0142030
751.106	0.0141168
751.184	0.0140041
751.262	0.0140343
751.340	0.0141084
751.418	0.0142385
751.496	0.0141520
751.575	0.0143214
751.653	0.0142500
751.731	0.0140750
751.809	0.0142390
751.887	0.0141722
751.965	0.0141048
752.043	0.0140970
752.121	0.0140810
752.200	0.0139922
752.278	0.0141125
752.356	0.0139406
752.434	0.0138921
752.512	0.0139539
752.590	0.0138918
752.668	0.0136913
752.746	0.0136824
752.825	0.0136745
752.903	0.0136732
752.981	0.0138215
753.059	0.0137312
753.137	0.0138342
753.215	0.0136853
753.293	0.0136803
753.371	0.0138133
753.450	0.0138804
753.528	0.0138874
753.606	0.0138570
753.684	0.0137639
753.762	0.0137741
753.840	0.0138083
753.918	0.0139853
753.996	0.0137508
754.075	0.0139543
754.153	0.0139621
754.231	0.0141518
754.309	0.0140271
754.387	0.0139024
754.465	0.0139558
754.543	0.0141483
754.621	0.0140829
754.700	0.0140874
754.778	0.0142741
754.856	0.0141699
754.934	0.0142138
755.012	0.0143090
755.090	0.0141899
755.168	0.0143431
755.246	0.0142411
755.325	0.0141231
755.403	0.0141887
755.481	0.0141031
755.559	0.0140629
755.637	0.0140494
755.715	0.0139502
755.793	0.0139610
755.871	0.0138942
755.950	0.0139296
756.028	0.0138139
756.106	0.0139064
756.184	0.0138945
756.262	0.0138647
756.340	0.0138605
756.418	0.0138195
756.496	0.0137453
756.575	0.0137224
756.653	0.0138842
756.731	0.0138663
756.809	0.0137769
756.887	0.0137888
756.965	0.0138214
757.043	0.0138316
757.121	0.0138830
757.200	0.0139422
757.278	0.0139050
757.356	0.0138150
757.434	0.0138966
757.512	0.0139787
757.590	0.0138071
757.668	0.0138393
757.746	0.0137921
757.825	0.0138387
757.903	0.0139564
757.981	0.0139243
758.059	0.0140811
758.137	0.0140559
758.215	0.0139788
758.293	0.0140838
758.371	0.0140116
758.450	0.0140570
758.528	0.0141570
758.606	0.0142482
758.684	0.0142941
758.762	0.0141679
758.840	0.0141944
758.918	0.0142541
758.996	0.0141239
759.075	0.0141325
759.153	0.0139774
759.231	0.0141051
759.309	0.0141005
759.387	0.0142491
759.465	0.0142610
759.543	0.0140245
759.621	0.0140203
759.700	0.0140617
759.778	0.0140361
759.856	0.0140505
759.934	0.0139002
760.012	0.0138184
760.090	0.0140656
760.168	0.0139074
760.246	0.0139127
760.325	0.0138942
760.403	0.0138008
760.481	0.0136746
760.559	0.0138438
760.637	0.0137525
760.715	0.0137440
760.793	0.0137590
760.871	0.0137856
760.950	0.0139573
761.028	0.0138284
761.106	0.0138241
761.184	0.0138627
761.262	0.0139496
761.340	0.0140244
761.418	0.0140051
761.496	0.0139957
761.575	0.0139951
761.653	0.0140956
761.731	0.0141148
761.809	0.0140168
761.887	0.0139877
761.965	0.0140755
762.043	0.0138918
762.121	0.0139983
762.200	0.0141308
762.278	0.0141720
762.356	0.0139765
762.434	0.0140417
762.512	0.0140710
762.590	0.0140674
762.668	0.0140946
762.746	0.0140752
762.825	0.0140305
762.903	0.0140131
762.981	0.0141532
763.059	0.0141411
763.137	0.0140073
763.215	0.0140643
763.293	0.0140726
763.371	0.0141198
763.450	0.0139958
763.528	0.0138485
763.606	0.0139495
763.684	0.0137521
763.762	0.0139236
763.840	0.0139274
763.918	0.0138142
763.996	0.0138132
764.075	0.0139745
764.153	0.0138645
764.231	0.0137508
764.309	0.0138692
764.387	0.0139104
764.465	0.0138300
764.543	0.0138741
764.621	0.0138773
764.700	0.0138712
764.778	0.0139758
764.856	0.0139662
764.934	0.0140561
765.012	0.0137412
765.090	0.0139552
765.168	0.0138830
765.246	0.0139677
765.325	0.0139673
765.403	0.0140338
765.481	0.0139712
765.559	0.0140848
765.637	0.0139870
765.715	0.0139433
765.793	0.0140868
765.871	0.0141136
765.950	0.0140708
766.028	0.0141843
766.106	0.0141767
766.184	0.0141586
766.262	0.0141125
766.340	0.0141262
766.418	0.0140535
766.496	0.0140362
766.575	0.0140924
766.653	0.0140578
766.731	0.0139507
766.809	0.0140224
766.887	0.0140337
766.965	0.0137678
767.043	0.0139378
767.121	0.0139309
767.200	0.0139431
767.278	0.0139301
767.356	0.0140024
767.434	0.0138389
767.512	0.0139430
767.590	0.0139914
767.668	0.0139594
767.746	0.0139449
767.825	0.0138140
767.903	0.0137476
767.981	0.0140065
768.059	0.0139233
768.137	0.0138062
768.215	0.0138308
768.293	0.0137704
768.371	0.0138331
768.450	0.0137376
768.528	0.0138260
768.606	0.0138036
768.684	0.0139068
768.762	0.0138682
768.840	0.0139582
768.918	0.0140377
768.996	0.0140379
769.075	0.0137884
769.153	0.0138821
769.231	0.0140723
769.309	0.0139697
769.387	0.0140262
769.465	0.0139409
769.543	0.0140215
769.621	0.0140905
769.700	0.0140505
769.778	0.0139925
769.856	0.0139068
769.934	0.0138502
770.012	0.0139642
770.090	0.0140098
770.168	0.0139641
770.246	0.0140378
770.325	0.0141704
770.403	0.0140541
770.481	0.0139014
770.559	0.0139828
770.637	0.0141185
770.715	0.0141593
770.793	0.0140125
770.871	0.0139230
770.950	0.0141124
771.028	0.0141089
771.106	0.0140801
771.184	0.0140634
771.262	0.0138490
771.340	0.0138001
771.418	0.0139752
771.496	0.0139042
771.575	0.0138863
771.653	0.0140305
771.731	0.0139505
771.809	0.0138983
771.887	0.0139672
771.965	0.0137505
772.043	0.0137898
772.121	0.0138633
772.200	0.0138241
772.278	0.0140855
772.356	0.0138962
772.434	0.0138666
772.512	0.0140224
772.590	0.0139292
772.668	0.0139063
772.746	0.0139477
772.825	0.0140346
772.903	0.0139381
772.981	0.0139983
773.059	0.0140701
773.137	0.0140200
773.215	0.0138353
773.293	0.0139430
773.371	0.0139452
773.450	0.0137917
773.528	0.0137837
773.606	0.0139926
773.684	0.0140038
773.762	0.0139651
773.840	0.0139039
773.918	0.0140948
773.996	0.0140437
774.075	0.0138450
774.153	0.0138055
774.231	0.0140455
774.309	0.0139555
774.387	0.0140925
774.465	0.0140148
774.543	0.0140748
774.621	0.0141601
774.700	0.0141329
774.778	0.0141117
774.856	0.0139837
774.934	0.0141280
775.012	0.0140106
775.090	0.0139179
775.168	0.0140117
775.246	0.0141656
775.325	0.0140733
775.403	0.0140509
775.481	0.0141096
775.559	0.0139692
775.637	0.0138000
775.715	0.0138779
775.793	0.0140630
775.871	0.0140306
775.950	0.0140789
776.028	0.0138992
776.106	0.0139057
776.184	0.0139262
776.262	0.0139033
776.340	0.0138654
776.418	0.0139709
776.496	0.0140128
776.575	0.0141011
776.653	0.0139684
776.731	0.0139666
776.809	0.0139595
776.887	0.0139591
776.965	0.0138270
777.043	0.0139799
777.121	0.0139627
777.200	0.0139901
777.278	0.0138837
777.356	0.0140372
777.434	0.0139954
777.512	0.0139201
777.590	0.0138384
777.668	0.0139946
777.746	0.0140085
777.825	0.0138061
777.903	0.0138171
777.981	0.0138728
778.059	0.0139482
778.137	0.0138896
778.215	0.0139363
778.293	0.0139272
778.371	0.0140423
778.450	0.0139323
778.528	0.0138110
778.606	0.0139497
778.684	0.0140698
778.762	0.0137993
778.840	0.0141731
778.918	0.0140048
778.996	0.0139200
779.075	0.0139365
779.153	0.0139541
779.231	0.0140794
779.309	0.0139878
779.387	0.0138857
779.465	0.0139279
779.543	0.0140993
779.621	0.0139641
779.700	0.0139131
779.778	0.0139391
779.856	0.0138591
779.934	0.0139813
780.012	0.0140630
780.090	0.0140305
780.168	0.0139991
780.246	0.0139709
780.325	0.0139551
780.403	0.0139584
780.481	0.0139026
780.559	0.0138252
780.637	0.0138837
780.715	0.0139033
780.793	0.0138692
780.871	0.0140561
780.950	0.0138988
781.028	0.0138181
781.106	0.0140319
781.184	0.0139066
781.262	0.0138976
781.340	0.0139404
781.418	0.0138771
781.496	0.0138303
781.575	0.0138610
781.653	0.0139329
781.731	0.0139935
781.809	0.0138302
781.887	0.0138895
781.965	0.0140582
782.043	0.0139642
782.121	0.0140183
782.200	0.0138898
782.278	0.0139249
782.356	0.0139274
782.434	0.0139587
782.512	0.0140408
782.590	0.0140369
782.668	0.0139981
782.746	0.0140028
782.825	0.0139301
782.903	0.0139853
782.981	0.0141456
783.059	0.0141210
783.137	0.0140062
783.215	0.0140070
783.293	0.0141076
783.371	0.0141589
783.450	0.0140986
783.528	0.0141003
783.606	0.0140472
783.684	0.0141285
783.762	0.0142484
783.840	0.0140837
783.918	0.0141822
783.996	0.0139235
784.075	0.0139368
784.153	0.0140542
784.231	0.0140091
784.309	0.0140005
784.387	0.0141258
784.465	0.0140565
784.543	0.0139127
784.621	0.0139019
784.700	0.0141064
784.778	0.0139886
784.856	0.0138831
784.934	0.0140692
785.012	0.0139514
785.090	0.0139845
785.168	0.0139997
785.246	0.0139227
785.325	0.0140903
785.403	0.0141495
785.481	0.0141328
785.559	0.0140295
785.637	0.0139586
785.715	0.0139806
785.793	0.0139030
785.871	0.0138900
785.950	0.0139078
786.028	0.0139215
786.106	0.0140007
786.184	0.0137732
786.262	0.0139687
786.340	0.0139706
786.418	0.0139450
786.496	0.0139186
786.575	0.0139619
786.653	0.0140186
786.731	0.0140185
786.809	0.0140844
786.887	0.0139056
786.965	0.0140932
787.043	0.0140548
787.121	0.0140565
787.200	0.0139925
787.278	0.0139293
787.356	0.0139622
787.434	0.0140737
787.512	0.0140317
787.590	0.0140218
787.668	0.0141306
787.746	0.0140345
787.825	0.0140969
787.903	0.0140133
787.981	0.0140038
788.059	0.0140651
788.137	0.0140780
788.215	0.0140196
788.293	0.0141486
788.371	0.0140416
788.450	0.0141206
788.528	0.0139796
788.606	0.0139119
788.684	0.0141641
788.762	0.0138915
788.840	0.0138929
788.918	0.0140161
788.996	0.0140163
789.075	0.0138697
789.153	0.0139290
789.231	0.0139139
789.309	0.0138649
789.387	0.0138689
789.465	0.0139482
789.543	0.0140327
789.621	0.0141013
789.700	0.0139164
789.778	0.0141050
789.856	0.0140788
789.934	0.0139037
790.012	0.0140099
790.090	0.0141047
790.168	0.0139419
790.246	0.0139374
790.325	0.0138790
790.403	0.0138500
790.481	0.0139968
790.559	0.0140325
790.637	0.0140595
790.715	0.0138300
790.793	0.0139898
790.871	0.0138469
790.950	0.0139996
791.028	0.0139724
791.106	0.0139627
791.184	0.0140063
791.262	0.0139988
791.340	0.0139038
791.418	0.0139535
791.496	0.0140853
791.575	0.0140055
791.653	0.0140542
791.731	0.0140073
791.809	0.0140655
791.887	0.0137849
791.965	0.0139075
792.043	0.0139550
792.121	0.0140556
792.200	0.0140417
792.278	0.0139811
792.356	0.0139717
792.434	0.0139820
792.512	0.0138914
792.590	0.0138510
792.668	0.0139224
792.746	0.0138442
792.825	0.0140549
792.903	0.0140703
792.981	0.0139818
793.059	0.0139801
793.137	0.0140519
793.215	0.0140283
793.293	0.0139619
793.371	0.0139307
793.450	0.0140043
793.528	0.0139514
793.606	0.0139179
793.684	0.0139693
793.762	0.0139928
793.840	0.0140318
793.918	0.0138965
793.996	0.0139686
794.075	0.0139404
794.153	0.0139310
794.231	0.0138744
794.309	0.0139959
794.387	0.0139584
794.465	0.0138848
794.543	0.0138635
794.621	0.0139781
794.700	0.0140008
794.778	0.0139260
794.856	0.0139627
794.934	0.0139468
795.012	0.0139963
795.090	0.0140218
795.168	0.0139051
795.246	0.0138415
795.325	0.0139529
795.403	0.0139317
795.481	0.0139857
795.559	0.0138999
795.637	0.0139243
795.715	0.0138723
795.793	0.0139442
795.871	0.0140220
795.950	0.0138233
796.028	0.0139809
796.106	0.0139969
796.184	0.0139821
796.262	0.0140373
796.340	0.0138928
796.418	0.0139183
796.496	0.0139219
796.575	0.0141175
796.653	0.0140012
796.731	0.0140588
796.809	0.0139117
796.887	0.0139684
796.965	0.0139888
797.043	0.0138531
797.121	0.0140311
797.200	0.0140466
797.278	0.0138160
797.356	0.0140109
797.434	0.0139279
797.512	0.0139542
797.590	0.0140298
797.668	0.0139067
797.746	0.0140026
797.825	0.0139036
797.903	0.0139177
797.981	0.0139604
798.059	0.0139681
798.137	0.0138705
798.215	0.0139375
798.293	0.0139162
798.371	0.0138646
798.450	0.0139291
798.528	0.0139031
798.606	0.0140273
798.684	0.0138409
798.762	0.0139934
798.840	0.0139414
798.918	0.0139823
798.996	0.0140775
799.075	0.0139915
799.153	0.0139722
799.231	0.0140137
799.309	0.0140544
799.387	0.0140075
799.465	0.0140234
799.543	0.0141265
799.621	0.0140185
799.700	0.0138097
799.778	0.0139484
799.856	0.0139991
799.934	0.0139844
800.012	0.0139339
800.090	0.0139397
800.168	0.0139905
800.246	0.0140588
800.325	0.0140181
800.403	0.0139613
800.481	0.0138689
800.559	0.0139874
800.637	0.0140701
800.715	0.0140490
800.793	0.0139860
800.871	0.0139648
800.950	0.0138779
801.028	0.0138975
801.106	0.0139577
801.184	0.0139938
801.262	0.0140742
801.340	0.0139823
801.418	0.0141113
801.496	0.0141051
801.575	0.0140000
801.653	0.0139771
801.731	0.0140543
801.809	0.0140697
801.887	0.0138586
801.965	0.0138693
802.043	0.0141708
802.121	0.0139644
802.200	0.0140889
802.278	0.0139412
802.356	0.0139298
802.434	0.0139547
802.512	0.0140902
802.590	0.0140666
802.668	0.0139631
802.746	0.0140279
802.825	0.0139667
802.903	0.0139679
802.981	0.0139619
803.059	0.0139656
803.137	0.0141048
803.215	0.0141866
803.293	0.0140326
803.371	0.0139291
803.450	0.0140390
803.528	0.0140700
803.606	0.0140446
803.684	0.0139724
803.762	0.0139714
803.840	0.0140311
803.918	0.0139621
803.996	0.0140966
804.075	0.0139050
804.153	0.0139884
804.231	0.0139660
804.309	0.0140018
804.387	0.0140769
804.465	0.0139826
804.543	0.0139041
804.621	0.0138324
804.700	0.0139954
804.778	0.0141866
804.856	0.0140060
804.934	0.0139964
805.012	0.0139416
805.090	0.0139637
805.168	0.0139920
805.246	0.0139330
805.325	0.0140327
805.403	0.0139504
805.481	0.0138618
805.559	0.0138612
805.637	0.0139493
805.715	0.0137566
805.793	0.0140004
805.871	0.0139335
805.950	0.0138128
806.028	0.0139762
806.106	0.0139647
806.184	0.0138774
806.262	0.0139460
806.340	0.0139034
806.418	0.0139272
806.496	0.0139514
806.575	0.0140177
806.653	0.0140279
806.731	0.0140470
806.809	0.0139119
806.887	0.0141283
806.965	0.0140830
807.043	0.0140724
807.121	0.0140834
807.200	0.0140064
807.278	0.0139709
807.356	0.0140633
807.434	0.0139462
807.512	0.0140533
807.590	0.0140040
807.668	0.0141177
807.746	0.0140451
807.825	0.0139634
807.903	0.0140540
807.981	0.0140930
808.059	0.0139370
808.137	0.0139693
808.215	0.0139670
808.293	0.0138895
808.371	0.0140211
808.450	0.0139435
808.528	0.0139026
808.606	0.0138171
808.684	0.0139176
808.762	0.0140085
808.840	0.0138897
808.918	0.0137798
808.996	0.0138171
809.075	0.0138828
809.153	0.0139159
809.231	0.0139013
809.309	0.0139362
809.387	0.0139454
809.465	0.0139548
809.543	0.0139141
809.621	0.0139061
809.700	0.0140402
809.778	0.0139714
809.856	0.0140908
809.934	0.0139969
810.012	0.0140995
810.090	0.0141125
810.168	0.0140409
810.246	0.0140300
810.325	0.0141425
810.403	0.0141083
810.481	0.0141059
810.559	0.0141335
810.637	0.0140627
810.715	0.0140139
810.793	0.0141113
810.871	0.0140414
810.950	0.0139381
811.028	0.0140867
811.106	0.0139675
811.184	0.0139106
811.262	0.0140374
811.340	0.0138741
811.418	0.0137439
811.496	0.0137960
811.575	0.0138595
811.653	0.0138790
811.731	0.0138417
811.809	0.0137850
811.887	0.0137589
811.965	0.0138329
812.043	0.0137690
812.121	0.0139941
812.200	0.0138983
812.278	0.0137527
812.356	0.0138067
812.434	0.0138326
812.512	0.0138596
812.590	0.0139025
812.668	0.0138778
812.746	0.0138649
812.825	0.0140402
812.903	0.0141727
812.981	0.0140283
813.059	0.0139553
813.137	0.0137874
813.215	0.0139407
813.293	0.0140035
813.371	0.0140372
813.450	0.0140621
813.528	0.0140087
813.606	0.0138322
813.684	0.0140174
813.762	0.0138391
813.840	0.0139931
813.918	0.0138998
813.996	0.0139057
814.075	0.0139392
814.153	0.0139366
814.231	0.0139103
814.309	0.0141225
814.387	0.0140099
814.465	0.0139074
814.543	0.0140658
814.621	0.0140485
814.700	0.0141139
814.778	0.0139084
814.856	0.0139923
814.934	0.0139262
815.012	0.0139662
815.090	0.0139585
815.168	0.0138979
815.246	0.0139658
815.325	0.0139558
815.403	0.0139449
815.481	0.0139053
815.559	0.0139509
815.637	0.0139413
815.715	0.0139542
815.793	0.0138859
815.871	0.0139655
815.950	0.0140155
816.028	0.0139320
816.106	0.0140234
816.184	0.0140052
816.262	0.0140054
816.340	0.0140369
816.418	0.0139338
816.496	0.0140231
816.575	0.0139111
816.653	0.0139368
816.731	0.0140326
816.809	0.0140731
816.887	0.0138437
816.965	0.0138885
817.043	0.0138460
817.121	0.0140120
817.200	0.0140509
817.278	0.0139083
817.356	0.0139465
817.434	0.0139777
817.512	0.0139462
817.590	0.0140382
817.668	0.0139843
817.746	0.0139880
817.825	0.0140764
817.903	0.0140934
817.981	0.0140667
818.059	0.0141004
818.137	0.0141026
818.215	0.0141050
818.293	0.0139618
818.371	0.0138590
818.450	0.0140836
818.528	0.0140294
818.606	0.0139198
818.684	0.0138884
818.762	0.0141173
818.840	0.0138657
818.918	0.0138696
818.996	0.0139813
819.075	0.0140427
819.153	0.0139279
819.231	0.0140244
819.309	0.0139892
819.387	0.0140758
819.465	0.0139902
819.543	0.0139680
819.621	0.0139957
819.700	0.0140827
819.778	0.0139365
819.856	0.0140096
819.934	0.0141138
820.012	0.0139851
820.090	0.0139867
820.168	0.0140531
820.246	0.0139326
820.325	0.0140079
820.403	0.0140409
820.481	0.0139126
820.559	0.0139768
820.637	0.0140263
820.715	0.0138302
820.793	0.0139899
820.871	0.0140394
820.950	0.0139633
821.028	0.0139272
821.106	0.0140155
821.184	0.0140744
821.262	0.0140324
821.340	0.0139067
821.418	0.0138917
821.496	0.0140186
821.575	0.0140305
821.653	0.0139646
821.731	0.0138749
821.809	0.0139313
821.887	0.0140202
821.965	0.0138767
822.043	0.0139521
822.121	0.0141383
822.200	0.0139160
822.278	0.0138658
822.356	0.0140189
822.434	0.0139175
822.512	0.0141179
822.590	0.0141126
822.668	0.0139457
822.746	0.0140646
822.825	0.0140836
822.903	0.0140658
822.981	0.0140329
823.059	0.0139860
823.137	0.0139532
823.215	0.0140494
823.293	0.0139024
823.371	0.0139516
823.450	0.0139655
823.528	0.0140280
823.606	0.0139377
823.684	0.0140264
823.762	0.0140202
823.840	0.0138998
823.918	0.0138032
823.996	0.0139196
824.075	0.0140410
824.153	0.0140067
824.231	0.0138514
824.309	0.0139696
824.387	0.0138543
824.465	0.0138919
824.543	0.0140681
824.621	0.0140115
824.700	0.0139013
824.778	0.0139220
824.856	0.0140193
824.934	0.0139211
825.012	0.0140709
825.090	0.0140099
825.168	0.0140318
825.246	0.0140025
825.325	0.0139587
825.403	0.0139732
825.481	0.0139175
825.559	0.0140367
825.637	0.0139925
825.715	0.0140791
825.793	0.0141922
825.871	0.0139466
825.950	0.0138969
826.028	0.0139727
826.106	0.0140292
826.184	0.0141143
826.262	0.0139677
826.340	0.0139416
826.418	0.0138861
826.496	0.0139161
826.575	0.0140883
826.653	0.0140273
826.731	0.0139372
826.809	0.0139848
826.887	0.0142117
826.965	0.0141640
827.043	0.0139667
827.121	0.0138789
827.200	0.0139875
827.278	0.0140175
827.356	0.0140234
827.434	0.0138716
827.512	0.0138563
827.590	0.0140389
827.668	0.0139259
827.746	0.0140820
827.825	0.0140311
827.903	0.0138071
827.981	0.0137630
828.059	0.0139455
828.137	0.0139762
828.215	0.0139011
828.293	0.0138552
828.371	0.0138581
828.450	0.0138837
828.528	0.0138715
828.606	0.0138282
828.684	0.0139422
828.762	0.0138956
828.840	0.0139513
828.918	0.0139883
828.996	0.0139777
829.075	0.0140077
829.153	0.0138673
829.231	0.0139570
829.309	0.0140217
829.387	0.0138738
829.465	0.0140015
829.543	0.0140567
829.621	0.0139897
829.700	0.0139379
829.778	0.0139403
829.856	0.0140883
829.934	0.0140679
830.012	0.0139957
830.090	0.0140920
830.168	0.0140163
830.246	0.0140436
830.325	0.0140486
830.403	0.0140298
830.481	0.0139157
830.559	0.0139994
830.637	0.0139404
830.715	0.0138471
830.793	0.0139898
830.871	0.0138972
830.950	0.0140015
831.028	0.0138828
831.106	0.0138697
831.184	0.0139496
831.262	0.0139272
831.340	0.0138511
831.418	0.0139810
831.496	0.0138922
831.575	0.0139020
831.653	0.0138413
831.731	0.0139243
831.809	0.0139603
831.887	0.0138900
831.965	0.0137443
832.043	0.0139352
832.121	0.0139268
832.200	0.0137328
832.278	0.0138097
832.356	0.0139149
832.434	0.0138425
832.512	0.0138467
832.590	0.0139201
832.668	0.0137955
832.746	0.0139878
832.825	0.0140124
832.903	0.0138815
832.981	0.0138902
833.059	0.0140308
833.137	0.0140360
833.215	0.0141090
833.293	0.0139439
833.371	0.0138359
833.450	0.0140438
833.528	0.0140822
833.606	0.0140179
833.684	0.0140527
833.762	0.0140086
833.840	0.0139890
833.918	0.0139714
833.996	0.0140472
834.075	0.0139784
834.153	0.0139219
834.231	0.0138891
834.309	0.0140102
834.387	0.0140322
834.465	0.0140401
834.543	0.0138394
834.621	0.0140085
834.700	0.0138702
834.778	0.0139655
834.856	0.0138731
834.934	0.0139526
835.012	0.0139480
835.090	0.0139507
835.168	0.0138919
835.246	0.0138204
835.325	0.0138796
835.403	0.0138532
835.481	0.0138329
835.559	0.0139079
835.637	0.0138767
835.715	0.0138709
835.793	0.0139541
835.871	0.0138725
835.950	0.0139417
836.028	0.0139837
836.106	0.0139409
836.184	0.0140530
836.262	0.0139735
836.340	0.0139371
836.418	0.0139069
836.496	0.0139615
836.575	0.0139199
836.653	0.0140065
836.731	0.0139960
836.809	0.0139925
836.887	0.0140197
836.965	0.0139606
837.043	0.0139426
837.121	0.0137885
837.200	0.0138953
837.278	0.0140446
837.356	0.0140038
837.434	0.0140021
837.512	0.0139548
837.590	0.0138755
837.668	0.0139003
837.746	0.0140139
837.825	0.0140402
837.903	0.0139791
837.981	0.0140608
838.059	0.0139647
838.137	0.0142121
838.215	0.0139558
838.293	0.0138824
838.371	0.0139887
838.450	0.0138697
838.528	0.0139706
838.606	0.0140334
838.684	0.0138641
838.762	0.0139268
838.840	0.0139973
838.918	0.0139638
838.996	0.0139044
839.075	0.0141033
839.153	0.0138673
839.231	0.0138626
839.309	0.0137854
839.387	0.0139822
839.465	0.0139200
839.543	0.0139043
839.621	0.0138617
839.700	0.0138386
839.778	0.0139933
839.856	0.0138803
839.934	0.0139899
840.012	0.0136972
840.090	0.0138486
840.168	0.0138174
840.246	0.0139462
840.325	0.0138609
840.403	0.0138953
840.481	0.0138660
840.559	0.0139006
840.637	0.0139563
840.715	0.0139658
840.793	0.0139684
840.871	0.0139269
840.950	0.0138891
841.028	0.0138903
841.106	0.0139703
841.184	0.0140151
841.262	0.0139130
841.340	0.0140179
841.418	0.0140044
841.496	0.0141820
841.575	0.0139837
841.653	0.0140003
841.731	0.0139009
841.809	0.0139243
841.887	0.0139819
841.965	0.0138777
842.043	0.0139381
842.121	0.0139386
842.200	0.0138597
842.278	0.0139141
842.356	0.0138417
842.434	0.0139195
842.512	0.0138649
842.590	0.0138560
842.668	0.0139438
842.746	0.0138167
842.825	0.0137883
842.903	0.0139162
842.981	0.0140721
843.059	0.0138613
843.137	0.0138988
843.215	0.0139780
843.293	0.0138965
843.371	0.0140406
843.450	0.0140147
843.528	0.0140231
843.606	0.0141183
843.684	0.0139762
843.762	0.0139172
843.840	0.0140076
843.918	0.0139818
843.996	0.0139589
844.075	0.0140331
844.153	0.0140791
844.231	0.0142170
844.309	0.0139697
844.387	0.0138901
844.465	0.0139456
844.543	0.0139349
844.621	0.0139520
844.700	0.0139946
844.778	0.0139732
844.856	0.0139349
844.934	0.0139172
845.012	0.0139013
845.090	0.0139202
845.168	0.0138349
845.246	0.0138322
845.325	0.0139091
845.403	0.0140000
845.481	0.0139547
845.559	0.0138526
845.637	0.0137723
845.715	0.0140004
845.793	0.0139118
845.871	0.0140623
845.950	0.0139571
846.028	0.0138995
846.106	0.0137824
846.184	0.0139152
846.262	0.0139037
846.340	0.0139320
846.418	0.0140733
846.496	0.0138443
846.575	0.0139394
846.653	0.0140165
846.731	0.0139848
846.809	0.0138855
846.887	0.0140809
846.965	0.0140134
847.043	0.0140890
847.121	0.0140015
847.200	0.0140095
847.278	0.0139971
847.356	0.0140950
847.434	0.0142041
847.512	0.0141123
847.590	0.0139502
847.668	0.0140947
847.746	0.0140497
847.825	0.0141609
847.903	0.0139722
847.981	0.0138505
848.059	0.0140471
848.137	0.0139655
848.215	0.0138400
848.293	0.0138877
848.371	0.0138920
848.450	0.0141146
848.528	0.0139898
848.606	0.0139574
848.684	0.0138670
848.762	0.0139598
848.840	0.0139602
848.918	0.0138181
848.996	0.0138696
849.075	0.0139589
849.153	0.0138812
849.231	0.0139339
849.309	0.0138225
849.387	0.0139168
849.465	0.0139463
849.543	0.0138163
849.621	0.0138258
849.700	0.0138441
849.778	0.0139043
849.856	0.0138735
849.934	0.0138586
850.012	0.0137841
850.090	0.0139290
850.168	0.0139067
850.246	0.0138131
850.325	0.0138985
850.403	0.0140800
850.481	0.0138798
850.559	0.0139304
850.637	0.0139491
850.715	0.0138679
850.793	0.0139010
850.871	0.0140549
850.950	0.0140050
851.028	0.0139971
851.106	0.0138667
851.184	0.0139513
851.262	0.0139851
851.340	0.0139078
851.418	0.0140565
851.496	0.0140337
851.575	0.0139411
851.653	0.0138824
851.731	0.0139262
851.809	0.0139126
851.887	0.0139913
851.965	0.0139882
852.043	0.0138776
852.121	0.0138187
852.200	0.0139997
852.278	0.0139871
852.356	0.0140125
852.434	0.0139208
852.512	0.0138087
852.590	0.0139935
852.668	0.0139307
852.746	0.0139644
852.825	0.0139073
852.903	0.0138972
852.981	0.0139547
853.059	0.0139171
853.137	0.0139532
853.215	0.0138461
853.293	0.0138897
853.371	0.0140202
853.450	0.0139279
853.528	0.0139261
853.606	0.0139614
853.684	0.0139610
853.762	0.0139613
853.840	0.0138626
853.918	0.0138763
853.996	0.0138989
854.075	0.0137276
854.153	0.0138183
854.231	0.0139088
854.309	0.0138694
854.387	0.0138530
854.465	0.0138680
854.543	0.0138674
854.621	0.0139116
854.700	0.0139041
854.778	0.0138540
854.856	0.0139120
854.934	0.0139359
855.012	0.0139138
855.090	0.0139593
855.168	0.0140012
855.246	0.0140672
855.325	0.0139383
855.403	0.0139210
855.481	0.0139162
855.559	0.0139307
855.637	0.0140238
855.715	0.0141101
855.793	0.0138483
855.871	0.0138693
855.950	0.0139878
856.028	0.0139452
856.106	0.0138718
856.184	0.0139292
856.262	0.0140875
856.340	0.0139412
856.418	0.0139290
856.496	0.0139651
856.575	0.0139404
856.653	0.0139156
856.731	0.0138628
856.809	0.0138001
856.887	0.0139774
856.965	0.0139375
857.043	0.0138821
857.121	0.0140627
857.200	0.0140200
857.278	0.0138339
857.356	0.0137940
857.434	0.0138840
857.512	0.0138989
857.590	0.0138090
857.668	0.0138792
857.746	0.0139153
857.825	0.0137699
857.903	0.0136229
857.981	0.0139158
858.059	0.0138042
858.137	0.0138716
858.215	0.0138046
858.293	0.0137988
858.371	0.0138435
858.450	0.0138358
858.528	0.0139290
858.606	0.0137920
858.684	0.0138017
858.762	0.0138976
858.840	0.0139602
858.918	0.0138766
858.996	0.0139298
859.075	0.0140601
859.153	0.0139518
859.231	0.0138994
859.309	0.0140165
859.387	0.0139584
859.465	0.0139536
859.543	0.0139988
859.621	0.0139967
859.700	0.0140216
859.778	0.0140545
859.856	0.0139568
859.934	0.0139406
860.012	0.0140257
860.090	0.0138644
860.168	0.0140657
860.246	0.0139854
860.325	0.0138160
860.403	0.0140021
860.481	0.0139919
860.559	0.0138815
860.637	0.0138564
860.715	0.0138712
860.793	0.0139185
860.871	0.0138483
860.950	0.0139734
861.028	0.0139887
861.106	0.0138613
861.184	0.0138892
861.262	0.0138358
861.340	0.0138281
861.418	0.0138866
861.496	0.0139845
861.575	0.0138711
861.653	0.0140184
861.731	0.0139302
861.809	0.0138194
861.887	0.0140851
861.965	0.0139034
862.043	0.0139574
862.121	0.0140041
862.200	0.0140244
862.278	0.0140501
862.356	0.0139269
862.434	0.0141282
862.512	0.0140192
862.590	0.0140308
862.668	0.0140314
862.746	0.0138979
862.825	0.0140714
862.903	0.0140335
862.981	0.0140123
863.059	0.0140623
863.137	0.0139816
863.215	0.0140423
863.293	0.0140051
863.371	0.0140006
863.450	0.0140022
863.528	0.0140146
863.606	0.0139561
863.684	0.0139718
863.762	0.0140036
863.840	0.0139303
863.918	0.0139636
863.996	0.0139777
864.075	0.0138422
864.153	0.0138850
864.231	0.0140927
864.309	0.0139667
864.387	0.0139727
864.465	0.0139409
864.543	0.0139034
864.621	0.0139974
864.700	0.0139304
864.778	0.0139996
864.856	0.0138204
864.934	0.0140714
865.012	0.0140231
865.090	0.0141727
865.168	0.0139261
865.246	0.0139231
865.325	0.0138990
865.403	0.0139433
865.481	0.0138820
865.559	0.0140192
865.637	0.0139957
865.715	0.0139467
865.793	0.0140617
865.871	0.0138257
865.950	0.0139125
866.028	0.0140294
866.106	0.0140411
866.184	0.0139424
866.262	0.0139478
866.340	0.0140148
866.418	0.0140617
866.496	0.0140555
866.575	0.0140452
866.653	0.0140269
866.731	0.0140234
866.809	0.0140392
866.887	0.0141065
866.965	0.0141073
867.043	0.0141494
867.121	0.0141599
867.200	0.0141135
867.278	0.0139897
867.356	0.0138866
867.434	0.0141022
867.512	0.0140158
867.590	0.0141538
867.668	0.0139872
867.746	0.0138927
867.825	0.0138869
867.903	0.0139175
867.981	0.0140180
868.059	0.0139368
868.137	0.0139911
868.215	0.0138527
868.293	0.0139456
868.371	0.0141083
868.450	0.0139795
868.528	0.0138341
868.606	0.0139500
868.684	0.0140334
868.762	0.0139636
868.840	0.0141264
868.918	0.0139465
868.996	0.0139157
869.075	0.0141253
869.153	0.0138725
869.231	0.0140085
869.309	0.0139518
869.387	0.0140884
869.465	0.0139821
869.543	0.0139787
869.621	0.0140260
869.700	0.0139703
869.778	0.0140137
869.856	0.0140707
869.934	0.0140098
870.012	0.0140264
870.090	0.0138589
870.168	0.0139406
870.246	0.0139149
870.325	0.0139352
870.403	0.0139526
870.481	0.0139588
870.559	0.0141265
870.637	0.0139180
870.715	0.0139198
870.793	0.0138950
870.871	0.0139595
870.950	0.0141351
871.028	0.0139462
871.106	0.0139690
871.184	0.0140580
871.262	0.0139963
871.340	0.0139880
871.418	0.0140707
871.496	0.0140787
871.575	0.0139675
871.653	0.0139662
871.731	0.0139576
871.809	0.0140786
871.887	0.0140582
871.965	0.0139642
872.043	0.0139293
872.121	0.0139187
872.200	0.0138795
872.278	0.0140236
872.356	0.0140002
872.434	0.0138742
872.512	0.0140081
872.590	0.0138305
872.668	0.0138703
872.746	0.0139793
872.825	0.0138094
872.903	0.0138654
872.981	0.0137878
873.059	0.0138665
873.137	0.0139996
873.215	0.0139206
873.293	0.0138573
873.371	0.0139628
873.450	0.0140441
873.528	0.0139627
873.606	0.0140010
873.684	0.0140475
873.762	0.0140013
873.840	0.0140258
873.918	0.0140689
873.996	0.0140593
874.075	0.0140855
874.153	0.0142053
874.231	0.0139948
874.309	0.0138869
874.387	0.0140339
874.465	0.0139246
874.543	0.0140926
874.621	0.0138725
874.700	0.0138963
874.778	0.0140232
874.856	0.0140624
874.934	0.0138510
875.012	0.0139095
875.090	0.0138699
875.168	0.0139358
875.246	0.0138486
875.325	0.0139096
875.403	0.0138918
875.481	0.0140009
875.559	0.0137845
875.637	0.0138677
875.715	0.0139953
875.793	0.0138757
875.871	0.0139899
875.950	0.0140281
876.028	0.0139165
876.106	0.0139306
876.184	0.0140370
876.262	0.0139774
876.340	0.0140597
876.418	0.0140466
876.496	0.0139117
876.575	0.0140174
876.653	0.0139722
876.731	0.0140189
876.809	0.0139972
876.887	0.0139499
876.965	0.0141016
877.043	0.0139035
877.121	0.0139632
877.200	0.0141103
877.278	0.0141171
877.356	0.0138824
877.434	0.0139075
877.512	0.0139504
877.590	0.0139021
877.668	0.0139381
877.746	0.0139799
877.825	0.0139259
877.903	0.0138909
877.981	0.0139827
878.059	0.0138567
878.137	0.0139118
878.215	0.0138862
878.293	0.0139185
878.371	0.0139319
878.450	0.0139665
878.528	0.0138770
878.606	0.0139108
878.684	0.0139080
878.762	0.0139586
878.840	0.0140254
878.918	0.0138882
878.996	0.0139928
879.075	0.0138629
879.153	0.0138656
879.231	0.0138704
879.309	0.0138763
879.387	0.0139977
879.465	0.0139605
879.543	0.0139676
879.621	0.0140558
879.700	0.0140599
879.778	0.0139926
879.856	0.0139108
879.934	0.0139140
880.012	0.0140821
880.090	0.0140548
880.168	0.0139373
880.246	0.0140341
880.325	0.0141494
880.403	0.0140258
880.481	0.0139737
880.559	0.0138037
880.637	0.0139001
880.715	0.0140990
880.793	0.0139539
880.871	0.0139588
880.950	0.0139445
881.028	0.0139746
881.106	0.0138140
881.184	0.0138328
881.262	0.0139720
881.340	0.0139314
881.418	0.0139346
881.496	0.0139307
881.575	0.0138673
881.653	0.0141032
881.731	0.0139371
881.809	0.0139204
881.887	0.0138277
881.965	0.0140620
882.043	0.0138793
882.121	0.0139446
882.200	0.0141153
882.278	0.0140533
882.356	0.0139896
882.434	0.0140613
882.512	0.0140597
882.590	0.0140110
882.668	0.0139529
882.746	0.0139083
882.825	0.0140343
882.903	0.0139535
882.981	0.0139377
883.059	0.0139420
883.137	0.0139420
883.215	0.0139228
883.293	0.0138509
883.371	0.0140124
883.450	0.0137263
883.528	0.0138874
883.606	0.0139333
883.684	0.0137997
883.762	0.0140427
883.840	0.0139351
883.918	0.0138898
883.996	0.0139225
884.075	0.0138976
884.153	0.0140260
884.231	0.0140353
884.309	0.0139713
884.387	0.0139816
884.465	0.0140745
884.543	0.0140123
884.621	0.0140366
884.700	0.0141118
884.778	0.0140457
884.856	0.0140009
884.934	0.0141397
885.012	0.0139892
885.090	0.0140841
885.168	0.0141443
885.246	0.0139964
885.325	0.0140386
885.403	0.0139411
885.481	0.0141062
885.559	0.0141126
885.637	0.0139581
885.715	0.0140361
885.793	0.0139958
885.871	0.0137741
885.950	0.0138842
886.028	0.0138274
886.106	0.0139583
886.184	0.0140932
886.262	0.0138562
886.340	0.0140330
886.418	0.0140346
886.496	0.0139993
886.575	0.0139169
886.653	0.0138637
886.731	0.0139783
886.809	0.0140976
886.887	0.0140648
886.965	0.0140194
887.043	0.0139353
887.121	0.0140730
887.200	0.0140661
887.278	0.0140034
887.356	0.0139487
887.434	0.0140164
887.512	0.0140527
887.590	0.0140982
887.668	0.0141066
887.746	0.0140857
887.825	0.0140599
887.903	0.0138861
887.981	0.0141344
888.059	0.0141031
888.137	0.0139836
888.215	0.0140335
888.293	0.0139136
888.371	0.0139665
888.450	0.0140175
888.528	0.0138658
888.606	0.0138513
888.684	0.0137691
888.762	0.0138078
888.840	0.0139341
888.918	0.0138004
888.996	0.0138344
889.075	0.0139200
889.153	0.0139595
889.231	0.0139337
889.309	0.0140924
889.387	0.0141282
889.465	0.0139704
889.543	0.0140353
889.621	0.0140482
889.700	0.0139828
889.778	0.0139328
889.856	0.0139816
889.934	0.0139921
890.012	0.0139334
890.090	0.0140098
890.168	0.0139458
890.246	0.0140760
890.325	0.0141186
890.403	0.0140939
890.481	0.0141630
890.559	0.0139276
890.637	0.0139739
890.715	0.0141173
890.793	0.0140839
890.871	0.0139450
890.950	0.0138460
891.028	0.0139160
891.106	0.0139761
891.184	0.0138023
891.262	0.0138335
891.340	0.0138988
891.418	0.0138766
891.496	0.0137426
891.575	0.0139031
891.653	0.0139297
891.731	0.0139379
891.809	0.0138008
891.887	0.0139989
891.965	0.0141115
892.043	0.0140031
892.121	0.0140277
892.200	0.0140968
892.278	0.0139713
892.356	0.0139703
892.434	0.0139500
892.512	0.0139603
892.590	0.0140572
892.668	0.0138575
892.746	0.0139850
892.825	0.0139925
892.903	0.0140341
892.981	0.0139902
893.059	0.0139761
893.137	0.0139127
893.215	0.0139655
893.293	0.0138510
893.371	0.0138838
893.450	0.0139577
893.528	0.0138906
893.606	0.0138583
893.684	0.0139695
893.762	0.0140499
893.840	0.0139991
893.918	0.0139372
893.996	0.0140416
894.075	0.0140807
894.153	0.0139001
894.231	0.0140976
894.309	0.0139495
894.387	0.0138477
894.465	0.0139676
894.543	0.0139067
894.621	0.0141093
894.700	0.0140812
894.778	0.0139938
894.856	0.0140487
894.934	0.0138584
895.012	0.0138898
895.090	0.0139742
895.168	0.0140185
895.246	0.0140572
895.325	0.0139096
895.403	0.0139648
895.481	0.0138772
895.559	0.0137996
895.637	0.0138313
895.715	0.0139777
895.793	0.0138728
895.871	0.0139170
895.950	0.0138715
896.028	0.0138846
896.106	0.0138890
896.184	0.0139312
896.262	0.0139520
896.340	0.0139866
896.418	0.0138403
896.496	0.0140186
896.575	0.0140873
896.653	0.0139928
896.731	0.0140836
896.809	0.0139930
896.887	0.0140240
896.965	0.0139610
897.043	0.0139278
897.121	0.0139097
897.200	0.0139648
897.278	0.0140652
897.356	0.0139667
897.434	0.0139729
897.512	0.0139507
897.590	0.0138982
897.668	0.0139937
897.746	0.0140611
897.825	0.0138196
897.903	0.0140957
897.981	0.0138496
898.059	0.0139529
898.137	0.0139281
898.215	0.0138973
898.293	0.0139120
898.371	0.0138502
898.450	0.0139127
898.528	0.0138805
898.606	0.0138997
898.684	0.0139571
898.762	0.0139285
898.840	0.0139559
898.918	0.0139977
898.996	0.0140453
899.075	0.0140274
899.153	0.0141075
899.231	0.0138565
899.309	0.0138988
899.387	0.0138235
899.465	0.0140482
899.543	0.0141507
899.621	0.0139996
899.700	0.0137339
899.778	0.0138820
899.856	0.0139926
899.934	0.0138074
900.012	0.0138787
900.090	0.0138463
900.168	0.0137849
900.246	0.0139842
900.325	0.0139271
900.403	0.0140298
900.481	0.0140228
900.559	0.0139723
900.637	0.0142063
900.715	0.0140022
900.793	0.0141607
900.871	0.0141929
900.950	0.0139037
901.028	0.0139468
901.106	0.0140547
901.184	0.0140286
901.262	0.0140129
901.340	0.0139869
901.418	0.0138280
901.496	0.0138821
901.575	0.0138824
901.653	0.0138805
901.731	0.0140105
901.809	0.0139697
901.887	0.0140193
901.965	0.0141823
902.043	0.0140500
902.121	0.0140957
902.200	0.0141432
902.278	0.0141759
902.356	0.0140119
902.434	0.0140640
902.512	0.0140504
902.590	0.0139091
902.668	0.0138689
902.746	0.0138908
902.825	0.0137915
902.903	0.0138728
902.981	0.0137851
903.059	0.0137694
903.137	0.0139066
903.215	0.0138909
903.293	0.0139703
903.371	0.0139675
903.450	0.0140610
903.528	0.0140303
903.606	0.0140250
903.684	0.0140818
903.762	0.0140472
903.840	0.0141206
903.918	0.0138970
903.996	0.0139410
904.075	0.0139836
904.153	0.0139308
904.231	0.0138447
904.309	0.0139532
904.387	0.0138979
904.465	0.0138338
904.543	0.0138214
904.621	0.0138718
904.700	0.0140318
904.778	0.0139646
904.856	0.0139293
904.934	0.0140559
905.012	0.0141203
905.090	0.0142695
905.168	0.0140494
905.246	0.0140713
905.325	0.0140425
905.403	0.0140548
905.481	0.0141918
905.559	0.0139343
905.637	0.0138448
905.715	0.0140167
905.793	0.0139752
905.871	0.0137704
905.950	0.0137189
906.028	0.0137861
906.106	0.0137971
906.184	0.0137124
906.262	0.0139278
906.340	0.0138547
906.418	0.0139690
906.496	0.0139856
906.575	0.0138552
906.653	0.0140318
906.731	0.0139670
906.809	0.0139829
906.887	0.0141366
906.965	0.0140323
907.043	0.0139871
907.121	0.0137735
907.200	0.0139401
907.278	0.0138062
907.356	0.0138519
907.434	0.0138603
907.512	0.0138285
907.590	0.0138303
907.668	0.0137994
907.746	0.0137906
907.825	0.0138528
907.903	0.0137919
907.981	0.0139264
908.059	0.0140928
908.137	0.0139848
908.215	0.0141084
908.293	0.0141393
908.371	0.0141438
908.450	0.0141911
908.528	0.0142432
908.606	0.0140501
908.684	0.0141075
908.762	0.0141469
908.840	0.0141705
908.918	0.0138870
908.996	0.0138511
909.075	0.0138644
909.153	0.0139220
909.231	0.0138344
909.309	0.0138321
909.387	0.0138689
909.465	0.0137592
909.543	0.0137539
909.621	0.0138958
909.700	0.0139045
909.778	0.0139375
909.856	0.0138966
909.934	0.0140501
910.012	0.0138644
910.090	0.0139577
910.168	0.0139551
910.246	0.0139996
910.325	0.0140636
910.403	0.0139924
910.481	0.0138696
910.559	0.0138881
910.637	0.0139161
910.715	0.0139268
910.793	0.0137722
910.871	0.0138744
910.950	0.0139212
911.028	0.0139502
911.106	0.0139075
911.184	0.0139722
911.262	0.0139359
911.340	0.0140761
911.418	0.0140431
911.496	0.0141293
911.575	0.0142328
911.653	0.0141429
911.731	0.0141858
911.809	0.0142835
911.887	0.0141138
911.965	0.0140561
912.043	0.0140102
912.121	0.0141595
912.200	0.0139650
912.278	0.0140350
912.356	0.0139717
912.434	0.0140032
912.512	0.0139392
912.590	0.0138770
912.668	0.0138794
912.746	0.0138538
912.825	0.0139193
912.903	0.0138950
912.981	0.0139655
913.059	0.0139328
913.137	0.0140804
913.215	0.0140234
913.293	0.0140683
913.371	0.0140665
913.450	0.0140447
913.528	0.0139864
913.606	0.0140785
913.684	0.0140050
913.762	0.0138357
913.840	0.0139747
913.918	0.0138391
913.996	0.0137701
914.075	0.0139481
914.153	0.0139780
914.231	0.0138392
914.309	0.0138803
914.387	0.0139146
914.465	0.0137537
914.543	0.0139889
914.621	0.0141359
914.700	0.0137968
914.778	0.0141431
914.856	0.0140184
914.934	0.0139753
915.012	0.0140414
915.090	0.0140409
915.168	0.0138627
915.246	0.0139569
915.325	0.0138344
915.403	0.0140794
915.481	0.0140031
915.559	0.0139581
915.637	0.0141449
915.715	0.0138554
915.793	0.0138203
915.871	0.0138610
915.950	0.0139014
916.028	0.0141180
916.106	0.0139667
916.184	0.0139843
916.262	0.0139156
916.340	0.0139086
916.418	0.0139389
916.496	0.0141014
916.575	0.0139514
916.653	0.0139028
916.731	0.0140470
916.809	0.0139001
916.887	0.0138688
916.965	0.0139114
917.043	0.0139520
917.121	0.0137969
917.200	0.0139320
917.278	0.0139269
917.356	0.0139415
917.434	0.0139091
917.512	0.0139043
917.590	0.0140028
917.668	0.0139569
917.746	0.0138721
917.825	0.0138189
917.903	0.0139531
917.981	0.0139602
918.059	0.0140073
918.137	0.0139970
918.215	0.0137655
918.293	0.0138948
918.371	0.0139778
918.450	0.0139220
918.528	0.0140417
918.606	0.0140951
918.684	0.0138666
918.762	0.0138800
918.840	0.0138821
918.918	0.0139618
918.996	0.0139332
919.075	0.0139767
919.153	0.0138768
919.231	0.0139077
919.309	0.0139642
919.387	0.0140018
919.465	0.0139223
919.543	0.0137681
919.621	0.0138654
919.700	0.0141038
919.778	0.0141118
919.856	0.0140643
919.934	0.0138635
920.012	0.0140414
920.090	0.0140323
920.168	0.0140359
920.246	0.0139882
920.325	0.0140669
920.403	0.0139940
920.481	0.0138321
920.559	0.0140051
920.637	0.0139977
920.715	0.0140485
920.793	0.0140097
920.871	0.0138380
920.950	0.0139288
921.028	0.0139813
921.106	0.0137994
921.184	0.0139227
921.262	0.0139727
921.340	0.0140244
921.418	0.0138708
921.496	0.0139391
921.575	0.0140249
921.653	0.0140910
921.731	0.0139969
921.809	0.0140325
921.887	0.0140749
921.965	0.0139919
922.043	0.0138445
922.121	0.0138198
922.200	0.0139648
922.278	0.0140425
922.356	0.0138602
922.434	0.0138346
922.512	0.0140067
922.590	0.0139310
922.668	0.0138390
922.746	0.0138749
922.825	0.0141038
922.903	0.0139872
922.981	0.0141157
923.059	0.0139551
923.137	0.0140004
923.215	0.0140939
923.293	0.0140198
923.371	0.0138559
923.450	0.0140440
923.528	0.0140273
923.606	0.0139987
923.684	0.0140757
923.762	0.0141700
923.840	0.0138241
923.918	0.0140381
923.996	0.0140336
924.075	0.0139301
924.153	0.0139312
924.231	0.0137989
924.309	0.0139184
924.387	0.0138576
924.465	0.0139165
924.543	0.0139286
924.621	0.0139400
924.700	0.0139584
924.778	0.0139402
924.856	0.0138413
924.934	0.0138033
925.012	0.0139869
925.090	0.0139755
925.168	0.0139127
925.246	0.0140095
925.325	0.0141403
925.403	0.0139700
925.481	0.0141547
925.559	0.0141148
925.637	0.0139770
925.715	0.0141165
925.793	0.0141721
925.871	0.0140491
925.950	0.0140617
926.028	0.0141604
926.106	0.0140538
926.184	0.0140881
926.262	0.0140533
926.340	0.0141188
926.418	0.0140064
926.496	0.0138493
926.575	0.0138873
926.653	0.0140877
926.731	0.0140910
926.809	0.0138673
926.887	0.0139267
926.965	0.0140255
927.043	0.0140475
927.121	0.0140099
927.200	0.0139399
927.278	0.0139787
927.356	0.0139555
927.434	0.0138712
927.512	0.0139621
927.590	0.0139722
927.668	0.0138357
927.746	0.0139976
927.825	0.0140364
927.903	0.0138074
927.981	0.0139289
928.059	0.0139998
928.137	0.0139410
928.215	0.0140500
928.293	0.0140913
928.371	0.0141576
928.450	0.0140772
928.528	0.0140119
928.606	0.0140620
928.684	0.0139344
928.762	0.0140279
928.840	0.0139525
928.918	0.0140507
928.996	0.0140659
929.075	0.0139326
929.153	0.0138687
929.231	0.0139834
929.309	0.0141541
929.387	0.0140165
929.465	0.0140068
929.543	0.0140213
929.621	0.0139964
929.700	0.0140500
929.778	0.0140901
929.856	0.0139642
929.934	0.0140096
930.012	0.0139128
930.090	0.0139165
930.168	0.0140082
930.246	0.0141406
930.325	0.0138210
930.403	0.0139458
930.481	0.0140771
930.559	0.0139346
930.637	0.0139128
930.715	0.0139741
930.793	0.0139139
930.871	0.0139444
930.950	0.0140300
931.028	0.0139807
931.106	0.0138602
931.184	0.0141178
931.262	0.0140318
931.340	0.0139419
931.418	0.0140456
931.496	0.0140412
931.575	0.0140203
931.653	0.0140350
931.731	0.0141070
931.809	0.0140368
931.887	0.0140172
931.965	0.0139285
932.043	0.0140163
932.121	0.0141438
932.200	0.0139479
932.278	0.0141042
932.356	0.0139590
932.434	0.0141258
932.512	0.0141035
932.590	0.0140388
932.668	0.0139433
932.746	0.0140152
932.825	0.0140900
932.903	0.0140477
932.981	0.0139739
933.059	0.0139806
933.137	0.0139198
933.215	0.0140623
933.293	0.0139999
933.371	0.0138955
933.450	0.0139127
933.528	0.0140637
933.606	0.0139308
933.684	0.0138639
933.762	0.0139765
933.840	0.0139109
933.918	0.0139823
933.996	0.0138630
934.075	0.0139479
934.153	0.0139859
934.231	0.0139648
934.309	0.0138959
934.387	0.0138456
934.465	0.0138901
934.543	0.0140101
934.621	0.0140284
934.700	0.0139038
934.778	0.0140029
934.856	0.0140211
934.934	0.0139410
935.012	0.0139346
935.090	0.0139295
935.168	0.0139824
935.246	0.0139060
935.325	0.0139433
935.403	0.0140136
935.481	0.0139844
935.559	0.0137494
935.637	0.0139397
935.715	0.0140470
935.793	0.0139154
935.871	0.0138042
935.950	0.0139465
936.028	0.0138679
936.106	0.0140992
936.184	0.0140924
936.262	0.0141000
936.340	0.0139754
936.418	0.0139918
936.496	0.0141159
936.575	0.0140398
936.653	0.0140923
936.731	0.0138800
936.809	0.0139532
936.887	0.0140603
936.965	0.0140051
937.043	0.0139764
937.121	0.0141106
937.200	0.0140797
937.278	0.0139571
937.356	0.0138579
937.434	0.0140057
937.512	0.0139270
937.590	0.0137720
937.668	0.0138684
937.746	0.0139719
937.825	0.0139658
937.903	0.0139244
937.981	0.0138108
938.059	0.0138688
938.137	0.0137905
938.215	0.0138502
938.293	0.0139085
938.371	0.0139603
938.450	0.0138315
938.528	0.0139501
938.606	0.0139395
938.684	0.0139120
938.762	0.0141037
938.840	0.0138048
938.918	0.0139967
938.996	0.0139896
939.075	0.0139239
939.153	0.0139198
939.231	0.0137977
939.309	0.0138666
939.387	0.0140254
939.465	0.0139286
939.543	0.0139355
939.621	0.0139252
939.700	0.0139772
939.778	0.0138792
939.856	0.0139816
939.934	0.0140623
940.012	0.0140189
940.090	0.0139911
940.168	0.0140584
940.246	0.0139579
940.325	0.0139697
940.403	0.0139014
940.481	0.0139577
940.559	0.0140031
940.637	0.0139782
940.715	0.0139732
940.793	0.0139900
940.871	0.0140131
940.950	0.0140287
941.028	0.0140269
941.106	0.0140862
941.184	0.0139698
941.262	0.0140683
941.340	0.0140147
941.418	0.0139480
941.496	0.0138447
941.575	0.0139864
941.653	0.0139098
941.731	0.0138578
941.809	0.0139657
941.887	0.0139848
941.965	0.0138649
942.043	0.0139205
942.121	0.0138629
942.200	0.0138980
942.278	0.0138867
942.356	0.0138609
942.434	0.0139145
942.512	0.0138669
942.590	0.0139126
942.668	0.0138136
942.746	0.0139360
942.825	0.0140018
942.903	0.0138204
942.981	0.0139677
943.059	0.0140888
943.137	0.0141491
943.215	0.0140158
943.293	0.0138051
943.371	0.0138611
943.450	0.0139367
943.528	0.0139763
943.606	0.0140533
943.684	0.0139690
943.762	0.0139048
943.840	0.0139150
943.918	0.0138811
943.996	0.0140720
944.075	0.0140048
944.153	0.0140333
944.231	0.0138429
944.309	0.0139539
944.387	0.0140334
944.465	0.0140166
944.543	0.0139464
944.621	0.0140307
944.700	0.0137878
944.778	0.0138614
944.856	0.0139441
944.934	0.0139237
945.012	0.0140450
945.090	0.0138670
945.168	0.0139563
945.246	0.0139815
945.325	0.0139191
945.403	0.0140654
945.481	0.0138637
945.559	0.0139622
945.637	0.0139445
945.715	0.0140295
945.793	0.0139906
945.871	0.0140204
945.950	0.0139802
946.028	0.0139886
946.106	0.0139912
946.184	0.0140261
946.262	0.0139346
946.340	0.0140240
946.418	0.0140263
946.496	0.0140212
946.575	0.0140057
946.653	0.0140903
946.731	0.0139717
946.809	0.0139785
946.887	0.0140086
946.965	0.0139751
947.043	0.0139269
947.121	0.0138110
947.200	0.0137962
947.278	0.0138298
947.356	0.0137727
947.434	0.0139265
947.512	0.0138354
947.590	0.0136931
947.668	0.0138566
947.746	0.0139883
947.825	0.0137646
947.903	0.0138339
947.981	0.0138972
948.059	0.0140183
948.137	0.0139470
948.215	0.0140908
948.293	0.0139191
948.371	0.0139829
948.450	0.0140612
948.528	0.0139114
948.606	0.0140765
948.684	0.0141587
948.762	0.0140325
948.840	0.0140173
948.918	0.0140614
948.996	0.0141058
949.075	0.0140887
949.153	0.0139845
949.231	0.0140633
949.309	0.0140717
949.387	0.0140487
949.465	0.0139989
949.543	0.0139499
949.621	0.0140644
949.700	0.0140028
949.778	0.0140841
949.856	0.0140335
949.934	0.0139319
950.012	0.0139950
950.090	0.0140469
950.168	0.0139901
950.246	0.0139749
950.325	0.0140069
950.403	0.0138705
950.481	0.0139734
950.559	0.0138747
950.637	0.0137846
950.715	0.0140205
950.793	0.0139922
950.871	0.0139085
950.950	0.0140048
951.028	0.0139990
951.106	0.0140484
951.184	0.0139999
951.262	0.0139789
951.340	0.0139671
951.418	0.0140004
951.496	0.0139398
951.575	0.0140738
951.653	0.0140383
951.731	0.0139627
951.809	0.0141385
951.887	0.0140972
951.965	0.0140049
952.043	0.0139561
952.121	0.0138988
952.200	0.0140772
952.278	0.0140501
952.356	0.0139311
952.434	0.0141321
952.512	0.0139845
952.590	0.0139547
952.668	0.0139155
952.746	0.0139695
952.825	0.0140282
952.903	0.0139634
952.981	0.0138956
953.059	0.0139051
953.137	0.0139599
953.215	0.0139204
953.293	0.0139436
953.371	0.0139351
953.450	0.0139058
953.528	0.0138383
953.606	0.0139707
953.684	0.0140125
953.762	0.0139590
953.840	0.0140092
953.918	0.0139539
953.996	0.0139464
954.075	0.0140157
954.153	0.0139582
954.231	0.0140487
954.309	0.0140932
954.387	0.0140272
954.465	0.0139172
954.543	0.0139425
954.621	0.0139970
954.700	0.0139330
954.778	0.0140184
954.856	0.0139008
954.934	0.0140647
955.012	0.0139060
955.090	0.0140812
955.168	0.0140644
955.246	0.0139694
955.325	0.0138908
955.403	0.0139487
955.481	0.0140249
955.559	0.0139934
955.637	0.0139223
955.715	0.0139718
955.793	0.0140385
955.871	0.0139650
955.950	0.0140061
956.028	0.0139693
956.106	0.0140405
956.184	0.0139989
956.262	0.0140781
956.340	0.0141133
956.418	0.0139636
956.496	0.0139355
956.575	0.0140195
956.653	0.0139360
956.731	0.0140450
956.809	0.0140754
956.887	0.0139320
956.965	0.0140884
957.043	0.0139709
957.121	0.0137990
957.200	0.0138600
957.278	0.0139460
957.356	0.0139661
957.434	0.0140092
957.512	0.0139851
957.590	0.0139747
957.668	0.0138741
957.746	0.0140028
957.825	0.0138488
957.903	0.0139642
957.981	0.0140129
958.059	0.0140267
958.137	0.0139248
958.215	0.0139880
958.293	0.0140215
958.371	0.0139564
958.450	0.0139694
958.528	0.0139980
958.606	0.0141769
958.684	0.0139781
958.762	0.0140084
958.840	0.0140147
958.918	0.0140701
958.996	0.0141019
959.075	0.0141602
959.153	0.0140347
959.231	0.0139224
959.309	0.0139137
959.387	0.0139727
959.465	0.0141666
959.543	0.0139986
959.621	0.0139272
959.700	0.0139124
959.778	0.0139854
959.856	0.0140630
959.934	0.0140586
960.012	0.0140211
960.090	0.0139974
960.168	0.0140817
960.246	0.0140871
960.325	0.0140162
960.403	0.0140561
960.481	0.0140221
960.559	0.0139384
960.637	0.0138898
960.715	0.0138528
960.793	0.0140436
960.871	0.0139429
960.950	0.0138976
961.028	0.0138956
961.106	0.0139256
961.184	0.0140546
961.262	0.0139478
961.340	0.0139238
961.418	0.0139929
961.496	0.0139252
961.575	0.0140551
961.653	0.0141051
961.731	0.0139676
961.809	0.0139960
961.887	0.0141983
961.965	0.0140038
962.043	0.0139339
962.121	0.0139721
962.200	0.0140247
962.278	0.0140353
962.356	0.0139933
962.434	0.0139085
962.512	0.0140036
962.590	0.0139096
962.668	0.0139680
962.746	0.0138776
962.825	0.0139059
962.903	0.0138531
962.981	0.0139412
963.059	0.0140647
963.137	0.0139743
963.215	0.0139980
963.293	0.0139960
963.371	0.0139735
963.450	0.0140357
963.528	0.0140196
963.606	0.0139485
963.684	0.0139584
963.762	0.0140108
963.840	0.0142120
963.918	0.0140418
963.996	0.0139917
964.075	0.0140333
964.153	0.0140282
964.231	0.0141001
964.309	0.0140077
964.387	0.0139683
964.465	0.0139311
964.543	0.0139651
964.621	0.0140293
964.700	0.0140651
964.778	0.0139424
964.856	0.0138753
964.934	0.0141046
965.012	0.0139672
965.090	0.0139460
965.168	0.0138947
965.246	0.0140786
965.325	0.0139500
965.403	0.0139314
965.481	0.0139683
965.559	0.0139612
965.637	0.0139336
965.715	0.0139151
965.793	0.0138991
965.871	0.0139704
965.950	0.0139312
966.028	0.0139429
966.106	0.0139088
966.184	0.0139621
966.262	0.0140228
966.340	0.0139156
966.418	0.0139307
966.496	0.0140612
966.575	0.0140128
966.653	0.0140662
966.731	0.0140311
966.809	0.0140172
966.887	0.0140527
966.965	0.0139629
967.043	0.0140211
967.121	0.0139890
967.200	0.0139997
967.278	0.0139893
967.356	0.0140639
967.434	0.0138486
967.512	0.0138905
967.590	0.0138812
967.668	0.0138523
967.746	0.0140269
967.825	0.0140110
967.903	0.0138970
967.981	0.0139072
968.059	0.0138673
968.137	0.0138406
968.215	0.0139543
968.293	0.0140462
968.371	0.0139813
968.450	0.0140406
968.528	0.0140159
968.606	0.0138210
968.684	0.0138631
968.762	0.0139587
968.840	0.0139229
968.918	0.0140110
968.996	0.0140538
969.075	0.0139336
969.153	0.0137592
969.231	0.0139749
969.309	0.0139866
969.387	0.0140049
969.465	0.0138152
969.543	0.0138934
969.621	0.0139091
969.700	0.0140015
969.778	0.0139973
969.856	0.0139986
969.934	0.0140835
970.012	0.0139661
970.090	0.0139199
970.168	0.0140131
970.246	0.0140212
970.325	0.0139455
970.403	0.0140477
970.481	0.0139158
970.559	0.0140694
970.637	0.0140401
970.715	0.0140636
970.793	0.0139154
970.871	0.0140662
970.950	0.0139384
971.028	0.0138460
971.106	0.0139785
971.184	0.0139516
971.262	0.0139026
971.340	0.0139011
971.418	0.0139633
971.496	0.0139305
971.575	0.0138359
971.653	0.0141842
971.731	0.0140547
971.809	0.0139886
971.887	0.0141390
971.965	0.0139323
972.043	0.0140503
972.121	0.0139919
972.200	0.0139245
972.278	0.0139352
972.356	0.0139899
972.434	0.0139641
972.512	0.0139448
972.590	0.0139705
972.668	0.0139948
972.746	0.0140270
972.825	0.0140714
972.903	0.0140290
972.981	0.0141356
973.059	0.0141220
973.137	0.0139893
973.215	0.0139527
973.293	0.0139709
973.371	0.0140636
973.450	0.0140318
973.528	0.0139288
973.606	0.0140030
973.684	0.0138740
973.762	0.0140697
973.840	0.0139046
973.918	0.0138660
973.996	0.0139962
974.075	0.0140639
974.153	0.0140982
974.231	0.0139256
974.309	0.0138753
974.387	0.0139569
974.465	0.0139753
974.543	0.0139687
974.621	0.0138309
974.700	0.0139083
974.778	0.0139360
974.856	0.0138448
974.934	0.0140577
975.012	0.0138599
975.090	0.0138435
975.168	0.0139454
975.246	0.0139812
975.325	0.0139564
975.403	0.0138409
975.481	0.0139108
975.559	0.0139178
975.637	0.0138992
975.715	0.0139192
975.793	0.0140298
975.871	0.0140401
975.950	0.0140741
976.028	0.0140575
976.106	0.0140323
976.184	0.0140504
976.262	0.0139727
976.340	0.0138951
976.418	0.0139175
976.496	0.0139072
976.575	0.0139251
976.653	0.0140614
976.731	0.0141302
976.809	0.0140250
976.887	0.0139885
976.965	0.0141175
977.043	0.0141539
977.121	0.0140551
977.200	0.0139575
977.278	0.0138829
977.356	0.0139179
977.434	0.0140326
977.512	0.0139986
977.590	0.0139568
977.668	0.0139780
977.746	0.0138821
977.825	0.0138326
977.903	0.0140525
977.981	0.0138579
978.059	0.0140025
978.137	0.0138795
978.215	0.0140639
978.293	0.0140332
978.371	0.0140042
978.450	0.0138148
978.528	0.0140129
978.606	0.0139837
978.684	0.0140799
978.762	0.0139149
978.840	0.0139345
978.918	0.0141689
978.996	0.0141949
979.075	0.0140593
979.153	0.0139848
979.231	0.0139864
979.309	0.0141544
979.387	0.0140162
979.465	0.0140076
979.543	0.0139943
979.621	0.0140015
979.700	0.0139771
979.778	0.0140565
979.856	0.0140267
979.934	0.0138946
980.012	0.0140571
980.090	0.0140575
980.168	0.0139596
980.246	0.0139767
980.325	0.0139945
980.403	0.0139327
980.481	0.0140546
980.559	0.0140343
980.637	0.0139985
980.715	0.0139919
980.793	0.0140955
980.871	0.0140496
980.950	0.0140632
981.028	0.0141761
981.106	0.0140431
981.184	0.0138901
981.262	0.0139980
981.340	0.0139582
981.418	0.0141334
981.496	0.0140242
981.575	0.0140451
981.653	0.0141089
981.731	0.0141187
981.809	0.0140767
981.887	0.0139912
981.965	0.0140433
982.043	0.0140179
982.121	0.0140329
982.200	0.0141380
982.278	0.0140855
982.356	0.0140778
982.434	0.0139837
982.512	0.0140354
982.590	0.0139098
982.668	0.0139497
982.746	0.0140279
982.825	0.0140560
982.903	0.0140475
982.981	0.0140270
983.059	0.0138583
983.137	0.0140977
983.215	0.0139493
983.293	0.0139808
983.371	0.0139190
983.450	0.0138107
983.528	0.0139618
983.606	0.0139458
983.684	0.0139117
983.762	0.0139757
983.840	0.0138613
983.918	0.0138452
983.996	0.0139209
984.075	0.0140192
984.153	0.0137289
984.231	0.0140310
984.309	0.0140157
984.387	0.0139095
984.465	0.0139159
984.543	0.0140956
984.621	0.0140117
984.700	0.0140166
984.778	0.0141238
984.856	0.0140646
984.934	0.0140165
985.012	0.0141557
985.090	0.0139439
985.168	0.0139371
985.246	0.0139874
985.325	0.0140005
985.403	0.0140714
985.481	0.0140270
985.559	0.0139342
985.637	0.0140076
985.715	0.0140000
985.793	0.0140301
985.871	0.0140907
985.950	0.0139718
986.028	0.0140261
986.106	0.0140174
986.184	0.0140469
986.262	0.0139689
986.340	0.0139054
986.418	0.0139057
986.496	0.0138691
986.575	0.0139971
986.653	0.0139980
986.731	0.0139648
986.809	0.0138713
986.887	0.0140450
986.965	0.0140090
987.043	0.0139890
987.121	0.0140624
987.200	0.0139615
987.278	0.0141392
987.356	0.0139199
987.434	0.0140359
987.512	0.0141502
987.590	0.0141300
987.668	0.0141184
987.746	0.0139800
987.825	0.0139952
987.903	0.0140543
987.981	0.0139585
988.059	0.0139502
988.137	0.0140369
988.215	0.0140123
988.293	0.0138354
988.371	0.0140002
988.450	0.0140509
988.528	0.0140492
988.606	0.0139488
988.684	0.0139294
988.762	0.0140115
988.840	0.0139961
988.918	0.0139396
988.996	0.0139776
989.075	0.0140018
989.153	0.0139431
989.231	0.0139645
989.309	0.0138563
989.387	0.0138918
989.465	0.0139671
989.543	0.0140199
989.621	0.0139940
989.700	0.0138186
989.778	0.0138975
989.856	0.0139533
989.934	0.0141906
990.012	0.0140665
990.090	0.0141180
990.168	0.0139711
990.246	0.0138878
990.325	0.0140799
990.403	0.0141353
990.481	0.0141269
990.559	0.0140123
990.637	0.0138624
990.715	0.0140246
990.793	0.0139711
990.871	0.0140359
990.950	0.0138270
991.028	0.0139609
991.106	0.0140141
991.184	0.0139938
991.262	0.0139797
991.340	0.0140439
991.418	0.0140456
991.496	0.0139835
991.575	0.0139729
991.653	0.0139250
991.731	0.0140032
991.809	0.0140459
991.887	0.0141495
991.965	0.0140997
992.043	0.0141009
992.121	0.0139726
992.200	0.0138684
992.278	0.0140218
992.356	0.0140741
992.434	0.0140557
992.512	0.0140987
992.590	0.0138671
992.668	0.0138529
992.746	0.0138741
992.825	0.0140650
992.903	0.0138809
992.981	0.0139050
993.059	0.0139258
993.137	0.0140671
993.215	0.0139751
993.293	0.0139855
993.371	0.0139500
993.450	0.0138288
993.528	0.0139387
993.606	0.0139407
993.684	0.0139799
993.762	0.0139433
993.840	0.0140273
993.918	0.0140089
993.996	0.0139680
994.075	0.0139809
994.153	0.0138657
994.231	0.0139310
994.309	0.0139919
994.387	0.0139908
994.465	0.0139687
994.543	0.0140586
994.621	0.0139740
994.700	0.0140755
994.778	0.0140326
994.856	0.0139687
994.934	0.0138384
995.012	0.0139494
995.090	0.0139992
995.168	0.0138975
995.246	0.0140300
995.325	0.0138399
995.403	0.0137379
995.481	0.0138480
995.559	0.0139854
995.637	0.0139128
995.715	0.0138575
995.793	0.0139056
995.871	0.0139325
995.950	0.0139361
996.028	0.0140440
996.106	0.0140391
996.184	0.0140015
996.262	0.0139868
996.340	0.0139513
996.418	0.0139893
996.496	0.0140253
996.575	0.0139605
996.653	0.0139334
996.731	0.0137329
996.809	0.0138470
996.887	0.0140174
996.965	0.0139474
997.043	0.0138292
997.121	0.0139383
997.200	0.0140145
997.278	0.0137920
997.356	0.0138465
997.434	0.0140339
997.512	0.0138084
997.590	0.0138417
997.668	0.0138640
997.746	0.0139851
997.825	0.0140612
997.903	0.0139820
997.981	0.0140730
998.059	0.0141387
998.137	0.0140688
998.215	0.0140813
998.293	0.0140379
998.371	0.0141846
998.450	0.0139896
998.528	0.0139466
998.606	0.0139795
998.684	0.0140948
998.762	0.0138450
998.840	0.0139023
998.918	0.0139872
