05/04/2022	20:48:36	Ver.	4.1	UNKNOWN
Optical Delay	678.996401	Delta X		0.078125	Sweeps	1	Scan Rate	0/0
Coordinates	Axis 1	NaN	Axis 2	NaN	Axis 3	NaN	Axis 4	NaN	Axis 5	NaN	Axis 6	0.000000
TX Power	0.000000	RX Power	0.000000

678.996	0.0139675
679.075	0.0140780
679.153	0.0137727
679.231	0.0139675
679.309	0.0139020
679.387	0.0140076
679.465	0.0139642
679.543	0.0139185
679.621	0.0140108
679.700	0.0139878
679.778	0.0139178
679.856	0.0138820
679.934	0.0139634
680.012	0.0140082
680.090	0.0138615
680.168	0.0138649
680.246	0.0140204
680.325	0.0139142
680.403	0.0139787
680.481	0.0140604
680.559	0.0139836
680.637	0.0139047
680.715	0.0139153
680.793	0.0140157
680.871	0.0138270
680.950	0.0138831
681.028	0.0139636
681.106	0.0140016
681.184	0.0137333
681.262	0.0139681
681.340	0.0140608
681.418	0.0138452
681.496	0.0139085
681.575	0.0139346
681.653	0.0140826
681.731	0.0140703
681.809	0.0139684
681.887	0.0139201
681.965	0.0138908
682.043	0.0139211
682.121	0.0140808
682.200	0.0138592
682.278	0.0139487
682.356	0.0139342
682.434	0.0138393
682.512	0.0139104
682.590	0.0139718
682.668	0.0138881
682.746	0.0139157
682.825	0.0140202
682.903	0.0137791
682.981	0.0138773
683.059	0.0140110
683.137	0.0139157
683.215	0.0139496
683.293	0.0138406
683.371	0.0139086
683.450	0.0140760
683.528	0.0139565
683.606	0.0138021
683.684	0.0139585
683.762	0.0139495
683.840	0.0140258
683.918	0.0139697
683.996	0.0139831
684.075	0.0138608
684.153	0.0140470
684.231	0.0138814
684.309	0.0137280
684.387	0.0139198
684.465	0.0139198
684.543	0.0138960
684.621	0.0139038
684.700	0.0139006
684.778	0.0139555
684.856	0.0139953
684.934	0.0139903
685.012	0.0139013
685.090	0.0138472
685.168	0.0139951
685.246	0.0139632
685.325	0.0140054
685.403	0.0139485
685.481	0.0139349
685.559	0.0137667
685.637	0.0139704
685.715	0.0139771
685.793	0.0138767
685.871	0.0139228
685.950	0.0140262
686.028	0.0140940
686.106	0.0140022
686.184	0.0139404
686.262	0.0137646
686.340	0.0139269
686.418	0.0139056
686.496	0.0139619
686.575	0.0138360
686.653	0.0138196
686.731	0.0138319
686.809	0.0139384
686.887	0.0141539
686.965	0.0139993
687.043	0.0139223
687.121	0.0138217
687.200	0.0140365
687.278	0.0140343
687.356	0.0140088
687.434	0.0139347
687.512	0.0140164
687.590	0.0139867
687.668	0.0139008
687.746	0.0138214
687.825	0.0139304
687.903	0.0139565
687.981	0.0140299
688.059	0.0139457
688.137	0.0140031
688.215	0.0139243
688.293	0.0139645
688.371	0.0140445
688.450	0.0140041
688.528	0.0139021
688.606	0.0139338
688.684	0.0139994
688.762	0.0139893
688.840	0.0139999
688.918	0.0139928
688.996	0.0139514
689.075	0.0138870
689.153	0.0139942
689.231	0.0139351
689.309	0.0138748
689.387	0.0140412
689.465	0.0139989
689.543	0.0139280
689.621	0.0139967
689.700	0.0138963
689.778	0.0138763
689.856	0.0139001
689.934	0.0140654
690.012	0.0140551
690.090	0.0140068
690.168	0.0139889
690.246	0.0139584
690.325	0.0139233
690.403	0.0139660
690.481	0.0139821
690.559	0.0140116
690.637	0.0140746
690.715	0.0141103
690.793	0.0140586
690.871	0.0139104
690.950	0.0139825
691.028	0.0139235
691.106	0.0140042
691.184	0.0139243
691.262	0.0139043
691.340	0.0139038
691.418	0.0138290
691.496	0.0139614
691.575	0.0139697
691.653	0.0140538
691.731	0.0139694
691.809	0.0138267
691.887	0.0139165
691.965	0.0138177
692.043	0.0139096
692.121	0.0140569
692.200	0.0140470
692.278	0.0140028
692.356	0.0140208
692.434	0.0137477
692.512	0.0138710
692.590	0.0139346
692.668	0.0141048
692.746	0.0139676
692.825	0.0138479
692.903	0.0139218
692.981	0.0139078
693.059	0.0138026
693.137	0.0138743
693.215	0.0139552
693.293	0.0138380
693.371	0.0139471
693.450	0.0140120
693.528	0.0139306
693.606	0.0140074
693.684	0.0139330
693.762	0.0139935
693.840	0.0138791
693.918	0.0140615
693.996	0.0140173
694.075	0.0138673
694.153	0.0139013
694.231	0.0139305
694.309	0.0138628
694.387	0.0138880
694.465	0.0138560
694.543	0.0140125
694.621	0.0140592
694.700	0.0139625
694.778	0.0139466
694.856	0.0138943
694.934	0.0139411
695.012	0.0138267
695.090	0.0139623
695.168	0.0138898
695.246	0.0139561
695.325	0.0140322
695.403	0.0139677
695.481	0.0139240
695.559	0.0139075
695.637	0.0139612
695.715	0.0139815
695.793	0.0138565
695.871	0.0138332
695.950	0.0138547
696.028	0.0138824
696.106	0.0140382
696.184	0.0139678
696.262	0.0139410
696.340	0.0138575
696.418	0.0138309
696.496	0.0140221
696.575	0.0139645
696.653	0.0139848
696.731	0.0139825
696.809	0.0139851
696.887	0.0139275
696.965	0.0140110
697.043	0.0140205
697.121	0.0138939
697.200	0.0139113
697.278	0.0139788
697.356	0.0138401
697.434	0.0138866
697.512	0.0139553
697.590	0.0140920
697.668	0.0140302
697.746	0.0139077
697.825	0.0139362
697.903	0.0139886
697.981	0.0139252
698.059	0.0140015
698.137	0.0139044
698.215	0.0140304
698.293	0.0139444
698.371	0.0140072
698.450	0.0139823
698.528	0.0138163
698.606	0.0139591
698.684	0.0139427
698.762	0.0140013
698.840	0.0139108
698.918	0.0139194
698.996	0.0141576
699.075	0.0140588
699.153	0.0138331
699.231	0.0139214
699.309	0.0139414
699.387	0.0139254
699.465	0.0139485
699.543	0.0139895
699.621	0.0140900
699.700	0.0138783
699.778	0.0139017
699.856	0.0140324
699.934	0.0140594
700.012	0.0140334
700.090	0.0138522
700.168	0.0138651
700.246	0.0140323
700.325	0.0140659
700.403	0.0139870
700.481	0.0139818
700.559	0.0138990
700.637	0.0140031
700.715	0.0139994
700.793	0.0138962
700.871	0.0138174
700.950	0.0139404
701.028	0.0140347
701.106	0.0139582
701.184	0.0138522
701.262	0.0140671
701.340	0.0140402
701.418	0.0139520
701.496	0.0140153
701.575	0.0139976
701.653	0.0140800
701.731	0.0140026
701.809	0.0138960
701.887	0.0139046
701.965	0.0140295
702.043	0.0138309
702.121	0.0140291
702.200	0.0140115
702.278	0.0139373
702.356	0.0140034
702.434	0.0139793
702.512	0.0140760
702.590	0.0140091
702.668	0.0141678
702.746	0.0139099
702.825	0.0139052
702.903	0.0140527
702.981	0.0140057
703.059	0.0140057
703.137	0.0138428
703.215	0.0139288
703.293	0.0139976
703.371	0.0138673
703.450	0.0139262
703.528	0.0138238
703.606	0.0140670
703.684	0.0139773
703.762	0.0138518
703.840	0.0139672
703.918	0.0139478
703.996	0.0139658
704.075	0.0141357
704.153	0.0139369
704.231	0.0139007
704.309	0.0139547
704.387	0.0138345
704.465	0.0139619
704.543	0.0139219
704.621	0.0138904
704.700	0.0139261
704.778	0.0140016
704.856	0.0139808
704.934	0.0138228
705.012	0.0138145
705.090	0.0139848
705.168	0.0139467
705.246	0.0139590
705.325	0.0139342
705.403	0.0138873
705.481	0.0138963
705.559	0.0139683
705.637	0.0139537
705.715	0.0138731
705.793	0.0140199
705.871	0.0139339
705.950	0.0140504
706.028	0.0138953
706.106	0.0138702
706.184	0.0138942
706.262	0.0139301
706.340	0.0140201
706.418	0.0139002
706.496	0.0138895
706.575	0.0140207
706.653	0.0139795
706.731	0.0139977
706.809	0.0139707
706.887	0.0140508
706.965	0.0139069
707.043	0.0140338
707.121	0.0139757
707.200	0.0140992
707.278	0.0139674
707.356	0.0137522
707.434	0.0138120
707.512	0.0140471
707.590	0.0140034
707.668	0.0140370
707.746	0.0140569
707.825	0.0139124
707.903	0.0138223
707.981	0.0139295
708.059	0.0140032
708.137	0.0139056
708.215	0.0138162
708.293	0.0138362
708.371	0.0139636
708.450	0.0139561
708.528	0.0137708
708.606	0.0139219
708.684	0.0138936
708.762	0.0138150
708.840	0.0139191
708.918	0.0138931
708.996	0.0139145
709.075	0.0139410
709.153	0.0138562
709.231	0.0140202
709.309	0.0139568
709.387	0.0140299
709.465	0.0139295
709.543	0.0137872
709.621	0.0138847
709.700	0.0140849
709.778	0.0139458
709.856	0.0138875
709.934	0.0139790
710.012	0.0140018
710.090	0.0140107
710.168	0.0139856
710.246	0.0138609
710.325	0.0140318
710.403	0.0139890
710.481	0.0140709
710.559	0.0140087
710.637	0.0139696
710.715	0.0139942
710.793	0.0139252
710.871	0.0139522
710.950	0.0138954
711.028	0.0138821
711.106	0.0139902
711.184	0.0139663
711.262	0.0138769
711.340	0.0140401
711.418	0.0140376
711.496	0.0139877
711.575	0.0141280
711.653	0.0140437
711.731	0.0140295
711.809	0.0140284
711.887	0.0138621
711.965	0.0139122
712.043	0.0140787
712.121	0.0140179
712.200	0.0139146
712.278	0.0139423
712.356	0.0139811
712.434	0.0141621
712.512	0.0142238
712.590	0.0139760
712.668	0.0140449
712.746	0.0141352
712.825	0.0140388
712.903	0.0141051
712.981	0.0140540
713.059	0.0140744
713.137	0.0140333
713.215	0.0141971
713.293	0.0141551
713.371	0.0140909
713.450	0.0141231
713.528	0.0141220
713.606	0.0140146
713.684	0.0140742
713.762	0.0140453
713.840	0.0141281
713.918	0.0140980
713.996	0.0138840
714.075	0.0139265
714.153	0.0140809
714.231	0.0141170
714.309	0.0140911
714.387	0.0141963
714.465	0.0141264
714.543	0.0141262
714.621	0.0140917
714.700	0.0141075
714.778	0.0140908
714.856	0.0139249
714.934	0.0141214
715.012	0.0140511
715.090	0.0139075
715.168	0.0137691
715.246	0.0139668
715.325	0.0137251
715.403	0.0137524
715.481	0.0137254
715.559	0.0136803
715.637	0.0137749
715.715	0.0138541
715.793	0.0139114
715.871	0.0137938
715.950	0.0139251
716.028	0.0141025
716.106	0.0139136
716.184	0.0139163
716.262	0.0139517
716.340	0.0139809
716.418	0.0140590
716.496	0.0140459
716.575	0.0139559
716.653	0.0138639
716.731	0.0140012
716.809	0.0137727
716.887	0.0138358
716.965	0.0137885
717.043	0.0136813
717.121	0.0136973
717.200	0.0136559
717.278	0.0138238
717.356	0.0138256
717.434	0.0139442
717.512	0.0140328
717.590	0.0139653
717.668	0.0139459
717.746	0.0140004
717.825	0.0140041
717.903	0.0139957
717.981	0.0139450
718.059	0.0139734
718.137	0.0139725
718.215	0.0138470
718.293	0.0139806
718.371	0.0136465
718.450	0.0137747
718.528	0.0138097
718.606	0.0138010
718.684	0.0137726
718.762	0.0139242
718.840	0.0140847
718.918	0.0140118
718.996	0.0140041
719.075	0.0142702
719.153	0.0142637
719.231	0.0143073
719.309	0.0142900
719.387	0.0143526
719.465	0.0143294
719.543	0.0142882
719.621	0.0142532
719.700	0.0141781
719.778	0.0140674
719.856	0.0141945
719.934	0.0140466
720.012	0.0139748
720.090	0.0140022
720.168	0.0139079
720.246	0.0138266
720.325	0.0138052
720.403	0.0138934
720.481	0.0138968
720.559	0.0138480
720.637	0.0140105
720.715	0.0139610
720.793	0.0140253
720.871	0.0140213
720.950	0.0140920
721.028	0.0139292
721.106	0.0138287
721.184	0.0138855
721.262	0.0136713
721.340	0.0137745
721.418	0.0138159
721.496	0.0136515
721.575	0.0136742
721.653	0.0136154
721.731	0.0136372
721.809	0.0137169
721.887	0.0138628
721.965	0.0139052
722.043	0.0141096
722.121	0.0139472
722.200	0.0141338
722.278	0.0141862
722.356	0.0140941
722.434	0.0140568
722.512	0.0141196
722.590	0.0142147
722.668	0.0141220
722.746	0.0140799
722.825	0.0141306
722.903	0.0140248
722.981	0.0140752
723.059	0.0140443
723.137	0.0139609
723.215	0.0139538
723.293	0.0139776
723.371	0.0139889
723.450	0.0140088
723.528	0.0138978
723.606	0.0140319
723.684	0.0140418
723.762	0.0140482
723.840	0.0140386
723.918	0.0138863
723.996	0.0141073
724.075	0.0141531
724.153	0.0140505
724.231	0.0140420
724.309	0.0142295
724.387	0.0142076
724.465	0.0141125
724.543	0.0143268
724.621	0.0141499
724.700	0.0141274
724.778	0.0141011
724.856	0.0140359
724.934	0.0140948
725.012	0.0140216
725.090	0.0141347
725.168	0.0141288
725.246	0.0140179
725.325	0.0141093
725.403	0.0139720
725.481	0.0141444
725.559	0.0141521
725.637	0.0140510
725.715	0.0140578
725.793	0.0141521
725.871	0.0141243
725.950	0.0141196
726.028	0.0141384
726.106	0.0141378
726.184	0.0139357
726.262	0.0140048
726.340	0.0139243
726.418	0.0139243
726.496	0.0137908
726.575	0.0137079
726.653	0.0137548
726.731	0.0136882
726.809	0.0136543
726.887	0.0138209
726.965	0.0137798
727.043	0.0136179
727.121	0.0137450
727.200	0.0138352
727.278	0.0138525
727.356	0.0138776
727.434	0.0138737
727.512	0.0140052
727.590	0.0139307
727.668	0.0140172
727.746	0.0141303
727.825	0.0140723
727.903	0.0139835
727.981	0.0140552
728.059	0.0140761
728.137	0.0141837
728.215	0.0142100
728.293	0.0141048
728.371	0.0140723
728.450	0.0140864
728.528	0.0140588
728.606	0.0139671
728.684	0.0138693
728.762	0.0139656
728.840	0.0140864
728.918	0.0138862
728.996	0.0139718
729.075	0.0140456
729.153	0.0138605
729.231	0.0140298
729.309	0.0140649
729.387	0.0140080
729.465	0.0141430
729.543	0.0139881
729.621	0.0141413
729.700	0.0138573
729.778	0.0139500
729.856	0.0142312
729.934	0.0139914
730.012	0.0138385
730.090	0.0139787
730.168	0.0140117
730.246	0.0140600
730.325	0.0139783
730.403	0.0140965
730.481	0.0141371
730.559	0.0141216
730.637	0.0141357
730.715	0.0139240
730.793	0.0140774
730.871	0.0141777
730.950	0.0141177
731.028	0.0140150
731.106	0.0139791
731.184	0.0140356
731.262	0.0140748
731.340	0.0138712
731.418	0.0139568
731.496	0.0138422
731.575	0.0137193
731.653	0.0138598
731.731	0.0139148
731.809	0.0138879
731.887	0.0139846
731.965	0.0138657
732.043	0.0138374
732.121	0.0138561
732.200	0.0136640
732.278	0.0139367
732.356	0.0139200
732.434	0.0139167
732.512	0.0138217
732.590	0.0138254
732.668	0.0138851
732.746	0.0138564
732.825	0.0137395
732.903	0.0138121
732.981	0.0137875
733.059	0.0137882
733.137	0.0136037
733.215	0.0137466
733.293	0.0137186
733.371	0.0136706
733.450	0.0137424
733.528	0.0137278
733.606	0.0139748
733.684	0.0138101
733.762	0.0139471
733.840	0.0139501
733.918	0.0140188
733.996	0.0140031
734.075	0.0140849
734.153	0.0142394
734.231	0.0142395
734.309	0.0142096
734.387	0.0139660
734.465	0.0141836
734.543	0.0142515
734.621	0.0141190
734.700	0.0140453
734.778	0.0140206
734.856	0.0140813
734.934	0.0139610
735.012	0.0140155
735.090	0.0139732
735.168	0.0139466
735.246	0.0141521
735.325	0.0139780
735.403	0.0138821
735.481	0.0139066
735.559	0.0140025
735.637	0.0138680
735.715	0.0139781
735.793	0.0139386
735.871	0.0140818
735.950	0.0141503
736.028	0.0140547
736.106	0.0140957
736.184	0.0141026
736.262	0.0140482
736.340	0.0141327
736.418	0.0141763
736.496	0.0141287
736.575	0.0140887
736.653	0.0140877
736.731	0.0141247
736.809	0.0139534
736.887	0.0140561
736.965	0.0139697
737.043	0.0138992
737.121	0.0139787
737.200	0.0138755
737.278	0.0138526
737.356	0.0138084
737.434	0.0137968
737.512	0.0138100
737.590	0.0138979
737.668	0.0137700
737.746	0.0137313
737.825	0.0138235
737.903	0.0137493
737.981	0.0138842
738.059	0.0140768
738.137	0.0139731
738.215	0.0138860
738.293	0.0139557
738.371	0.0140056
738.450	0.0138992
738.528	0.0138615
738.606	0.0139101
738.684	0.0139439
738.762	0.0140051
738.840	0.0140542
738.918	0.0139154
738.996	0.0138922
739.075	0.0140306
739.153	0.0138473
739.231	0.0139436
739.309	0.0138974
739.387	0.0139243
739.465	0.0139602
739.543	0.0140099
739.621	0.0139581
739.700	0.0140537
739.778	0.0139842
739.856	0.0139540
739.934	0.0138688
740.012	0.0140185
740.090	0.0140836
740.168	0.0141496
740.246	0.0139558
740.325	0.0138995
740.403	0.0140469
740.481	0.0140992
740.559	0.0140555
740.637	0.0141515
740.715	0.0139716
740.793	0.0141900
740.871	0.0140989
740.950	0.0142012
741.028	0.0140804
741.106	0.0139867
741.184	0.0140652
741.262	0.0139121
741.340	0.0139494
741.418	0.0138850
741.496	0.0139024
741.575	0.0139319
741.653	0.0137696
741.731	0.0137543
741.809	0.0137943
741.887	0.0136832
741.965	0.0137174
742.043	0.0137301
742.121	0.0137121
742.200	0.0138152
742.278	0.0138409
742.356	0.0139600
742.434	0.0137709
742.512	0.0139390
742.590	0.0139839
742.668	0.0139200
742.746	0.0139848
742.825	0.0139817
742.903	0.0139423
742.981	0.0140330
743.059	0.0142432
743.137	0.0141019
743.215	0.0140666
743.293	0.0139410
743.371	0.0140597
743.450	0.0140061
743.528	0.0139268
743.606	0.0138517
743.684	0.0140496
743.762	0.0140755
743.840	0.0139546
743.918	0.0140454
743.996	0.0139846
744.075	0.0139851
744.153	0.0140182
744.231	0.0140510
744.309	0.0138442
744.387	0.0138400
744.465	0.0138619
744.543	0.0139214
744.621	0.0140034
744.700	0.0138963
744.778	0.0138689
744.856	0.0139320
744.934	0.0139308
745.012	0.0138457
745.090	0.0138210
745.168	0.0140519
745.246	0.0140276
745.325	0.0140877
745.403	0.0140643
745.481	0.0139523
745.559	0.0139003
745.637	0.0139378
745.715	0.0140136
745.793	0.0139323
745.871	0.0138813
745.950	0.0139048
746.028	0.0140381
746.106	0.0139491
746.184	0.0139252
746.262	0.0140060
746.340	0.0140659
746.418	0.0141647
746.496	0.0140656
746.575	0.0140977
746.653	0.0141503
746.731	0.0142874
746.809	0.0141536
746.887	0.0141763
746.965	0.0140453
747.043	0.0141389
747.121	0.0140716
747.200	0.0140620
747.278	0.0141038
747.356	0.0140376
747.434	0.0140515
747.512	0.0139736
747.590	0.0138884
747.668	0.0140176
747.746	0.0138712
747.825	0.0139082
747.903	0.0138576
747.981	0.0138444
748.059	0.0139392
748.137	0.0139804
748.215	0.0140230
748.293	0.0140306
748.371	0.0139720
748.450	0.0139661
748.528	0.0139305
748.606	0.0140369
748.684	0.0141026
748.762	0.0141533
748.840	0.0140624
748.918	0.0139628
748.996	0.0141386
749.075	0.0141946
749.153	0.0141865
749.231	0.0141593
749.309	0.0140195
749.387	0.0141872
749.465	0.0140985
749.543	0.0140751
749.621	0.0139594
749.700	0.0139826
749.778	0.0140506
749.856	0.0139752
749.934	0.0140079
750.012	0.0140781
750.090	0.0139780
750.168	0.0138916
750.246	0.0138133
750.325	0.0140186
750.403	0.0138219
750.481	0.0138367
750.559	0.0138354
750.637	0.0138786
750.715	0.0138876
750.793	0.0140048
750.871	0.0140411
750.950	0.0140406
751.028	0.0140936
751.106	0.0139763
751.184	0.0140502
751.262	0.0140044
751.340	0.0139549
751.418	0.0139722
751.496	0.0139870
751.575	0.0139638
751.653	0.0139766
751.731	0.0139012
751.809	0.0139430
751.887	0.0139849
751.965	0.0138975
752.043	0.0138284
752.121	0.0137727
752.200	0.0138134
752.278	0.0137971
752.356	0.0138947
752.434	0.0139618
752.512	0.0138501
752.590	0.0137323
752.668	0.0138725
752.746	0.0139384
752.825	0.0139339
752.903	0.0139237
752.981	0.0139603
753.059	0.0139240
753.137	0.0142262
753.215	0.0141388
753.293	0.0141143
753.371	0.0140228
753.450	0.0140705
753.528	0.0140202
753.606	0.0140638
753.684	0.0141006
753.762	0.0140721
753.840	0.0140096
753.918	0.0140778
753.996	0.0139481
754.075	0.0138506
754.153	0.0139776
754.231	0.0140904
754.309	0.0140417
754.387	0.0139565
754.465	0.0140524
754.543	0.0139519
754.621	0.0140704
754.700	0.0139571
754.778	0.0140068
754.856	0.0141479
754.934	0.0140489
755.012	0.0141418
755.090	0.0142068
755.168	0.0140993
755.246	0.0139056
755.325	0.0140267
755.403	0.0140775
755.481	0.0139085
755.559	0.0139876
755.637	0.0139960
755.715	0.0139803
755.793	0.0139667
755.871	0.0140406
755.950	0.0141057
756.028	0.0140910
756.106	0.0139001
756.184	0.0139351
756.262	0.0137318
756.340	0.0138648
756.418	0.0139719
756.496	0.0139736
756.575	0.0139283
756.653	0.0138729
756.731	0.0138705
756.809	0.0140163
756.887	0.0139214
756.965	0.0139172
757.043	0.0139886
757.121	0.0138273
757.200	0.0139035
757.278	0.0138201
757.356	0.0138030
757.434	0.0138893
757.512	0.0138786
757.590	0.0139147
757.668	0.0138946
757.746	0.0138555
757.825	0.0140898
757.903	0.0140437
757.981	0.0139212
758.059	0.0140681
758.137	0.0140471
758.215	0.0141141
758.293	0.0140936
758.371	0.0140205
758.450	0.0141605
758.528	0.0140749
758.606	0.0140649
758.684	0.0140962
758.762	0.0140117
758.840	0.0139051
758.918	0.0140641
758.996	0.0141781
759.075	0.0140995
759.153	0.0141962
759.231	0.0139482
759.309	0.0138732
759.387	0.0139543
759.465	0.0139877
759.543	0.0140923
759.621	0.0139744
759.700	0.0138126
759.778	0.0140742
759.856	0.0139972
759.934	0.0139686
760.012	0.0138831
760.090	0.0139987
760.168	0.0139162
760.246	0.0140797
760.325	0.0140222
760.403	0.0140643
760.481	0.0141462
760.559	0.0139590
760.637	0.0139963
760.715	0.0139404
760.793	0.0140813
760.871	0.0140226
760.950	0.0140984
761.028	0.0139401
761.106	0.0139182
761.184	0.0139782
761.262	0.0139719
761.340	0.0140032
761.418	0.0140145
761.496	0.0137981
761.575	0.0137166
761.653	0.0137486
761.731	0.0138014
761.809	0.0138127
761.887	0.0137242
761.965	0.0138546
762.043	0.0139379
762.121	0.0138103
762.200	0.0138795
762.278	0.0138544
762.356	0.0138868
762.434	0.0138264
762.512	0.0140667
762.590	0.0139651
762.668	0.0139611
762.746	0.0139403
762.825	0.0140067
762.903	0.0139848
762.981	0.0139027
763.059	0.0141611
763.137	0.0139796
763.215	0.0139333
763.293	0.0141064
763.371	0.0139980
763.450	0.0141066
763.528	0.0141308
763.606	0.0139182
763.684	0.0140051
763.762	0.0139773
763.840	0.0139639
763.918	0.0138828
763.996	0.0138811
764.075	0.0139753
764.153	0.0139452
764.231	0.0138572
764.309	0.0139594
764.387	0.0139831
764.465	0.0140401
764.543	0.0139857
764.621	0.0139260
764.700	0.0141177
764.778	0.0139765
764.856	0.0140379
764.934	0.0139741
765.012	0.0139659
765.090	0.0140400
765.168	0.0140467
765.246	0.0139957
765.325	0.0140846
765.403	0.0140669
765.481	0.0141255
765.559	0.0140092
765.637	0.0141235
765.715	0.0139853
765.793	0.0140722
765.871	0.0140231
765.950	0.0140558
766.028	0.0140488
766.106	0.0140305
766.184	0.0139309
766.262	0.0138721
766.340	0.0140582
766.418	0.0140907
766.496	0.0141068
766.575	0.0139989
766.653	0.0139873
766.731	0.0139292
766.809	0.0138232
766.887	0.0139684
766.965	0.0139271
767.043	0.0139160
767.121	0.0139073
767.200	0.0139279
767.278	0.0138792
767.356	0.0139620
767.434	0.0139050
767.512	0.0139346
767.590	0.0139259
767.668	0.0139558
767.746	0.0139252
767.825	0.0138428
767.903	0.0139288
767.981	0.0140750
768.059	0.0140005
768.137	0.0140499
768.215	0.0139457
768.293	0.0139017
768.371	0.0140232
768.450	0.0139271
768.528	0.0139954
768.606	0.0140430
768.684	0.0139079
768.762	0.0139861
768.840	0.0140290
768.918	0.0138675
768.996	0.0139502
769.075	0.0139930
769.153	0.0139030
769.231	0.0139724
769.309	0.0138549
769.387	0.0137808
769.465	0.0138402
769.543	0.0139467
769.621	0.0139105
769.700	0.0141155
769.778	0.0139861
769.856	0.0139072
769.934	0.0140067
770.012	0.0138496
770.090	0.0140700
770.168	0.0138423
770.246	0.0139895
770.325	0.0140988
770.403	0.0139024
770.481	0.0138685
770.559	0.0141605
770.637	0.0140922
770.715	0.0140273
770.793	0.0140837
770.871	0.0139448
770.950	0.0140926
771.028	0.0140712
771.106	0.0140615
771.184	0.0138840
771.262	0.0139553
771.340	0.0139529
771.418	0.0140125
771.496	0.0139312
771.575	0.0140663
771.653	0.0139635
771.731	0.0138624
771.809	0.0140182
771.887	0.0139496
771.965	0.0140036
772.043	0.0139959
772.121	0.0139965
772.200	0.0139287
772.278	0.0139474
772.356	0.0138208
772.434	0.0139805
772.512	0.0139600
772.590	0.0139979
772.668	0.0140097
772.746	0.0138519
772.825	0.0140057
772.903	0.0139754
772.981	0.0139055
773.059	0.0140658
773.137	0.0140652
773.215	0.0138907
773.293	0.0138630
773.371	0.0139999
773.450	0.0139129
773.528	0.0138950
773.606	0.0139202
773.684	0.0139661
773.762	0.0139468
773.840	0.0138782
773.918	0.0139925
773.996	0.0139047
774.075	0.0139757
774.153	0.0139867
774.231	0.0138179
774.309	0.0138913
774.387	0.0138850
774.465	0.0139074
774.543	0.0139161
774.621	0.0141225
774.700	0.0139098
774.778	0.0138193
774.856	0.0140188
774.934	0.0140231
775.012	0.0139094
775.090	0.0138278
775.168	0.0139014
775.246	0.0140070
775.325	0.0139986
775.403	0.0139194
775.481	0.0138881
775.559	0.0138861
775.637	0.0139819
775.715	0.0139332
775.793	0.0138957
775.871	0.0140052
775.950	0.0140725
776.028	0.0139622
776.106	0.0139486
776.184	0.0138432
776.262	0.0139980
776.340	0.0139993
776.418	0.0139151
776.496	0.0140206
776.575	0.0139184
776.653	0.0138992
776.731	0.0139488
776.809	0.0138905
776.887	0.0140482
776.965	0.0140910
777.043	0.0140616
777.121	0.0139439
777.200	0.0140617
777.278	0.0140901
777.356	0.0139911
777.434	0.0140051
777.512	0.0139134
777.590	0.0140878
777.668	0.0140674
777.746	0.0139439
777.825	0.0140611
777.903	0.0138970
777.981	0.0140331
778.059	0.0139754
778.137	0.0140121
778.215	0.0139351
778.293	0.0139971
778.371	0.0140870
778.450	0.0140102
778.528	0.0139655
778.606	0.0139157
778.684	0.0139678
778.762	0.0138994
778.840	0.0141142
778.918	0.0140497
778.996	0.0140005
779.075	0.0140029
779.153	0.0140369
779.231	0.0138705
779.309	0.0138889
779.387	0.0140636
779.465	0.0140184
779.543	0.0140217
779.621	0.0140273
779.700	0.0137636
779.778	0.0139156
779.856	0.0140620
779.934	0.0140240
780.012	0.0140005
780.090	0.0138697
780.168	0.0138585
780.246	0.0139229
780.325	0.0140382
780.403	0.0140496
780.481	0.0140314
780.559	0.0141309
780.637	0.0140229
780.715	0.0141180
780.793	0.0140691
780.871	0.0139526
780.950	0.0139690
781.028	0.0140383
781.106	0.0141643
781.184	0.0141452
781.262	0.0139581
781.340	0.0140884
781.418	0.0140244
781.496	0.0139771
781.575	0.0139189
781.653	0.0141042
781.731	0.0140414
781.809	0.0140128
781.887	0.0138710
781.965	0.0140746
782.043	0.0139913
782.121	0.0139046
782.200	0.0140007
782.278	0.0140231
782.356	0.0140363
782.434	0.0139775
782.512	0.0140868
782.590	0.0140250
782.668	0.0138511
782.746	0.0139129
782.825	0.0139246
782.903	0.0139509
782.981	0.0140867
783.059	0.0140166
783.137	0.0139476
783.215	0.0139307
783.293	0.0139056
783.371	0.0140160
783.450	0.0139098
783.528	0.0139579
783.606	0.0139595
783.684	0.0138425
783.762	0.0140437
783.840	0.0139529
783.918	0.0139269
783.996	0.0140493
784.075	0.0138582
784.153	0.0139454
784.231	0.0138826
784.309	0.0139209
784.387	0.0140295
784.465	0.0140288
784.543	0.0139786
784.621	0.0140337
784.700	0.0139703
784.778	0.0139834
784.856	0.0140295
784.934	0.0140476
785.012	0.0138796
785.090	0.0139552
785.168	0.0139124
785.246	0.0139268
785.325	0.0140253
785.403	0.0140485
785.481	0.0138780
785.559	0.0139320
785.637	0.0140002
785.715	0.0137701
785.793	0.0138669
785.871	0.0140572
785.950	0.0138316
786.028	0.0138583
786.106	0.0140576
786.184	0.0141010
786.262	0.0139664
786.340	0.0140508
786.418	0.0140185
786.496	0.0139883
786.575	0.0139656
786.653	0.0140291
786.731	0.0140697
786.809	0.0140675
786.887	0.0140578
786.965	0.0139323
787.043	0.0139999
787.121	0.0139328
787.200	0.0139238
787.278	0.0140399
787.356	0.0141183
787.434	0.0140387
787.512	0.0139815
787.590	0.0139592
787.668	0.0139792
787.746	0.0138187
787.825	0.0139131
787.903	0.0140577
787.981	0.0139124
788.059	0.0138085
788.137	0.0138903
788.215	0.0139677
788.293	0.0138738
788.371	0.0139092
788.450	0.0140537
788.528	0.0140417
788.606	0.0141093
788.684	0.0140674
788.762	0.0140237
788.840	0.0140361
788.918	0.0140179
788.996	0.0140244
789.075	0.0141243
789.153	0.0140678
789.231	0.0140775
789.309	0.0140604
789.387	0.0139908
789.465	0.0139210
789.543	0.0139051
789.621	0.0141276
789.700	0.0141345
789.778	0.0140238
789.856	0.0139636
789.934	0.0139082
790.012	0.0140338
790.090	0.0140711
790.168	0.0138303
790.246	0.0140755
790.325	0.0139803
790.403	0.0138953
790.481	0.0139706
790.559	0.0139320
790.637	0.0139255
790.715	0.0140070
790.793	0.0138180
790.871	0.0138361
790.950	0.0139501
791.028	0.0139647
791.106	0.0140191
791.184	0.0138715
791.262	0.0139218
791.340	0.0139529
791.418	0.0138457
791.496	0.0139394
791.575	0.0139315
791.653	0.0139242
791.731	0.0139056
791.809	0.0140602
791.887	0.0140526
791.965	0.0139210
792.043	0.0139241
792.121	0.0140319
792.200	0.0139822
792.278	0.0139968
792.356	0.0139456
792.434	0.0139204
792.512	0.0138598
792.590	0.0139317
792.668	0.0140293
792.746	0.0140166
792.825	0.0140168
792.903	0.0139149
792.981	0.0139640
793.059	0.0139588
793.137	0.0139767
793.215	0.0140698
793.293	0.0138358
793.371	0.0139865
793.450	0.0138061
793.528	0.0139164
793.606	0.0140488
793.684	0.0139723
793.762	0.0138738
793.840	0.0139330
793.918	0.0139545
793.996	0.0140668
794.075	0.0139652
794.153	0.0138475
794.231	0.0140313
794.309	0.0141368
794.387	0.0139870
794.465	0.0139469
794.543	0.0140820
794.621	0.0139813
794.700	0.0140279
794.778	0.0138829
794.856	0.0139333
794.934	0.0140588
795.012	0.0138216
795.090	0.0139701
795.168	0.0139558
795.246	0.0140902
795.325	0.0140205
795.403	0.0139289
795.481	0.0140944
795.559	0.0139976
795.637	0.0139323
795.715	0.0139657
795.793	0.0140253
795.871	0.0138756
795.950	0.0140892
796.028	0.0140346
796.106	0.0140549
796.184	0.0141325
796.262	0.0141069
796.340	0.0140890
796.418	0.0139423
796.496	0.0140498
796.575	0.0140202
796.653	0.0140822
796.731	0.0139745
796.809	0.0139127
796.887	0.0139647
796.965	0.0141283
797.043	0.0141028
797.121	0.0139613
797.200	0.0139831
797.278	0.0139547
797.356	0.0140655
797.434	0.0139733
797.512	0.0140333
797.590	0.0139908
797.668	0.0140470
797.746	0.0139586
797.825	0.0139218
797.903	0.0140110
797.981	0.0139570
798.059	0.0138189
798.137	0.0139276
798.215	0.0138986
798.293	0.0140185
798.371	0.0138662
798.450	0.0139469
798.528	0.0140028
798.606	0.0139064
798.684	0.0140095
798.762	0.0139855
798.840	0.0139110
798.918	0.0138860
798.996	0.0140100
799.075	0.0139515
799.153	0.0139420
799.231	0.0139471
799.309	0.0139844
799.387	0.0140518
799.465	0.0140303
799.543	0.0139793
799.621	0.0140401
799.700	0.0140198
799.778	0.0139713
799.856	0.0139915
799.934	0.0138631
800.012	0.0139045
800.090	0.0138567
800.168	0.0140157
800.246	0.0141121
800.325	0.0139097
800.403	0.0138720
800.481	0.0139585
800.559	0.0138995
800.637	0.0139050
800.715	0.0140084
800.793	0.0139619
800.871	0.0140712
800.950	0.0138853
801.028	0.0140367
801.106	0.0139609
801.184	0.0138432
801.262	0.0138829
801.340	0.0138395
801.418	0.0139118
801.496	0.0140617
801.575	0.0139841
801.653	0.0138245
801.731	0.0138216
801.809	0.0139407
801.887	0.0139388
801.965	0.0139940
802.043	0.0138343
802.121	0.0138844
802.200	0.0140137
802.278	0.0138971
802.356	0.0138763
802.434	0.0141058
802.512	0.0138963
802.590	0.0137804
802.668	0.0139384
802.746	0.0138973
802.825	0.0139075
802.903	0.0138898
802.981	0.0139334
803.059	0.0138361
803.137	0.0139201
803.215	0.0138064
803.293	0.0138906
803.371	0.0138739
803.450	0.0138065
803.528	0.0137170
803.606	0.0138760
803.684	0.0138713
803.762	0.0139608
803.840	0.0139212
803.918	0.0140096
803.996	0.0139380
804.075	0.0139008
804.153	0.0139905
804.231	0.0138916
804.309	0.0140121
804.387	0.0139797
804.465	0.0139933
804.543	0.0140182
804.621	0.0140267
804.700	0.0138812
804.778	0.0139285
804.856	0.0139494
804.934	0.0140304
805.012	0.0139468
805.090	0.0139584
805.168	0.0139000
805.246	0.0139465
805.325	0.0139909
805.403	0.0140746
805.481	0.0139343
805.559	0.0139460
805.637	0.0140121
805.715	0.0141714
805.793	0.0140438
805.871	0.0139816
805.950	0.0140131
806.028	0.0140206
806.106	0.0140210
806.184	0.0140291
806.262	0.0140602
806.340	0.0140787
806.418	0.0140010
806.496	0.0139621
806.575	0.0139404
806.653	0.0138826
806.731	0.0140819
806.809	0.0140052
806.887	0.0139980
806.965	0.0141567
807.043	0.0140513
807.121	0.0141176
807.200	0.0139156
807.278	0.0139996
807.356	0.0140553
807.434	0.0139407
807.512	0.0138837
807.590	0.0139980
807.668	0.0139465
807.746	0.0139643
807.825	0.0137888
807.903	0.0140598
807.981	0.0139056
808.059	0.0140427
808.137	0.0139973
808.215	0.0140021
808.293	0.0140427
808.371	0.0138815
808.450	0.0140831
808.528	0.0140504
808.606	0.0140423
808.684	0.0140535
808.762	0.0139361
808.840	0.0140502
808.918	0.0140363
808.996	0.0139587
809.075	0.0139132
809.153	0.0139049
809.231	0.0140871
809.309	0.0138717
809.387	0.0139625
809.465	0.0140355
809.543	0.0139338
809.621	0.0138868
809.700	0.0139188
809.778	0.0139619
809.856	0.0141371
809.934	0.0139320
810.012	0.0140089
810.090	0.0139744
810.168	0.0138709
810.246	0.0139776
810.325	0.0139581
810.403	0.0138644
810.481	0.0140612
810.559	0.0139027
810.637	0.0140493
810.715	0.0139695
810.793	0.0138403
810.871	0.0139232
810.950	0.0140437
811.028	0.0139618
811.106	0.0139354
811.184	0.0139769
811.262	0.0139397
811.340	0.0139910
811.418	0.0139101
811.496	0.0139420
811.575	0.0138329
811.653	0.0140232
811.731	0.0139719
811.809	0.0140376
811.887	0.0141323
811.965	0.0140222
812.043	0.0139359
812.121	0.0138371
812.200	0.0139618
812.278	0.0139839
812.356	0.0139817
812.434	0.0138549
812.512	0.0139487
812.590	0.0140276
812.668	0.0138834
812.746	0.0138042
812.825	0.0139100
812.903	0.0139891
812.981	0.0140425
813.059	0.0140668
813.137	0.0141091
813.215	0.0140607
813.293	0.0139288
813.371	0.0140546
813.450	0.0139639
813.528	0.0139502
813.606	0.0139361
813.684	0.0140165
813.762	0.0140415
813.840	0.0138879
813.918	0.0139276
813.996	0.0139260
814.075	0.0139866
814.153	0.0139964
814.231	0.0138378
814.309	0.0139184
814.387	0.0139297
814.465	0.0139198
814.543	0.0138359
814.621	0.0139573
814.700	0.0139828
814.778	0.0139230
814.856	0.0139228
814.934	0.0139537
815.012	0.0139381
815.090	0.0139720
815.168	0.0139156
815.246	0.0140367
815.325	0.0141155
815.403	0.0139474
815.481	0.0138799
815.559	0.0139919
815.637	0.0139285
815.715	0.0139142
815.793	0.0137989
815.871	0.0139182
815.950	0.0139613
816.028	0.0139818
816.106	0.0140054
816.184	0.0139876
816.262	0.0139673
816.340	0.0139889
816.418	0.0139606
816.496	0.0139177
816.575	0.0139310
816.653	0.0140415
816.731	0.0139941
816.809	0.0139225
816.887	0.0140303
816.965	0.0139439
817.043	0.0138984
817.121	0.0139071
817.200	0.0138659
817.278	0.0139575
817.356	0.0138771
817.434	0.0139061
817.512	0.0139399
817.590	0.0138556
817.668	0.0140887
817.746	0.0140862
817.825	0.0140297
817.903	0.0140073
817.981	0.0139856
818.059	0.0139177
818.137	0.0139332
818.215	0.0140170
818.293	0.0138721
818.371	0.0139516
818.450	0.0140660
818.528	0.0141004
818.606	0.0140263
818.684	0.0139099
818.762	0.0140281
818.840	0.0139314
818.918	0.0139063
818.996	0.0139016
819.075	0.0140761
819.153	0.0139900
819.231	0.0138509
819.309	0.0139639
819.387	0.0138089
819.465	0.0140182
819.543	0.0139063
819.621	0.0139671
819.700	0.0138248
819.778	0.0139266
819.856	0.0140856
819.934	0.0138998
820.012	0.0139879
820.090	0.0139233
820.168	0.0139342
820.246	0.0140737
820.325	0.0140908
820.403	0.0140239
820.481	0.0139028
820.559	0.0138982
820.637	0.0141158
820.715	0.0139688
820.793	0.0138692
820.871	0.0139203
820.950	0.0140505
821.028	0.0140012
821.106	0.0139459
821.184	0.0138718
821.262	0.0139461
821.340	0.0139339
821.418	0.0139256
821.496	0.0139666
821.575	0.0139258
821.653	0.0139845
821.731	0.0138583
821.809	0.0138509
821.887	0.0139426
821.965	0.0138716
822.043	0.0138659
822.121	0.0138464
822.200	0.0139249
822.278	0.0138235
822.356	0.0139642
822.434	0.0138992
822.512	0.0139983
822.590	0.0140182
822.668	0.0138601
822.746	0.0139471
822.825	0.0138532
822.903	0.0138713
822.981	0.0138314
823.059	0.0138824
823.137	0.0139214
823.215	0.0138660
823.293	0.0138659
823.371	0.0138051
823.450	0.0139196
823.528	0.0138916
823.606	0.0139735
823.684	0.0139279
823.762	0.0138169
823.840	0.0138156
823.918	0.0138789
823.996	0.0138627
824.075	0.0140442
824.153	0.0140229
824.231	0.0138209
824.309	0.0139156
824.387	0.0139970
824.465	0.0139626
824.543	0.0139113
824.621	0.0139445
824.700	0.0140429
824.778	0.0140540
824.856	0.0140889
824.934	0.0138317
825.012	0.0140504
825.090	0.0140060
825.168	0.0138494
825.246	0.0139772
825.325	0.0140820
825.403	0.0140730
825.481	0.0138799
825.559	0.0139474
825.637	0.0140209
825.715	0.0140222
825.793	0.0139368
825.871	0.0140867
825.950	0.0140411
826.028	0.0139487
826.106	0.0140654
826.184	0.0139333
826.262	0.0140319
826.340	0.0140218
826.418	0.0142372
826.496	0.0140643
826.575	0.0139936
826.653	0.0139909
826.731	0.0140472
826.809	0.0140318
826.887	0.0141121
826.965	0.0140565
827.043	0.0139468
827.121	0.0140590
827.200	0.0140145
827.278	0.0139397
827.356	0.0141161
827.434	0.0139800
827.512	0.0137846
827.590	0.0138815
827.668	0.0141119
827.746	0.0141135
827.825	0.0140447
827.903	0.0140966
827.981	0.0140821
828.059	0.0139343
828.137	0.0139165
828.215	0.0140729
828.293	0.0139757
828.371	0.0139880
828.450	0.0141112
828.528	0.0140839
828.606	0.0140733
828.684	0.0140384
828.762	0.0140219
828.840	0.0139814
828.918	0.0139519
828.996	0.0140882
829.075	0.0139861
829.153	0.0138482
829.231	0.0139493
829.309	0.0140293
829.387	0.0139565
829.465	0.0140173
829.543	0.0139820
829.621	0.0139100
829.700	0.0139182
829.778	0.0139973
829.856	0.0139048
829.934	0.0139460
830.012	0.0138751
830.090	0.0139298
830.168	0.0139041
830.246	0.0140668
830.325	0.0141172
830.403	0.0138858
830.481	0.0139314
830.559	0.0139560
830.637	0.0140682
830.715	0.0140376
830.793	0.0139073
830.871	0.0140095
830.950	0.0140093
831.028	0.0139641
831.106	0.0138655
831.184	0.0137393
831.262	0.0138552
831.340	0.0139338
831.418	0.0139162
831.496	0.0138126
831.575	0.0138732
831.653	0.0138913
831.731	0.0139151
831.809	0.0139342
831.887	0.0139146
831.965	0.0137123
832.043	0.0139236
832.121	0.0138638
832.200	0.0139319
832.278	0.0139628
832.356	0.0139866
832.434	0.0139235
832.512	0.0138245
832.590	0.0139642
832.668	0.0139825
832.746	0.0138769
832.825	0.0137997
832.903	0.0139211
832.981	0.0139271
833.059	0.0138157
833.137	0.0138917
833.215	0.0139041
833.293	0.0138346
833.371	0.0138901
833.450	0.0139130
833.528	0.0140215
833.606	0.0137652
833.684	0.0138605
833.762	0.0139440
833.840	0.0139854
833.918	0.0137537
833.996	0.0138635
834.075	0.0137683
834.153	0.0138889
834.231	0.0139251
834.309	0.0139474
834.387	0.0138330
834.465	0.0138489
834.543	0.0138683
834.621	0.0138596
834.700	0.0139867
834.778	0.0138899
834.856	0.0139223
834.934	0.0140096
835.012	0.0139445
835.090	0.0139104
835.168	0.0139363
835.246	0.0137962
835.325	0.0139680
835.403	0.0138866
835.481	0.0137910
835.559	0.0138138
835.637	0.0139245
835.715	0.0139134
835.793	0.0139873
835.871	0.0139357
835.950	0.0138651
836.028	0.0138567
836.106	0.0138409
836.184	0.0138551
836.262	0.0139082
836.340	0.0139291
836.418	0.0140052
836.496	0.0140763
836.575	0.0140186
836.653	0.0140192
836.731	0.0139666
836.809	0.0140162
836.887	0.0139262
836.965	0.0139054
837.043	0.0138803
837.121	0.0140641
837.200	0.0141409
837.278	0.0140331
837.356	0.0140068
837.434	0.0140237
837.512	0.0140588
837.590	0.0140373
837.668	0.0140404
837.746	0.0140664
837.825	0.0139503
837.903	0.0140237
837.981	0.0137904
838.059	0.0140314
838.137	0.0139902
838.215	0.0140132
838.293	0.0139497
838.371	0.0139941
838.450	0.0140144
838.528	0.0139857
838.606	0.0139876
838.684	0.0138836
838.762	0.0140043
838.840	0.0140690
838.918	0.0140215
838.996	0.0139664
839.075	0.0139647
839.153	0.0138551
839.231	0.0138630
839.309	0.0138191
839.387	0.0138309
839.465	0.0139308
839.543	0.0139233
839.621	0.0139218
839.700	0.0139503
839.778	0.0140348
839.856	0.0139194
839.934	0.0139217
840.012	0.0139346
840.090	0.0139618
840.168	0.0139128
840.246	0.0139220
840.325	0.0139415
840.403	0.0139705
840.481	0.0139063
840.559	0.0138076
840.637	0.0138770
840.715	0.0139838
840.793	0.0139696
840.871	0.0139919
840.950	0.0138808
841.028	0.0137572
841.106	0.0138923
841.184	0.0138598
841.262	0.0139466
841.340	0.0139554
841.418	0.0139887
841.496	0.0138102
841.575	0.0138934
841.653	0.0138055
841.731	0.0139481
841.809	0.0140123
841.887	0.0137805
841.965	0.0139590
842.043	0.0140144
842.121	0.0137945
842.200	0.0138439
842.278	0.0138311
842.356	0.0138419
842.434	0.0138489
842.512	0.0139705
842.590	0.0140914
842.668	0.0140248
842.746	0.0139491
842.825	0.0138000
842.903	0.0140140
842.981	0.0140603
843.059	0.0138216
843.137	0.0139276
843.215	0.0139775
843.293	0.0139771
843.371	0.0140301
843.450	0.0139228
843.528	0.0138967
843.606	0.0140204
843.684	0.0138727
843.762	0.0139189
843.840	0.0138953
843.918	0.0140398
843.996	0.0139402
844.075	0.0139046
844.153	0.0138474
844.231	0.0139066
844.309	0.0137504
844.387	0.0139278
844.465	0.0139025
844.543	0.0138506
844.621	0.0140891
844.700	0.0139676
844.778	0.0139822
844.856	0.0138123
844.934	0.0139540
845.012	0.0139228
845.090	0.0139980
845.168	0.0140649
845.246	0.0140170
845.325	0.0138990
845.403	0.0140067
845.481	0.0140796
845.559	0.0139484
845.637	0.0139789
845.715	0.0139496
845.793	0.0139172
845.871	0.0140420
845.950	0.0140196
846.028	0.0138982
846.106	0.0141059
846.184	0.0140221
846.262	0.0139549
846.340	0.0139530
846.418	0.0139165
846.496	0.0139177
846.575	0.0139750
846.653	0.0139691
846.731	0.0139880
846.809	0.0141312
846.887	0.0140359
846.965	0.0139212
847.043	0.0139568
847.121	0.0138969
847.200	0.0141222
847.278	0.0141146
847.356	0.0140075
847.434	0.0141134
847.512	0.0141688
847.590	0.0140874
847.668	0.0139658
847.746	0.0139533
847.825	0.0140862
847.903	0.0140540
847.981	0.0141331
848.059	0.0140148
848.137	0.0140666
848.215	0.0140146
848.293	0.0141929
848.371	0.0139120
848.450	0.0139919
848.528	0.0140898
848.606	0.0142550
848.684	0.0140597
848.762	0.0140344
848.840	0.0139980
848.918	0.0140182
848.996	0.0139421
849.075	0.0140957
849.153	0.0140929
849.231	0.0141163
849.309	0.0140358
849.387	0.0140462
849.465	0.0140587
849.543	0.0139679
849.621	0.0138976
849.700	0.0140437
849.778	0.0141534
849.856	0.0140167
849.934	0.0139137
850.012	0.0140881
850.090	0.0139283
850.168	0.0139068
850.246	0.0140514
850.325	0.0139551
850.403	0.0139383
850.481	0.0140070
850.559	0.0139544
850.637	0.0137897
850.715	0.0138363
850.793	0.0139128
850.871	0.0139851
850.950	0.0138364
851.028	0.0138137
851.106	0.0140315
851.184	0.0138680
851.262	0.0139428
851.340	0.0140949
851.418	0.0141453
851.496	0.0140089
851.575	0.0139047
851.653	0.0139630
851.731	0.0139984
851.809	0.0138455
851.887	0.0139475
851.965	0.0139442
852.043	0.0140145
852.121	0.0139376
852.200	0.0138752
852.278	0.0138644
852.356	0.0139252
852.434	0.0140011
852.512	0.0139029
852.590	0.0139219
852.668	0.0138742
852.746	0.0138776
852.825	0.0139741
852.903	0.0138684
852.981	0.0139656
853.059	0.0139041
853.137	0.0139508
853.215	0.0139309
853.293	0.0139315
853.371	0.0140619
853.450	0.0140041
853.528	0.0140124
853.606	0.0139648
853.684	0.0138202
853.762	0.0140170
853.840	0.0140211
853.918	0.0139399
853.996	0.0139285
854.075	0.0138925
854.153	0.0139141
854.231	0.0139927
854.309	0.0139503
854.387	0.0138287
854.465	0.0138561
854.543	0.0139597
854.621	0.0139662
854.700	0.0138368
854.778	0.0138888
854.856	0.0139701
854.934	0.0138934
855.012	0.0139882
855.090	0.0139494
855.168	0.0139738
855.246	0.0140036
855.325	0.0140016
855.403	0.0140553
855.481	0.0140508
855.559	0.0140440
855.637	0.0138264
855.715	0.0140652
855.793	0.0140052
855.871	0.0139809
855.950	0.0140050
856.028	0.0140867
856.106	0.0139301
856.184	0.0138586
856.262	0.0139908
856.340	0.0139242
856.418	0.0139275
856.496	0.0140310
856.575	0.0138167
856.653	0.0139276
856.731	0.0139295
856.809	0.0138563
856.887	0.0138990
856.965	0.0139199
857.043	0.0139154
857.121	0.0137001
857.200	0.0138028
857.278	0.0140880
857.356	0.0139784
857.434	0.0138972
857.512	0.0139490
857.590	0.0139193
857.668	0.0140054
857.746	0.0138891
857.825	0.0138053
857.903	0.0140437
857.981	0.0139406
858.059	0.0139828
858.137	0.0140939
858.215	0.0141196
858.293	0.0139264
858.371	0.0138171
858.450	0.0139359
858.528	0.0140969
858.606	0.0139730
858.684	0.0138287
858.762	0.0139886
858.840	0.0139745
858.918	0.0138776
858.996	0.0139684
859.075	0.0140385
859.153	0.0140190
859.231	0.0139714
859.309	0.0140209
859.387	0.0139629
859.465	0.0140276
859.543	0.0139883
859.621	0.0139910
859.700	0.0140315
859.778	0.0139497
859.856	0.0140578
859.934	0.0138948
860.012	0.0140710
860.090	0.0139112
860.168	0.0138576
860.246	0.0139763
860.325	0.0140708
860.403	0.0139404
860.481	0.0139250
860.559	0.0139778
860.637	0.0139639
860.715	0.0140191
860.793	0.0139250
860.871	0.0140771
860.950	0.0139270
861.028	0.0140575
861.106	0.0139585
861.184	0.0138750
861.262	0.0141238
861.340	0.0139764
861.418	0.0139391
861.496	0.0140650
861.575	0.0139046
861.653	0.0139132
861.731	0.0141692
861.809	0.0141129
861.887	0.0141353
861.965	0.0139410
862.043	0.0140521
862.121	0.0139297
862.200	0.0140587
862.278	0.0139552
862.356	0.0139421
862.434	0.0140336
862.512	0.0139607
862.590	0.0141249
862.668	0.0140202
862.746	0.0139065
862.825	0.0139723
862.903	0.0140923
862.981	0.0140570
863.059	0.0140928
863.137	0.0138726
863.215	0.0137491
863.293	0.0140119
863.371	0.0139249
863.450	0.0139957
863.528	0.0139874
863.606	0.0139319
863.684	0.0140797
863.762	0.0140958
863.840	0.0138239
863.918	0.0139857
863.996	0.0138960
864.075	0.0139526
864.153	0.0139379
864.231	0.0139696
864.309	0.0139883
864.387	0.0138953
864.465	0.0139890
864.543	0.0140755
864.621	0.0139571
864.700	0.0139481
864.778	0.0139668
864.856	0.0138598
864.934	0.0139088
865.012	0.0140541
865.090	0.0139132
865.168	0.0138368
865.246	0.0137994
865.325	0.0139485
865.403	0.0139765
865.481	0.0140506
865.559	0.0139277
865.637	0.0139053
865.715	0.0139509
865.793	0.0139464
865.871	0.0140886
865.950	0.0139700
866.028	0.0139668
866.106	0.0140173
866.184	0.0139359
866.262	0.0138964
866.340	0.0137906
866.418	0.0139731
866.496	0.0139836
866.575	0.0139680
866.653	0.0139259
866.731	0.0138712
866.809	0.0139468
866.887	0.0138244
866.965	0.0140439
867.043	0.0139590
867.121	0.0139362
867.200	0.0138980
867.278	0.0139732
867.356	0.0140676
867.434	0.0139019
867.512	0.0138382
867.590	0.0139611
867.668	0.0139619
867.746	0.0140968
867.825	0.0139431
867.903	0.0139255
867.981	0.0139545
868.059	0.0139584
868.137	0.0140689
868.215	0.0138993
868.293	0.0139595
868.371	0.0139799
868.450	0.0139697
868.528	0.0139474
868.606	0.0140299
868.684	0.0139631
868.762	0.0139975
868.840	0.0140216
868.918	0.0139299
868.996	0.0139257
869.075	0.0140034
869.153	0.0138685
869.231	0.0138299
869.309	0.0139091
869.387	0.0140882
869.465	0.0141313
869.543	0.0140393
869.621	0.0140431
869.700	0.0139154
869.778	0.0139379
869.856	0.0139865
869.934	0.0138104
870.012	0.0139049
870.090	0.0140022
870.168	0.0141228
870.246	0.0139566
870.325	0.0139044
870.403	0.0139259
870.481	0.0139944
870.559	0.0141143
870.637	0.0140372
870.715	0.0139805
870.793	0.0139816
870.871	0.0139529
870.950	0.0139129
871.028	0.0140199
871.106	0.0140131
871.184	0.0140379
871.262	0.0139130
871.340	0.0139229
871.418	0.0140177
871.496	0.0141270
871.575	0.0138409
871.653	0.0138814
871.731	0.0140279
871.809	0.0140488
871.887	0.0139342
871.965	0.0139447
872.043	0.0140046
872.121	0.0139941
872.200	0.0140925
872.278	0.0139381
872.356	0.0138751
872.434	0.0139502
872.512	0.0139166
872.590	0.0139233
872.668	0.0139920
872.746	0.0138873
872.825	0.0139618
872.903	0.0139695
872.981	0.0140141
873.059	0.0139646
873.137	0.0139732
873.215	0.0139515
873.293	0.0140105
873.371	0.0140622
873.450	0.0139970
873.528	0.0139124
873.606	0.0138892
873.684	0.0139938
873.762	0.0140658
873.840	0.0139613
873.918	0.0138962
873.996	0.0138860
874.075	0.0140271
874.153	0.0139877
874.231	0.0139983
874.309	0.0138847
874.387	0.0140018
874.465	0.0139973
874.543	0.0140849
874.621	0.0140073
874.700	0.0139712
874.778	0.0139224
874.856	0.0139820
874.934	0.0140810
875.012	0.0140168
875.090	0.0140684
875.168	0.0140412
875.246	0.0140508
875.325	0.0141094
875.403	0.0138828
875.481	0.0139141
875.559	0.0140028
875.637	0.0139261
875.715	0.0140202
875.793	0.0139144
875.871	0.0140448
875.950	0.0138918
876.028	0.0139712
876.106	0.0139574
876.184	0.0139197
876.262	0.0139586
876.340	0.0138915
876.418	0.0139603
876.496	0.0138729
876.575	0.0140299
876.653	0.0140389
876.731	0.0140938
876.809	0.0139694
876.887	0.0140295
876.965	0.0139494
877.043	0.0140990
877.121	0.0139984
877.200	0.0140845
877.278	0.0139060
877.356	0.0139867
877.434	0.0140296
877.512	0.0140202
877.590	0.0138487
877.668	0.0141045
877.746	0.0140660
877.825	0.0139754
877.903	0.0140516
877.981	0.0139304
878.059	0.0140800
878.137	0.0140646
878.215	0.0140004
878.293	0.0140006
878.371	0.0139827
878.450	0.0138949
878.528	0.0139992
878.606	0.0140869
878.684	0.0140828
878.762	0.0139617
878.840	0.0139719
878.918	0.0140457
878.996	0.0139416
879.075	0.0138895
879.153	0.0139422
879.231	0.0142063
879.309	0.0140905
879.387	0.0139523
879.465	0.0140221
879.543	0.0140103
879.621	0.0139665
879.700	0.0138935
879.778	0.0139171
879.856	0.0139519
879.934	0.0140465
880.012	0.0138755
880.090	0.0139633
880.168	0.0140281
880.246	0.0139986
880.325	0.0139151
880.403	0.0139601
880.481	0.0140334
880.559	0.0138553
880.637	0.0140284
880.715	0.0139715
880.793	0.0138849
880.871	0.0139704
880.950	0.0139107
881.028	0.0140265
881.106	0.0138458
881.184	0.0140128
881.262	0.0138719
881.340	0.0140018
881.418	0.0139187
881.496	0.0139806
881.575	0.0137807
881.653	0.0139066
881.731	0.0139008
881.809	0.0140135
881.887	0.0139608
881.965	0.0138642
882.043	0.0139781
882.121	0.0140835
882.200	0.0139096
882.278	0.0138697
882.356	0.0140350
882.434	0.0141199
882.512	0.0139125
882.590	0.0139459
882.668	0.0139278
882.746	0.0141061
882.825	0.0139149
882.903	0.0139124
882.981	0.0140328
883.059	0.0138708
883.137	0.0138984
883.215	0.0140360
883.293	0.0141738
883.371	0.0139899
883.450	0.0139814
883.528	0.0138708
883.606	0.0139139
883.684	0.0137933
883.762	0.0138956
883.840	0.0140948
883.918	0.0140523
883.996	0.0140218
884.075	0.0140414
884.153	0.0141674
884.231	0.0141142
884.309	0.0139909
884.387	0.0140515
884.465	0.0139416
884.543	0.0140350
884.621	0.0140022
884.700	0.0138854
884.778	0.0138525
884.856	0.0140913
884.934	0.0139152
885.012	0.0139687
885.090	0.0139735
885.168	0.0139465
885.246	0.0139912
885.325	0.0138768
885.403	0.0139267
885.481	0.0139281
885.559	0.0139888
885.637	0.0138732
885.715	0.0140115
885.793	0.0139950
885.871	0.0137721
885.950	0.0139704
886.028	0.0140307
886.106	0.0140791
886.184	0.0139258
886.262	0.0139353
886.340	0.0139473
886.418	0.0140182
886.496	0.0138799
886.575	0.0140812
886.653	0.0139655
886.731	0.0138089
886.809	0.0139283
886.887	0.0139420
886.965	0.0139488
887.043	0.0139861
887.121	0.0140992
887.200	0.0139920
887.278	0.0139291
887.356	0.0139558
887.434	0.0139715
887.512	0.0140266
887.590	0.0140042
887.668	0.0142071
887.746	0.0140141
887.825	0.0138800
887.903	0.0139735
887.981	0.0140612
888.059	0.0139964
888.137	0.0140206
888.215	0.0141164
888.293	0.0141004
888.371	0.0140678
888.450	0.0140202
888.528	0.0140241
888.606	0.0140221
888.684	0.0140662
888.762	0.0140337
888.840	0.0141966
888.918	0.0140284
888.996	0.0140295
889.075	0.0141585
889.153	0.0138955
889.231	0.0140115
889.309	0.0140161
889.387	0.0140092
889.465	0.0140008
889.543	0.0140021
889.621	0.0140609
889.700	0.0139906
889.778	0.0140469
889.856	0.0139137
889.934	0.0140296
890.012	0.0140977
890.090	0.0140285
890.168	0.0140620
890.246	0.0139200
890.325	0.0138285
890.403	0.0140266
890.481	0.0140213
890.559	0.0139822
890.637	0.0139465
890.715	0.0140630
890.793	0.0140548
890.871	0.0139175
890.950	0.0138361
891.028	0.0139473
891.106	0.0139606
891.184	0.0139961
891.262	0.0139133
891.340	0.0140145
891.418	0.0139401
891.496	0.0139237
891.575	0.0139774
891.653	0.0139669
891.731	0.0139137
891.809	0.0139852
891.887	0.0138439
891.965	0.0138926
892.043	0.0139514
892.121	0.0139383
892.200	0.0139253
892.278	0.0140351
892.356	0.0139457
892.434	0.0140405
892.512	0.0139495
892.590	0.0139102
892.668	0.0138971
892.746	0.0139829
892.825	0.0139629
892.903	0.0138257
892.981	0.0139420
893.059	0.0139241
893.137	0.0141144
893.215	0.0138247
893.293	0.0138193
893.371	0.0139747
893.450	0.0138291
893.528	0.0139008
893.606	0.0138403
893.684	0.0139568
893.762	0.0140344
893.840	0.0139243
893.918	0.0138757
893.996	0.0138920
894.075	0.0139005
894.153	0.0137609
894.231	0.0139575
894.309	0.0140398
894.387	0.0138184
894.465	0.0139246
894.543	0.0138577
894.621	0.0139648
894.700	0.0139325
894.778	0.0138990
894.856	0.0140700
894.934	0.0139936
895.012	0.0140142
895.090	0.0139200
895.168	0.0139172
895.246	0.0139302
895.325	0.0139718
895.403	0.0139151
895.481	0.0139566
895.559	0.0141508
895.637	0.0140671
895.715	0.0139047
895.793	0.0140246
895.871	0.0139970
895.950	0.0139426
896.028	0.0139970
896.106	0.0139648
896.184	0.0139319
896.262	0.0139996
896.340	0.0139555
896.418	0.0140105
896.496	0.0140688
896.575	0.0140244
896.653	0.0139753
896.731	0.0141389
896.809	0.0140773
896.887	0.0140020
896.965	0.0140262
897.043	0.0139444
897.121	0.0139816
897.200	0.0140768
897.278	0.0140276
897.356	0.0139645
897.434	0.0140348
897.512	0.0139662
897.590	0.0140238
897.668	0.0140443
897.746	0.0141039
897.825	0.0139869
897.903	0.0139077
897.981	0.0141084
898.059	0.0140704
898.137	0.0139434
898.215	0.0140574
898.293	0.0140649
898.371	0.0139749
898.450	0.0140559
898.528	0.0139324
898.606	0.0139719
898.684	0.0139476
898.762	0.0139398
898.840	0.0140260
898.918	0.0141229
898.996	0.0140619
899.075	0.0140270
899.153	0.0140803
899.231	0.0139650
899.309	0.0139745
899.387	0.0139975
899.465	0.0139502
899.543	0.0139965
899.621	0.0139070
899.700	0.0139854
899.778	0.0139575
899.856	0.0139527
899.934	0.0140360
900.012	0.0140759
900.090	0.0139077
900.168	0.0140075
900.246	0.0140790
900.325	0.0141396
900.403	0.0140050
900.481	0.0140189
900.559	0.0139359
900.637	0.0140727
900.715	0.0139772
900.793	0.0139396
900.871	0.0140541
900.950	0.0140877
901.028	0.0141216
901.106	0.0140456
901.184	0.0139703
901.262	0.0140221
901.340	0.0138705
901.418	0.0139323
901.496	0.0141281
901.575	0.0139166
901.653	0.0140009
901.731	0.0139382
901.809	0.0138654
901.887	0.0140312
901.965	0.0139464
902.043	0.0138993
902.121	0.0138560
902.200	0.0140308
902.278	0.0139132
902.356	0.0137865
902.434	0.0138294
902.512	0.0138866
902.590	0.0139059
902.668	0.0139841
902.746	0.0139939
902.825	0.0138809
902.903	0.0137624
902.981	0.0140148
903.059	0.0139841
903.137	0.0139600
903.215	0.0139259
903.293	0.0139198
903.371	0.0139301
903.450	0.0138486
903.528	0.0138840
903.606	0.0139275
903.684	0.0138212
903.762	0.0140205
903.840	0.0139062
903.918	0.0138773
903.996	0.0139043
904.075	0.0138736
904.153	0.0138875
904.231	0.0138924
904.309	0.0138083
904.387	0.0138284
904.465	0.0139536
904.543	0.0140008
904.621	0.0139072
904.700	0.0138729
904.778	0.0138888
904.856	0.0138969
904.934	0.0140720
905.012	0.0139503
905.090	0.0139127
905.168	0.0139275
905.246	0.0137242
905.325	0.0139391
905.403	0.0139520
905.481	0.0139043
905.559	0.0139794
905.637	0.0139799
905.715	0.0139509
905.793	0.0138995
905.871	0.0139919
905.950	0.0139265
906.028	0.0139197
906.106	0.0138740
906.184	0.0139658
906.262	0.0139523
906.340	0.0140065
906.418	0.0139491
906.496	0.0139431
906.575	0.0139486
906.653	0.0139981
906.731	0.0139339
906.809	0.0139642
906.887	0.0139422
906.965	0.0140616
907.043	0.0140005
907.121	0.0139863
907.200	0.0138762
907.278	0.0139517
907.356	0.0139711
907.434	0.0139352
907.512	0.0138718
907.590	0.0140717
907.668	0.0139993
907.746	0.0139473
907.825	0.0139986
907.903	0.0139755
907.981	0.0139733
908.059	0.0139223
908.137	0.0139925
908.215	0.0139214
908.293	0.0139470
908.371	0.0139587
908.450	0.0139284
908.528	0.0139532
908.606	0.0140952
908.684	0.0140322
908.762	0.0141251
908.840	0.0139748
908.918	0.0140369
908.996	0.0140231
909.075	0.0140578
909.153	0.0140258
909.231	0.0140319
909.309	0.0139815
909.387	0.0139706
909.465	0.0141307
909.543	0.0140529
909.621	0.0140186
909.700	0.0140651
909.778	0.0139484
909.856	0.0139057
909.934	0.0138186
910.012	0.0139175
910.090	0.0138676
910.168	0.0139819
910.246	0.0140011
910.325	0.0139427
910.403	0.0139534
910.481	0.0140908
910.559	0.0138593
910.637	0.0139047
910.715	0.0140195
910.793	0.0139488
910.871	0.0139816
910.950	0.0140408
911.028	0.0140241
911.106	0.0140163
911.184	0.0140452
911.262	0.0139059
911.340	0.0140123
911.418	0.0140118
911.496	0.0138706
911.575	0.0140837
911.653	0.0138908
911.731	0.0140128
911.809	0.0139301
911.887	0.0139468
911.965	0.0140430
912.043	0.0139539
912.121	0.0140346
912.200	0.0139531
912.278	0.0138152
912.356	0.0138484
912.434	0.0139172
912.512	0.0140198
912.590	0.0139544
912.668	0.0139154
912.746	0.0139227
912.825	0.0139039
912.903	0.0139129
912.981	0.0139358
913.059	0.0139326
913.137	0.0139857
913.215	0.0139601
913.293	0.0139517
913.371	0.0140810
913.450	0.0139034
913.528	0.0139690
913.606	0.0140455
913.684	0.0139348
913.762	0.0139233
913.840	0.0139258
913.918	0.0139417
913.996	0.0139278
914.075	0.0139650
914.153	0.0139606
914.231	0.0139191
914.309	0.0140054
914.387	0.0141187
914.465	0.0140434
914.543	0.0139707
914.621	0.0139031
914.700	0.0139027
914.778	0.0139944
914.856	0.0137371
914.934	0.0140337
915.012	0.0139309
915.090	0.0140422
915.168	0.0139017
915.246	0.0138238
915.325	0.0138139
915.403	0.0139119
915.481	0.0139291
915.559	0.0138927
915.637	0.0138063
915.715	0.0138478
915.793	0.0139770
915.871	0.0138911
915.950	0.0138711
916.028	0.0140049
916.106	0.0139248
916.184	0.0139490
916.262	0.0139252
916.340	0.0139700
916.418	0.0138441
916.496	0.0137940
916.575	0.0138017
916.653	0.0140220
916.731	0.0138889
916.809	0.0139613
916.887	0.0137828
916.965	0.0139643
917.043	0.0138773
917.121	0.0138882
917.200	0.0138733
917.278	0.0139109
917.356	0.0139202
917.434	0.0140484
917.512	0.0139561
917.590	0.0140246
917.668	0.0140491
917.746	0.0138972
917.825	0.0139678
917.903	0.0139475
917.981	0.0140242
918.059	0.0138822
918.137	0.0138098
918.215	0.0140083
918.293	0.0139632
918.371	0.0138082
918.450	0.0139687
918.528	0.0138512
918.606	0.0140302
918.684	0.0140278
918.762	0.0138261
918.840	0.0139968
918.918	0.0140114
918.996	0.0140578
919.075	0.0139931
919.153	0.0139793
919.231	0.0140911
919.309	0.0142120
919.387	0.0140031
919.465	0.0140034
919.543	0.0139530
919.621	0.0138535
919.700	0.0139937
919.778	0.0139543
919.856	0.0139302
919.934	0.0140646
920.012	0.0139482
920.090	0.0139236
920.168	0.0139869
920.246	0.0140280
920.325	0.0139056
920.403	0.0138497
920.481	0.0138528
920.559	0.0140648
920.637	0.0138819
920.715	0.0139743
920.793	0.0138458
920.871	0.0139240
920.950	0.0139291
921.028	0.0139972
921.106	0.0140047
921.184	0.0140833
921.262	0.0139259
921.340	0.0139092
921.418	0.0140213
921.496	0.0140027
921.575	0.0139842
921.653	0.0139781
921.731	0.0139056
921.809	0.0139788
921.887	0.0140059
921.965	0.0140101
922.043	0.0139774
922.121	0.0140850
922.200	0.0139999
922.278	0.0139446
922.356	0.0141201
922.434	0.0139743
922.512	0.0139967
922.590	0.0138201
922.668	0.0139285
922.746	0.0139427
922.825	0.0139510
922.903	0.0139814
922.981	0.0138798
923.059	0.0138858
923.137	0.0139960
923.215	0.0138468
923.293	0.0139006
923.371	0.0139247
923.450	0.0139149
923.528	0.0141145
923.606	0.0139735
923.684	0.0139142
923.762	0.0138613
923.840	0.0139894
923.918	0.0140017
923.996	0.0139171
924.075	0.0140871
924.153	0.0139941
924.231	0.0140555
924.309	0.0139312
924.387	0.0138926
924.465	0.0139199
924.543	0.0139069
924.621	0.0137549
924.700	0.0139650
924.778	0.0140481
924.856	0.0140000
924.934	0.0139572
925.012	0.0138037
925.090	0.0138651
925.168	0.0138668
925.246	0.0140623
925.325	0.0139442
925.403	0.0138504
925.481	0.0138857
925.559	0.0139327
925.637	0.0138693
925.715	0.0138566
925.793	0.0138671
925.871	0.0138161
925.950	0.0137920
926.028	0.0138530
926.106	0.0139199
926.184	0.0139947
926.262	0.0138873
926.340	0.0138787
926.418	0.0139227
926.496	0.0138586
926.575	0.0138367
926.653	0.0140582
926.731	0.0139233
926.809	0.0138691
926.887	0.0139371
926.965	0.0139809
927.043	0.0139336
927.121	0.0138458
927.200	0.0138779
927.278	0.0138627
927.356	0.0138638
927.434	0.0138879
927.512	0.0139167
927.590	0.0139401
927.668	0.0141216
927.746	0.0139316
927.825	0.0139728
927.903	0.0140288
927.981	0.0139668
928.059	0.0139320
928.137	0.0139283
928.215	0.0139363
928.293	0.0140408
928.371	0.0139895
928.450	0.0139328
928.528	0.0139069
928.606	0.0140825
928.684	0.0139243
928.762	0.0140063
928.840	0.0139664
928.918	0.0139139
928.996	0.0138503
929.075	0.0139845
929.153	0.0138280
929.231	0.0138100
929.309	0.0138445
929.387	0.0138986
929.465	0.0140228
929.543	0.0139805
929.621	0.0139953
929.700	0.0139881
929.778	0.0138668
929.856	0.0139048
929.934	0.0139767
930.012	0.0138847
930.090	0.0138712
930.168	0.0139407
930.246	0.0138890
930.325	0.0139440
930.403	0.0139340
930.481	0.0139585
930.559	0.0140530
930.637	0.0140638
930.715	0.0140813
930.793	0.0140602
930.871	0.0139673
930.950	0.0138751
931.028	0.0138014
931.106	0.0139874
931.184	0.0140776
931.262	0.0140429
931.340	0.0140357
931.418	0.0140038
931.496	0.0139281
931.575	0.0138747
931.653	0.0139421
931.731	0.0139966
931.809	0.0139024
931.887	0.0140343
931.965	0.0139558
932.043	0.0139831
932.121	0.0140749
932.200	0.0140014
932.278	0.0140842
932.356	0.0140290
932.434	0.0139118
932.512	0.0140098
932.590	0.0140315
932.668	0.0139925
932.746	0.0140829
932.825	0.0139098
932.903	0.0139249
932.981	0.0139433
933.059	0.0139127
933.137	0.0138798
933.215	0.0138209
933.293	0.0138224
933.371	0.0138885
933.450	0.0140051
933.528	0.0139336
933.606	0.0137698
933.684	0.0139927
933.762	0.0139417
933.840	0.0140137
933.918	0.0138568
933.996	0.0138960
934.075	0.0138783
934.153	0.0140543
934.231	0.0139022
934.309	0.0138782
934.387	0.0140378
934.465	0.0138918
934.543	0.0138147
934.621	0.0139772
934.700	0.0139742
934.778	0.0139072
934.856	0.0139738
934.934	0.0138181
935.012	0.0138166
935.090	0.0139101
935.168	0.0138905
935.246	0.0139446
935.325	0.0139619
935.403	0.0139983
935.481	0.0140175
935.559	0.0139944
935.637	0.0139409
935.715	0.0139700
935.793	0.0139872
935.871	0.0140109
935.950	0.0140714
936.028	0.0140533
936.106	0.0139011
936.184	0.0138682
936.262	0.0138867
936.340	0.0139202
936.418	0.0138449
936.496	0.0140312
936.575	0.0140396
936.653	0.0138667
936.731	0.0139160
936.809	0.0138088
936.887	0.0139237
936.965	0.0139758
937.043	0.0139643
937.121	0.0140050
937.200	0.0140186
937.278	0.0138989
937.356	0.0139870
937.434	0.0138541
937.512	0.0139205
937.590	0.0138994
937.668	0.0140157
937.746	0.0138477
937.825	0.0139800
937.903	0.0139605
937.981	0.0138763
938.059	0.0139472
938.137	0.0140601
938.215	0.0139775
938.293	0.0139365
938.371	0.0139925
938.450	0.0138942
938.528	0.0141096
938.606	0.0139157
938.684	0.0139937
938.762	0.0139294
938.840	0.0139488
938.918	0.0139799
938.996	0.0139870
939.075	0.0139219
939.153	0.0139000
939.231	0.0139494
939.309	0.0140082
939.387	0.0138484
939.465	0.0140224
939.543	0.0138488
939.621	0.0138638
939.700	0.0139563
939.778	0.0140742
939.856	0.0139614
939.934	0.0140562
940.012	0.0139012
940.090	0.0139777
940.168	0.0139600
940.246	0.0141322
940.325	0.0140012
940.403	0.0138615
940.481	0.0140197
940.559	0.0139857
940.637	0.0139122
940.715	0.0139606
940.793	0.0139336
940.871	0.0140199
940.950	0.0138477
941.028	0.0138448
941.106	0.0139156
941.184	0.0140337
941.262	0.0139021
941.340	0.0140718
941.418	0.0138577
941.496	0.0139948
941.575	0.0138734
941.653	0.0139572
941.731	0.0141675
941.809	0.0140986
941.887	0.0140282
941.965	0.0139579
942.043	0.0140788
942.121	0.0140250
942.200	0.0139637
942.278	0.0140320
942.356	0.0139411
942.434	0.0140833
942.512	0.0139920
942.590	0.0140063
942.668	0.0139379
942.746	0.0139111
942.825	0.0141019
942.903	0.0139366
942.981	0.0140848
943.059	0.0140017
943.137	0.0140093
943.215	0.0140345
943.293	0.0139993
943.371	0.0139462
943.450	0.0140005
943.528	0.0139701
943.606	0.0140798
943.684	0.0140087
943.762	0.0140515
943.840	0.0139531
943.918	0.0141408
943.996	0.0141949
944.075	0.0140333
944.153	0.0139631
944.231	0.0140260
944.309	0.0140838
944.387	0.0138870
944.465	0.0138939
944.543	0.0140501
944.621	0.0139076
944.700	0.0140141
944.778	0.0138419
944.856	0.0138227
944.934	0.0139715
945.012	0.0138681
945.090	0.0138396
945.168	0.0138260
945.246	0.0139698
945.325	0.0139663
945.403	0.0140179
945.481	0.0139709
945.559	0.0138734
945.637	0.0139272
945.715	0.0138432
945.793	0.0137543
945.871	0.0139296
945.950	0.0140272
946.028	0.0140162
946.106	0.0138927
946.184	0.0137795
946.262	0.0138919
946.340	0.0139432
946.418	0.0138857
946.496	0.0138119
946.575	0.0137727
946.653	0.0138790
946.731	0.0137914
946.809	0.0139869
946.887	0.0138909
946.965	0.0138985
947.043	0.0138214
947.121	0.0139481
947.200	0.0139242
947.278	0.0138987
947.356	0.0139408
947.434	0.0138705
947.512	0.0138983
947.590	0.0139698
947.668	0.0139536
947.746	0.0138333
947.825	0.0138686
947.903	0.0138599
947.981	0.0139666
948.059	0.0140711
948.137	0.0140100
948.215	0.0140750
948.293	0.0140014
948.371	0.0139641
948.450	0.0139638
948.528	0.0139725
948.606	0.0139406
948.684	0.0139554
948.762	0.0140610
948.840	0.0138943
948.918	0.0138583
948.996	0.0139420
949.075	0.0139717
949.153	0.0139330
949.231	0.0139011
949.309	0.0139322
949.387	0.0138280
949.465	0.0139590
949.543	0.0140081
949.621	0.0138532
949.700	0.0139622
949.778	0.0141254
949.856	0.0140120
949.934	0.0139877
950.012	0.0140393
950.090	0.0138970
950.168	0.0139248
950.246	0.0138578
950.325	0.0139014
950.403	0.0139705
950.481	0.0140397
950.559	0.0139767
950.637	0.0138828
950.715	0.0139054
950.793	0.0139026
950.871	0.0139456
950.950	0.0140315
951.028	0.0138920
951.106	0.0139671
951.184	0.0138903
951.262	0.0138768
951.340	0.0139892
951.418	0.0138467
951.496	0.0138739
951.575	0.0140549
951.653	0.0139528
951.731	0.0139021
951.809	0.0140792
951.887	0.0140061
951.965	0.0139432
952.043	0.0140084
952.121	0.0140800
952.200	0.0140749
952.278	0.0140034
952.356	0.0140045
952.434	0.0139856
952.512	0.0140311
952.590	0.0140953
952.668	0.0140378
952.746	0.0139657
952.825	0.0139476
952.903	0.0140114
952.981	0.0140477
953.059	0.0140524
953.137	0.0138744
953.215	0.0139297
953.293	0.0140714
953.371	0.0139825
953.450	0.0141061
953.528	0.0140560
953.606	0.0139574
953.684	0.0141257
953.762	0.0139981
953.840	0.0141176
953.918	0.0140501
953.996	0.0140320
954.075	0.0140830
954.153	0.0141102
954.231	0.0140582
954.309	0.0141406
954.387	0.0138872
954.465	0.0139777
954.543	0.0139423
954.621	0.0139973
954.700	0.0140107
954.778	0.0138853
954.856	0.0139845
954.934	0.0141309
955.012	0.0140995
955.090	0.0138897
955.168	0.0140389
955.246	0.0140929
955.325	0.0139375
955.403	0.0138531
955.481	0.0139446
955.559	0.0139526
955.637	0.0140442
955.715	0.0140433
955.793	0.0140543
955.871	0.0140627
955.950	0.0139154
956.028	0.0139542
956.106	0.0139346
956.184	0.0140269
956.262	0.0140877
956.340	0.0140829
956.418	0.0140245
956.496	0.0140204
956.575	0.0138759
956.653	0.0140135
956.731	0.0139500
956.809	0.0139804
956.887	0.0139847
956.965	0.0138655
957.043	0.0139735
957.121	0.0140644
957.200	0.0140475
957.278	0.0139873
957.356	0.0139806
957.434	0.0140517
957.512	0.0139673
957.590	0.0139209
957.668	0.0138956
957.746	0.0139543
957.825	0.0139663
957.903	0.0139460
957.981	0.0140604
958.059	0.0140945
958.137	0.0141082
958.215	0.0139880
958.293	0.0139187
958.371	0.0138686
958.450	0.0140282
958.528	0.0140600
958.606	0.0139152
958.684	0.0139545
958.762	0.0140448
958.840	0.0141035
958.918	0.0139216
958.996	0.0139788
959.075	0.0139406
959.153	0.0138951
959.231	0.0138589
959.309	0.0138924
959.387	0.0139841
959.465	0.0139654
959.543	0.0139848
959.621	0.0138901
959.700	0.0140137
959.778	0.0138955
959.856	0.0140626
959.934	0.0140335
960.012	0.0140698
960.090	0.0140485
960.168	0.0141237
960.246	0.0139742
960.325	0.0139574
960.403	0.0139454
960.481	0.0139168
960.559	0.0140594
960.637	0.0139783
960.715	0.0139877
960.793	0.0138937
960.871	0.0139555
960.950	0.0139082
961.028	0.0138553
961.106	0.0138963
961.184	0.0139863
961.262	0.0138617
961.340	0.0137885
961.418	0.0139308
961.496	0.0139531
961.575	0.0140585
961.653	0.0140559
961.731	0.0138841
961.809	0.0139142
961.887	0.0138626
961.965	0.0139534
962.043	0.0140598
962.121	0.0138789
962.200	0.0140072
962.278	0.0140010
962.356	0.0138428
962.434	0.0141124
962.512	0.0139721
962.590	0.0139591
962.668	0.0140415
962.746	0.0138348
962.825	0.0138776
962.903	0.0140002
962.981	0.0139845
963.059	0.0139127
963.137	0.0139382
963.215	0.0141206
963.293	0.0140441
963.371	0.0139852
963.450	0.0138701
963.528	0.0140072
963.606	0.0140573
963.684	0.0140578
963.762	0.0140831
963.840	0.0139929
963.918	0.0139644
963.996	0.0139378
964.075	0.0139109
964.153	0.0141783
964.231	0.0140539
964.309	0.0139658
964.387	0.0140080
964.465	0.0140101
964.543	0.0139792
964.621	0.0138857
964.700	0.0139685
964.778	0.0141095
964.856	0.0139902
964.934	0.0139262
965.012	0.0140877
965.090	0.0140144
965.168	0.0139375
965.246	0.0138952
965.325	0.0139749
965.403	0.0139794
965.481	0.0140424
965.559	0.0141396
965.637	0.0140533
965.715	0.0139532
965.793	0.0139819
965.871	0.0140730
965.950	0.0139359
966.028	0.0140312
966.106	0.0140377
966.184	0.0138588
966.262	0.0140183
966.340	0.0141374
966.418	0.0140101
966.496	0.0140749
966.575	0.0140649
966.653	0.0139700
966.731	0.0140054
966.809	0.0140497
966.887	0.0139171
966.965	0.0139105
967.043	0.0139964
967.121	0.0138667
967.200	0.0140845
967.278	0.0140244
967.356	0.0141174
967.434	0.0141712
967.512	0.0140157
967.590	0.0139681
967.668	0.0138892
967.746	0.0140011
967.825	0.0140778
967.903	0.0141424
967.981	0.0139690
968.059	0.0139812
968.137	0.0140802
968.215	0.0140523
968.293	0.0140421
968.371	0.0139871
968.450	0.0139468
968.528	0.0139862
968.606	0.0139775
968.684	0.0140698
968.762	0.0139901
968.840	0.0139864
968.918	0.0140072
968.996	0.0141199
969.075	0.0138998
969.153	0.0138851
969.231	0.0140226
969.309	0.0140018
969.387	0.0138441
969.465	0.0140012
969.543	0.0139651
969.621	0.0140959
969.700	0.0140190
969.778	0.0139281
969.856	0.0139286
969.934	0.0139709
970.012	0.0140765
970.090	0.0139436
970.168	0.0138351
970.246	0.0138152
970.325	0.0138684
970.403	0.0139250
970.481	0.0139637
970.559	0.0139995
970.637	0.0138384
970.715	0.0138464
970.793	0.0139095
970.871	0.0138923
970.950	0.0139633
971.028	0.0139481
971.106	0.0139267
971.184	0.0138240
971.262	0.0138966
971.340	0.0137907
971.418	0.0138082
971.496	0.0137779
971.575	0.0138853
971.653	0.0138999
971.731	0.0138715
971.809	0.0139039
971.887	0.0139644
971.965	0.0140207
972.043	0.0138311
972.121	0.0140337
972.200	0.0139267
972.278	0.0138817
972.356	0.0139152
972.434	0.0139417
972.512	0.0139240
972.590	0.0139339
972.668	0.0139012
972.746	0.0140094
972.825	0.0139400
972.903	0.0139178
972.981	0.0138960
973.059	0.0139489
973.137	0.0139062
973.215	0.0140277
973.293	0.0138467
973.371	0.0138943
973.450	0.0139835
973.528	0.0140589
973.606	0.0139178
973.684	0.0139248
973.762	0.0138790
973.840	0.0139246
973.918	0.0139767
973.996	0.0140636
974.075	0.0139975
974.153	0.0138554
974.231	0.0140155
974.309	0.0141209
974.387	0.0140139
974.465	0.0138908
974.543	0.0139872
974.621	0.0140456
974.700	0.0139851
974.778	0.0138999
974.856	0.0139468
974.934	0.0140337
975.012	0.0140750
975.090	0.0139104
975.168	0.0138244
975.246	0.0139874
975.325	0.0140833
975.403	0.0141582
975.481	0.0140811
975.559	0.0140501
975.637	0.0139629
975.715	0.0137791
975.793	0.0139159
975.871	0.0139655
975.950	0.0139423
976.028	0.0139713
976.106	0.0137622
976.184	0.0140503
976.262	0.0139845
976.340	0.0139926
976.418	0.0139605
976.496	0.0139423
976.575	0.0140171
976.653	0.0139408
976.731	0.0139182
976.809	0.0141024
976.887	0.0140418
976.965	0.0141805
977.043	0.0141174
977.121	0.0140849
977.200	0.0140141
977.278	0.0139970
977.356	0.0140562
977.434	0.0139565
977.512	0.0139626
977.590	0.0140224
977.668	0.0140161
977.746	0.0140083
977.825	0.0139893
977.903	0.0141591
977.981	0.0140585
978.059	0.0141092
978.137	0.0141223
978.215	0.0140979
978.293	0.0139888
978.371	0.0141185
978.450	0.0141387
978.528	0.0140321
978.606	0.0140275
978.684	0.0141460
978.762	0.0141161
978.840	0.0140063
978.918	0.0140073
978.996	0.0142036
979.075	0.0141035
979.153	0.0141839
979.231	0.0141368
979.309	0.0139995
979.387	0.0140819
979.465	0.0140914
979.543	0.0140479
979.621	0.0140529
979.700	0.0141637
979.778	0.0141765
979.856	0.0140356
979.934	0.0140425
980.012	0.0140031
980.090	0.0139787
980.168	0.0140549
980.246	0.0140852
980.325	0.0141177
980.403	0.0141199
980.481	0.0140705
980.559	0.0139600
980.637	0.0139435
980.715	0.0139670
980.793	0.0140052
980.871	0.0141061
980.950	0.0139627
981.028	0.0140759
981.106	0.0138824
981.184	0.0139600
981.262	0.0139108
981.340	0.0139133
981.418	0.0139365
981.496	0.0138818
981.575	0.0139938
981.653	0.0139881
981.731	0.0138844
981.809	0.0138809
981.887	0.0140002
981.965	0.0139219
982.043	0.0139080
982.121	0.0140398
982.200	0.0139674
982.278	0.0139565
982.356	0.0139951
982.434	0.0138507
982.512	0.0139492
982.590	0.0138425
982.668	0.0140475
982.746	0.0141103
982.825	0.0139031
982.903	0.0138544
982.981	0.0140315
983.059	0.0139460
983.137	0.0138677
983.215	0.0139939
983.293	0.0139009
983.371	0.0140463
983.450	0.0139722
983.528	0.0139521
983.606	0.0138982
983.684	0.0139033
983.762	0.0139707
983.840	0.0139859
983.918	0.0137872
983.996	0.0138883
984.075	0.0138700
984.153	0.0140356
984.231	0.0138720
984.309	0.0139103
984.387	0.0138675
984.465	0.0139695
984.543	0.0138657
984.621	0.0139521
984.700	0.0140179
984.778	0.0139860
984.856	0.0139674
984.934	0.0141201
985.012	0.0140106
985.090	0.0139455
985.168	0.0138963
985.246	0.0140807
985.325	0.0139698
985.403	0.0138574
985.481	0.0138956
985.559	0.0139192
985.637	0.0139591
985.715	0.0139960
985.793	0.0141012
985.871	0.0140295
985.950	0.0139577
986.028	0.0140414
986.106	0.0139789
986.184	0.0140759
986.262	0.0140273
986.340	0.0140580
986.418	0.0138357
986.496	0.0138417
986.575	0.0140092
986.653	0.0139752
986.731	0.0139902
986.809	0.0139707
986.887	0.0138851
986.965	0.0138666
987.043	0.0140310
987.121	0.0140257
987.200	0.0140488
987.278	0.0141770
987.356	0.0139149
987.434	0.0140462
987.512	0.0139904
987.590	0.0139051
987.668	0.0139330
987.746	0.0140786
987.825	0.0142010
987.903	0.0139780
987.981	0.0140120
988.059	0.0138943
988.137	0.0138000
988.215	0.0139240
988.293	0.0138568
988.371	0.0140466
988.450	0.0140579
988.528	0.0139376
988.606	0.0138409
988.684	0.0138683
988.762	0.0138541
988.840	0.0139822
988.918	0.0137387
988.996	0.0139682
989.075	0.0139130
989.153	0.0139890
989.231	0.0139562
989.309	0.0139277
989.387	0.0139299
989.465	0.0139643
989.543	0.0139777
989.621	0.0140170
989.700	0.0139006
989.778	0.0139386
989.856	0.0140009
989.934	0.0139288
990.012	0.0141132
990.090	0.0138544
990.168	0.0138946
990.246	0.0141278
990.325	0.0137981
990.403	0.0137267
990.481	0.0139070
990.559	0.0138936
990.637	0.0138011
990.715	0.0140201
990.793	0.0138409
990.871	0.0140050
990.950	0.0140301
991.028	0.0138779
991.106	0.0139785
991.184	0.0138349
991.262	0.0138181
991.340	0.0140293
991.418	0.0140459
991.496	0.0139873
991.575	0.0139240
991.653	0.0139252
991.731	0.0140788
991.809	0.0139067
991.887	0.0138553
991.965	0.0139119
992.043	0.0139526
992.121	0.0139073
992.200	0.0138277
992.278	0.0140258
992.356	0.0139946
992.434	0.0139101
992.512	0.0138020
992.590	0.0140288
992.668	0.0139272
992.746	0.0139423
992.825	0.0139043
992.903	0.0139015
992.981	0.0139688
993.059	0.0139230
993.137	0.0139487
993.215	0.0139304
993.293	0.0139957
993.371	0.0139452
993.450	0.0138886
993.528	0.0139267
993.606	0.0139536
993.684	0.0138687
993.762	0.0138820
993.840	0.0139153
993.918	0.0138719
993.996	0.0137856
994.075	0.0138280
994.153	0.0138348
994.231	0.0140459
994.309	0.0139787
994.387	0.0138443
994.465	0.0139275
994.543	0.0139729
994.621	0.0139808
994.700	0.0139219
994.778	0.0138086
994.856	0.0138277
994.934	0.0139491
995.012	0.0138284
995.090	0.0138279
995.168	0.0138918
995.246	0.0139231
995.325	0.0139862
995.403	0.0139529
995.481	0.0137931
995.559	0.0138214
995.637	0.0138960
995.715	0.0139327
995.793	0.0138865
995.871	0.0138673
995.950	0.0138242
996.028	0.0140073
996.106	0.0137643
996.184	0.0138713
996.262	0.0138622
996.340	0.0139632
996.418	0.0141201
996.496	0.0140445
996.575	0.0139089
996.653	0.0139989
996.731	0.0138240
996.809	0.0139682
996.887	0.0139137
996.965	0.0137814
997.043	0.0139737
997.121	0.0139051
997.200	0.0138956
997.278	0.0139920
997.356	0.0139545
997.434	0.0139973
997.512	0.0138806
997.590	0.0139202
997.668	0.0139381
997.746	0.0139336
997.825	0.0139082
997.903	0.0137592
997.981	0.0139760
998.059	0.0140931
998.137	0.0139223
998.215	0.0138619
998.293	0.0140147
998.371	0.0139124
998.450	0.0140075
998.528	0.0137993
998.606	0.0139154
998.684	0.0139711
998.762	0.0138880
998.840	0.0139410
998.918	0.0139269
