05/20/2022	20:36:52	Ver.	4.1	UNKNOWN
Optical Delay	599.981738	Delta X		0.078125	Sweeps	1	Scan Rate	0/0
Coordinates	Axis 1	NaN	Axis 2	NaN	Axis 3	NaN	Axis 4	NaN	Axis 5	NaN	Axis 6	0.000000
TX Power	0.000000	RX Power	0.000000

599.982	0.0146685
600.060	0.0147517
600.138	0.0146806
600.216	0.0146530
600.294	0.0148070
600.372	0.0146210
600.450	0.0145858
600.529	0.0148827
600.607	0.0147303
600.685	0.0145655
600.763	0.0145712
600.841	0.0147588
600.919	0.0147695
600.997	0.0147065
601.075	0.0146359
601.154	0.0146166
601.232	0.0147812
601.310	0.0147542
601.388	0.0147539
601.466	0.0145672
601.544	0.0146767
601.622	0.0146804
601.700	0.0146803
601.779	0.0146375
601.857	0.0145993
601.935	0.0146022
602.013	0.0145490
602.091	0.0146784
602.169	0.0146915
602.247	0.0146396
602.325	0.0146153
602.404	0.0147073
602.482	0.0145792
602.560	0.0145762
602.638	0.0145941
602.716	0.0144761
602.794	0.0146340
602.872	0.0147011
602.950	0.0146935
603.029	0.0148340
603.107	0.0147366
603.185	0.0146325
603.263	0.0147080
603.341	0.0147889
603.419	0.0146015
603.497	0.0146282
603.575	0.0147384
603.654	0.0146548
603.732	0.0145786
603.810	0.0145707
603.888	0.0147102
603.966	0.0146017
604.044	0.0146726
604.122	0.0146578
604.200	0.0146309
604.279	0.0146707
604.357	0.0148067
604.435	0.0145244
604.513	0.0146953
604.591	0.0147464
604.669	0.0147650
604.747	0.0146689
604.825	0.0147404
604.904	0.0147176
604.982	0.0147950
605.060	0.0147553
605.138	0.0146097
605.216	0.0147875
605.294	0.0147086
605.372	0.0146910
605.450	0.0147813
605.529	0.0146807
605.607	0.0147035
605.685	0.0146218
605.763	0.0146838
605.841	0.0146984
605.919	0.0148326
605.997	0.0148202
606.075	0.0147487
606.154	0.0146339
606.232	0.0146095
606.310	0.0147161
606.388	0.0146684
606.466	0.0147189
606.544	0.0146275
606.622	0.0146474
606.700	0.0146872
606.779	0.0146721
606.857	0.0148081
606.935	0.0146577
607.013	0.0146462
607.091	0.0146801
607.169	0.0146992
607.247	0.0147724
607.325	0.0147190
607.404	0.0146217
607.482	0.0147126
607.560	0.0146790
607.638	0.0145502
607.716	0.0147430
607.794	0.0146758
607.872	0.0147247
607.950	0.0146935
608.029	0.0146418
608.107	0.0146335
608.185	0.0146207
608.263	0.0145458
608.341	0.0148099
608.419	0.0148218
608.497	0.0146290
608.575	0.0146124
608.654	0.0146154
608.732	0.0147878
608.810	0.0146284
608.888	0.0146226
608.966	0.0147170
609.044	0.0146296
609.122	0.0146261
609.200	0.0145504
609.279	0.0146886
609.357	0.0146912
609.435	0.0146199
609.513	0.0145718
609.591	0.0145791
609.669	0.0145915
609.747	0.0145629
609.825	0.0147455
609.904	0.0147775
609.982	0.0145853
610.060	0.0147826
610.138	0.0147388
610.216	0.0148245
610.294	0.0145496
610.372	0.0147520
610.450	0.0148737
610.529	0.0144772
610.607	0.0146770
610.685	0.0145648
610.763	0.0145981
610.841	0.0147622
610.919	0.0147373
610.997	0.0147952
611.075	0.0147785
611.154	0.0145416
611.232	0.0146168
611.310	0.0146371
611.388	0.0147063
611.466	0.0147694
611.544	0.0146751
611.622	0.0147353
611.700	0.0146272
611.779	0.0146912
611.857	0.0146598
611.935	0.0146668
612.013	0.0146434
612.091	0.0147095
612.169	0.0148212
612.247	0.0146912
612.325	0.0146983
612.404	0.0147599
612.482	0.0147475
612.560	0.0147658
612.638	0.0148217
612.716	0.0148045
612.794	0.0147051
612.872	0.0145798
612.950	0.0146631
613.029	0.0146458
613.107	0.0145912
613.185	0.0146122
613.263	0.0147002
613.341	0.0146708
613.419	0.0146307
613.497	0.0145861
613.575	0.0146260
613.654	0.0146637
613.732	0.0146905
613.810	0.0145737
613.888	0.0146308
613.966	0.0145895
614.044	0.0147546
614.122	0.0147372
614.200	0.0146455
614.279	0.0146651
614.357	0.0145866
614.435	0.0147124
614.513	0.0147156
614.591	0.0146470
614.669	0.0147166
614.747	0.0146647
614.825	0.0147161
614.904	0.0145818
614.982	0.0146714
615.060	0.0147702
615.138	0.0147476
615.216	0.0146842
615.294	0.0145147
615.372	0.0145901
615.450	0.0145880
615.529	0.0146402
615.607	0.0147827
615.685	0.0147303
615.763	0.0146716
615.841	0.0145798
615.919	0.0147217
615.997	0.0145835
616.075	0.0146890
616.154	0.0145943
616.232	0.0145336
616.310	0.0147412
616.388	0.0147412
616.466	0.0146516
616.544	0.0145705
616.622	0.0147681
616.700	0.0145890
616.779	0.0146429
616.857	0.0148226
616.935	0.0146350
617.013	0.0145747
617.091	0.0147259
617.169	0.0145956
617.247	0.0146075
617.325	0.0146368
617.404	0.0146845
617.482	0.0146799
617.560	0.0147256
617.638	0.0146535
617.716	0.0147208
617.794	0.0145688
617.872	0.0146503
617.950	0.0148025
618.029	0.0146487
618.107	0.0146681
618.185	0.0146973
618.263	0.0146425
618.341	0.0146912
618.419	0.0146638
618.497	0.0146763
618.575	0.0147469
618.654	0.0147509
618.732	0.0146111
618.810	0.0146237
618.888	0.0147186
618.966	0.0146172
619.044	0.0147091
619.122	0.0145666
619.200	0.0146206
619.279	0.0145893
619.357	0.0147369
619.435	0.0146526
619.513	0.0146617
619.591	0.0146552
619.669	0.0146552
619.747	0.0147115
619.825	0.0146632
619.904	0.0147184
619.982	0.0147330
620.060	0.0146221
620.138	0.0147475
620.216	0.0147325
620.294	0.0147018
620.372	0.0147255
620.450	0.0145370
620.529	0.0146195
620.607	0.0148405
620.685	0.0147583
620.763	0.0145502
620.841	0.0145346
620.919	0.0146375
620.997	0.0146975
621.075	0.0148560
621.154	0.0145753
621.232	0.0145791
621.310	0.0145978
621.388	0.0146474
621.466	0.0146365
621.544	0.0145153
621.622	0.0147231
621.700	0.0147737
621.779	0.0146689
621.857	0.0147491
621.935	0.0148403
622.013	0.0146876
622.091	0.0145766
622.169	0.0146606
622.247	0.0145174
622.325	0.0146078
622.404	0.0145973
622.482	0.0147765
622.560	0.0146912
622.638	0.0146318
622.716	0.0147525
622.794	0.0146661
622.872	0.0145998
622.950	0.0146645
623.029	0.0146286
623.107	0.0146745
623.185	0.0146376
623.263	0.0148247
623.341	0.0147160
623.419	0.0147605
623.497	0.0148636
623.575	0.0146587
623.654	0.0146523
623.732	0.0147280
623.810	0.0146639
623.888	0.0146684
623.966	0.0147547
624.044	0.0146700
624.122	0.0146745
624.200	0.0148315
624.279	0.0146928
624.357	0.0147182
624.435	0.0146311
624.513	0.0146962
624.591	0.0147709
624.669	0.0147205
624.747	0.0147450
624.825	0.0146011
624.904	0.0147138
624.982	0.0146323
625.060	0.0145354
625.138	0.0147456
625.216	0.0147136
625.294	0.0147579
625.372	0.0146633
625.450	0.0145664
625.529	0.0146965
625.607	0.0146053
625.685	0.0146215
625.763	0.0147484
625.841	0.0146835
625.919	0.0146231
625.997	0.0146908
626.075	0.0146892
626.154	0.0146055
626.232	0.0146566
626.310	0.0145513
626.388	0.0147115
626.466	0.0147124
626.544	0.0146267
626.622	0.0146263
626.700	0.0147354
626.779	0.0145315
626.857	0.0146823
626.935	0.0145519
627.013	0.0146842
627.091	0.0146151
627.169	0.0146591
627.247	0.0147263
627.325	0.0146983
627.404	0.0145908
627.482	0.0146596
627.560	0.0148315
627.638	0.0147505
627.716	0.0146718
627.794	0.0146271
627.872	0.0146222
627.950	0.0147677
628.029	0.0147079
628.107	0.0146130
628.185	0.0146813
628.263	0.0145432
628.341	0.0147493
628.419	0.0146745
628.497	0.0145510
628.575	0.0146914
628.654	0.0146536
628.732	0.0147279
628.810	0.0147168
628.888	0.0146559
628.966	0.0147768
629.044	0.0146366
629.122	0.0146405
629.200	0.0147654
629.279	0.0147192
629.357	0.0147073
629.435	0.0146635
629.513	0.0146936
629.591	0.0146842
629.669	0.0145612
629.747	0.0148093
629.825	0.0146671
629.904	0.0147420
629.982	0.0147529
630.060	0.0147272
630.138	0.0146600
630.216	0.0146167
630.294	0.0146474
630.372	0.0147193
630.450	0.0146551
630.529	0.0147070
630.607	0.0146572
630.685	0.0146189
630.763	0.0145776
630.841	0.0146700
630.919	0.0147640
630.997	0.0147100
631.075	0.0145885
631.154	0.0146559
631.232	0.0146404
631.310	0.0148043
631.388	0.0146925
631.466	0.0147490
631.544	0.0148013
631.622	0.0147503
631.700	0.0146678
631.779	0.0146886
631.857	0.0146549
631.935	0.0148050
632.013	0.0147687
632.091	0.0146347
632.169	0.0146049
632.247	0.0147221
632.325	0.0145171
632.404	0.0146487
632.482	0.0146725
632.560	0.0145761
632.638	0.0145152
632.716	0.0145680
632.794	0.0146470
632.872	0.0146973
632.950	0.0146754
633.029	0.0146442
633.107	0.0146633
633.185	0.0146309
633.263	0.0147457
633.341	0.0147057
633.419	0.0146001
633.497	0.0146162
633.575	0.0147054
633.654	0.0147533
633.732	0.0146354
633.810	0.0146096
633.888	0.0146097
633.966	0.0147485
634.044	0.0146450
634.122	0.0147823
634.200	0.0147615
634.279	0.0146563
634.357	0.0146479
634.435	0.0148277
634.513	0.0144564
634.591	0.0144606
634.669	0.0145778
634.747	0.0147897
634.825	0.0146584
634.904	0.0147392
634.982	0.0147224
635.060	0.0147765
635.138	0.0145694
635.216	0.0146091
635.294	0.0147450
635.372	0.0146598
635.450	0.0145921
635.529	0.0146875
635.607	0.0147035
635.685	0.0146914
635.763	0.0146075
635.841	0.0146130
635.919	0.0147026
635.997	0.0146600
636.075	0.0146802
636.154	0.0146297
636.232	0.0147030
636.310	0.0146926
636.388	0.0147306
636.466	0.0147326
636.544	0.0146486
636.622	0.0146324
636.700	0.0146344
636.779	0.0146323
636.857	0.0147418
636.935	0.0147236
637.013	0.0146851
637.091	0.0146042
637.169	0.0146278
637.247	0.0147816
637.325	0.0147224
637.404	0.0147249
637.482	0.0146205
637.560	0.0147024
637.638	0.0147932
637.716	0.0147930
637.794	0.0146037
637.872	0.0145585
637.950	0.0145702
638.029	0.0145778
638.107	0.0148266
638.185	0.0146436
638.263	0.0145719
638.341	0.0146820
638.419	0.0146201
638.497	0.0146867
638.575	0.0146692
638.654	0.0146577
638.732	0.0146983
638.810	0.0146626
638.888	0.0145377
638.966	0.0147123
639.044	0.0147811
639.122	0.0146613
639.200	0.0146017
639.279	0.0145741
639.357	0.0146542
639.435	0.0147706
639.513	0.0145811
639.591	0.0146782
639.669	0.0147492
639.747	0.0146143
639.825	0.0145811
639.904	0.0146802
639.982	0.0147561
640.060	0.0145180
640.138	0.0145741
640.216	0.0145883
640.294	0.0148045
640.372	0.0147237
640.450	0.0144391
640.529	0.0146876
640.607	0.0147086
640.685	0.0146555
640.763	0.0145985
640.841	0.0146450
640.919	0.0145288
640.997	0.0147200
641.075	0.0145856
641.154	0.0145396
641.232	0.0145867
641.310	0.0146162
641.388	0.0146401
641.466	0.0145630
641.544	0.0145638
641.622	0.0147691
641.700	0.0147116
641.779	0.0146170
641.857	0.0146046
641.935	0.0146883
642.013	0.0146465
642.091	0.0146600
642.169	0.0147534
642.247	0.0146809
642.325	0.0146499
642.404	0.0146318
642.482	0.0145541
642.560	0.0145770
642.638	0.0145879
642.716	0.0146639
642.794	0.0148188
642.872	0.0147162
642.950	0.0146780
643.029	0.0145511
643.107	0.0147426
643.185	0.0146755
643.263	0.0146566
643.341	0.0145745
643.419	0.0145832
643.497	0.0145204
643.575	0.0145741
643.654	0.0145943
643.732	0.0146582
643.810	0.0147467
643.888	0.0146290
643.966	0.0146223
644.044	0.0145882
644.122	0.0146546
644.200	0.0147071
644.279	0.0145797
644.357	0.0146092
644.435	0.0146350
644.513	0.0146902
644.591	0.0147923
644.669	0.0146017
644.747	0.0147366
644.825	0.0145661
644.904	0.0146336
644.982	0.0146651
645.060	0.0147128
645.138	0.0147111
645.216	0.0147025
645.294	0.0147736
645.372	0.0147098
645.450	0.0145541
645.529	0.0146178
645.607	0.0146753
645.685	0.0146999
645.763	0.0146363
645.841	0.0146099
645.919	0.0146220
645.997	0.0147758
646.075	0.0146336
646.154	0.0146899
646.232	0.0145937
646.310	0.0147411
646.388	0.0146639
646.466	0.0146390
646.544	0.0146667
646.622	0.0147083
646.700	0.0146352
646.779	0.0145256
646.857	0.0145276
646.935	0.0146715
647.013	0.0146937
647.091	0.0147084
647.169	0.0145007
647.247	0.0145879
647.325	0.0147299
647.404	0.0145879
647.482	0.0146905
647.560	0.0146440
647.638	0.0146864
647.716	0.0146217
647.794	0.0145274
647.872	0.0146699
647.950	0.0146857
648.029	0.0145213
648.107	0.0146548
648.185	0.0145912
648.263	0.0146507
648.341	0.0146323
648.419	0.0145500
648.497	0.0147635
648.575	0.0146783
648.654	0.0145522
648.732	0.0146243
648.810	0.0147103
648.888	0.0146760
648.966	0.0146983
649.044	0.0145868
649.122	0.0147782
649.200	0.0146740
649.279	0.0147086
649.357	0.0147005
649.435	0.0147608
649.513	0.0145456
649.591	0.0146302
649.669	0.0147527
649.747	0.0147259
649.825	0.0146593
649.904	0.0145833
649.982	0.0145892
650.060	0.0147129
650.138	0.0145548
650.216	0.0145471
650.294	0.0147365
650.372	0.0147683
650.450	0.0145858
650.529	0.0146401
650.607	0.0147852
650.685	0.0145476
650.763	0.0145763
650.841	0.0147768
650.919	0.0147072
650.997	0.0146371
651.075	0.0146765
651.154	0.0146941
651.232	0.0147657
651.310	0.0147773
651.388	0.0146556
651.466	0.0145983
651.544	0.0145398
651.622	0.0146616
651.700	0.0146697
651.779	0.0147153
651.857	0.0145287
651.935	0.0146400
652.013	0.0148000
652.091	0.0146118
652.169	0.0146170
652.247	0.0147004
652.325	0.0147369
652.404	0.0146355
652.482	0.0145487
652.560	0.0146832
652.638	0.0145745
652.716	0.0146299
652.794	0.0146546
652.872	0.0146867
652.950	0.0146232
653.029	0.0146133
653.107	0.0146445
653.185	0.0146199
653.263	0.0146525
653.341	0.0146642
653.419	0.0146255
653.497	0.0147321
653.575	0.0145100
653.654	0.0146011
653.732	0.0148183
653.810	0.0147197
653.888	0.0145731
653.966	0.0146588
654.044	0.0146608
654.122	0.0146269
654.200	0.0148183
654.279	0.0146508
654.357	0.0146706
654.435	0.0145323
654.513	0.0146583
654.591	0.0146625
654.669	0.0147098
654.747	0.0146442
654.825	0.0147302
654.904	0.0146801
654.982	0.0146638
655.060	0.0145881
655.138	0.0145222
655.216	0.0146303
655.294	0.0146707
655.372	0.0145174
655.450	0.0146003
655.529	0.0146320
655.607	0.0146517
655.685	0.0146396
655.763	0.0145830
655.841	0.0145572
655.919	0.0146344
655.997	0.0146494
656.075	0.0145810
656.154	0.0146098
656.232	0.0145763
656.310	0.0146052
656.388	0.0146182
656.466	0.0147400
656.544	0.0145628
656.622	0.0146162
656.700	0.0145557
656.779	0.0146210
656.857	0.0144823
656.935	0.0147196
657.013	0.0145879
657.091	0.0146483
657.169	0.0147273
657.247	0.0145271
657.325	0.0144939
657.404	0.0146131
657.482	0.0146482
657.560	0.0145407
657.638	0.0146752
657.716	0.0146127
657.794	0.0144929
657.872	0.0147065
657.950	0.0147304
658.029	0.0147567
658.107	0.0146599
658.185	0.0145971
658.263	0.0145265
658.341	0.0146770
658.419	0.0147807
658.497	0.0148100
658.575	0.0146040
658.654	0.0146124
658.732	0.0145837
658.810	0.0147890
658.888	0.0147151
658.966	0.0145605
659.044	0.0147341
659.122	0.0146396
659.200	0.0145713
659.279	0.0146815
659.357	0.0146581
659.435	0.0146587
659.513	0.0147347
659.591	0.0144524
659.669	0.0145061
659.747	0.0146873
659.825	0.0147229
659.904	0.0147071
659.982	0.0146136
660.060	0.0146680
660.138	0.0147231
660.216	0.0145841
660.294	0.0145144
660.372	0.0147054
660.450	0.0145640
660.529	0.0146234
660.607	0.0147220
660.685	0.0145879
660.763	0.0146546
660.841	0.0147188
660.919	0.0145323
660.997	0.0146284
661.075	0.0145519
661.154	0.0145184
661.232	0.0146136
661.310	0.0146595
661.388	0.0146329
661.466	0.0145315
661.544	0.0147110
661.622	0.0147425
661.700	0.0146299
661.779	0.0147444
661.857	0.0144593
661.935	0.0146173
662.013	0.0147115
662.091	0.0146628
662.169	0.0146325
662.247	0.0147016
662.325	0.0147075
662.404	0.0146710
662.482	0.0145841
662.560	0.0145992
662.638	0.0146667
662.716	0.0146608
662.794	0.0147758
662.872	0.0147704
662.950	0.0145587
663.029	0.0145842
663.107	0.0147637
663.185	0.0147532
663.263	0.0147514
663.341	0.0146590
663.419	0.0147607
663.497	0.0147044
663.575	0.0147743
663.654	0.0146028
663.732	0.0145406
663.810	0.0146567
663.888	0.0146793
663.966	0.0147401
664.044	0.0147829
664.122	0.0146432
664.200	0.0146262
664.279	0.0146042
664.357	0.0147334
664.435	0.0146019
664.513	0.0146329
664.591	0.0146467
664.669	0.0146925
664.747	0.0147811
664.825	0.0147409
664.904	0.0147387
664.982	0.0145988
665.060	0.0145532
665.138	0.0146557
665.216	0.0145047
665.294	0.0146310
665.372	0.0147426
665.450	0.0145946
665.529	0.0146622
665.607	0.0147457
665.685	0.0147910
665.763	0.0146033
665.841	0.0146358
665.919	0.0147506
665.997	0.0147336
666.075	0.0145580
666.154	0.0145797
666.232	0.0147516
666.310	0.0146699
666.388	0.0146244
666.466	0.0146805
666.544	0.0147810
666.622	0.0146783
666.700	0.0146601
666.779	0.0146353
666.857	0.0147462
666.935	0.0146564
667.013	0.0146536
667.091	0.0146131
667.169	0.0145509
667.247	0.0146440
667.325	0.0147159
667.404	0.0145583
667.482	0.0148253
667.560	0.0147867
667.638	0.0148083
667.716	0.0147702
667.794	0.0146719
667.872	0.0146414
667.950	0.0147946
668.029	0.0147006
668.107	0.0145628
668.185	0.0147005
668.263	0.0147666
668.341	0.0147057
668.419	0.0146215
668.497	0.0146885
668.575	0.0146147
668.654	0.0146611
668.732	0.0146289
668.810	0.0146987
668.888	0.0145802
668.966	0.0145706
669.044	0.0147184
669.122	0.0146629
669.200	0.0146648
669.279	0.0146587
669.357	0.0145483
669.435	0.0145464
669.513	0.0147311
669.591	0.0146209
669.669	0.0146870
669.747	0.0146779
669.825	0.0146002
669.904	0.0146410
669.982	0.0146810
670.060	0.0147324
670.138	0.0147507
670.216	0.0144997
670.294	0.0146401
670.372	0.0144587
670.450	0.0145882
670.529	0.0147073
670.607	0.0146687
670.685	0.0146127
670.763	0.0146081
670.841	0.0145725
670.919	0.0146256
670.997	0.0145808
671.075	0.0144872
671.154	0.0145367
671.232	0.0145184
671.310	0.0146198
671.388	0.0145333
671.466	0.0145864
671.544	0.0145952
671.622	0.0145602
671.700	0.0146953
671.779	0.0146568
671.857	0.0145315
671.935	0.0145572
672.013	0.0145535
672.091	0.0146298
672.169	0.0145128
672.247	0.0145304
672.325	0.0146842
672.404	0.0146538
672.482	0.0146951
672.560	0.0145267
672.638	0.0144949
672.716	0.0145737
672.794	0.0146558
672.872	0.0145950
672.950	0.0145028
673.029	0.0146470
673.107	0.0146842
673.185	0.0146155
673.263	0.0146113
673.341	0.0146693
673.419	0.0146041
673.497	0.0146811
673.575	0.0146690
673.654	0.0145591
673.732	0.0146404
673.810	0.0146285
673.888	0.0146862
673.966	0.0145926
674.044	0.0145615
674.122	0.0146029
674.200	0.0146364
674.279	0.0145935
674.357	0.0147116
674.435	0.0145898
674.513	0.0146627
674.591	0.0146837
674.669	0.0146342
674.747	0.0146709
674.825	0.0148393
674.904	0.0147357
674.982	0.0145982
675.060	0.0147720
675.138	0.0147675
675.216	0.0146199
675.294	0.0148421
675.372	0.0147459
675.450	0.0147433
675.529	0.0147982
675.607	0.0147869
675.685	0.0148294
675.763	0.0147992
675.841	0.0146974
675.919	0.0147043
675.997	0.0147491
676.075	0.0147653
676.154	0.0147623
676.232	0.0146660
676.310	0.0147295
676.388	0.0146489
676.466	0.0147865
676.544	0.0147619
676.622	0.0147506
676.700	0.0148171
676.779	0.0149215
676.857	0.0149183
676.935	0.0147918
677.013	0.0147095
677.091	0.0148795
677.169	0.0148096
677.247	0.0147040
677.325	0.0149271
677.404	0.0149149
677.482	0.0148162
677.560	0.0149043
677.638	0.0148093
677.716	0.0148470
677.794	0.0149039
677.872	0.0147897
677.950	0.0149533
678.029	0.0148030
678.107	0.0147820
678.185	0.0147752
678.263	0.0148492
678.341	0.0147800
678.419	0.0149609
678.497	0.0147905
678.575	0.0147507
678.654	0.0146523
678.732	0.0147662
678.810	0.0147416
678.888	0.0148124
678.966	0.0146811
679.044	0.0147028
679.122	0.0147872
679.200	0.0148547
679.279	0.0146434
679.357	0.0146432
679.435	0.0147775
679.513	0.0147844
679.591	0.0147364
679.669	0.0147269
679.747	0.0146462
679.825	0.0147247
679.904	0.0146193
679.982	0.0146725
680.060	0.0147781
680.138	0.0148084
680.216	0.0146835
680.294	0.0146896
680.372	0.0146514
680.450	0.0146262
680.529	0.0146484
680.607	0.0146314
680.685	0.0145613
680.763	0.0146526
680.841	0.0146435
680.919	0.0146172
680.997	0.0147249
681.075	0.0146560
681.154	0.0147328
681.232	0.0145026
681.310	0.0146415
681.388	0.0146583
681.466	0.0145255
681.544	0.0146712
681.622	0.0145810
681.700	0.0145895
681.779	0.0146621
681.857	0.0144918
681.935	0.0146346
682.013	0.0145150
682.091	0.0144665
682.169	0.0146571
682.247	0.0146042
682.325	0.0144775
682.404	0.0146447
682.482	0.0146459
682.560	0.0147055
682.638	0.0146040
682.716	0.0146484
682.794	0.0145426
682.872	0.0145611
682.950	0.0146579
683.029	0.0146231
683.107	0.0146561
683.185	0.0145583
683.263	0.0145620
683.341	0.0146621
683.419	0.0145676
683.497	0.0145443
683.575	0.0145081
683.654	0.0146230
683.732	0.0146474
683.810	0.0148052
683.888	0.0148286
683.966	0.0146525
684.044	0.0146571
684.122	0.0146539
684.200	0.0146388
684.279	0.0144914
684.357	0.0146420
684.435	0.0146178
684.513	0.0145531
684.591	0.0146037
684.669	0.0147480
684.747	0.0146295
684.825	0.0146004
684.904	0.0145407
684.982	0.0145541
685.060	0.0145985
685.138	0.0145637
685.216	0.0146033
685.294	0.0146333
685.372	0.0146738
685.450	0.0147454
685.529	0.0147487
685.607	0.0146145
685.685	0.0147546
685.763	0.0147203
685.841	0.0146853
685.919	0.0146813
685.997	0.0147974
686.075	0.0146236
686.154	0.0147058
686.232	0.0146951
686.310	0.0146696
686.388	0.0146403
686.466	0.0146011
686.544	0.0148391
686.622	0.0147939
686.700	0.0146109
686.779	0.0146427
686.857	0.0146585
686.935	0.0146838
687.013	0.0147178
687.091	0.0147354
687.169	0.0146276
687.247	0.0145634
687.325	0.0147836
687.404	0.0147949
687.482	0.0146758
687.560	0.0144790
687.638	0.0146527
687.716	0.0147218
687.794	0.0146626
687.872	0.0146052
687.950	0.0146980
688.029	0.0146901
688.107	0.0146168
688.185	0.0148085
688.263	0.0147871
688.341	0.0147468
688.419	0.0147681
688.497	0.0149377
688.575	0.0148676
688.654	0.0149354
688.732	0.0149539
688.810	0.0149283
688.888	0.0147301
688.966	0.0147795
689.044	0.0144857
689.122	0.0141517
689.200	0.0139724
689.279	0.0139284
689.357	0.0135703
689.435	0.0137684
689.513	0.0141003
689.591	0.0144092
689.669	0.0147488
689.747	0.0153475
689.825	0.0159222
689.904	0.0165091
689.982	0.0168950
690.060	0.0170784
690.138	0.0174046
690.216	0.0172890
690.294	0.0168101
690.372	0.0162225
690.450	0.0152687
690.529	0.0143723
690.607	0.0133944
690.685	0.0121385
690.763	0.0112341
690.841	0.0102681
690.919	0.00967117
690.997	0.00940392
691.075	0.00955101
691.154	0.0101904
691.232	0.0112353
691.310	0.0124794
691.388	0.0139413
691.466	0.0155812
691.544	0.0173376
691.622	0.0187981
691.700	0.0201154
691.779	0.0210143
691.857	0.0215823
691.935	0.0218133
692.013	0.0215996
692.091	0.0211755
692.169	0.0202263
692.247	0.0189689
692.325	0.0174047
692.404	0.0157460
692.482	0.0140652
692.560	0.0124518
692.638	0.0109263
692.716	0.00963089
692.794	0.00864006
692.872	0.00779182
692.950	0.00722069
693.029	0.00728325
693.107	0.00735634
693.185	0.00778069
693.263	0.00838783
693.341	0.00934036
693.419	0.0105350
693.497	0.0117622
693.575	0.0131326
693.654	0.0143552
693.732	0.0155708
693.810	0.0169473
693.888	0.0183677
693.966	0.0192096
694.044	0.0201099
694.122	0.0206876
694.200	0.0213043
694.279	0.0216128
694.357	0.0215466
694.435	0.0212594
694.513	0.0208006
694.591	0.0202652
694.669	0.0195412
694.747	0.0185757
694.825	0.0176900
694.904	0.0166483
694.982	0.0156192
695.060	0.0145626
695.138	0.0136324
695.216	0.0125371
695.294	0.0116186
695.372	0.0108346
695.450	0.0101192
695.529	0.00946579
695.607	0.00923149
695.685	0.00899887
695.763	0.00897720
695.841	0.00910942
695.919	0.00935051
695.997	0.00968758
696.075	0.0101668
696.154	0.0110044
696.232	0.0116486
696.310	0.0123338
696.388	0.0129991
696.466	0.0137787
696.544	0.0142982
696.622	0.0147459
696.700	0.0154587
696.779	0.0160301
696.857	0.0165373
696.935	0.0170263
697.013	0.0175389
697.091	0.0179157
697.169	0.0183551
697.247	0.0185886
697.325	0.0187125
697.404	0.0189471
697.482	0.0189306
697.560	0.0188847
697.638	0.0187191
697.716	0.0184747
697.794	0.0180888
697.872	0.0176217
697.950	0.0173291
698.029	0.0168867
698.107	0.0164224
698.185	0.0159779
698.263	0.0155104
698.341	0.0147713
698.419	0.0142728
698.497	0.0138414
698.575	0.0132253
698.654	0.0127266
698.732	0.0121402
698.810	0.0116018
698.888	0.0111237
698.966	0.0107600
699.044	0.0105156
699.122	0.0102692
699.200	0.0101736
699.279	0.0103421
699.357	0.0105429
699.435	0.0108505
699.513	0.0112533
699.591	0.0117778
699.669	0.0125585
699.747	0.0132729
699.825	0.0138049
699.904	0.0143805
699.982	0.0151162
700.060	0.0157407
700.138	0.0161789
700.216	0.0165207
700.294	0.0169877
700.372	0.0169829
700.450	0.0171068
700.529	0.0170498
700.607	0.0170341
700.685	0.0167976
700.763	0.0166528
700.841	0.0164614
700.919	0.0163331
700.997	0.0161726
701.075	0.0157898
701.154	0.0156458
701.232	0.0154491
701.310	0.0151986
701.388	0.0150581
701.466	0.0149144
701.544	0.0147397
701.622	0.0146327
701.700	0.0146512
701.779	0.0145484
701.857	0.0143729
701.935	0.0145281
702.013	0.0145817
702.091	0.0145792
702.169	0.0147191
702.247	0.0149046
702.325	0.0149514
702.404	0.0150330
702.482	0.0150412
702.560	0.0153345
702.638	0.0152551
702.716	0.0155424
702.794	0.0154279
702.872	0.0154098
702.950	0.0151981
703.029	0.0150389
703.107	0.0149701
703.185	0.0148277
703.263	0.0145144
703.341	0.0141988
703.419	0.0138251
703.497	0.0137314
703.575	0.0136520
703.654	0.0132851
703.732	0.0131551
703.810	0.0132363
703.888	0.0131907
703.966	0.0131464
704.044	0.0133051
704.122	0.0132003
704.200	0.0132932
704.279	0.0135715
704.357	0.0136473
704.435	0.0138814
704.513	0.0141495
704.591	0.0142169
704.669	0.0146600
704.747	0.0148404
704.825	0.0151229
704.904	0.0154320
704.982	0.0156034
705.060	0.0157366
705.138	0.0160020
705.216	0.0161591
705.294	0.0160490
705.372	0.0161306
705.450	0.0161275
705.529	0.0161234
705.607	0.0159061
705.685	0.0156832
705.763	0.0155139
705.841	0.0149825
705.919	0.0147308
705.997	0.0143999
706.075	0.0141138
706.154	0.0137736
706.232	0.0135521
706.310	0.0133234
706.388	0.0133303
706.466	0.0133717
706.544	0.0135124
706.622	0.0138731
706.700	0.0141678
706.779	0.0144421
706.857	0.0147459
706.935	0.0150145
707.013	0.0154175
707.091	0.0157410
707.169	0.0158947
707.247	0.0162877
707.325	0.0164561
707.404	0.0165324
707.482	0.0165298
707.560	0.0165220
707.638	0.0163409
707.716	0.0162422
707.794	0.0159797
707.872	0.0156696
707.950	0.0153198
708.029	0.0150383
708.107	0.0146191
708.185	0.0141750
708.263	0.0139345
708.341	0.0135333
708.419	0.0133250
708.497	0.0130154
708.575	0.0128742
708.654	0.0128458
708.732	0.0126165
708.810	0.0127802
708.888	0.0128538
708.966	0.0130676
709.044	0.0131685
709.122	0.0134171
709.200	0.0136224
709.279	0.0137807
709.357	0.0138936
709.435	0.0139238
709.513	0.0140691
709.591	0.0144281
709.669	0.0146003
709.747	0.0145323
709.825	0.0147437
709.904	0.0149724
709.982	0.0153153
710.060	0.0154420
710.138	0.0154833
710.216	0.0156341
710.294	0.0158624
710.372	0.0158465
710.450	0.0159570
710.529	0.0160156
710.607	0.0160117
710.685	0.0161183
710.763	0.0158092
710.841	0.0155794
710.919	0.0155218
710.997	0.0154407
711.075	0.0152445
711.154	0.0149206
711.232	0.0147252
711.310	0.0147212
711.388	0.0145471
711.466	0.0144830
711.544	0.0142736
711.622	0.0142146
711.700	0.0142308
711.779	0.0142569
711.857	0.0140860
711.935	0.0141613
712.013	0.0142628
712.091	0.0144317
712.169	0.0144073
712.247	0.0145725
712.325	0.0146906
712.404	0.0146904
712.482	0.0146880
712.560	0.0147005
712.638	0.0146410
712.716	0.0146362
712.794	0.0145251
712.872	0.0145636
712.950	0.0144892
713.029	0.0143934
713.107	0.0143455
713.185	0.0142051
713.263	0.0141753
713.341	0.0144736
713.419	0.0145488
713.497	0.0146777
713.575	0.0147555
713.654	0.0148872
713.732	0.0150034
713.810	0.0150249
713.888	0.0151094
713.966	0.0150532
714.044	0.0150365
714.122	0.0150092
714.200	0.0149795
714.279	0.0148140
714.357	0.0148058
714.435	0.0147929
714.513	0.0148251
714.591	0.0148309
714.669	0.0146953
714.747	0.0146940
714.825	0.0147298
714.904	0.0146582
714.982	0.0148931
715.060	0.0148869
715.138	0.0147442
715.216	0.0146901
715.294	0.0147543
715.372	0.0147398
715.450	0.0146912
715.529	0.0146086
715.607	0.0145168
715.685	0.0145665
715.763	0.0144833
715.841	0.0145929
715.919	0.0145924
715.997	0.0147093
716.075	0.0148052
716.154	0.0146939
716.232	0.0145989
716.310	0.0145480
716.388	0.0144097
716.466	0.0144606
716.544	0.0143341
716.622	0.0142205
716.700	0.0141986
716.779	0.0141127
716.857	0.0139677
716.935	0.0139138
717.013	0.0138847
717.091	0.0139816
717.169	0.0138980
717.247	0.0139688
717.325	0.0142229
717.404	0.0142315
717.482	0.0142712
717.560	0.0146132
717.638	0.0148344
717.716	0.0149728
717.794	0.0151882
717.872	0.0153384
717.950	0.0153584
718.029	0.0153993
718.107	0.0154297
718.185	0.0155861
718.263	0.0156268
718.341	0.0156109
718.419	0.0155205
718.497	0.0154925
718.575	0.0154205
718.654	0.0154803
718.732	0.0153209
718.810	0.0151931
718.888	0.0151511
718.966	0.0149570
719.044	0.0148616
719.122	0.0146672
719.200	0.0147290
719.279	0.0145615
719.357	0.0144742
719.435	0.0144714
719.513	0.0144245
719.591	0.0143327
719.669	0.0144195
719.747	0.0142416
719.825	0.0142200
719.904	0.0141827
719.982	0.0142238
720.060	0.0141782
720.138	0.0143457
720.216	0.0142580
720.294	0.0141892
720.372	0.0142853
720.450	0.0144393
720.529	0.0146378
720.607	0.0145699
720.685	0.0145999
720.763	0.0147092
720.841	0.0147777
720.919	0.0148422
720.997	0.0149518
721.075	0.0148972
721.154	0.0150254
721.232	0.0150942
721.310	0.0150266
721.388	0.0151133
721.466	0.0152339
721.544	0.0151338
721.622	0.0150030
721.700	0.0148785
721.779	0.0149406
721.857	0.0149603
721.935	0.0147456
722.013	0.0148199
722.091	0.0146593
722.169	0.0143938
722.247	0.0142451
722.325	0.0143042
722.404	0.0139819
722.482	0.0137488
722.560	0.0137889
722.638	0.0135706
722.716	0.0136044
722.794	0.0134248
722.872	0.0134076
722.950	0.0133908
723.029	0.0135522
723.107	0.0134612
723.185	0.0134356
723.263	0.0137716
723.341	0.0139857
723.419	0.0141612
723.497	0.0142510
723.575	0.0145021
723.654	0.0147725
723.732	0.0148804
723.810	0.0150506
723.888	0.0152334
723.966	0.0152195
724.044	0.0154277
724.122	0.0155916
724.200	0.0153600
724.279	0.0153967
724.357	0.0154463
724.435	0.0153756
724.513	0.0153981
724.591	0.0154523
724.669	0.0153091
724.747	0.0153215
724.825	0.0153487
724.904	0.0153638
724.982	0.0155029
725.060	0.0155330
725.138	0.0153684
725.216	0.0153218
725.294	0.0153944
725.372	0.0154375
725.450	0.0153176
725.529	0.0152279
725.607	0.0150999
725.685	0.0151028
725.763	0.0151129
725.841	0.0148772
725.919	0.0148270
725.997	0.0148231
726.075	0.0148262
726.154	0.0149173
726.232	0.0147845
726.310	0.0147752
726.388	0.0146671
726.466	0.0145245
726.544	0.0145412
726.622	0.0145750
726.700	0.0144213
726.779	0.0144077
726.857	0.0143736
726.935	0.0142477
727.013	0.0142797
727.091	0.0143149
727.169	0.0142798
727.247	0.0141338
727.325	0.0141746
727.404	0.0141279
727.482	0.0141402
727.560	0.0141458
727.638	0.0140697
727.716	0.0141422
727.794	0.0141022
727.872	0.0142961
727.950	0.0140752
728.029	0.0142796
728.107	0.0143695
728.185	0.0144668
728.263	0.0144991
728.341	0.0145207
728.419	0.0146043
728.497	0.0145718
728.575	0.0148438
728.654	0.0146677
728.732	0.0146365
728.810	0.0144976
728.888	0.0145098
728.966	0.0144641
729.044	0.0143530
729.122	0.0142455
729.200	0.0143811
729.279	0.0141439
729.357	0.0140550
729.435	0.0143160
729.513	0.0144086
729.591	0.0145028
729.669	0.0145377
729.747	0.0146597
729.825	0.0148023
729.904	0.0147977
729.982	0.0149166
730.060	0.0149937
730.138	0.0149252
730.216	0.0150544
730.294	0.0151994
730.372	0.0151115
730.450	0.0151566
730.529	0.0152772
730.607	0.0153948
730.685	0.0154205
730.763	0.0152295
730.841	0.0153661
730.919	0.0154587
730.997	0.0153915
731.075	0.0153264
731.154	0.0153198
731.232	0.0152637
731.310	0.0152370
731.388	0.0149937
731.466	0.0150349
731.544	0.0149745
731.622	0.0149262
731.700	0.0148489
731.779	0.0146931
731.857	0.0147162
731.935	0.0148441
732.013	0.0148048
732.091	0.0147231
732.169	0.0148604
732.247	0.0148508
732.325	0.0147264
732.404	0.0146929
732.482	0.0146544
732.560	0.0146083
732.638	0.0144292
732.716	0.0143040
732.794	0.0142453
732.872	0.0141607
732.950	0.0138992
733.029	0.0138374
733.107	0.0138921
733.185	0.0140755
733.263	0.0139220
733.341	0.0139801
733.419	0.0140858
733.497	0.0141553
733.575	0.0142233
733.654	0.0143071
733.732	0.0143909
733.810	0.0145039
733.888	0.0146090
733.966	0.0146889
734.044	0.0146653
734.122	0.0146158
734.200	0.0146335
734.279	0.0146832
734.357	0.0146875
734.435	0.0145640
734.513	0.0144398
734.591	0.0144408
734.669	0.0144328
734.747	0.0142589
734.825	0.0143762
734.904	0.0142886
734.982	0.0142805
735.060	0.0142486
735.138	0.0140765
735.216	0.0143182
735.294	0.0144296
735.372	0.0145002
735.450	0.0146169
735.529	0.0149107
735.607	0.0150219
735.685	0.0152142
735.763	0.0153033
735.841	0.0154029
735.919	0.0155703
735.997	0.0156089
736.075	0.0155167
736.154	0.0155458
736.232	0.0155044
736.310	0.0153636
736.388	0.0151261
736.466	0.0150208
736.544	0.0149939
736.622	0.0148791
736.700	0.0146463
736.779	0.0144625
736.857	0.0144209
736.935	0.0143144
737.013	0.0142509
737.091	0.0144201
737.169	0.0142894
737.247	0.0144130
737.325	0.0144709
737.404	0.0144454
737.482	0.0144000
737.560	0.0144675
737.638	0.0146397
737.716	0.0145530
737.794	0.0147225
737.872	0.0148396
737.950	0.0148563
738.029	0.0148186
738.107	0.0148466
738.185	0.0148689
738.263	0.0150171
738.341	0.0150053
738.419	0.0151274
738.497	0.0148476
738.575	0.0150127
738.654	0.0150775
738.732	0.0150307
738.810	0.0149350
738.888	0.0147617
738.966	0.0148811
739.044	0.0147710
739.122	0.0145489
739.200	0.0145345
739.279	0.0143719
739.357	0.0144594
739.435	0.0142068
739.513	0.0143058
739.591	0.0144324
739.669	0.0145027
739.747	0.0143803
739.825	0.0144408
739.904	0.0144920
739.982	0.0144875
740.060	0.0146889
740.138	0.0147823
740.216	0.0148164
740.294	0.0147374
740.372	0.0147334
740.450	0.0149458
740.529	0.0146811
740.607	0.0146272
740.685	0.0146214
740.763	0.0147138
740.841	0.0146826
740.919	0.0146964
740.997	0.0147227
741.075	0.0146889
741.154	0.0146165
741.232	0.0146841
741.310	0.0148704
741.388	0.0147798
741.466	0.0147169
741.544	0.0147874
741.622	0.0145775
741.700	0.0146217
741.779	0.0145497
741.857	0.0145820
741.935	0.0144141
742.013	0.0143910
742.091	0.0143683
742.169	0.0143188
742.247	0.0144576
742.325	0.0143048
742.404	0.0142635
742.482	0.0143784
742.560	0.0142404
742.638	0.0143044
742.716	0.0144675
742.794	0.0144692
742.872	0.0144895
742.950	0.0146293
743.029	0.0145565
743.107	0.0144617
743.185	0.0146083
743.263	0.0146815
743.341	0.0146121
743.419	0.0147060
743.497	0.0147275
743.575	0.0148370
743.654	0.0149070
743.732	0.0147706
743.810	0.0149549
743.888	0.0148236
743.966	0.0149456
744.044	0.0151022
744.122	0.0149112
744.200	0.0149818
744.279	0.0151363
744.357	0.0151395
744.435	0.0150408
744.513	0.0149156
744.591	0.0148176
744.669	0.0148183
744.747	0.0148414
744.825	0.0148158
744.904	0.0148003
744.982	0.0145049
745.060	0.0145529
745.138	0.0145203
745.216	0.0145700
745.294	0.0143793
745.372	0.0142875
745.450	0.0143587
745.529	0.0142944
745.607	0.0142551
745.685	0.0142952
745.763	0.0143748
745.841	0.0143439
745.919	0.0144215
745.997	0.0146359
746.075	0.0144983
746.154	0.0147243
746.232	0.0148079
746.310	0.0147692
746.388	0.0148431
746.466	0.0149504
746.544	0.0149365
746.622	0.0150677
746.700	0.0149434
746.779	0.0149881
746.857	0.0150401
746.935	0.0150463
747.013	0.0148083
747.091	0.0148473
747.169	0.0147596
747.247	0.0147431
747.325	0.0146928
747.404	0.0147976
747.482	0.0147053
747.560	0.0147523
747.638	0.0146748
747.716	0.0145567
747.794	0.0145141
747.872	0.0145345
747.950	0.0145880
748.029	0.0145705
748.107	0.0143492
748.185	0.0143894
748.263	0.0142773
748.341	0.0142473
748.419	0.0142248
748.497	0.0142821
748.575	0.0141692
748.654	0.0142371
748.732	0.0143424
748.810	0.0141830
748.888	0.0142863
748.966	0.0144025
749.044	0.0145126
749.122	0.0145107
749.200	0.0146331
749.279	0.0146874
749.357	0.0147068
749.435	0.0148006
749.513	0.0148165
749.591	0.0149244
749.669	0.0148193
749.747	0.0149097
749.825	0.0149911
749.904	0.0149177
749.982	0.0148853
750.060	0.0145960
750.138	0.0147472
750.216	0.0147376
750.294	0.0148339
750.372	0.0148821
750.450	0.0146250
750.529	0.0145898
750.607	0.0145473
750.685	0.0145239
750.763	0.0144356
750.841	0.0145134
750.919	0.0145410
750.997	0.0146072
751.075	0.0143972
751.154	0.0144109
751.232	0.0145947
751.310	0.0145625
751.388	0.0148823
751.466	0.0148260
751.544	0.0148215
751.622	0.0149043
751.700	0.0149143
751.779	0.0149499
751.857	0.0151869
751.935	0.0151238
752.013	0.0150722
752.091	0.0150249
752.169	0.0149411
752.247	0.0149355
752.325	0.0148025
752.404	0.0149052
752.482	0.0150201
752.560	0.0147555
752.638	0.0146293
752.716	0.0145686
752.794	0.0147153
752.872	0.0146873
752.950	0.0145700
753.029	0.0145692
753.107	0.0144414
753.185	0.0145377
753.263	0.0143886
753.341	0.0144495
753.419	0.0146655
753.497	0.0145963
753.575	0.0146174
753.654	0.0145901
753.732	0.0147797
753.810	0.0146996
753.888	0.0148161
753.966	0.0149828
754.044	0.0149861
754.122	0.0148721
754.200	0.0149641
754.279	0.0150641
754.357	0.0149639
754.435	0.0149496
754.513	0.0149660
754.591	0.0149959
754.669	0.0147645
754.747	0.0147477
754.825	0.0147456
754.904	0.0146608
754.982	0.0147440
755.060	0.0147438
755.138	0.0146703
755.216	0.0144694
755.294	0.0144997
755.372	0.0145614
755.450	0.0147202
755.529	0.0146658
755.607	0.0143808
755.685	0.0144977
755.763	0.0145065
755.841	0.0142998
755.919	0.0142800
755.997	0.0143809
756.075	0.0143944
756.154	0.0142155
756.232	0.0141306
756.310	0.0140705
756.388	0.0140391
756.466	0.0140951
756.544	0.0140603
756.622	0.0139578
756.700	0.0140811
756.779	0.0141561
756.857	0.0142762
756.935	0.0143303
757.013	0.0143477
757.091	0.0146715
757.169	0.0146362
757.247	0.0146813
757.325	0.0148605
757.404	0.0149586
757.482	0.0149072
757.560	0.0149236
757.638	0.0150188
757.716	0.0151324
757.794	0.0149152
757.872	0.0149792
757.950	0.0148699
758.029	0.0146714
758.107	0.0145484
758.185	0.0147039
758.263	0.0145281
758.341	0.0143841
758.419	0.0143409
758.497	0.0141352
758.575	0.0141843
758.654	0.0140872
758.732	0.0142532
758.810	0.0144508
758.888	0.0145370
758.966	0.0145534
759.044	0.0144429
759.122	0.0146020
759.200	0.0145850
759.279	0.0145891
759.357	0.0146963
759.435	0.0147465
759.513	0.0148390
759.591	0.0149856
759.669	0.0149309
759.747	0.0148785
759.825	0.0150497
759.904	0.0149487
759.982	0.0150066
760.060	0.0150682
760.138	0.0150799
760.216	0.0150616
760.294	0.0151303
760.372	0.0151155
760.450	0.0150539
760.529	0.0151602
760.607	0.0151400
760.685	0.0150485
760.763	0.0151273
760.841	0.0149673
760.919	0.0151061
760.997	0.0149571
761.075	0.0149659
761.154	0.0147855
761.232	0.0147394
761.310	0.0148713
761.388	0.0147678
761.466	0.0145347
761.544	0.0145423
761.622	0.0144934
761.700	0.0144549
761.779	0.0144319
761.857	0.0144049
761.935	0.0141742
762.013	0.0143519
762.091	0.0142951
762.169	0.0143681
762.247	0.0143022
762.325	0.0141462
762.404	0.0143241
762.482	0.0142558
762.560	0.0141306
762.638	0.0142410
762.716	0.0141354
762.794	0.0142042
762.872	0.0141785
762.950	0.0143690
763.029	0.0143160
763.107	0.0143907
763.185	0.0144855
763.263	0.0144416
763.341	0.0144607
763.419	0.0145577
763.497	0.0146067
763.575	0.0146367
763.654	0.0146330
763.732	0.0146256
763.810	0.0147602
763.888	0.0148637
763.966	0.0147991
764.044	0.0149020
764.122	0.0150706
764.200	0.0151409
764.279	0.0150185
764.357	0.0148416
764.435	0.0150874
764.513	0.0149692
764.591	0.0148610
764.669	0.0149172
764.747	0.0149659
764.825	0.0148705
764.904	0.0149166
764.982	0.0148248
765.060	0.0147804
765.138	0.0146668
765.216	0.0148000
765.294	0.0145785
765.372	0.0147571
765.450	0.0148312
765.529	0.0147557
765.607	0.0147427
765.685	0.0146786
765.763	0.0147346
765.841	0.0145010
765.919	0.0146490
765.997	0.0146049
766.075	0.0144059
766.154	0.0144494
766.232	0.0144435
766.310	0.0143137
766.388	0.0142778
766.466	0.0144341
766.544	0.0144719
766.622	0.0145695
766.700	0.0143786
766.779	0.0144586
766.857	0.0145702
766.935	0.0146642
767.013	0.0146124
767.091	0.0146545
767.169	0.0147458
767.247	0.0146565
767.325	0.0146974
767.404	0.0144989
767.482	0.0147452
767.560	0.0147716
767.638	0.0146633
767.716	0.0147657
767.794	0.0146815
767.872	0.0147134
767.950	0.0146925
768.029	0.0148588
768.107	0.0148669
768.185	0.0147990
768.263	0.0149388
768.341	0.0147336
768.419	0.0146904
768.497	0.0147031
768.575	0.0146140
768.654	0.0146743
768.732	0.0146230
768.810	0.0145701
768.888	0.0145879
768.966	0.0145368
769.044	0.0146265
769.122	0.0146642
769.200	0.0146078
769.279	0.0147173
769.357	0.0147771
769.435	0.0146609
769.513	0.0146787
769.591	0.0147917
769.669	0.0147756
769.747	0.0146874
769.825	0.0147034
769.904	0.0146037
769.982	0.0147290
770.060	0.0148332
770.138	0.0146803
770.216	0.0145910
770.294	0.0146900
770.372	0.0146830
770.450	0.0147254
770.529	0.0147538
770.607	0.0147782
770.685	0.0147573
770.763	0.0148363
770.841	0.0148540
770.919	0.0148559
770.997	0.0148804
771.075	0.0149268
771.154	0.0147893
771.232	0.0147041
771.310	0.0147365
771.388	0.0146448
771.466	0.0145841
771.544	0.0146355
771.622	0.0146994
771.700	0.0145406
771.779	0.0146537
771.857	0.0145131
771.935	0.0144494
772.013	0.0143875
772.091	0.0144291
772.169	0.0144501
772.247	0.0144658
772.325	0.0143664
772.404	0.0143425
772.482	0.0142502
772.560	0.0142790
772.638	0.0142451
772.716	0.0144357
772.794	0.0144290
772.872	0.0144444
772.950	0.0142913
773.029	0.0144594
773.107	0.0145010
773.185	0.0144808
773.263	0.0145261
773.341	0.0146510
773.419	0.0147062
773.497	0.0146655
773.575	0.0147052
773.654	0.0148291
773.732	0.0148475
773.810	0.0149591
773.888	0.0149021
773.966	0.0150031
774.044	0.0150245
774.122	0.0151036
774.200	0.0151167
774.279	0.0151037
774.357	0.0150866
774.435	0.0150629
774.513	0.0150961
774.591	0.0151583
774.669	0.0151673
774.747	0.0149822
774.825	0.0149854
774.904	0.0149057
774.982	0.0148518
775.060	0.0148738
775.138	0.0148470
775.216	0.0147440
775.294	0.0147167
775.372	0.0147735
775.450	0.0145772
775.529	0.0145282
775.607	0.0145402
775.685	0.0146024
775.763	0.0145158
775.841	0.0145075
775.919	0.0146027
775.997	0.0145857
776.075	0.0144791
776.154	0.0148506
776.232	0.0147787
776.310	0.0147338
776.388	0.0148188
776.466	0.0147142
776.544	0.0149208
776.622	0.0149509
776.700	0.0149963
776.779	0.0149251
776.857	0.0147012
776.935	0.0149136
777.013	0.0149638
777.091	0.0148618
777.169	0.0147729
777.247	0.0147231
777.325	0.0146958
777.404	0.0146687
777.482	0.0145876
777.560	0.0146196
777.638	0.0145668
777.716	0.0145791
777.794	0.0146281
777.872	0.0145250
777.950	0.0144556
778.029	0.0144591
778.107	0.0144290
778.185	0.0143436
778.263	0.0142998
778.341	0.0144335
778.419	0.0144749
778.497	0.0144331
778.575	0.0145135
778.654	0.0145004
778.732	0.0145918
778.810	0.0145528
778.888	0.0146201
778.966	0.0146136
779.044	0.0146451
779.122	0.0147184
779.200	0.0147192
779.279	0.0148162
779.357	0.0147997
779.435	0.0147448
779.513	0.0149039
779.591	0.0149289
779.669	0.0146669
779.747	0.0147956
779.825	0.0148599
779.904	0.0146474
779.982	0.0146277
780.060	0.0146149
780.138	0.0144991
780.216	0.0145439
780.294	0.0144971
780.372	0.0145693
780.450	0.0145775
780.529	0.0145351
780.607	0.0145892
780.685	0.0144868
780.763	0.0144891
780.841	0.0145385
780.919	0.0145750
780.997	0.0146328
781.075	0.0147028
781.154	0.0145942
781.232	0.0147195
781.310	0.0146477
781.388	0.0146429
781.466	0.0148357
781.544	0.0147905
781.622	0.0148162
781.700	0.0147971
781.779	0.0149285
781.857	0.0147197
781.935	0.0146624
782.013	0.0148393
782.091	0.0148172
782.169	0.0149413
782.247	0.0149456
782.325	0.0148302
782.404	0.0148090
782.482	0.0148978
782.560	0.0148486
782.638	0.0148463
782.716	0.0148002
782.794	0.0149135
782.872	0.0148443
782.950	0.0147665
783.029	0.0149017
783.107	0.0147737
783.185	0.0146857
783.263	0.0145702
783.341	0.0145663
783.419	0.0145895
783.497	0.0143394
783.575	0.0143362
783.654	0.0143993
783.732	0.0144884
783.810	0.0143781
783.888	0.0143332
783.966	0.0144131
784.044	0.0143476
784.122	0.0144169
784.200	0.0145523
784.279	0.0145063
784.357	0.0145981
784.435	0.0145950
784.513	0.0148238
784.591	0.0146920
784.669	0.0148672
784.747	0.0149110
784.825	0.0148769
784.904	0.0148583
784.982	0.0149897
785.060	0.0148777
785.138	0.0149610
785.216	0.0148771
785.294	0.0147666
785.372	0.0147080
785.450	0.0145686
785.529	0.0147398
785.607	0.0145821
785.685	0.0145668
785.763	0.0144880
785.841	0.0147305
785.919	0.0144763
785.997	0.0145582
786.075	0.0146127
786.154	0.0146310
786.232	0.0147305
786.310	0.0146922
786.388	0.0148093
786.466	0.0147905
786.544	0.0148778
786.622	0.0148272
786.700	0.0148762
786.779	0.0148982
786.857	0.0148095
786.935	0.0147421
787.013	0.0147514
787.091	0.0147025
787.169	0.0144200
787.247	0.0146098
787.325	0.0145301
787.404	0.0145313
787.482	0.0144286
787.560	0.0145058
787.638	0.0147161
787.716	0.0146556
787.794	0.0146795
787.872	0.0148069
787.950	0.0148885
788.029	0.0148240
788.107	0.0148376
788.185	0.0150147
788.263	0.0151144
788.341	0.0149854
788.419	0.0148417
788.497	0.0147717
788.575	0.0146701
788.654	0.0147606
788.732	0.0146495
788.810	0.0144365
788.888	0.0144196
788.966	0.0142660
789.044	0.0142444
789.122	0.0141294
789.200	0.0141989
789.279	0.0141204
789.357	0.0140118
789.435	0.0140874
789.513	0.0139249
789.591	0.0141296
789.669	0.0140591
789.747	0.0139594
789.825	0.0141931
789.904	0.0143210
789.982	0.0144788
790.060	0.0142892
790.138	0.0144205
790.216	0.0145080
790.294	0.0146327
790.372	0.0148288
790.450	0.0148893
790.529	0.0149339
790.607	0.0149829
790.685	0.0151408
790.763	0.0153354
790.841	0.0154504
790.919	0.0154690
790.997	0.0154134
791.075	0.0155115
791.154	0.0155579
791.232	0.0155759
791.310	0.0154539
791.388	0.0153538
791.466	0.0151793
791.544	0.0152051
791.622	0.0149792
791.700	0.0150449
791.779	0.0149088
791.857	0.0147677
791.935	0.0145970
792.013	0.0143871
792.091	0.0143266
792.169	0.0143335
792.247	0.0142517
792.325	0.0141386
792.404	0.0141320
792.482	0.0142370
792.560	0.0141407
792.638	0.0141252
792.716	0.0143501
792.794	0.0142636
792.872	0.0144032
792.950	0.0143610
793.029	0.0145639
793.107	0.0147282
793.185	0.0146201
793.263	0.0147807
793.341	0.0148726
793.419	0.0148325
793.497	0.0148515
793.575	0.0149696
793.654	0.0148773
793.732	0.0150082
793.810	0.0149664
793.888	0.0150298
793.966	0.0149403
794.044	0.0148711
794.122	0.0147864
794.200	0.0148818
794.279	0.0146696
794.357	0.0146674
794.435	0.0146794
794.513	0.0148111
794.591	0.0147785
794.669	0.0146261
794.747	0.0145910
794.825	0.0147053
794.904	0.0146033
794.982	0.0146710
795.060	0.0145539
795.138	0.0146951
795.216	0.0145160
795.294	0.0144432
795.372	0.0144198
795.450	0.0143930
795.529	0.0143774
795.607	0.0142882
795.685	0.0143213
795.763	0.0142932
795.841	0.0141873
795.919	0.0141975
795.997	0.0142699
796.075	0.0141778
796.154	0.0142444
796.232	0.0143101
796.310	0.0142410
796.388	0.0143480
796.466	0.0144775
796.544	0.0143209
796.622	0.0143471
796.700	0.0145139
796.779	0.0145715
796.857	0.0146434
796.935	0.0147899
797.013	0.0149051
797.091	0.0149617
797.169	0.0149911
797.247	0.0150967
797.325	0.0151692
797.404	0.0150591
797.482	0.0151570
797.560	0.0152878
797.638	0.0152176
797.716	0.0151402
797.794	0.0150740
797.872	0.0151849
797.950	0.0150342
798.029	0.0150513
798.107	0.0151587
798.185	0.0149241
798.263	0.0149026
798.341	0.0148676
798.419	0.0147216
798.497	0.0148218
798.575	0.0148072
798.654	0.0146738
798.732	0.0147250
798.810	0.0147798
798.888	0.0147454
798.966	0.0147675
799.044	0.0147386
799.122	0.0145361
799.200	0.0144202
799.279	0.0145005
799.357	0.0144541
799.435	0.0143287
799.513	0.0144228
799.591	0.0144378
799.669	0.0144548
799.747	0.0144450
799.825	0.0144014
799.904	0.0144318
799.982	0.0145388
800.060	0.0146300
800.138	0.0146607
800.216	0.0146338
800.294	0.0144832
800.372	0.0146255
800.450	0.0145753
800.529	0.0145936
800.607	0.0146335
800.685	0.0146411
800.763	0.0146552
800.841	0.0146507
800.919	0.0144897
800.997	0.0145850
801.075	0.0144595
801.154	0.0145251
801.232	0.0145263
801.310	0.0145728
801.388	0.0145361
801.466	0.0147095
801.544	0.0146903
801.622	0.0145356
801.700	0.0145544
801.779	0.0146351
801.857	0.0147483
801.935	0.0147212
802.013	0.0146371
802.091	0.0147455
802.169	0.0146513
802.247	0.0145166
802.325	0.0146398
802.404	0.0147134
802.482	0.0146982
802.560	0.0145235
802.638	0.0145288
802.716	0.0147892
802.794	0.0147046
802.872	0.0145501
802.950	0.0145856
803.029	0.0145999
803.107	0.0145334
803.185	0.0146910
803.263	0.0147369
803.341	0.0147161
803.419	0.0147342
803.497	0.0147705
803.575	0.0148116
803.654	0.0148476
803.732	0.0147401
803.810	0.0148412
803.888	0.0148268
803.966	0.0148512
804.044	0.0148389
804.122	0.0149723
804.200	0.0149009
804.279	0.0148873
804.357	0.0148319
804.435	0.0148884
804.513	0.0147382
804.591	0.0147626
804.669	0.0146616
804.747	0.0146553
804.825	0.0145714
804.904	0.0144098
804.982	0.0144714
805.060	0.0144793
805.138	0.0144364
805.216	0.0144883
805.294	0.0143901
805.372	0.0144808
805.450	0.0144717
805.529	0.0144175
805.607	0.0144581
805.685	0.0143246
805.763	0.0144349
805.841	0.0144852
805.919	0.0144727
805.997	0.0145155
806.075	0.0145983
806.154	0.0146505
806.232	0.0146166
806.310	0.0145164
806.388	0.0148083
806.466	0.0148111
806.544	0.0146969
806.622	0.0148849
806.700	0.0148198
806.779	0.0147512
806.857	0.0149692
806.935	0.0149167
807.013	0.0149512
807.091	0.0148489
807.169	0.0148612
807.247	0.0148979
807.325	0.0147186
807.404	0.0145528
807.482	0.0147260
807.560	0.0147910
807.638	0.0145342
807.716	0.0145744
807.794	0.0144279
807.872	0.0142925
807.950	0.0144392
808.029	0.0144064
808.107	0.0142931
808.185	0.0143822
808.263	0.0144156
808.341	0.0144363
808.419	0.0145698
808.497	0.0145086
808.575	0.0147157
808.654	0.0147028
808.732	0.0147932
808.810	0.0147948
808.888	0.0149500
808.966	0.0149397
809.044	0.0151646
809.122	0.0152066
809.200	0.0151491
809.279	0.0149220
809.357	0.0151108
809.435	0.0150813
809.513	0.0150609
809.591	0.0149622
809.669	0.0148091
809.747	0.0148177
809.825	0.0147092
809.904	0.0145058
809.982	0.0146108
810.060	0.0145368
810.138	0.0144241
810.216	0.0144082
810.294	0.0143511
810.372	0.0142931
810.450	0.0143568
810.529	0.0144414
810.607	0.0143525
810.685	0.0144997
810.763	0.0142232
810.841	0.0143134
810.919	0.0145172
810.997	0.0144514
811.075	0.0143988
811.154	0.0144812
811.232	0.0144398
811.310	0.0146109
811.388	0.0147415
811.466	0.0147570
811.544	0.0146736
811.622	0.0146705
811.700	0.0148099
811.779	0.0148072
811.857	0.0149438
811.935	0.0148299
812.013	0.0149164
812.091	0.0149007
812.169	0.0149149
812.247	0.0147662
812.325	0.0148643
812.404	0.0148396
812.482	0.0147284
812.560	0.0146638
812.638	0.0146581
812.716	0.0145152
812.794	0.0144604
812.872	0.0144809
812.950	0.0144762
813.029	0.0143618
813.107	0.0142838
813.185	0.0142554
813.263	0.0143903
813.341	0.0143626
813.419	0.0142868
813.497	0.0142083
813.575	0.0143623
813.654	0.0143642
813.732	0.0144556
813.810	0.0144184
813.888	0.0143652
813.966	0.0146516
814.044	0.0146350
814.122	0.0146980
814.200	0.0147379
814.279	0.0147382
814.357	0.0147635
814.435	0.0149748
814.513	0.0150559
814.591	0.0150467
814.669	0.0151515
814.747	0.0151484
814.825	0.0150795
814.904	0.0153447
814.982	0.0151663
815.060	0.0152453
815.138	0.0151488
815.216	0.0149565
815.294	0.0150531
815.372	0.0148729
815.450	0.0149537
815.529	0.0148381
815.607	0.0146807
815.685	0.0146794
815.763	0.0145693
815.841	0.0144991
815.919	0.0143472
815.997	0.0144128
816.075	0.0143879
816.154	0.0143476
816.232	0.0143277
816.310	0.0143484
816.388	0.0141931
816.466	0.0141939
816.544	0.0143739
816.622	0.0144201
816.700	0.0143826
816.779	0.0144884
816.857	0.0145069
816.935	0.0145316
817.013	0.0146355
817.091	0.0145744
817.169	0.0145855
817.247	0.0146405
817.325	0.0146007
817.404	0.0146436
817.482	0.0147296
817.560	0.0147610
817.638	0.0146237
817.716	0.0147132
817.794	0.0146069
817.872	0.0146329
817.950	0.0145792
818.029	0.0145375
818.107	0.0144376
818.185	0.0142680
818.263	0.0144412
818.341	0.0144441
818.419	0.0142973
818.497	0.0142426
818.575	0.0142498
818.654	0.0141327
818.732	0.0141386
818.810	0.0143596
818.888	0.0142310
818.966	0.0141080
819.044	0.0142001
819.122	0.0142702
819.200	0.0143821
819.279	0.0143708
819.357	0.0144457
819.435	0.0145334
819.513	0.0145228
819.591	0.0146203
819.669	0.0148458
819.747	0.0148170
819.825	0.0148562
819.904	0.0149766
819.982	0.0150761
820.060	0.0151100
820.138	0.0151958
820.216	0.0151198
820.294	0.0150845
820.372	0.0151935
820.450	0.0152462
820.529	0.0151933
820.607	0.0152341
820.685	0.0151515
820.763	0.0150633
820.841	0.0152622
820.919	0.0150166
820.997	0.0149020
821.075	0.0150352
821.154	0.0148455
821.232	0.0147330
821.310	0.0147626
821.388	0.0146651
821.466	0.0146117
821.544	0.0145760
821.622	0.0146689
821.700	0.0146005
821.779	0.0145805
821.857	0.0145261
821.935	0.0144830
822.013	0.0144894
822.091	0.0145264
822.169	0.0144241
822.247	0.0144273
822.325	0.0144341
822.404	0.0144137
822.482	0.0145586
822.560	0.0144566
822.638	0.0143991
822.716	0.0145190
822.794	0.0144032
822.872	0.0143472
822.950	0.0143747
823.029	0.0143083
823.107	0.0143159
823.185	0.0142803
823.263	0.0143070
823.341	0.0143114
823.419	0.0143608
823.497	0.0141905
823.575	0.0142432
823.654	0.0143063
823.732	0.0142751
823.810	0.0142221
823.888	0.0142708
823.966	0.0146146
824.044	0.0145856
824.122	0.0145081
824.200	0.0146091
824.279	0.0146731
824.357	0.0147257
824.435	0.0148039
824.513	0.0149284
824.591	0.0150178
824.669	0.0150463
824.747	0.0149100
824.825	0.0151398
824.904	0.0151203
824.982	0.0151297
825.060	0.0150325
825.138	0.0153221
825.216	0.0152272
825.294	0.0150559
825.372	0.0151450
825.450	0.0151027
825.529	0.0149104
825.607	0.0149487
825.685	0.0149036
825.763	0.0148202
825.841	0.0148152
825.919	0.0147813
825.997	0.0148371
826.075	0.0146390
826.154	0.0146587
826.232	0.0147041
826.310	0.0147095
826.388	0.0145773
826.466	0.0147507
826.544	0.0146222
826.622	0.0145240
826.700	0.0147092
826.779	0.0146600
826.857	0.0145924
826.935	0.0146800
827.013	0.0146966
827.091	0.0145459
827.169	0.0145654
827.247	0.0145296
827.325	0.0146183
827.404	0.0146786
827.482	0.0145346
827.560	0.0144201
827.638	0.0147337
827.716	0.0147538
827.794	0.0145547
827.872	0.0146072
827.950	0.0145686
828.029	0.0143813
828.107	0.0145531
828.185	0.0144677
828.263	0.0144111
828.341	0.0144328
828.419	0.0144775
828.497	0.0142174
828.575	0.0140591
828.654	0.0141861
828.732	0.0140985
828.810	0.0141003
828.888	0.0142393
828.966	0.0142290
829.044	0.0141821
829.122	0.0141624
829.200	0.0141732
829.279	0.0142746
829.357	0.0142677
829.435	0.0144487
829.513	0.0143780
829.591	0.0144943
829.669	0.0145567
829.747	0.0145807
829.825	0.0147696
829.904	0.0148016
829.982	0.0149254
830.060	0.0149635
830.138	0.0149187
830.216	0.0149209
830.294	0.0151319
830.372	0.0153468
830.450	0.0151771
830.529	0.0152847
830.607	0.0153542
830.685	0.0153236
830.763	0.0153088
830.841	0.0152235
830.919	0.0152545
830.997	0.0153397
831.075	0.0152602
831.154	0.0151482
831.232	0.0152219
831.310	0.0149641
831.388	0.0148167
831.466	0.0147458
831.544	0.0146903
831.622	0.0147249
831.700	0.0146545
831.779	0.0144253
831.857	0.0146375
831.935	0.0144566
832.013	0.0143286
832.091	0.0143739
832.169	0.0143719
832.247	0.0143370
832.325	0.0143981
832.404	0.0144629
832.482	0.0144526
832.560	0.0143529
832.638	0.0142295
832.716	0.0143789
832.794	0.0143095
832.872	0.0142233
832.950	0.0145364
833.029	0.0144093
833.107	0.0143875
833.185	0.0143714
833.263	0.0144713
833.341	0.0144376
833.419	0.0144530
833.497	0.0142507
833.575	0.0142574
833.654	0.0144031
833.732	0.0143822
833.810	0.0142596
833.888	0.0143769
833.966	0.0143793
834.044	0.0143377
834.122	0.0144514
834.200	0.0146354
834.279	0.0145659
834.357	0.0145799
834.435	0.0146576
834.513	0.0148305
834.591	0.0147494
834.669	0.0148865
834.747	0.0148634
834.825	0.0147613
834.904	0.0149159
834.982	0.0149891
835.060	0.0149896
835.138	0.0150504
835.216	0.0149692
835.294	0.0151516
835.372	0.0151024
835.450	0.0151598
835.529	0.0151507
835.607	0.0151756
835.685	0.0150985
835.763	0.0150793
835.841	0.0150203
835.919	0.0150748
835.997	0.0150676
836.075	0.0149643
836.154	0.0149497
836.232	0.0147963
836.310	0.0147651
836.388	0.0147524
836.466	0.0147675
836.544	0.0146603
836.622	0.0146071
836.700	0.0146183
836.779	0.0145483
836.857	0.0146048
836.935	0.0145781
837.013	0.0144025
837.091	0.0144411
837.169	0.0143362
837.247	0.0143038
837.325	0.0144508
837.404	0.0144290
837.482	0.0143807
837.560	0.0142471
837.638	0.0144812
837.716	0.0146250
837.794	0.0144141
837.872	0.0144053
837.950	0.0145527
838.029	0.0145840
838.107	0.0145901
838.185	0.0146314
838.263	0.0146289
838.341	0.0145284
838.419	0.0146626
838.497	0.0146587
838.575	0.0147676
838.654	0.0148206
838.732	0.0147396
838.810	0.0144987
838.888	0.0146921
838.966	0.0147755
839.044	0.0145799
839.122	0.0145782
839.200	0.0146379
839.279	0.0146429
839.357	0.0146287
839.435	0.0147330
839.513	0.0147311
839.591	0.0146329
839.669	0.0146842
839.747	0.0147630
839.825	0.0146830
839.904	0.0146852
839.982	0.0148129
840.060	0.0147939
840.138	0.0147598
840.216	0.0147585
840.294	0.0149153
840.372	0.0150314
840.450	0.0149540
840.529	0.0148545
840.607	0.0151316
840.685	0.0149688
840.763	0.0149608
840.841	0.0149713
840.919	0.0150153
840.997	0.0150168
841.075	0.0150558
841.154	0.0149467
841.232	0.0147411
841.310	0.0148782
841.388	0.0148268
841.466	0.0147212
841.544	0.0146706
841.622	0.0147394
841.700	0.0145837
841.779	0.0144547
841.857	0.0145675
841.935	0.0145560
842.013	0.0143823
842.091	0.0143035
842.169	0.0143822
842.247	0.0143382
842.325	0.0143714
842.404	0.0143950
842.482	0.0144056
842.560	0.0144528
842.638	0.0143645
842.716	0.0146194
842.794	0.0144248
842.872	0.0146336
842.950	0.0147568
843.029	0.0147047
843.107	0.0147771
843.185	0.0148029
843.263	0.0148503
843.341	0.0148102
843.419	0.0148929
843.497	0.0148347
843.575	0.0148935
843.654	0.0148402
843.732	0.0148027
843.810	0.0148744
843.888	0.0147762
843.966	0.0147521
844.044	0.0146799
844.122	0.0148038
844.200	0.0147706
844.279	0.0146039
844.357	0.0146785
844.435	0.0145182
844.513	0.0146748
844.591	0.0146127
844.669	0.0146336
844.747	0.0145786
844.825	0.0144652
844.904	0.0145435
844.982	0.0144469
845.060	0.0143011
845.138	0.0143889
845.216	0.0144124
845.294	0.0143341
845.372	0.0144125
845.450	0.0143227
845.529	0.0143118
845.607	0.0142510
845.685	0.0143084
845.763	0.0143674
845.841	0.0144940
845.919	0.0144511
845.997	0.0145549
846.075	0.0145058
846.154	0.0145634
846.232	0.0147177
846.310	0.0147121
846.388	0.0146924
846.466	0.0147812
846.544	0.0147440
846.622	0.0148926
846.700	0.0149718
846.779	0.0148891
846.857	0.0149271
846.935	0.0149424
847.013	0.0150249
847.091	0.0150349
847.169	0.0151385
847.247	0.0149903
847.325	0.0151167
847.404	0.0150794
847.482	0.0151231
847.560	0.0151023
847.638	0.0151691
847.716	0.0150460
847.794	0.0149816
847.872	0.0151659
847.950	0.0150786
848.029	0.0149742
848.107	0.0150912
848.185	0.0149807
848.263	0.0149560
848.341	0.0148678
848.419	0.0149158
848.497	0.0149165
848.575	0.0149213
848.654	0.0149590
848.732	0.0147581
848.810	0.0146560
848.888	0.0147157
848.966	0.0146436
849.044	0.0145068
849.122	0.0144732
849.200	0.0142995
849.279	0.0142459
849.357	0.0143089
849.435	0.0140942
849.513	0.0141848
849.591	0.0141344
849.669	0.0141527
849.747	0.0141888
849.825	0.0140598
849.904	0.0140246
849.982	0.0140301
850.060	0.0140292
850.138	0.0140530
850.216	0.0141795
850.294	0.0140216
850.372	0.0141534
850.450	0.0140539
850.529	0.0142541
850.607	0.0142590
850.685	0.0142654
850.763	0.0143870
850.841	0.0143403
850.919	0.0144989
850.997	0.0146132
851.075	0.0146404
851.154	0.0146489
851.232	0.0146787
851.310	0.0147112
851.388	0.0146442
851.466	0.0148717
851.544	0.0148495
851.622	0.0147280
851.700	0.0147835
851.779	0.0148669
851.857	0.0149889
851.935	0.0150124
852.013	0.0150922
852.091	0.0150409
852.169	0.0149464
852.247	0.0150365
852.325	0.0150055
852.404	0.0151046
852.482	0.0152119
852.560	0.0152208
852.638	0.0152241
852.716	0.0151921
852.794	0.0151861
852.872	0.0151912
852.950	0.0152753
853.029	0.0153855
853.107	0.0152229
853.185	0.0153374
853.263	0.0153143
853.341	0.0152945
853.419	0.0151670
853.497	0.0150807
853.575	0.0150311
853.654	0.0149944
853.732	0.0150144
853.810	0.0150280
853.888	0.0149323
853.966	0.0147965
854.044	0.0146957
854.122	0.0145051
854.200	0.0146252
854.279	0.0144642
854.357	0.0143945
854.435	0.0143150
854.513	0.0143903
854.591	0.0142196
854.669	0.0141407
854.747	0.0140492
854.825	0.0142487
854.904	0.0142567
854.982	0.0140562
855.060	0.0141753
855.138	0.0140030
855.216	0.0139400
855.294	0.0140254
855.372	0.0139265
855.450	0.0141515
855.529	0.0141502
855.607	0.0139909
855.685	0.0140710
855.763	0.0139735
855.841	0.0140308
855.919	0.0141602
855.997	0.0142500
856.075	0.0142561
856.154	0.0143742
856.232	0.0143681
856.310	0.0143332
856.388	0.0143498
856.466	0.0146214
856.544	0.0146159
856.622	0.0147562
856.700	0.0146617
856.779	0.0148223
856.857	0.0147906
856.935	0.0151598
857.013	0.0150481
857.091	0.0150719
857.169	0.0151697
857.247	0.0152666
857.325	0.0152973
857.404	0.0152343
857.482	0.0153958
857.560	0.0153799
857.638	0.0153432
857.716	0.0154319
857.794	0.0154691
857.872	0.0154904
857.950	0.0153790
858.029	0.0154689
858.107	0.0154016
858.185	0.0153255
858.263	0.0152580
858.341	0.0152794
858.419	0.0151106
858.497	0.0151879
858.575	0.0150913
858.654	0.0149346
858.732	0.0148100
858.810	0.0148747
858.888	0.0146946
858.966	0.0147001
859.044	0.0147543
859.122	0.0147206
859.200	0.0146588
859.279	0.0145211
859.357	0.0146349
859.435	0.0146279
859.513	0.0145485
859.591	0.0144722
859.669	0.0144840
859.747	0.0144444
859.825	0.0144572
859.904	0.0144398
859.982	0.0143360
860.060	0.0143518
860.138	0.0142257
860.216	0.0143723
860.294	0.0141719
860.372	0.0141324
860.450	0.0141434
860.529	0.0140950
860.607	0.0140851
860.685	0.0140107
860.763	0.0141048
860.841	0.0140005
860.919	0.0140390
860.997	0.0140766
861.075	0.0139555
861.154	0.0140921
861.232	0.0141618
861.310	0.0142064
861.388	0.0143826
861.466	0.0143577
861.544	0.0143529
861.622	0.0145399
861.700	0.0146982
861.779	0.0148315
861.857	0.0147960
861.935	0.0149370
862.013	0.0151496
862.091	0.0151881
862.169	0.0151637
862.247	0.0150916
862.325	0.0151694
862.404	0.0152755
862.482	0.0152666
862.560	0.0152516
862.638	0.0151210
862.716	0.0151994
862.794	0.0152352
862.872	0.0150896
862.950	0.0149316
863.029	0.0151675
863.107	0.0150668
863.185	0.0149352
863.263	0.0147943
863.341	0.0148248
863.419	0.0149729
863.497	0.0148891
863.575	0.0148825
863.654	0.0147585
863.732	0.0147987
863.810	0.0148289
863.888	0.0147356
863.966	0.0146998
864.044	0.0146581
864.122	0.0144946
864.200	0.0148389
864.279	0.0147133
864.357	0.0146400
864.435	0.0146617
864.513	0.0147916
864.591	0.0147343
864.669	0.0149939
864.747	0.0150014
864.825	0.0148660
864.904	0.0146687
864.982	0.0148186
865.060	0.0148466
865.138	0.0147656
865.216	0.0149255
865.294	0.0147688
865.372	0.0147189
865.450	0.0147205
865.529	0.0146194
865.607	0.0146685
865.685	0.0145882
865.763	0.0144627
865.841	0.0145918
865.919	0.0146915
865.997	0.0143078
866.075	0.0143841
866.154	0.0144189
866.232	0.0144156
866.310	0.0142912
866.388	0.0143874
866.466	0.0143940
866.544	0.0143341
866.622	0.0143076
866.700	0.0143905
866.779	0.0144752
866.857	0.0145117
866.935	0.0144911
867.013	0.0146476
867.091	0.0146839
867.169	0.0146970
867.247	0.0147616
867.325	0.0148746
867.404	0.0148547
867.482	0.0147041
867.560	0.0149705
867.638	0.0148456
867.716	0.0148415
867.794	0.0149295
867.872	0.0149081
867.950	0.0150293
868.029	0.0149903
868.107	0.0149013
868.185	0.0148714
868.263	0.0150101
868.341	0.0148277
868.419	0.0148576
868.497	0.0149557
868.575	0.0147816
868.654	0.0147494
868.732	0.0147839
868.810	0.0147367
868.888	0.0147123
868.966	0.0147730
869.044	0.0148093
869.122	0.0146189
869.200	0.0145627
869.279	0.0147698
869.357	0.0146186
869.435	0.0146062
869.513	0.0146034
869.591	0.0146532
869.669	0.0145387
869.747	0.0145166
869.825	0.0147244
869.904	0.0147396
869.982	0.0146124
870.060	0.0148540
870.138	0.0147372
870.216	0.0146059
870.294	0.0146326
870.372	0.0148717
870.450	0.0147865
870.529	0.0147773
870.607	0.0146859
870.685	0.0147758
870.763	0.0147129
870.841	0.0146445
870.919	0.0148650
870.997	0.0147204
871.075	0.0146370
871.154	0.0145579
871.232	0.0146976
871.310	0.0146819
871.388	0.0146265
871.466	0.0148082
871.544	0.0145925
871.622	0.0144749
871.700	0.0147318
871.779	0.0146041
871.857	0.0147263
871.935	0.0146340
872.013	0.0146557
872.091	0.0146285
872.169	0.0148247
872.247	0.0145615
872.325	0.0146751
872.404	0.0148040
872.482	0.0149183
872.560	0.0147492
872.638	0.0147607
872.716	0.0148370
872.794	0.0149086
872.872	0.0147536
872.950	0.0149345
873.029	0.0149426
873.107	0.0149686
873.185	0.0150154
873.263	0.0150135
873.341	0.0149825
873.419	0.0150306
873.497	0.0150229
873.575	0.0149763
873.654	0.0149681
873.732	0.0150060
873.810	0.0148062
873.888	0.0147562
873.966	0.0148373
874.044	0.0146840
874.122	0.0147987
874.200	0.0146449
874.279	0.0146543
874.357	0.0147092
874.435	0.0146445
874.513	0.0145267
874.591	0.0144819
874.669	0.0145266
874.747	0.0146836
874.825	0.0144821
874.904	0.0144781
874.982	0.0145258
875.060	0.0145644
875.138	0.0147544
875.216	0.0144824
875.294	0.0144078
875.372	0.0144499
875.450	0.0143607
875.529	0.0145030
875.607	0.0143862
875.685	0.0144310
875.763	0.0144608
875.841	0.0145130
875.919	0.0144329
875.997	0.0144260
876.075	0.0142200
876.154	0.0142985
876.232	0.0144350
876.310	0.0145624
876.388	0.0145925
876.466	0.0143546
876.544	0.0144855
876.622	0.0145637
876.700	0.0145118
876.779	0.0144897
876.857	0.0145829
876.935	0.0146271
877.013	0.0147249
877.091	0.0145804
877.169	0.0147689
877.247	0.0146952
877.325	0.0148096
877.404	0.0149795
877.482	0.0148806
877.560	0.0149198
877.638	0.0149606
877.716	0.0150287
877.794	0.0149110
877.872	0.0150694
877.950	0.0148793
878.029	0.0151172
878.107	0.0151546
878.185	0.0150488
878.263	0.0150336
878.341	0.0151894
878.419	0.0150833
878.497	0.0150933
878.575	0.0150732
878.654	0.0152361
878.732	0.0149962
878.810	0.0150864
878.888	0.0149760
878.966	0.0149772
879.044	0.0150169
879.122	0.0149295
879.200	0.0149514
879.279	0.0150173
879.357	0.0148207
879.435	0.0148259
879.513	0.0149220
879.591	0.0148280
879.669	0.0147065
879.747	0.0145663
879.825	0.0144546
879.904	0.0145445
879.982	0.0145483
880.060	0.0143871
880.138	0.0143339
880.216	0.0145246
880.294	0.0142630
880.372	0.0142770
880.450	0.0143834
880.529	0.0143684
880.607	0.0143652
880.685	0.0141985
880.763	0.0143237
880.841	0.0142066
880.919	0.0142254
880.997	0.0141560
881.075	0.0141393
881.154	0.0140592
881.232	0.0142834
881.310	0.0143045
881.388	0.0144371
881.466	0.0145715
881.544	0.0145637
881.622	0.0147128
881.700	0.0146966
881.779	0.0147645
881.857	0.0148649
881.935	0.0147356
882.013	0.0146790
882.091	0.0146645
882.169	0.0145778
882.247	0.0145303
882.325	0.0144147
882.404	0.0142711
882.482	0.0142991
882.560	0.0141947
882.638	0.0142929
882.716	0.0142110
882.794	0.0143871
882.872	0.0145229
882.950	0.0145536
883.029	0.0148714
883.107	0.0151028
883.185	0.0151758
883.263	0.0154131
883.341	0.0153738
883.419	0.0155891
883.497	0.0155553
883.575	0.0154568
883.654	0.0156196
883.732	0.0156381
883.810	0.0155315
883.888	0.0153796
883.966	0.0150551
884.044	0.0149018
884.122	0.0148439
884.200	0.0145342
884.279	0.0142448
884.357	0.0141650
884.435	0.0139919
884.513	0.0140095
884.591	0.0139820
884.669	0.0139845
884.747	0.0140945
884.825	0.0141296
884.904	0.0142152
884.982	0.0142183
885.060	0.0143580
885.138	0.0145826
885.216	0.0148601
885.294	0.0149973
885.372	0.0149658
885.450	0.0150024
885.529	0.0151035
885.607	0.0152356
885.685	0.0153085
885.763	0.0152257
885.841	0.0152644
885.919	0.0153673
885.997	0.0151765
886.075	0.0150080
886.154	0.0148585
886.232	0.0147906
886.310	0.0147067
886.388	0.0144608
886.466	0.0142299
886.544	0.0140363
886.622	0.0140696
886.700	0.0139227
886.779	0.0138887
886.857	0.0137290
886.935	0.0137279
887.013	0.0138342
887.091	0.0137920
887.169	0.0138649
887.247	0.0140367
887.325	0.0139953
887.404	0.0139583
887.482	0.0141103
887.560	0.0143128
887.638	0.0144420
887.716	0.0146445
887.794	0.0147278
887.872	0.0147289
887.950	0.0149897
888.029	0.0151061
888.107	0.0151048
888.185	0.0150558
888.263	0.0152325
888.341	0.0153306
888.419	0.0152971
888.497	0.0152155
888.575	0.0150710
888.654	0.0150455
888.732	0.0151116
888.810	0.0151092
888.888	0.0150189
888.966	0.0148514
889.044	0.0149779
889.122	0.0148797
889.200	0.0150385
889.279	0.0149839
889.357	0.0147586
889.435	0.0146966
889.513	0.0147878
889.591	0.0148244
889.669	0.0147865
889.747	0.0148991
889.825	0.0148762
889.904	0.0148323
889.982	0.0148575
890.060	0.0147749
890.138	0.0148582
890.216	0.0146876
890.294	0.0146825
890.372	0.0146790
890.450	0.0146861
890.529	0.0147070
890.607	0.0145625
890.685	0.0145656
890.763	0.0144340
890.841	0.0145319
890.919	0.0144431
890.997	0.0143265
891.075	0.0144135
891.154	0.0145681
891.232	0.0144249
891.310	0.0144484
891.388	0.0143765
891.466	0.0143234
891.544	0.0143343
891.622	0.0143950
891.700	0.0145152
891.779	0.0144090
891.857	0.0143381
891.935	0.0144134
892.013	0.0143678
892.091	0.0143023
892.169	0.0142785
892.247	0.0145013
892.325	0.0143619
892.404	0.0143721
892.482	0.0142766
892.560	0.0144516
892.638	0.0146088
892.716	0.0145014
892.794	0.0146100
892.872	0.0147028
892.950	0.0148064
893.029	0.0148731
893.107	0.0148600
893.185	0.0148609
893.263	0.0147355
893.341	0.0149574
893.419	0.0148891
893.497	0.0149892
893.575	0.0149415
893.654	0.0149436
893.732	0.0149920
893.810	0.0148702
893.888	0.0147713
893.966	0.0149037
894.044	0.0148922
894.122	0.0148998
894.200	0.0147961
894.279	0.0149015
894.357	0.0148589
894.435	0.0147665
894.513	0.0148020
894.591	0.0148472
894.669	0.0147401
894.747	0.0146707
894.825	0.0147255
894.904	0.0147147
894.982	0.0147079
895.060	0.0146666
895.138	0.0146229
895.216	0.0146119
895.294	0.0148157
895.372	0.0145612
895.450	0.0146649
895.529	0.0146149
895.607	0.0147090
895.685	0.0147676
895.763	0.0146584
895.841	0.0145902
895.919	0.0146123
895.997	0.0145998
896.075	0.0147744
896.154	0.0147165
896.232	0.0145088
896.310	0.0146316
896.388	0.0148067
896.466	0.0146643
896.544	0.0146035
896.622	0.0145959
896.700	0.0145787
896.779	0.0147325
896.857	0.0146004
896.935	0.0144384
897.013	0.0145248
897.091	0.0145692
897.169	0.0144643
897.247	0.0145893
897.325	0.0146124
897.404	0.0143311
897.482	0.0143890
897.560	0.0144666
897.638	0.0144308
897.716	0.0144177
897.794	0.0143727
897.872	0.0143871
897.950	0.0145598
898.029	0.0145229
898.107	0.0146237
898.185	0.0146561
898.263	0.0147149
898.341	0.0149319
898.419	0.0149222
898.497	0.0150261
898.575	0.0149538
898.654	0.0148929
898.732	0.0149550
898.810	0.0151588
898.888	0.0149829
898.966	0.0149755
899.044	0.0150776
899.122	0.0147760
899.200	0.0147227
899.279	0.0148598
899.357	0.0148654
899.435	0.0147514
899.513	0.0144774
899.591	0.0146220
899.669	0.0144527
899.747	0.0145768
899.825	0.0144137
899.904	0.0143352
899.982	0.0144960
900.060	0.0144941
900.138	0.0144270
900.216	0.0143657
900.294	0.0144103
900.372	0.0143596
900.450	0.0145042
900.529	0.0143756
900.607	0.0146150
900.685	0.0146170
900.763	0.0145766
900.841	0.0146303
900.919	0.0145557
900.997	0.0146875
901.075	0.0146362
901.154	0.0146525
901.232	0.0148804
901.310	0.0147250
901.388	0.0147543
901.466	0.0147662
901.544	0.0147178
901.622	0.0146571
901.700	0.0148071
901.779	0.0148042
901.857	0.0147486
901.935	0.0148217
902.013	0.0146782
902.091	0.0146809
902.169	0.0147224
902.247	0.0147468
902.325	0.0145069
902.404	0.0145048
902.482	0.0145635
902.560	0.0145206
902.638	0.0145021
902.716	0.0144551
902.794	0.0144830
902.872	0.0142577
902.950	0.0142791
903.029	0.0141767
903.107	0.0143147
903.185	0.0142535
903.263	0.0143491
903.341	0.0143964
903.419	0.0144291
903.497	0.0144453
903.575	0.0145099
903.654	0.0145743
903.732	0.0145274
903.810	0.0146425
903.888	0.0146691
903.966	0.0146708
904.044	0.0146925
904.122	0.0147894
904.200	0.0148877
904.279	0.0148016
904.357	0.0148154
904.435	0.0148698
904.513	0.0148867
904.591	0.0147102
904.669	0.0148589
904.747	0.0148360
904.825	0.0149216
904.904	0.0148426
904.982	0.0149352
905.060	0.0148945
905.138	0.0146187
905.216	0.0147795
905.294	0.0147446
905.372	0.0146697
905.450	0.0147240
905.529	0.0147944
905.607	0.0146017
905.685	0.0146031
905.763	0.0146793
905.841	0.0146331
905.919	0.0146021
905.997	0.0146650
906.075	0.0146801
906.154	0.0146424
906.232	0.0145524
906.310	0.0146217
906.388	0.0145479
906.466	0.0146001
906.544	0.0144333
906.622	0.0145542
906.700	0.0147119
906.779	0.0145827
906.857	0.0146436
906.935	0.0147155
907.013	0.0146093
907.091	0.0145411
907.169	0.0145525
907.247	0.0144176
907.325	0.0145651
907.404	0.0143672
907.482	0.0145314
907.560	0.0144129
907.638	0.0144086
907.716	0.0144262
907.794	0.0145110
907.872	0.0144464
907.950	0.0144489
908.029	0.0144993
908.107	0.0144820
908.185	0.0144691
908.263	0.0146906
908.341	0.0145600
908.419	0.0145594
908.497	0.0146603
908.575	0.0147102
908.654	0.0147250
908.732	0.0145923
908.810	0.0146973
908.888	0.0146436
908.966	0.0147639
909.044	0.0147460
909.122	0.0148465
909.200	0.0149197
909.279	0.0149939
909.357	0.0149072
909.435	0.0148839
909.513	0.0147729
909.591	0.0149027
909.669	0.0148069
909.747	0.0148271
909.825	0.0148086
909.904	0.0146912
909.982	0.0147746
910.060	0.0146817
910.138	0.0147294
910.216	0.0145956
910.294	0.0144685
910.372	0.0145139
910.450	0.0144213
910.529	0.0144968
910.607	0.0145000
910.685	0.0144116
910.763	0.0144529
910.841	0.0145084
910.919	0.0144266
910.997	0.0144818
911.075	0.0144586
911.154	0.0144080
911.232	0.0145821
911.310	0.0145702
911.388	0.0146337
911.466	0.0145835
911.544	0.0145601
911.622	0.0144818
911.700	0.0146320
911.779	0.0147370
911.857	0.0144730
911.935	0.0144863
912.013	0.0145982
912.091	0.0146059
912.169	0.0146351
912.247	0.0146722
912.325	0.0146838
912.404	0.0148328
912.482	0.0147102
912.560	0.0147157
912.638	0.0147318
912.716	0.0148605
912.794	0.0148357
912.872	0.0148582
912.950	0.0148095
913.029	0.0147400
913.107	0.0147678
913.185	0.0148735
913.263	0.0147798
913.341	0.0146861
913.419	0.0147001
913.497	0.0146923
913.575	0.0147073
913.654	0.0145982
913.732	0.0146432
913.810	0.0145924
913.888	0.0146220
913.966	0.0146705
914.044	0.0145412
914.122	0.0145255
914.200	0.0145087
914.279	0.0144550
914.357	0.0145053
914.435	0.0144750
914.513	0.0143720
914.591	0.0144208
914.669	0.0144724
914.747	0.0143350
914.825	0.0144284
914.904	0.0144648
914.982	0.0146282
915.060	0.0144876
915.138	0.0145039
915.216	0.0145739
915.294	0.0146560
915.372	0.0147758
915.450	0.0146740
915.529	0.0145156
915.607	0.0146619
915.685	0.0147187
915.763	0.0145784
915.841	0.0145731
915.919	0.0146365
915.997	0.0148269
916.075	0.0147369
916.154	0.0146699
916.232	0.0146420
916.310	0.0145518
916.388	0.0145301
916.466	0.0145796
916.544	0.0145970
916.622	0.0145877
916.700	0.0146992
916.779	0.0146046
916.857	0.0146236
916.935	0.0148181
917.013	0.0147325
917.091	0.0147551
917.169	0.0147424
917.247	0.0148512
917.325	0.0148369
917.404	0.0147407
917.482	0.0147186
917.560	0.0147980
917.638	0.0147652
917.716	0.0147789
917.794	0.0148937
917.872	0.0147868
917.950	0.0146916
918.029	0.0147849
918.107	0.0147644
918.185	0.0149294
918.263	0.0149142
918.341	0.0147284
918.419	0.0146867
918.497	0.0147025
918.575	0.0148575
918.654	0.0147759
918.732	0.0147185
918.810	0.0147273
918.888	0.0146612
918.966	0.0146780
919.044	0.0147981
919.122	0.0146753
919.200	0.0146227
919.279	0.0146557
919.357	0.0145728
919.435	0.0146784
919.513	0.0145463
919.591	0.0145061
919.669	0.0145769
919.747	0.0145204
919.825	0.0143793
919.904	0.0145261
