05/06/2022	18:42:58	Ver.	4.1	UNKNOWN
Optical Delay	600.015094	Delta X		0.078125	Sweeps	1	Scan Rate	0/0
Coordinates	Axis 1	NaN	Axis 2	NaN	Axis 3	NaN	Axis 4	NaN	Axis 5	NaN	Axis 6	0.000000
TX Power	0.000000	RX Power	0.000000

600.015	0.0127843
600.093	0.0127975
600.171	0.0128259
600.249	0.0127778
600.328	0.0128836
600.406	0.0129382
600.484	0.0128773
600.562	0.0127281
600.640	0.0127731
600.718	0.0128062
600.796	0.0128661
600.874	0.0129456
600.953	0.0128733
601.031	0.0127302
601.109	0.0128336
601.187	0.0129891
601.265	0.0128673
601.343	0.0127068
601.421	0.0127551
601.499	0.0129263
601.578	0.0129219
601.656	0.0128410
601.734	0.0127061
601.812	0.0127956
601.890	0.0127618
601.968	0.0128928
602.046	0.0127975
602.124	0.0126557
602.203	0.0128358
602.281	0.0127155
602.359	0.0127458
602.437	0.0127557
602.515	0.0126002
602.593	0.0127776
602.671	0.0127622
602.749	0.0129863
602.828	0.0128590
602.906	0.0127927
602.984	0.0128007
603.062	0.0126633
603.140	0.0128518
603.218	0.0127753
603.296	0.0128868
603.374	0.0127508
603.453	0.0128767
603.531	0.0128197
603.609	0.0127258
603.687	0.0128496
603.765	0.0128835
603.843	0.0127712
603.921	0.0127379
603.999	0.0128392
604.078	0.0128453
604.156	0.0128005
604.234	0.0128691
604.312	0.0127486
604.390	0.0127580
604.468	0.0128201
604.546	0.0127840
604.624	0.0127906
604.703	0.0128315
604.781	0.0128965
604.859	0.0127156
604.937	0.0125884
605.015	0.0127594
605.093	0.0127551
605.171	0.0128467
605.249	0.0128546
605.328	0.0128092
605.406	0.0127636
605.484	0.0126982
605.562	0.0128766
605.640	0.0127585
605.718	0.0126511
605.796	0.0126681
605.874	0.0127854
605.953	0.0128313
606.031	0.0128577
606.109	0.0128292
606.187	0.0128728
606.265	0.0128867
606.343	0.0126241
606.421	0.0127516
606.499	0.0127605
606.578	0.0128622
606.656	0.0127413
606.734	0.0127012
606.812	0.0128678
606.890	0.0127414
606.968	0.0127774
607.046	0.0126749
607.124	0.0127304
607.203	0.0127973
607.281	0.0128615
607.359	0.0128808
607.437	0.0128865
607.515	0.0125790
607.593	0.0128289
607.671	0.0128161
607.749	0.0128329
607.828	0.0129361
607.906	0.0128167
607.984	0.0128358
608.062	0.0127797
608.140	0.0127231
608.218	0.0127749
608.296	0.0127485
608.374	0.0127607
608.453	0.0126840
608.531	0.0128709
608.609	0.0128356
608.687	0.0128130
608.765	0.0128298
608.843	0.0128847
608.921	0.0127190
608.999	0.0128264
609.078	0.0126907
609.156	0.0128423
609.234	0.0128766
609.312	0.0125674
609.390	0.0127926
609.468	0.0128447
609.546	0.0128311
609.624	0.0127942
609.703	0.0127562
609.781	0.0129139
609.859	0.0128914
609.937	0.0127415
610.015	0.0127120
610.093	0.0127892
610.171	0.0128615
610.249	0.0127952
610.328	0.0127702
610.406	0.0129319
610.484	0.0128331
610.562	0.0128952
610.640	0.0126624
610.718	0.0127476
610.796	0.0128651
610.874	0.0127789
610.953	0.0126900
611.031	0.0128362
611.109	0.0128101
611.187	0.0128029
611.265	0.0127383
611.343	0.0126447
611.421	0.0127455
611.499	0.0127307
611.578	0.0127907
611.656	0.0128154
611.734	0.0127374
611.812	0.0127366
611.890	0.0128583
611.968	0.0128406
612.046	0.0127440
612.124	0.0128230
612.203	0.0127565
612.281	0.0126864
612.359	0.0127570
612.437	0.0127972
612.515	0.0127158
612.593	0.0128599
612.671	0.0128906
612.749	0.0126778
612.828	0.0129355
612.906	0.0129284
612.984	0.0127322
613.062	0.0128732
613.140	0.0127911
613.218	0.0127423
613.296	0.0127895
613.374	0.0127979
613.453	0.0128652
613.531	0.0127664
613.609	0.0128522
613.687	0.0127946
613.765	0.0129099
613.843	0.0128100
613.921	0.0127941
613.999	0.0127774
614.078	0.0126952
614.156	0.0129541
614.234	0.0127952
614.312	0.0127514
614.390	0.0128857
614.468	0.0127844
614.546	0.0128687
614.624	0.0127932
614.703	0.0128479
614.781	0.0128545
614.859	0.0128154
614.937	0.0127822
615.015	0.0128604
615.093	0.0128040
615.171	0.0128679
615.249	0.0128578
615.328	0.0127367
615.406	0.0127144
615.484	0.0126926
615.562	0.0127288
615.640	0.0128557
615.718	0.0129121
615.796	0.0128196
615.874	0.0128104
615.953	0.0127457
616.031	0.0127851
616.109	0.0127732
616.187	0.0127879
616.265	0.0128761
616.343	0.0128352
616.421	0.0129475
616.499	0.0128973
616.578	0.0128419
616.656	0.0128294
616.734	0.0127409
616.812	0.0128600
616.890	0.0127985
616.968	0.0126766
617.046	0.0126779
617.124	0.0128377
617.203	0.0129736
617.281	0.0126990
617.359	0.0127172
617.437	0.0127811
617.515	0.0127949
617.593	0.0127810
617.671	0.0128607
617.749	0.0127802
617.828	0.0128376
617.906	0.0127696
617.984	0.0129128
618.062	0.0128269
618.140	0.0128728
618.218	0.0128278
618.296	0.0129197
618.374	0.0127849
618.453	0.0128427
618.531	0.0129196
618.609	0.0128188
618.687	0.0127229
618.765	0.0127638
618.843	0.0127634
618.921	0.0128916
618.999	0.0127108
619.078	0.0126315
619.156	0.0129116
619.234	0.0127094
619.312	0.0127582
619.390	0.0129022
619.468	0.0127476
619.546	0.0126860
619.624	0.0128340
619.703	0.0127394
619.781	0.0127177
619.859	0.0128573
619.937	0.0127805
620.015	0.0127887
620.093	0.0126498
620.171	0.0127993
620.249	0.0127877
620.328	0.0127832
620.406	0.0129087
620.484	0.0128537
620.562	0.0126727
620.640	0.0126563
620.718	0.0128021
620.796	0.0127113
620.874	0.0126997
620.953	0.0128735
621.031	0.0128658
621.109	0.0127449
621.187	0.0126227
621.265	0.0129656
621.343	0.0128387
621.421	0.0128822
621.499	0.0127873
621.578	0.0128546
621.656	0.0129071
621.734	0.0127525
621.812	0.0127882
621.890	0.0127993
621.968	0.0128876
622.046	0.0128544
622.124	0.0126693
622.203	0.0128141
622.281	0.0126463
622.359	0.0128148
622.437	0.0129216
622.515	0.0127737
622.593	0.0128925
622.671	0.0127645
622.749	0.0129562
622.828	0.0128551
622.906	0.0126733
622.984	0.0127486
623.062	0.0128049
623.140	0.0127964
623.218	0.0129350
623.296	0.0127827
623.374	0.0127289
623.453	0.0128558
623.531	0.0128359
623.609	0.0128217
623.687	0.0128182
623.765	0.0126975
623.843	0.0128561
623.921	0.0128100
623.999	0.0129221
624.078	0.0128548
624.156	0.0128889
624.234	0.0127644
624.312	0.0129314
624.390	0.0127103
624.468	0.0128864
624.546	0.0127876
624.624	0.0127631
624.703	0.0129430
624.781	0.0128726
624.859	0.0128026
624.937	0.0127230
625.015	0.0128059
625.093	0.0127887
625.171	0.0128159
625.249	0.0128087
625.328	0.0127794
625.406	0.0128156
625.484	0.0126830
625.562	0.0128960
625.640	0.0127665
625.718	0.0128044
625.796	0.0128699
625.874	0.0129114
625.953	0.0128075
626.031	0.0127965
626.109	0.0127435
626.187	0.0128109
626.265	0.0127711
626.343	0.0128318
626.421	0.0128628
626.499	0.0128221
626.578	0.0128255
626.656	0.0128678
626.734	0.0128132
626.812	0.0128359
626.890	0.0129052
626.968	0.0127475
627.046	0.0127589
627.124	0.0128844
627.203	0.0128523
627.281	0.0128963
627.359	0.0128218
627.437	0.0129366
627.515	0.0127720
627.593	0.0129559
627.671	0.0127937
627.749	0.0127119
627.828	0.0127119
627.906	0.0127988
627.984	0.0127522
628.062	0.0128323
628.140	0.0129494
628.218	0.0127695
628.296	0.0128126
628.374	0.0129240
628.453	0.0128786
628.531	0.0127663
628.609	0.0128725
628.687	0.0127916
628.765	0.0128158
628.843	0.0127905
628.921	0.0127714
628.999	0.0128545
629.078	0.0127750
629.156	0.0127513
629.234	0.0127982
629.312	0.0129030
629.390	0.0127725
629.468	0.0128770
629.546	0.0129015
629.624	0.0128143
629.703	0.0128251
629.781	0.0128719
629.859	0.0127584
629.937	0.0127703
630.015	0.0128185
630.093	0.0128374
630.171	0.0128112
630.249	0.0127949
630.328	0.0127934
630.406	0.0127383
630.484	0.0127865
630.562	0.0128411
630.640	0.0128473
630.718	0.0128822
630.796	0.0128292
630.874	0.0126485
630.953	0.0126840
631.031	0.0128137
631.109	0.0128769
631.187	0.0129341
631.265	0.0129046
631.343	0.0127811
631.421	0.0128119
631.499	0.0128271
631.578	0.0128127
631.656	0.0128981
631.734	0.0128089
631.812	0.0127917
631.890	0.0128448
631.968	0.0128484
632.046	0.0130044
632.124	0.0127993
632.203	0.0128020
632.281	0.0128828
632.359	0.0128776
632.437	0.0127326
632.515	0.0127530
632.593	0.0128487
632.671	0.0128018
632.749	0.0127441
632.828	0.0127071
632.906	0.0128254
632.984	0.0128216
633.062	0.0126546
633.140	0.0128268
633.218	0.0128165
633.296	0.0128620
633.374	0.0128800
633.453	0.0127633
633.531	0.0127822
633.609	0.0127657
633.687	0.0128667
633.765	0.0128927
633.843	0.0128232
633.921	0.0126468
633.999	0.0127959
634.078	0.0127672
634.156	0.0128156
634.234	0.0127621
634.312	0.0128380
634.390	0.0128667
634.468	0.0128641
634.546	0.0127165
634.624	0.0128278
634.703	0.0129742
634.781	0.0127182
634.859	0.0127447
634.937	0.0128872
635.015	0.0127744
635.093	0.0127296
635.171	0.0126723
635.249	0.0128301
635.328	0.0129305
635.406	0.0128017
635.484	0.0127496
635.562	0.0126794
635.640	0.0127686
635.718	0.0127605
635.796	0.0128037
635.874	0.0127567
635.953	0.0127214
636.031	0.0128020
636.109	0.0129642
636.187	0.0129401
636.265	0.0126942
636.343	0.0128099
636.421	0.0127113
636.499	0.0127222
636.578	0.0127598
636.656	0.0128506
636.734	0.0129378
636.812	0.0127930
636.890	0.0126657
636.968	0.0128049
637.046	0.0128410
637.124	0.0127382
637.203	0.0126550
637.281	0.0126437
637.359	0.0127596
637.437	0.0128831
637.515	0.0127841
637.593	0.0126642
637.671	0.0127015
637.749	0.0127731
637.828	0.0126922
637.906	0.0128291
637.984	0.0126550
638.062	0.0126165
638.140	0.0127116
638.218	0.0128503
638.296	0.0127321
638.374	0.0127575
638.453	0.0127707
638.531	0.0127597
638.609	0.0128418
638.687	0.0127048
638.765	0.0127177
638.843	0.0127396
638.921	0.0128011
638.999	0.0126875
639.078	0.0128047
639.156	0.0127236
639.234	0.0129227
639.312	0.0126328
639.390	0.0127985
639.468	0.0129586
639.546	0.0128114
639.624	0.0127330
639.703	0.0127966
639.781	0.0128613
639.859	0.0126673
639.937	0.0128815
640.015	0.0128611
640.093	0.0127390
640.171	0.0128380
640.249	0.0127349
640.328	0.0128606
640.406	0.0127364
640.484	0.0128782
640.562	0.0128302
640.640	0.0128501
640.718	0.0129296
640.796	0.0128565
640.874	0.0128031
640.953	0.0127912
641.031	0.0127606
641.109	0.0128603
641.187	0.0128445
641.265	0.0129075
641.343	0.0128423
641.421	0.0128744
641.499	0.0127767
641.578	0.0128539
641.656	0.0127338
641.734	0.0126887
641.812	0.0128374
641.890	0.0128836
641.968	0.0128846
642.046	0.0127959
642.124	0.0128754
642.203	0.0127843
642.281	0.0127258
642.359	0.0127998
642.437	0.0127765
642.515	0.0126749
642.593	0.0127565
642.671	0.0127843
642.749	0.0128443
642.828	0.0128376
642.906	0.0127728
642.984	0.0128227
643.062	0.0129782
643.140	0.0128106
643.218	0.0128487
643.296	0.0127251
643.374	0.0127890
643.453	0.0127016
643.531	0.0128165
643.609	0.0128358
643.687	0.0128441
643.765	0.0128341
643.843	0.0127261
643.921	0.0127229
643.999	0.0126218
644.078	0.0127351
644.156	0.0128184
644.234	0.0128474
644.312	0.0127417
644.390	0.0128619
644.468	0.0128342
644.546	0.0128239
644.624	0.0127355
644.703	0.0127944
644.781	0.0128426
644.859	0.0129301
644.937	0.0129154
645.015	0.0129504
645.093	0.0128942
645.171	0.0126804
645.249	0.0127740
645.328	0.0128467
645.406	0.0127583
645.484	0.0127142
645.562	0.0127288
645.640	0.0128595
645.718	0.0128483
645.796	0.0127630
645.874	0.0128512
645.953	0.0128564
646.031	0.0128101
646.109	0.0127666
646.187	0.0127451
646.265	0.0128191
646.343	0.0128751
646.421	0.0127745
646.499	0.0128626
646.578	0.0128414
646.656	0.0128183
646.734	0.0128537
646.812	0.0127625
646.890	0.0127567
646.968	0.0128018
647.046	0.0127824
647.124	0.0128181
647.203	0.0127962
647.281	0.0127242
647.359	0.0127898
647.437	0.0127476
647.515	0.0128018
647.593	0.0127943
647.671	0.0128426
647.749	0.0128472
647.828	0.0128874
647.906	0.0128057
647.984	0.0127608
648.062	0.0128008
648.140	0.0128366
648.218	0.0128649
648.296	0.0127989
648.374	0.0127258
648.453	0.0127383
648.531	0.0128741
648.609	0.0127341
648.687	0.0127765
648.765	0.0127429
648.843	0.0128629
648.921	0.0127943
648.999	0.0127134
649.078	0.0128413
649.156	0.0128384
649.234	0.0127898
649.312	0.0128258
649.390	0.0128327
649.468	0.0127827
649.546	0.0128198
649.624	0.0129086
649.703	0.0127463
649.781	0.0130151
649.859	0.0129343
649.937	0.0127337
650.015	0.0127705
650.093	0.0128766
650.171	0.0128683
650.249	0.0126865
650.328	0.0127740
650.406	0.0128231
650.484	0.0127567
650.562	0.0128996
650.640	0.0128514
650.718	0.0128403
650.796	0.0129551
650.874	0.0128500
650.953	0.0128300
651.031	0.0129036
651.109	0.0128506
651.187	0.0127870
651.265	0.0127978
651.343	0.0128450
651.421	0.0129211
651.499	0.0128415
651.578	0.0129005
651.656	0.0127080
651.734	0.0127791
651.812	0.0129170
651.890	0.0128563
651.968	0.0127470
652.046	0.0127542
652.124	0.0127795
652.203	0.0127790
652.281	0.0127872
652.359	0.0128457
652.437	0.0128643
652.515	0.0125903
652.593	0.0128373
652.671	0.0128525
652.749	0.0128996
652.828	0.0128125
652.906	0.0128256
652.984	0.0129096
653.062	0.0129136
653.140	0.0128059
653.218	0.0128331
653.296	0.0128008
653.374	0.0128171
653.453	0.0126956
653.531	0.0127451
653.609	0.0128686
653.687	0.0128848
653.765	0.0127380
653.843	0.0127704
653.921	0.0127857
653.999	0.0129759
654.078	0.0129252
654.156	0.0128972
654.234	0.0128369
654.312	0.0127889
654.390	0.0127070
654.468	0.0127815
654.546	0.0127319
654.624	0.0128783
654.703	0.0128630
654.781	0.0127447
654.859	0.0127610
654.937	0.0127672
655.015	0.0126806
655.093	0.0127257
655.171	0.0128324
655.249	0.0129148
655.328	0.0127186
655.406	0.0127754
655.484	0.0128152
655.562	0.0128275
655.640	0.0129108
655.718	0.0127947
655.796	0.0128556
655.874	0.0128041
655.953	0.0127704
656.031	0.0128520
656.109	0.0127831
656.187	0.0128201
656.265	0.0128048
656.343	0.0128302
656.421	0.0127338
656.499	0.0127432
656.578	0.0128519
656.656	0.0128208
656.734	0.0127206
656.812	0.0127363
656.890	0.0128450
656.968	0.0127838
657.046	0.0128937
657.124	0.0127862
657.203	0.0126871
657.281	0.0127416
657.359	0.0127945
657.437	0.0128869
657.515	0.0129733
657.593	0.0127746
657.671	0.0127428
657.749	0.0125974
657.828	0.0127979
657.906	0.0127644
657.984	0.0127448
658.062	0.0127711
658.140	0.0127032
658.218	0.0128417
658.296	0.0127779
658.374	0.0127787
658.453	0.0127755
658.531	0.0128300
658.609	0.0127174
658.687	0.0128072
658.765	0.0127232
658.843	0.0127517
658.921	0.0129156
658.999	0.0127753
659.078	0.0128097
659.156	0.0127905
659.234	0.0127670
659.312	0.0128659
659.390	0.0129328
659.468	0.0128326
659.546	0.0127302
659.624	0.0127668
659.703	0.0127623
659.781	0.0127342
659.859	0.0129849
659.937	0.0127133
660.015	0.0127850
660.093	0.0129633
660.171	0.0129075
660.249	0.0127719
660.328	0.0127644
660.406	0.0127731
660.484	0.0129486
660.562	0.0128833
660.640	0.0127548
660.718	0.0128506
660.796	0.0128468
660.874	0.0128832
660.953	0.0127923
661.031	0.0127826
661.109	0.0129157
661.187	0.0128226
661.265	0.0128188
661.343	0.0127140
661.421	0.0128027
661.499	0.0128238
661.578	0.0126339
661.656	0.0127390
661.734	0.0128887
661.812	0.0127509
661.890	0.0128104
661.968	0.0127580
662.046	0.0128634
662.124	0.0128524
662.203	0.0128220
662.281	0.0128707
662.359	0.0127782
662.437	0.0128251
662.515	0.0126064
662.593	0.0127042
662.671	0.0127319
662.749	0.0127117
662.828	0.0127103
662.906	0.0128034
662.984	0.0128102
663.062	0.0127709
663.140	0.0127051
663.218	0.0127216
663.296	0.0127090
663.374	0.0126682
663.453	0.0127802
663.531	0.0128676
663.609	0.0127946
663.687	0.0126576
663.765	0.0127675
663.843	0.0128337
663.921	0.0127571
663.999	0.0127799
664.078	0.0128131
664.156	0.0127522
664.234	0.0128613
664.312	0.0128970
664.390	0.0127428
664.468	0.0127424
664.546	0.0129116
664.624	0.0129463
664.703	0.0127922
664.781	0.0127873
664.859	0.0128947
664.937	0.0127953
665.015	0.0127937
665.093	0.0128084
665.171	0.0128153
665.249	0.0127907
665.328	0.0128320
665.406	0.0127614
665.484	0.0130492
665.562	0.0128160
665.640	0.0127010
665.718	0.0128169
665.796	0.0128032
665.874	0.0127953
665.953	0.0126488
666.031	0.0127479
666.109	0.0127195
666.187	0.0127023
666.265	0.0127272
666.343	0.0128045
666.421	0.0125964
666.499	0.0126170
666.578	0.0128264
666.656	0.0128408
666.734	0.0127580
666.812	0.0128479
666.890	0.0128496
666.968	0.0128212
667.046	0.0126939
667.124	0.0127631
667.203	0.0126630
667.281	0.0126099
667.359	0.0126607
667.437	0.0127406
667.515	0.0128200
667.593	0.0126884
667.671	0.0127003
667.749	0.0127886
667.828	0.0126572
667.906	0.0127821
667.984	0.0128439
668.062	0.0126688
668.140	0.0125908
668.218	0.0128668
668.296	0.0128400
668.374	0.0127992
668.453	0.0127078
668.531	0.0128037
668.609	0.0128700
668.687	0.0128874
668.765	0.0127750
668.843	0.0127628
668.921	0.0127996
668.999	0.0126537
669.078	0.0128776
669.156	0.0128072
669.234	0.0128592
669.312	0.0127899
669.390	0.0128306
669.468	0.0127671
669.546	0.0126464
669.624	0.0128667
669.703	0.0126965
669.781	0.0127444
669.859	0.0126720
669.937	0.0128056
670.015	0.0127741
670.093	0.0128181
670.171	0.0127401
670.249	0.0128691
670.328	0.0128240
670.406	0.0128307
670.484	0.0127994
670.562	0.0127334
670.640	0.0128446
670.718	0.0128555
670.796	0.0127284
670.874	0.0128689
670.953	0.0128336
671.031	0.0128745
671.109	0.0126937
671.187	0.0128704
671.265	0.0128573
671.343	0.0127608
671.421	0.0128912
671.499	0.0128017
671.578	0.0128580
671.656	0.0127763
671.734	0.0128026
671.812	0.0128845
671.890	0.0128768
671.968	0.0128328
672.046	0.0129658
672.124	0.0128196
672.203	0.0128510
672.281	0.0129368
672.359	0.0129514
672.437	0.0128736
672.515	0.0129125
672.593	0.0128356
672.671	0.0128481
672.749	0.0129308
672.828	0.0127981
672.906	0.0127435
672.984	0.0129596
673.062	0.0129097
673.140	0.0128772
673.218	0.0128410
673.296	0.0129641
673.374	0.0129004
673.453	0.0128379
673.531	0.0128833
673.609	0.0128446
673.687	0.0128823
673.765	0.0129041
673.843	0.0128196
673.921	0.0128339
673.999	0.0129266
674.078	0.0128802
674.156	0.0129756
674.234	0.0130238
674.312	0.0128278
674.390	0.0129256
674.468	0.0128268
674.546	0.0129544
674.624	0.0130835
674.703	0.0128835
674.781	0.0127757
674.859	0.0127431
674.937	0.0128774
675.015	0.0129196
675.093	0.0128515
675.171	0.0128436
675.249	0.0128080
675.328	0.0128503
675.406	0.0127345
675.484	0.0127859
675.562	0.0129369
675.640	0.0128959
675.718	0.0126978
675.796	0.0129211
675.874	0.0128181
675.953	0.0128212
676.031	0.0128888
676.109	0.0127737
676.187	0.0127713
676.265	0.0127727
676.343	0.0128262
676.421	0.0130461
676.499	0.0128407
676.578	0.0128869
676.656	0.0128516
676.734	0.0129334
676.812	0.0128001
676.890	0.0127102
676.968	0.0126978
677.046	0.0127743
677.124	0.0128539
677.203	0.0127588
677.281	0.0126958
677.359	0.0127589
677.437	0.0129478
677.515	0.0128184
677.593	0.0127527
677.671	0.0129537
677.749	0.0128887
677.828	0.0128940
677.906	0.0127782
677.984	0.0128765
678.062	0.0128212
678.140	0.0129635
678.218	0.0127951
678.296	0.0127789
678.374	0.0127384
678.453	0.0127519
678.531	0.0127731
678.609	0.0127056
678.687	0.0129133
678.765	0.0128748
678.843	0.0126595
678.921	0.0127866
678.999	0.0128384
679.078	0.0127164
679.156	0.0128094
679.234	0.0128001
679.312	0.0126781
679.390	0.0127811
679.468	0.0128133
679.546	0.0126669
679.624	0.0127428
679.703	0.0126118
679.781	0.0126440
679.859	0.0127100
679.937	0.0126275
680.015	0.0125729
680.093	0.0125890
680.171	0.0126792
680.249	0.0127663
680.328	0.0127464
680.406	0.0126283
680.484	0.0127598
680.562	0.0127985
680.640	0.0125868
680.718	0.0127397
680.796	0.0127813
680.874	0.0127354
680.953	0.0127773
681.031	0.0128137
681.109	0.0127080
681.187	0.0127869
681.265	0.0128234
681.343	0.0126690
681.421	0.0127100
681.499	0.0126427
681.578	0.0128054
681.656	0.0128716
681.734	0.0127097
681.812	0.0127691
681.890	0.0128809
681.968	0.0127715
682.046	0.0125963
682.124	0.0127895
682.203	0.0129823
682.281	0.0127296
682.359	0.0127561
682.437	0.0127734
682.515	0.0128368
682.593	0.0129919
682.671	0.0127784
682.749	0.0127588
682.828	0.0126978
682.906	0.0127214
682.984	0.0128168
683.062	0.0125986
683.140	0.0127284
683.218	0.0127265
683.296	0.0126805
683.374	0.0128128
683.453	0.0128513
683.531	0.0128664
683.609	0.0128941
683.687	0.0128074
683.765	0.0127840
683.843	0.0127268
683.921	0.0127122
683.999	0.0127775
684.078	0.0127171
684.156	0.0127543
684.234	0.0127537
684.312	0.0127355
684.390	0.0127493
684.468	0.0126662
684.546	0.0127824
684.624	0.0126604
684.703	0.0126910
684.781	0.0126796
684.859	0.0127872
684.937	0.0128951
685.015	0.0130675
685.093	0.0130550
685.171	0.0131406
685.249	0.0130940
685.328	0.0129979
685.406	0.0128656
685.484	0.0129604
685.562	0.0128156
685.640	0.0127025
685.718	0.0125647
685.796	0.0122919
685.874	0.0121986
685.953	0.0119303
686.031	0.0120644
686.109	0.0120543
686.187	0.0121001
686.265	0.0121328
686.343	0.0123893
686.421	0.0126276
686.499	0.0129805
686.578	0.0131879
686.656	0.0136310
686.734	0.0139921
686.812	0.0139893
686.890	0.0141441
686.968	0.0140357
687.046	0.0140382
687.124	0.0138791
687.203	0.0134581
687.281	0.0132139
687.359	0.0127513
687.437	0.0123194
687.515	0.0119368
687.593	0.0116621
687.671	0.0113435
687.749	0.0111533
687.828	0.0110492
687.906	0.0110194
687.984	0.0112473
688.062	0.0113300
688.140	0.0116670
688.218	0.0121637
688.296	0.0125047
688.374	0.0129675
688.453	0.0132607
688.531	0.0137855
688.609	0.0141730
688.687	0.0143640
688.765	0.0146017
688.843	0.0147510
688.921	0.0147498
688.999	0.0146372
689.078	0.0144849
689.156	0.0142017
689.234	0.0138541
689.312	0.0135142
689.390	0.0132755
689.468	0.0128571
689.546	0.0126371
689.624	0.0122074
689.703	0.0118777
689.781	0.0117091
689.859	0.0115002
689.937	0.0114000
690.015	0.0113471
690.093	0.0112887
690.171	0.0111556
690.249	0.0111961
690.328	0.0114608
690.406	0.0114925
690.484	0.0115617
690.562	0.0119046
690.640	0.0120849
690.718	0.0123879
690.796	0.0127274
690.874	0.0129203
690.953	0.0130125
691.031	0.0133866
691.109	0.0136086
691.187	0.0136875
691.265	0.0138405
691.343	0.0139700
691.421	0.0140283
691.499	0.0140112
691.578	0.0140017
691.656	0.0137945
691.734	0.0134749
691.812	0.0132423
691.890	0.0131207
691.968	0.0128905
692.046	0.0126357
692.124	0.0123924
692.203	0.0122027
692.281	0.0119900
692.359	0.0119641
692.437	0.0118996
692.515	0.0116778
692.593	0.0118465
692.671	0.0119669
692.749	0.0120135
692.828	0.0120392
692.906	0.0122296
692.984	0.0125050
693.062	0.0127222
693.140	0.0128349
693.218	0.0130058
693.296	0.0132986
693.374	0.0134787
693.453	0.0135149
693.531	0.0136748
693.609	0.0137523
693.687	0.0136757
693.765	0.0135144
693.843	0.0134078
693.921	0.0133847
693.999	0.0133723
694.078	0.0131203
694.156	0.0129211
694.234	0.0127326
694.312	0.0127323
694.390	0.0124834
694.468	0.0122205
694.546	0.0123122
694.624	0.0120681
694.703	0.0119431
694.781	0.0119730
694.859	0.0121809
694.937	0.0122427
695.015	0.0124783
695.093	0.0126227
695.171	0.0127444
695.249	0.0131192
695.328	0.0131681
695.406	0.0131376
695.484	0.0134805
695.562	0.0136156
695.640	0.0134879
695.718	0.0134938
695.796	0.0133878
695.874	0.0131501
695.953	0.0129210
696.031	0.0128590
696.109	0.0126364
696.187	0.0124496
696.265	0.0123743
696.343	0.0122033
696.421	0.0119967
696.499	0.0119637
696.578	0.0120850
696.656	0.0119533
696.734	0.0120382
696.812	0.0124030
696.890	0.0125732
696.968	0.0125519
697.046	0.0129443
697.124	0.0130096
697.203	0.0131301
697.281	0.0134366
697.359	0.0134808
697.437	0.0135567
697.515	0.0136188
697.593	0.0134658
697.671	0.0133082
697.749	0.0134457
697.828	0.0133081
697.906	0.0130421
697.984	0.0127814
698.062	0.0127480
698.140	0.0124964
698.218	0.0123595
698.296	0.0122439
698.374	0.0120625
698.453	0.0120968
698.531	0.0121479
698.609	0.0122256
698.687	0.0123200
698.765	0.0123178
698.843	0.0125478
698.921	0.0128804
698.999	0.0128693
699.078	0.0130029
699.156	0.0132351
699.234	0.0133635
699.312	0.0133645
699.390	0.0134615
699.468	0.0134850
699.546	0.0132838
699.624	0.0133450
699.703	0.0131703
699.781	0.0128745
699.859	0.0128790
699.937	0.0124780
700.015	0.0123457
700.093	0.0123257
700.171	0.0121214
700.249	0.0120832
700.328	0.0121711
700.406	0.0119276
700.484	0.0119893
700.562	0.0121208
700.640	0.0121098
700.718	0.0123148
700.796	0.0123904
700.874	0.0126342
700.953	0.0128820
701.031	0.0130395
701.109	0.0133474
701.187	0.0134802
701.265	0.0136792
701.343	0.0138883
701.421	0.0140426
701.499	0.0140017
701.578	0.0140868
701.656	0.0139991
701.734	0.0139478
701.812	0.0138036
701.890	0.0135387
701.968	0.0133428
702.046	0.0130043
702.124	0.0127885
702.203	0.0125727
702.281	0.0121291
702.359	0.0119559
702.437	0.0118621
702.515	0.0116786
702.593	0.0116266
702.671	0.0115648
702.749	0.0115108
702.828	0.0117632
702.906	0.0119067
702.984	0.0120331
703.062	0.0122381
703.140	0.0124129
703.218	0.0126232
703.296	0.0128611
703.374	0.0130969
703.453	0.0132917
703.531	0.0135766
703.609	0.0136663
703.687	0.0139646
703.765	0.0140415
703.843	0.0139658
703.921	0.0141031
703.999	0.0139833
704.078	0.0137326
704.156	0.0136662
704.234	0.0134000
704.312	0.0132645
704.390	0.0129568
704.468	0.0126755
704.546	0.0124399
704.624	0.0121861
704.703	0.0120079
704.781	0.0120708
704.859	0.0118961
704.937	0.0116881
705.015	0.0116199
705.093	0.0117029
705.171	0.0119939
705.249	0.0123055
705.328	0.0121447
705.406	0.0125111
705.484	0.0128133
705.562	0.0130202
705.640	0.0131886
705.718	0.0132986
705.796	0.0136360
705.874	0.0137149
705.953	0.0138675
706.031	0.0138690
706.109	0.0137809
706.187	0.0138545
706.265	0.0138484
706.343	0.0136315
706.421	0.0132956
706.499	0.0131676
706.578	0.0128675
706.656	0.0128724
706.734	0.0126904
706.812	0.0123625
706.890	0.0123640
706.968	0.0123285
707.046	0.0123219
707.124	0.0122659
707.203	0.0122548
707.281	0.0122463
707.359	0.0122123
707.437	0.0124505
707.515	0.0122910
707.593	0.0125230
707.671	0.0125446
707.749	0.0126328
707.828	0.0128649
707.906	0.0130125
707.984	0.0128909
708.062	0.0129197
708.140	0.0129169
708.218	0.0130195
708.296	0.0129153
708.374	0.0128202
708.453	0.0127639
708.531	0.0126230
708.609	0.0126756
708.687	0.0126015
708.765	0.0124424
708.843	0.0124126
708.921	0.0123570
708.999	0.0122304
709.078	0.0122288
709.156	0.0124171
709.234	0.0125877
709.312	0.0124565
709.390	0.0124982
709.468	0.0127549
709.546	0.0127592
709.624	0.0128268
709.703	0.0129230
709.781	0.0130934
709.859	0.0131914
709.937	0.0131781
710.015	0.0132981
710.093	0.0132449
710.171	0.0133875
710.249	0.0132760
710.328	0.0133639
710.406	0.0134550
710.484	0.0134786
710.562	0.0135384
710.640	0.0134124
710.718	0.0132947
710.796	0.0132096
710.874	0.0131691
710.953	0.0130931
711.031	0.0130327
711.109	0.0128576
711.187	0.0128392
711.265	0.0128297
711.343	0.0126344
711.421	0.0125933
711.499	0.0126046
711.578	0.0126060
711.656	0.0124300
711.734	0.0124709
711.812	0.0125950
711.890	0.0125156
711.968	0.0126655
712.046	0.0127184
712.124	0.0125491
712.203	0.0125784
712.281	0.0126775
712.359	0.0127487
712.437	0.0126837
712.515	0.0127756
712.593	0.0127591
712.671	0.0128110
712.749	0.0130090
712.828	0.0127649
712.906	0.0126310
712.984	0.0128159
713.062	0.0127220
713.140	0.0126559
713.218	0.0127109
713.296	0.0126544
713.374	0.0125879
713.453	0.0125900
713.531	0.0126183
713.609	0.0125134
713.687	0.0124940
713.765	0.0126228
713.843	0.0124357
713.921	0.0126141
713.999	0.0127044
714.078	0.0126317
714.156	0.0127328
714.234	0.0127787
714.312	0.0129453
714.390	0.0129358
714.468	0.0129967
714.546	0.0132143
714.624	0.0131209
714.703	0.0130390
714.781	0.0130946
714.859	0.0132633
714.937	0.0131303
715.015	0.0130148
715.093	0.0129308
715.171	0.0130907
715.249	0.0129673
715.328	0.0126898
715.406	0.0128183
715.484	0.0128584
715.562	0.0127521
715.640	0.0126707
715.718	0.0126738
715.796	0.0126098
715.874	0.0125576
715.953	0.0126786
716.031	0.0127962
716.109	0.0127921
716.187	0.0128247
716.265	0.0129530
716.343	0.0129382
716.421	0.0129611
716.499	0.0128893
716.578	0.0130985
716.656	0.0128817
716.734	0.0129848
716.812	0.0129514
716.890	0.0129137
716.968	0.0128425
717.046	0.0128374
717.124	0.0127559
717.203	0.0129185
717.281	0.0126622
717.359	0.0126456
717.437	0.0127357
717.515	0.0126366
717.593	0.0124622
717.671	0.0126212
717.749	0.0127680
717.828	0.0125042
717.906	0.0126672
717.984	0.0127267
718.062	0.0126200
718.140	0.0126418
718.218	0.0126562
718.296	0.0127705
718.374	0.0126457
718.453	0.0126622
718.531	0.0127714
718.609	0.0128387
718.687	0.0127052
718.765	0.0127048
718.843	0.0127066
718.921	0.0124964
718.999	0.0125691
719.078	0.0126718
719.156	0.0127838
719.234	0.0126231
719.312	0.0126054
719.390	0.0126555
719.468	0.0126902
719.546	0.0128574
719.624	0.0126401
719.703	0.0128225
719.781	0.0129383
719.859	0.0129195
719.937	0.0129461
720.015	0.0131191
720.093	0.0131893
720.171	0.0130948
720.249	0.0129051
720.328	0.0130466
720.406	0.0130247
720.484	0.0131094
720.562	0.0129205
720.640	0.0128712
720.718	0.0130543
720.796	0.0128397
720.874	0.0128293
720.953	0.0127832
721.031	0.0128629
721.109	0.0128974
721.187	0.0127751
721.265	0.0126849
721.343	0.0127161
721.421	0.0127921
721.499	0.0128177
721.578	0.0125151
721.656	0.0126838
721.734	0.0128631
721.812	0.0127328
721.890	0.0128642
721.968	0.0128608
722.046	0.0127508
722.124	0.0128624
722.203	0.0127954
722.281	0.0127106
722.359	0.0126900
722.437	0.0127113
722.515	0.0126938
722.593	0.0127928
722.671	0.0126263
722.749	0.0126444
722.828	0.0128528
722.906	0.0125747
722.984	0.0125087
723.062	0.0126975
723.140	0.0126382
723.218	0.0126418
723.296	0.0127784
723.374	0.0126038
723.453	0.0127356
723.531	0.0127482
723.609	0.0127511
723.687	0.0128722
723.765	0.0128747
723.843	0.0129711
723.921	0.0130141
723.999	0.0130080
724.078	0.0130664
724.156	0.0129325
724.234	0.0131417
724.312	0.0130756
724.390	0.0129984
724.468	0.0130805
724.546	0.0130469
724.624	0.0128590
724.703	0.0129745
724.781	0.0128507
724.859	0.0129386
724.937	0.0127438
725.015	0.0126372
725.093	0.0125951
725.171	0.0127350
725.249	0.0126936
725.328	0.0126388
725.406	0.0127317
725.484	0.0127066
725.562	0.0127517
725.640	0.0127739
725.718	0.0128602
725.796	0.0129066
725.874	0.0127312
725.953	0.0128458
726.031	0.0129968
726.109	0.0130853
726.187	0.0130938
726.265	0.0130332
726.343	0.0130077
726.421	0.0130542
726.499	0.0131657
726.578	0.0130222
726.656	0.0130750
726.734	0.0130835
726.812	0.0130219
726.890	0.0128671
726.968	0.0128560
727.046	0.0128715
727.124	0.0128673
727.203	0.0127396
727.281	0.0126311
727.359	0.0125531
727.437	0.0126035
727.515	0.0126310
727.593	0.0125356
727.671	0.0127610
727.749	0.0126292
727.828	0.0125629
727.906	0.0124493
727.984	0.0125729
728.062	0.0128456
728.140	0.0128947
728.218	0.0129739
728.296	0.0128316
728.374	0.0128582
728.453	0.0129220
728.531	0.0129628
728.609	0.0130768
728.687	0.0129985
728.765	0.0128826
728.843	0.0130720
728.921	0.0129946
728.999	0.0129276
729.078	0.0128091
729.156	0.0128757
729.234	0.0127914
729.312	0.0126729
729.390	0.0126145
729.468	0.0127773
729.546	0.0127546
729.624	0.0125608
729.703	0.0126096
729.781	0.0124806
729.859	0.0126614
729.937	0.0125027
730.015	0.0126012
730.093	0.0127953
730.171	0.0127809
730.249	0.0127518
730.328	0.0127596
730.406	0.0128204
730.484	0.0128663
730.562	0.0129738
730.640	0.0128118
730.718	0.0127681
730.796	0.0129173
730.874	0.0131538
730.953	0.0129646
731.031	0.0128613
731.109	0.0127930
731.187	0.0126693
731.265	0.0128986
731.343	0.0128860
731.421	0.0126461
731.499	0.0126974
731.578	0.0128556
731.656	0.0128939
731.734	0.0127704
731.812	0.0127852
731.890	0.0128682
731.968	0.0127688
732.046	0.0128099
732.124	0.0127762
732.203	0.0127738
732.281	0.0128024
732.359	0.0127614
732.437	0.0128190
732.515	0.0128211
732.593	0.0127510
732.671	0.0128606
732.749	0.0126551
732.828	0.0126901
732.906	0.0128541
732.984	0.0127888
733.062	0.0127077
733.140	0.0127745
733.218	0.0128197
733.296	0.0128194
733.374	0.0129557
733.453	0.0129710
733.531	0.0128843
733.609	0.0128838
733.687	0.0128387
733.765	0.0126720
733.843	0.0126298
733.921	0.0126614
733.999	0.0127235
734.078	0.0126945
734.156	0.0126536
734.234	0.0128240
734.312	0.0127341
734.390	0.0127405
734.468	0.0127771
734.546	0.0126013
734.624	0.0127750
734.703	0.0128247
734.781	0.0127317
734.859	0.0128555
734.937	0.0128166
735.015	0.0128028
735.093	0.0128944
735.171	0.0129381
735.249	0.0128143
735.328	0.0127276
735.406	0.0128983
735.484	0.0128783
735.562	0.0127505
735.640	0.0128812
735.718	0.0128488
735.796	0.0130114
735.874	0.0128025
735.953	0.0128693
736.031	0.0129205
736.109	0.0129707
736.187	0.0127904
736.265	0.0128593
736.343	0.0129521
736.421	0.0128797
736.499	0.0129118
736.578	0.0129575
736.656	0.0128802
736.734	0.0129212
736.812	0.0129328
736.890	0.0129047
736.968	0.0129624
737.046	0.0128837
737.124	0.0129940
737.203	0.0128545
737.281	0.0128800
737.359	0.0129029
737.437	0.0128321
737.515	0.0128088
737.593	0.0128220
737.671	0.0127112
737.749	0.0127885
737.828	0.0130112
737.906	0.0128236
737.984	0.0126808
738.062	0.0127943
738.140	0.0128434
738.218	0.0127776
738.296	0.0128266
738.374	0.0128570
738.453	0.0128919
738.531	0.0129562
738.609	0.0130112
738.687	0.0129553
738.765	0.0128963
738.843	0.0128965
738.921	0.0129518
738.999	0.0129306
739.078	0.0131068
739.156	0.0131283
739.234	0.0131370
739.312	0.0132164
739.390	0.0130468
739.468	0.0129871
739.546	0.0130840
739.624	0.0129383
739.703	0.0129784
739.781	0.0128354
739.859	0.0129144
739.937	0.0128837
740.015	0.0127672
740.093	0.0127685
740.171	0.0126496
740.249	0.0126221
740.328	0.0125146
740.406	0.0125215
740.484	0.0126994
740.562	0.0126513
740.640	0.0125001
740.718	0.0126865
740.796	0.0125496
740.874	0.0125811
740.953	0.0126019
741.031	0.0126731
741.109	0.0127742
741.187	0.0127950
741.265	0.0128478
741.343	0.0129440
741.421	0.0129352
741.499	0.0129956
741.578	0.0131195
741.656	0.0131417
741.734	0.0130782
741.812	0.0131263
741.890	0.0130974
741.968	0.0132211
742.046	0.0130663
742.124	0.0130016
742.203	0.0128796
742.281	0.0129444
742.359	0.0128688
742.437	0.0129002
742.515	0.0128905
742.593	0.0128084
742.671	0.0127303
742.749	0.0127507
742.828	0.0127207
742.906	0.0126741
742.984	0.0128855
743.062	0.0126942
743.140	0.0127038
743.218	0.0129012
743.296	0.0128483
743.374	0.0128996
743.453	0.0127913
743.531	0.0128054
743.609	0.0128424
743.687	0.0129664
743.765	0.0128056
743.843	0.0128049
743.921	0.0128693
743.999	0.0128967
744.078	0.0128908
744.156	0.0128763
744.234	0.0127296
744.312	0.0126992
744.390	0.0126366
744.468	0.0128002
744.546	0.0126869
744.624	0.0126338
744.703	0.0126173
744.781	0.0126947
744.859	0.0126663
744.937	0.0126936
745.015	0.0126730
745.093	0.0126024
745.171	0.0127107
745.249	0.0125735
745.328	0.0127875
745.406	0.0129145
745.484	0.0128032
745.562	0.0128033
745.640	0.0127741
745.718	0.0128832
745.796	0.0128440
745.874	0.0128723
745.953	0.0128325
746.031	0.0128726
746.109	0.0129274
746.187	0.0128857
746.265	0.0128802
746.343	0.0129311
746.421	0.0129282
746.499	0.0128679
746.578	0.0127688
746.656	0.0128109
746.734	0.0128227
746.812	0.0129417
746.890	0.0129779
746.968	0.0129078
747.046	0.0129836
747.124	0.0130160
747.203	0.0129889
747.281	0.0128873
747.359	0.0129321
747.437	0.0128651
747.515	0.0129385
747.593	0.0129559
747.671	0.0129096
747.749	0.0128847
747.828	0.0127762
747.906	0.0127971
747.984	0.0127258
748.062	0.0127203
748.140	0.0126109
748.218	0.0127248
748.296	0.0126500
748.374	0.0127176
748.453	0.0127896
748.531	0.0126958
748.609	0.0126764
748.687	0.0128061
748.765	0.0128432
748.843	0.0129159
748.921	0.0127316
748.999	0.0127401
749.078	0.0126369
749.156	0.0127689
749.234	0.0128157
749.312	0.0127167
749.390	0.0127785
749.468	0.0127320
749.546	0.0127828
749.624	0.0128734
749.703	0.0127563
749.781	0.0127062
749.859	0.0128365
749.937	0.0127200
750.015	0.0129361
750.093	0.0128484
750.171	0.0128585
750.249	0.0128999
750.328	0.0128281
750.406	0.0128402
750.484	0.0127848
750.562	0.0128017
750.640	0.0127025
750.718	0.0128922
750.796	0.0128681
750.874	0.0127972
750.953	0.0127782
751.031	0.0127328
751.109	0.0128714
751.187	0.0128577
751.265	0.0128355
751.343	0.0128603
751.421	0.0130050
751.499	0.0128735
751.578	0.0128366
751.656	0.0129527
751.734	0.0128207
751.812	0.0128985
751.890	0.0128761
751.968	0.0128517
752.046	0.0128992
752.124	0.0126765
752.203	0.0128362
752.281	0.0127541
752.359	0.0126165
752.437	0.0128105
752.515	0.0126529
752.593	0.0125826
752.671	0.0124520
752.749	0.0125471
752.828	0.0126034
752.906	0.0124974
752.984	0.0127312
753.062	0.0127345
753.140	0.0125967
753.218	0.0126889
753.296	0.0127148
753.374	0.0127266
753.453	0.0127324
753.531	0.0127792
753.609	0.0128265
753.687	0.0127840
753.765	0.0127698
753.843	0.0129108
753.921	0.0129920
753.999	0.0129440
754.078	0.0130441
754.156	0.0129111
754.234	0.0128156
754.312	0.0128847
754.390	0.0129980
754.468	0.0129661
754.546	0.0129366
754.624	0.0129246
754.703	0.0128709
754.781	0.0127544
754.859	0.0127935
754.937	0.0128733
755.015	0.0128695
755.093	0.0128629
755.171	0.0129098
755.249	0.0127952
755.328	0.0128517
755.406	0.0128276
755.484	0.0128420
755.562	0.0129961
755.640	0.0130271
755.718	0.0127963
755.796	0.0128435
755.874	0.0129404
755.953	0.0127113
756.031	0.0127927
756.109	0.0127618
756.187	0.0128809
756.265	0.0128937
756.343	0.0128715
756.421	0.0128724
756.499	0.0129929
756.578	0.0128419
756.656	0.0127439
756.734	0.0128815
756.812	0.0128344
756.890	0.0126565
756.968	0.0127573
757.046	0.0128547
757.124	0.0127215
757.203	0.0127974
757.281	0.0126933
757.359	0.0127060
757.437	0.0126691
757.515	0.0126537
757.593	0.0127521
757.671	0.0127998
757.749	0.0126495
757.828	0.0127620
757.906	0.0128666
757.984	0.0129171
758.062	0.0127762
758.140	0.0128102
758.218	0.0128218
758.296	0.0128967
758.374	0.0128470
758.453	0.0129476
758.531	0.0128934
758.609	0.0129828
758.687	0.0129318
758.765	0.0130534
758.843	0.0130917
758.921	0.0130514
758.999	0.0130788
759.078	0.0130151
759.156	0.0129812
759.234	0.0129012
759.312	0.0129671
759.390	0.0131080
759.468	0.0129557
759.546	0.0129497
759.624	0.0129254
759.703	0.0130502
759.781	0.0130183
759.859	0.0128849
759.937	0.0130316
760.015	0.0128001
760.093	0.0128780
760.171	0.0127852
760.249	0.0128044
760.328	0.0128020
760.406	0.0127607
760.484	0.0127470
760.562	0.0127274
760.640	0.0128040
760.718	0.0126122
760.796	0.0126833
760.874	0.0127327
760.953	0.0128664
761.031	0.0127408
761.109	0.0128624
761.187	0.0127242
761.265	0.0128173
761.343	0.0130083
761.421	0.0129012
761.499	0.0130513
761.578	0.0129998
761.656	0.0129933
761.734	0.0129433
761.812	0.0130055
761.890	0.0129285
761.968	0.0130338
762.046	0.0129256
762.124	0.0129646
762.203	0.0129713
762.281	0.0128728
762.359	0.0127769
762.437	0.0128606
762.515	0.0126832
762.593	0.0127603
762.671	0.0128766
762.749	0.0128532
762.828	0.0127636
762.906	0.0126952
762.984	0.0126568
763.062	0.0127248
763.140	0.0129070
763.218	0.0127644
763.296	0.0128036
763.374	0.0127776
763.453	0.0127888
763.531	0.0129025
763.609	0.0128008
763.687	0.0129330
763.765	0.0130851
763.843	0.0128532
763.921	0.0127099
763.999	0.0127294
764.078	0.0128573
764.156	0.0128135
764.234	0.0128645
764.312	0.0128834
764.390	0.0128799
764.468	0.0128399
764.546	0.0128198
764.624	0.0129702
764.703	0.0129078
764.781	0.0128616
764.859	0.0129752
764.937	0.0128990
765.015	0.0130306
765.093	0.0129234
765.171	0.0129945
765.249	0.0128397
765.328	0.0128947
765.406	0.0129034
765.484	0.0128153
765.562	0.0129303
765.640	0.0127330
765.718	0.0128181
765.796	0.0128453
765.874	0.0127728
765.953	0.0128463
766.031	0.0126513
766.109	0.0128204
766.187	0.0128534
766.265	0.0127430
766.343	0.0129208
766.421	0.0128310
766.499	0.0128684
766.578	0.0128560
766.656	0.0128583
766.734	0.0128048
766.812	0.0128232
766.890	0.0129192
766.968	0.0127073
767.046	0.0128078
767.124	0.0127671
767.203	0.0128146
767.281	0.0127303
767.359	0.0127254
767.437	0.0126321
767.515	0.0127760
767.593	0.0127325
767.671	0.0126944
767.749	0.0127340
767.828	0.0127097
767.906	0.0128111
767.984	0.0127218
768.062	0.0127882
768.140	0.0127742
768.218	0.0129012
768.296	0.0128823
768.374	0.0128886
768.453	0.0128455
768.531	0.0128715
768.609	0.0128514
768.687	0.0128854
768.765	0.0128989
768.843	0.0127619
768.921	0.0127931
768.999	0.0128115
769.078	0.0129018
769.156	0.0128536
769.234	0.0128023
769.312	0.0128722
769.390	0.0128907
769.468	0.0129071
769.546	0.0128266
769.624	0.0128904
769.703	0.0127666
769.781	0.0127980
769.859	0.0128535
769.937	0.0128131
770.015	0.0126942
770.093	0.0128046
770.171	0.0128150
770.249	0.0127255
770.328	0.0127777
770.406	0.0127099
770.484	0.0126780
770.562	0.0127551
770.640	0.0127181
770.718	0.0128085
770.796	0.0128196
770.874	0.0128231
770.953	0.0127146
771.031	0.0127361
771.109	0.0128458
771.187	0.0129008
771.265	0.0128551
771.343	0.0127644
771.421	0.0127919
771.499	0.0128002
771.578	0.0128542
771.656	0.0129437
771.734	0.0129358
771.812	0.0127922
771.890	0.0129398
771.968	0.0129311
772.046	0.0130143
772.124	0.0131249
772.203	0.0129768
772.281	0.0129061
772.359	0.0130013
772.437	0.0130736
772.515	0.0128991
772.593	0.0128819
772.671	0.0128666
772.749	0.0127081
772.828	0.0127887
772.906	0.0128636
772.984	0.0127196
773.062	0.0127528
773.140	0.0126765
773.218	0.0125895
773.296	0.0127448
773.374	0.0126971
773.453	0.0126152
773.531	0.0128038
773.609	0.0127823
773.687	0.0127137
773.765	0.0128571
773.843	0.0127606
773.921	0.0127150
773.999	0.0127470
774.078	0.0128960
774.156	0.0127386
774.234	0.0126855
774.312	0.0129520
774.390	0.0127368
774.468	0.0127919
774.546	0.0129054
774.624	0.0128638
774.703	0.0126575
774.781	0.0127179
774.859	0.0127939
774.937	0.0127726
775.015	0.0127648
775.093	0.0129322
775.171	0.0126582
775.249	0.0128087
775.328	0.0127983
775.406	0.0128242
775.484	0.0128155
775.562	0.0128159
775.640	0.0128218
775.718	0.0128091
775.796	0.0126340
775.874	0.0127943
775.953	0.0128693
776.031	0.0127711
776.109	0.0127765
776.187	0.0127378
776.265	0.0125588
776.343	0.0126624
776.421	0.0128596
776.499	0.0128315
776.578	0.0128339
776.656	0.0128145
776.734	0.0128632
776.812	0.0126981
776.890	0.0127961
776.968	0.0127749
777.046	0.0127229
777.124	0.0126601
777.203	0.0128715
777.281	0.0130242
777.359	0.0128271
777.437	0.0127903
777.515	0.0126362
777.593	0.0128113
777.671	0.0128884
777.749	0.0127469
777.828	0.0129353
777.906	0.0128770
777.984	0.0129177
778.062	0.0128932
778.140	0.0129510
778.218	0.0130367
778.296	0.0128836
778.374	0.0129298
778.453	0.0129044
778.531	0.0129369
778.609	0.0128096
778.687	0.0129015
778.765	0.0128550
778.843	0.0128753
778.921	0.0127704
778.999	0.0127426
779.078	0.0127612
779.156	0.0127535
779.234	0.0126679
779.312	0.0127873
779.390	0.0128193
779.468	0.0126617
779.546	0.0127220
779.624	0.0127048
779.703	0.0126675
779.781	0.0127335
779.859	0.0128493
779.937	0.0127483
780.015	0.0126547
780.093	0.0127361
780.171	0.0127972
780.249	0.0126458
780.328	0.0127023
780.406	0.0129544
780.484	0.0128326
780.562	0.0128419
780.640	0.0128852
780.718	0.0128290
780.796	0.0128491
780.874	0.0129716
780.953	0.0129298
781.031	0.0127630
781.109	0.0128149
781.187	0.0128893
781.265	0.0128937
781.343	0.0128480
781.421	0.0127836
781.499	0.0127903
781.578	0.0127822
781.656	0.0126108
781.734	0.0127826
781.812	0.0128355
781.890	0.0127486
781.968	0.0127489
782.046	0.0127796
782.124	0.0127043
782.203	0.0127725
782.281	0.0126361
782.359	0.0126216
782.437	0.0127276
782.515	0.0126597
782.593	0.0126942
782.671	0.0127398
782.749	0.0126746
782.828	0.0127437
782.906	0.0127324
782.984	0.0127495
783.062	0.0127840
783.140	0.0127591
783.218	0.0127644
783.296	0.0128510
783.374	0.0127244
783.453	0.0128888
783.531	0.0128172
783.609	0.0127963
783.687	0.0129530
783.765	0.0128861
783.843	0.0129037
783.921	0.0125248
783.999	0.0127073
784.078	0.0126685
784.156	0.0127386
784.234	0.0126659
784.312	0.0125885
784.390	0.0126712
784.468	0.0126130
784.546	0.0126623
784.624	0.0127314
784.703	0.0127657
784.781	0.0126657
784.859	0.0126577
784.937	0.0126799
785.015	0.0127946
785.093	0.0129212
785.171	0.0129083
785.249	0.0129263
785.328	0.0129697
785.406	0.0130233
785.484	0.0128902
785.562	0.0128304
785.640	0.0129781
785.718	0.0129149
785.796	0.0127802
785.874	0.0128329
785.953	0.0128677
786.031	0.0127866
786.109	0.0127562
786.187	0.0128268
786.265	0.0127752
786.343	0.0127251
786.421	0.0126267
786.499	0.0126865
786.578	0.0125284
786.656	0.0125764
786.734	0.0125225
786.812	0.0125756
786.890	0.0126469
786.968	0.0126428
787.046	0.0126546
787.124	0.0127644
787.203	0.0126826
787.281	0.0127517
787.359	0.0128366
787.437	0.0129801
787.515	0.0130528
787.593	0.0129843
787.671	0.0130185
787.749	0.0129713
787.828	0.0131963
787.906	0.0129607
787.984	0.0130761
788.062	0.0129565
788.140	0.0128791
788.218	0.0128606
788.296	0.0128602
788.374	0.0128494
788.453	0.0127901
788.531	0.0127933
788.609	0.0127710
788.687	0.0126581
788.765	0.0125930
788.843	0.0126883
788.921	0.0126701
788.999	0.0125298
789.078	0.0125502
789.156	0.0125343
789.234	0.0127207
789.312	0.0126465
789.390	0.0126553
789.468	0.0127360
789.546	0.0127714
789.624	0.0128561
789.703	0.0128714
789.781	0.0128281
789.859	0.0128430
789.937	0.0129367
790.015	0.0129430
790.093	0.0129292
790.171	0.0130310
790.249	0.0128996
790.328	0.0131945
790.406	0.0130512
790.484	0.0130196
790.562	0.0130426
790.640	0.0130010
790.718	0.0128277
790.796	0.0128725
790.874	0.0129416
790.953	0.0129420
791.031	0.0128288
791.109	0.0127990
791.187	0.0128027
791.265	0.0126665
791.343	0.0127707
791.421	0.0128333
791.499	0.0126888
791.578	0.0126924
791.656	0.0127088
791.734	0.0127162
791.812	0.0128249
791.890	0.0126688
791.968	0.0126562
792.046	0.0127826
792.124	0.0128580
792.203	0.0127029
792.281	0.0127170
792.359	0.0126989
792.437	0.0128410
792.515	0.0128492
792.593	0.0126990
792.671	0.0128967
792.749	0.0129221
792.828	0.0128575
792.906	0.0127941
792.984	0.0128275
793.062	0.0128594
793.140	0.0129169
793.218	0.0127962
793.296	0.0127473
793.374	0.0127176
793.453	0.0129138
793.531	0.0127988
793.609	0.0127680
793.687	0.0128136
793.765	0.0128071
793.843	0.0128374
793.921	0.0128905
793.999	0.0128358
794.078	0.0128294
794.156	0.0128851
794.234	0.0129118
794.312	0.0129396
794.390	0.0127421
794.468	0.0127746
794.546	0.0127208
794.624	0.0127414
794.703	0.0127141
794.781	0.0125795
794.859	0.0124858
794.937	0.0124961
795.015	0.0124612
795.093	0.0127000
795.171	0.0126556
795.249	0.0126992
795.328	0.0127386
795.406	0.0127488
795.484	0.0127760
795.562	0.0127570
795.640	0.0127930
795.718	0.0127225
795.796	0.0128770
795.874	0.0129301
795.953	0.0128191
796.031	0.0128185
796.109	0.0128302
796.187	0.0127956
796.265	0.0127183
796.343	0.0128049
796.421	0.0126786
796.499	0.0127283
796.578	0.0127285
796.656	0.0127435
796.734	0.0127936
796.812	0.0125641
796.890	0.0126646
796.968	0.0127253
797.046	0.0127699
797.124	0.0128001
797.203	0.0126621
797.281	0.0128124
797.359	0.0128338
797.437	0.0127533
797.515	0.0130052
797.593	0.0129478
797.671	0.0129446
797.749	0.0128794
797.828	0.0129111
797.906	0.0128915
797.984	0.0128659
798.062	0.0130826
798.140	0.0129291
798.218	0.0129449
798.296	0.0129098
798.374	0.0130096
798.453	0.0129179
798.531	0.0129508
798.609	0.0130153
798.687	0.0129818
798.765	0.0129450
798.843	0.0130489
798.921	0.0130473
798.999	0.0131094
799.078	0.0129228
799.156	0.0128056
799.234	0.0129325
799.312	0.0129028
799.390	0.0128935
799.468	0.0128926
799.546	0.0128457
799.624	0.0127682
799.703	0.0128736
799.781	0.0129338
799.859	0.0127414
799.937	0.0129552
800.015	0.0130336
800.093	0.0130274
800.171	0.0129780
800.249	0.0127983
800.328	0.0128805
800.406	0.0128116
800.484	0.0128163
800.562	0.0129707
800.640	0.0129381
800.718	0.0126842
800.796	0.0126381
800.874	0.0126720
800.953	0.0125986
801.031	0.0126902
801.109	0.0126562
801.187	0.0126305
801.265	0.0126328
801.343	0.0125711
801.421	0.0126218
801.499	0.0125200
801.578	0.0125758
801.656	0.0126243
801.734	0.0127625
801.812	0.0126881
801.890	0.0125738
801.968	0.0127596
802.046	0.0128394
802.124	0.0128205
802.203	0.0127223
802.281	0.0128276
802.359	0.0128736
802.437	0.0127866
802.515	0.0128256
802.593	0.0129294
802.671	0.0128679
802.749	0.0127447
802.828	0.0127480
802.906	0.0128798
802.984	0.0128085
803.062	0.0128102
803.140	0.0129305
803.218	0.0129227
803.296	0.0127909
803.374	0.0129043
803.453	0.0126965
803.531	0.0127225
803.609	0.0129023
803.687	0.0128839
803.765	0.0128646
803.843	0.0129416
803.921	0.0128816
803.999	0.0127961
804.078	0.0129047
804.156	0.0127961
804.234	0.0127879
804.312	0.0128134
804.390	0.0127480
804.468	0.0127988
804.546	0.0128547
804.624	0.0128161
804.703	0.0127460
804.781	0.0126643
804.859	0.0127990
804.937	0.0127704
805.015	0.0127959
805.093	0.0128087
805.171	0.0129663
805.249	0.0127372
805.328	0.0126507
805.406	0.0127365
805.484	0.0128389
805.562	0.0130187
805.640	0.0129083
805.718	0.0127711
805.796	0.0127638
805.874	0.0130002
805.953	0.0128650
806.031	0.0127863
806.109	0.0129664
806.187	0.0128613
806.265	0.0127894
806.343	0.0128384
806.421	0.0127265
806.499	0.0128892
806.578	0.0126876
806.656	0.0128635
806.734	0.0128043
806.812	0.0128313
806.890	0.0128250
806.968	0.0129783
807.046	0.0128465
807.124	0.0127580
807.203	0.0128745
807.281	0.0129000
807.359	0.0128133
807.437	0.0129317
807.515	0.0129918
807.593	0.0128796
807.671	0.0128494
807.749	0.0127154
807.828	0.0128204
807.906	0.0129063
807.984	0.0130441
808.062	0.0129918
808.140	0.0126999
808.218	0.0128232
808.296	0.0129359
808.374	0.0127563
808.453	0.0127406
808.531	0.0127733
808.609	0.0126779
808.687	0.0127047
808.765	0.0127289
808.843	0.0126928
808.921	0.0127056
808.999	0.0128555
809.078	0.0128481
809.156	0.0128845
809.234	0.0127924
809.312	0.0128550
809.390	0.0128500
809.468	0.0129314
809.546	0.0128197
809.624	0.0127599
809.703	0.0129678
809.781	0.0129413
809.859	0.0128165
809.937	0.0127068
810.015	0.0128483
810.093	0.0128481
810.171	0.0128649
810.249	0.0127870
810.328	0.0128006
810.406	0.0128899
810.484	0.0127600
810.562	0.0127728
810.640	0.0127158
810.718	0.0126394
810.796	0.0127076
810.874	0.0128875
810.953	0.0127890
811.031	0.0128094
811.109	0.0127272
811.187	0.0127377
811.265	0.0127267
811.343	0.0128962
811.421	0.0127773
811.499	0.0126952
811.578	0.0128146
811.656	0.0129295
811.734	0.0129256
811.812	0.0127493
811.890	0.0126439
811.968	0.0127373
812.046	0.0128030
812.124	0.0128021
812.203	0.0126357
812.281	0.0126654
812.359	0.0127383
812.437	0.0126550
812.515	0.0127230
812.593	0.0126707
812.671	0.0126755
812.749	0.0127257
812.828	0.0130362
812.906	0.0129143
812.984	0.0129012
813.062	0.0128454
813.140	0.0129650
813.218	0.0128883
813.296	0.0130247
813.374	0.0129967
813.453	0.0130684
813.531	0.0129277
813.609	0.0129836
813.687	0.0127942
813.765	0.0128740
813.843	0.0129243
813.921	0.0127773
813.999	0.0128606
814.078	0.0127749
814.156	0.0128628
814.234	0.0128314
814.312	0.0126611
814.390	0.0127757
814.468	0.0129651
814.546	0.0128907
814.624	0.0128291
814.703	0.0128826
814.781	0.0128841
814.859	0.0129172
814.937	0.0129070
815.015	0.0129607
815.093	0.0129457
815.171	0.0128159
815.249	0.0128639
815.328	0.0128796
815.406	0.0128853
815.484	0.0129044
815.562	0.0129672
815.640	0.0128911
815.718	0.0128064
815.796	0.0130966
815.874	0.0130161
815.953	0.0129211
816.031	0.0128612
816.109	0.0130249
816.187	0.0128326
816.265	0.0127463
816.343	0.0129152
816.421	0.0129677
816.499	0.0127998
816.578	0.0129595
816.656	0.0128281
816.734	0.0128304
816.812	0.0127733
816.890	0.0127703
816.968	0.0127750
817.046	0.0127499
817.124	0.0126629
817.203	0.0127523
817.281	0.0126778
817.359	0.0126727
817.437	0.0128199
817.515	0.0126331
817.593	0.0127859
817.671	0.0127489
817.749	0.0126987
817.828	0.0127708
817.906	0.0128667
817.984	0.0127615
818.062	0.0127668
818.140	0.0128609
818.218	0.0129650
818.296	0.0130012
818.374	0.0130440
818.453	0.0130480
818.531	0.0130411
818.609	0.0129410
818.687	0.0130321
818.765	0.0130225
818.843	0.0130544
818.921	0.0131314
818.999	0.0130496
819.078	0.0128902
819.156	0.0128291
819.234	0.0127707
819.312	0.0127695
819.390	0.0127492
819.468	0.0127299
819.546	0.0127752
819.624	0.0127682
819.703	0.0129574
819.781	0.0128028
819.859	0.0126497
819.937	0.0126757
820.015	0.0128066
820.093	0.0127032
820.171	0.0128840
820.249	0.0128497
820.328	0.0127761
820.406	0.0127447
820.484	0.0128665
820.562	0.0128004
820.640	0.0129398
820.718	0.0130011
820.796	0.0130060
820.874	0.0128053
820.953	0.0128458
821.031	0.0128489
821.109	0.0127974
821.187	0.0129343
821.265	0.0128994
821.343	0.0129737
821.421	0.0127564
821.499	0.0129358
821.578	0.0128793
821.656	0.0127362
821.734	0.0128853
821.812	0.0128526
821.890	0.0127085
821.968	0.0126956
822.046	0.0128233
822.124	0.0128448
822.203	0.0129063
822.281	0.0128738
822.359	0.0127601
822.437	0.0128626
822.515	0.0129758
822.593	0.0129173
822.671	0.0128348
822.749	0.0128173
822.828	0.0127370
822.906	0.0130621
822.984	0.0128465
823.062	0.0128384
823.140	0.0127559
823.218	0.0128802
823.296	0.0128342
823.374	0.0126946
823.453	0.0127923
823.531	0.0128547
823.609	0.0127419
823.687	0.0127425
823.765	0.0126685
823.843	0.0125303
823.921	0.0125438
823.999	0.0125723
824.078	0.0127346
824.156	0.0127546
824.234	0.0126925
824.312	0.0126561
824.390	0.0127626
824.468	0.0127451
824.546	0.0128643
824.624	0.0126505
824.703	0.0126865
824.781	0.0127954
824.859	0.0127559
824.937	0.0129662
825.015	0.0127689
825.093	0.0127608
825.171	0.0126650
825.249	0.0128071
825.328	0.0127937
825.406	0.0127867
825.484	0.0127667
825.562	0.0127393
825.640	0.0128201
825.718	0.0126699
825.796	0.0127970
825.874	0.0127210
825.953	0.0127925
826.031	0.0126568
826.109	0.0126875
826.187	0.0127390
826.265	0.0127231
826.343	0.0127266
826.421	0.0128860
826.499	0.0127998
826.578	0.0126739
826.656	0.0126960
826.734	0.0127519
826.812	0.0129231
826.890	0.0128731
826.968	0.0127748
827.046	0.0126804
827.124	0.0129355
827.203	0.0128355
827.281	0.0129415
827.359	0.0128725
827.437	0.0128807
827.515	0.0129641
827.593	0.0129865
827.671	0.0128665
827.749	0.0127975
827.828	0.0128828
827.906	0.0129758
827.984	0.0128940
828.062	0.0128655
828.140	0.0129342
828.218	0.0129442
828.296	0.0129766
828.374	0.0129714
828.453	0.0128288
828.531	0.0129546
828.609	0.0130462
828.687	0.0128040
828.765	0.0129710
828.843	0.0129004
828.921	0.0128647
828.999	0.0129583
829.078	0.0129252
829.156	0.0128188
829.234	0.0129302
829.312	0.0128756
829.390	0.0130033
829.468	0.0129688
829.546	0.0128994
829.624	0.0127825
829.703	0.0128751
829.781	0.0129996
829.859	0.0128574
829.937	0.0128806
830.015	0.0130242
830.093	0.0129256
830.171	0.0127796
830.249	0.0128369
830.328	0.0129417
830.406	0.0129898
830.484	0.0130405
830.562	0.0129148
830.640	0.0128656
830.718	0.0128478
830.796	0.0129710
830.874	0.0128014
830.953	0.0128218
831.031	0.0129254
831.109	0.0129050
831.187	0.0128912
831.265	0.0128631
831.343	0.0128573
831.421	0.0129105
831.499	0.0129794
831.578	0.0129590
831.656	0.0128526
831.734	0.0127860
831.812	0.0127900
831.890	0.0129356
831.968	0.0129010
832.046	0.0127216
832.124	0.0127882
832.203	0.0128851
832.281	0.0128509
832.359	0.0127435
832.437	0.0128500
832.515	0.0127129
832.593	0.0127473
832.671	0.0127176
832.749	0.0127662
832.828	0.0127741
832.906	0.0128130
832.984	0.0126670
833.062	0.0128639
833.140	0.0129117
833.218	0.0127171
833.296	0.0128307
833.374	0.0128316
833.453	0.0127957
833.531	0.0128917
833.609	0.0128867
833.687	0.0130048
833.765	0.0128481
833.843	0.0130028
833.921	0.0128068
833.999	0.0127909
834.078	0.0128383
834.156	0.0128181
834.234	0.0128008
834.312	0.0128174
834.390	0.0127877
834.468	0.0127151
834.546	0.0127679
834.624	0.0128378
834.703	0.0127068
834.781	0.0126917
834.859	0.0127617
834.937	0.0128709
835.015	0.0127102
835.093	0.0127272
835.171	0.0127891
835.249	0.0127684
835.328	0.0127834
835.406	0.0127206
835.484	0.0128687
835.562	0.0127445
835.640	0.0129649
835.718	0.0129009
835.796	0.0129657
835.874	0.0128970
835.953	0.0129353
836.031	0.0129922
836.109	0.0129108
836.187	0.0128736
836.265	0.0128821
836.343	0.0128187
836.421	0.0129302
836.499	0.0128305
836.578	0.0128976
836.656	0.0129210
836.734	0.0128072
836.812	0.0128484
836.890	0.0128575
836.968	0.0128502
837.046	0.0128648
837.124	0.0129200
837.203	0.0129827
837.281	0.0129924
837.359	0.0129327
837.437	0.0129717
837.515	0.0129642
837.593	0.0129050
837.671	0.0129560
837.749	0.0129644
837.828	0.0129726
837.906	0.0130267
837.984	0.0129773
838.062	0.0129002
838.140	0.0128046
838.218	0.0129029
838.296	0.0129307
838.374	0.0128910
838.453	0.0127219
838.531	0.0127788
838.609	0.0129280
838.687	0.0127970
838.765	0.0127899
838.843	0.0129063
838.921	0.0128392
838.999	0.0128375
839.078	0.0130442
839.156	0.0128010
839.234	0.0128525
839.312	0.0130708
839.390	0.0129008
839.468	0.0127889
839.546	0.0129423
839.624	0.0128509
839.703	0.0128120
839.781	0.0129579
839.859	0.0129886
839.937	0.0129385
840.015	0.0126403
840.093	0.0128994
840.171	0.0127663
840.249	0.0128326
840.328	0.0128203
840.406	0.0127921
840.484	0.0128518
840.562	0.0129475
840.640	0.0127132
840.718	0.0127362
840.796	0.0127907
840.874	0.0128531
840.953	0.0128233
841.031	0.0128709
841.109	0.0128984
841.187	0.0128883
841.265	0.0128439
841.343	0.0129875
841.421	0.0129626
841.499	0.0128542
841.578	0.0128026
841.656	0.0129605
841.734	0.0127828
841.812	0.0128233
841.890	0.0129981
841.968	0.0128892
842.046	0.0127560
842.124	0.0127374
842.203	0.0129437
842.281	0.0129469
842.359	0.0128197
842.437	0.0127953
842.515	0.0126697
842.593	0.0127114
842.671	0.0128922
842.749	0.0128833
842.828	0.0128378
842.906	0.0127972
842.984	0.0126767
843.062	0.0127940
843.140	0.0128323
843.218	0.0126740
843.296	0.0128040
843.374	0.0129625
843.453	0.0128388
843.531	0.0128484
843.609	0.0128070
843.687	0.0128208
843.765	0.0129028
843.843	0.0129065
843.921	0.0128369
843.999	0.0128848
844.078	0.0128694
844.156	0.0129384
844.234	0.0127650
844.312	0.0130077
844.390	0.0128862
844.468	0.0129842
844.546	0.0128485
844.624	0.0128542
844.703	0.0128906
844.781	0.0128368
844.859	0.0128085
844.937	0.0127206
845.015	0.0127679
845.093	0.0127736
845.171	0.0127516
845.249	0.0126922
845.328	0.0127545
845.406	0.0129155
845.484	0.0126698
845.562	0.0126165
845.640	0.0126614
845.718	0.0128009
845.796	0.0128667
845.874	0.0127013
845.953	0.0127672
846.031	0.0128316
846.109	0.0128098
846.187	0.0129740
846.265	0.0128020
846.343	0.0129019
846.421	0.0129053
846.499	0.0128561
846.578	0.0129803
846.656	0.0129289
846.734	0.0129084
846.812	0.0128358
846.890	0.0128591
846.968	0.0129038
847.046	0.0128716
847.124	0.0128350
847.203	0.0128410
847.281	0.0127736
847.359	0.0126989
847.437	0.0128811
847.515	0.0128133
847.593	0.0128470
847.671	0.0128552
847.749	0.0130154
847.828	0.0128612
847.906	0.0128557
847.984	0.0128224
848.062	0.0128201
848.140	0.0128541
848.218	0.0129813
848.296	0.0130080
848.374	0.0128572
848.453	0.0129451
848.531	0.0129086
848.609	0.0128245
848.687	0.0127415
848.765	0.0129166
848.843	0.0130570
848.921	0.0129192
848.999	0.0129026
849.078	0.0128613
849.156	0.0128635
849.234	0.0127734
849.312	0.0130026
849.390	0.0127223
849.468	0.0127281
849.546	0.0128371
849.624	0.0127676
849.703	0.0128161
849.781	0.0128838
849.859	0.0128799
849.937	0.0128095
850.015	0.0129523
850.093	0.0128419
850.171	0.0128208
850.249	0.0128872
850.328	0.0129906
850.406	0.0129044
850.484	0.0129196
850.562	0.0130917
850.640	0.0130132
850.718	0.0128527
850.796	0.0128156
850.874	0.0128574
850.953	0.0128861
851.031	0.0128186
851.109	0.0127529
851.187	0.0128929
851.265	0.0128391
851.343	0.0127757
851.421	0.0127335
851.499	0.0128780
851.578	0.0128584
851.656	0.0128076
851.734	0.0127887
851.812	0.0129199
851.890	0.0128900
851.968	0.0127515
852.046	0.0129832
852.124	0.0130679
852.203	0.0128696
852.281	0.0129252
852.359	0.0130785
852.437	0.0129348
852.515	0.0129835
852.593	0.0130307
852.671	0.0129670
852.749	0.0128931
852.828	0.0128679
852.906	0.0130033
852.984	0.0126878
853.062	0.0127702
853.140	0.0129467
853.218	0.0128846
853.296	0.0128358
853.374	0.0128183
853.453	0.0128048
853.531	0.0128497
853.609	0.0128783
853.687	0.0128544
853.765	0.0127428
853.843	0.0129048
853.921	0.0129105
853.999	0.0128152
854.078	0.0127747
854.156	0.0128175
854.234	0.0128767
854.312	0.0127650
854.390	0.0128547
854.468	0.0128262
854.546	0.0129664
854.624	0.0130235
854.703	0.0128533
854.781	0.0129324
854.859	0.0130070
854.937	0.0128956
855.015	0.0128441
855.093	0.0128083
855.171	0.0129066
855.249	0.0128328
855.328	0.0127030
855.406	0.0126565
855.484	0.0126965
855.562	0.0127950
855.640	0.0126760
855.718	0.0126340
855.796	0.0127822
855.874	0.0126264
855.953	0.0128025
856.031	0.0126939
856.109	0.0126703
856.187	0.0128078
856.265	0.0126899
856.343	0.0127282
856.421	0.0126717
856.499	0.0128450
856.578	0.0127883
856.656	0.0128116
856.734	0.0126695
856.812	0.0128140
856.890	0.0127850
856.968	0.0128204
857.046	0.0129839
857.124	0.0127699
857.203	0.0128524
857.281	0.0129326
857.359	0.0127461
857.437	0.0129429
857.515	0.0128769
857.593	0.0129595
857.671	0.0128596
857.749	0.0129113
857.828	0.0128902
857.906	0.0129085
857.984	0.0128410
858.062	0.0129077
858.140	0.0129663
858.218	0.0128931
858.296	0.0128103
858.374	0.0127534
858.453	0.0127782
858.531	0.0127770
858.609	0.0127116
858.687	0.0128581
858.765	0.0128928
858.843	0.0128909
858.921	0.0127650
858.999	0.0128181
859.078	0.0127983
859.156	0.0128638
859.234	0.0128533
859.312	0.0127807
859.390	0.0127927
859.468	0.0129514
859.546	0.0127689
859.624	0.0127621
859.703	0.0126646
859.781	0.0127835
859.859	0.0129537
859.937	0.0130611
860.015	0.0127513
860.093	0.0128244
860.171	0.0129091
860.249	0.0127252
860.328	0.0128165
860.406	0.0127634
860.484	0.0127216
860.562	0.0128756
860.640	0.0127796
860.718	0.0127505
860.796	0.0128886
860.874	0.0126860
860.953	0.0127172
861.031	0.0128429
861.109	0.0128078
861.187	0.0127518
861.265	0.0127288
861.343	0.0127074
861.421	0.0128311
861.499	0.0129091
861.578	0.0128755
861.656	0.0129008
861.734	0.0130122
861.812	0.0128447
861.890	0.0128103
861.968	0.0130080
862.046	0.0129629
862.124	0.0128035
862.203	0.0129480
862.281	0.0129902
862.359	0.0127535
862.437	0.0129192
862.515	0.0129307
862.593	0.0128606
862.671	0.0129134
862.749	0.0127238
862.828	0.0127090
862.906	0.0126952
862.984	0.0127969
863.062	0.0127361
863.140	0.0127110
863.218	0.0127481
863.296	0.0126269
863.374	0.0125867
863.453	0.0128143
863.531	0.0127357
863.609	0.0126266
863.687	0.0127007
863.765	0.0128171
863.843	0.0127595
863.921	0.0128040
863.999	0.0128403
864.078	0.0128725
864.156	0.0128120
864.234	0.0128709
864.312	0.0127444
864.390	0.0128930
864.468	0.0129630
864.546	0.0129303
864.624	0.0129059
864.703	0.0128017
864.781	0.0127834
864.859	0.0127222
864.937	0.0128436
865.015	0.0128983
865.093	0.0128268
865.171	0.0128214
865.249	0.0128309
865.328	0.0127105
865.406	0.0126876
865.484	0.0126927
865.562	0.0128123
865.640	0.0127143
865.718	0.0127135
865.796	0.0127302
865.874	0.0126945
865.953	0.0127528
866.031	0.0127556
866.109	0.0127299
866.187	0.0127471
866.265	0.0127596
866.343	0.0127418
866.421	0.0127836
866.499	0.0128683
866.578	0.0129300
866.656	0.0127999
866.734	0.0129542
866.812	0.0130363
866.890	0.0129599
866.968	0.0129033
867.046	0.0127303
867.124	0.0129251
867.203	0.0129031
867.281	0.0128944
867.359	0.0129845
867.437	0.0126997
867.515	0.0127553
867.593	0.0126793
867.671	0.0128299
867.749	0.0128061
867.828	0.0126556
867.906	0.0126608
867.984	0.0127986
868.062	0.0127583
868.140	0.0127951
868.218	0.0128174
868.296	0.0125484
868.374	0.0128882
868.453	0.0129715
868.531	0.0128259
868.609	0.0129810
868.687	0.0130717
868.765	0.0131129
868.843	0.0129325
868.921	0.0129134
868.999	0.0129818
869.078	0.0130234
869.156	0.0129838
869.234	0.0128542
869.312	0.0128478
869.390	0.0129097
869.468	0.0129079
869.546	0.0128281
869.624	0.0128957
869.703	0.0128209
869.781	0.0126862
869.859	0.0127731
869.937	0.0128412
870.015	0.0128456
870.093	0.0128558
870.171	0.0127786
870.249	0.0128004
870.328	0.0128427
870.406	0.0129050
870.484	0.0129542
870.562	0.0129964
870.640	0.0129170
870.718	0.0130234
870.796	0.0130326
870.874	0.0129669
870.953	0.0129265
871.031	0.0127574
871.109	0.0127789
871.187	0.0128445
871.265	0.0128368
871.343	0.0128033
871.421	0.0127641
871.499	0.0127077
871.578	0.0128462
871.656	0.0127843
871.734	0.0128462
871.812	0.0128145
871.890	0.0127533
871.968	0.0128860
872.046	0.0128083
872.124	0.0127374
872.203	0.0127393
872.281	0.0128435
872.359	0.0129619
872.437	0.0127848
872.515	0.0129913
872.593	0.0129836
872.671	0.0128389
872.749	0.0128757
872.828	0.0129017
872.906	0.0129121
872.984	0.0130728
873.062	0.0128730
873.140	0.0127322
873.218	0.0128175
873.296	0.0127021
873.374	0.0127017
873.453	0.0127692
873.531	0.0128358
873.609	0.0128666
873.687	0.0126943
873.765	0.0125590
873.843	0.0126511
873.921	0.0128098
873.999	0.0128008
874.078	0.0127493
874.156	0.0127753
874.234	0.0127052
874.312	0.0128928
874.390	0.0129806
874.468	0.0129079
874.546	0.0127827
874.624	0.0128177
874.703	0.0127993
874.781	0.0129291
874.859	0.0128922
874.937	0.0129971
875.015	0.0127166
875.093	0.0126640
875.171	0.0128738
875.249	0.0128867
875.328	0.0127435
875.406	0.0126884
875.484	0.0128084
875.562	0.0128025
875.640	0.0127240
875.718	0.0127332
875.796	0.0126913
875.874	0.0126998
875.953	0.0125638
876.031	0.0126003
876.109	0.0126450
876.187	0.0127208
876.265	0.0127496
876.343	0.0126773
876.421	0.0127288
876.499	0.0126548
876.578	0.0127937
876.656	0.0128455
876.734	0.0126894
876.812	0.0126871
876.890	0.0127009
876.968	0.0127268
877.046	0.0128156
877.124	0.0128710
877.203	0.0127011
877.281	0.0127226
877.359	0.0127711
877.437	0.0128037
877.515	0.0126957
877.593	0.0125633
877.671	0.0127365
877.749	0.0127734
877.828	0.0127612
877.906	0.0126473
877.984	0.0126617
878.062	0.0125711
878.140	0.0126239
878.218	0.0126888
878.296	0.0127906
878.374	0.0126603
878.453	0.0127898
878.531	0.0129261
878.609	0.0127741
878.687	0.0127947
878.765	0.0128084
878.843	0.0127840
878.921	0.0126871
878.999	0.0126846
879.078	0.0125742
879.156	0.0125060
879.234	0.0125302
879.312	0.0125749
879.390	0.0124552
879.468	0.0124564
879.546	0.0125479
879.624	0.0126065
879.703	0.0127211
879.781	0.0126291
879.859	0.0127718
879.937	0.0126885
880.015	0.0128920
880.093	0.0131046
880.171	0.0128880
880.249	0.0130963
880.328	0.0130221
880.406	0.0131197
880.484	0.0130511
880.562	0.0128026
880.640	0.0129201
880.718	0.0128339
880.796	0.0127637
880.874	0.0127699
880.953	0.0126751
881.031	0.0127003
881.109	0.0126038
881.187	0.0126312
881.265	0.0125143
881.343	0.0123957
881.421	0.0125237
881.499	0.0125898
881.578	0.0127381
881.656	0.0127354
881.734	0.0127227
881.812	0.0127346
881.890	0.0127833
881.968	0.0127831
882.046	0.0128932
882.124	0.0128565
882.203	0.0128651
882.281	0.0129301
882.359	0.0129941
882.437	0.0128255
882.515	0.0129580
882.593	0.0130373
882.671	0.0130589
882.749	0.0130054
882.828	0.0128323
882.906	0.0127813
882.984	0.0130518
883.062	0.0129052
883.140	0.0128772
883.218	0.0128295
883.296	0.0129309
883.374	0.0128214
883.453	0.0128365
883.531	0.0127969
883.609	0.0126168
883.687	0.0128214
883.765	0.0127364
883.843	0.0127471
883.921	0.0127589
883.999	0.0125510
884.078	0.0126246
884.156	0.0126257
884.234	0.0126988
884.312	0.0126463
884.390	0.0127942
884.468	0.0128338
884.546	0.0128427
884.624	0.0127818
884.703	0.0127248
884.781	0.0126945
884.859	0.0128718
884.937	0.0128564
885.015	0.0129350
885.093	0.0128870
885.171	0.0128324
885.249	0.0128240
885.328	0.0129464
885.406	0.0129556
885.484	0.0128047
885.562	0.0129343
885.640	0.0127901
885.718	0.0127837
885.796	0.0128032
885.874	0.0127280
885.953	0.0127675
886.031	0.0126505
886.109	0.0126129
886.187	0.0125979
886.265	0.0125922
886.343	0.0126310
886.421	0.0128443
886.499	0.0127017
886.578	0.0126456
886.656	0.0126740
886.734	0.0126095
886.812	0.0127983
886.890	0.0128654
886.968	0.0128629
887.046	0.0128867
887.124	0.0128501
887.203	0.0128531
887.281	0.0130116
887.359	0.0128997
887.437	0.0128909
887.515	0.0127654
887.593	0.0128031
887.671	0.0127384
887.749	0.0126752
887.828	0.0128671
887.906	0.0127343
887.984	0.0126952
888.062	0.0127076
888.140	0.0127319
888.218	0.0126445
888.296	0.0127303
888.374	0.0126385
888.453	0.0126651
888.531	0.0127310
888.609	0.0128485
888.687	0.0128699
888.765	0.0127716
888.843	0.0127389
888.921	0.0127734
888.999	0.0128159
889.078	0.0129739
889.156	0.0128394
889.234	0.0127742
889.312	0.0129230
889.390	0.0127478
889.468	0.0128070
889.546	0.0127882
889.624	0.0127380
889.703	0.0127200
889.781	0.0126254
889.859	0.0126028
889.937	0.0126136
890.015	0.0127195
890.093	0.0127156
890.171	0.0126404
890.249	0.0124994
890.328	0.0125791
890.406	0.0126260
890.484	0.0126552
890.562	0.0125828
890.640	0.0126324
890.718	0.0125990
890.796	0.0127097
890.874	0.0127022
890.953	0.0127433
891.031	0.0127869
891.109	0.0126838
891.187	0.0129266
891.265	0.0129443
891.343	0.0128823
891.421	0.0129140
891.499	0.0128073
891.578	0.0128275
891.656	0.0128403
891.734	0.0128541
891.812	0.0127796
891.890	0.0128232
891.968	0.0128103
892.046	0.0126656
892.124	0.0128365
892.203	0.0127794
892.281	0.0126318
892.359	0.0126985
892.437	0.0126757
892.515	0.0127424
892.593	0.0127262
892.671	0.0126038
892.749	0.0126466
892.828	0.0127200
892.906	0.0128125
892.984	0.0129402
893.062	0.0128752
893.140	0.0129682
893.218	0.0130008
893.296	0.0129518
893.374	0.0130045
893.453	0.0129208
893.531	0.0128299
893.609	0.0128791
893.687	0.0128999
893.765	0.0129794
893.843	0.0128172
893.921	0.0128167
893.999	0.0128564
894.078	0.0129836
894.156	0.0129165
894.234	0.0127828
894.312	0.0129652
894.390	0.0128220
894.468	0.0128831
894.546	0.0128851
894.624	0.0129305
894.703	0.0129005
894.781	0.0129109
894.859	0.0129005
894.937	0.0129330
895.015	0.0127380
895.093	0.0127162
895.171	0.0128101
895.249	0.0128289
895.328	0.0128234
895.406	0.0128362
895.484	0.0128667
895.562	0.0129988
895.640	0.0127893
895.718	0.0126646
895.796	0.0127392
895.874	0.0127290
895.953	0.0126758
896.031	0.0126567
896.109	0.0126882
896.187	0.0126212
896.265	0.0128776
896.343	0.0126656
896.421	0.0124815
896.499	0.0124813
896.578	0.0124842
896.656	0.0124856
896.734	0.0125920
896.812	0.0126302
896.890	0.0126663
896.968	0.0127347
897.046	0.0127541
897.124	0.0128783
897.203	0.0128568
897.281	0.0128971
897.359	0.0129200
897.437	0.0130111
897.515	0.0130540
897.593	0.0129482
897.671	0.0130165
897.749	0.0130633
897.828	0.0129483
897.906	0.0129446
897.984	0.0129574
898.062	0.0128687
898.140	0.0127106
898.218	0.0127480
898.296	0.0126952
898.374	0.0126285
898.453	0.0126237
898.531	0.0125297
898.609	0.0125877
898.687	0.0126492
898.765	0.0125945
898.843	0.0126091
898.921	0.0127350
898.999	0.0127187
899.078	0.0127847
899.156	0.0127547
899.234	0.0130036
899.312	0.0128847
899.390	0.0127048
899.468	0.0130009
899.546	0.0130857
899.624	0.0130476
899.703	0.0130909
899.781	0.0130149
899.859	0.0130759
899.937	0.0129304
900.015	0.0128689
900.093	0.0128762
900.171	0.0128692
900.249	0.0128354
900.328	0.0127888
900.406	0.0128896
900.484	0.0128398
900.562	0.0127598
900.640	0.0127180
900.718	0.0127412
900.796	0.0127169
900.874	0.0128399
900.953	0.0129145
901.031	0.0129280
901.109	0.0128664
901.187	0.0128469
901.265	0.0127583
901.343	0.0128262
901.421	0.0128443
901.499	0.0129208
901.578	0.0129019
901.656	0.0128513
901.734	0.0129489
901.812	0.0128979
901.890	0.0128739
901.968	0.0129315
902.046	0.0127807
902.124	0.0127900
902.203	0.0128566
902.281	0.0129427
902.359	0.0127952
902.437	0.0127732
902.515	0.0127256
902.593	0.0126511
902.671	0.0126619
902.749	0.0125871
902.828	0.0126822
902.906	0.0127477
902.984	0.0125611
903.062	0.0124371
903.140	0.0126351
903.218	0.0126850
903.296	0.0126179
903.374	0.0127827
903.453	0.0127872
903.531	0.0129353
903.609	0.0128325
903.687	0.0129758
903.765	0.0129638
903.843	0.0128857
903.921	0.0129107
903.999	0.0129784
904.078	0.0129913
904.156	0.0130322
904.234	0.0129708
904.312	0.0128915
904.390	0.0128782
904.468	0.0129507
904.546	0.0128322
904.624	0.0127178
904.703	0.0128481
904.781	0.0127733
904.859	0.0127493
904.937	0.0126506
905.015	0.0126611
905.093	0.0126501
905.171	0.0126260
905.249	0.0127026
905.328	0.0126564
905.406	0.0126787
905.484	0.0126855
905.562	0.0127436
905.640	0.0126049
905.718	0.0127113
905.796	0.0127806
905.874	0.0126563
905.953	0.0127477
906.031	0.0129008
906.109	0.0129059
906.187	0.0127757
906.265	0.0128222
906.343	0.0128381
906.421	0.0127894
906.499	0.0128909
906.578	0.0126912
906.656	0.0127716
906.734	0.0128223
906.812	0.0128027
906.890	0.0128677
906.968	0.0128099
907.046	0.0129387
907.124	0.0127599
907.203	0.0126865
907.281	0.0128044
907.359	0.0128500
907.437	0.0128429
907.515	0.0127244
907.593	0.0127296
907.671	0.0127190
907.749	0.0129014
907.828	0.0128336
907.906	0.0128611
907.984	0.0127954
908.062	0.0127277
908.140	0.0126798
908.218	0.0126978
908.296	0.0128696
908.374	0.0128556
908.453	0.0128483
908.531	0.0128724
908.609	0.0128299
908.687	0.0129310
908.765	0.0128918
908.843	0.0129230
908.921	0.0128384
908.999	0.0129740
909.078	0.0129165
909.156	0.0129266
909.234	0.0128393
909.312	0.0128221
909.390	0.0128728
909.468	0.0128724
909.546	0.0129966
909.624	0.0129930
909.703	0.0129224
909.781	0.0127578
909.859	0.0128136
909.937	0.0127627
910.015	0.0129287
910.093	0.0127698
910.171	0.0128187
910.249	0.0127702
910.328	0.0126671
910.406	0.0126952
910.484	0.0126919
910.562	0.0127308
910.640	0.0127966
910.718	0.0127664
910.796	0.0126550
910.874	0.0127267
910.953	0.0126974
911.031	0.0128275
911.109	0.0127858
911.187	0.0127061
911.265	0.0126915
911.343	0.0127769
911.421	0.0129215
911.499	0.0129478
911.578	0.0128477
911.656	0.0127972
911.734	0.0128727
911.812	0.0128319
911.890	0.0129916
911.968	0.0129888
912.046	0.0128071
912.124	0.0128294
912.203	0.0128078
912.281	0.0128976
912.359	0.0129051
912.437	0.0128179
912.515	0.0127497
912.593	0.0126635
912.671	0.0127789
912.749	0.0126719
912.828	0.0126824
912.906	0.0127493
912.984	0.0127288
913.062	0.0127493
913.140	0.0127165
913.218	0.0125513
913.296	0.0127693
913.374	0.0126987
913.453	0.0125305
913.531	0.0127177
913.609	0.0127628
913.687	0.0127612
913.765	0.0128341
913.843	0.0127325
913.921	0.0127074
913.999	0.0128196
914.078	0.0128674
914.156	0.0130669
914.234	0.0128300
914.312	0.0128931
914.390	0.0129758
914.468	0.0129272
914.546	0.0130001
914.624	0.0128955
914.703	0.0127060
914.781	0.0128481
914.859	0.0128944
914.937	0.0129844
915.015	0.0127086
915.093	0.0128716
915.171	0.0128707
915.249	0.0127655
915.328	0.0127266
915.406	0.0128443
915.484	0.0127964
915.562	0.0127917
915.640	0.0126428
915.718	0.0129317
915.796	0.0128777
915.874	0.0127118
915.953	0.0128522
916.031	0.0127932
916.109	0.0130031
916.187	0.0128474
916.265	0.0128186
916.343	0.0130338
916.421	0.0130265
916.499	0.0130335
916.578	0.0129784
916.656	0.0128320
916.734	0.0129993
916.812	0.0129614
916.890	0.0130319
916.968	0.0129217
917.046	0.0128662
917.124	0.0129282
917.203	0.0128565
917.281	0.0128288
917.359	0.0129173
917.437	0.0129492
917.515	0.0128394
917.593	0.0128318
917.671	0.0128221
917.749	0.0130337
917.828	0.0129678
917.906	0.0129190
917.984	0.0128889
918.062	0.0129135
918.140	0.0129171
918.218	0.0129018
918.296	0.0129533
918.374	0.0129468
918.453	0.0129897
918.531	0.0129030
918.609	0.0128696
918.687	0.0129189
918.765	0.0129669
918.843	0.0128568
918.921	0.0128318
918.999	0.0127811
919.078	0.0128931
919.156	0.0128707
919.234	0.0128474
919.312	0.0129453
919.390	0.0129324
919.468	0.0128872
919.546	0.0127959
919.624	0.0129530
919.703	0.0128951
919.781	0.0127324
919.859	0.0127892
919.937	0.0129318
