05/03/2022	20:02:26	Ver.	4.1	UNKNOWN
Optical Delay	660.009933	Delta X		0.078125	Sweeps	1	Scan Rate	0/0
Coordinates	Axis 1	NaN	Axis 2	NaN	Axis 3	NaN	Axis 4	NaN	Axis 5	NaN	Axis 6	0.000000
TX Power	0.000000	RX Power	0.000000

660.010	0.0144061
660.088	0.0143774
660.166	0.0144456
660.244	0.0143313
660.322	0.0144035
660.401	0.0144607
660.479	0.0142614
660.557	0.0143758
660.635	0.0144136
660.713	0.0144744
660.791	0.0143874
660.869	0.0143802
660.947	0.0143896
661.026	0.0142369
661.104	0.0144721
661.182	0.0143182
661.260	0.0143905
661.338	0.0143275
661.416	0.0143732
661.494	0.0146427
661.572	0.0144240
661.651	0.0143372
661.729	0.0144395
661.807	0.0143752
661.885	0.0143155
661.963	0.0142960
662.041	0.0143223
662.119	0.0145494
662.197	0.0143591
662.276	0.0143324
662.354	0.0143807
662.432	0.0144106
662.510	0.0143951
662.588	0.0142917
662.666	0.0143543
662.744	0.0144599
662.822	0.0143735
662.901	0.0144082
662.979	0.0143542
663.057	0.0143845
663.135	0.0143083
663.213	0.0143487
663.291	0.0144289
663.369	0.0145324
663.447	0.0144473
663.526	0.0143775
663.604	0.0145464
663.682	0.0144314
663.760	0.0144318
663.838	0.0143549
663.916	0.0144218
663.994	0.0144714
664.072	0.0142802
664.151	0.0142738
664.229	0.0143179
664.307	0.0143983
664.385	0.0145149
664.463	0.0143274
664.541	0.0144300
664.619	0.0145072
664.697	0.0143913
664.776	0.0144530
664.854	0.0143591
664.932	0.0144196
665.010	0.0143613
665.088	0.0143696
665.166	0.0146574
665.244	0.0143736
665.322	0.0143990
665.401	0.0143822
665.479	0.0144308
665.557	0.0143757
665.635	0.0144259
665.713	0.0144649
665.791	0.0144596
665.869	0.0143410
665.947	0.0143195
666.026	0.0142869
666.104	0.0143487
666.182	0.0143390
666.260	0.0142287
666.338	0.0143009
666.416	0.0144295
666.494	0.0143632
666.572	0.0143578
666.651	0.0143782
666.729	0.0143159
666.807	0.0145142
666.885	0.0144978
666.963	0.0143648
667.041	0.0142808
667.119	0.0144277
667.197	0.0144794
667.276	0.0143913
667.354	0.0142439
667.432	0.0142909
667.510	0.0144705
667.588	0.0143224
667.666	0.0141904
667.744	0.0144302
667.822	0.0144628
667.901	0.0143436
667.979	0.0143604
668.057	0.0142520
668.135	0.0143559
668.213	0.0143687
668.291	0.0144990
668.369	0.0143082
668.447	0.0143422
668.526	0.0144067
668.604	0.0143784
668.682	0.0142837
668.760	0.0142745
668.838	0.0143468
668.916	0.0144259
668.994	0.0143827
669.072	0.0144450
669.151	0.0143702
669.229	0.0143752
669.307	0.0145430
669.385	0.0144340
669.463	0.0142807
669.541	0.0143767
669.619	0.0142951
669.697	0.0143975
669.776	0.0144501
669.854	0.0142496
669.932	0.0144645
670.010	0.0144441
670.088	0.0144651
670.166	0.0142518
670.244	0.0143896
670.322	0.0145361
670.401	0.0143920
670.479	0.0143455
670.557	0.0144091
670.635	0.0144471
670.713	0.0144209
670.791	0.0143446
670.869	0.0144199
670.947	0.0142715
671.026	0.0143301
671.104	0.0145640
671.182	0.0142905
671.260	0.0144128
671.338	0.0145060
671.416	0.0144043
671.494	0.0143909
671.572	0.0143676
671.651	0.0144143
671.729	0.0143450
671.807	0.0144055
671.885	0.0145074
671.963	0.0143060
672.041	0.0144124
672.119	0.0145166
672.197	0.0144314
672.276	0.0142637
672.354	0.0143139
672.432	0.0144540
672.510	0.0144176
672.588	0.0143595
672.666	0.0143727
672.744	0.0144417
672.822	0.0143334
672.901	0.0144077
672.979	0.0143741
673.057	0.0143417
673.135	0.0143845
673.213	0.0144951
673.291	0.0144822
673.369	0.0143004
673.447	0.0143270
673.526	0.0144292
673.604	0.0144294
673.682	0.0144799
673.760	0.0144901
673.838	0.0143524
673.916	0.0143677
673.994	0.0143240
674.072	0.0143660
674.151	0.0143377
674.229	0.0143386
674.307	0.0145305
674.385	0.0142916
674.463	0.0142586
674.541	0.0143411
674.619	0.0142671
674.697	0.0141782
674.776	0.0145316
674.854	0.0144534
674.932	0.0143887
675.010	0.0143346
675.088	0.0143677
675.166	0.0144237
675.244	0.0143360
675.322	0.0144466
675.401	0.0143632
675.479	0.0143192
675.557	0.0144168
675.635	0.0142696
675.713	0.0144374
675.791	0.0143992
675.869	0.0141794
675.947	0.0143821
676.026	0.0144185
676.104	0.0142916
676.182	0.0143473
676.260	0.0143932
676.338	0.0143163
676.416	0.0143379
676.494	0.0143767
676.572	0.0142516
676.651	0.0144042
676.729	0.0143260
676.807	0.0144646
676.885	0.0143767
676.963	0.0142521
677.041	0.0144421
677.119	0.0144378
677.197	0.0142924
677.276	0.0144893
677.354	0.0143760
677.432	0.0143777
677.510	0.0144001
677.588	0.0143733
677.666	0.0143324
677.744	0.0143484
677.822	0.0144194
677.901	0.0142327
677.979	0.0142683
678.057	0.0143476
678.135	0.0143969
678.213	0.0143522
678.291	0.0143941
678.369	0.0144604
678.447	0.0144191
678.526	0.0143606
678.604	0.0143798
678.682	0.0142658
678.760	0.0143348
678.838	0.0144807
678.916	0.0143716
678.994	0.0143039
679.072	0.0144173
679.151	0.0143241
679.229	0.0144698
679.307	0.0144425
679.385	0.0143128
679.463	0.0142401
679.541	0.0143525
679.619	0.0143389
679.697	0.0142156
679.776	0.0143611
679.854	0.0143542
679.932	0.0143526
680.010	0.0143409
680.088	0.0143543
680.166	0.0144485
680.244	0.0143404
680.322	0.0142947
680.401	0.0142787
680.479	0.0142656
680.557	0.0143897
680.635	0.0144256
680.713	0.0142580
680.791	0.0143293
680.869	0.0143000
680.947	0.0143311
681.026	0.0143122
681.104	0.0145208
681.182	0.0143778
681.260	0.0144230
681.338	0.0143612
681.416	0.0143880
681.494	0.0143033
681.572	0.0144808
681.651	0.0143452
681.729	0.0142786
681.807	0.0144949
681.885	0.0143355
681.963	0.0142297
682.041	0.0144637
682.119	0.0143956
682.197	0.0143801
682.276	0.0143302
682.354	0.0143464
682.432	0.0145559
682.510	0.0144269
682.588	0.0144227
682.666	0.0144025
682.744	0.0144128
682.822	0.0143902
682.901	0.0143880
682.979	0.0144423
683.057	0.0143112
683.135	0.0144106
683.213	0.0142921
683.291	0.0144428
683.369	0.0144769
683.447	0.0143163
683.526	0.0142424
683.604	0.0142706
683.682	0.0144291
683.760	0.0145120
683.838	0.0144584
683.916	0.0143763
683.994	0.0144352
684.072	0.0143639
684.151	0.0144604
684.229	0.0144165
684.307	0.0143854
684.385	0.0143884
684.463	0.0143309
684.541	0.0143531
684.619	0.0144639
684.697	0.0144314
684.776	0.0142753
684.854	0.0143549
684.932	0.0143509
685.010	0.0142972
685.088	0.0142660
685.166	0.0143087
685.244	0.0144699
685.322	0.0144640
685.401	0.0142722
685.479	0.0143745
685.557	0.0144836
685.635	0.0144025
685.713	0.0143008
685.791	0.0142981
685.869	0.0145045
685.947	0.0143719
686.026	0.0143628
686.104	0.0142911
686.182	0.0143278
686.260	0.0144615
686.338	0.0144109
686.416	0.0143730
686.494	0.0144203
686.572	0.0144502
686.651	0.0144666
686.729	0.0143859
686.807	0.0143252
686.885	0.0144691
686.963	0.0143884
687.041	0.0143935
687.119	0.0142525
687.197	0.0143441
687.276	0.0143475
687.354	0.0144183
687.432	0.0143681
687.510	0.0142377
687.588	0.0144770
687.666	0.0144498
687.744	0.0143555
687.822	0.0143970
687.901	0.0144387
687.979	0.0143734
688.057	0.0144695
688.135	0.0143238
688.213	0.0143771
688.291	0.0146326
688.369	0.0144716
688.447	0.0143137
688.526	0.0144193
688.604	0.0142818
688.682	0.0143496
688.760	0.0144405
688.838	0.0144028
688.916	0.0143939
688.994	0.0142805
689.072	0.0145048
689.151	0.0144239
689.229	0.0141453
689.307	0.0142820
689.385	0.0144289
689.463	0.0144035
689.541	0.0143657
689.619	0.0144370
689.697	0.0142288
689.776	0.0143214
689.854	0.0143597
689.932	0.0142904
690.010	0.0143961
690.088	0.0144159
690.166	0.0143941
690.244	0.0144583
690.322	0.0143712
690.401	0.0143645
690.479	0.0143809
690.557	0.0144171
690.635	0.0145580
690.713	0.0144228
690.791	0.0143108
690.869	0.0143949
690.947	0.0143341
691.026	0.0143716
691.104	0.0144464
691.182	0.0143076
691.260	0.0143190
691.338	0.0141776
691.416	0.0144936
691.494	0.0143560
691.572	0.0143144
691.651	0.0143851
691.729	0.0144530
691.807	0.0143185
691.885	0.0142792
691.963	0.0144053
692.041	0.0142954
692.119	0.0143077
692.197	0.0143899
692.276	0.0143747
692.354	0.0142245
692.432	0.0144984
692.510	0.0144170
692.588	0.0143294
692.666	0.0144018
692.744	0.0145056
692.822	0.0144496
692.901	0.0143886
692.979	0.0144809
693.057	0.0143232
693.135	0.0144116
693.213	0.0144902
693.291	0.0143844
693.369	0.0143504
693.447	0.0144736
693.526	0.0144766
693.604	0.0145159
693.682	0.0143674
693.760	0.0143826
693.838	0.0144572
693.916	0.0144007
693.994	0.0143952
694.072	0.0143623
694.151	0.0145216
694.229	0.0143789
694.307	0.0143579
694.385	0.0144218
694.463	0.0145002
694.541	0.0143343
694.619	0.0143047
694.697	0.0143800
694.776	0.0144743
694.854	0.0143226
694.932	0.0143508
695.010	0.0145290
695.088	0.0144396
695.166	0.0143381
695.244	0.0143011
695.322	0.0145118
695.401	0.0142979
695.479	0.0144801
695.557	0.0144215
695.635	0.0143559
695.713	0.0143466
695.791	0.0144255
695.869	0.0144805
695.947	0.0143514
696.026	0.0141686
696.104	0.0144759
696.182	0.0143786
696.260	0.0142750
696.338	0.0143005
696.416	0.0143504
696.494	0.0143565
696.572	0.0143583
696.651	0.0144612
696.729	0.0144459
696.807	0.0144249
696.885	0.0144913
696.963	0.0144819
697.041	0.0144778
697.119	0.0143459
697.197	0.0143114
697.276	0.0143724
697.354	0.0142509
697.432	0.0143910
697.510	0.0144910
697.588	0.0143354
697.666	0.0144341
697.744	0.0145106
697.822	0.0143986
697.901	0.0143514
697.979	0.0142163
698.057	0.0144512
698.135	0.0143401
698.213	0.0143129
698.291	0.0144535
698.369	0.0144390
698.447	0.0143665
698.526	0.0143115
698.604	0.0144525
698.682	0.0144443
698.760	0.0145438
698.838	0.0142978
698.916	0.0143372
698.994	0.0144149
699.072	0.0144638
699.151	0.0143023
699.229	0.0142921
699.307	0.0143901
699.385	0.0143675
699.463	0.0141877
699.541	0.0143018
699.619	0.0143978
699.697	0.0143002
699.776	0.0143047
699.854	0.0142788
699.932	0.0143281
700.010	0.0144992
700.088	0.0142931
700.166	0.0145052
700.244	0.0144581
700.322	0.0144007
700.401	0.0143378
700.479	0.0143179
700.557	0.0143916
700.635	0.0142764
700.713	0.0142901
700.791	0.0145148
700.869	0.0142973
700.947	0.0141606
701.026	0.0142541
701.104	0.0142223
701.182	0.0144415
701.260	0.0144101
701.338	0.0142192
701.416	0.0143867
701.494	0.0143529
701.572	0.0142474
701.651	0.0142352
701.729	0.0143085
701.807	0.0143143
701.885	0.0144634
701.963	0.0143110
702.041	0.0142489
702.119	0.0143455
702.197	0.0142261
702.276	0.0143472
702.354	0.0143192
702.432	0.0143787
702.510	0.0144226
702.588	0.0142650
702.666	0.0143559
702.744	0.0144489
702.822	0.0143505
702.901	0.0143221
702.979	0.0143705
703.057	0.0144362
703.135	0.0142924
703.213	0.0144018
703.291	0.0143005
703.369	0.0143912
703.447	0.0143961
703.526	0.0144061
703.604	0.0144559
703.682	0.0145277
703.760	0.0144880
703.838	0.0143331
703.916	0.0143565
703.994	0.0144453
704.072	0.0143979
704.151	0.0144567
704.229	0.0143131
704.307	0.0142995
704.385	0.0143383
704.463	0.0144429
704.541	0.0142309
704.619	0.0141710
704.697	0.0142538
704.776	0.0143677
704.854	0.0143766
704.932	0.0143204
705.010	0.0143767
705.088	0.0143979
705.166	0.0144203
705.244	0.0145116
705.322	0.0143712
705.401	0.0144768
705.479	0.0143442
705.557	0.0145522
705.635	0.0146826
705.713	0.0146690
705.791	0.0146109
705.869	0.0147003
705.947	0.0145849
706.026	0.0147948
706.104	0.0147927
706.182	0.0146277
706.260	0.0146838
706.338	0.0146799
706.416	0.0146377
706.494	0.0145719
706.572	0.0145310
706.651	0.0145890
706.729	0.0146484
706.807	0.0144878
706.885	0.0145201
706.963	0.0144872
707.041	0.0144361
707.119	0.0144183
707.197	0.0144141
707.276	0.0143139
707.354	0.0143552
707.432	0.0144059
707.510	0.0141393
707.588	0.0142063
707.666	0.0140895
707.744	0.0140986
707.822	0.0139703
707.901	0.0139831
707.979	0.0140824
708.057	0.0140865
708.135	0.0141101
708.213	0.0140017
708.291	0.0138740
708.369	0.0138667
708.447	0.0138120
708.526	0.0137224
708.604	0.0138683
708.682	0.0135844
708.760	0.0133016
708.838	0.0130784
708.916	0.0128687
708.994	0.0124733
709.072	0.0121823
709.151	0.0118504
709.229	0.0117719
709.307	0.0116628
709.385	0.0118393
709.463	0.0118590
709.541	0.0124257
709.619	0.0132247
709.697	0.0138630
709.776	0.0146131
709.854	0.0153353
709.932	0.0159695
710.010	0.0164295
710.088	0.0167632
710.166	0.0167961
710.244	0.0165224
710.322	0.0163219
710.401	0.0159544
710.479	0.0155042
710.557	0.0152519
710.635	0.0152422
710.713	0.0151516
710.791	0.0151509
710.869	0.0153870
710.947	0.0155601
711.026	0.0159362
711.104	0.0160258
711.182	0.0162177
711.260	0.0163371
711.338	0.0163558
711.416	0.0163696
711.494	0.0161364
711.572	0.0160780
711.651	0.0160413
711.729	0.0160178
711.807	0.0162701
711.885	0.0163226
711.963	0.0165707
712.041	0.0166666
712.119	0.0167087
712.197	0.0163082
712.276	0.0159610
712.354	0.0154926
712.432	0.0147877
712.510	0.0140538
712.588	0.0131852
712.666	0.0123868
712.744	0.0115686
712.822	0.0106213
712.901	0.00980461
712.979	0.00898071
713.057	0.00805534
713.135	0.00724800
713.213	0.00671692
713.291	0.00635185
713.369	0.00619980
713.447	0.00645638
713.526	0.00698563
713.604	0.00773521
713.682	0.00900406
713.760	0.0102237
713.838	0.0118044
713.916	0.0133739
713.994	0.0153311
714.072	0.0169337
714.151	0.0190380
714.229	0.0209940
714.307	0.0227215
714.385	0.0239619
714.463	0.0250871
714.541	0.0256265
714.619	0.0258528
714.697	0.0255954
714.776	0.0251069
714.854	0.0240301
714.932	0.0225802
715.010	0.0210136
715.088	0.0191056
715.166	0.0172971
715.244	0.0153993
715.322	0.0135160
715.401	0.0121049
715.479	0.0105835
715.557	0.00927452
715.635	0.00837402
715.713	0.00776772
715.791	0.00748245
715.869	0.00726936
715.947	0.00716110
716.026	0.00741646
716.104	0.00765099
716.182	0.00819313
716.260	0.00864319
716.338	0.00916801
716.416	0.00989349
716.494	0.0104957
716.572	0.0109705
716.651	0.0116724
716.729	0.0123346
716.807	0.0128040
716.885	0.0135068
716.963	0.0140352
717.041	0.0147435
717.119	0.0153876
717.197	0.0160684
717.276	0.0165078
717.354	0.0171520
717.432	0.0176976
717.510	0.0180768
717.588	0.0185075
717.666	0.0189364
717.744	0.0188786
717.822	0.0191463
717.901	0.0190324
717.979	0.0189326
718.057	0.0187084
718.135	0.0184748
718.213	0.0181317
718.291	0.0178053
718.369	0.0173423
718.447	0.0169054
718.526	0.0164816
718.604	0.0161266
718.682	0.0158613
718.760	0.0154255
718.838	0.0151347
718.916	0.0146718
718.994	0.0145383
719.072	0.0141528
719.151	0.0138464
719.229	0.0135159
719.307	0.0131638
719.385	0.0127760
719.463	0.0122793
719.541	0.0119211
719.619	0.0116317
719.697	0.0113255
719.776	0.0110779
719.854	0.0106025
719.932	0.0104353
720.010	0.0104192
720.088	0.0102350
720.166	0.0101854
720.244	0.00995628
720.322	0.0100957
720.401	0.0102222
720.479	0.0103262
720.557	0.0105840
720.635	0.0108645
720.713	0.0111685
720.791	0.0114265
720.869	0.0120704
720.947	0.0123240
721.026	0.0128700
721.104	0.0134096
721.182	0.0139059
721.260	0.0145135
721.338	0.0151206
721.416	0.0156568
721.494	0.0161020
721.572	0.0165807
721.651	0.0169633
721.729	0.0173707
721.807	0.0174541
721.885	0.0177502
721.963	0.0176794
722.041	0.0177537
722.119	0.0177677
722.197	0.0177067
722.276	0.0175651
722.354	0.0176761
722.432	0.0175580
722.510	0.0175061
722.588	0.0174576
722.666	0.0173438
722.744	0.0172752
722.822	0.0170052
722.901	0.0169176
722.979	0.0166760
723.057	0.0164876
723.135	0.0161243
723.213	0.0157853
723.291	0.0154884
723.369	0.0153262
723.447	0.0151434
723.526	0.0149094
723.604	0.0144575
723.682	0.0141211
723.760	0.0139381
723.838	0.0135302
723.916	0.0131033
723.994	0.0126503
724.072	0.0125157
724.151	0.0119756
724.229	0.0116563
724.307	0.0113487
724.385	0.0108334
724.463	0.0108215
724.541	0.0105340
724.619	0.0102784
724.697	0.0104449
724.776	0.0106598
724.854	0.0105430
724.932	0.0107791
725.010	0.0109114
725.088	0.0112173
725.166	0.0116602
725.244	0.0116899
725.322	0.0121257
725.401	0.0125048
725.479	0.0128320
725.557	0.0130949
725.635	0.0133897
725.713	0.0136652
725.791	0.0141415
725.869	0.0146144
725.947	0.0149020
726.026	0.0151747
726.104	0.0155568
726.182	0.0157707
726.260	0.0160730
726.338	0.0165063
726.416	0.0167530
726.494	0.0168707
726.572	0.0170534
726.651	0.0172339
726.729	0.0172363
726.807	0.0170217
726.885	0.0170512
726.963	0.0170332
727.041	0.0167961
727.119	0.0168357
727.197	0.0167382
727.276	0.0164832
727.354	0.0165316
727.432	0.0162844
727.510	0.0163379
727.588	0.0161395
727.666	0.0161581
727.744	0.0161044
727.822	0.0158699
727.901	0.0158660
727.979	0.0158378
728.057	0.0157714
728.135	0.0156387
728.213	0.0154781
728.291	0.0152864
728.369	0.0151648
728.447	0.0151029
728.526	0.0150452
728.604	0.0148177
728.682	0.0148231
728.760	0.0145660
728.838	0.0144084
728.916	0.0141413
728.994	0.0140294
729.072	0.0137774
729.151	0.0134007
729.229	0.0133868
729.307	0.0131156
729.385	0.0128228
729.463	0.0126464
729.541	0.0125311
729.619	0.0124839
729.697	0.0122871
729.776	0.0120264
729.854	0.0118100
729.932	0.0116570
730.010	0.0116552
730.088	0.0114817
730.166	0.0112886
730.244	0.0113023
730.322	0.0113053
730.401	0.0113345
730.479	0.0114041
730.557	0.0115310
730.635	0.0115672
730.713	0.0117105
730.791	0.0119161
730.869	0.0120103
730.947	0.0123612
731.026	0.0127023
731.104	0.0128782
731.182	0.0132452
731.260	0.0136003
731.338	0.0139602
731.416	0.0142709
731.494	0.0146867
731.572	0.0149377
731.651	0.0152821
731.729	0.0155129
731.807	0.0157080
731.885	0.0161441
731.963	0.0163641
732.041	0.0166273
732.119	0.0167276
732.197	0.0171704
732.276	0.0173378
732.354	0.0173575
732.432	0.0175500
732.510	0.0175185
732.588	0.0176009
732.666	0.0174785
732.744	0.0175536
732.822	0.0173585
732.901	0.0172869
732.979	0.0171072
733.057	0.0169649
733.135	0.0169132
733.213	0.0167033
733.291	0.0162849
733.369	0.0161777
733.447	0.0159182
733.526	0.0155523
733.604	0.0152857
733.682	0.0151081
733.760	0.0145757
733.838	0.0145512
733.916	0.0143497
733.994	0.0141315
734.072	0.0140052
734.151	0.0137939
734.229	0.0137413
734.307	0.0136620
734.385	0.0135499
734.463	0.0134878
734.541	0.0132323
734.619	0.0131869
734.697	0.0129624
734.776	0.0129134
734.854	0.0127731
734.932	0.0125891
735.010	0.0124512
735.088	0.0122793
735.166	0.0122385
735.244	0.0120992
735.322	0.0121381
735.401	0.0120776
735.479	0.0120486
735.557	0.0121246
735.635	0.0121386
735.713	0.0122064
735.791	0.0122860
735.869	0.0123849
735.947	0.0124570
736.026	0.0124751
736.104	0.0127380
736.182	0.0126910
736.260	0.0129236
736.338	0.0132751
736.416	0.0132247
736.494	0.0136050
736.572	0.0139104
736.651	0.0142009
736.729	0.0144735
736.807	0.0146139
736.885	0.0146267
736.963	0.0149393
737.041	0.0150379
737.119	0.0150824
737.197	0.0150195
737.276	0.0151110
737.354	0.0151197
737.432	0.0150700
737.510	0.0149924
737.588	0.0150393
737.666	0.0151608
737.744	0.0152169
737.822	0.0152150
737.901	0.0153666
737.979	0.0154173
738.057	0.0153938
738.135	0.0154932
738.213	0.0155990
738.291	0.0157693
738.369	0.0156618
738.447	0.0156983
738.526	0.0159476
738.604	0.0158655
738.682	0.0158977
738.760	0.0157763
738.838	0.0157849
738.916	0.0156590
738.994	0.0156318
739.072	0.0155403
739.151	0.0154831
739.229	0.0151881
739.307	0.0151347
739.385	0.0150457
739.463	0.0149507
739.541	0.0149263
739.619	0.0148831
739.697	0.0148364
739.776	0.0148623
739.854	0.0146435
739.932	0.0146436
740.010	0.0148883
740.088	0.0148289
740.166	0.0148289
740.244	0.0146940
740.322	0.0145426
740.401	0.0145998
740.479	0.0143725
740.557	0.0142635
740.635	0.0139825
740.713	0.0138884
740.791	0.0137846
740.869	0.0136245
740.947	0.0132499
741.026	0.0133807
741.104	0.0131242
741.182	0.0129002
741.260	0.0127481
741.338	0.0126140
741.416	0.0124387
741.494	0.0125869
741.572	0.0126630
741.651	0.0126776
741.729	0.0125433
741.807	0.0126089
741.885	0.0128757
741.963	0.0128540
742.041	0.0129814
742.119	0.0129749
742.197	0.0132991
742.276	0.0133466
742.354	0.0132127
742.432	0.0134119
742.510	0.0134132
742.588	0.0135309
742.666	0.0135470
742.744	0.0133289
742.822	0.0135596
742.901	0.0135255
742.979	0.0134548
743.057	0.0136510
743.135	0.0135741
743.213	0.0138220
743.291	0.0136750
743.369	0.0137728
743.447	0.0141111
743.526	0.0142622
743.604	0.0144921
743.682	0.0145332
743.760	0.0146912
743.838	0.0148305
743.916	0.0150316
743.994	0.0150916
744.072	0.0152676
744.151	0.0155051
744.229	0.0157686
744.307	0.0157719
744.385	0.0158807
744.463	0.0161240
744.541	0.0162281
744.619	0.0160763
744.697	0.0161548
744.776	0.0163194
744.854	0.0163299
744.932	0.0163118
745.010	0.0163103
745.088	0.0160098
745.166	0.0160220
745.244	0.0163253
745.322	0.0159494
745.401	0.0158307
745.479	0.0156370
745.557	0.0155354
745.635	0.0154500
745.713	0.0152396
745.791	0.0150787
745.869	0.0148878
745.947	0.0147239
746.026	0.0146137
746.104	0.0145958
746.182	0.0143866
746.260	0.0143492
746.338	0.0140575
746.416	0.0139512
746.494	0.0139108
746.572	0.0139906
746.651	0.0137712
746.729	0.0139214
746.807	0.0137182
746.885	0.0136205
746.963	0.0135564
747.041	0.0134083
747.119	0.0132925
747.197	0.0131912
747.276	0.0133696
747.354	0.0131570
747.432	0.0129477
747.510	0.0130454
747.588	0.0130681
747.666	0.0129662
747.744	0.0127817
747.822	0.0130101
747.901	0.0130025
747.979	0.0131383
748.057	0.0131965
748.135	0.0131596
748.213	0.0132032
748.291	0.0134103
748.369	0.0133932
748.447	0.0134332
748.526	0.0136870
748.604	0.0135975
748.682	0.0136205
748.760	0.0139445
748.838	0.0139606
748.916	0.0140440
748.994	0.0140853
749.072	0.0142159
749.151	0.0143200
749.229	0.0144652
749.307	0.0144679
749.385	0.0145272
749.463	0.0145329
749.541	0.0145665
749.619	0.0147626
749.697	0.0148529
749.776	0.0149361
749.854	0.0148889
749.932	0.0148919
750.010	0.0149666
750.088	0.0149420
750.166	0.0150269
750.244	0.0150359
750.322	0.0150759
750.401	0.0149554
750.479	0.0149514
750.557	0.0149848
750.635	0.0148801
750.713	0.0150063
750.791	0.0149294
750.869	0.0149001
750.947	0.0148901
751.026	0.0149706
751.104	0.0149508
751.182	0.0148573
751.260	0.0150471
751.338	0.0150208
751.416	0.0149557
751.494	0.0150739
751.572	0.0150903
751.651	0.0152519
751.729	0.0153739
751.807	0.0151424
751.885	0.0153150
751.963	0.0153170
752.041	0.0151441
752.119	0.0152589
752.197	0.0153136
752.276	0.0152556
752.354	0.0151434
752.432	0.0152025
752.510	0.0152580
752.588	0.0151449
752.666	0.0151770
752.744	0.0150684
752.822	0.0150701
752.901	0.0150315
752.979	0.0148670
753.057	0.0147954
753.135	0.0147448
753.213	0.0146297
753.291	0.0143874
753.369	0.0143079
753.447	0.0141033
753.526	0.0140160
753.604	0.0137995
753.682	0.0137161
753.760	0.0135606
753.838	0.0134109
753.916	0.0133805
753.994	0.0131635
754.072	0.0130098
754.151	0.0131807
754.229	0.0130471
754.307	0.0128281
754.385	0.0130103
754.463	0.0130076
754.541	0.0129948
754.619	0.0129446
754.697	0.0131145
754.776	0.0131348
754.854	0.0131986
754.932	0.0132210
755.010	0.0133293
755.088	0.0133610
755.166	0.0134210
755.244	0.0134009
755.322	0.0135834
755.401	0.0136218
755.479	0.0137710
755.557	0.0137327
755.635	0.0139030
755.713	0.0140913
755.791	0.0139201
755.869	0.0139198
755.947	0.0142100
756.026	0.0142307
756.104	0.0144064
756.182	0.0144537
756.260	0.0143416
756.338	0.0146625
756.416	0.0146381
756.494	0.0147815
756.572	0.0149353
756.651	0.0149487
756.729	0.0151142
756.807	0.0152479
756.885	0.0153661
756.963	0.0152976
757.041	0.0154399
757.119	0.0154833
757.197	0.0155075
757.276	0.0155507
757.354	0.0156062
757.432	0.0155035
757.510	0.0155057
757.588	0.0154375
757.666	0.0154743
757.744	0.0155851
757.822	0.0155676
757.901	0.0155492
757.979	0.0153748
758.057	0.0153799
758.135	0.0152962
758.213	0.0154494
758.291	0.0152087
758.369	0.0149756
758.447	0.0149292
758.526	0.0148188
758.604	0.0146397
758.682	0.0146015
758.760	0.0147327
758.838	0.0144818
758.916	0.0143169
758.994	0.0144730
759.072	0.0143279
759.151	0.0143523
759.229	0.0142098
759.307	0.0142268
759.385	0.0141438
759.463	0.0144253
759.541	0.0142031
759.619	0.0142549
759.697	0.0142390
759.776	0.0142319
759.854	0.0142249
759.932	0.0143210
760.010	0.0142043
760.088	0.0142410
760.166	0.0141725
760.244	0.0142586
760.322	0.0142283
760.401	0.0141584
760.479	0.0141803
760.557	0.0140244
760.635	0.0139586
760.713	0.0140697
760.791	0.0138499
760.869	0.0136966
760.947	0.0135985
761.026	0.0135831
761.104	0.0134595
761.182	0.0132932
761.260	0.0133945
761.338	0.0133585
761.416	0.0131923
761.494	0.0131877
761.572	0.0133205
761.651	0.0134276
761.729	0.0134480
761.807	0.0135210
761.885	0.0136089
761.963	0.0137138
762.041	0.0137654
762.119	0.0138495
762.197	0.0139019
762.276	0.0140587
762.354	0.0139615
762.432	0.0142128
762.510	0.0140993
762.588	0.0142184
762.666	0.0143717
762.744	0.0143581
762.822	0.0143494
762.901	0.0144198
762.979	0.0144520
763.057	0.0146423
763.135	0.0145837
763.213	0.0149023
763.291	0.0147704
763.369	0.0150423
763.447	0.0150464
763.526	0.0150751
763.604	0.0151943
763.682	0.0150684
763.760	0.0151479
763.838	0.0152941
763.916	0.0151370
763.994	0.0150394
764.072	0.0151699
764.151	0.0152807
764.229	0.0152575
764.307	0.0151022
764.385	0.0150954
764.463	0.0150274
764.541	0.0149456
764.619	0.0150002
764.697	0.0148787
764.776	0.0148086
764.854	0.0149082
764.932	0.0147586
765.010	0.0148917
765.088	0.0149707
765.166	0.0148787
765.244	0.0148953
765.322	0.0149519
765.401	0.0147132
765.479	0.0146638
765.557	0.0148302
765.635	0.0147850
765.713	0.0146674
765.791	0.0145821
765.869	0.0145393
765.947	0.0144048
766.026	0.0144153
766.104	0.0142945
766.182	0.0142033
766.260	0.0140456
766.338	0.0140219
766.416	0.0141965
766.494	0.0139263
766.572	0.0139902
766.651	0.0140469
766.729	0.0139068
766.807	0.0138776
766.885	0.0139495
766.963	0.0138512
767.041	0.0138568
767.119	0.0138782
767.197	0.0138246
767.276	0.0137300
767.354	0.0135966
767.432	0.0137146
767.510	0.0136803
767.588	0.0136736
767.666	0.0136307
767.744	0.0136795
767.822	0.0136868
767.901	0.0137650
767.979	0.0136282
768.057	0.0137276
768.135	0.0137751
768.213	0.0136472
768.291	0.0135993
768.369	0.0136662
768.447	0.0137210
768.526	0.0137474
768.604	0.0138181
768.682	0.0138452
768.760	0.0138284
768.838	0.0138953
768.916	0.0139694
768.994	0.0139450
769.072	0.0141032
769.151	0.0141551
769.229	0.0142558
769.307	0.0144162
769.385	0.0143336
769.463	0.0143663
769.541	0.0143098
769.619	0.0143554
769.697	0.0143593
769.776	0.0145665
769.854	0.0146197
769.932	0.0145367
770.010	0.0147666
770.088	0.0147445
770.166	0.0146223
770.244	0.0147596
770.322	0.0146957
770.401	0.0148464
770.479	0.0149550
770.557	0.0148756
770.635	0.0149709
770.713	0.0151193
770.791	0.0149221
770.869	0.0148919
770.947	0.0150002
771.026	0.0150262
771.104	0.0150225
771.182	0.0150394
771.260	0.0150182
771.338	0.0150413
771.416	0.0148462
771.494	0.0148432
771.572	0.0148679
771.651	0.0148760
771.729	0.0148313
771.807	0.0147320
771.885	0.0146159
771.963	0.0148238
772.041	0.0147856
772.119	0.0148646
772.197	0.0147318
772.276	0.0147425
772.354	0.0148527
772.432	0.0146887
772.510	0.0147849
772.588	0.0147108
772.666	0.0146764
772.744	0.0146882
772.822	0.0146286
772.901	0.0146653
772.979	0.0146606
773.057	0.0146388
773.135	0.0144589
773.213	0.0143927
773.291	0.0145258
773.369	0.0145149
773.447	0.0144811
773.526	0.0142784
773.604	0.0143816
773.682	0.0142566
773.760	0.0143044
773.838	0.0141245
773.916	0.0140039
773.994	0.0140568
774.072	0.0140216
774.151	0.0138419
774.229	0.0138956
774.307	0.0137791
774.385	0.0137924
774.463	0.0137321
774.541	0.0135568
774.619	0.0135040
774.697	0.0134647
774.776	0.0135006
774.854	0.0134313
774.932	0.0134519
775.010	0.0134052
775.088	0.0133855
775.166	0.0133233
775.244	0.0133783
775.322	0.0135079
775.401	0.0135415
775.479	0.0134278
775.557	0.0136111
775.635	0.0137314
775.713	0.0136129
775.791	0.0138391
775.869	0.0140131
775.947	0.0139613
776.026	0.0141302
776.104	0.0140262
776.182	0.0140018
776.260	0.0142892
776.338	0.0143014
776.416	0.0144292
776.494	0.0144502
776.572	0.0144991
776.651	0.0145928
776.729	0.0146078
776.807	0.0147176
776.885	0.0145992
776.963	0.0147006
777.041	0.0148143
777.119	0.0148849
777.197	0.0148286
777.276	0.0148210
777.354	0.0149430
777.432	0.0148804
777.510	0.0149271
777.588	0.0149931
777.666	0.0149971
777.744	0.0150079
777.822	0.0149787
777.901	0.0151378
777.979	0.0150712
778.057	0.0150162
778.135	0.0150423
778.213	0.0151778
778.291	0.0152719
778.369	0.0150259
778.447	0.0151170
778.526	0.0150249
778.604	0.0147924
778.682	0.0148920
778.760	0.0148611
778.838	0.0147413
778.916	0.0145787
778.994	0.0147013
779.072	0.0146737
779.151	0.0144685
779.229	0.0145987
779.307	0.0145087
779.385	0.0145929
779.463	0.0146426
779.541	0.0145535
779.619	0.0144518
779.697	0.0146326
779.776	0.0145833
779.854	0.0145994
779.932	0.0145366
780.010	0.0145345
780.088	0.0146902
780.166	0.0143880
780.244	0.0144672
780.322	0.0145791
780.401	0.0145963
780.479	0.0144379
780.557	0.0144894
780.635	0.0144588
780.713	0.0144173
780.791	0.0142581
780.869	0.0142133
780.947	0.0142799
781.026	0.0140499
781.104	0.0139376
781.182	0.0140488
781.260	0.0141319
781.338	0.0139645
781.416	0.0137537
781.494	0.0139600
781.572	0.0138845
781.651	0.0139005
781.729	0.0138966
781.807	0.0136981
781.885	0.0139350
781.963	0.0137775
782.041	0.0139008
782.119	0.0138369
782.197	0.0136347
782.276	0.0138579
782.354	0.0139802
782.432	0.0139046
782.510	0.0140192
782.588	0.0140544
782.666	0.0140963
782.744	0.0139630
782.822	0.0140348
782.901	0.0140771
782.979	0.0139922
783.057	0.0142060
783.135	0.0143420
783.213	0.0141396
783.291	0.0142946
783.369	0.0142552
783.447	0.0143535
783.526	0.0142319
783.604	0.0143517
783.682	0.0144283
783.760	0.0143707
783.838	0.0144797
783.916	0.0144553
783.994	0.0145704
784.072	0.0147079
784.151	0.0145544
784.229	0.0146574
784.307	0.0147692
784.385	0.0148345
784.463	0.0148576
784.541	0.0148268
784.619	0.0149005
784.697	0.0148917
784.776	0.0149869
784.854	0.0150143
784.932	0.0148713
785.010	0.0150446
785.088	0.0151213
785.166	0.0149552
785.244	0.0148868
785.322	0.0148945
785.401	0.0149412
785.479	0.0150012
785.557	0.0148893
785.635	0.0148969
785.713	0.0149630
785.791	0.0147582
785.869	0.0148728
785.947	0.0148712
786.026	0.0147099
786.104	0.0146708
786.182	0.0146714
786.260	0.0146863
786.338	0.0145863
786.416	0.0145081
786.494	0.0145963
786.572	0.0144373
786.651	0.0145535
786.729	0.0146043
786.807	0.0144781
786.885	0.0144621
786.963	0.0144374
787.041	0.0143549
787.119	0.0141988
787.197	0.0142452
787.276	0.0141663
787.354	0.0140031
787.432	0.0141925
787.510	0.0142609
787.588	0.0140631
787.666	0.0141013
787.744	0.0139481
787.822	0.0139703
787.901	0.0140466
787.979	0.0139935
788.057	0.0139066
788.135	0.0140184
788.213	0.0138246
788.291	0.0140728
788.369	0.0140479
788.447	0.0138728
788.526	0.0139108
788.604	0.0139941
788.682	0.0140237
788.760	0.0139614
788.838	0.0140292
788.916	0.0139999
788.994	0.0139225
789.072	0.0139154
789.151	0.0139351
789.229	0.0138726
789.307	0.0140985
789.385	0.0139748
789.463	0.0139899
789.541	0.0140775
789.619	0.0140154
789.697	0.0138963
789.776	0.0140192
789.854	0.0140237
789.932	0.0140344
790.010	0.0141904
790.088	0.0141103
790.166	0.0141774
790.244	0.0140222
790.322	0.0142484
790.401	0.0141662
790.479	0.0141694
790.557	0.0143321
790.635	0.0142004
790.713	0.0143262
790.791	0.0144797
790.869	0.0143410
790.947	0.0143391
791.026	0.0144350
791.104	0.0143037
791.182	0.0145065
791.260	0.0143381
791.338	0.0144482
791.416	0.0143660
791.494	0.0144320
791.572	0.0144833
791.651	0.0146033
791.729	0.0145184
791.807	0.0144733
791.885	0.0146970
791.963	0.0146777
792.041	0.0145878
792.119	0.0147536
792.197	0.0148219
792.276	0.0147704
792.354	0.0148350
792.432	0.0149399
792.510	0.0149244
792.588	0.0149258
792.666	0.0148800
792.744	0.0148599
792.822	0.0149636
792.901	0.0149601
792.979	0.0150574
793.057	0.0147946
793.135	0.0148273
793.213	0.0148599
793.291	0.0148783
793.369	0.0147902
793.447	0.0148810
793.526	0.0147715
793.604	0.0148376
793.682	0.0146984
793.760	0.0148206
793.838	0.0147035
793.916	0.0147411
793.994	0.0146977
794.072	0.0147242
794.151	0.0145025
794.229	0.0144665
794.307	0.0143573
794.385	0.0143954
794.463	0.0145522
794.541	0.0143740
794.619	0.0142912
794.697	0.0142931
794.776	0.0141509
794.854	0.0140798
794.932	0.0140801
795.010	0.0141135
795.088	0.0140871
795.166	0.0140546
795.244	0.0139166
795.322	0.0140158
795.401	0.0139960
795.479	0.0139559
795.557	0.0136947
795.635	0.0139407
795.713	0.0138654
795.791	0.0139033
795.869	0.0137524
795.947	0.0137251
796.026	0.0139684
796.104	0.0136516
796.182	0.0137014
796.260	0.0138100
796.338	0.0137199
796.416	0.0138197
796.494	0.0138688
796.572	0.0138397
796.651	0.0139832
796.729	0.0139567
796.807	0.0140463
796.885	0.0139656
796.963	0.0141143
797.041	0.0140072
797.119	0.0141537
797.197	0.0141976
797.276	0.0142586
797.354	0.0142157
797.432	0.0142843
797.510	0.0144428
797.588	0.0142416
797.666	0.0142265
797.744	0.0144101
797.822	0.0144832
797.901	0.0144321
797.979	0.0144087
798.057	0.0144807
798.135	0.0144027
798.213	0.0143682
798.291	0.0144327
798.369	0.0144984
798.447	0.0145135
798.526	0.0144657
798.604	0.0143992
798.682	0.0145261
798.760	0.0145483
798.838	0.0143249
798.916	0.0143740
798.994	0.0145156
799.072	0.0144174
799.151	0.0145748
799.229	0.0145818
799.307	0.0145332
799.385	0.0145500
799.463	0.0146447
799.541	0.0143801
799.619	0.0146203
799.697	0.0145221
799.776	0.0145041
799.854	0.0145516
799.932	0.0146021
800.010	0.0144763
800.088	0.0144680
800.166	0.0144759
800.244	0.0145872
800.322	0.0145486
800.401	0.0145963
800.479	0.0146060
800.557	0.0145649
800.635	0.0146183
800.713	0.0146469
800.791	0.0146844
800.869	0.0146838
800.947	0.0146055
801.026	0.0147232
801.104	0.0146706
801.182	0.0147437
801.260	0.0147781
801.338	0.0148286
801.416	0.0147571
801.494	0.0147951
801.572	0.0148031
801.651	0.0147174
801.729	0.0148934
801.807	0.0145406
801.885	0.0145163
801.963	0.0145296
802.041	0.0144294
802.119	0.0143800
802.197	0.0142267
802.276	0.0141660
802.354	0.0142676
802.432	0.0141325
802.510	0.0140398
802.588	0.0140115
802.666	0.0140054
802.744	0.0139069
802.822	0.0139402
802.901	0.0139604
802.979	0.0137878
803.057	0.0138752
803.135	0.0139601
803.213	0.0138457
803.291	0.0136662
803.369	0.0138598
803.447	0.0139417
803.526	0.0137511
803.604	0.0137753
803.682	0.0138077
803.760	0.0137926
803.838	0.0137994
803.916	0.0138857
803.994	0.0139079
804.072	0.0139359
804.151	0.0139275
804.229	0.0138796
804.307	0.0139806
804.385	0.0140782
804.463	0.0140847
804.541	0.0140301
804.619	0.0141045
804.697	0.0140382
804.776	0.0140919
804.854	0.0140367
804.932	0.0141901
805.010	0.0142426
805.088	0.0140982
805.166	0.0142211
805.244	0.0142189
805.322	0.0141866
805.401	0.0142605
805.479	0.0141869
805.557	0.0140904
805.635	0.0141578
805.713	0.0141696
805.791	0.0141850
805.869	0.0142448
805.947	0.0143013
806.026	0.0144890
806.104	0.0145864
806.182	0.0146388
806.260	0.0145809
806.338	0.0147159
806.416	0.0146332
806.494	0.0148823
806.572	0.0148893
806.651	0.0149541
806.729	0.0150297
806.807	0.0150541
806.885	0.0150493
806.963	0.0154177
807.041	0.0152853
807.119	0.0153403
807.197	0.0153114
807.276	0.0153011
807.354	0.0154134
807.432	0.0151569
807.510	0.0147819
807.588	0.0148143
807.666	0.0146088
807.744	0.0146626
807.822	0.0144796
807.901	0.0144472
807.979	0.0145029
808.057	0.0144034
808.135	0.0146218
808.213	0.0146492
808.291	0.0146593
808.369	0.0146930
808.447	0.0147284
808.526	0.0147623
808.604	0.0146509
808.682	0.0146515
808.760	0.0147021
808.838	0.0145634
808.916	0.0145113
808.994	0.0145676
809.072	0.0144128
809.151	0.0142656
809.229	0.0143717
809.307	0.0141074
809.385	0.0139481
809.463	0.0138695
809.541	0.0137757
809.619	0.0136669
809.697	0.0133864
809.776	0.0131286
809.854	0.0132796
809.932	0.0131048
810.010	0.0131129
810.088	0.0131451
810.166	0.0130700
810.244	0.0132665
810.322	0.0135034
810.401	0.0136565
810.479	0.0139803
810.557	0.0140418
810.635	0.0142457
810.713	0.0144365
810.791	0.0146127
810.869	0.0148856
810.947	0.0149491
811.026	0.0151466
811.104	0.0151534
811.182	0.0151479
811.260	0.0152015
811.338	0.0150539
811.416	0.0150014
811.494	0.0148553
811.572	0.0147470
811.651	0.0146268
811.729	0.0144913
811.807	0.0143754
811.885	0.0142149
811.963	0.0142516
812.041	0.0141779
812.119	0.0140848
812.197	0.0141158
812.276	0.0141672
812.354	0.0139710
812.432	0.0139877
812.510	0.0141746
812.588	0.0142153
812.666	0.0141860
812.744	0.0141968
812.822	0.0141489
812.901	0.0141432
812.979	0.0140894
813.057	0.0141304
813.135	0.0142517
813.213	0.0142427
813.291	0.0142984
813.369	0.0144872
813.447	0.0142777
813.526	0.0143436
813.604	0.0143483
813.682	0.0144793
813.760	0.0143769
813.838	0.0144296
813.916	0.0146095
813.994	0.0146594
814.072	0.0146798
814.151	0.0146182
814.229	0.0147675
814.307	0.0149525
814.385	0.0150169
814.463	0.0149051
814.541	0.0149991
814.619	0.0151976
814.697	0.0153102
814.776	0.0151884
814.854	0.0151749
814.932	0.0151115
815.010	0.0151897
815.088	0.0152311
815.166	0.0151584
815.244	0.0150078
815.322	0.0150356
815.401	0.0150782
815.479	0.0148810
815.557	0.0148853
815.635	0.0147698
815.713	0.0147962
815.791	0.0144921
815.869	0.0143890
815.947	0.0143752
816.026	0.0142258
816.104	0.0141066
816.182	0.0139997
816.260	0.0137438
816.338	0.0134557
816.416	0.0134248
816.494	0.0134419
816.572	0.0133215
816.651	0.0131907
816.729	0.0132796
816.807	0.0132389
816.885	0.0134743
816.963	0.0133100
817.041	0.0134724
817.119	0.0136563
817.197	0.0136098
817.276	0.0137654
817.354	0.0140511
817.432	0.0140076
817.510	0.0139021
817.588	0.0139784
817.666	0.0141886
817.744	0.0143065
817.822	0.0141940
817.901	0.0142551
817.979	0.0142814
818.057	0.0141686
818.135	0.0143367
818.213	0.0143859
818.291	0.0143662
818.369	0.0143059
818.447	0.0144955
818.526	0.0145168
818.604	0.0144295
818.682	0.0145824
818.760	0.0145269
818.838	0.0145895
818.916	0.0145796
818.994	0.0146012
819.072	0.0147268
819.151	0.0148233
819.229	0.0146759
819.307	0.0146356
819.385	0.0145741
819.463	0.0146420
819.541	0.0145294
819.619	0.0145866
819.697	0.0142757
819.776	0.0144280
819.854	0.0142973
819.932	0.0143353
820.010	0.0143071
820.088	0.0141354
820.166	0.0142493
820.244	0.0142963
820.322	0.0143115
820.401	0.0142947
820.479	0.0142671
820.557	0.0143362
820.635	0.0143349
820.713	0.0141643
820.791	0.0142406
820.869	0.0143114
820.947	0.0144011
821.026	0.0143629
821.104	0.0144666
821.182	0.0144883
821.260	0.0144218
821.338	0.0144870
821.416	0.0143793
821.494	0.0142567
821.572	0.0144723
821.651	0.0144277
821.729	0.0145245
821.807	0.0143413
821.885	0.0143853
821.963	0.0143048
822.041	0.0143517
822.119	0.0142165
822.197	0.0142822
822.276	0.0143203
822.354	0.0141093
822.432	0.0141866
822.510	0.0143716
822.588	0.0142932
822.666	0.0143947
822.744	0.0142564
822.822	0.0143553
822.901	0.0143622
822.979	0.0145083
823.057	0.0144820
823.135	0.0144177
823.213	0.0145482
823.291	0.0145052
823.369	0.0143531
823.447	0.0144214
823.526	0.0144612
823.604	0.0144854
823.682	0.0145750
823.760	0.0147464
823.838	0.0145702
823.916	0.0146383
823.994	0.0147186
824.072	0.0145577
824.151	0.0145676
824.229	0.0144901
824.307	0.0145850
824.385	0.0145327
824.463	0.0145079
824.541	0.0144950
824.619	0.0144550
824.697	0.0144490
824.776	0.0142062
824.854	0.0142883
824.932	0.0142035
825.010	0.0140790
825.088	0.0140446
825.166	0.0139477
825.244	0.0138551
825.322	0.0138939
825.401	0.0138275
825.479	0.0138411
825.557	0.0138441
825.635	0.0138046
825.713	0.0139292
825.791	0.0137612
825.869	0.0136621
825.947	0.0138100
826.026	0.0138923
826.104	0.0138380
826.182	0.0136727
826.260	0.0137682
826.338	0.0138339
826.416	0.0138808
826.494	0.0138135
826.572	0.0139030
826.651	0.0138074
826.729	0.0138230
826.807	0.0139661
826.885	0.0139325
826.963	0.0139205
827.041	0.0138474
827.119	0.0140594
827.197	0.0141745
827.276	0.0141406
827.354	0.0144112
827.432	0.0143762
827.510	0.0143633
827.588	0.0145906
827.666	0.0147073
827.744	0.0146600
827.822	0.0146162
827.901	0.0148829
827.979	0.0148678
828.057	0.0148926
828.135	0.0149025
828.213	0.0149159
828.291	0.0149063
828.369	0.0148841
828.447	0.0150324
828.526	0.0149952
828.604	0.0150590
828.682	0.0148482
828.760	0.0149420
828.838	0.0148435
828.916	0.0148973
828.994	0.0147777
829.072	0.0151894
829.151	0.0149500
829.229	0.0147682
829.307	0.0149461
829.385	0.0148689
829.463	0.0149050
829.541	0.0148612
829.619	0.0147918
829.697	0.0148385
829.776	0.0149078
829.854	0.0149021
829.932	0.0147179
830.010	0.0149599
830.088	0.0147861
830.166	0.0146639
830.244	0.0147309
830.322	0.0146493
830.401	0.0144101
830.479	0.0144181
830.557	0.0142382
830.635	0.0144103
830.713	0.0142525
830.791	0.0140946
830.869	0.0140321
830.947	0.0138660
831.026	0.0138590
831.104	0.0139319
831.182	0.0138556
831.260	0.0138311
831.338	0.0138632
831.416	0.0138560
831.494	0.0138837
831.572	0.0138503
831.651	0.0139161
831.729	0.0141179
831.807	0.0138232
831.885	0.0138438
831.963	0.0138206
832.041	0.0136539
832.119	0.0136472
832.197	0.0134843
832.276	0.0134173
832.354	0.0134380
832.432	0.0133340
832.510	0.0135033
832.588	0.0133629
832.666	0.0134344
832.744	0.0134578
832.822	0.0136464
832.901	0.0134940
832.979	0.0134352
833.057	0.0136398
833.135	0.0138152
833.213	0.0137944
833.291	0.0138659
833.369	0.0141999
833.447	0.0143312
833.526	0.0143134
833.604	0.0145101
833.682	0.0147290
833.760	0.0147499
833.838	0.0150900
833.916	0.0151014
833.994	0.0151740
834.072	0.0152013
834.151	0.0152499
834.229	0.0151179
834.307	0.0151820
834.385	0.0150343
834.463	0.0148190
834.541	0.0149854
834.619	0.0149668
834.697	0.0147819
834.776	0.0146756
834.854	0.0146311
834.932	0.0147440
835.010	0.0146314
835.088	0.0146988
835.166	0.0146896
835.244	0.0148945
835.322	0.0147661
835.401	0.0148693
835.479	0.0149440
835.557	0.0149593
835.635	0.0149496
835.713	0.0146903
835.791	0.0148620
835.869	0.0149043
835.947	0.0147879
836.026	0.0146945
836.104	0.0146120
836.182	0.0145058
836.260	0.0144135
836.338	0.0144141
836.416	0.0142981
836.494	0.0142017
836.572	0.0142403
836.651	0.0140598
836.729	0.0142303
836.807	0.0141756
836.885	0.0140914
836.963	0.0140709
837.041	0.0142010
837.119	0.0141658
837.197	0.0141198
837.276	0.0141714
837.354	0.0143269
837.432	0.0142822
837.510	0.0142739
837.588	0.0144971
837.666	0.0143593
837.744	0.0143588
837.822	0.0145050
837.901	0.0143382
837.979	0.0144652
838.057	0.0144221
838.135	0.0142741
838.213	0.0141161
838.291	0.0141096
838.369	0.0141360
838.447	0.0139543
838.526	0.0137651
838.604	0.0138177
838.682	0.0138610
838.760	0.0139444
838.838	0.0138246
838.916	0.0137365
838.994	0.0137137
839.072	0.0137858
839.151	0.0137592
839.229	0.0136293
839.307	0.0139242
839.385	0.0139296
839.463	0.0139433
839.541	0.0140791
839.619	0.0142197
839.697	0.0144083
839.776	0.0142615
839.854	0.0143401
839.932	0.0143765
840.010	0.0143374
840.088	0.0145126
840.166	0.0145638
840.244	0.0144305
840.322	0.0144093
840.401	0.0146030
840.479	0.0145168
840.557	0.0143948
840.635	0.0144528
840.713	0.0144436
840.791	0.0145060
840.869	0.0143978
840.947	0.0144565
841.026	0.0144290
841.104	0.0145712
841.182	0.0147160
841.260	0.0146572
841.338	0.0146794
841.416	0.0147468
841.494	0.0148118
841.572	0.0147883
841.651	0.0147471
841.729	0.0148264
841.807	0.0145053
841.885	0.0144804
841.963	0.0145287
842.041	0.0144426
842.119	0.0146169
842.197	0.0144593
842.276	0.0144411
842.354	0.0143886
842.432	0.0143890
842.510	0.0144990
842.588	0.0143978
842.666	0.0144544
842.744	0.0145423
842.822	0.0146114
842.901	0.0146502
842.979	0.0146790
843.057	0.0145988
843.135	0.0147364
843.213	0.0145953
843.291	0.0145898
843.369	0.0145782
843.447	0.0145827
843.526	0.0145635
843.604	0.0143716
843.682	0.0142836
843.760	0.0142147
843.838	0.0141428
843.916	0.0140550
843.994	0.0140569
844.072	0.0139304
844.151	0.0138766
844.229	0.0140475
844.307	0.0140865
844.385	0.0140039
844.463	0.0140388
844.541	0.0141189
844.619	0.0141301
844.697	0.0141605
844.776	0.0142446
844.854	0.0142533
844.932	0.0143212
845.010	0.0144172
845.088	0.0143922
845.166	0.0143423
845.244	0.0145083
845.322	0.0143324
845.401	0.0144732
845.479	0.0146171
845.557	0.0145466
845.635	0.0145657
845.713	0.0146568
845.791	0.0146257
845.869	0.0146013
845.947	0.0145003
846.026	0.0144925
846.104	0.0144830
846.182	0.0143663
846.260	0.0144244
846.338	0.0144778
846.416	0.0143779
846.494	0.0145658
846.572	0.0143397
846.651	0.0144183
846.729	0.0143226
846.807	0.0143925
846.885	0.0143800
846.963	0.0144077
847.041	0.0143229
847.119	0.0142960
847.197	0.0143892
847.276	0.0142563
847.354	0.0142898
847.432	0.0142855
847.510	0.0142482
847.588	0.0142608
847.666	0.0143526
847.744	0.0142725
847.822	0.0143192
847.901	0.0144035
847.979	0.0143632
848.057	0.0143464
848.135	0.0142710
848.213	0.0145544
848.291	0.0146236
848.369	0.0145002
848.447	0.0145287
848.526	0.0145622
848.604	0.0145845
848.682	0.0146160
848.760	0.0145156
848.838	0.0146764
848.916	0.0146124
848.994	0.0145945
849.072	0.0147263
849.151	0.0147794
849.229	0.0146471
849.307	0.0146490
849.385	0.0148195
849.463	0.0147074
849.541	0.0147020
849.619	0.0148399
849.697	0.0147609
849.776	0.0146001
849.854	0.0144080
849.932	0.0144139
850.010	0.0144883
850.088	0.0146243
850.166	0.0144304
850.244	0.0144841
850.322	0.0144699
850.401	0.0144341
850.479	0.0144392
850.557	0.0143221
850.635	0.0144653
850.713	0.0144670
850.791	0.0144897
850.869	0.0143584
850.947	0.0144868
851.026	0.0143427
851.104	0.0145274
851.182	0.0143836
851.260	0.0144524
851.338	0.0143337
851.416	0.0143046
851.494	0.0143456
851.572	0.0142906
851.651	0.0143121
851.729	0.0141803
851.807	0.0142243
851.885	0.0143578
851.963	0.0142109
852.041	0.0140958
852.119	0.0142598
852.197	0.0143261
852.276	0.0142113
852.354	0.0143034
852.432	0.0142768
852.510	0.0142901
852.588	0.0142258
852.666	0.0144015
852.744	0.0143210
852.822	0.0142458
852.901	0.0142302
852.979	0.0143748
853.057	0.0144363
853.135	0.0142987
853.213	0.0143482
853.291	0.0143633
853.369	0.0143943
853.447	0.0142986
853.526	0.0142607
853.604	0.0143586
853.682	0.0145844
853.760	0.0144002
853.838	0.0143761
853.916	0.0144651
853.994	0.0143224
854.072	0.0143599
854.151	0.0144492
854.229	0.0144610
854.307	0.0145487
854.385	0.0144856
854.463	0.0144849
854.541	0.0144824
854.619	0.0145331
854.697	0.0144508
854.776	0.0144833
854.854	0.0143193
854.932	0.0144482
855.010	0.0143882
855.088	0.0142603
855.166	0.0142993
855.244	0.0142867
855.322	0.0143217
855.401	0.0143832
855.479	0.0143145
855.557	0.0142864
855.635	0.0142270
855.713	0.0141990
855.791	0.0142630
855.869	0.0142635
855.947	0.0142733
856.026	0.0143207
856.104	0.0143977
856.182	0.0145166
856.260	0.0145321
856.338	0.0145561
856.416	0.0146817
856.494	0.0145862
856.572	0.0147234
856.651	0.0147182
856.729	0.0146772
856.807	0.0145757
856.885	0.0146465
856.963	0.0145930
857.041	0.0145947
857.119	0.0145216
857.197	0.0144659
857.276	0.0143834
857.354	0.0143996
857.432	0.0144937
857.510	0.0144354
857.588	0.0142920
857.666	0.0144244
857.744	0.0142316
857.822	0.0143140
857.901	0.0144578
857.979	0.0144939
858.057	0.0144347
858.135	0.0144479
858.213	0.0145383
858.291	0.0145050
858.369	0.0144846
858.447	0.0143170
858.526	0.0143859
858.604	0.0145451
858.682	0.0143674
858.760	0.0143546
858.838	0.0144679
858.916	0.0143840
858.994	0.0143976
859.072	0.0142850
859.151	0.0143851
859.229	0.0144762
859.307	0.0142799
859.385	0.0143645
859.463	0.0144035
859.541	0.0143598
859.619	0.0144753
859.697	0.0144669
859.776	0.0144490
859.854	0.0144415
859.932	0.0144246
860.010	0.0144383
860.088	0.0146267
860.166	0.0145218
860.244	0.0146071
860.322	0.0145975
860.401	0.0146438
860.479	0.0145860
860.557	0.0144493
860.635	0.0144749
860.713	0.0145776
860.791	0.0146376
860.869	0.0144381
860.947	0.0144041
861.026	0.0144538
861.104	0.0144939
861.182	0.0144093
861.260	0.0143809
861.338	0.0142915
861.416	0.0143697
861.494	0.0142490
861.572	0.0141162
861.651	0.0140514
861.729	0.0141730
861.807	0.0140918
861.885	0.0140758
861.963	0.0140295
862.041	0.0141309
862.119	0.0140298
862.197	0.0141270
862.276	0.0140549
862.354	0.0141360
862.432	0.0140952
862.510	0.0141483
862.588	0.0143277
862.666	0.0141391
862.744	0.0141618
862.822	0.0144008
862.901	0.0143882
862.979	0.0143430
863.057	0.0144212
863.135	0.0142811
863.213	0.0143279
863.291	0.0142632
863.369	0.0142206
863.447	0.0142910
863.526	0.0142629
863.604	0.0141954
863.682	0.0142448
863.760	0.0142551
863.838	0.0143698
863.916	0.0142342
863.994	0.0142293
864.072	0.0141228
864.151	0.0141453
864.229	0.0142585
864.307	0.0141857
864.385	0.0144057
864.463	0.0144130
864.541	0.0144063
864.619	0.0144262
864.697	0.0145010
864.776	0.0145050
864.854	0.0146407
864.932	0.0147422
865.010	0.0147804
865.088	0.0147673
865.166	0.0149056
865.244	0.0150852
865.322	0.0150504
865.401	0.0150695
865.479	0.0149800
865.557	0.0150417
865.635	0.0150402
865.713	0.0148894
865.791	0.0149761
865.869	0.0149415
865.947	0.0147665
866.026	0.0148988
866.104	0.0146650
866.182	0.0145148
866.260	0.0146209
866.338	0.0145650
866.416	0.0143655
866.494	0.0144293
866.572	0.0144017
866.651	0.0141814
866.729	0.0141199
866.807	0.0141795
866.885	0.0142027
866.963	0.0142033
867.041	0.0141444
867.119	0.0142738
867.197	0.0141897
867.276	0.0143009
867.354	0.0142098
867.432	0.0141330
867.510	0.0141960
867.588	0.0141492
867.666	0.0140958
867.744	0.0141241
867.822	0.0141462
867.901	0.0142257
867.979	0.0141845
868.057	0.0141890
868.135	0.0140524
868.213	0.0141531
868.291	0.0142737
868.369	0.0141747
868.447	0.0143211
868.526	0.0142581
868.604	0.0142274
868.682	0.0144603
868.760	0.0144627
868.838	0.0143910
868.916	0.0143147
868.994	0.0144070
869.072	0.0145697
869.151	0.0143734
869.229	0.0143114
869.307	0.0143849
869.385	0.0146439
869.463	0.0144471
869.541	0.0143913
869.619	0.0144068
869.697	0.0143347
869.776	0.0144438
869.854	0.0143477
869.932	0.0144114
870.010	0.0143735
870.088	0.0144312
870.166	0.0142857
870.244	0.0145203
870.322	0.0143666
870.401	0.0143275
870.479	0.0144234
870.557	0.0144164
870.635	0.0143603
870.713	0.0144558
870.791	0.0143857
870.869	0.0144355
870.947	0.0144009
871.026	0.0143362
871.104	0.0143147
871.182	0.0145272
871.260	0.0145751
871.338	0.0144836
871.416	0.0143793
871.494	0.0145092
871.572	0.0145487
871.651	0.0146136
871.729	0.0145287
871.807	0.0143536
871.885	0.0145865
871.963	0.0146128
872.041	0.0144386
872.119	0.0145218
872.197	0.0144333
872.276	0.0145154
872.354	0.0145176
872.432	0.0144344
872.510	0.0145025
872.588	0.0145811
872.666	0.0145882
872.744	0.0145825
872.822	0.0144713
872.901	0.0145329
872.979	0.0144849
873.057	0.0144170
873.135	0.0142844
873.213	0.0143542
873.291	0.0143664
873.369	0.0143776
873.447	0.0143162
873.526	0.0143239
873.604	0.0144224
873.682	0.0143986
873.760	0.0143822
873.838	0.0144588
873.916	0.0144666
873.994	0.0145872
874.072	0.0144603
874.151	0.0146072
874.229	0.0146122
874.307	0.0146846
874.385	0.0147661
874.463	0.0147305
874.541	0.0147778
874.619	0.0146236
874.697	0.0144548
874.776	0.0145768
874.854	0.0144102
874.932	0.0144239
875.010	0.0144182
875.088	0.0143301
875.166	0.0140781
875.244	0.0141953
875.322	0.0142549
875.401	0.0142175
875.479	0.0142728
875.557	0.0142960
875.635	0.0141898
875.713	0.0141187
875.791	0.0142009
875.869	0.0141721
875.947	0.0142423
876.026	0.0142566
876.104	0.0141515
876.182	0.0143436
876.260	0.0142505
876.338	0.0142353
876.416	0.0142003
876.494	0.0144301
876.572	0.0142801
876.651	0.0142701
876.729	0.0143310
876.807	0.0142989
876.885	0.0142171
876.963	0.0140852
877.041	0.0143233
877.119	0.0141212
877.197	0.0140303
877.276	0.0143630
877.354	0.0142235
877.432	0.0141032
877.510	0.0142815
877.588	0.0143005
877.666	0.0143000
877.744	0.0142657
877.822	0.0142651
877.901	0.0143885
877.979	0.0144199
878.057	0.0144166
878.135	0.0143143
878.213	0.0143783
878.291	0.0144891
878.369	0.0144657
878.447	0.0143736
878.526	0.0143848
878.604	0.0145118
878.682	0.0143808
878.760	0.0145350
878.838	0.0145113
878.916	0.0144078
878.994	0.0144666
879.072	0.0144128
879.151	0.0144001
879.229	0.0142843
879.307	0.0143954
879.385	0.0142822
879.463	0.0143716
879.541	0.0142946
879.619	0.0142985
879.697	0.0143480
879.776	0.0142300
879.854	0.0142941
879.932	0.0143522
880.010	0.0142430
880.088	0.0144687
880.166	0.0145536
880.244	0.0143477
880.322	0.0144445
880.401	0.0144241
880.479	0.0145725
880.557	0.0144662
880.635	0.0144607
880.713	0.0144512
880.791	0.0144819
880.869	0.0145625
880.947	0.0146553
881.026	0.0144474
881.104	0.0145851
881.182	0.0145204
881.260	0.0144359
881.338	0.0144289
881.416	0.0145189
881.494	0.0144603
881.572	0.0145209
881.651	0.0144597
881.729	0.0145272
881.807	0.0143513
881.885	0.0143528
881.963	0.0143649
882.041	0.0143430
882.119	0.0144373
882.197	0.0144464
882.276	0.0143619
882.354	0.0143508
882.432	0.0145217
882.510	0.0144830
882.588	0.0144807
882.666	0.0144816
882.744	0.0144765
882.822	0.0143292
882.901	0.0143871
882.979	0.0143764
883.057	0.0144214
883.135	0.0143869
883.213	0.0143398
883.291	0.0142495
883.369	0.0141862
883.447	0.0142191
883.526	0.0142265
883.604	0.0142018
883.682	0.0142300
883.760	0.0142524
883.838	0.0143734
883.916	0.0142905
883.994	0.0142899
884.072	0.0144736
884.151	0.0143121
884.229	0.0143628
884.307	0.0144009
884.385	0.0143864
884.463	0.0142784
884.541	0.0141125
884.619	0.0140778
884.697	0.0141577
884.776	0.0141648
884.854	0.0140234
884.932	0.0140386
885.010	0.0142207
885.088	0.0140659
885.166	0.0141418
885.244	0.0141202
885.322	0.0143609
885.401	0.0144032
885.479	0.0142581
885.557	0.0143534
885.635	0.0145192
885.713	0.0144195
885.791	0.0145393
885.869	0.0143272
885.947	0.0144479
886.026	0.0144836
886.104	0.0145333
886.182	0.0145170
886.260	0.0146214
886.338	0.0145862
886.416	0.0146751
886.494	0.0145110
886.572	0.0145539
886.651	0.0147688
886.729	0.0145469
886.807	0.0146150
886.885	0.0147507
886.963	0.0148276
887.041	0.0147241
887.119	0.0147299
887.197	0.0146448
887.276	0.0146387
887.354	0.0146594
887.432	0.0145875
887.510	0.0144411
887.588	0.0143402
887.666	0.0142986
887.744	0.0142908
887.822	0.0142623
887.901	0.0142159
887.979	0.0141949
888.057	0.0141610
888.135	0.0142384
888.213	0.0143690
888.291	0.0142587
888.369	0.0143724
888.447	0.0142757
888.526	0.0143357
888.604	0.0144641
888.682	0.0144064
888.760	0.0142678
888.838	0.0143165
888.916	0.0143325
888.994	0.0144136
889.072	0.0143758
889.151	0.0144276
889.229	0.0143334
889.307	0.0143823
889.385	0.0142050
889.463	0.0143550
889.541	0.0145185
889.619	0.0144283
889.697	0.0144144
889.776	0.0144178
889.854	0.0143521
889.932	0.0144422
890.010	0.0145607
890.088	0.0145719
890.166	0.0143965
890.244	0.0144473
890.322	0.0145418
890.401	0.0142836
890.479	0.0143465
890.557	0.0143932
890.635	0.0142731
890.713	0.0141860
890.791	0.0142188
890.869	0.0142587
890.947	0.0140604
891.026	0.0141105
891.104	0.0141198
891.182	0.0142022
891.260	0.0142820
891.338	0.0143301
891.416	0.0143507
891.494	0.0143639
891.572	0.0143608
891.651	0.0142776
891.729	0.0141771
891.807	0.0142226
891.885	0.0142712
891.963	0.0143499
892.041	0.0143497
892.119	0.0143080
892.197	0.0142228
892.276	0.0142212
892.354	0.0141331
892.432	0.0142054
892.510	0.0141988
892.588	0.0142068
892.666	0.0141589
892.744	0.0140696
892.822	0.0142564
892.901	0.0142159
892.979	0.0140350
893.057	0.0142469
893.135	0.0141517
893.213	0.0142171
893.291	0.0142000
893.369	0.0141555
893.447	0.0142233
893.526	0.0142914
893.604	0.0143505
893.682	0.0142871
893.760	0.0143443
893.838	0.0143560
893.916	0.0142922
893.994	0.0141445
894.072	0.0143488
894.151	0.0143357
894.229	0.0143814
894.307	0.0143969
894.385	0.0146136
894.463	0.0147350
894.541	0.0146933
894.619	0.0144865
894.697	0.0146665
894.776	0.0147206
894.854	0.0146744
894.932	0.0147097
895.010	0.0147125
895.088	0.0146474
895.166	0.0146544
895.244	0.0146305
895.322	0.0144460
895.401	0.0144096
895.479	0.0144141
895.557	0.0144533
895.635	0.0145112
895.713	0.0144938
895.791	0.0144437
895.869	0.0144421
895.947	0.0145494
896.026	0.0143032
896.104	0.0143307
896.182	0.0143276
896.260	0.0143520
896.338	0.0143700
896.416	0.0144243
896.494	0.0145156
896.572	0.0142966
896.651	0.0144312
896.729	0.0143176
896.807	0.0145344
896.885	0.0143971
896.963	0.0142622
897.041	0.0144128
897.119	0.0145174
897.197	0.0145887
897.276	0.0143962
897.354	0.0144893
897.432	0.0144700
897.510	0.0143253
897.588	0.0144780
897.666	0.0144514
897.744	0.0143784
897.822	0.0144401
897.901	0.0144597
897.979	0.0145512
898.057	0.0144157
898.135	0.0143606
898.213	0.0143661
898.291	0.0142841
898.369	0.0140769
898.447	0.0141057
898.526	0.0143000
898.604	0.0142623
898.682	0.0142784
898.760	0.0143460
898.838	0.0141280
898.916	0.0141109
898.994	0.0141151
899.072	0.0140953
899.151	0.0142037
899.229	0.0141750
899.307	0.0141869
899.385	0.0141496
899.463	0.0141737
899.541	0.0142414
899.619	0.0142273
899.697	0.0142047
899.776	0.0142205
899.854	0.0142706
899.932	0.0141523
900.010	0.0144606
900.088	0.0144990
900.166	0.0141518
900.244	0.0142240
900.322	0.0141845
900.401	0.0141237
900.479	0.0140757
900.557	0.0141335
900.635	0.0140902
900.713	0.0140133
900.791	0.0138680
900.869	0.0139713
900.947	0.0139052
901.026	0.0140841
901.104	0.0141306
901.182	0.0140687
901.260	0.0143220
901.338	0.0143013
901.416	0.0145756
901.494	0.0146770
901.572	0.0148132
901.651	0.0148682
901.729	0.0148972
901.807	0.0150215
901.885	0.0151891
901.963	0.0150658
902.041	0.0149746
902.119	0.0148161
902.197	0.0146736
902.276	0.0146747
902.354	0.0144611
902.432	0.0144253
902.510	0.0144442
902.588	0.0144289
902.666	0.0144026
902.744	0.0143608
902.822	0.0142095
902.901	0.0141578
902.979	0.0142451
903.057	0.0142699
903.135	0.0141865
903.213	0.0141041
903.291	0.0140757
903.369	0.0138196
903.447	0.0138815
903.526	0.0138663
903.604	0.0139470
903.682	0.0140285
903.760	0.0142375
903.838	0.0145071
903.916	0.0146529
903.994	0.0146752
904.072	0.0146412
904.151	0.0147256
904.229	0.0147312
904.307	0.0146545
904.385	0.0144076
904.463	0.0142375
904.541	0.0138966
904.619	0.0135619
904.697	0.0135385
904.776	0.0135050
904.854	0.0132608
904.932	0.0134785
905.010	0.0134564
905.088	0.0137148
905.166	0.0140036
905.244	0.0142281
905.322	0.0143961
905.401	0.0148943
905.479	0.0151722
905.557	0.0152408
905.635	0.0153458
905.713	0.0155173
905.791	0.0157177
905.869	0.0158496
905.947	0.0155666
906.026	0.0156187
906.104	0.0155816
906.182	0.0151982
906.260	0.0152322
906.338	0.0149009
906.416	0.0147664
906.494	0.0145685
906.572	0.0144392
906.651	0.0141297
906.729	0.0139434
906.807	0.0137450
906.885	0.0136300
906.963	0.0134435
907.041	0.0134091
907.119	0.0133035
907.197	0.0133139
907.276	0.0132809
907.354	0.0132095
907.432	0.0134653
907.510	0.0136227
907.588	0.0137969
907.666	0.0138969
907.744	0.0139508
907.822	0.0141494
907.901	0.0141993
907.979	0.0144471
908.057	0.0143870
908.135	0.0146914
908.213	0.0144611
908.291	0.0145213
908.369	0.0145803
908.447	0.0146943
908.526	0.0147255
908.604	0.0147990
908.682	0.0147932
908.760	0.0148117
908.838	0.0149331
908.916	0.0147150
908.994	0.0148277
909.072	0.0149658
909.151	0.0150127
909.229	0.0148286
909.307	0.0148293
909.385	0.0148032
909.463	0.0147090
909.541	0.0145692
909.619	0.0145843
909.697	0.0144201
909.776	0.0144483
909.854	0.0145010
909.932	0.0145488
910.010	0.0143608
910.088	0.0144533
910.166	0.0143913
910.244	0.0143853
910.322	0.0145434
910.401	0.0145012
910.479	0.0144351
910.557	0.0142934
910.635	0.0143542
910.713	0.0143011
910.791	0.0142807
910.869	0.0141360
910.947	0.0141699
911.026	0.0140597
911.104	0.0140078
911.182	0.0141037
911.260	0.0140449
911.338	0.0142924
911.416	0.0141962
911.494	0.0142434
911.572	0.0142435
911.651	0.0143706
911.729	0.0143993
911.807	0.0141941
911.885	0.0143680
911.963	0.0143408
912.041	0.0143159
912.119	0.0144674
912.197	0.0142858
912.276	0.0140633
912.354	0.0141940
912.432	0.0140813
912.510	0.0141778
912.588	0.0142786
912.666	0.0142333
912.744	0.0142976
912.822	0.0142962
912.901	0.0143544
912.979	0.0143572
913.057	0.0144217
913.135	0.0143548
913.213	0.0145264
913.291	0.0145258
913.369	0.0145522
913.447	0.0147532
913.526	0.0146334
913.604	0.0146619
913.682	0.0145788
913.760	0.0145345
913.838	0.0145887
913.916	0.0147568
913.994	0.0146048
914.072	0.0146189
914.151	0.0145166
914.229	0.0144366
914.307	0.0144991
914.385	0.0142723
914.463	0.0143394
914.541	0.0143776
914.619	0.0142773
914.697	0.0143753
914.776	0.0142938
914.854	0.0142329
914.932	0.0143021
915.010	0.0142036
915.088	0.0142213
915.166	0.0142793
915.244	0.0143344
915.322	0.0143456
915.401	0.0142975
915.479	0.0142172
915.557	0.0143153
915.635	0.0145388
915.713	0.0144554
915.791	0.0144254
915.869	0.0143236
915.947	0.0143928
916.026	0.0143608
916.104	0.0144829
916.182	0.0144276
916.260	0.0144665
916.338	0.0144186
916.416	0.0145238
916.494	0.0144214
916.572	0.0144231
916.651	0.0144497
916.729	0.0143805
916.807	0.0144907
916.885	0.0142673
916.963	0.0142255
917.041	0.0142969
917.119	0.0143062
917.197	0.0143906
917.276	0.0143301
917.354	0.0143668
917.432	0.0142271
917.510	0.0142332
917.588	0.0144096
917.666	0.0144347
917.744	0.0143173
917.822	0.0144975
917.901	0.0144090
917.979	0.0144453
918.057	0.0142696
918.135	0.0144241
918.213	0.0144096
918.291	0.0143758
918.369	0.0143440
918.447	0.0142773
918.526	0.0144846
918.604	0.0144169
918.682	0.0144089
918.760	0.0145961
918.838	0.0146708
918.916	0.0145982
918.994	0.0147042
919.072	0.0147243
919.151	0.0146499
919.229	0.0147615
919.307	0.0147799
919.385	0.0146146
919.463	0.0146956
919.541	0.0144868
919.619	0.0142279
919.697	0.0143696
919.776	0.0140462
919.854	0.0139893
919.932	0.0138907
920.010	0.0139392
920.088	0.0139688
920.166	0.0139243
920.244	0.0139584
920.322	0.0138480
920.401	0.0140622
920.479	0.0139924
920.557	0.0141079
920.635	0.0142706
920.713	0.0143076
920.791	0.0143393
920.869	0.0143951
920.947	0.0142155
921.026	0.0142553
921.104	0.0142535
921.182	0.0142200
921.260	0.0142493
921.338	0.0141171
921.416	0.0141064
921.494	0.0141766
921.572	0.0141592
921.651	0.0141230
921.729	0.0141689
921.807	0.0141175
921.885	0.0141129
921.963	0.0141348
922.041	0.0141695
922.119	0.0142079
922.197	0.0141573
922.276	0.0141984
922.354	0.0142840
922.432	0.0142995
922.510	0.0144648
922.588	0.0144004
922.666	0.0145907
922.744	0.0146424
922.822	0.0146062
922.901	0.0147533
922.979	0.0147755
923.057	0.0147964
923.135	0.0148022
923.213	0.0146903
923.291	0.0147407
923.369	0.0147893
923.447	0.0146947
923.526	0.0146445
923.604	0.0146444
923.682	0.0145844
923.760	0.0144637
923.838	0.0143864
923.916	0.0146599
923.994	0.0144291
924.072	0.0145284
924.151	0.0144771
924.229	0.0145530
924.307	0.0144543
924.385	0.0143862
924.463	0.0144657
924.541	0.0144569
924.619	0.0145992
924.697	0.0144201
924.776	0.0143749
924.854	0.0143617
924.932	0.0143304
925.010	0.0143654
925.088	0.0143803
925.166	0.0143749
925.244	0.0142171
925.322	0.0141926
925.401	0.0143310
925.479	0.0141574
925.557	0.0141814
925.635	0.0142902
925.713	0.0142509
925.791	0.0143628
925.869	0.0142513
925.947	0.0143071
926.026	0.0144299
926.104	0.0145019
926.182	0.0145567
926.260	0.0144827
926.338	0.0145637
926.416	0.0145544
926.494	0.0144508
926.572	0.0144270
926.651	0.0144038
926.729	0.0143301
926.807	0.0141850
926.885	0.0141073
926.963	0.0141953
927.041	0.0141910
927.119	0.0139537
927.197	0.0140813
927.276	0.0139784
927.354	0.0139584
927.432	0.0140076
927.510	0.0139884
927.588	0.0142413
927.666	0.0142358
927.744	0.0142307
927.822	0.0141959
927.901	0.0143419
927.979	0.0143486
928.057	0.0143840
928.135	0.0144687
928.213	0.0145024
928.291	0.0145949
928.369	0.0146732
928.447	0.0147520
928.526	0.0145556
928.604	0.0146098
928.682	0.0146507
928.760	0.0145779
928.838	0.0146075
928.916	0.0143488
928.994	0.0143528
929.072	0.0144077
929.151	0.0142728
929.229	0.0143585
929.307	0.0143790
929.385	0.0144581
929.463	0.0143378
929.541	0.0144390
929.619	0.0144204
929.697	0.0145280
929.776	0.0146370
929.854	0.0146233
929.932	0.0145676
930.010	0.0146738
930.088	0.0145866
930.166	0.0146581
930.244	0.0147369
930.322	0.0148312
930.401	0.0147303
930.479	0.0147494
930.557	0.0146526
930.635	0.0148056
930.713	0.0148147
930.791	0.0147093
930.869	0.0145496
930.947	0.0146169
931.026	0.0145898
931.104	0.0145943
931.182	0.0146046
931.260	0.0146021
931.338	0.0144824
931.416	0.0144681
931.494	0.0144248
931.572	0.0144939
931.651	0.0143548
931.729	0.0143323
931.807	0.0141537
931.885	0.0142995
931.963	0.0142458
932.041	0.0143382
932.119	0.0143039
932.197	0.0142171
932.276	0.0141467
932.354	0.0142601
932.432	0.0141604
932.510	0.0141557
932.588	0.0142449
932.666	0.0141019
932.744	0.0140689
932.822	0.0143587
932.901	0.0141056
932.979	0.0141518
933.057	0.0141767
933.135	0.0142783
933.213	0.0142233
933.291	0.0142336
933.369	0.0143233
933.447	0.0143711
933.526	0.0143271
933.604	0.0143590
933.682	0.0143518
933.760	0.0143466
933.838	0.0143314
933.916	0.0144070
933.994	0.0144053
934.072	0.0144056
934.151	0.0144313
934.229	0.0144729
934.307	0.0143404
934.385	0.0145619
934.463	0.0144094
934.541	0.0144633
934.619	0.0144205
934.697	0.0143980
934.776	0.0143631
934.854	0.0143089
934.932	0.0143079
935.010	0.0144344
935.088	0.0143285
935.166	0.0142670
935.244	0.0142807
935.322	0.0142635
935.401	0.0142673
935.479	0.0142537
935.557	0.0142617
935.635	0.0144176
935.713	0.0143972
935.791	0.0143889
935.869	0.0144392
935.947	0.0144586
936.026	0.0144339
936.104	0.0143764
936.182	0.0144942
936.260	0.0144160
936.338	0.0145636
936.416	0.0145269
936.494	0.0144218
936.572	0.0145090
936.651	0.0145293
936.729	0.0144436
936.807	0.0145174
936.885	0.0143667
936.963	0.0143527
937.041	0.0143302
937.119	0.0142567
937.197	0.0143587
937.276	0.0143609
937.354	0.0143420
937.432	0.0142529
937.510	0.0143249
937.588	0.0142316
937.666	0.0141705
937.744	0.0140272
937.822	0.0141268
937.901	0.0142058
937.979	0.0141573
938.057	0.0141228
938.135	0.0142561
938.213	0.0142159
938.291	0.0140924
938.369	0.0141742
938.447	0.0142960
938.526	0.0143702
938.604	0.0143069
938.682	0.0144313
938.760	0.0144730
938.838	0.0144405
938.916	0.0144670
938.994	0.0146297
939.072	0.0144904
939.151	0.0145022
939.229	0.0146605
939.307	0.0146022
939.385	0.0145303
939.463	0.0146720
939.541	0.0147727
939.619	0.0144791
939.697	0.0146150
939.776	0.0146311
939.854	0.0144534
939.932	0.0145667
940.010	0.0145101
940.088	0.0143745
940.166	0.0143418
940.244	0.0142186
940.322	0.0141716
940.401	0.0141290
940.479	0.0141648
940.557	0.0144205
940.635	0.0142255
940.713	0.0142888
940.791	0.0141617
940.869	0.0143064
940.947	0.0142902
941.026	0.0142225
941.104	0.0143436
941.182	0.0143324
941.260	0.0143187
941.338	0.0144318
941.416	0.0142981
941.494	0.0141905
941.572	0.0142448
941.651	0.0142413
941.729	0.0143781
941.807	0.0142822
941.885	0.0140697
941.963	0.0141119
942.041	0.0141423
942.119	0.0142871
942.197	0.0141404
942.276	0.0142085
942.354	0.0141885
942.432	0.0141624
942.510	0.0142621
942.588	0.0142246
942.666	0.0142753
942.744	0.0143022
942.822	0.0143501
942.901	0.0143868
942.979	0.0144691
943.057	0.0145015
943.135	0.0144781
943.213	0.0143871
943.291	0.0144649
943.369	0.0144408
943.447	0.0145083
943.526	0.0145792
943.604	0.0144295
943.682	0.0146323
943.760	0.0144897
943.838	0.0145802
943.916	0.0143539
943.994	0.0143510
944.072	0.0146114
944.151	0.0145324
944.229	0.0144372
944.307	0.0145371
944.385	0.0145672
944.463	0.0144373
944.541	0.0143198
944.619	0.0144194
944.697	0.0147143
944.776	0.0145802
944.854	0.0144614
944.932	0.0145457
945.010	0.0144550
945.088	0.0145869
945.166	0.0144938
945.244	0.0144293
945.322	0.0144539
945.401	0.0145190
945.479	0.0146482
945.557	0.0145675
945.635	0.0144141
945.713	0.0144852
945.791	0.0145930
945.869	0.0143870
945.947	0.0143954
946.026	0.0145860
946.104	0.0146786
946.182	0.0144216
946.260	0.0142757
946.338	0.0143786
946.416	0.0143678
946.494	0.0144275
946.572	0.0142155
946.651	0.0142883
946.729	0.0142136
946.807	0.0142521
946.885	0.0142074
946.963	0.0140890
947.041	0.0141212
947.119	0.0142775
947.197	0.0142042
947.276	0.0142353
947.354	0.0142611
947.432	0.0143854
947.510	0.0144194
947.588	0.0143887
947.666	0.0144558
947.744	0.0146148
947.822	0.0146680
947.901	0.0146196
947.979	0.0147143
948.057	0.0148320
948.135	0.0147131
948.213	0.0147021
948.291	0.0147343
948.369	0.0146093
948.447	0.0145474
948.526	0.0145650
948.604	0.0144868
948.682	0.0143729
948.760	0.0142025
948.838	0.0141904
948.916	0.0141435
948.994	0.0140923
949.072	0.0139793
949.151	0.0139372
949.229	0.0140287
949.307	0.0141027
949.385	0.0141766
949.463	0.0140726
949.541	0.0142709
949.619	0.0142244
949.697	0.0143173
949.776	0.0142870
949.854	0.0142314
949.932	0.0142626
950.010	0.0143457
950.088	0.0141257
950.166	0.0142345
950.244	0.0140683
950.322	0.0138689
950.401	0.0139471
950.479	0.0140509
950.557	0.0141862
950.635	0.0142783
950.713	0.0141296
950.791	0.0142098
950.869	0.0141313
950.947	0.0143507
951.026	0.0143545
951.104	0.0144373
951.182	0.0145372
951.260	0.0143990
951.338	0.0144485
951.416	0.0145084
951.494	0.0144579
951.572	0.0144925
951.651	0.0144789
951.729	0.0143997
951.807	0.0144656
951.885	0.0143600
951.963	0.0143423
952.041	0.0144550
952.119	0.0143161
952.197	0.0143894
952.276	0.0143417
952.354	0.0142847
952.432	0.0142938
952.510	0.0142567
952.588	0.0142652
952.666	0.0144033
952.744	0.0142952
952.822	0.0142368
952.901	0.0142640
952.979	0.0143505
953.057	0.0143581
953.135	0.0142715
953.213	0.0143996
953.291	0.0143726
953.369	0.0143913
953.447	0.0145467
953.526	0.0144765
953.604	0.0145188
953.682	0.0146529
953.760	0.0145409
953.838	0.0146635
953.916	0.0147610
953.994	0.0146381
954.072	0.0147200
954.151	0.0146294
954.229	0.0146056
954.307	0.0145723
954.385	0.0145217
954.463	0.0144796
954.541	0.0143556
954.619	0.0142535
954.697	0.0142322
954.776	0.0143060
954.854	0.0141453
954.932	0.0141180
955.010	0.0141096
955.088	0.0141930
955.166	0.0141177
955.244	0.0142456
955.322	0.0141586
955.401	0.0141977
955.479	0.0143536
955.557	0.0144019
955.635	0.0143554
955.713	0.0145105
955.791	0.0146107
955.869	0.0145465
955.947	0.0147103
956.026	0.0146938
956.104	0.0147952
956.182	0.0146464
956.260	0.0147751
956.338	0.0148154
956.416	0.0148638
956.494	0.0147869
956.572	0.0147037
956.651	0.0148252
956.729	0.0146720
956.807	0.0147787
956.885	0.0147892
956.963	0.0146905
957.041	0.0144704
957.119	0.0144922
957.197	0.0143927
957.276	0.0141874
957.354	0.0143039
957.432	0.0141562
957.510	0.0140335
957.588	0.0141273
957.666	0.0139895
957.744	0.0140530
957.822	0.0140549
957.901	0.0141189
957.979	0.0139402
958.057	0.0139995
958.135	0.0141291
958.213	0.0142337
958.291	0.0141427
958.369	0.0141898
958.447	0.0141708
958.526	0.0143630
958.604	0.0142056
958.682	0.0142799
958.760	0.0143534
958.838	0.0143658
958.916	0.0144178
958.994	0.0143724
959.072	0.0144194
959.151	0.0144094
959.229	0.0143888
959.307	0.0144517
959.385	0.0143394
959.463	0.0143678
959.541	0.0141679
959.619	0.0142243
959.697	0.0141530
959.776	0.0142102
959.854	0.0141429
959.932	0.0139832
960.010	0.0140343
960.088	0.0140272
960.166	0.0139956
960.244	0.0141037
960.322	0.0140376
960.401	0.0143143
960.479	0.0144792
960.557	0.0144552
960.635	0.0145971
960.713	0.0147660
960.791	0.0146365
960.869	0.0148128
960.947	0.0148236
961.026	0.0149218
961.104	0.0146859
961.182	0.0147512
961.260	0.0147223
961.338	0.0148614
961.416	0.0145937
961.494	0.0144451
961.572	0.0144315
961.651	0.0144859
961.729	0.0143775
961.807	0.0140910
961.885	0.0141558
961.963	0.0142331
962.041	0.0141817
962.119	0.0140417
962.197	0.0139684
962.276	0.0139612
962.354	0.0141016
962.432	0.0141420
962.510	0.0141261
962.588	0.0139337
962.666	0.0140833
962.744	0.0142496
962.822	0.0143212
962.901	0.0143208
962.979	0.0141125
963.057	0.0142954
963.135	0.0143415
963.213	0.0142509
963.291	0.0142846
963.369	0.0144132
963.447	0.0143385
963.526	0.0141859
963.604	0.0142596
963.682	0.0142579
963.760	0.0141587
963.838	0.0141763
963.916	0.0141187
963.994	0.0140820
964.072	0.0141711
964.151	0.0142326
964.229	0.0142905
964.307	0.0140717
964.385	0.0142462
964.463	0.0143563
964.541	0.0144109
964.619	0.0143762
964.697	0.0144939
964.776	0.0145127
964.854	0.0146589
964.932	0.0145659
965.010	0.0147211
965.088	0.0146027
965.166	0.0146807
965.244	0.0146426
965.322	0.0146549
965.401	0.0146492
965.479	0.0146531
965.557	0.0144951
965.635	0.0143334
965.713	0.0142901
965.791	0.0142351
965.869	0.0142799
965.947	0.0142583
966.026	0.0141402
966.104	0.0141126
966.182	0.0140612
966.260	0.0140985
966.338	0.0141783
966.416	0.0140044
966.494	0.0142197
966.572	0.0142860
966.651	0.0143848
966.729	0.0143860
966.807	0.0144987
966.885	0.0145674
966.963	0.0147667
967.041	0.0146694
967.119	0.0147038
967.197	0.0147980
967.276	0.0147749
967.354	0.0148327
967.432	0.0148093
967.510	0.0148743
967.588	0.0147825
967.666	0.0148143
967.744	0.0147223
967.822	0.0147714
967.901	0.0147064
967.979	0.0147565
968.057	0.0146970
968.135	0.0146597
968.213	0.0146547
968.291	0.0145271
968.369	0.0146460
968.447	0.0146178
968.526	0.0147814
968.604	0.0146942
968.682	0.0146997
968.760	0.0147791
968.838	0.0146066
968.916	0.0145937
968.994	0.0146441
969.072	0.0144781
969.151	0.0143739
969.229	0.0142814
969.307	0.0142103
969.385	0.0141539
969.463	0.0141095
969.541	0.0140009
969.619	0.0140323
969.697	0.0142280
969.776	0.0142794
969.854	0.0139200
969.932	0.0140978
970.010	0.0140859
970.088	0.0141132
970.166	0.0142123
970.244	0.0143421
970.322	0.0142363
970.401	0.0142742
970.479	0.0143198
970.557	0.0144602
970.635	0.0143700
970.713	0.0144139
970.791	0.0143634
970.869	0.0143900
970.947	0.0144060
971.026	0.0143096
971.104	0.0142914
971.182	0.0143838
971.260	0.0141331
971.338	0.0141100
971.416	0.0141962
971.494	0.0142085
971.572	0.0140845
971.651	0.0141989
971.729	0.0141720
971.807	0.0140839
971.885	0.0141537
971.963	0.0142570
972.041	0.0141293
972.119	0.0141653
972.197	0.0141234
972.276	0.0143332
972.354	0.0143858
972.432	0.0142104
972.510	0.0142853
972.588	0.0143114
972.666	0.0142031
972.744	0.0142019
972.822	0.0142110
972.901	0.0142641
972.979	0.0143584
973.057	0.0144080
973.135	0.0142523
973.213	0.0143295
973.291	0.0142868
973.369	0.0143719
973.447	0.0142510
973.526	0.0142272
973.604	0.0142464
973.682	0.0142606
973.760	0.0143991
973.838	0.0143561
973.916	0.0143415
973.994	0.0142165
974.072	0.0141868
974.151	0.0143017
974.229	0.0143399
974.307	0.0144278
974.385	0.0142603
974.463	0.0143165
974.541	0.0143678
974.619	0.0142214
974.697	0.0143761
974.776	0.0142406
974.854	0.0144260
974.932	0.0144931
975.010	0.0144143
975.088	0.0144685
975.166	0.0144579
975.244	0.0146026
975.322	0.0144368
975.401	0.0147083
975.479	0.0146033
975.557	0.0145459
975.635	0.0144728
975.713	0.0145970
975.791	0.0144565
975.869	0.0144377
975.947	0.0144981
976.026	0.0143219
976.104	0.0144654
976.182	0.0143689
976.260	0.0144109
976.338	0.0143003
976.416	0.0142664
976.494	0.0141749
976.572	0.0142386
976.651	0.0141847
976.729	0.0142406
976.807	0.0141692
976.885	0.0142206
976.963	0.0142145
977.041	0.0142142
977.119	0.0142075
977.197	0.0143616
977.276	0.0142596
977.354	0.0144615
977.432	0.0143903
977.510	0.0144388
977.588	0.0144324
977.666	0.0144183
977.744	0.0144041
977.822	0.0143530
977.901	0.0144539
977.979	0.0144894
978.057	0.0143899
978.135	0.0144783
978.213	0.0145229
978.291	0.0146361
978.369	0.0144588
978.447	0.0144691
978.526	0.0145770
978.604	0.0145939
978.682	0.0145950
978.760	0.0145121
978.838	0.0144222
978.916	0.0144717
978.994	0.0145551
979.072	0.0145267
979.151	0.0144779
979.229	0.0144653
979.307	0.0145576
979.385	0.0144850
979.463	0.0142454
979.541	0.0144052
979.619	0.0143907
979.697	0.0143822
979.776	0.0144462
979.854	0.0144651
979.932	0.0143834
