05/03/2022	20:03:21	Ver.	4.1	UNKNOWN
Optical Delay	660.003261	Delta X		0.078125	Sweeps	1	Scan Rate	0/0
Coordinates	Axis 1	NaN	Axis 2	NaN	Axis 3	NaN	Axis 4	NaN	Axis 5	NaN	Axis 6	0.000000
TX Power	0.000000	RX Power	0.000000

660.003	0.0147655
660.081	0.0147469
660.160	0.0148290
660.238	0.0147236
660.316	0.0146265
660.394	0.0147034
660.472	0.0147256
660.550	0.0146676
660.628	0.0147118
660.706	0.0147780
660.785	0.0148009
660.863	0.0146998
660.941	0.0147077
661.019	0.0146472
661.097	0.0146675
661.175	0.0146602
661.253	0.0149483
661.331	0.0148262
661.410	0.0146421
661.488	0.0148091
661.566	0.0146924
661.644	0.0146607
661.722	0.0147365
661.800	0.0147287
661.878	0.0147107
661.956	0.0146050
662.035	0.0147988
662.113	0.0147944
662.191	0.0146145
662.269	0.0146991
662.347	0.0148218
662.425	0.0147672
662.503	0.0148037
662.581	0.0146910
662.660	0.0147598
662.738	0.0146497
662.816	0.0146490
662.894	0.0147179
662.972	0.0148622
663.050	0.0148566
663.128	0.0147381
663.206	0.0146514
663.285	0.0147630
663.363	0.0145998
663.441	0.0147855
663.519	0.0146986
663.597	0.0146196
663.675	0.0148251
663.753	0.0148537
663.831	0.0147509
663.910	0.0147622
663.988	0.0148354
664.066	0.0148057
664.144	0.0147702
664.222	0.0147205
664.300	0.0147602
664.378	0.0146546
664.456	0.0147581
664.535	0.0147520
664.613	0.0146786
664.691	0.0147178
664.769	0.0146540
664.847	0.0148379
664.925	0.0147749
665.003	0.0148224
665.081	0.0147404
665.160	0.0147280
665.238	0.0148137
665.316	0.0147160
665.394	0.0147591
665.472	0.0147500
665.550	0.0147247
665.628	0.0148611
665.706	0.0146855
665.785	0.0147545
665.863	0.0146861
665.941	0.0146602
666.019	0.0147878
666.097	0.0146218
666.175	0.0147061
666.253	0.0147958
666.331	0.0149482
666.410	0.0147205
666.488	0.0146966
666.566	0.0148819
666.644	0.0147095
666.722	0.0147941
666.800	0.0147328
666.878	0.0148537
666.956	0.0147395
667.035	0.0147413
667.113	0.0147348
667.191	0.0147240
667.269	0.0147921
667.347	0.0147502
667.425	0.0147794
667.503	0.0148464
667.581	0.0147869
667.660	0.0147375
667.738	0.0148323
667.816	0.0147501
667.894	0.0147519
667.972	0.0148460
668.050	0.0147181
668.128	0.0146903
668.206	0.0146906
668.285	0.0148234
668.363	0.0147797
668.441	0.0148283
668.519	0.0148489
668.597	0.0146954
668.675	0.0148204
668.753	0.0148147
668.831	0.0148208
668.910	0.0148123
668.988	0.0147682
669.066	0.0147875
669.144	0.0146682
669.222	0.0146374
669.300	0.0146732
669.378	0.0147752
669.456	0.0148571
669.535	0.0147563
669.613	0.0146954
669.691	0.0146690
669.769	0.0146613
669.847	0.0147082
669.925	0.0148244
670.003	0.0148610
670.081	0.0147584
670.160	0.0147009
670.238	0.0147610
670.316	0.0147766
670.394	0.0147496
670.472	0.0147125
670.550	0.0146905
670.628	0.0148293
670.706	0.0148087
670.785	0.0146942
670.863	0.0146887
670.941	0.0147443
671.019	0.0146853
671.097	0.0147572
671.175	0.0147353
671.253	0.0147188
671.331	0.0146856
671.410	0.0146712
671.488	0.0147346
671.566	0.0148649
671.644	0.0147613
671.722	0.0148019
671.800	0.0146676
671.878	0.0146410
671.956	0.0146952
672.035	0.0146372
672.113	0.0147632
672.191	0.0147336
672.269	0.0147858
672.347	0.0148212
672.425	0.0146267
672.503	0.0147051
672.581	0.0148576
672.660	0.0147039
672.738	0.0148055
672.816	0.0147357
672.894	0.0147671
672.972	0.0147142
673.050	0.0147455
673.128	0.0147871
673.206	0.0148109
673.285	0.0147586
673.363	0.0148866
673.441	0.0149727
673.519	0.0146091
673.597	0.0146589
673.675	0.0146021
673.753	0.0147576
673.831	0.0147623
673.910	0.0147649
673.988	0.0148114
674.066	0.0148309
674.144	0.0147584
674.222	0.0147524
674.300	0.0147568
674.378	0.0146854
674.456	0.0147488
674.535	0.0147108
674.613	0.0147704
674.691	0.0146463
674.769	0.0147056
674.847	0.0149080
674.925	0.0147437
675.003	0.0147597
675.081	0.0147505
675.160	0.0148237
675.238	0.0147064
675.316	0.0145113
675.394	0.0147898
675.472	0.0148799
675.550	0.0148476
675.628	0.0146582
675.706	0.0147532
675.785	0.0148669
675.863	0.0146963
675.941	0.0147162
676.019	0.0147824
676.097	0.0148430
676.175	0.0148818
676.253	0.0147170
676.331	0.0147279
676.410	0.0149151
676.488	0.0147724
676.566	0.0147861
676.644	0.0147330
676.722	0.0147828
676.800	0.0146571
676.878	0.0147533
676.956	0.0146867
677.035	0.0147685
677.113	0.0147027
677.191	0.0146916
677.269	0.0147557
677.347	0.0147243
677.425	0.0148462
677.503	0.0148910
677.581	0.0148177
677.660	0.0147649
677.738	0.0146522
677.816	0.0148636
677.894	0.0146208
677.972	0.0149074
678.050	0.0147717
678.128	0.0148406
678.206	0.0148064
678.285	0.0148009
678.363	0.0147520
678.441	0.0145908
678.519	0.0146220
678.597	0.0148283
678.675	0.0147377
678.753	0.0147182
678.831	0.0147604
678.910	0.0148128
678.988	0.0147630
679.066	0.0146960
679.144	0.0146864
679.222	0.0148109
679.300	0.0147867
679.378	0.0146979
679.456	0.0147523
679.535	0.0148026
679.613	0.0147219
679.691	0.0147288
679.769	0.0148051
679.847	0.0147773
679.925	0.0148939
680.003	0.0148897
680.081	0.0148354
680.160	0.0146809
680.238	0.0147548
680.316	0.0147338
680.394	0.0147202
680.472	0.0148782
680.550	0.0148521
680.628	0.0147313
680.706	0.0147446
680.785	0.0148618
680.863	0.0146198
680.941	0.0147051
681.019	0.0148686
681.097	0.0147923
681.175	0.0147942
681.253	0.0148515
681.331	0.0148273
681.410	0.0147351
681.488	0.0147206
681.566	0.0147425
681.644	0.0147652
681.722	0.0147356
681.800	0.0147528
681.878	0.0148599
681.956	0.0147407
682.035	0.0147545
682.113	0.0148283
682.191	0.0149107
682.269	0.0148093
682.347	0.0147883
682.425	0.0146020
682.503	0.0147906
682.581	0.0148103
682.660	0.0147160
682.738	0.0147733
682.816	0.0146329
682.894	0.0147438
682.972	0.0148116
683.050	0.0147802
683.128	0.0148707
683.206	0.0147797
683.285	0.0147677
683.363	0.0148203
683.441	0.0147907
683.519	0.0146393
683.597	0.0148931
683.675	0.0148579
683.753	0.0148569
683.831	0.0148141
683.910	0.0148273
683.988	0.0147855
684.066	0.0147610
684.144	0.0145827
684.222	0.0147570
684.300	0.0147460
684.378	0.0147726
684.456	0.0148302
684.535	0.0147581
684.613	0.0148295
684.691	0.0148148
684.769	0.0147198
684.847	0.0146742
684.925	0.0147744
685.003	0.0149473
685.081	0.0147276
685.160	0.0147734
685.238	0.0148075
685.316	0.0147670
685.394	0.0147449
685.472	0.0148121
685.550	0.0147038
685.628	0.0147820
685.706	0.0147553
685.785	0.0147462
685.863	0.0148130
685.941	0.0148447
686.019	0.0147465
686.097	0.0147391
686.175	0.0148268
686.253	0.0148071
686.331	0.0146774
686.410	0.0149059
686.488	0.0148775
686.566	0.0148882
686.644	0.0146593
686.722	0.0148300
686.800	0.0147574
686.878	0.0148833
686.956	0.0148942
687.035	0.0146492
687.113	0.0147111
687.191	0.0147324
687.269	0.0147610
687.347	0.0148628
687.425	0.0147005
687.503	0.0147125
687.581	0.0147886
687.660	0.0147246
687.738	0.0147823
687.816	0.0147151
687.894	0.0147843
687.972	0.0148674
688.050	0.0148294
688.128	0.0148078
688.206	0.0148112
688.285	0.0148325
688.363	0.0146848
688.441	0.0147219
688.519	0.0145881
688.597	0.0148119
688.675	0.0148260
688.753	0.0147792
688.831	0.0148361
688.910	0.0146922
688.988	0.0147699
689.066	0.0147784
689.144	0.0148205
689.222	0.0146758
689.300	0.0147858
689.378	0.0148143
689.456	0.0148264
689.535	0.0147655
689.613	0.0147498
689.691	0.0147164
689.769	0.0146917
689.847	0.0146293
689.925	0.0148705
690.003	0.0147750
690.081	0.0146905
690.160	0.0147191
690.238	0.0147266
690.316	0.0148967
690.394	0.0148266
690.472	0.0147135
690.550	0.0147646
690.628	0.0149651
690.706	0.0147277
690.785	0.0146656
690.863	0.0147549
690.941	0.0146293
691.019	0.0147674
691.097	0.0148347
691.175	0.0147739
691.253	0.0148577
691.331	0.0147121
691.410	0.0148097
691.488	0.0147971
691.566	0.0147002
691.644	0.0147646
691.722	0.0148191
691.800	0.0148648
691.878	0.0147692
691.956	0.0148293
692.035	0.0147097
692.113	0.0148264
692.191	0.0147330
692.269	0.0146627
692.347	0.0147953
692.425	0.0147005
692.503	0.0147972
692.581	0.0148148
692.660	0.0149551
692.738	0.0147456
692.816	0.0146291
692.894	0.0147156
692.972	0.0148675
693.050	0.0147070
693.128	0.0147558
693.206	0.0148022
693.285	0.0147717
693.363	0.0148229
693.441	0.0147504
693.519	0.0147616
693.597	0.0148606
693.675	0.0146587
693.753	0.0147774
693.831	0.0147108
693.910	0.0146889
693.988	0.0147545
694.066	0.0148067
694.144	0.0147425
694.222	0.0147740
694.300	0.0148029
694.378	0.0146971
694.456	0.0148271
694.535	0.0147734
694.613	0.0147020
694.691	0.0147086
694.769	0.0147375
694.847	0.0147385
694.925	0.0147594
695.003	0.0146839
695.081	0.0147497
695.160	0.0146720
695.238	0.0146875
695.316	0.0146505
695.394	0.0147250
695.472	0.0148405
695.550	0.0148220
695.628	0.0147449
695.706	0.0148337
695.785	0.0147717
695.863	0.0148736
695.941	0.0146973
696.019	0.0147067
696.097	0.0147021
696.175	0.0147994
696.253	0.0147336
696.331	0.0147686
696.410	0.0148645
696.488	0.0146785
696.566	0.0147680
696.644	0.0147195
696.722	0.0147730
696.800	0.0147392
696.878	0.0148737
696.956	0.0148372
697.035	0.0148721
697.113	0.0146864
697.191	0.0147163
697.269	0.0146546
697.347	0.0147601
697.425	0.0146499
697.503	0.0147398
697.581	0.0148475
697.660	0.0147913
697.738	0.0146688
697.816	0.0146587
697.894	0.0148827
697.972	0.0148055
698.050	0.0148007
698.128	0.0146078
698.206	0.0147567
698.285	0.0147525
698.363	0.0147697
698.441	0.0148330
698.519	0.0147552
698.597	0.0147225
698.675	0.0147102
698.753	0.0146785
698.831	0.0146456
698.910	0.0146845
698.988	0.0147306
699.066	0.0147148
699.144	0.0147898
699.222	0.0148361
699.300	0.0148403
699.378	0.0147039
699.456	0.0146717
699.535	0.0147276
699.613	0.0147373
699.691	0.0147197
699.769	0.0147913
699.847	0.0146746
699.925	0.0146980
700.003	0.0147140
700.081	0.0147114
700.160	0.0148109
700.238	0.0147600
700.316	0.0146958
700.394	0.0148032
700.472	0.0148235
700.550	0.0147634
700.628	0.0148022
700.706	0.0146595
700.785	0.0146878
700.863	0.0147830
700.941	0.0147877
701.019	0.0146188
701.097	0.0147886
701.175	0.0146700
701.253	0.0146233
701.331	0.0148839
701.410	0.0148919
701.488	0.0146672
701.566	0.0146854
701.644	0.0147250
701.722	0.0147166
701.800	0.0146836
701.878	0.0147036
701.956	0.0147431
702.035	0.0147493
702.113	0.0148521
702.191	0.0147433
702.269	0.0147517
702.347	0.0147685
702.425	0.0147684
702.503	0.0146744
702.581	0.0146591
702.660	0.0147916
702.738	0.0147893
702.816	0.0148916
702.894	0.0147009
702.972	0.0148907
703.050	0.0149421
703.128	0.0148504
703.206	0.0148418
703.285	0.0148807
703.363	0.0146285
703.441	0.0147497
703.519	0.0147847
703.597	0.0146088
703.675	0.0146692
703.753	0.0145969
703.831	0.0145718
703.910	0.0147366
703.988	0.0146394
704.066	0.0145365
704.144	0.0146473
704.222	0.0147861
704.300	0.0146172
704.378	0.0148013
704.456	0.0148165
704.535	0.0147630
704.613	0.0147723
704.691	0.0148396
704.769	0.0148409
704.847	0.0148689
704.925	0.0148373
705.003	0.0149575
705.081	0.0149988
705.160	0.0151257
705.238	0.0150488
705.316	0.0150900
705.394	0.0150116
705.472	0.0150414
705.550	0.0150249
705.628	0.0149510
705.706	0.0149978
705.785	0.0150580
705.863	0.0150610
705.941	0.0150082
706.019	0.0149340
706.097	0.0149348
706.175	0.0149003
706.253	0.0147990
706.331	0.0147963
706.410	0.0148566
706.488	0.0148985
706.566	0.0148574
706.644	0.0147666
706.722	0.0147482
706.800	0.0147606
706.878	0.0147411
706.956	0.0148843
707.035	0.0148804
707.113	0.0147298
707.191	0.0147902
707.269	0.0147942
707.347	0.0148712
707.425	0.0148032
707.503	0.0149380
707.581	0.0148260
707.660	0.0147650
707.738	0.0146646
707.816	0.0149014
707.894	0.0146958
707.972	0.0146700
708.050	0.0145103
708.128	0.0144449
708.206	0.0143678
708.285	0.0143291
708.363	0.0141766
708.441	0.0140312
708.519	0.0137933
708.597	0.0135437
708.675	0.0132584
708.753	0.0130776
708.831	0.0126972
708.910	0.0121590
708.988	0.0117194
709.066	0.0113383
709.144	0.0110021
709.222	0.0107602
709.300	0.0107713
709.378	0.0109855
709.456	0.0115486
709.535	0.0123241
709.613	0.0132128
709.691	0.0142117
709.769	0.0153566
709.847	0.0165646
709.925	0.0176514
710.003	0.0185410
710.081	0.0192558
710.160	0.0196515
710.238	0.0197003
710.316	0.0195498
710.394	0.0192430
710.472	0.0187051
710.550	0.0181686
710.628	0.0175712
710.706	0.0170361
710.785	0.0163815
710.863	0.0158765
710.941	0.0153851
711.019	0.0150359
711.097	0.0149083
711.175	0.0146217
711.253	0.0147636
711.331	0.0150655
711.410	0.0153311
711.488	0.0158193
711.566	0.0167999
711.644	0.0175612
711.722	0.0182940
711.800	0.0190993
711.878	0.0194087
711.956	0.0194083
712.035	0.0188252
712.113	0.0178574
712.191	0.0165437
712.269	0.0150063
712.347	0.0131939
712.425	0.0111810
712.503	0.00916054
712.581	0.00753952
712.660	0.00630081
712.738	0.00559555
712.816	0.00502640
712.894	0.00498795
712.972	0.00535591
713.050	0.00581757
713.128	0.00655457
713.206	0.00748215
713.285	0.00831169
713.363	0.00946655
713.441	0.0108675
713.519	0.0121487
713.597	0.0135802
713.675	0.0150398
713.753	0.0161808
713.831	0.0174388
713.910	0.0186549
713.988	0.0199367
714.066	0.0213475
714.144	0.0225364
714.222	0.0236081
714.300	0.0246117
714.378	0.0254826
714.456	0.0261598
714.535	0.0263039
714.613	0.0261298
714.691	0.0255095
714.769	0.0244898
714.847	0.0232048
714.925	0.0216367
715.003	0.0196607
715.081	0.0175282
715.160	0.0153838
715.238	0.0132079
715.316	0.0111732
715.394	0.00934326
715.472	0.00767792
715.550	0.00646095
715.628	0.00558670
715.706	0.00498817
715.785	0.00485321
715.863	0.00518822
715.941	0.00551476
716.019	0.00605804
716.097	0.00682884
716.175	0.00787086
716.253	0.00881599
716.331	0.00991211
716.410	0.0112894
716.488	0.0124150
716.566	0.0134927
716.644	0.0144485
716.722	0.0153699
716.800	0.0161640
716.878	0.0167353
716.956	0.0172947
717.035	0.0178033
717.113	0.0182191
717.191	0.0184385
717.269	0.0187801
717.347	0.0190640
717.425	0.0193777
717.503	0.0194435
717.581	0.0197468
717.660	0.0198763
717.738	0.0197707
717.816	0.0197175
717.894	0.0197353
717.972	0.0196981
718.050	0.0191743
718.128	0.0186114
718.206	0.0181605
718.285	0.0177357
718.363	0.0170362
718.441	0.0163577
718.519	0.0156770
718.597	0.0152039
718.675	0.0147185
718.753	0.0141885
718.831	0.0135546
718.910	0.0132024
718.988	0.0128166
719.066	0.0125740
719.144	0.0120756
719.222	0.0120187
719.300	0.0118284
719.378	0.0115517
719.456	0.0115342
719.535	0.0112527
719.613	0.0112479
719.691	0.0110172
719.769	0.0110725
719.847	0.0109258
719.925	0.0108585
720.003	0.0109283
720.081	0.0108468
720.160	0.0111355
720.238	0.0112613
720.316	0.0113329
720.394	0.0114873
720.472	0.0115106
720.550	0.0119637
720.628	0.0120663
720.706	0.0124639
720.785	0.0128218
720.863	0.0132067
720.941	0.0138854
721.019	0.0142489
721.097	0.0148694
721.175	0.0155881
721.253	0.0163394
721.331	0.0167366
721.410	0.0172673
721.488	0.0177746
721.566	0.0180651
721.644	0.0181808
721.722	0.0185154
721.800	0.0184857
721.878	0.0185991
721.956	0.0185462
722.035	0.0185346
722.113	0.0184476
722.191	0.0181821
722.269	0.0182106
722.347	0.0181588
722.425	0.0179894
722.503	0.0179265
722.581	0.0176894
722.660	0.0176048
722.738	0.0174739
722.816	0.0171709
722.894	0.0168902
722.972	0.0167664
723.050	0.0165163
723.128	0.0160056
723.206	0.0157220
723.285	0.0154176
723.363	0.0151368
723.441	0.0147298
723.519	0.0144929
723.597	0.0141927
723.675	0.0135046
723.753	0.0132092
723.831	0.0128715
723.910	0.0123451
723.988	0.0121685
724.066	0.0117661
724.144	0.0111757
724.222	0.0109478
724.300	0.0105487
724.378	0.0101225
724.456	0.0101257
724.535	0.00998276
724.613	0.00996231
724.691	0.00984703
724.769	0.0101226
724.847	0.0101852
724.925	0.0105799
725.003	0.0108916
725.081	0.0114550
725.160	0.0119951
725.238	0.0124915
725.316	0.0129855
725.394	0.0135182
725.472	0.0139423
725.550	0.0144688
725.628	0.0149786
725.706	0.0155325
725.785	0.0159722
725.863	0.0165572
725.941	0.0169505
726.019	0.0174176
726.097	0.0178779
726.175	0.0181543
726.253	0.0184345
726.331	0.0183596
726.410	0.0184973
726.488	0.0186144
726.566	0.0184254
726.644	0.0185052
726.722	0.0183271
726.800	0.0181045
726.878	0.0180265
726.956	0.0179094
727.035	0.0175459
727.113	0.0173588
727.191	0.0172976
727.269	0.0169637
727.347	0.0166086
727.425	0.0164510
727.503	0.0161539
727.581	0.0158008
727.660	0.0158218
727.738	0.0155792
727.816	0.0154249
727.894	0.0151739
727.972	0.0150519
728.050	0.0150069
728.128	0.0148516
728.206	0.0146771
728.285	0.0146940
728.363	0.0146448
728.441	0.0146246
728.519	0.0145631
728.597	0.0147926
728.675	0.0145960
728.753	0.0144250
728.831	0.0144103
728.910	0.0141241
728.988	0.0138542
729.066	0.0135549
729.144	0.0131544
729.222	0.0129109
729.300	0.0126195
729.378	0.0124762
729.456	0.0121494
729.535	0.0119146
729.613	0.0118998
729.691	0.0117805
729.769	0.0117908
729.847	0.0116096
729.925	0.0115107
730.003	0.0116083
730.081	0.0115117
730.160	0.0116121
730.238	0.0115681
730.316	0.0118120
730.394	0.0120513
730.472	0.0121412
730.550	0.0124694
730.628	0.0127511
730.706	0.0131244
730.785	0.0134034
730.863	0.0135041
730.941	0.0137857
731.019	0.0140813
731.097	0.0145280
731.175	0.0147995
731.253	0.0149518
731.331	0.0153484
731.410	0.0155701
731.488	0.0159617
731.566	0.0160247
731.644	0.0162833
731.722	0.0165735
731.800	0.0169197
731.878	0.0172194
731.956	0.0175035
732.035	0.0177371
732.113	0.0179857
732.191	0.0180205
732.269	0.0183658
732.347	0.0184523
732.425	0.0185690
732.503	0.0183302
732.581	0.0184995
732.660	0.0182293
732.738	0.0181061
732.816	0.0177879
732.894	0.0173253
732.972	0.0169572
733.050	0.0168039
733.128	0.0164429
733.206	0.0161962
733.285	0.0159734
733.363	0.0155498
733.441	0.0152765
733.519	0.0151862
733.597	0.0149379
733.675	0.0148647
733.753	0.0146292
733.831	0.0144610
733.910	0.0142818
733.988	0.0142606
734.066	0.0140993
734.144	0.0140250
734.222	0.0138815
734.300	0.0137350
734.378	0.0136732
734.456	0.0135368
734.535	0.0133585
734.613	0.0131631
734.691	0.0130227
734.769	0.0125954
734.847	0.0123325
734.925	0.0122289
735.003	0.0119714
735.081	0.0117563
735.160	0.0116026
735.238	0.0116762
735.316	0.0115839
735.394	0.0115709
735.472	0.0119715
735.550	0.0120241
735.628	0.0122372
735.706	0.0124534
735.785	0.0126411
735.863	0.0129485
735.941	0.0132180
736.019	0.0135326
736.097	0.0138226
736.175	0.0141146
736.253	0.0143320
736.331	0.0145400
736.410	0.0146966
736.488	0.0151834
736.566	0.0152177
736.644	0.0153876
736.722	0.0154712
736.800	0.0156847
736.878	0.0157294
736.956	0.0157694
737.035	0.0157534
737.113	0.0157131
737.191	0.0157653
737.269	0.0159372
737.347	0.0160970
737.425	0.0158336
737.503	0.0159815
737.581	0.0160635
737.660	0.0160931
737.738	0.0161726
737.816	0.0162769
737.894	0.0161360
737.972	0.0162813
738.050	0.0161156
738.128	0.0161645
738.206	0.0162659
738.285	0.0161783
738.363	0.0159599
738.441	0.0159736
738.519	0.0159087
738.597	0.0159363
738.675	0.0158829
738.753	0.0158962
738.831	0.0157002
738.910	0.0156744
738.988	0.0156896
739.066	0.0157993
739.144	0.0154254
739.222	0.0154330
739.300	0.0153111
739.378	0.0152883
739.456	0.0151717
739.535	0.0151575
739.613	0.0152158
739.691	0.0150281
739.769	0.0150850
739.847	0.0149976
739.925	0.0150652
740.003	0.0149464
740.081	0.0149776
740.160	0.0150013
740.238	0.0147871
740.316	0.0147302
740.394	0.0146701
740.472	0.0147133
740.550	0.0144284
740.628	0.0141725
740.706	0.0142215
740.785	0.0137920
740.863	0.0135844
740.941	0.0133873
741.019	0.0132695
741.097	0.0130312
741.175	0.0128822
741.253	0.0127601
741.331	0.0127267
741.410	0.0126222
741.488	0.0126591
741.566	0.0127202
741.644	0.0128613
741.722	0.0129224
741.800	0.0132124
741.878	0.0132602
741.956	0.0133770
742.035	0.0134840
742.113	0.0135419
742.191	0.0136134
742.269	0.0136789
742.347	0.0138544
742.425	0.0139719
742.503	0.0140301
742.581	0.0138666
742.660	0.0138866
742.738	0.0140463
742.816	0.0142014
742.894	0.0141734
742.972	0.0142088
743.050	0.0143380
743.128	0.0143409
743.206	0.0145421
743.285	0.0146012
743.363	0.0147530
743.441	0.0149490
743.519	0.0149570
743.597	0.0152542
743.675	0.0153641
743.753	0.0156210
743.831	0.0157980
743.910	0.0160587
743.988	0.0162995
744.066	0.0162701
744.144	0.0165491
744.222	0.0166948
744.300	0.0167876
744.378	0.0169335
744.456	0.0169830
744.535	0.0169453
744.613	0.0169688
744.691	0.0169435
744.769	0.0170078
744.847	0.0168501
744.925	0.0166410
745.003	0.0165417
745.081	0.0164606
745.160	0.0163934
745.238	0.0162893
745.316	0.0160349
745.394	0.0157320
745.472	0.0155800
745.550	0.0155750
745.628	0.0153143
745.706	0.0152982
745.785	0.0150813
745.863	0.0148203
745.941	0.0147334
746.019	0.0145271
746.097	0.0145142
746.175	0.0143580
746.253	0.0144016
746.331	0.0140812
746.410	0.0139690
746.488	0.0138054
746.566	0.0137002
746.644	0.0136261
746.722	0.0134971
746.800	0.0134494
746.878	0.0133013
746.956	0.0133521
747.035	0.0131709
747.113	0.0132994
747.191	0.0132611
747.269	0.0131653
747.347	0.0133307
747.425	0.0132715
747.503	0.0132337
747.581	0.0132964
747.660	0.0133823
747.738	0.0134342
747.816	0.0132860
747.894	0.0133746
747.972	0.0134107
748.050	0.0135901
748.128	0.0135077
748.206	0.0134898
748.285	0.0137096
748.363	0.0137563
748.441	0.0139394
748.519	0.0141082
748.597	0.0141497
748.675	0.0142834
748.753	0.0144613
748.831	0.0146105
748.910	0.0148080
748.988	0.0148862
749.066	0.0151559
749.144	0.0151416
749.222	0.0152758
749.300	0.0152771
749.378	0.0154335
749.456	0.0154433
749.535	0.0155358
749.613	0.0155671
749.691	0.0156418
749.769	0.0156803
749.847	0.0158368
749.925	0.0157243
750.003	0.0156432
750.081	0.0157619
750.160	0.0157959
750.238	0.0157339
750.316	0.0156863
750.394	0.0157210
750.472	0.0156112
750.550	0.0156638
750.628	0.0155788
750.706	0.0155984
750.785	0.0154390
750.863	0.0155701
750.941	0.0154109
751.019	0.0153789
751.097	0.0154055
751.175	0.0153931
751.253	0.0154713
751.331	0.0153676
751.410	0.0154142
751.488	0.0155388
751.566	0.0155632
751.644	0.0155663
751.722	0.0157854
751.800	0.0155737
751.878	0.0155959
751.956	0.0156591
752.035	0.0156420
752.113	0.0154350
752.191	0.0156458
752.269	0.0155314
752.347	0.0155232
752.425	0.0156002
752.503	0.0152676
752.581	0.0154492
752.660	0.0151920
752.738	0.0151589
752.816	0.0150385
752.894	0.0149272
752.972	0.0146753
753.050	0.0146863
753.128	0.0144429
753.206	0.0143018
753.285	0.0141969
753.363	0.0141015
753.441	0.0140768
753.519	0.0138263
753.597	0.0137096
753.675	0.0137451
753.753	0.0136602
753.831	0.0136495
753.910	0.0135591
753.988	0.0135035
754.066	0.0134119
754.144	0.0133768
754.222	0.0131538
754.300	0.0131896
754.378	0.0132794
754.456	0.0132684
754.535	0.0132935
754.613	0.0131402
754.691	0.0132490
754.769	0.0133273
754.847	0.0133369
754.925	0.0133271
755.003	0.0134283
755.081	0.0137113
755.160	0.0137570
755.238	0.0138392
755.316	0.0140121
755.394	0.0142229
755.472	0.0142789
755.550	0.0144125
755.628	0.0144835
755.706	0.0146153
755.785	0.0146800
755.863	0.0149464
755.941	0.0149185
756.019	0.0150444
756.097	0.0150787
756.175	0.0153056
756.253	0.0152879
756.331	0.0153295
756.410	0.0154622
756.488	0.0156201
756.566	0.0156248
756.644	0.0157773
756.722	0.0157882
756.800	0.0159583
756.878	0.0160785
756.956	0.0161475
757.035	0.0161681
757.113	0.0162419
757.191	0.0162931
757.269	0.0161900
757.347	0.0162418
757.425	0.0160633
757.503	0.0160725
757.581	0.0161165
757.660	0.0158748
757.738	0.0157936
757.816	0.0157144
757.894	0.0157279
757.972	0.0156741
758.050	0.0152785
758.128	0.0152009
758.206	0.0151521
758.285	0.0149728
758.363	0.0148810
758.441	0.0148212
758.519	0.0146399
758.597	0.0145802
758.675	0.0145802
758.753	0.0146230
758.831	0.0146857
758.910	0.0146204
758.988	0.0145125
759.066	0.0146918
759.144	0.0145028
759.222	0.0145917
759.300	0.0147078
759.378	0.0145125
759.456	0.0146565
759.535	0.0147837
759.613	0.0145354
759.691	0.0145463
759.769	0.0145785
759.847	0.0146767
759.925	0.0146536
760.003	0.0145506
760.081	0.0146172
760.160	0.0145155
760.238	0.0143220
760.316	0.0143823
760.394	0.0141960
760.472	0.0140358
760.550	0.0139313
760.628	0.0137640
760.706	0.0135880
760.785	0.0135824
760.863	0.0136827
760.941	0.0135506
761.019	0.0136110
761.097	0.0136127
761.175	0.0136708
761.253	0.0136857
761.331	0.0137978
761.410	0.0138443
761.488	0.0138930
761.566	0.0141341
761.644	0.0139885
761.722	0.0140735
761.800	0.0141419
761.878	0.0142394
761.956	0.0141998
762.035	0.0143504
762.113	0.0143837
762.191	0.0144180
762.269	0.0146957
762.347	0.0147294
762.425	0.0148773
762.503	0.0149769
762.581	0.0148682
762.660	0.0149888
762.738	0.0152388
762.816	0.0152818
762.894	0.0153478
762.972	0.0153710
763.050	0.0153560
763.128	0.0152946
763.206	0.0153586
763.285	0.0154587
763.363	0.0154191
763.441	0.0153122
763.519	0.0154804
763.597	0.0154959
763.675	0.0153625
763.753	0.0154202
763.831	0.0153957
763.910	0.0154668
763.988	0.0154878
764.066	0.0155071
764.144	0.0154415
764.222	0.0155151
764.300	0.0155096
764.378	0.0157231
764.456	0.0156589
764.535	0.0156155
764.613	0.0154874
764.691	0.0154333
764.769	0.0154003
764.847	0.0153710
764.925	0.0153013
765.003	0.0152570
765.081	0.0150525
765.160	0.0150521
765.238	0.0150210
765.316	0.0147921
765.394	0.0148537
765.472	0.0149638
765.550	0.0147723
765.628	0.0147495
765.706	0.0145670
765.785	0.0147202
765.863	0.0146103
765.941	0.0143253
766.019	0.0144276
766.097	0.0143948
766.175	0.0142657
766.253	0.0141933
766.331	0.0143197
766.410	0.0142959
766.488	0.0142627
766.566	0.0142217
766.644	0.0142760
766.722	0.0142373
766.800	0.0142166
766.878	0.0143914
766.956	0.0142998
767.035	0.0142757
767.113	0.0142916
767.191	0.0143394
767.269	0.0143941
767.347	0.0144357
767.425	0.0140895
767.503	0.0141155
767.581	0.0143191
767.660	0.0141628
767.738	0.0141021
767.816	0.0141401
767.894	0.0140707
767.972	0.0140651
768.050	0.0140486
768.128	0.0141142
768.206	0.0140459
768.285	0.0142045
768.363	0.0141695
768.441	0.0140862
768.519	0.0141602
768.597	0.0141290
768.675	0.0142948
768.753	0.0143890
768.831	0.0144293
768.910	0.0145706
768.988	0.0145583
769.066	0.0144099
769.144	0.0145888
769.222	0.0146135
769.300	0.0146123
769.378	0.0148039
769.456	0.0147763
769.535	0.0149263
769.613	0.0148248
769.691	0.0149688
769.769	0.0150495
769.847	0.0149799
769.925	0.0150610
770.003	0.0152579
770.081	0.0150725
770.160	0.0152223
770.238	0.0151656
770.316	0.0150488
770.394	0.0152412
770.472	0.0153673
770.550	0.0153379
770.628	0.0152947
770.706	0.0152777
770.785	0.0153077
770.863	0.0153268
770.941	0.0154362
771.019	0.0152467
771.097	0.0152135
771.175	0.0153271
771.253	0.0153532
771.331	0.0152883
771.410	0.0152108
771.488	0.0150686
771.566	0.0151802
771.644	0.0152093
771.722	0.0151702
771.800	0.0149536
771.878	0.0149538
771.956	0.0150189
772.035	0.0150085
772.113	0.0149902
772.191	0.0149558
772.269	0.0149708
772.347	0.0149729
772.425	0.0150980
772.503	0.0150360
772.581	0.0150529
772.660	0.0152003
772.738	0.0151636
772.816	0.0150212
772.894	0.0150155
772.972	0.0151817
773.050	0.0151504
773.128	0.0150066
773.206	0.0149189
773.285	0.0148556
773.363	0.0149744
773.441	0.0148394
773.519	0.0146764
773.597	0.0145407
773.675	0.0145377
773.753	0.0143974
773.831	0.0144067
773.910	0.0142802
773.988	0.0142108
774.066	0.0140747
774.144	0.0139639
774.222	0.0139269
774.300	0.0138995
774.378	0.0136964
774.456	0.0135889
774.535	0.0136501
774.613	0.0136573
774.691	0.0135332
774.769	0.0135197
774.847	0.0137602
774.925	0.0135424
775.003	0.0136202
775.081	0.0138385
775.160	0.0137933
775.238	0.0139013
775.316	0.0139017
775.394	0.0141302
775.472	0.0142521
775.550	0.0142976
775.628	0.0143359
775.706	0.0144794
775.785	0.0144690
775.863	0.0146179
775.941	0.0147298
776.019	0.0146177
776.097	0.0147767
776.175	0.0149255
776.253	0.0149828
776.331	0.0148930
776.410	0.0148979
776.488	0.0150526
776.566	0.0150401
776.644	0.0151506
776.722	0.0152614
776.800	0.0153032
776.878	0.0151717
776.956	0.0152287
777.035	0.0153706
777.113	0.0155179
777.191	0.0154745
777.269	0.0153640
777.347	0.0154853
777.425	0.0155244
777.503	0.0154993
777.581	0.0155307
777.660	0.0155299
777.738	0.0155070
777.816	0.0155602
777.894	0.0155898
777.972	0.0153751
778.050	0.0152953
778.128	0.0152724
778.206	0.0153066
778.285	0.0153849
778.363	0.0154000
778.441	0.0151882
778.519	0.0152358
778.597	0.0151922
778.675	0.0150902
778.753	0.0151777
778.831	0.0150632
778.910	0.0150481
778.988	0.0149758
779.066	0.0150375
779.144	0.0149370
779.222	0.0150631
779.300	0.0150693
779.378	0.0149272
779.456	0.0147821
779.535	0.0149187
779.613	0.0148358
779.691	0.0149406
779.769	0.0149319
779.847	0.0149089
779.925	0.0148479
780.003	0.0147351
780.081	0.0148899
780.160	0.0148881
780.238	0.0148251
780.316	0.0147168
780.394	0.0146324
780.472	0.0146367
780.550	0.0146883
780.628	0.0146033
780.706	0.0145767
780.785	0.0145930
780.863	0.0144674
780.941	0.0145812
781.019	0.0145246
781.097	0.0144677
781.175	0.0144416
781.253	0.0142425
781.331	0.0142789
781.410	0.0143776
781.488	0.0143876
781.566	0.0141405
781.644	0.0143271
781.722	0.0142130
781.800	0.0141413
781.878	0.0143120
781.956	0.0143654
782.035	0.0143619
782.113	0.0143299
782.191	0.0143700
782.269	0.0143047
782.347	0.0142176
782.425	0.0142474
782.503	0.0143282
782.581	0.0144231
782.660	0.0143518
782.738	0.0143818
782.816	0.0144358
782.894	0.0144778
782.972	0.0142931
783.050	0.0144738
783.128	0.0146175
783.206	0.0147011
783.285	0.0147782
783.363	0.0147782
783.441	0.0147731
783.519	0.0150112
783.597	0.0150241
783.675	0.0150009
783.753	0.0150266
783.831	0.0152183
783.910	0.0151929
783.988	0.0152744
784.066	0.0152753
784.144	0.0150264
784.222	0.0152508
784.300	0.0153433
784.378	0.0151470
784.456	0.0153075
784.535	0.0151110
784.613	0.0151896
784.691	0.0154339
784.769	0.0152801
784.847	0.0152613
784.925	0.0152805
785.003	0.0152299
785.081	0.0153315
785.160	0.0152504
785.238	0.0151589
785.316	0.0152927
785.394	0.0152141
785.472	0.0151266
785.550	0.0151289
785.628	0.0152036
785.706	0.0151049
785.785	0.0151775
785.863	0.0151029
785.941	0.0151470
786.019	0.0151302
786.097	0.0149603
786.175	0.0149339
786.253	0.0149055
786.331	0.0149474
786.410	0.0148672
786.488	0.0147417
786.566	0.0147070
786.644	0.0145679
786.722	0.0146452
786.800	0.0145397
786.878	0.0144054
786.956	0.0144396
787.035	0.0144236
787.113	0.0144470
787.191	0.0144362
787.269	0.0144018
787.347	0.0144196
787.425	0.0144200
787.503	0.0143741
787.581	0.0143771
787.660	0.0144218
787.738	0.0144476
787.816	0.0144185
787.894	0.0144469
787.972	0.0144070
788.050	0.0143969
788.128	0.0145819
788.206	0.0145129
788.285	0.0144878
788.363	0.0143866
788.441	0.0145148
788.519	0.0143781
788.597	0.0144098
788.675	0.0144514
788.753	0.0145396
788.831	0.0144996
788.910	0.0143829
788.988	0.0143391
789.066	0.0144431
789.144	0.0144183
789.222	0.0144389
789.300	0.0144614
789.378	0.0145053
789.456	0.0144020
789.535	0.0144871
789.613	0.0144321
789.691	0.0144704
789.769	0.0144346
789.847	0.0145005
789.925	0.0143890
790.003	0.0144952
790.081	0.0145579
790.160	0.0145187
790.238	0.0145911
790.316	0.0146484
790.394	0.0146153
790.472	0.0146387
790.550	0.0147693
790.628	0.0146161
790.706	0.0147121
790.785	0.0147288
790.863	0.0148883
790.941	0.0146702
791.019	0.0147301
791.097	0.0149217
791.175	0.0149286
791.253	0.0149174
791.331	0.0150022
791.410	0.0149319
791.488	0.0148861
791.566	0.0150361
791.644	0.0149755
791.722	0.0150585
791.800	0.0149472
791.878	0.0151027
791.956	0.0149582
792.035	0.0151244
792.113	0.0150199
792.191	0.0151604
792.269	0.0151764
792.347	0.0153471
792.425	0.0152883
792.503	0.0152229
792.581	0.0151170
792.660	0.0152946
792.738	0.0152840
792.816	0.0152856
792.894	0.0152455
792.972	0.0151949
793.050	0.0151534
793.128	0.0150918
793.206	0.0151389
793.285	0.0151065
793.363	0.0151189
793.441	0.0151418
793.519	0.0149982
793.597	0.0150993
793.675	0.0150405
793.753	0.0151205
793.831	0.0149063
793.910	0.0149044
793.988	0.0147726
794.066	0.0148746
794.144	0.0148594
794.222	0.0148653
794.300	0.0147673
794.378	0.0146987
794.456	0.0145507
794.535	0.0146587
794.613	0.0145139
794.691	0.0144999
794.769	0.0143829
794.847	0.0143679
794.925	0.0142962
795.003	0.0143310
795.081	0.0143084
795.160	0.0143172
795.238	0.0142860
795.316	0.0142052
795.394	0.0141505
795.472	0.0140594
795.550	0.0140961
795.628	0.0140742
795.706	0.0139864
795.785	0.0140405
795.863	0.0140314
795.941	0.0140484
796.019	0.0141194
796.097	0.0141946
796.175	0.0141231
796.253	0.0141036
796.331	0.0142072
796.410	0.0143752
796.488	0.0143564
796.566	0.0143266
796.644	0.0144987
796.722	0.0144930
796.800	0.0144114
796.878	0.0146028
796.956	0.0146098
797.035	0.0147052
797.113	0.0147078
797.191	0.0147209
797.269	0.0147025
797.347	0.0147377
797.425	0.0146886
797.503	0.0149110
797.581	0.0147957
797.660	0.0149398
797.738	0.0150369
797.816	0.0148913
797.894	0.0147624
797.972	0.0147098
798.050	0.0148419
798.128	0.0147582
798.206	0.0149060
798.285	0.0148069
798.363	0.0148363
798.441	0.0147553
798.519	0.0148405
798.597	0.0148478
798.675	0.0150406
798.753	0.0149150
798.831	0.0147802
798.910	0.0148081
798.988	0.0148678
799.066	0.0148461
799.144	0.0148972
799.222	0.0148986
799.300	0.0148617
799.378	0.0147529
799.456	0.0149557
799.535	0.0149200
799.613	0.0150691
799.691	0.0149945
799.769	0.0149394
799.847	0.0148885
799.925	0.0148704
800.003	0.0148871
800.081	0.0148360
800.160	0.0149629
800.238	0.0149267
800.316	0.0149861
800.394	0.0150475
800.472	0.0149692
800.550	0.0150130
800.628	0.0151498
800.706	0.0150822
800.785	0.0150393
800.863	0.0150807
800.941	0.0151360
801.019	0.0150650
801.097	0.0150985
801.175	0.0150375
801.253	0.0151385
801.331	0.0151184
801.410	0.0149657
801.488	0.0150684
801.566	0.0150068
801.644	0.0149911
801.722	0.0149346
801.800	0.0149500
801.878	0.0148911
801.956	0.0146419
802.035	0.0145940
802.113	0.0144688
802.191	0.0144398
802.269	0.0144601
802.347	0.0143130
802.425	0.0140980
802.503	0.0142181
802.581	0.0142334
802.660	0.0143142
802.738	0.0142194
802.816	0.0141029
802.894	0.0142838
802.972	0.0141859
803.050	0.0142558
803.128	0.0142540
803.206	0.0140379
803.285	0.0142437
803.363	0.0142085
803.441	0.0141864
803.519	0.0140950
803.597	0.0141769
803.675	0.0141476
803.753	0.0140927
803.831	0.0141407
803.910	0.0140831
803.988	0.0141366
804.066	0.0141560
804.144	0.0142725
804.222	0.0143468
804.300	0.0142945
804.378	0.0145067
804.456	0.0145451
804.535	0.0145856
804.613	0.0146584
804.691	0.0146404
804.769	0.0146468
804.847	0.0145787
804.925	0.0146836
805.003	0.0145857
805.081	0.0144966
805.160	0.0146136
805.238	0.0145520
805.316	0.0144090
805.394	0.0143752
805.472	0.0145219
805.550	0.0144171
805.628	0.0146074
805.706	0.0144383
805.785	0.0144987
805.863	0.0146129
805.941	0.0146325
806.019	0.0146951
806.097	0.0147543
806.175	0.0149830
806.253	0.0152395
806.331	0.0154079
806.410	0.0157817
806.488	0.0158871
806.566	0.0161369
806.644	0.0160577
806.722	0.0161058
806.800	0.0161980
806.878	0.0160268
806.956	0.0158328
807.035	0.0156816
807.113	0.0154374
807.191	0.0153056
807.269	0.0152386
807.347	0.0150244
807.425	0.0150519
807.503	0.0148948
807.581	0.0149274
807.660	0.0150819
807.738	0.0150690
807.816	0.0150867
807.894	0.0150443
807.972	0.0152058
808.050	0.0150860
808.128	0.0151906
808.206	0.0152718
808.285	0.0153571
808.363	0.0152055
808.441	0.0151009
808.519	0.0152379
808.597	0.0151138
808.675	0.0150367
808.753	0.0148923
808.831	0.0145577
808.910	0.0144620
808.988	0.0142046
809.066	0.0138570
809.144	0.0134895
809.222	0.0133875
809.300	0.0131483
809.378	0.0131879
809.456	0.0130440
809.535	0.0130753
809.613	0.0130164
809.691	0.0131889
809.769	0.0133233
809.847	0.0134415
809.925	0.0137608
810.003	0.0139305
810.081	0.0141809
810.160	0.0144131
810.238	0.0146187
810.316	0.0148421
810.394	0.0150530
810.472	0.0151704
810.550	0.0154500
810.628	0.0156671
810.706	0.0157024
810.785	0.0158264
810.863	0.0157610
810.941	0.0157561
811.019	0.0159629
811.097	0.0156273
811.175	0.0156712
811.253	0.0156168
811.331	0.0156611
811.410	0.0155083
811.488	0.0152305
811.566	0.0152523
811.644	0.0150678
811.722	0.0148100
811.800	0.0146590
811.878	0.0145235
811.956	0.0141499
812.035	0.0140842
812.113	0.0141138
812.191	0.0139357
812.269	0.0138750
812.347	0.0138800
812.425	0.0137430
812.503	0.0138551
812.581	0.0140140
812.660	0.0141151
812.738	0.0143366
812.816	0.0141470
812.894	0.0143819
812.972	0.0145024
813.050	0.0145676
813.128	0.0145772
813.206	0.0149186
813.285	0.0148096
813.363	0.0150013
813.441	0.0150630
813.519	0.0151794
813.597	0.0153842
813.675	0.0151944
813.753	0.0152678
813.831	0.0154335
813.910	0.0153999
813.988	0.0156030
814.066	0.0155601
814.144	0.0154993
814.222	0.0155659
814.300	0.0155319
814.378	0.0155254
814.456	0.0156513
814.535	0.0155775
814.613	0.0155288
814.691	0.0155653
814.769	0.0155096
814.847	0.0155486
814.925	0.0153948
815.003	0.0153990
815.081	0.0152946
815.160	0.0153390
815.238	0.0151434
815.316	0.0149764
815.394	0.0149448
815.472	0.0147901
815.550	0.0145975
815.628	0.0145045
815.706	0.0142050
815.785	0.0142274
815.863	0.0141565
815.941	0.0139437
816.019	0.0138499
816.097	0.0138547
816.175	0.0136377
816.253	0.0135828
816.331	0.0135324
816.410	0.0135046
816.488	0.0134171
816.566	0.0133722
816.644	0.0135611
816.722	0.0136525
816.800	0.0136494
816.878	0.0137909
816.956	0.0138033
817.035	0.0139069
817.113	0.0141419
817.191	0.0142404
817.269	0.0143823
817.347	0.0146017
817.425	0.0148035
817.503	0.0148256
817.581	0.0150130
817.660	0.0150510
817.738	0.0150130
817.816	0.0152831
817.894	0.0152000
817.972	0.0150578
818.050	0.0151442
818.128	0.0151221
818.206	0.0149824
818.285	0.0150433
818.363	0.0150301
818.441	0.0150579
818.519	0.0150159
818.597	0.0151224
818.675	0.0150645
818.753	0.0150746
818.831	0.0150163
818.910	0.0150752
818.988	0.0149887
819.066	0.0150408
819.144	0.0149700
819.222	0.0149157
819.300	0.0147472
819.378	0.0148992
819.456	0.0147945
819.535	0.0147292
819.613	0.0146582
819.691	0.0145284
819.769	0.0145445
819.847	0.0146176
819.925	0.0146090
820.003	0.0146075
820.081	0.0144152
820.160	0.0146742
820.238	0.0146329
820.316	0.0145930
820.394	0.0146774
820.472	0.0146264
820.550	0.0146439
820.628	0.0145364
820.706	0.0146419
820.785	0.0146867
820.863	0.0147146
820.941	0.0146979
821.019	0.0147066
821.097	0.0146731
821.175	0.0146330
821.253	0.0147379
821.331	0.0145701
821.410	0.0145000
821.488	0.0144190
821.566	0.0146321
821.644	0.0147308
821.722	0.0146409
821.800	0.0146278
821.878	0.0146429
821.956	0.0146841
822.035	0.0148017
822.113	0.0147437
822.191	0.0148701
822.269	0.0149374
822.347	0.0149150
822.425	0.0147970
822.503	0.0148075
822.581	0.0147966
822.660	0.0150507
822.738	0.0149166
822.816	0.0149096
822.894	0.0149035
822.972	0.0147151
823.050	0.0148618
823.128	0.0149263
823.206	0.0148161
823.285	0.0149478
823.363	0.0149920
823.441	0.0150157
823.519	0.0150673
823.597	0.0151953
823.675	0.0151127
823.753	0.0153046
823.831	0.0152452
823.910	0.0152921
823.988	0.0150642
824.066	0.0150189
824.144	0.0151649
824.222	0.0150241
824.300	0.0148856
824.378	0.0148005
824.456	0.0148740
824.535	0.0147504
824.613	0.0146285
824.691	0.0144438
824.769	0.0143350
824.847	0.0142464
824.925	0.0141960
825.003	0.0141875
825.081	0.0141635
825.160	0.0141148
825.238	0.0142215
825.316	0.0139672
825.394	0.0139771
825.472	0.0141782
825.550	0.0140109
825.628	0.0139703
825.706	0.0140142
825.785	0.0140972
825.863	0.0140064
825.941	0.0141393
826.019	0.0140734
826.097	0.0140730
826.175	0.0141137
826.253	0.0140925
826.331	0.0141684
826.410	0.0142405
826.488	0.0142177
826.566	0.0143915
826.644	0.0145733
826.722	0.0145348
826.800	0.0146263
826.878	0.0146119
826.956	0.0148212
827.035	0.0148885
827.113	0.0150069
827.191	0.0150418
827.269	0.0150172
827.347	0.0150465
827.425	0.0150456
827.503	0.0151254
827.581	0.0152165
827.660	0.0151396
827.738	0.0151173
827.816	0.0151454
827.894	0.0150834
827.972	0.0151717
828.050	0.0151553
828.128	0.0152132
828.206	0.0151501
828.285	0.0151533
828.363	0.0152735
828.441	0.0154333
828.519	0.0154176
828.597	0.0153907
828.675	0.0155485
828.753	0.0155696
828.831	0.0155774
828.910	0.0155712
828.988	0.0155286
829.066	0.0155841
829.144	0.0156039
829.222	0.0155058
829.300	0.0153848
829.378	0.0154099
829.456	0.0152867
829.535	0.0152259
829.613	0.0152428
829.691	0.0152002
829.769	0.0151604
829.847	0.0151473
829.925	0.0151306
830.003	0.0149751
830.081	0.0148556
830.160	0.0149089
830.238	0.0148007
830.316	0.0147807
830.394	0.0147124
830.472	0.0145251
830.550	0.0146763
830.628	0.0145510
830.706	0.0143304
830.785	0.0143884
830.863	0.0145338
830.941	0.0144856
831.019	0.0144338
831.097	0.0145248
831.175	0.0144350
831.253	0.0142535
831.331	0.0143217
831.410	0.0142390
831.488	0.0142339
831.566	0.0140583
831.644	0.0140623
831.722	0.0138058
831.800	0.0137527
831.878	0.0135936
831.956	0.0135581
832.035	0.0134928
832.113	0.0133070
832.191	0.0133067
832.269	0.0133649
832.347	0.0134855
832.425	0.0135585
832.503	0.0136489
832.581	0.0139230
832.660	0.0142148
832.738	0.0143050
832.816	0.0143784
832.894	0.0146443
832.972	0.0146470
833.050	0.0148209
833.128	0.0150689
833.206	0.0151198
833.285	0.0152814
833.363	0.0152956
833.441	0.0153128
833.519	0.0155589
833.597	0.0155454
833.675	0.0154809
833.753	0.0155537
833.831	0.0156815
833.910	0.0158508
833.988	0.0157951
834.066	0.0159622
834.144	0.0159456
834.222	0.0157816
834.300	0.0157547
834.378	0.0156893
834.456	0.0154575
834.535	0.0153287
834.613	0.0153519
834.691	0.0151915
834.769	0.0150323
834.847	0.0150276
834.925	0.0147466
835.003	0.0146864
835.081	0.0147712
835.160	0.0146039
835.238	0.0146382
835.316	0.0147453
835.394	0.0148767
835.472	0.0149034
835.550	0.0151390
835.628	0.0151518
835.706	0.0151644
835.785	0.0152056
835.863	0.0153187
835.941	0.0151195
836.019	0.0153013
836.097	0.0153071
836.175	0.0152455
836.253	0.0152104
836.331	0.0150747
836.410	0.0148744
836.488	0.0145731
836.566	0.0145578
836.644	0.0143532
836.722	0.0144157
836.800	0.0142751
836.878	0.0142699
836.956	0.0139619
837.035	0.0141010
837.113	0.0140078
837.191	0.0140434
837.269	0.0142251
837.347	0.0143369
837.425	0.0144570
837.503	0.0145563
837.581	0.0146573
837.660	0.0146925
837.738	0.0146498
837.816	0.0148645
837.894	0.0150302
837.972	0.0150319
838.050	0.0149113
838.128	0.0148342
838.206	0.0147764
838.285	0.0148064
838.363	0.0147055
838.441	0.0145678
838.519	0.0146526
838.597	0.0144382
838.675	0.0142756
838.753	0.0143385
838.831	0.0143734
838.910	0.0140986
838.988	0.0142047
839.066	0.0141950
839.144	0.0143531
839.222	0.0143548
839.300	0.0143343
839.378	0.0142250
839.456	0.0143271
839.535	0.0144277
839.613	0.0145718
839.691	0.0145242
839.769	0.0144619
839.847	0.0144627
839.925	0.0145699
840.003	0.0146294
840.081	0.0146162
840.160	0.0148775
840.238	0.0148167
840.316	0.0149858
840.394	0.0149675
840.472	0.0150317
840.550	0.0151517
840.628	0.0152627
840.706	0.0153305
840.785	0.0152757
840.863	0.0153224
840.941	0.0153060
841.019	0.0152062
841.097	0.0152413
841.175	0.0152858
841.253	0.0152705
841.331	0.0151842
841.410	0.0152618
841.488	0.0150267
841.566	0.0149357
841.644	0.0149513
841.722	0.0150870
841.800	0.0149986
841.878	0.0147318
841.956	0.0148158
842.035	0.0148010
842.113	0.0148307
842.191	0.0148571
842.269	0.0149706
842.347	0.0148986
842.425	0.0148817
842.503	0.0150592
842.581	0.0151099
842.660	0.0151081
842.738	0.0150626
842.816	0.0149891
842.894	0.0150099
842.972	0.0147885
843.050	0.0147449
843.128	0.0146999
843.206	0.0146935
843.285	0.0146578
843.363	0.0144408
843.441	0.0144092
843.519	0.0143874
843.597	0.0141158
843.675	0.0141916
843.753	0.0143027
843.831	0.0142374
843.910	0.0143344
843.988	0.0143645
844.066	0.0143149
844.144	0.0143976
844.222	0.0144854
844.300	0.0145601
844.378	0.0147865
844.456	0.0147392
844.535	0.0149404
844.613	0.0149390
844.691	0.0148988
844.769	0.0150088
844.847	0.0150846
844.925	0.0152171
845.003	0.0151433
845.081	0.0151962
845.160	0.0151109
845.238	0.0152206
845.316	0.0152880
845.394	0.0150508
845.472	0.0149417
845.550	0.0149879
845.628	0.0149891
845.706	0.0149796
845.785	0.0147951
845.863	0.0147309
845.941	0.0146867
846.019	0.0146586
846.097	0.0145924
846.175	0.0146931
846.253	0.0145927
846.331	0.0145351
846.410	0.0145493
846.488	0.0147236
846.566	0.0148010
846.644	0.0145544
846.722	0.0145298
846.800	0.0146298
846.878	0.0145976
846.956	0.0146158
847.035	0.0147708
847.113	0.0148141
847.191	0.0146939
847.269	0.0146441
847.347	0.0148016
847.425	0.0147962
847.503	0.0148398
847.581	0.0149087
847.660	0.0149198
847.738	0.0147163
847.816	0.0146996
847.894	0.0146376
847.972	0.0146864
848.050	0.0146002
848.128	0.0146365
848.206	0.0147083
848.285	0.0145588
848.363	0.0147565
848.441	0.0146667
848.519	0.0146577
848.597	0.0148786
848.675	0.0148788
848.753	0.0147448
848.831	0.0147748
848.910	0.0148199
848.988	0.0148853
849.066	0.0148912
849.144	0.0149180
849.222	0.0149445
849.300	0.0150542
849.378	0.0150296
849.456	0.0149826
849.535	0.0150757
849.613	0.0150562
849.691	0.0150787
849.769	0.0150520
849.847	0.0149992
849.925	0.0149015
850.003	0.0149100
850.081	0.0149808
850.160	0.0149524
850.238	0.0150815
850.316	0.0148427
850.394	0.0149329
850.472	0.0149368
850.550	0.0148438
850.628	0.0147826
850.706	0.0148014
850.785	0.0147559
850.863	0.0147414
850.941	0.0145763
851.019	0.0145496
851.097	0.0145665
851.175	0.0147548
851.253	0.0146385
851.331	0.0145393
851.410	0.0144347
851.488	0.0145001
851.566	0.0145299
851.644	0.0146310
851.722	0.0145888
851.800	0.0147314
851.878	0.0147736
851.956	0.0147401
852.035	0.0147031
852.113	0.0147377
852.191	0.0148007
852.269	0.0147143
852.347	0.0146912
852.425	0.0147308
852.503	0.0148940
852.581	0.0148071
852.660	0.0147875
852.738	0.0146476
852.816	0.0148109
852.894	0.0148633
852.972	0.0147235
853.050	0.0148374
853.128	0.0147261
853.206	0.0147066
853.285	0.0149144
853.363	0.0148122
853.441	0.0148641
853.519	0.0147130
853.597	0.0147740
853.675	0.0148257
853.753	0.0147540
853.831	0.0147571
853.910	0.0147388
853.988	0.0146881
854.066	0.0147195
854.144	0.0147437
854.222	0.0146676
854.300	0.0146701
854.378	0.0146625
854.456	0.0145367
854.535	0.0146572
854.613	0.0146793
854.691	0.0147079
854.769	0.0146601
854.847	0.0147075
854.925	0.0146562
855.003	0.0146866
855.081	0.0147353
855.160	0.0146634
855.238	0.0147898
855.316	0.0147044
855.394	0.0148893
855.472	0.0148629
855.550	0.0148327
855.628	0.0147617
855.706	0.0148544
855.785	0.0149737
855.863	0.0150565
855.941	0.0150682
856.019	0.0149860
856.097	0.0151422
856.175	0.0151714
856.253	0.0150866
856.331	0.0151407
856.410	0.0150996
856.488	0.0150857
856.566	0.0149673
856.644	0.0148947
856.722	0.0150862
856.800	0.0149012
856.878	0.0148568
856.956	0.0148774
857.035	0.0148116
857.113	0.0146240
857.191	0.0146645
857.269	0.0147563
857.347	0.0146772
857.425	0.0146181
857.503	0.0146650
857.581	0.0148136
857.660	0.0147639
857.738	0.0146948
857.816	0.0147636
857.894	0.0148994
857.972	0.0149062
858.050	0.0147753
858.128	0.0149198
858.206	0.0147163
858.285	0.0149064
858.363	0.0149292
858.441	0.0147638
858.519	0.0148821
858.597	0.0149225
858.675	0.0147012
858.753	0.0147513
858.831	0.0148705
858.910	0.0146602
858.988	0.0147554
859.066	0.0147040
859.144	0.0147207
859.222	0.0147766
859.300	0.0148320
859.378	0.0146877
859.456	0.0147269
859.535	0.0148468
859.613	0.0149139
859.691	0.0146886
859.769	0.0148022
859.847	0.0148569
859.925	0.0148659
860.003	0.0148794
860.081	0.0148984
860.160	0.0148853
860.238	0.0149730
860.316	0.0150228
860.394	0.0149569
860.472	0.0149181
860.550	0.0148514
860.628	0.0149111
860.706	0.0149540
860.785	0.0149429
860.863	0.0147855
860.941	0.0149159
861.019	0.0148787
861.097	0.0147065
861.175	0.0148057
861.253	0.0147980
861.331	0.0146855
861.410	0.0144608
861.488	0.0146066
861.566	0.0146760
861.644	0.0146199
861.722	0.0147144
861.800	0.0145387
861.878	0.0145340
861.956	0.0145519
862.035	0.0145063
862.113	0.0145187
862.191	0.0144902
862.269	0.0144214
862.347	0.0145589
862.425	0.0147676
862.503	0.0144734
862.581	0.0146251
862.660	0.0145410
862.738	0.0145564
862.816	0.0146645
862.894	0.0146682
862.972	0.0145975
863.050	0.0146592
863.128	0.0146896
863.206	0.0145586
863.285	0.0144788
863.363	0.0145621
863.441	0.0146529
863.519	0.0145923
863.597	0.0144405
863.675	0.0146450
863.753	0.0146154
863.831	0.0145304
863.910	0.0148085
863.988	0.0147633
864.066	0.0149480
864.144	0.0149566
864.222	0.0149909
864.300	0.0150357
864.378	0.0150860
864.456	0.0151240
864.535	0.0152007
864.613	0.0152602
864.691	0.0152898
864.769	0.0152574
864.847	0.0153118
864.925	0.0152275
865.003	0.0153498
865.081	0.0154626
865.160	0.0152952
865.238	0.0150815
865.316	0.0152192
865.394	0.0151956
865.472	0.0150243
865.550	0.0150816
865.628	0.0149194
865.706	0.0150804
865.785	0.0149337
865.863	0.0147868
865.941	0.0146455
866.019	0.0146826
866.097	0.0147018
866.175	0.0146749
866.253	0.0146084
866.331	0.0144790
866.410	0.0145350
866.488	0.0146820
866.566	0.0147232
866.644	0.0144832
866.722	0.0145089
866.800	0.0144145
866.878	0.0146442
866.956	0.0146196
867.035	0.0145019
867.113	0.0146364
867.191	0.0145909
867.269	0.0144875
867.347	0.0145296
867.425	0.0146070
867.503	0.0146544
867.581	0.0146275
867.660	0.0145498
867.738	0.0145107
867.816	0.0146825
867.894	0.0146236
867.972	0.0146925
868.050	0.0145934
868.128	0.0146201
868.206	0.0146255
868.285	0.0146021
868.363	0.0146227
868.441	0.0146102
868.519	0.0147638
868.597	0.0147139
868.675	0.0146753
868.753	0.0147629
868.831	0.0146420
868.910	0.0147026
868.988	0.0147619
869.066	0.0148167
869.144	0.0148278
869.222	0.0147885
869.300	0.0148038
869.378	0.0150025
869.456	0.0147233
869.535	0.0148505
869.613	0.0149991
869.691	0.0147037
869.769	0.0148504
869.847	0.0147947
869.925	0.0147781
870.003	0.0147906
870.081	0.0146613
870.160	0.0146494
870.238	0.0147622
870.316	0.0145581
870.394	0.0146364
870.472	0.0147591
870.550	0.0147078
870.628	0.0147947
870.706	0.0148641
870.785	0.0148481
870.863	0.0146666
870.941	0.0149776
871.019	0.0148781
871.097	0.0148376
871.175	0.0149274
871.253	0.0148888
871.331	0.0149290
871.410	0.0149662
871.488	0.0150993
871.566	0.0150587
871.644	0.0149572
871.722	0.0150062
871.800	0.0150390
871.878	0.0149738
871.956	0.0150332
872.035	0.0149949
872.113	0.0148272
872.191	0.0148300
872.269	0.0148333
872.347	0.0147264
872.425	0.0148080
872.503	0.0147180
872.581	0.0148172
872.660	0.0146088
872.738	0.0146682
872.816	0.0146363
872.894	0.0146688
872.972	0.0147007
873.050	0.0146545
873.128	0.0147195
873.206	0.0146874
873.285	0.0146475
873.363	0.0148492
873.441	0.0148214
873.519	0.0148912
873.597	0.0148350
873.675	0.0148708
873.753	0.0151214
873.831	0.0150457
873.910	0.0151254
873.988	0.0151485
874.066	0.0151324
874.144	0.0150523
874.222	0.0149902
874.300	0.0149793
874.378	0.0149243
874.456	0.0149586
874.535	0.0149107
874.613	0.0148298
874.691	0.0148059
874.769	0.0146786
874.847	0.0145845
874.925	0.0145442
875.003	0.0146755
875.081	0.0144798
875.160	0.0146034
875.238	0.0144864
875.316	0.0144132
875.394	0.0143867
875.472	0.0143439
875.550	0.0145293
875.628	0.0144619
875.706	0.0146902
875.785	0.0147070
875.863	0.0146918
875.941	0.0146343
876.019	0.0147482
876.097	0.0146604
876.175	0.0148548
876.253	0.0147544
876.331	0.0146902
876.410	0.0146631
876.488	0.0146716
876.566	0.0145107
876.644	0.0144879
876.722	0.0145705
876.800	0.0145671
876.878	0.0143748
876.956	0.0142781
877.035	0.0145603
877.113	0.0143382
877.191	0.0143714
877.269	0.0146156
877.347	0.0144643
877.425	0.0144144
877.503	0.0146054
877.581	0.0147906
877.660	0.0148770
877.738	0.0148756
877.816	0.0150063
877.894	0.0149451
877.972	0.0150246
878.050	0.0150561
878.128	0.0151263
878.206	0.0149908
878.285	0.0149605
878.363	0.0149497
878.441	0.0149577
878.519	0.0149408
878.597	0.0147385
878.675	0.0146442
878.753	0.0147730
878.831	0.0146880
878.910	0.0145086
878.988	0.0144807
879.066	0.0145631
879.144	0.0145562
879.222	0.0144391
879.300	0.0145425
879.378	0.0145570
879.456	0.0145491
879.535	0.0145093
879.613	0.0146656
879.691	0.0146449
879.769	0.0146654
879.847	0.0147562
879.925	0.0147523
880.003	0.0148607
880.081	0.0148306
880.160	0.0147305
880.238	0.0149593
880.316	0.0148798
880.394	0.0149570
880.472	0.0151201
880.550	0.0149331
880.628	0.0148096
880.706	0.0148247
880.785	0.0149419
880.863	0.0148087
880.941	0.0149232
881.019	0.0149628
881.097	0.0148333
881.175	0.0147647
881.253	0.0147050
881.331	0.0145734
881.410	0.0147319
881.488	0.0147449
881.566	0.0147832
881.644	0.0146145
881.722	0.0145966
881.800	0.0148687
881.878	0.0148774
881.956	0.0148671
882.035	0.0149506
882.113	0.0148569
882.191	0.0150362
882.269	0.0150160
882.347	0.0149918
882.425	0.0150626
882.503	0.0151064
882.581	0.0148816
882.660	0.0148657
882.738	0.0149654
882.816	0.0148673
882.894	0.0148355
882.972	0.0148072
883.050	0.0147707
883.128	0.0146803
883.206	0.0148636
883.285	0.0147559
883.363	0.0145515
883.441	0.0145599
883.519	0.0146266
883.597	0.0146928
883.675	0.0146687
883.753	0.0146116
883.831	0.0145628
883.910	0.0146626
883.988	0.0145233
884.066	0.0145484
884.144	0.0144835
884.222	0.0144770
884.300	0.0145454
884.378	0.0145895
884.456	0.0145842
884.535	0.0145393
884.613	0.0147166
884.691	0.0147210
884.769	0.0146683
884.847	0.0147024
884.925	0.0146297
885.003	0.0147034
885.081	0.0147450
885.160	0.0146285
885.238	0.0146593
885.316	0.0148064
885.394	0.0148615
885.472	0.0146925
885.550	0.0146461
885.628	0.0147493
885.706	0.0147433
885.785	0.0147081
885.863	0.0148280
885.941	0.0149776
886.019	0.0148475
886.097	0.0148128
886.175	0.0148011
886.253	0.0149785
886.331	0.0149828
886.410	0.0148708
886.488	0.0150845
886.566	0.0150661
886.644	0.0150651
886.722	0.0151340
886.800	0.0150185
886.878	0.0149728
886.956	0.0149285
887.035	0.0147814
887.113	0.0147620
887.191	0.0147876
887.269	0.0148308
887.347	0.0148952
887.425	0.0149196
887.503	0.0149530
887.581	0.0146844
887.660	0.0147715
887.738	0.0146487
887.816	0.0146777
887.894	0.0146610
887.972	0.0146624
888.050	0.0146906
888.128	0.0146478
888.206	0.0145309
888.285	0.0145529
888.363	0.0146056
888.441	0.0144578
888.519	0.0144406
888.597	0.0145412
888.675	0.0144897
888.753	0.0145387
888.831	0.0144916
888.910	0.0146289
888.988	0.0145347
889.066	0.0145918
889.144	0.0147134
889.222	0.0147999
889.300	0.0147099
889.378	0.0148222
889.456	0.0148629
889.535	0.0149077
889.613	0.0147187
889.691	0.0148456
889.769	0.0149246
889.847	0.0148198
889.925	0.0147729
890.003	0.0146407
890.081	0.0147081
890.160	0.0146770
890.238	0.0145631
890.316	0.0144958
890.394	0.0145004
890.472	0.0144650
890.550	0.0145634
890.628	0.0144611
890.706	0.0146316
890.785	0.0146285
890.863	0.0145603
890.941	0.0145480
891.019	0.0145721
891.097	0.0146493
891.175	0.0145069
891.253	0.0144904
891.331	0.0145051
891.410	0.0143214
891.488	0.0145341
891.566	0.0144798
891.644	0.0144407
891.722	0.0146097
891.800	0.0145078
891.878	0.0145790
891.956	0.0145032
892.035	0.0145176
892.113	0.0146097
892.191	0.0143810
892.269	0.0144374
892.347	0.0145193
892.425	0.0146326
892.503	0.0145625
892.581	0.0145004
892.660	0.0146631
892.738	0.0145390
892.816	0.0146786
892.894	0.0147854
892.972	0.0146098
893.050	0.0147464
893.128	0.0146913
893.206	0.0147203
893.285	0.0146809
893.363	0.0146646
893.441	0.0145486
893.519	0.0146091
893.597	0.0146240
893.675	0.0147283
893.753	0.0147749
893.831	0.0148659
893.910	0.0147398
893.988	0.0148185
894.066	0.0148544
894.144	0.0149272
894.222	0.0150330
894.300	0.0149950
894.378	0.0150872
894.456	0.0150655
894.535	0.0150669
894.613	0.0150592
894.691	0.0149730
894.769	0.0150593
894.847	0.0150494
894.925	0.0150443
895.003	0.0150367
895.081	0.0151885
895.160	0.0150246
895.238	0.0149015
895.316	0.0147464
895.394	0.0146774
895.472	0.0148260
895.550	0.0148633
895.628	0.0146786
895.706	0.0146845
895.785	0.0146355
895.863	0.0146924
895.941	0.0147459
896.019	0.0147704
896.097	0.0148167
896.175	0.0146744
896.253	0.0146971
896.331	0.0146679
896.410	0.0147775
896.488	0.0147747
896.566	0.0148135
896.644	0.0148045
896.722	0.0148135
896.800	0.0147818
896.878	0.0147139
896.956	0.0148733
897.035	0.0147275
897.113	0.0147881
897.191	0.0149145
897.269	0.0148906
897.347	0.0148053
897.425	0.0147761
897.503	0.0149062
897.581	0.0149546
897.660	0.0147511
897.738	0.0148891
897.816	0.0148201
897.894	0.0147678
897.972	0.0146748
898.050	0.0147253
898.128	0.0146712
898.206	0.0146082
898.285	0.0145641
898.363	0.0145725
898.441	0.0145465
898.519	0.0144872
898.597	0.0144954
898.675	0.0144737
898.753	0.0144392
898.831	0.0144536
898.910	0.0143977
898.988	0.0146220
899.066	0.0144485
899.144	0.0145681
899.222	0.0145704
899.300	0.0146591
899.378	0.0145965
899.456	0.0145457
899.535	0.0146552
899.613	0.0146250
899.691	0.0145646
899.769	0.0144572
899.847	0.0146336
899.925	0.0143890
900.003	0.0143724
900.081	0.0142913
900.160	0.0143825
900.238	0.0144109
900.316	0.0143342
900.394	0.0141518
900.472	0.0143312
900.550	0.0142242
900.628	0.0142713
900.706	0.0143169
900.785	0.0144218
900.863	0.0144144
900.941	0.0144463
901.019	0.0147203
901.097	0.0148264
901.175	0.0148892
901.253	0.0150933
901.331	0.0150742
901.410	0.0153992
901.488	0.0157119
901.566	0.0158018
901.644	0.0158279
901.722	0.0162631
901.800	0.0161849
901.878	0.0160247
901.956	0.0160674
902.035	0.0158516
902.113	0.0155974
902.191	0.0153439
902.269	0.0150708
902.347	0.0149626
902.425	0.0144415
902.503	0.0142229
902.581	0.0137962
902.660	0.0136863
902.738	0.0135239
902.816	0.0133360
902.894	0.0132997
902.972	0.0133702
903.050	0.0137437
903.128	0.0141436
903.206	0.0144806
903.285	0.0147822
903.363	0.0152390
903.441	0.0155621
903.519	0.0156046
903.597	0.0157837
903.675	0.0157024
903.753	0.0154013
903.831	0.0149956
903.910	0.0147768
903.988	0.0142282
904.066	0.0138459
904.144	0.0135044
904.222	0.0133390
904.300	0.0130503
904.378	0.0131333
904.456	0.0132361
904.535	0.0135111
904.613	0.0138329
904.691	0.0142996
904.769	0.0147668
904.847	0.0151550
904.925	0.0156332
905.003	0.0159880
905.081	0.0162630
905.160	0.0164544
905.238	0.0164845
905.316	0.0164325
905.394	0.0163989
905.472	0.0162585
905.550	0.0160542
905.628	0.0158208
905.706	0.0155828
905.785	0.0153442
905.863	0.0151829
905.941	0.0148714
906.019	0.0149664
906.097	0.0147941
906.175	0.0145116
906.253	0.0145795
906.331	0.0143749
906.410	0.0142727
906.488	0.0142846
906.566	0.0141052
906.644	0.0142247
906.722	0.0142123
906.800	0.0140028
906.878	0.0138412
906.956	0.0138466
907.035	0.0138708
907.113	0.0137841
907.191	0.0137054
907.269	0.0136818
907.347	0.0138013
907.425	0.0139071
907.503	0.0139947
907.581	0.0140688
907.660	0.0140009
907.738	0.0143488
907.816	0.0146178
907.894	0.0147354
907.972	0.0148412
908.050	0.0151008
908.128	0.0151897
908.206	0.0154623
908.285	0.0155038
908.363	0.0155946
908.441	0.0156119
908.519	0.0155601
908.597	0.0155482
908.675	0.0155808
908.753	0.0156026
908.831	0.0155408
908.910	0.0153125
908.988	0.0152829
909.066	0.0151381
909.144	0.0151553
909.222	0.0151208
909.300	0.0150203
909.378	0.0148338
909.456	0.0148174
909.535	0.0148045
909.613	0.0147482
909.691	0.0147025
909.769	0.0147722
909.847	0.0146193
909.925	0.0146106
910.003	0.0146531
910.081	0.0143977
910.160	0.0144849
910.238	0.0145558
910.316	0.0144204
910.394	0.0143272
910.472	0.0143167
910.550	0.0143978
910.628	0.0143153
910.706	0.0142533
910.785	0.0143728
910.863	0.0145176
910.941	0.0143736
911.019	0.0144998
911.097	0.0146620
911.175	0.0147726
911.253	0.0146906
911.331	0.0147304
911.410	0.0147219
911.488	0.0148182
911.566	0.0147305
911.644	0.0147175
911.722	0.0147154
911.800	0.0147206
911.878	0.0145148
911.956	0.0145585
912.035	0.0146336
912.113	0.0145615
912.191	0.0146324
912.269	0.0145126
912.347	0.0145273
912.425	0.0147052
912.503	0.0148376
912.581	0.0148114
912.660	0.0148738
912.738	0.0149338
912.816	0.0149567
912.894	0.0150014
912.972	0.0149858
913.050	0.0149939
913.128	0.0149464
913.206	0.0149487
913.285	0.0150276
913.363	0.0149563
913.441	0.0148909
913.519	0.0148782
913.597	0.0147030
913.675	0.0146980
913.753	0.0146263
913.831	0.0145726
913.910	0.0146780
913.988	0.0145897
914.066	0.0146527
914.144	0.0146873
914.222	0.0146538
914.300	0.0146447
914.378	0.0146420
914.456	0.0146310
914.535	0.0148087
914.613	0.0147115
914.691	0.0147934
914.769	0.0149599
914.847	0.0147671
914.925	0.0148137
915.003	0.0146610
915.081	0.0147470
915.160	0.0148371
915.238	0.0146528
915.316	0.0145869
915.394	0.0147960
915.472	0.0145913
915.550	0.0147485
915.628	0.0148249
915.706	0.0146832
915.785	0.0146738
915.863	0.0147064
915.941	0.0148432
916.019	0.0147523
916.097	0.0146577
916.175	0.0145431
916.253	0.0147195
916.331	0.0147602
916.410	0.0146196
916.488	0.0145976
916.566	0.0146177
916.644	0.0144746
916.722	0.0146223
916.800	0.0147475
916.878	0.0150230
916.956	0.0149375
917.035	0.0149605
917.113	0.0150941
917.191	0.0152228
917.269	0.0152785
917.347	0.0149791
917.425	0.0151314
917.503	0.0149123
917.581	0.0150366
917.660	0.0149203
917.738	0.0149318
917.816	0.0148755
917.894	0.0148086
917.972	0.0148802
918.050	0.0146476
918.128	0.0146767
918.206	0.0147313
918.285	0.0148031
918.363	0.0147857
918.441	0.0148413
918.519	0.0148573
918.597	0.0148434
918.675	0.0148287
918.753	0.0148989
918.831	0.0149651
918.910	0.0148515
918.988	0.0146697
919.066	0.0145692
919.144	0.0145543
919.222	0.0143578
919.300	0.0142923
919.378	0.0142790
919.456	0.0142918
919.535	0.0142899
919.613	0.0141719
919.691	0.0142520
919.769	0.0143836
919.847	0.0145963
919.925	0.0145598
920.003	0.0146659
920.081	0.0148315
920.160	0.0150414
920.238	0.0150945
920.316	0.0151434
920.394	0.0149933
920.472	0.0151630
920.550	0.0151098
920.628	0.0149429
920.706	0.0148900
920.785	0.0147948
920.863	0.0145575
920.941	0.0144410
921.019	0.0144534
921.097	0.0142632
921.175	0.0143082
921.253	0.0143493
921.331	0.0142362
921.410	0.0144529
921.488	0.0143613
921.566	0.0143912
921.644	0.0144666
921.722	0.0146497
921.800	0.0145528
921.878	0.0146791
921.956	0.0149402
922.035	0.0150160
922.113	0.0149721
922.191	0.0150533
922.269	0.0151278
922.347	0.0150838
922.425	0.0151016
922.503	0.0153385
922.581	0.0152798
922.660	0.0152033
922.738	0.0151446
922.816	0.0150851
922.894	0.0148322
922.972	0.0148445
923.050	0.0149078
923.128	0.0148556
923.206	0.0147557
923.285	0.0146419
923.363	0.0147253
923.441	0.0147224
923.519	0.0147881
923.597	0.0147550
923.675	0.0149309
923.753	0.0150063
923.831	0.0150319
923.910	0.0149631
923.988	0.0150518
924.066	0.0150760
924.144	0.0151933
924.222	0.0150647
924.300	0.0150951
924.378	0.0150117
924.456	0.0149624
924.535	0.0149335
924.613	0.0148602
924.691	0.0148608
924.769	0.0148193
924.847	0.0147723
924.925	0.0146712
925.003	0.0147472
925.081	0.0148299
925.160	0.0147354
925.238	0.0147620
925.316	0.0147180
925.394	0.0147524
925.472	0.0147906
925.550	0.0146344
925.628	0.0147441
925.706	0.0147176
925.785	0.0147140
925.863	0.0147819
925.941	0.0147697
926.019	0.0145535
926.097	0.0145683
926.175	0.0145280
926.253	0.0145811
926.331	0.0144678
926.410	0.0145448
926.488	0.0145287
926.566	0.0144370
926.644	0.0143871
926.722	0.0143402
926.800	0.0145412
926.878	0.0144948
926.956	0.0143095
927.035	0.0144145
927.113	0.0146078
927.191	0.0146860
927.269	0.0146170
927.347	0.0148054
927.425	0.0146115
927.503	0.0148920
927.581	0.0149603
927.660	0.0150034
927.738	0.0151566
927.816	0.0152701
927.894	0.0151467
927.972	0.0151453
928.050	0.0152164
928.128	0.0150382
928.206	0.0148586
928.285	0.0147786
928.363	0.0148504
928.441	0.0148700
928.519	0.0148048
928.597	0.0146644
928.675	0.0144979
928.753	0.0144426
928.831	0.0145419
928.910	0.0145731
928.988	0.0146219
929.066	0.0146011
929.144	0.0146684
929.222	0.0146149
929.300	0.0147364
929.378	0.0147842
929.456	0.0148203
929.535	0.0147739
929.613	0.0148990
929.691	0.0149904
929.769	0.0150259
929.847	0.0149538
929.925	0.0152009
930.003	0.0151073
930.081	0.0151905
930.160	0.0150793
930.238	0.0150676
930.316	0.0152850
930.394	0.0151431
930.472	0.0149081
930.550	0.0149759
930.628	0.0150274
930.706	0.0150542
930.785	0.0149332
930.863	0.0148338
930.941	0.0147723
931.019	0.0147462
931.097	0.0146472
931.175	0.0146952
931.253	0.0147762
931.331	0.0146336
931.410	0.0145184
931.488	0.0145210
931.566	0.0147307
931.644	0.0146403
931.722	0.0145913
931.800	0.0146299
931.878	0.0147599
931.956	0.0146017
932.035	0.0146627
932.113	0.0146591
932.191	0.0146117
932.269	0.0146929
932.347	0.0146734
932.425	0.0147607
932.503	0.0147193
932.581	0.0146970
932.660	0.0146226
932.738	0.0145855
932.816	0.0146253
932.894	0.0147543
932.972	0.0147195
933.050	0.0147292
933.128	0.0145740
933.206	0.0145766
933.285	0.0146266
933.363	0.0147198
933.441	0.0146071
933.519	0.0145277
933.597	0.0145807
933.675	0.0147727
933.753	0.0145966
933.831	0.0147392
933.910	0.0148124
933.988	0.0148851
934.066	0.0148789
934.144	0.0147404
934.222	0.0147425
934.300	0.0147384
934.378	0.0147873
934.456	0.0147478
934.535	0.0147449
934.613	0.0148029
934.691	0.0148519
934.769	0.0147023
934.847	0.0146043
934.925	0.0145834
935.003	0.0147033
935.081	0.0146918
935.160	0.0145763
935.238	0.0147085
935.316	0.0147364
935.394	0.0146687
935.472	0.0146117
935.550	0.0147433
935.628	0.0147693
935.706	0.0147929
935.785	0.0147358
935.863	0.0147923
935.941	0.0148965
936.019	0.0148241
936.097	0.0148792
936.175	0.0148586
936.253	0.0148618
936.331	0.0148097
936.410	0.0148042
936.488	0.0146510
936.566	0.0146375
936.644	0.0146328
936.722	0.0145590
936.800	0.0145293
936.878	0.0145991
936.956	0.0146139
937.035	0.0145453
937.113	0.0145561
937.191	0.0146645
937.269	0.0147213
937.347	0.0148168
937.425	0.0148151
937.503	0.0146505
937.581	0.0147017
937.660	0.0147383
937.738	0.0147401
937.816	0.0146649
937.894	0.0146436
937.972	0.0146597
938.050	0.0146252
938.128	0.0146732
938.206	0.0146727
938.285	0.0146236
938.363	0.0147474
938.441	0.0147440
938.519	0.0148767
938.597	0.0148620
938.675	0.0149538
938.753	0.0150398
938.831	0.0151971
938.910	0.0152062
938.988	0.0149525
939.066	0.0149058
939.144	0.0148679
939.222	0.0149032
939.300	0.0148936
939.378	0.0147082
939.456	0.0147718
939.535	0.0147064
939.613	0.0145611
939.691	0.0145002
939.769	0.0145283
939.847	0.0146832
939.925	0.0145470
940.003	0.0145325
940.081	0.0146057
940.160	0.0145925
940.238	0.0146668
940.316	0.0148839
940.394	0.0148562
940.472	0.0148846
940.550	0.0148117
940.628	0.0149415
940.706	0.0149257
940.785	0.0148595
940.863	0.0148546
940.941	0.0147074
941.019	0.0146467
941.097	0.0147854
941.175	0.0146659
941.253	0.0147359
941.331	0.0146012
941.410	0.0144984
941.488	0.0144360
941.566	0.0143964
941.644	0.0145184
941.722	0.0146513
941.800	0.0146884
941.878	0.0147694
941.956	0.0147089
942.035	0.0146252
942.113	0.0147077
942.191	0.0145779
942.269	0.0146268
942.347	0.0148425
942.425	0.0146680
942.503	0.0146176
942.581	0.0145615
942.660	0.0147974
942.738	0.0147949
942.816	0.0146436
942.894	0.0145100
942.972	0.0145436
943.050	0.0146451
943.128	0.0145372
943.206	0.0146911
943.285	0.0146302
943.363	0.0145918
943.441	0.0146960
943.519	0.0148223
943.597	0.0148657
943.675	0.0147792
943.753	0.0150639
943.831	0.0150156
943.910	0.0149498
943.988	0.0150780
944.066	0.0150488
944.144	0.0149584
944.222	0.0150387
944.300	0.0151144
944.378	0.0150893
944.456	0.0150630
944.535	0.0151426
944.613	0.0151720
944.691	0.0150923
944.769	0.0149229
944.847	0.0149650
944.925	0.0150414
945.003	0.0149974
945.081	0.0150350
945.160	0.0148140
945.238	0.0148710
945.316	0.0148437
945.394	0.0148283
945.472	0.0146573
945.550	0.0147012
945.628	0.0147231
945.706	0.0148603
945.785	0.0148199
945.863	0.0147790
945.941	0.0149325
946.019	0.0148096
946.097	0.0147194
946.175	0.0147532
946.253	0.0146306
946.331	0.0147852
946.410	0.0148564
946.488	0.0146433
946.566	0.0146417
946.644	0.0145787
946.722	0.0147230
946.800	0.0146170
946.878	0.0146899
946.956	0.0149523
947.035	0.0150172
947.113	0.0150975
947.191	0.0149928
947.269	0.0150911
947.347	0.0151201
947.425	0.0152103
947.503	0.0152893
947.581	0.0152079
947.660	0.0151438
947.738	0.0150923
947.816	0.0151241
947.894	0.0150948
947.972	0.0149603
948.050	0.0147768
948.128	0.0147639
948.206	0.0147424
948.285	0.0144587
948.363	0.0143722
948.441	0.0143349
948.519	0.0143658
948.597	0.0142428
948.675	0.0142870
948.753	0.0143626
948.831	0.0143456
948.910	0.0144077
948.988	0.0145766
949.066	0.0147393
949.144	0.0148179
949.222	0.0148824
949.300	0.0149197
949.378	0.0149635
949.456	0.0147881
949.535	0.0148408
949.613	0.0148146
949.691	0.0146378
949.769	0.0144449
949.847	0.0145500
949.925	0.0146467
950.003	0.0146277
950.081	0.0145358
950.160	0.0145849
950.238	0.0145350
950.316	0.0144881
950.394	0.0145564
950.472	0.0147106
950.550	0.0147697
950.628	0.0148272
950.706	0.0148010
950.785	0.0148727
950.863	0.0147853
950.941	0.0148238
951.019	0.0148695
951.097	0.0150453
951.175	0.0148253
951.253	0.0148504
951.331	0.0149104
951.410	0.0148066
951.488	0.0147773
951.566	0.0148016
951.644	0.0147106
951.722	0.0149802
951.800	0.0148639
951.878	0.0147800
951.956	0.0147169
952.035	0.0147034
952.113	0.0147601
952.191	0.0146602
952.269	0.0146140
952.347	0.0146360
952.425	0.0147187
952.503	0.0145335
952.581	0.0145690
952.660	0.0146768
952.738	0.0145882
952.816	0.0147233
952.894	0.0147208
952.972	0.0145491
953.050	0.0146429
953.128	0.0147555
953.206	0.0149425
953.285	0.0147321
953.363	0.0149835
953.441	0.0150284
953.519	0.0149821
953.597	0.0148500
953.675	0.0148215
953.753	0.0149203
953.831	0.0149491
953.910	0.0149165
953.988	0.0149580
954.066	0.0148173
954.144	0.0148296
954.222	0.0147562
954.300	0.0146942
954.378	0.0146118
954.456	0.0145677
954.535	0.0145763
954.613	0.0144139
954.691	0.0143291
954.769	0.0144081
954.847	0.0143276
954.925	0.0145028
955.003	0.0143768
955.081	0.0145304
955.160	0.0143745
955.238	0.0145750
955.316	0.0146783
955.394	0.0146587
955.472	0.0149153
955.550	0.0149883
955.628	0.0149818
955.706	0.0150935
955.785	0.0153277
955.863	0.0153099
955.941	0.0151073
956.019	0.0152499
956.097	0.0152316
956.175	0.0152741
956.253	0.0150742
956.331	0.0150883
956.410	0.0150525
956.488	0.0148768
956.566	0.0148017
956.644	0.0148131
956.722	0.0146749
956.800	0.0146021
956.878	0.0146270
956.956	0.0144461
957.035	0.0144492
957.113	0.0142864
957.191	0.0143952
957.269	0.0143671
957.347	0.0143541
957.425	0.0143431
957.503	0.0142944
957.581	0.0144435
957.660	0.0142507
957.738	0.0144082
957.816	0.0143362
957.894	0.0142925
957.972	0.0143876
958.050	0.0145403
958.128	0.0145080
958.206	0.0145645
958.285	0.0146745
958.363	0.0146188
958.441	0.0147493
958.519	0.0148228
958.597	0.0148161
958.675	0.0148407
958.753	0.0148326
958.831	0.0148106
958.910	0.0149077
958.988	0.0148064
959.066	0.0148215
959.144	0.0147321
959.222	0.0148177
959.300	0.0146807
959.378	0.0145707
959.456	0.0146234
959.535	0.0146048
959.613	0.0147002
959.691	0.0146393
959.769	0.0145423
959.847	0.0144841
959.925	0.0145240
960.003	0.0146612
960.081	0.0145972
960.160	0.0145450
960.238	0.0146334
960.316	0.0146867
960.394	0.0146777
960.472	0.0147676
960.550	0.0146703
960.628	0.0148262
960.706	0.0148599
960.785	0.0148794
960.863	0.0149664
960.941	0.0150117
961.019	0.0148802
961.097	0.0150127
961.175	0.0150747
961.253	0.0151023
961.331	0.0151005
961.410	0.0150234
961.488	0.0151426
961.566	0.0149751
961.644	0.0149044
961.722	0.0149096
961.800	0.0147780
961.878	0.0148650
961.956	0.0147556
962.035	0.0147260
962.113	0.0145851
962.191	0.0145402
962.269	0.0146741
962.347	0.0145522
962.425	0.0144999
962.503	0.0144900
962.581	0.0145572
962.660	0.0144744
962.738	0.0145042
962.816	0.0145282
962.894	0.0145689
962.972	0.0144801
963.050	0.0146082
963.128	0.0144633
963.206	0.0144144
963.285	0.0145612
963.363	0.0145834
963.441	0.0144786
963.519	0.0144515
963.597	0.0144925
963.675	0.0145891
963.753	0.0144038
963.831	0.0144801
963.910	0.0147364
963.988	0.0145576
964.066	0.0145493
964.144	0.0147445
964.222	0.0149335
964.300	0.0149368
964.378	0.0148039
964.456	0.0149773
964.535	0.0149200
964.613	0.0149499
964.691	0.0149656
964.769	0.0150919
964.847	0.0150662
964.925	0.0151330
965.003	0.0150122
965.081	0.0150232
965.160	0.0149534
965.238	0.0148560
965.316	0.0148415
965.394	0.0147281
965.472	0.0148277
965.550	0.0146223
965.628	0.0144596
965.706	0.0145750
965.785	0.0145973
965.863	0.0145715
965.941	0.0145409
966.019	0.0143871
966.097	0.0145169
966.175	0.0145467
966.253	0.0145992
966.331	0.0147090
966.410	0.0147004
966.488	0.0148362
966.566	0.0149039
966.644	0.0149265
966.722	0.0149903
966.800	0.0151161
966.878	0.0149471
966.956	0.0149842
967.035	0.0152219
967.113	0.0150896
967.191	0.0151279
967.269	0.0149503
967.347	0.0150002
967.425	0.0148749
967.503	0.0148651
967.581	0.0148435
967.660	0.0149270
967.738	0.0148666
967.816	0.0148627
967.894	0.0149458
967.972	0.0150192
968.050	0.0149407
968.128	0.0150144
968.206	0.0149174
968.285	0.0150208
968.363	0.0149364
968.441	0.0151995
968.519	0.0149456
968.597	0.0150896
968.675	0.0150681
968.753	0.0149463
968.831	0.0148631
968.910	0.0146204
968.988	0.0148150
969.066	0.0146143
969.144	0.0144367
969.222	0.0144886
969.300	0.0142741
969.378	0.0143385
969.456	0.0143343
969.535	0.0142775
969.613	0.0140999
969.691	0.0141955
969.769	0.0142810
969.847	0.0142393
969.925	0.0143754
970.003	0.0143947
970.081	0.0145187
970.160	0.0146301
970.238	0.0145865
970.316	0.0145210
970.394	0.0146873
970.472	0.0146081
970.550	0.0146293
970.628	0.0148438
970.706	0.0146252
970.785	0.0147380
970.863	0.0147319
970.941	0.0147486
971.019	0.0146449
971.097	0.0146236
971.175	0.0146359
971.253	0.0146213
971.331	0.0147330
971.410	0.0147569
971.488	0.0146027
971.566	0.0145872
971.644	0.0144789
971.722	0.0145375
971.800	0.0144279
971.878	0.0145269
971.956	0.0145524
972.035	0.0145331
972.113	0.0146075
972.191	0.0145793
972.269	0.0146590
972.347	0.0145649
972.425	0.0145688
972.503	0.0147903
972.581	0.0147637
972.660	0.0147586
972.738	0.0148985
972.816	0.0149627
972.894	0.0150221
972.972	0.0149253
973.050	0.0149432
973.128	0.0148611
973.206	0.0148510
973.285	0.0148383
973.363	0.0147836
973.441	0.0147546
973.519	0.0146430
973.597	0.0146962
973.675	0.0146407
973.753	0.0144088
973.831	0.0142393
973.910	0.0144563
973.988	0.0145184
974.066	0.0145280
974.144	0.0143964
974.222	0.0145328
974.300	0.0146509
974.378	0.0146821
974.456	0.0147664
974.535	0.0147382
974.613	0.0147124
974.691	0.0149165
974.769	0.0149812
974.847	0.0150031
974.925	0.0150672
975.003	0.0150456
975.081	0.0149562
975.160	0.0150372
975.238	0.0149897
975.316	0.0149169
975.394	0.0149226
975.472	0.0149403
975.550	0.0149207
975.628	0.0147714
975.706	0.0148568
975.785	0.0147498
975.863	0.0146835
975.941	0.0148196
976.019	0.0147668
976.097	0.0145129
976.175	0.0146069
976.253	0.0146533
976.331	0.0145545
976.410	0.0146797
976.488	0.0146526
976.566	0.0146671
976.644	0.0145084
976.722	0.0146723
976.800	0.0145999
976.878	0.0147038
976.956	0.0147156
977.035	0.0147675
977.113	0.0149189
977.191	0.0147118
977.269	0.0149122
977.347	0.0148226
977.425	0.0149428
977.503	0.0149751
977.581	0.0149417
977.660	0.0149692
977.738	0.0150207
977.816	0.0149925
977.894	0.0148685
977.972	0.0149026
978.050	0.0149613
978.128	0.0149768
978.206	0.0149560
978.285	0.0149870
978.363	0.0149551
978.441	0.0147211
978.519	0.0149068
978.597	0.0148823
978.675	0.0148122
978.753	0.0147552
978.831	0.0147411
978.910	0.0147054
978.988	0.0145699
979.066	0.0147462
979.144	0.0147520
979.222	0.0148602
979.300	0.0147332
979.378	0.0145868
979.456	0.0147219
979.535	0.0148512
979.613	0.0147961
979.691	0.0148150
979.769	0.0149650
979.847	0.0148716
979.925	0.0148298
