05/03/2022	20:04:41	Ver.	4.1	UNKNOWN
Optical Delay	660.003261	Delta X		0.078125	Sweeps	1	Scan Rate	0/0
Coordinates	Axis 1	NaN	Axis 2	NaN	Axis 3	NaN	Axis 4	NaN	Axis 5	NaN	Axis 6	0.000000
TX Power	0.000000	RX Power	0.000000

660.003	0.0147556
660.081	0.0147498
660.160	0.0146141
660.238	0.0147689
660.316	0.0148993
660.394	0.0147283
660.472	0.0147447
660.550	0.0146100
660.628	0.0147398
660.706	0.0148454
660.785	0.0148151
660.863	0.0146732
660.941	0.0147562
661.019	0.0147124
661.097	0.0148838
661.175	0.0147079
661.253	0.0147874
661.331	0.0147890
661.410	0.0146751
661.488	0.0147314
661.566	0.0148638
661.644	0.0149073
661.722	0.0147206
661.800	0.0148624
661.878	0.0148877
661.956	0.0149361
662.035	0.0146839
662.113	0.0147611
662.191	0.0148041
662.269	0.0147734
662.347	0.0147263
662.425	0.0147790
662.503	0.0148655
662.581	0.0147798
662.660	0.0147200
662.738	0.0145789
662.816	0.0148007
662.894	0.0148653
662.972	0.0146908
663.050	0.0148431
663.128	0.0147723
663.206	0.0146485
663.285	0.0147147
663.363	0.0148167
663.441	0.0148107
663.519	0.0146786
663.597	0.0148686
663.675	0.0147675
663.753	0.0148155
663.831	0.0146548
663.910	0.0147384
663.988	0.0147315
664.066	0.0147198
664.144	0.0148345
664.222	0.0147939
664.300	0.0148801
664.378	0.0148489
664.456	0.0147235
664.535	0.0147163
664.613	0.0148292
664.691	0.0148872
664.769	0.0148238
664.847	0.0147766
664.925	0.0146480
665.003	0.0149255
665.081	0.0147681
665.160	0.0146562
665.238	0.0147822
665.316	0.0149120
665.394	0.0146931
665.472	0.0147291
665.550	0.0148338
665.628	0.0147991
665.706	0.0147203
665.785	0.0146793
665.863	0.0147087
665.941	0.0148371
666.019	0.0147216
666.097	0.0148120
666.175	0.0146776
666.253	0.0147549
666.331	0.0146956
666.410	0.0147818
666.488	0.0147473
666.566	0.0147230
666.644	0.0146518
666.722	0.0148312
666.800	0.0147624
666.878	0.0147301
666.956	0.0146744
667.035	0.0148159
667.113	0.0147934
667.191	0.0148858
667.269	0.0147595
667.347	0.0147300
667.425	0.0147497
667.503	0.0148473
667.581	0.0147000
667.660	0.0146442
667.738	0.0148518
667.816	0.0147546
667.894	0.0148359
667.972	0.0148119
668.050	0.0147300
668.128	0.0148880
668.206	0.0148122
668.285	0.0147135
668.363	0.0147633
668.441	0.0148782
668.519	0.0148618
668.597	0.0147044
668.675	0.0146935
668.753	0.0146834
668.831	0.0148949
668.910	0.0146745
668.988	0.0148059
669.066	0.0147694
669.144	0.0147664
669.222	0.0148592
669.300	0.0147955
669.378	0.0147440
669.456	0.0147846
669.535	0.0147760
669.613	0.0147818
669.691	0.0146772
669.769	0.0147632
669.847	0.0148510
669.925	0.0147224
670.003	0.0147718
670.081	0.0146883
670.160	0.0148804
670.238	0.0148936
670.316	0.0147228
670.394	0.0147758
670.472	0.0147573
670.550	0.0147490
670.628	0.0147623
670.706	0.0146902
670.785	0.0148165
670.863	0.0147013
670.941	0.0147629
671.019	0.0148208
671.097	0.0148153
671.175	0.0147108
671.253	0.0147292
671.331	0.0145652
671.410	0.0147045
671.488	0.0146899
671.566	0.0147779
671.644	0.0148204
671.722	0.0148030
671.800	0.0148487
671.878	0.0147720
671.956	0.0147301
672.035	0.0147747
672.113	0.0147140
672.191	0.0146468
672.269	0.0147575
672.347	0.0148918
672.425	0.0147562
672.503	0.0147051
672.581	0.0147693
672.660	0.0145322
672.738	0.0148890
672.816	0.0148652
672.894	0.0148796
672.972	0.0148884
673.050	0.0147353
673.128	0.0147437
673.206	0.0148702
673.285	0.0148067
673.363	0.0147955
673.441	0.0147821
673.519	0.0147424
673.597	0.0149389
673.675	0.0147652
673.753	0.0146435
673.831	0.0145938
673.910	0.0148308
673.988	0.0148249
674.066	0.0147758
674.144	0.0147719
674.222	0.0147025
674.300	0.0147166
674.378	0.0148340
674.456	0.0148852
674.535	0.0147969
674.613	0.0148875
674.691	0.0148124
674.769	0.0147275
674.847	0.0147079
674.925	0.0147874
675.003	0.0146395
675.081	0.0146764
675.160	0.0147395
675.238	0.0147620
675.316	0.0146803
675.394	0.0147984
675.472	0.0147003
675.550	0.0147903
675.628	0.0148127
675.706	0.0147750
675.785	0.0147057
675.863	0.0146346
675.941	0.0146826
676.019	0.0148859
676.097	0.0147388
676.175	0.0146986
676.253	0.0145499
676.331	0.0147106
676.410	0.0146790
676.488	0.0146619
676.566	0.0148616
676.644	0.0147581
676.722	0.0147764
676.800	0.0148164
676.878	0.0147164
676.956	0.0148061
677.035	0.0146941
677.113	0.0147932
677.191	0.0148315
677.269	0.0148634
677.347	0.0147935
677.425	0.0147771
677.503	0.0146971
677.581	0.0147341
677.660	0.0148363
677.738	0.0148251
677.816	0.0147241
677.894	0.0147507
677.972	0.0148688
678.050	0.0147501
678.128	0.0146475
678.206	0.0147855
678.285	0.0147090
678.363	0.0147056
678.441	0.0148160
678.519	0.0148598
678.597	0.0147971
678.675	0.0147579
678.753	0.0147283
678.831	0.0148703
678.910	0.0147974
678.988	0.0148077
679.066	0.0148895
679.144	0.0147506
679.222	0.0147875
679.300	0.0147726
679.378	0.0146567
679.456	0.0147331
679.535	0.0148011
679.613	0.0146389
679.691	0.0147462
679.769	0.0147488
679.847	0.0147601
679.925	0.0149731
680.003	0.0147374
680.081	0.0148109
680.160	0.0148787
680.238	0.0148038
680.316	0.0148134
680.394	0.0148620
680.472	0.0147971
680.550	0.0148081
680.628	0.0149489
680.706	0.0147727
680.785	0.0148180
680.863	0.0148960
680.941	0.0147536
681.019	0.0146503
681.097	0.0147480
681.175	0.0147868
681.253	0.0146461
681.331	0.0147662
681.410	0.0146362
681.488	0.0147689
681.566	0.0147868
681.644	0.0146568
681.722	0.0148673
681.800	0.0148055
681.878	0.0148354
681.956	0.0147771
682.035	0.0149032
682.113	0.0147797
682.191	0.0146987
682.269	0.0147588
682.347	0.0148041
682.425	0.0147041
682.503	0.0146526
682.581	0.0147535
682.660	0.0147720
682.738	0.0148383
682.816	0.0147402
682.894	0.0148047
682.972	0.0148193
683.050	0.0147211
683.128	0.0146915
683.206	0.0146764
683.285	0.0147371
683.363	0.0149206
683.441	0.0148115
683.519	0.0147125
683.597	0.0147927
683.675	0.0148547
683.753	0.0147789
683.831	0.0147150
683.910	0.0147154
683.988	0.0148347
684.066	0.0147346
684.144	0.0147665
684.222	0.0146840
684.300	0.0147809
684.378	0.0148880
684.456	0.0148592
684.535	0.0147546
684.613	0.0147896
684.691	0.0147879
684.769	0.0147768
684.847	0.0148676
684.925	0.0148192
685.003	0.0148398
685.081	0.0148464
685.160	0.0146819
685.238	0.0147581
685.316	0.0148373
685.394	0.0147083
685.472	0.0147918
685.550	0.0148370
685.628	0.0148705
685.706	0.0146444
685.785	0.0147746
685.863	0.0147591
685.941	0.0147488
686.019	0.0147821
686.097	0.0148415
686.175	0.0147899
686.253	0.0147652
686.331	0.0146732
686.410	0.0147751
686.488	0.0146812
686.566	0.0147890
686.644	0.0147620
686.722	0.0148060
686.800	0.0148780
686.878	0.0148331
686.956	0.0147668
687.035	0.0149193
687.113	0.0147928
687.191	0.0146463
687.269	0.0146140
687.347	0.0148363
687.425	0.0148159
687.503	0.0147584
687.581	0.0146713
687.660	0.0148198
687.738	0.0147079
687.816	0.0147832
687.894	0.0148312
687.972	0.0147272
688.050	0.0147490
688.128	0.0146929
688.206	0.0147763
688.285	0.0148886
688.363	0.0148179
688.441	0.0147516
688.519	0.0147787
688.597	0.0148427
688.675	0.0147816
688.753	0.0146922
688.831	0.0146916
688.910	0.0149435
688.988	0.0148477
689.066	0.0147019
689.144	0.0147575
689.222	0.0147073
689.300	0.0147359
689.378	0.0146399
689.456	0.0146997
689.535	0.0147636
689.613	0.0147709
689.691	0.0147054
689.769	0.0146228
689.847	0.0148352
689.925	0.0148455
690.003	0.0147856
690.081	0.0147360
690.160	0.0147810
690.238	0.0147494
690.316	0.0146665
690.394	0.0147989
690.472	0.0148718
690.550	0.0147956
690.628	0.0147869
690.706	0.0148035
690.785	0.0146047
690.863	0.0146949
690.941	0.0148254
691.019	0.0147110
691.097	0.0147137
691.175	0.0146806
691.253	0.0147608
691.331	0.0149323
691.410	0.0147849
691.488	0.0146270
691.566	0.0147991
691.644	0.0147641
691.722	0.0147106
691.800	0.0147890
691.878	0.0146739
691.956	0.0146227
692.035	0.0147205
692.113	0.0148582
692.191	0.0148433
692.269	0.0148047
692.347	0.0148298
692.425	0.0146787
692.503	0.0147810
692.581	0.0148407
692.660	0.0149195
692.738	0.0147133
692.816	0.0147466
692.894	0.0146358
692.972	0.0148804
693.050	0.0148430
693.128	0.0148479
693.206	0.0147079
693.285	0.0146952
693.363	0.0146529
693.441	0.0145992
693.519	0.0148450
693.597	0.0147404
693.675	0.0146678
693.753	0.0145882
693.831	0.0147816
693.910	0.0149494
693.988	0.0147932
694.066	0.0147708
694.144	0.0147713
694.222	0.0148823
694.300	0.0146965
694.378	0.0148163
694.456	0.0148656
694.535	0.0148274
694.613	0.0147866
694.691	0.0147686
694.769	0.0148103
694.847	0.0147826
694.925	0.0146689
695.003	0.0148016
695.081	0.0147172
695.160	0.0148365
695.238	0.0147766
695.316	0.0147922
695.394	0.0148122
695.472	0.0148059
695.550	0.0148137
695.628	0.0148222
695.706	0.0147100
695.785	0.0147075
695.863	0.0147639
695.941	0.0147973
696.019	0.0147385
696.097	0.0147134
696.175	0.0147021
696.253	0.0147016
696.331	0.0146391
696.410	0.0147495
696.488	0.0148143
696.566	0.0147290
696.644	0.0147619
696.722	0.0148485
696.800	0.0147672
696.878	0.0147343
696.956	0.0148411
697.035	0.0146778
697.113	0.0147738
697.191	0.0148872
697.269	0.0147876
697.347	0.0147715
697.425	0.0147247
697.503	0.0147998
697.581	0.0148782
697.660	0.0147615
697.738	0.0148951
697.816	0.0148220
697.894	0.0148409
697.972	0.0147865
698.050	0.0148040
698.128	0.0147559
698.206	0.0147826
698.285	0.0146373
698.363	0.0148592
698.441	0.0148163
698.519	0.0146537
698.597	0.0147231
698.675	0.0146916
698.753	0.0148026
698.831	0.0147410
698.910	0.0147412
698.988	0.0147858
699.066	0.0147999
699.144	0.0147263
699.222	0.0147556
699.300	0.0147633
699.378	0.0148260
699.456	0.0147163
699.535	0.0147189
699.613	0.0147964
699.691	0.0146876
699.769	0.0147144
699.847	0.0147504
699.925	0.0148550
700.003	0.0148821
700.081	0.0147564
700.160	0.0147832
700.238	0.0147624
700.316	0.0148242
700.394	0.0148341
700.472	0.0146622
700.550	0.0147745
700.628	0.0147277
700.706	0.0146539
700.785	0.0147315
700.863	0.0146482
700.941	0.0146743
701.019	0.0147379
701.097	0.0147815
701.175	0.0147899
701.253	0.0146739
701.331	0.0147536
701.410	0.0148121
701.488	0.0146402
701.566	0.0147796
701.644	0.0147532
701.722	0.0147836
701.800	0.0148055
701.878	0.0149361
701.956	0.0147994
702.035	0.0146387
702.113	0.0148102
702.191	0.0148289
702.269	0.0148291
702.347	0.0148335
702.425	0.0148043
702.503	0.0149905
702.581	0.0148013
702.660	0.0147745
702.738	0.0146953
702.816	0.0147099
702.894	0.0146973
702.972	0.0148304
703.050	0.0148368
703.128	0.0147314
703.206	0.0147858
703.285	0.0147765
703.363	0.0148628
703.441	0.0146834
703.519	0.0147406
703.597	0.0146584
703.675	0.0147110
703.753	0.0147963
703.831	0.0149287
703.910	0.0148376
703.988	0.0148991
704.066	0.0146605
704.144	0.0148101
704.222	0.0149098
704.300	0.0148789
704.378	0.0148889
704.456	0.0149299
704.535	0.0150581
704.613	0.0149223
704.691	0.0148730
704.769	0.0149141
704.847	0.0149969
704.925	0.0148852
705.003	0.0148996
705.081	0.0150073
705.160	0.0148966
705.238	0.0148026
705.316	0.0148701
705.394	0.0148476
705.472	0.0148508
705.550	0.0149063
705.628	0.0148029
705.706	0.0148372
705.785	0.0148275
705.863	0.0149554
705.941	0.0148630
706.019	0.0149510
706.097	0.0149819
706.175	0.0149852
706.253	0.0149931
706.331	0.0148682
706.410	0.0149244
706.488	0.0151245
706.566	0.0149030
706.644	0.0150726
706.722	0.0150469
706.800	0.0151102
706.878	0.0150369
706.956	0.0150613
707.035	0.0149964
707.113	0.0149529
707.191	0.0151627
707.269	0.0151666
707.347	0.0149126
707.425	0.0150125
707.503	0.0148982
707.581	0.0148105
707.660	0.0148348
707.738	0.0148901
707.816	0.0147072
707.894	0.0147857
707.972	0.0145339
708.050	0.0145381
708.128	0.0143160
708.206	0.0140701
708.285	0.0138364
708.363	0.0136604
708.441	0.0134582
708.519	0.0130734
708.597	0.0127209
708.675	0.0124081
708.753	0.0119037
708.831	0.0115276
708.910	0.0110467
708.988	0.0102769
709.066	0.0100011
709.144	0.00979630
709.222	0.00983284
709.300	0.0101547
709.378	0.0106286
709.456	0.0118600
709.535	0.0129366
709.613	0.0143616
709.691	0.0158004
709.769	0.0173647
709.847	0.0186353
709.925	0.0198416
710.003	0.0206526
710.081	0.0211969
710.160	0.0215597
710.238	0.0213536
710.316	0.0206731
710.394	0.0199326
710.472	0.0191100
710.550	0.0180165
710.628	0.0167883
710.706	0.0156977
710.785	0.0150308
710.863	0.0143276
710.941	0.0138608
711.019	0.0139164
711.097	0.0143580
711.175	0.0149560
711.253	0.0156953
711.331	0.0165981
711.410	0.0176444
711.488	0.0184489
711.566	0.0190656
711.644	0.0195266
711.722	0.0194278
711.800	0.0190250
711.878	0.0185123
711.956	0.0172339
712.035	0.0157730
712.113	0.0140258
712.191	0.0119534
712.269	0.00991577
712.347	0.00802078
712.425	0.00637123
712.503	0.00488228
712.581	0.00419930
712.660	0.00411041
712.738	0.00452576
712.816	0.00531235
712.894	0.00660828
712.972	0.00815132
713.050	0.00970116
713.128	0.0112016
713.206	0.0126624
713.285	0.0138146
713.363	0.0148470
713.441	0.0158509
713.519	0.0165771
713.597	0.0171311
713.675	0.0175343
713.753	0.0178630
713.831	0.0180877
713.910	0.0183876
713.988	0.0187864
714.066	0.0191930
714.144	0.0197585
714.222	0.0204587
714.300	0.0214048
714.378	0.0223539
714.456	0.0231461
714.535	0.0238502
714.613	0.0242868
714.691	0.0241531
714.769	0.0239455
714.847	0.0231577
714.925	0.0217308
715.003	0.0203521
715.081	0.0182709
715.160	0.0161275
715.238	0.0139277
715.316	0.0117249
715.394	0.00974998
715.472	0.00770699
715.550	0.00598724
715.628	0.00490486
715.706	0.00432304
715.785	0.00419525
715.863	0.00419746
715.941	0.00464981
716.019	0.00557556
716.097	0.00663551
716.175	0.00782532
716.253	0.00924965
716.331	0.0106890
716.410	0.0119622
716.488	0.0131368
716.566	0.0144685
716.644	0.0157806
716.722	0.0166241
716.800	0.0173968
716.878	0.0179474
716.956	0.0184583
717.035	0.0188440
717.113	0.0190242
717.191	0.0191453
717.269	0.0192947
717.347	0.0193442
717.425	0.0194616
717.503	0.0194971
717.581	0.0195853
717.660	0.0197746
717.738	0.0197398
717.816	0.0195882
717.894	0.0194165
717.972	0.0191610
718.050	0.0189239
718.128	0.0184335
718.206	0.0179590
718.285	0.0173026
718.363	0.0166521
718.441	0.0159409
718.519	0.0152185
718.597	0.0144953
718.675	0.0136383
718.753	0.0129760
718.831	0.0124342
718.910	0.0118761
718.988	0.0114021
719.066	0.0110616
719.144	0.0108512
719.222	0.0105379
719.300	0.0105177
719.378	0.0105328
719.456	0.0106183
719.535	0.0107723
719.613	0.0108970
719.691	0.0110136
719.769	0.0111507
719.847	0.0113084
719.925	0.0115801
720.003	0.0117035
720.081	0.0119550
720.160	0.0124354
720.238	0.0126743
720.316	0.0129138
720.394	0.0131562
720.472	0.0134261
720.550	0.0137356
720.628	0.0139018
720.706	0.0141338
720.785	0.0143330
720.863	0.0146027
720.941	0.0148344
721.019	0.0151828
721.097	0.0154266
721.175	0.0157430
721.253	0.0159869
721.331	0.0165366
721.410	0.0169234
721.488	0.0172498
721.566	0.0174591
721.644	0.0176516
721.722	0.0177162
721.800	0.0177957
721.878	0.0176808
721.956	0.0175742
722.035	0.0175143
722.113	0.0176328
722.191	0.0174829
722.269	0.0173580
722.347	0.0174704
722.425	0.0172217
722.503	0.0171007
722.581	0.0171207
722.660	0.0169936
722.738	0.0169806
722.816	0.0168154
722.894	0.0165630
722.972	0.0164081
723.050	0.0163039
723.128	0.0161133
723.206	0.0159716
723.285	0.0155907
723.363	0.0152316
723.441	0.0149165
723.519	0.0146777
723.597	0.0143166
723.675	0.0138212
723.753	0.0134634
723.831	0.0129830
723.910	0.0123657
723.988	0.0119887
724.066	0.0116246
724.144	0.0110977
724.222	0.0107642
724.300	0.0105376
724.378	0.0102592
724.456	0.00993431
724.535	0.00990356
724.613	0.0100745
724.691	0.0100478
724.769	0.0101991
724.847	0.0106178
724.925	0.0110040
725.003	0.0112292
725.081	0.0115697
725.160	0.0122032
725.238	0.0128506
725.316	0.0133933
725.394	0.0139489
725.472	0.0144889
725.550	0.0150088
725.628	0.0154347
725.706	0.0157836
725.785	0.0162512
725.863	0.0167819
725.941	0.0171664
726.019	0.0176425
726.097	0.0179433
726.175	0.0182363
726.253	0.0187524
726.331	0.0189022
726.410	0.0190784
726.488	0.0191964
726.566	0.0191769
726.644	0.0191759
726.722	0.0190681
726.800	0.0187766
726.878	0.0185688
726.956	0.0181303
727.035	0.0178988
727.113	0.0173505
727.191	0.0169785
727.269	0.0166013
727.347	0.0162818
727.425	0.0159157
727.503	0.0153732
727.581	0.0151652
727.660	0.0148820
727.738	0.0147939
727.816	0.0145904
727.894	0.0146828
727.972	0.0147656
728.050	0.0147613
728.128	0.0148164
728.206	0.0147709
728.285	0.0148502
728.363	0.0149004
728.441	0.0146537
728.519	0.0146564
728.597	0.0146323
728.675	0.0143903
728.753	0.0142893
728.831	0.0139833
728.910	0.0136036
728.988	0.0132642
729.066	0.0129036
729.144	0.0123973
729.222	0.0120907
729.300	0.0117525
729.378	0.0116218
729.456	0.0112202
729.535	0.0112300
729.613	0.0111557
729.691	0.0111885
729.769	0.0113798
729.847	0.0114816
729.925	0.0116709
730.003	0.0118511
730.081	0.0121104
730.160	0.0123481
730.238	0.0126768
730.316	0.0128155
730.394	0.0131211
730.472	0.0132471
730.550	0.0135365
730.628	0.0137798
730.706	0.0140434
730.785	0.0144229
730.863	0.0144157
730.941	0.0147359
731.019	0.0148725
731.097	0.0151446
731.175	0.0152077
731.253	0.0154610
731.331	0.0156644
731.410	0.0158351
731.488	0.0160917
731.566	0.0161978
731.644	0.0163939
731.722	0.0167697
731.800	0.0169904
731.878	0.0172453
731.956	0.0174689
732.035	0.0176392
732.113	0.0176549
732.191	0.0178487
732.269	0.0179342
732.347	0.0179596
732.425	0.0177134
732.503	0.0177065
732.581	0.0176040
732.660	0.0172021
732.738	0.0169096
732.816	0.0165709
732.894	0.0164378
732.972	0.0161883
733.050	0.0159010
733.128	0.0157343
733.206	0.0155603
733.285	0.0155207
733.363	0.0152161
733.441	0.0150301
733.519	0.0149776
733.597	0.0150286
733.675	0.0149702
733.753	0.0149335
733.831	0.0148600
733.910	0.0148872
733.988	0.0148507
734.066	0.0146938
734.144	0.0146621
734.222	0.0145579
734.300	0.0142385
734.378	0.0138597
734.456	0.0136159
734.535	0.0131847
734.613	0.0128638
734.691	0.0125957
734.769	0.0121958
734.847	0.0118232
734.925	0.0115634
735.003	0.0113492
735.081	0.0111724
735.160	0.0110223
735.238	0.0110783
735.316	0.0111545
735.394	0.0114149
735.472	0.0116404
735.550	0.0120474
735.628	0.0125072
735.706	0.0129101
735.785	0.0131062
735.863	0.0136479
735.941	0.0139352
736.019	0.0142007
736.097	0.0142937
736.175	0.0147298
736.253	0.0148003
736.331	0.0149149
736.410	0.0150423
736.488	0.0151525
736.566	0.0151482
736.644	0.0152322
736.722	0.0154188
736.800	0.0155328
736.878	0.0153996
736.956	0.0155939
737.035	0.0157233
737.113	0.0157368
737.191	0.0159383
737.269	0.0160670
737.347	0.0163670
737.425	0.0163905
737.503	0.0165698
737.581	0.0166011
737.660	0.0165002
737.738	0.0166750
737.816	0.0165406
737.894	0.0163452
737.972	0.0163498
738.050	0.0163263
738.128	0.0162690
738.206	0.0160156
738.285	0.0160493
738.363	0.0160000
738.441	0.0158984
738.519	0.0158503
738.597	0.0158424
738.675	0.0156793
738.753	0.0156065
738.831	0.0157248
738.910	0.0156931
738.988	0.0154827
739.066	0.0156278
739.144	0.0155663
739.222	0.0155301
739.300	0.0153812
739.378	0.0152326
739.456	0.0151358
739.535	0.0149417
739.613	0.0147752
739.691	0.0147054
739.769	0.0146278
739.847	0.0145780
739.925	0.0144173
740.003	0.0144518
740.081	0.0143841
740.160	0.0143752
740.238	0.0142459
740.316	0.0142632
740.394	0.0142505
740.472	0.0143490
740.550	0.0142295
740.628	0.0140719
740.706	0.0140853
740.785	0.0138897
740.863	0.0137969
740.941	0.0136459
741.019	0.0136527
741.097	0.0133427
741.175	0.0131547
741.253	0.0131104
741.331	0.0130568
741.410	0.0130328
741.488	0.0130111
741.566	0.0130788
741.644	0.0131229
741.722	0.0133015
741.800	0.0133116
741.878	0.0134288
741.956	0.0135996
742.035	0.0136765
742.113	0.0138517
742.191	0.0139401
742.269	0.0138150
742.347	0.0140102
742.425	0.0139839
742.503	0.0139523
742.581	0.0141301
742.660	0.0141632
742.738	0.0142910
742.816	0.0141791
742.894	0.0141576
742.972	0.0143304
743.050	0.0143452
743.128	0.0144904
743.206	0.0147364
743.285	0.0147227
743.363	0.0146908
743.441	0.0148782
743.519	0.0151533
743.597	0.0153444
743.675	0.0155130
743.753	0.0155575
743.831	0.0157007
743.910	0.0159904
743.988	0.0161722
744.066	0.0162490
744.144	0.0163747
744.222	0.0165522
744.300	0.0166252
744.378	0.0166904
744.456	0.0168470
744.535	0.0169391
744.613	0.0167744
744.691	0.0168150
744.769	0.0168272
744.847	0.0168009
744.925	0.0166538
745.003	0.0163869
745.081	0.0163960
745.160	0.0163605
745.238	0.0160989
745.316	0.0160114
745.394	0.0158705
745.472	0.0156016
745.550	0.0155444
745.628	0.0153807
745.706	0.0151879
745.785	0.0148663
745.863	0.0147617
745.941	0.0147372
746.019	0.0144220
746.097	0.0142352
746.175	0.0140180
746.253	0.0138023
746.331	0.0138680
746.410	0.0136903
746.488	0.0136114
746.566	0.0135908
746.644	0.0135822
746.722	0.0135174
746.800	0.0135076
746.878	0.0136848
746.956	0.0134307
747.035	0.0134699
747.113	0.0134147
747.191	0.0134955
747.269	0.0133940
747.347	0.0134106
747.425	0.0132642
747.503	0.0132452
747.581	0.0132584
747.660	0.0133297
747.738	0.0130887
747.816	0.0131978
747.894	0.0132127
747.972	0.0134365
748.050	0.0136241
748.128	0.0136361
748.206	0.0137764
748.285	0.0138213
748.363	0.0141010
748.441	0.0142445
748.519	0.0142314
748.597	0.0144583
748.675	0.0145692
748.753	0.0147015
748.831	0.0148556
748.910	0.0150382
748.988	0.0150595
749.066	0.0152068
749.144	0.0153490
749.222	0.0153123
749.300	0.0153232
749.378	0.0154911
749.456	0.0157012
749.535	0.0156681
749.613	0.0155861
749.691	0.0156665
749.769	0.0158459
749.847	0.0160010
749.925	0.0158049
750.003	0.0159618
750.081	0.0160049
750.160	0.0160322
750.238	0.0159534
750.316	0.0159518
750.394	0.0159846
750.472	0.0158289
750.550	0.0157069
750.628	0.0155904
750.706	0.0155867
750.785	0.0155627
750.863	0.0154095
750.941	0.0152457
751.019	0.0151440
751.097	0.0151243
751.175	0.0152477
751.253	0.0152921
751.331	0.0154142
751.410	0.0153289
751.488	0.0154855
751.566	0.0156169
751.644	0.0156599
751.722	0.0156306
751.800	0.0156351
751.878	0.0155951
751.956	0.0154770
752.035	0.0154770
752.113	0.0154796
752.191	0.0153764
752.269	0.0152296
752.347	0.0150620
752.425	0.0151450
752.503	0.0148805
752.581	0.0148257
752.660	0.0148631
752.738	0.0148589
752.816	0.0146018
752.894	0.0145736
752.972	0.0143999
753.050	0.0144572
753.128	0.0143549
753.206	0.0143539
753.285	0.0141953
753.363	0.0140366
753.441	0.0140182
753.519	0.0139214
753.597	0.0138552
753.675	0.0138097
753.753	0.0137892
753.831	0.0137318
753.910	0.0136224
753.988	0.0134569
754.066	0.0133354
754.144	0.0132677
754.222	0.0132447
754.300	0.0130119
754.378	0.0130446
754.456	0.0131195
754.535	0.0129757
754.613	0.0130311
754.691	0.0131835
754.769	0.0132637
754.847	0.0133948
754.925	0.0135809
755.003	0.0135909
755.081	0.0137540
755.160	0.0139935
755.238	0.0142526
755.316	0.0143835
755.394	0.0145235
755.472	0.0146333
755.550	0.0149216
755.628	0.0150300
755.706	0.0150089
755.785	0.0153168
755.863	0.0152276
755.941	0.0153602
756.019	0.0153722
756.097	0.0154237
756.175	0.0154462
756.253	0.0154179
756.331	0.0155237
756.410	0.0156638
756.488	0.0156579
756.566	0.0157156
756.644	0.0157570
756.722	0.0158434
756.800	0.0159039
756.878	0.0161122
756.956	0.0160838
757.035	0.0160053
757.113	0.0161153
757.191	0.0159879
757.269	0.0161247
757.347	0.0160330
757.425	0.0159046
757.503	0.0158636
757.581	0.0157606
757.660	0.0156837
757.738	0.0156821
757.816	0.0155928
757.894	0.0154148
757.972	0.0154018
758.050	0.0152333
758.128	0.0151437
758.206	0.0152010
758.285	0.0149532
758.363	0.0150204
758.441	0.0149160
758.519	0.0148396
758.597	0.0148832
758.675	0.0148381
758.753	0.0148419
758.831	0.0148300
758.910	0.0148084
758.988	0.0147740
759.066	0.0147162
759.144	0.0146414
759.222	0.0147015
759.300	0.0144751
759.378	0.0147433
759.456	0.0144678
759.535	0.0143137
759.613	0.0142768
759.691	0.0143001
759.769	0.0142078
759.847	0.0141012
759.925	0.0139651
760.003	0.0140326
760.081	0.0139144
760.160	0.0137936
760.238	0.0138294
760.316	0.0137524
760.394	0.0138392
760.472	0.0136515
760.550	0.0138611
760.628	0.0138107
760.706	0.0138607
760.785	0.0137745
760.863	0.0139174
760.941	0.0139304
761.019	0.0140603
761.097	0.0141096
761.175	0.0140600
761.253	0.0139149
761.331	0.0140257
761.410	0.0139814
761.488	0.0140390
761.566	0.0140595
761.644	0.0141553
761.722	0.0142528
761.800	0.0143233
761.878	0.0143262
761.956	0.0146053
762.035	0.0145766
762.113	0.0146845
762.191	0.0148165
762.269	0.0150179
762.347	0.0149689
762.425	0.0149699
762.503	0.0150877
762.581	0.0152714
762.660	0.0152171
762.738	0.0152630
762.816	0.0153204
762.894	0.0151827
762.972	0.0153074
763.050	0.0154604
763.128	0.0153359
763.206	0.0152236
763.285	0.0153011
763.363	0.0153796
763.441	0.0152921
763.519	0.0153452
763.597	0.0154449
763.675	0.0155634
763.753	0.0155579
763.831	0.0156882
763.910	0.0155916
763.988	0.0157938
764.066	0.0157864
764.144	0.0158125
764.222	0.0157182
764.300	0.0157659
764.378	0.0157919
764.456	0.0156495
764.535	0.0155906
764.613	0.0155677
764.691	0.0154621
764.769	0.0153352
764.847	0.0152013
764.925	0.0149835
765.003	0.0149704
765.081	0.0150584
765.160	0.0146816
765.238	0.0147392
765.316	0.0145754
765.394	0.0144501
765.472	0.0145784
765.550	0.0145090
765.628	0.0144543
765.706	0.0146166
765.785	0.0145525
765.863	0.0144380
765.941	0.0144333
766.019	0.0144711
766.097	0.0143399
766.175	0.0142754
766.253	0.0143053
766.331	0.0142500
766.410	0.0141774
766.488	0.0143728
766.566	0.0143153
766.644	0.0144669
766.722	0.0143623
766.800	0.0144522
766.878	0.0143931
766.956	0.0144046
767.035	0.0143857
767.113	0.0143918
767.191	0.0143475
767.269	0.0142204
767.347	0.0141241
767.425	0.0140877
767.503	0.0140895
767.581	0.0141362
767.660	0.0140819
767.738	0.0140875
767.816	0.0141220
767.894	0.0140040
767.972	0.0141882
768.050	0.0142558
768.128	0.0142608
768.206	0.0143120
768.285	0.0143948
768.363	0.0142155
768.441	0.0143613
768.519	0.0143806
768.597	0.0143651
768.675	0.0143804
768.753	0.0143823
768.831	0.0144032
768.910	0.0145154
768.988	0.0145287
769.066	0.0145840
769.144	0.0145796
769.222	0.0146320
769.300	0.0148915
769.378	0.0149305
769.456	0.0149056
769.535	0.0149219
769.613	0.0150063
769.691	0.0150709
769.769	0.0151149
769.847	0.0150688
769.925	0.0151717
770.003	0.0152074
770.081	0.0152517
770.160	0.0150906
770.238	0.0151775
770.316	0.0152468
770.394	0.0153666
770.472	0.0150298
770.550	0.0152508
770.628	0.0153303
770.706	0.0152355
770.785	0.0151529
770.863	0.0152706
770.941	0.0152348
771.019	0.0153143
771.097	0.0152606
771.175	0.0152487
771.253	0.0153233
771.331	0.0152698
771.410	0.0152206
771.488	0.0152666
771.566	0.0151077
771.644	0.0150330
771.722	0.0151715
771.800	0.0151749
771.878	0.0152588
771.956	0.0151584
772.035	0.0151386
772.113	0.0151488
772.191	0.0150373
772.269	0.0151313
772.347	0.0151550
772.425	0.0152057
772.503	0.0150684
772.581	0.0151176
772.660	0.0151644
772.738	0.0150502
772.816	0.0151411
772.894	0.0151502
772.972	0.0151782
773.050	0.0150685
773.128	0.0150372
773.206	0.0149393
773.285	0.0148267
773.363	0.0146540
773.441	0.0146529
773.519	0.0144332
773.597	0.0144724
773.675	0.0143999
773.753	0.0143490
773.831	0.0141857
773.910	0.0140851
773.988	0.0140517
774.066	0.0139008
774.144	0.0137404
774.222	0.0136964
774.300	0.0137093
774.378	0.0137652
774.456	0.0136626
774.535	0.0135327
774.613	0.0136501
774.691	0.0137463
774.769	0.0136871
774.847	0.0138594
774.925	0.0138811
775.003	0.0137746
775.081	0.0137778
775.160	0.0139336
775.238	0.0140572
775.316	0.0143083
775.394	0.0141341
775.472	0.0143558
775.550	0.0143284
775.628	0.0145953
775.706	0.0144665
775.785	0.0146149
775.863	0.0147695
775.941	0.0147305
776.019	0.0148837
776.097	0.0148044
776.175	0.0148875
776.253	0.0148918
776.331	0.0149458
776.410	0.0150564
776.488	0.0151629
776.566	0.0152090
776.644	0.0152962
776.722	0.0153311
776.800	0.0152115
776.878	0.0153073
776.956	0.0153135
777.035	0.0156571
777.113	0.0154375
777.191	0.0154790
777.269	0.0155943
777.347	0.0155650
777.425	0.0154976
777.503	0.0155931
777.581	0.0156152
777.660	0.0155054
777.738	0.0154504
777.816	0.0153329
777.894	0.0154218
777.972	0.0154745
778.050	0.0153614
778.128	0.0153407
778.206	0.0153997
778.285	0.0154140
778.363	0.0152285
778.441	0.0153870
778.519	0.0152546
778.597	0.0151001
778.675	0.0152063
778.753	0.0150645
778.831	0.0149403
778.910	0.0151181
778.988	0.0150579
779.066	0.0150493
779.144	0.0149687
779.222	0.0149594
779.300	0.0149081
779.378	0.0149596
779.456	0.0148871
779.535	0.0148675
779.613	0.0149012
779.691	0.0147357
779.769	0.0149900
779.847	0.0148287
779.925	0.0148956
780.003	0.0148033
780.081	0.0149033
780.160	0.0148635
780.238	0.0148269
780.316	0.0145420
780.394	0.0146947
780.472	0.0146181
780.550	0.0146922
780.628	0.0146678
780.706	0.0145487
780.785	0.0143994
780.863	0.0143327
780.941	0.0145399
781.019	0.0143613
781.097	0.0144149
781.175	0.0143655
781.253	0.0142529
781.331	0.0143813
781.410	0.0144094
781.488	0.0143899
781.566	0.0143036
781.644	0.0141702
781.722	0.0141156
781.800	0.0142357
781.878	0.0142727
781.956	0.0143168
782.035	0.0143351
782.113	0.0143628
782.191	0.0142545
782.269	0.0142835
782.347	0.0143372
782.425	0.0142177
782.503	0.0142483
782.581	0.0142260
782.660	0.0141654
782.738	0.0143104
782.816	0.0144521
782.894	0.0144559
782.972	0.0143391
783.050	0.0144541
783.128	0.0146375
783.206	0.0147076
783.285	0.0148250
783.363	0.0148420
783.441	0.0149850
783.519	0.0149541
783.597	0.0150625
783.675	0.0151185
783.753	0.0150758
783.831	0.0150620
783.910	0.0151248
783.988	0.0151623
784.066	0.0152283
784.144	0.0153024
784.222	0.0153680
784.300	0.0151758
784.378	0.0151785
784.456	0.0151524
784.535	0.0152023
784.613	0.0152194
784.691	0.0151512
784.769	0.0151759
784.847	0.0151102
784.925	0.0152145
785.003	0.0150845
785.081	0.0151299
785.160	0.0152373
785.238	0.0152733
785.316	0.0152638
785.394	0.0151949
785.472	0.0152266
785.550	0.0151457
785.628	0.0151672
785.706	0.0152148
785.785	0.0151180
785.863	0.0150843
785.941	0.0150868
786.019	0.0151430
786.097	0.0150276
786.175	0.0150463
786.253	0.0149957
786.331	0.0148308
786.410	0.0147846
786.488	0.0146115
786.566	0.0145821
786.644	0.0146114
786.722	0.0144535
786.800	0.0144022
786.878	0.0145231
786.956	0.0143756
787.035	0.0142754
787.113	0.0142924
787.191	0.0143288
787.269	0.0142075
787.347	0.0142733
787.425	0.0143839
787.503	0.0144701
787.581	0.0143847
787.660	0.0144823
787.738	0.0145398
787.816	0.0144669
787.894	0.0144975
787.972	0.0146753
788.050	0.0145509
788.128	0.0143958
788.206	0.0144988
788.285	0.0144130
788.363	0.0143850
788.441	0.0145739
788.519	0.0143143
788.597	0.0143883
788.675	0.0143111
788.753	0.0143636
788.831	0.0144883
788.910	0.0144086
788.988	0.0142997
789.066	0.0143683
789.144	0.0144529
789.222	0.0143813
789.300	0.0145291
789.378	0.0144527
789.456	0.0146068
789.535	0.0142914
789.613	0.0144734
789.691	0.0146664
789.769	0.0144769
789.847	0.0144253
789.925	0.0144225
790.003	0.0144962
790.081	0.0145062
790.160	0.0143462
790.238	0.0145197
790.316	0.0147281
790.394	0.0146430
790.472	0.0145590
790.550	0.0148417
790.628	0.0147127
790.706	0.0148347
790.785	0.0147475
790.863	0.0146988
790.941	0.0147134
791.019	0.0147794
791.097	0.0148421
791.175	0.0149846
791.253	0.0148699
791.331	0.0147773
791.410	0.0149139
791.488	0.0148701
791.566	0.0149689
791.644	0.0149904
791.722	0.0150894
791.800	0.0150484
791.878	0.0149814
791.956	0.0149079
792.035	0.0151385
792.113	0.0151682
792.191	0.0150833
792.269	0.0151563
792.347	0.0151819
792.425	0.0151089
792.503	0.0152713
792.581	0.0152129
792.660	0.0152668
792.738	0.0152040
792.816	0.0152483
792.894	0.0152455
792.972	0.0152371
793.050	0.0153133
793.128	0.0151426
793.206	0.0151009
793.285	0.0152309
793.363	0.0152723
793.441	0.0151189
793.519	0.0150397
793.597	0.0149506
793.675	0.0149957
793.753	0.0149509
793.831	0.0148158
793.910	0.0148816
793.988	0.0148566
794.066	0.0146942
794.144	0.0147570
794.222	0.0147225
794.300	0.0146587
794.378	0.0145810
794.456	0.0144472
794.535	0.0144874
794.613	0.0144402
794.691	0.0144503
794.769	0.0144243
794.847	0.0144022
794.925	0.0142023
795.003	0.0142533
795.081	0.0143569
795.160	0.0141809
795.238	0.0141573
795.316	0.0143203
795.394	0.0141782
795.472	0.0140881
795.550	0.0142283
795.628	0.0142285
795.706	0.0141667
795.785	0.0140707
795.863	0.0141527
795.941	0.0141277
796.019	0.0140113
796.097	0.0141271
796.175	0.0142142
796.253	0.0142643
796.331	0.0142471
796.410	0.0142692
796.488	0.0143903
796.566	0.0144460
796.644	0.0145721
796.722	0.0144813
796.800	0.0145760
796.878	0.0146955
796.956	0.0147977
797.035	0.0146291
797.113	0.0146791
797.191	0.0147197
797.269	0.0147465
797.347	0.0148220
797.425	0.0147063
797.503	0.0147308
797.581	0.0148581
797.660	0.0147758
797.738	0.0147209
797.816	0.0147729
797.894	0.0148611
797.972	0.0148544
798.050	0.0147778
798.128	0.0148730
798.206	0.0148432
798.285	0.0147652
798.363	0.0149650
798.441	0.0148719
798.519	0.0148898
798.597	0.0147902
798.675	0.0148270
798.753	0.0148628
798.831	0.0148347
798.910	0.0149158
798.988	0.0149670
799.066	0.0148788
799.144	0.0148526
799.222	0.0149839
799.300	0.0149236
799.378	0.0148483
799.456	0.0149358
799.535	0.0149156
799.613	0.0149071
799.691	0.0149530
799.769	0.0148848
799.847	0.0148640
799.925	0.0149288
800.003	0.0150214
800.081	0.0149554
800.160	0.0149250
800.238	0.0151914
800.316	0.0149727
800.394	0.0150949
800.472	0.0152385
800.550	0.0151318
800.628	0.0151572
800.706	0.0150979
800.785	0.0151178
800.863	0.0151435
800.941	0.0150678
801.019	0.0151553
801.097	0.0151318
801.175	0.0152644
801.253	0.0151692
801.331	0.0150794
801.410	0.0151278
801.488	0.0151547
801.566	0.0149364
801.644	0.0148581
801.722	0.0149097
801.800	0.0149068
801.878	0.0148022
801.956	0.0146279
802.035	0.0147672
802.113	0.0146113
802.191	0.0145346
802.269	0.0144547
802.347	0.0142139
802.425	0.0143224
802.503	0.0143023
802.581	0.0142631
802.660	0.0142490
802.738	0.0142577
802.816	0.0141802
802.894	0.0142307
802.972	0.0141126
803.050	0.0140952
803.128	0.0141489
803.206	0.0141095
803.285	0.0142288
803.363	0.0142395
803.441	0.0140484
803.519	0.0140816
803.597	0.0142517
803.675	0.0141693
803.753	0.0140704
803.831	0.0141878
803.910	0.0141768
803.988	0.0141729
804.066	0.0143308
804.144	0.0145078
804.222	0.0145179
804.300	0.0145864
804.378	0.0144560
804.456	0.0144443
804.535	0.0146051
804.613	0.0145754
804.691	0.0145644
804.769	0.0145805
804.847	0.0146361
804.925	0.0145716
805.003	0.0145636
805.081	0.0145078
805.160	0.0144218
805.238	0.0144730
805.316	0.0143558
805.394	0.0143801
805.472	0.0143294
805.550	0.0143342
805.628	0.0142036
805.706	0.0143787
805.785	0.0145908
805.863	0.0148597
805.941	0.0150120
806.019	0.0151035
806.097	0.0154268
806.175	0.0156618
806.253	0.0157800
806.331	0.0158382
806.410	0.0158057
806.488	0.0159645
806.566	0.0159512
806.644	0.0158352
806.722	0.0157127
806.800	0.0155643
806.878	0.0155122
806.956	0.0154664
807.035	0.0154723
807.113	0.0155260
807.191	0.0153802
807.269	0.0154223
807.347	0.0156126
807.425	0.0155740
807.503	0.0154649
807.581	0.0154646
807.660	0.0154266
807.738	0.0155156
807.816	0.0155276
807.894	0.0155561
807.972	0.0153086
808.050	0.0153753
808.128	0.0154078
808.206	0.0152164
808.285	0.0149470
808.363	0.0148941
808.441	0.0146925
808.519	0.0145177
808.597	0.0141624
808.675	0.0139725
808.753	0.0137189
808.831	0.0135477
808.910	0.0133928
808.988	0.0130430
809.066	0.0129653
809.144	0.0128526
809.222	0.0131065
809.300	0.0130911
809.378	0.0132431
809.456	0.0132787
809.535	0.0134981
809.613	0.0136535
809.691	0.0137491
809.769	0.0140863
809.847	0.0143354
809.925	0.0145976
810.003	0.0148516
810.081	0.0148431
810.160	0.0152603
810.238	0.0151987
810.316	0.0152137
810.394	0.0152037
810.472	0.0153210
810.550	0.0154031
810.628	0.0153720
810.706	0.0154873
810.785	0.0155632
810.863	0.0155564
810.941	0.0155119
811.019	0.0155331
811.097	0.0155459
811.175	0.0155297
811.253	0.0155647
811.331	0.0154408
811.410	0.0152631
811.488	0.0150934
811.566	0.0147272
811.644	0.0145803
811.722	0.0143993
811.800	0.0142622
811.878	0.0140767
811.956	0.0139471
812.035	0.0137084
812.113	0.0135285
812.191	0.0135947
812.269	0.0137663
812.347	0.0136323
812.425	0.0137029
812.503	0.0139041
812.581	0.0138597
812.660	0.0140427
812.738	0.0142746
812.816	0.0144745
812.894	0.0145079
812.972	0.0146880
813.050	0.0148196
813.128	0.0150093
813.206	0.0151617
813.285	0.0150899
813.363	0.0153610
813.441	0.0154910
813.519	0.0155531
813.597	0.0155586
813.675	0.0156997
813.753	0.0156071
813.831	0.0157054
813.910	0.0157396
813.988	0.0157478
814.066	0.0156690
814.144	0.0155920
814.222	0.0155987
814.300	0.0155145
814.378	0.0154458
814.456	0.0152727
814.535	0.0153256
814.613	0.0153663
814.691	0.0152771
814.769	0.0151628
814.847	0.0151026
814.925	0.0152766
815.003	0.0149165
815.081	0.0147571
815.160	0.0147392
815.238	0.0145128
815.316	0.0143585
815.394	0.0142622
815.472	0.0142695
815.550	0.0141571
815.628	0.0140085
815.706	0.0139758
815.785	0.0139959
815.863	0.0138235
815.941	0.0138693
816.019	0.0138610
816.097	0.0137494
816.175	0.0137296
816.253	0.0139115
816.331	0.0137954
816.410	0.0137681
816.488	0.0137881
816.566	0.0138126
816.644	0.0138478
816.722	0.0138965
816.800	0.0139014
816.878	0.0141618
816.956	0.0141855
817.035	0.0141777
817.113	0.0142516
817.191	0.0144090
817.269	0.0146815
817.347	0.0148498
817.425	0.0147198
817.503	0.0149007
817.581	0.0150991
817.660	0.0152294
817.738	0.0153548
817.816	0.0153238
817.894	0.0153660
817.972	0.0152119
818.050	0.0152465
818.128	0.0151853
818.206	0.0150977
818.285	0.0151916
818.363	0.0152210
818.441	0.0150911
818.519	0.0151369
818.597	0.0150317
818.675	0.0149691
818.753	0.0149675
818.831	0.0148349
818.910	0.0147746
818.988	0.0149043
819.066	0.0147245
819.144	0.0147896
819.222	0.0147906
819.300	0.0147318
819.378	0.0148830
819.456	0.0146743
819.535	0.0147247
819.613	0.0147237
819.691	0.0147193
819.769	0.0148233
819.847	0.0148247
819.925	0.0147025
820.003	0.0146819
820.081	0.0146996
820.160	0.0147414
820.238	0.0145659
820.316	0.0144449
820.394	0.0144939
820.472	0.0145789
820.550	0.0145103
820.628	0.0144323
820.706	0.0145479
820.785	0.0145415
820.863	0.0144131
820.941	0.0145502
821.019	0.0144351
821.097	0.0143574
821.175	0.0144889
821.253	0.0146157
821.331	0.0144990
821.410	0.0145126
821.488	0.0145887
821.566	0.0147231
821.644	0.0148186
821.722	0.0148280
821.800	0.0148511
821.878	0.0149066
821.956	0.0148882
822.035	0.0149812
822.113	0.0149203
822.191	0.0149093
822.269	0.0150213
822.347	0.0150282
822.425	0.0150629
822.503	0.0150213
822.581	0.0150246
822.660	0.0148218
822.738	0.0149403
822.816	0.0151084
822.894	0.0151359
822.972	0.0152000
823.050	0.0151471
823.128	0.0151880
823.206	0.0151581
823.285	0.0151918
823.363	0.0151247
823.441	0.0150576
823.519	0.0152388
823.597	0.0151766
823.675	0.0151250
823.753	0.0150800
823.831	0.0149854
823.910	0.0148794
823.988	0.0147559
824.066	0.0148300
824.144	0.0146444
824.222	0.0145061
824.300	0.0144394
824.378	0.0144582
824.456	0.0145140
824.535	0.0142924
824.613	0.0143766
824.691	0.0143437
824.769	0.0143433
824.847	0.0141413
824.925	0.0141065
825.003	0.0141714
825.081	0.0142937
825.160	0.0141396
825.238	0.0141463
825.316	0.0141888
825.394	0.0141065
825.472	0.0141040
825.550	0.0141288
825.628	0.0140639
825.706	0.0141776
825.785	0.0141249
825.863	0.0141872
825.941	0.0143387
826.019	0.0142204
826.097	0.0143398
826.175	0.0143098
826.253	0.0143282
826.331	0.0142277
826.410	0.0143771
826.488	0.0144547
826.566	0.0144981
826.644	0.0146481
826.722	0.0148333
826.800	0.0147549
826.878	0.0147199
826.956	0.0147102
827.035	0.0148870
827.113	0.0148286
827.191	0.0149830
827.269	0.0148993
827.347	0.0148277
827.425	0.0149300
827.503	0.0148470
827.581	0.0149741
827.660	0.0149466
827.738	0.0151318
827.816	0.0151259
827.894	0.0150591
827.972	0.0149829
828.050	0.0151363
828.128	0.0151008
828.206	0.0153413
828.285	0.0153653
828.363	0.0154362
828.441	0.0153925
828.519	0.0155577
828.597	0.0154623
828.675	0.0154168
828.753	0.0156371
828.831	0.0156264
828.910	0.0155565
828.988	0.0155650
829.066	0.0156039
829.144	0.0155661
829.222	0.0155682
829.300	0.0153860
829.378	0.0154240
829.456	0.0155513
829.535	0.0152544
829.613	0.0152332
829.691	0.0152936
829.769	0.0151958
829.847	0.0152819
829.925	0.0150749
830.003	0.0150655
830.081	0.0150542
830.160	0.0149113
830.238	0.0147984
830.316	0.0146371
830.394	0.0147263
830.472	0.0145483
830.550	0.0144528
830.628	0.0145511
830.706	0.0144638
830.785	0.0142676
830.863	0.0142784
830.941	0.0143378
831.019	0.0140936
831.097	0.0140527
831.175	0.0139407
831.253	0.0138861
831.331	0.0138184
831.410	0.0138113
831.488	0.0137512
831.566	0.0136990
831.644	0.0137160
831.722	0.0135841
831.800	0.0134820
831.878	0.0135452
831.956	0.0134663
832.035	0.0135183
832.113	0.0134765
832.191	0.0135081
832.269	0.0136658
832.347	0.0138294
832.425	0.0140685
832.503	0.0142371
832.581	0.0144356
832.660	0.0146539
832.738	0.0148433
832.816	0.0150784
832.894	0.0152378
832.972	0.0153876
833.050	0.0153228
833.128	0.0154405
833.206	0.0153432
833.285	0.0152016
833.363	0.0151133
833.441	0.0150378
833.519	0.0151608
833.597	0.0150761
833.675	0.0152461
833.753	0.0152097
833.831	0.0153162
833.910	0.0153624
833.988	0.0153700
834.066	0.0156652
834.144	0.0157169
834.222	0.0156782
834.300	0.0158630
834.378	0.0157295
834.456	0.0154985
834.535	0.0153642
834.613	0.0153739
834.691	0.0150935
834.769	0.0150051
834.847	0.0147868
834.925	0.0145650
835.003	0.0144928
835.081	0.0143656
835.160	0.0143729
835.238	0.0143120
835.316	0.0144247
835.394	0.0145150
835.472	0.0146046
835.550	0.0149154
835.628	0.0149646
835.706	0.0151780
835.785	0.0154729
835.863	0.0153870
835.941	0.0154986
836.019	0.0155794
836.097	0.0153376
836.175	0.0153799
836.253	0.0153285
836.331	0.0152357
836.410	0.0151039
836.488	0.0149582
836.566	0.0147337
836.644	0.0144974
836.722	0.0144550
836.800	0.0142292
836.878	0.0140136
836.956	0.0139739
837.035	0.0140015
837.113	0.0137234
837.191	0.0138570
837.269	0.0140210
837.347	0.0139069
837.425	0.0141473
837.503	0.0144170
837.581	0.0143123
837.660	0.0145422
837.738	0.0146522
837.816	0.0146328
837.894	0.0147369
837.972	0.0149780
838.050	0.0150494
838.128	0.0151237
838.206	0.0151421
838.285	0.0150140
838.363	0.0150168
838.441	0.0149920
838.519	0.0149724
838.597	0.0148928
838.675	0.0148772
838.753	0.0146581
838.831	0.0146542
838.910	0.0143971
838.988	0.0145255
839.066	0.0143945
839.144	0.0143497
839.222	0.0143305
839.300	0.0142171
839.378	0.0142183
839.456	0.0141074
839.535	0.0142361
839.613	0.0143014
839.691	0.0143659
839.769	0.0142937
839.847	0.0144016
839.925	0.0144921
840.003	0.0147330
840.081	0.0147899
840.160	0.0149122
840.238	0.0150130
840.316	0.0151018
840.394	0.0150346
840.472	0.0152158
840.550	0.0152708
840.628	0.0152451
840.706	0.0152483
840.785	0.0154263
840.863	0.0151105
840.941	0.0152544
841.019	0.0154028
841.097	0.0152677
841.175	0.0152641
841.253	0.0153642
841.331	0.0153946
841.410	0.0151575
841.488	0.0152366
841.566	0.0153117
841.644	0.0152673
841.722	0.0151057
841.800	0.0151466
841.878	0.0152364
841.956	0.0149562
842.035	0.0148965
842.113	0.0148811
842.191	0.0147974
842.269	0.0147771
842.347	0.0146709
842.425	0.0146590
842.503	0.0145705
842.581	0.0145031
842.660	0.0145610
842.738	0.0145865
842.816	0.0144918
842.894	0.0145630
842.972	0.0145895
843.050	0.0144570
843.128	0.0146125
843.206	0.0145965
843.285	0.0146323
843.363	0.0146430
843.441	0.0146245
843.519	0.0147270
843.597	0.0146653
843.675	0.0146539
843.753	0.0145601
843.831	0.0148505
843.910	0.0148084
843.988	0.0145875
844.066	0.0146265
844.144	0.0149337
844.222	0.0148536
844.300	0.0147286
844.378	0.0148849
844.456	0.0148395
844.535	0.0149007
844.613	0.0147804
844.691	0.0149121
844.769	0.0148754
844.847	0.0149029
844.925	0.0148476
845.003	0.0149963
845.081	0.0150036
845.160	0.0149340
845.238	0.0149787
845.316	0.0148073
845.394	0.0148206
845.472	0.0148880
845.550	0.0147613
845.628	0.0148198
845.706	0.0147631
845.785	0.0146446
845.863	0.0146979
845.941	0.0147314
846.019	0.0145415
846.097	0.0146601
846.175	0.0145914
846.253	0.0145907
846.331	0.0146517
846.410	0.0145876
846.488	0.0146621
846.566	0.0145802
846.644	0.0146880
846.722	0.0146897
846.800	0.0146954
846.878	0.0148035
846.956	0.0149810
847.035	0.0149555
847.113	0.0149854
847.191	0.0149224
847.269	0.0148914
847.347	0.0149834
847.425	0.0151160
847.503	0.0148903
847.581	0.0149570
847.660	0.0149197
847.738	0.0148727
847.816	0.0149222
847.894	0.0149274
847.972	0.0147550
848.050	0.0146021
848.128	0.0146221
848.206	0.0145862
848.285	0.0145631
848.363	0.0146520
848.441	0.0145213
848.519	0.0147024
848.597	0.0146384
848.675	0.0146333
848.753	0.0146148
848.831	0.0146268
848.910	0.0146206
848.988	0.0147251
849.066	0.0147456
849.144	0.0147800
849.222	0.0147565
849.300	0.0147515
849.378	0.0149335
849.456	0.0150439
849.535	0.0149274
849.613	0.0150166
849.691	0.0151404
849.769	0.0151543
849.847	0.0150642
849.925	0.0152794
850.003	0.0152982
850.081	0.0153024
850.160	0.0152309
850.238	0.0152027
850.316	0.0151409
850.394	0.0150365
850.472	0.0148055
850.550	0.0148566
850.628	0.0147175
850.706	0.0146674
850.785	0.0146332
850.863	0.0145444
850.941	0.0143126
851.019	0.0144713
851.097	0.0145692
851.175	0.0144092
851.253	0.0144830
851.331	0.0145894
851.410	0.0145944
851.488	0.0147274
851.566	0.0146690
851.644	0.0146803
851.722	0.0147450
851.800	0.0149270
851.878	0.0149475
851.956	0.0148961
852.035	0.0148582
852.113	0.0148104
852.191	0.0147893
852.269	0.0148832
852.347	0.0148665
852.425	0.0146014
852.503	0.0146606
852.581	0.0146574
852.660	0.0148138
852.738	0.0147034
852.816	0.0148521
852.894	0.0147892
852.972	0.0147028
853.050	0.0147926
853.128	0.0149323
853.206	0.0148624
853.285	0.0148044
853.363	0.0149549
853.441	0.0148492
853.519	0.0147828
853.597	0.0148762
853.675	0.0146751
853.753	0.0146478
853.831	0.0146572
853.910	0.0147342
853.988	0.0144913
854.066	0.0144334
854.144	0.0145972
854.222	0.0147042
854.300	0.0145111
854.378	0.0145514
854.456	0.0145639
854.535	0.0147389
854.613	0.0147601
854.691	0.0147334
854.769	0.0146233
854.847	0.0148449
854.925	0.0148052
855.003	0.0148557
855.081	0.0148909
855.160	0.0148598
855.238	0.0148128
855.316	0.0148828
855.394	0.0149197
855.472	0.0149605
855.550	0.0149969
855.628	0.0149806
855.706	0.0148686
855.785	0.0148756
855.863	0.0150467
855.941	0.0150605
856.019	0.0149462
856.097	0.0150593
856.175	0.0149641
856.253	0.0149597
856.331	0.0149675
856.410	0.0150478
856.488	0.0148627
856.566	0.0148697
856.644	0.0147906
856.722	0.0149136
856.800	0.0149682
856.878	0.0148203
856.956	0.0148358
857.035	0.0148638
857.113	0.0147762
857.191	0.0148045
857.269	0.0147875
857.347	0.0148148
857.425	0.0146976
857.503	0.0147297
857.581	0.0147777
857.660	0.0147150
857.738	0.0148135
857.816	0.0148227
857.894	0.0148755
857.972	0.0148035
858.050	0.0148734
858.128	0.0147191
858.206	0.0147480
858.285	0.0148278
858.363	0.0147136
858.441	0.0149068
858.519	0.0148355
858.597	0.0147970
858.675	0.0147601
858.753	0.0146560
858.831	0.0148642
858.910	0.0146865
858.988	0.0146811
859.066	0.0147287
859.144	0.0147224
859.222	0.0147868
859.300	0.0145889
859.378	0.0147070
859.456	0.0147472
859.535	0.0146045
859.613	0.0148118
859.691	0.0147858
859.769	0.0146669
859.847	0.0147662
859.925	0.0148528
860.003	0.0148306
860.081	0.0147765
860.160	0.0148990
860.238	0.0148440
860.316	0.0149529
860.394	0.0149330
860.472	0.0150105
860.550	0.0150678
860.628	0.0148823
860.706	0.0151334
860.785	0.0150365
860.863	0.0150397
860.941	0.0149302
861.019	0.0149863
861.097	0.0149002
861.175	0.0149045
861.253	0.0148464
861.331	0.0147620
861.410	0.0146802
861.488	0.0146753
861.566	0.0145540
861.644	0.0144379
861.722	0.0142146
861.800	0.0142865
861.878	0.0145383
861.956	0.0142957
862.035	0.0143175
862.113	0.0144512
862.191	0.0143151
862.269	0.0143437
862.347	0.0143111
862.425	0.0144176
862.503	0.0143993
862.581	0.0144342
862.660	0.0145169
862.738	0.0144807
862.816	0.0144658
862.894	0.0146209
862.972	0.0145361
863.050	0.0146460
863.128	0.0146414
863.206	0.0144830
863.285	0.0147512
863.363	0.0148864
863.441	0.0147758
863.519	0.0148609
863.597	0.0149323
863.675	0.0148293
863.753	0.0148783
863.831	0.0150537
863.910	0.0149323
863.988	0.0150265
864.066	0.0150558
864.144	0.0150127
864.222	0.0149588
864.300	0.0151289
864.378	0.0150465
864.456	0.0150518
864.535	0.0150689
864.613	0.0152251
864.691	0.0152253
864.769	0.0150138
864.847	0.0150916
864.925	0.0149846
865.003	0.0149870
865.081	0.0149155
865.160	0.0150667
865.238	0.0150780
865.316	0.0149903
865.394	0.0149061
865.472	0.0149169
865.550	0.0149784
865.628	0.0148457
865.706	0.0148652
865.785	0.0147615
865.863	0.0146449
865.941	0.0147427
866.019	0.0146612
866.097	0.0146370
866.175	0.0147646
866.253	0.0148597
866.331	0.0145621
866.410	0.0146198
866.488	0.0146420
866.566	0.0147586
866.644	0.0146749
866.722	0.0148309
866.800	0.0147471
866.878	0.0147424
866.956	0.0147663
867.035	0.0146185
867.113	0.0144850
867.191	0.0147861
867.269	0.0147684
867.347	0.0147041
867.425	0.0144640
867.503	0.0145934
867.581	0.0146682
867.660	0.0145231
867.738	0.0145913
867.816	0.0146234
867.894	0.0145036
867.972	0.0144722
868.050	0.0144241
868.128	0.0144836
868.206	0.0144637
868.285	0.0144391
868.363	0.0143415
868.441	0.0143449
868.519	0.0143596
868.597	0.0145603
868.675	0.0145592
868.753	0.0147802
868.831	0.0146859
868.910	0.0147484
868.988	0.0147225
869.066	0.0149419
869.144	0.0148853
869.222	0.0148886
869.300	0.0149403
869.378	0.0148022
869.456	0.0149022
869.535	0.0148991
869.613	0.0147948
869.691	0.0148358
869.769	0.0147040
869.847	0.0147253
869.925	0.0146939
870.003	0.0147348
870.081	0.0147217
870.160	0.0145892
870.238	0.0147574
870.316	0.0146497
870.394	0.0146116
870.472	0.0147813
870.550	0.0147141
870.628	0.0148303
870.706	0.0148099
870.785	0.0147665
870.863	0.0147621
870.941	0.0150068
871.019	0.0150275
871.097	0.0152259
871.175	0.0152239
871.253	0.0151178
871.331	0.0151705
871.410	0.0152856
871.488	0.0152634
871.566	0.0150381
871.644	0.0151517
871.722	0.0148678
871.800	0.0147381
871.878	0.0148683
871.956	0.0147266
872.035	0.0147108
872.113	0.0144809
872.191	0.0144487
872.269	0.0144739
872.347	0.0145154
872.425	0.0144282
872.503	0.0144894
872.581	0.0144983
872.660	0.0145564
872.738	0.0144163
872.816	0.0145811
872.894	0.0147514
872.972	0.0148132
873.050	0.0148640
873.128	0.0147933
873.206	0.0147703
873.285	0.0146622
873.363	0.0148582
873.441	0.0151501
873.519	0.0150494
873.597	0.0150738
873.675	0.0151700
873.753	0.0151813
873.831	0.0152143
873.910	0.0151327
873.988	0.0151136
874.066	0.0151838
874.144	0.0150742
874.222	0.0150258
874.300	0.0149136
874.378	0.0148104
874.456	0.0147581
874.535	0.0147718
874.613	0.0147063
874.691	0.0146400
874.769	0.0145444
874.847	0.0146931
874.925	0.0146858
875.003	0.0144109
875.081	0.0145459
875.160	0.0144320
875.238	0.0145254
875.316	0.0146133
875.394	0.0145947
875.472	0.0146163
875.550	0.0145100
875.628	0.0148037
875.706	0.0148154
875.785	0.0146945
875.863	0.0147929
875.941	0.0148556
876.019	0.0148438
876.097	0.0147749
876.175	0.0146884
876.253	0.0146991
876.331	0.0146936
876.410	0.0147208
876.488	0.0146513
876.566	0.0145758
876.644	0.0143691
876.722	0.0142258
876.800	0.0141987
876.878	0.0142344
876.956	0.0143961
877.035	0.0143452
877.113	0.0141986
877.191	0.0143758
877.269	0.0145091
877.347	0.0146344
877.425	0.0148184
877.503	0.0147530
877.581	0.0147857
877.660	0.0149624
877.738	0.0150223
877.816	0.0150503
877.894	0.0150471
877.972	0.0150524
878.050	0.0149829
878.128	0.0150304
878.206	0.0150611
878.285	0.0148405
878.363	0.0148054
878.441	0.0148874
878.519	0.0146500
878.597	0.0147311
878.675	0.0144971
878.753	0.0145805
878.831	0.0145332
878.910	0.0143758
878.988	0.0145147
879.066	0.0143839
879.144	0.0144556
879.222	0.0144732
879.300	0.0144802
879.378	0.0144785
879.456	0.0146059
879.535	0.0147050
879.613	0.0145587
879.691	0.0148049
879.769	0.0147097
879.847	0.0148284
879.925	0.0148195
880.003	0.0149648
880.081	0.0149928
880.160	0.0149197
880.238	0.0149860
880.316	0.0150991
880.394	0.0151169
880.472	0.0150219
880.550	0.0148762
880.628	0.0150407
880.706	0.0150300
880.785	0.0149523
880.863	0.0148775
880.941	0.0149174
881.019	0.0148730
881.097	0.0147043
881.175	0.0146831
881.253	0.0146639
881.331	0.0147316
881.410	0.0147251
881.488	0.0144524
881.566	0.0146911
881.644	0.0146462
881.722	0.0146187
881.800	0.0146795
881.878	0.0147292
881.956	0.0146483
882.035	0.0147775
882.113	0.0148318
882.191	0.0149519
882.269	0.0148917
882.347	0.0149438
882.425	0.0149308
882.503	0.0151782
882.581	0.0151250
882.660	0.0150302
882.738	0.0149963
882.816	0.0148623
882.894	0.0148608
882.972	0.0149477
883.050	0.0147820
883.128	0.0147669
883.206	0.0146187
883.285	0.0144875
883.363	0.0146280
883.441	0.0146391
883.519	0.0144879
883.597	0.0144801
883.675	0.0143820
883.753	0.0143573
883.831	0.0143837
883.910	0.0143594
883.988	0.0144179
884.066	0.0144429
884.144	0.0145601
884.222	0.0145473
884.300	0.0143456
884.378	0.0145338
884.456	0.0145412
884.535	0.0147435
884.613	0.0146581
884.691	0.0146249
884.769	0.0145760
884.847	0.0147462
884.925	0.0147546
885.003	0.0147669
885.081	0.0147741
885.160	0.0147576
885.238	0.0146920
885.316	0.0146455
885.394	0.0145915
885.472	0.0146251
885.550	0.0145966
885.628	0.0145996
885.706	0.0145589
885.785	0.0145889
885.863	0.0146564
885.941	0.0147878
886.019	0.0147649
886.097	0.0147971
886.175	0.0148725
886.253	0.0148570
886.331	0.0148181
886.410	0.0147807
886.488	0.0148608
886.566	0.0149244
886.644	0.0148023
886.722	0.0147460
886.800	0.0146971
886.878	0.0147140
886.956	0.0147414
887.035	0.0147423
887.113	0.0149008
887.191	0.0148761
887.269	0.0149919
887.347	0.0149560
887.425	0.0148497
887.503	0.0147905
887.581	0.0148767
887.660	0.0146851
887.738	0.0147124
887.816	0.0148164
887.894	0.0146722
887.972	0.0145355
888.050	0.0144020
888.128	0.0144862
888.206	0.0144647
888.285	0.0144259
888.363	0.0145462
888.441	0.0144334
888.519	0.0144317
888.597	0.0144609
888.675	0.0144490
888.753	0.0145749
888.831	0.0145382
888.910	0.0147171
888.988	0.0148216
889.066	0.0149245
889.144	0.0148359
889.222	0.0149142
889.300	0.0148923
889.378	0.0149881
889.456	0.0149868
889.535	0.0148237
889.613	0.0148285
889.691	0.0147928
889.769	0.0147366
889.847	0.0146562
889.925	0.0147134
890.003	0.0146668
890.081	0.0144453
890.160	0.0145708
890.238	0.0146101
890.316	0.0146709
890.394	0.0144930
890.472	0.0145613
890.550	0.0145248
890.628	0.0145337
890.706	0.0146023
890.785	0.0145650
890.863	0.0144106
890.941	0.0145298
891.019	0.0145843
891.097	0.0144045
891.175	0.0143235
891.253	0.0143487
891.331	0.0145159
891.410	0.0144494
891.488	0.0142583
891.566	0.0144585
891.644	0.0144674
891.722	0.0143659
891.800	0.0142831
891.878	0.0144474
891.956	0.0144936
892.035	0.0144741
892.113	0.0145019
892.191	0.0146431
892.269	0.0145684
892.347	0.0146024
892.425	0.0147765
892.503	0.0148305
892.581	0.0146835
892.660	0.0146870
892.738	0.0147776
892.816	0.0147023
892.894	0.0146017
892.972	0.0146766
893.050	0.0147055
893.128	0.0146962
893.206	0.0146076
893.285	0.0147318
893.363	0.0147832
893.441	0.0147901
893.519	0.0147819
893.597	0.0147606
893.675	0.0148885
893.753	0.0149606
893.831	0.0148526
893.910	0.0150352
893.988	0.0148958
894.066	0.0147860
894.144	0.0147891
894.222	0.0149541
894.300	0.0149608
894.378	0.0149998
894.456	0.0148721
894.535	0.0151012
894.613	0.0150155
894.691	0.0149594
894.769	0.0150002
894.847	0.0150583
894.925	0.0151163
895.003	0.0150633
895.081	0.0150019
895.160	0.0148192
895.238	0.0148222
895.316	0.0149115
895.394	0.0148326
895.472	0.0147858
895.550	0.0148133
895.628	0.0146104
895.706	0.0146231
895.785	0.0146013
895.863	0.0147638
895.941	0.0146387
896.019	0.0145793
896.097	0.0146629
896.175	0.0145300
896.253	0.0145454
896.331	0.0146309
896.410	0.0146832
896.488	0.0145480
896.566	0.0146287
896.644	0.0148319
896.722	0.0146506
896.800	0.0147099
896.878	0.0147829
896.956	0.0148226
897.035	0.0148795
897.113	0.0147826
897.191	0.0148716
897.269	0.0148219
897.347	0.0149187
897.425	0.0148278
897.503	0.0149030
897.581	0.0149034
897.660	0.0147238
897.738	0.0148131
897.816	0.0148237
897.894	0.0147859
897.972	0.0147820
898.050	0.0149579
898.128	0.0147430
898.206	0.0146103
898.285	0.0146929
898.363	0.0147226
898.441	0.0147945
898.519	0.0146627
898.597	0.0145293
898.675	0.0144051
898.753	0.0144705
898.831	0.0146416
898.910	0.0146552
898.988	0.0145168
899.066	0.0144908
899.144	0.0144360
899.222	0.0144098
899.300	0.0144942
899.378	0.0145358
899.456	0.0143864
899.535	0.0144037
899.613	0.0142848
899.691	0.0142262
899.769	0.0142696
899.847	0.0142801
899.925	0.0143588
900.003	0.0143426
900.081	0.0142890
900.160	0.0142883
900.238	0.0143699
900.316	0.0142104
900.394	0.0142405
900.472	0.0142907
900.550	0.0142892
900.628	0.0142601
900.706	0.0145444
900.785	0.0146002
900.863	0.0144897
900.941	0.0144547
901.019	0.0149018
901.097	0.0150549
901.175	0.0151943
901.253	0.0153615
901.331	0.0155998
901.410	0.0159025
901.488	0.0159140
901.566	0.0163075
901.644	0.0164323
901.722	0.0163151
901.800	0.0161626
901.878	0.0161120
901.956	0.0158945
902.035	0.0156481
902.113	0.0151996
902.191	0.0147002
902.269	0.0142477
902.347	0.0140157
902.425	0.0134710
902.503	0.0133239
902.581	0.0133124
902.660	0.0132462
902.738	0.0133873
902.816	0.0136815
902.894	0.0141307
902.972	0.0144841
903.050	0.0148359
903.128	0.0151302
903.206	0.0153622
903.285	0.0152946
903.363	0.0152136
903.441	0.0151735
903.519	0.0148594
903.597	0.0145302
903.675	0.0139986
903.753	0.0137598
903.831	0.0135143
903.910	0.0133812
903.988	0.0132031
904.066	0.0132262
904.144	0.0132315
904.222	0.0136137
904.300	0.0139621
904.378	0.0142749
904.456	0.0146839
904.535	0.0151102
904.613	0.0156327
904.691	0.0159528
904.769	0.0161823
904.847	0.0166083
904.925	0.0166946
905.003	0.0168272
905.081	0.0165640
905.160	0.0165125
905.238	0.0162545
905.316	0.0159553
905.394	0.0156797
905.472	0.0152708
905.550	0.0150309
905.628	0.0146217
905.706	0.0145648
905.785	0.0142760
905.863	0.0141441
905.941	0.0140291
906.019	0.0141459
906.097	0.0140060
906.175	0.0141873
906.253	0.0141658
906.331	0.0142986
906.410	0.0143436
906.488	0.0145143
906.566	0.0146328
906.644	0.0147533
906.722	0.0147090
906.800	0.0147738
906.878	0.0145396
906.956	0.0144296
907.035	0.0143587
907.113	0.0143407
907.191	0.0141840
907.269	0.0139393
907.347	0.0139642
907.425	0.0138725
907.503	0.0137370
907.581	0.0137695
907.660	0.0140411
907.738	0.0143385
907.816	0.0141958
907.894	0.0143915
907.972	0.0146696
908.050	0.0149034
908.128	0.0151563
908.206	0.0152254
908.285	0.0152674
908.363	0.0155301
908.441	0.0156537
908.519	0.0154264
908.597	0.0154121
908.675	0.0153715
908.753	0.0155090
908.831	0.0153795
908.910	0.0153169
908.988	0.0152173
909.066	0.0152769
909.144	0.0151948
909.222	0.0151404
909.300	0.0152564
909.378	0.0149750
909.456	0.0148985
909.535	0.0147857
909.613	0.0147073
909.691	0.0146665
909.769	0.0147879
909.847	0.0145684
909.925	0.0145376
910.003	0.0144129
910.081	0.0141264
910.160	0.0142588
910.238	0.0143349
910.316	0.0143403
910.394	0.0143615
910.472	0.0144524
910.550	0.0145455
910.628	0.0144531
910.706	0.0143947
910.785	0.0146673
910.863	0.0146037
910.941	0.0144573
911.019	0.0145990
911.097	0.0146828
911.175	0.0145039
911.253	0.0146368
911.331	0.0145030
911.410	0.0145433
911.488	0.0147104
911.566	0.0145317
911.644	0.0146564
911.722	0.0146751
911.800	0.0146918
911.878	0.0147675
911.956	0.0148431
912.035	0.0149487
912.113	0.0149731
912.191	0.0148592
912.269	0.0149397
912.347	0.0147781
912.425	0.0149067
912.503	0.0150130
912.581	0.0149135
912.660	0.0148419
912.738	0.0148188
912.816	0.0148728
912.894	0.0148895
912.972	0.0147408
913.050	0.0148548
913.128	0.0147719
913.206	0.0148392
913.285	0.0146964
913.363	0.0146454
913.441	0.0146838
913.519	0.0146195
913.597	0.0144678
913.675	0.0145340
913.753	0.0147206
913.831	0.0145713
913.910	0.0146481
913.988	0.0146375
914.066	0.0146546
914.144	0.0147309
914.222	0.0147392
914.300	0.0149255
914.378	0.0149954
914.456	0.0149609
914.535	0.0149175
914.613	0.0150552
914.691	0.0150233
914.769	0.0150050
914.847	0.0147916
914.925	0.0149029
915.003	0.0148065
915.081	0.0148586
915.160	0.0147340
915.238	0.0147337
915.316	0.0146606
915.394	0.0146445
915.472	0.0147755
915.550	0.0145477
915.628	0.0146233
915.706	0.0146305
915.785	0.0145315
915.863	0.0145791
915.941	0.0145258
916.019	0.0145132
916.097	0.0143807
916.175	0.0143858
916.253	0.0145132
916.331	0.0144803
916.410	0.0146249
916.488	0.0147322
916.566	0.0146844
916.644	0.0146905
916.722	0.0148817
916.800	0.0149048
916.878	0.0149538
916.956	0.0150092
917.035	0.0150799
917.113	0.0151723
917.191	0.0151527
917.269	0.0150787
917.347	0.0151959
917.425	0.0150971
917.503	0.0150639
917.581	0.0151140
917.660	0.0151434
917.738	0.0149851
917.816	0.0150552
917.894	0.0149739
917.972	0.0150662
918.050	0.0151785
918.128	0.0149953
918.206	0.0149469
918.285	0.0148724
918.363	0.0149283
918.441	0.0147453
918.519	0.0146251
918.597	0.0145898
918.675	0.0143586
918.753	0.0142620
918.831	0.0142204
918.910	0.0141658
918.988	0.0140468
919.066	0.0140062
919.144	0.0140447
919.222	0.0141602
919.300	0.0143143
919.378	0.0142978
919.456	0.0144808
919.535	0.0146983
919.613	0.0147068
919.691	0.0148635
919.769	0.0150285
919.847	0.0151662
919.925	0.0152437
920.003	0.0153005
920.081	0.0153402
920.160	0.0151832
920.238	0.0152520
920.316	0.0153010
920.394	0.0149796
920.472	0.0149239
920.550	0.0148663
920.628	0.0146629
920.706	0.0146274
920.785	0.0145102
920.863	0.0143807
920.941	0.0143583
921.019	0.0143309
921.097	0.0142498
921.175	0.0142826
921.253	0.0142792
921.331	0.0144297
921.410	0.0144215
921.488	0.0143894
921.566	0.0146037
921.644	0.0146973
921.722	0.0146745
921.800	0.0149728
921.878	0.0151456
921.956	0.0153191
922.035	0.0152030
922.113	0.0153608
922.191	0.0152982
922.269	0.0150929
922.347	0.0150903
922.425	0.0151193
922.503	0.0149825
922.581	0.0149798
922.660	0.0149226
922.738	0.0147243
922.816	0.0146093
922.894	0.0146309
922.972	0.0145438
923.050	0.0145358
923.128	0.0146109
923.206	0.0147103
923.285	0.0148035
923.363	0.0147974
923.441	0.0148634
923.519	0.0149247
923.597	0.0151102
923.675	0.0150566
923.753	0.0151055
923.831	0.0151109
923.910	0.0152427
923.988	0.0153119
924.066	0.0152425
924.144	0.0151855
924.222	0.0150533
924.300	0.0151485
924.378	0.0150167
924.456	0.0150780
924.535	0.0149686
924.613	0.0147525
924.691	0.0147790
924.769	0.0147071
924.847	0.0146866
924.925	0.0146433
925.003	0.0146879
925.081	0.0147729
925.160	0.0147029
925.238	0.0146757
925.316	0.0147467
925.394	0.0147121
925.472	0.0145038
925.550	0.0146272
925.628	0.0146071
925.706	0.0145053
925.785	0.0145576
925.863	0.0145393
925.941	0.0145163
926.019	0.0144878
926.097	0.0144134
926.175	0.0144572
926.253	0.0144003
926.331	0.0146022
926.410	0.0145112
926.488	0.0146640
926.566	0.0145914
926.644	0.0145690
926.722	0.0144801
926.800	0.0147122
926.878	0.0146976
926.956	0.0146806
927.035	0.0146005
927.113	0.0147089
927.191	0.0148711
927.269	0.0149523
927.347	0.0148095
927.425	0.0149583
927.503	0.0150285
927.581	0.0150606
927.660	0.0150446
927.738	0.0149564
927.816	0.0149197
927.894	0.0149979
927.972	0.0148746
928.050	0.0147961
928.128	0.0148159
928.206	0.0147577
928.285	0.0146405
928.363	0.0147340
928.441	0.0147221
928.519	0.0147340
928.597	0.0146268
928.675	0.0146288
928.753	0.0146227
928.831	0.0147731
928.910	0.0148506
928.988	0.0148520
929.066	0.0148383
929.144	0.0147966
929.222	0.0147966
929.300	0.0149052
929.378	0.0149625
929.456	0.0149458
929.535	0.0150748
929.613	0.0151177
929.691	0.0150247
929.769	0.0150674
929.847	0.0150764
929.925	0.0150353
930.003	0.0151203
930.081	0.0150879
930.160	0.0150394
930.238	0.0149609
930.316	0.0149242
930.394	0.0149750
930.472	0.0146737
930.550	0.0148701
930.628	0.0148894
930.706	0.0146124
930.785	0.0146558
930.863	0.0148013
930.941	0.0147231
931.019	0.0147594
931.097	0.0145933
931.175	0.0145369
931.253	0.0146523
931.331	0.0146613
931.410	0.0147302
931.488	0.0145898
931.566	0.0146089
931.644	0.0146867
931.722	0.0145291
931.800	0.0147033
931.878	0.0147314
931.956	0.0146601
932.035	0.0146400
932.113	0.0147279
932.191	0.0147390
932.269	0.0146560
932.347	0.0147686
932.425	0.0148317
932.503	0.0147170
932.581	0.0147666
932.660	0.0147534
932.738	0.0146476
932.816	0.0147746
932.894	0.0146924
932.972	0.0147222
933.050	0.0146466
933.128	0.0146954
933.206	0.0146565
933.285	0.0146933
933.363	0.0145298
933.441	0.0145686
933.519	0.0146770
933.597	0.0145526
933.675	0.0146139
933.753	0.0145755
933.831	0.0146602
933.910	0.0144917
933.988	0.0146509
934.066	0.0146091
934.144	0.0145985
934.222	0.0144908
934.300	0.0145583
934.378	0.0146052
934.456	0.0146613
934.535	0.0145391
934.613	0.0146362
934.691	0.0146725
934.769	0.0145852
934.847	0.0147148
934.925	0.0148868
935.003	0.0149308
935.081	0.0148837
935.160	0.0148788
935.238	0.0149447
935.316	0.0150504
935.394	0.0150177
935.472	0.0150251
935.550	0.0149876
935.628	0.0148996
935.706	0.0148820
935.785	0.0148530
935.863	0.0148399
935.941	0.0146905
936.019	0.0147223
936.097	0.0145821
936.175	0.0145498
936.253	0.0145582
936.331	0.0144189
936.410	0.0144334
936.488	0.0145341
936.566	0.0144927
936.644	0.0144841
936.722	0.0146508
936.800	0.0146359
936.878	0.0145847
936.956	0.0146917
937.035	0.0147846
937.113	0.0148781
937.191	0.0148368
937.269	0.0148482
937.347	0.0149126
937.425	0.0150153
937.503	0.0148223
937.581	0.0148345
937.660	0.0148899
937.738	0.0148355
937.816	0.0145688
937.894	0.0147208
937.972	0.0146244
938.050	0.0147894
938.128	0.0147562
938.206	0.0148553
938.285	0.0146602
938.363	0.0147970
938.441	0.0148006
938.519	0.0147662
938.597	0.0147369
938.675	0.0147616
938.753	0.0146484
938.831	0.0148247
938.910	0.0146785
938.988	0.0146410
939.066	0.0147439
939.144	0.0145020
939.222	0.0145954
939.300	0.0145468
939.378	0.0145644
939.456	0.0145438
939.535	0.0145517
939.613	0.0146680
939.691	0.0148184
939.769	0.0146410
939.847	0.0149165
939.925	0.0149327
940.003	0.0149232
940.081	0.0151312
940.160	0.0152296
940.238	0.0153388
940.316	0.0151745
940.394	0.0150347
940.472	0.0151044
940.550	0.0150156
940.628	0.0148959
940.706	0.0147519
940.785	0.0148126
940.863	0.0146899
940.941	0.0146979
941.019	0.0145476
941.097	0.0146115
941.175	0.0145270
941.253	0.0145574
941.331	0.0144852
941.410	0.0144442
941.488	0.0145933
941.566	0.0145420
941.644	0.0146761
941.722	0.0147756
941.800	0.0148513
941.878	0.0148936
941.956	0.0146672
942.035	0.0148379
942.113	0.0147582
942.191	0.0146452
942.269	0.0146310
942.347	0.0144956
942.425	0.0145054
942.503	0.0145594
942.581	0.0144603
942.660	0.0143037
942.738	0.0143675
942.816	0.0142672
942.894	0.0143323
942.972	0.0145161
943.050	0.0144927
943.128	0.0145504
943.206	0.0146530
943.285	0.0146609
943.363	0.0147447
943.441	0.0149204
943.519	0.0149818
943.597	0.0149637
943.675	0.0152200
943.753	0.0152261
943.831	0.0150893
943.910	0.0151603
943.988	0.0152018
944.066	0.0153120
944.144	0.0152582
944.222	0.0151900
944.300	0.0151717
944.378	0.0151501
944.456	0.0151090
944.535	0.0149574
944.613	0.0149266
944.691	0.0148400
944.769	0.0149319
944.847	0.0148497
944.925	0.0148943
945.003	0.0148045
945.081	0.0147471
945.160	0.0147089
945.238	0.0148148
945.316	0.0147818
945.394	0.0146565
945.472	0.0148344
945.550	0.0147865
945.628	0.0148521
945.706	0.0149514
945.785	0.0149107
945.863	0.0149239
945.941	0.0148797
946.019	0.0149057
946.097	0.0150689
946.175	0.0148731
946.253	0.0148573
946.331	0.0148714
946.410	0.0148623
946.488	0.0148536
946.566	0.0147425
946.644	0.0149054
946.722	0.0149684
946.800	0.0149249
946.878	0.0151340
946.956	0.0150903
947.035	0.0151260
947.113	0.0151096
947.191	0.0152469
947.269	0.0150787
947.347	0.0151049
947.425	0.0151509
947.503	0.0150099
947.581	0.0148902
947.660	0.0147739
947.738	0.0147477
947.816	0.0145842
947.894	0.0144792
947.972	0.0143922
948.050	0.0141177
948.128	0.0140565
948.206	0.0141914
948.285	0.0141993
948.363	0.0141427
948.441	0.0143738
948.519	0.0143800
948.597	0.0144131
948.675	0.0144956
948.753	0.0145105
948.831	0.0146966
948.910	0.0147227
948.988	0.0148277
949.066	0.0147855
949.144	0.0147784
949.222	0.0148631
949.300	0.0147855
949.378	0.0148471
949.456	0.0147391
949.535	0.0148066
949.613	0.0145721
949.691	0.0147208
949.769	0.0146803
949.847	0.0144590
949.925	0.0144897
950.003	0.0145797
950.081	0.0147494
950.160	0.0147348
950.238	0.0146606
950.316	0.0146254
950.394	0.0147086
950.472	0.0147332
950.550	0.0147529
950.628	0.0147067
950.706	0.0145642
950.785	0.0146323
950.863	0.0145913
950.941	0.0148111
951.019	0.0146295
951.097	0.0145126
951.175	0.0145642
951.253	0.0148019
951.331	0.0147039
951.410	0.0146165
951.488	0.0147363
951.566	0.0146337
951.644	0.0148380
951.722	0.0147222
951.800	0.0148109
951.878	0.0147285
951.956	0.0147974
952.035	0.0147868
952.113	0.0147004
952.191	0.0147358
952.269	0.0147454
952.347	0.0147308
952.425	0.0146955
952.503	0.0146984
952.581	0.0146238
952.660	0.0146723
952.738	0.0145803
952.816	0.0147167
952.894	0.0147144
952.972	0.0147353
953.050	0.0148140
953.128	0.0146722
953.206	0.0148228
953.285	0.0146767
953.363	0.0148028
953.441	0.0147517
953.519	0.0148246
953.597	0.0148759
953.675	0.0147600
953.753	0.0148049
953.831	0.0148133
953.910	0.0147592
953.988	0.0147530
954.066	0.0147002
954.144	0.0146600
954.222	0.0146852
954.300	0.0145914
954.378	0.0145779
954.456	0.0146351
954.535	0.0146255
954.613	0.0145366
954.691	0.0144948
954.769	0.0144769
954.847	0.0145282
954.925	0.0146202
955.003	0.0145902
955.081	0.0145141
955.160	0.0145926
955.238	0.0149664
955.316	0.0148830
955.394	0.0147795
955.472	0.0149602
955.550	0.0149519
955.628	0.0149716
955.706	0.0150626
955.785	0.0151405
955.863	0.0149886
955.941	0.0151165
956.019	0.0149535
956.097	0.0149379
956.175	0.0149002
956.253	0.0148290
956.331	0.0147261
956.410	0.0147552
956.488	0.0147610
956.566	0.0146777
956.644	0.0146101
956.722	0.0145713
956.800	0.0144593
956.878	0.0144511
956.956	0.0145893
957.035	0.0146046
957.113	0.0145034
957.191	0.0146195
957.269	0.0146989
957.347	0.0145708
957.425	0.0145215
957.503	0.0148125
957.581	0.0146745
957.660	0.0145348
957.738	0.0146381
957.816	0.0147362
957.894	0.0146233
957.972	0.0147081
958.050	0.0147723
958.128	0.0147924
958.206	0.0148071
958.285	0.0147743
958.363	0.0147998
958.441	0.0149087
958.519	0.0149938
958.597	0.0150199
958.675	0.0150848
958.753	0.0150830
958.831	0.0149466
958.910	0.0150363
958.988	0.0149652
959.066	0.0150156
959.144	0.0149162
959.222	0.0148746
959.300	0.0149513
959.378	0.0148757
959.456	0.0148590
959.535	0.0147313
959.613	0.0147360
959.691	0.0147149
959.769	0.0146983
959.847	0.0146157
959.925	0.0147200
960.003	0.0144013
960.081	0.0145335
960.160	0.0144353
960.238	0.0144287
960.316	0.0143276
960.394	0.0143138
960.472	0.0141616
960.550	0.0142630
960.628	0.0143648
960.706	0.0143282
960.785	0.0144630
960.863	0.0145856
960.941	0.0145879
961.019	0.0147588
961.097	0.0148428
961.175	0.0149339
961.253	0.0150254
961.331	0.0151144
961.410	0.0150993
961.488	0.0151340
961.566	0.0151635
961.644	0.0152274
961.722	0.0153077
961.800	0.0151630
961.878	0.0150396
961.956	0.0148956
962.035	0.0148490
962.113	0.0148347
962.191	0.0147260
962.269	0.0145301
962.347	0.0144669
962.425	0.0144599
962.503	0.0143848
962.581	0.0144837
962.660	0.0142741
962.738	0.0143733
962.816	0.0143692
962.894	0.0144363
962.972	0.0144402
963.050	0.0145112
963.128	0.0144360
963.206	0.0144611
963.285	0.0145084
963.363	0.0146870
963.441	0.0145736
963.519	0.0146098
963.597	0.0146902
963.675	0.0145887
963.753	0.0147330
963.831	0.0147549
963.910	0.0149261
963.988	0.0148217
964.066	0.0148706
964.144	0.0148814
964.222	0.0147117
964.300	0.0148231
964.378	0.0148425
964.456	0.0147330
964.535	0.0146138
964.613	0.0146684
964.691	0.0146500
964.769	0.0145569
964.847	0.0144589
964.925	0.0145563
965.003	0.0146924
965.081	0.0146339
965.160	0.0146741
965.238	0.0146215
965.316	0.0145895
965.394	0.0147546
965.472	0.0147228
965.550	0.0146090
965.628	0.0145567
965.706	0.0145640
965.785	0.0147017
965.863	0.0146220
965.941	0.0145264
966.019	0.0146956
966.097	0.0147729
966.175	0.0147369
966.253	0.0147919
966.331	0.0146714
966.410	0.0148473
966.488	0.0146627
966.566	0.0149864
966.644	0.0148906
966.722	0.0149007
966.800	0.0148795
966.878	0.0148602
966.956	0.0150271
967.035	0.0150130
967.113	0.0149507
967.191	0.0149764
967.269	0.0148531
967.347	0.0150496
967.425	0.0151859
967.503	0.0150140
967.581	0.0150543
967.660	0.0150448
967.738	0.0150156
967.816	0.0151276
967.894	0.0151891
967.972	0.0150175
968.050	0.0150974
968.128	0.0152039
968.206	0.0152130
968.285	0.0153507
968.363	0.0151993
968.441	0.0151874
968.519	0.0152415
968.597	0.0149736
968.675	0.0149522
968.753	0.0150400
968.831	0.0149649
968.910	0.0147771
968.988	0.0147480
969.066	0.0147266
969.144	0.0145871
969.222	0.0144668
969.300	0.0143825
969.378	0.0142770
969.456	0.0143509
969.535	0.0141097
969.613	0.0142087
969.691	0.0142421
969.769	0.0142405
969.847	0.0141952
969.925	0.0142976
970.003	0.0142943
970.081	0.0144498
970.160	0.0144503
970.238	0.0144289
970.316	0.0145015
970.394	0.0145877
970.472	0.0147369
970.550	0.0147554
970.628	0.0146806
970.706	0.0147602
970.785	0.0147913
970.863	0.0148155
970.941	0.0146479
971.019	0.0147363
971.097	0.0146827
971.175	0.0146210
971.253	0.0147105
971.331	0.0145586
971.410	0.0146074
971.488	0.0146370
971.566	0.0146654
971.644	0.0146842
971.722	0.0145863
971.800	0.0146764
971.878	0.0146360
971.956	0.0147832
972.035	0.0147090
972.113	0.0148265
972.191	0.0149191
972.269	0.0150438
972.347	0.0150029
972.425	0.0149462
972.503	0.0150209
972.581	0.0151266
972.660	0.0151509
972.738	0.0151362
972.816	0.0151188
972.894	0.0150401
972.972	0.0150568
973.050	0.0151199
973.128	0.0149868
973.206	0.0149441
973.285	0.0149321
973.363	0.0149587
973.441	0.0147398
973.519	0.0147501
973.597	0.0144189
973.675	0.0145232
973.753	0.0143867
973.831	0.0143458
973.910	0.0143928
973.988	0.0144878
974.066	0.0143925
974.144	0.0144892
974.222	0.0143773
974.300	0.0144885
974.378	0.0145270
974.456	0.0147185
974.535	0.0145342
974.613	0.0146352
974.691	0.0148491
974.769	0.0148984
974.847	0.0148468
974.925	0.0148274
975.003	0.0149783
975.081	0.0148758
975.160	0.0148706
975.238	0.0146835
975.316	0.0148044
975.394	0.0148122
975.472	0.0149152
975.550	0.0148656
975.628	0.0146999
975.706	0.0148533
975.785	0.0147414
975.863	0.0148447
975.941	0.0145683
976.019	0.0146371
976.097	0.0147065
976.175	0.0146733
976.253	0.0146928
976.331	0.0147595
976.410	0.0146406
976.488	0.0147258
976.566	0.0147888
976.644	0.0149014
976.722	0.0149317
976.800	0.0149152
976.878	0.0149108
976.956	0.0150175
977.035	0.0150315
977.113	0.0150046
977.191	0.0149676
977.269	0.0150599
977.347	0.0152129
977.425	0.0150829
977.503	0.0151913
977.581	0.0151266
977.660	0.0150439
977.738	0.0150803
977.816	0.0150056
977.894	0.0150048
977.972	0.0149159
978.050	0.0148029
978.128	0.0148331
978.206	0.0148019
978.285	0.0146951
978.363	0.0144244
978.441	0.0145029
978.519	0.0146805
978.597	0.0146271
978.675	0.0145757
978.753	0.0145193
978.831	0.0146936
978.910	0.0147113
978.988	0.0148058
979.066	0.0149325
979.144	0.0147397
979.222	0.0148192
979.300	0.0149081
979.378	0.0149500
979.456	0.0148504
979.535	0.0149333
979.613	0.0149322
979.691	0.0148668
979.769	0.0149282
979.847	0.0147275
979.925	0.0146692
