05/03/2022	20:08:41	Ver.	4.1	UNKNOWN
Optical Delay	660.003261	Delta X		0.078125	Sweeps	1	Scan Rate	0/0
Coordinates	Axis 1	NaN	Axis 2	NaN	Axis 3	NaN	Axis 4	NaN	Axis 5	NaN	Axis 6	0.000000
TX Power	0.000000	RX Power	0.000000

660.003	0.0141962
660.081	0.0142348
660.160	0.0141972
660.238	0.0141475
660.316	0.0141797
660.394	0.0140987
660.472	0.0140414
660.550	0.0141273
660.628	0.0141348
660.706	0.0141551
660.785	0.0142768
660.863	0.0141212
660.941	0.0141782
661.019	0.0142296
661.097	0.0140801
661.175	0.0141143
661.253	0.0141487
661.331	0.0142462
661.410	0.0142883
661.488	0.0141094
661.566	0.0142275
661.644	0.0142265
661.722	0.0140546
661.800	0.0141470
661.878	0.0143626
661.956	0.0140060
662.035	0.0141567
662.113	0.0142076
662.191	0.0142052
662.269	0.0142030
662.347	0.0142001
662.425	0.0140748
662.503	0.0142509
662.581	0.0141409
662.660	0.0140080
662.738	0.0142879
662.816	0.0141721
662.894	0.0142776
662.972	0.0141796
663.050	0.0143272
663.128	0.0141674
663.206	0.0141820
663.285	0.0141506
663.363	0.0140891
663.441	0.0143082
663.519	0.0141199
663.597	0.0141663
663.675	0.0142049
663.753	0.0141190
663.831	0.0140855
663.910	0.0142131
663.988	0.0142659
664.066	0.0143255
664.144	0.0141700
664.222	0.0141445
664.300	0.0141860
664.378	0.0143028
664.456	0.0141310
664.535	0.0141608
664.613	0.0142224
664.691	0.0142679
664.769	0.0142926
664.847	0.0140001
664.925	0.0141219
665.003	0.0142079
665.081	0.0142343
665.160	0.0141827
665.238	0.0140844
665.316	0.0141991
665.394	0.0141388
665.472	0.0142458
665.550	0.0140948
665.628	0.0141911
665.706	0.0142065
665.785	0.0141962
665.863	0.0142716
665.941	0.0142714
666.019	0.0140956
666.097	0.0142299
666.175	0.0141822
666.253	0.0141209
666.331	0.0141173
666.410	0.0141103
666.488	0.0140338
666.566	0.0141119
666.644	0.0140829
666.722	0.0141936
666.800	0.0142500
666.878	0.0141927
666.956	0.0140535
667.035	0.0141851
667.113	0.0141916
667.191	0.0142672
667.269	0.0140967
667.347	0.0142208
667.425	0.0141940
667.503	0.0141503
667.581	0.0142895
667.660	0.0141418
667.738	0.0141483
667.816	0.0142535
667.894	0.0142407
667.972	0.0142152
668.050	0.0141950
668.128	0.0140595
668.206	0.0141447
668.285	0.0142574
668.363	0.0141084
668.441	0.0141382
668.519	0.0140902
668.597	0.0140120
668.675	0.0140786
668.753	0.0142155
668.831	0.0141403
668.910	0.0140611
668.988	0.0143044
669.066	0.0143304
669.144	0.0142793
669.222	0.0142029
669.300	0.0142004
669.378	0.0143125
669.456	0.0142381
669.535	0.0141158
669.613	0.0141737
669.691	0.0142455
669.769	0.0141773
669.847	0.0141881
669.925	0.0141670
670.003	0.0142402
670.081	0.0141373
670.160	0.0141672
670.238	0.0142378
670.316	0.0142658
670.394	0.0142005
670.472	0.0142357
670.550	0.0140766
670.628	0.0141271
670.706	0.0142918
670.785	0.0141273
670.863	0.0141667
670.941	0.0142297
671.019	0.0140991
671.097	0.0140942
671.175	0.0141367
671.253	0.0140537
671.331	0.0141386
671.410	0.0141599
671.488	0.0142566
671.566	0.0142112
671.644	0.0141686
671.722	0.0141236
671.800	0.0141154
671.878	0.0141864
671.956	0.0141539
672.035	0.0141017
672.113	0.0142278
672.191	0.0142885
672.269	0.0142200
672.347	0.0142075
672.425	0.0142010
672.503	0.0143165
672.581	0.0142444
672.660	0.0142916
672.738	0.0142031
672.816	0.0141665
672.894	0.0141558
672.972	0.0142220
673.050	0.0142865
673.128	0.0142088
673.206	0.0141765
673.285	0.0141860
673.363	0.0141158
673.441	0.0142213
673.519	0.0141698
673.597	0.0141730
673.675	0.0140941
673.753	0.0141402
673.831	0.0140876
673.910	0.0142833
673.988	0.0142567
674.066	0.0141341
674.144	0.0142693
674.222	0.0142122
674.300	0.0140717
674.378	0.0141107
674.456	0.0141589
674.535	0.0141692
674.613	0.0141273
674.691	0.0142355
674.769	0.0141987
674.847	0.0140993
674.925	0.0142220
675.003	0.0142720
675.081	0.0141396
675.160	0.0141766
675.238	0.0143184
675.316	0.0141104
675.394	0.0139994
675.472	0.0142547
675.550	0.0143985
675.628	0.0141918
675.706	0.0142181
675.785	0.0141797
675.863	0.0141106
675.941	0.0143018
676.019	0.0141984
676.097	0.0141681
676.175	0.0141886
676.253	0.0143195
676.331	0.0142507
676.410	0.0142303
676.488	0.0141315
676.566	0.0140876
676.644	0.0141363
676.722	0.0140715
676.800	0.0142245
676.878	0.0142371
676.956	0.0141948
677.035	0.0142223
677.113	0.0142999
677.191	0.0141956
677.269	0.0142329
677.347	0.0142725
677.425	0.0141449
677.503	0.0140666
677.581	0.0142567
677.660	0.0142120
677.738	0.0141588
677.816	0.0142628
677.894	0.0142329
677.972	0.0142725
678.050	0.0143094
678.128	0.0140504
678.206	0.0141164
678.285	0.0141734
678.363	0.0141034
678.441	0.0141462
678.519	0.0143247
678.597	0.0142120
678.675	0.0142191
678.753	0.0141541
678.831	0.0140524
678.910	0.0140836
678.988	0.0143377
679.066	0.0141416
679.144	0.0141297
679.222	0.0141879
679.300	0.0141568
679.378	0.0141741
679.456	0.0141493
679.535	0.0140882
679.613	0.0141153
679.691	0.0142504
679.769	0.0142387
679.847	0.0141570
679.925	0.0140807
680.003	0.0142829
680.081	0.0142020
680.160	0.0139851
680.238	0.0143073
680.316	0.0141763
680.394	0.0141626
680.472	0.0141245
680.550	0.0142545
680.628	0.0142430
680.706	0.0141536
680.785	0.0142035
680.863	0.0141032
680.941	0.0141726
681.019	0.0141059
681.097	0.0140946
681.175	0.0141669
681.253	0.0142255
681.331	0.0142863
681.410	0.0140537
681.488	0.0141337
681.566	0.0141815
681.644	0.0143657
681.722	0.0142714
681.800	0.0142111
681.878	0.0142124
681.956	0.0141466
682.035	0.0140874
682.113	0.0142229
682.191	0.0141005
682.269	0.0141755
682.347	0.0143184
682.425	0.0142022
682.503	0.0142670
682.581	0.0141633
682.660	0.0142230
682.738	0.0140460
682.816	0.0142252
682.894	0.0142987
682.972	0.0141714
683.050	0.0141218
683.128	0.0142486
683.206	0.0141846
683.285	0.0142625
683.363	0.0141311
683.441	0.0143282
683.519	0.0142549
683.597	0.0142009
683.675	0.0141190
683.753	0.0141109
683.831	0.0142593
683.910	0.0143054
683.988	0.0142549
684.066	0.0141611
684.144	0.0141620
684.222	0.0141930
684.300	0.0141541
684.378	0.0142028
684.456	0.0142294
684.535	0.0141574
684.613	0.0142978
684.691	0.0141984
684.769	0.0141730
684.847	0.0142768
684.925	0.0143079
685.003	0.0141948
685.081	0.0141278
685.160	0.0142687
685.238	0.0141902
685.316	0.0141724
685.394	0.0141353
685.472	0.0142455
685.550	0.0141843
685.628	0.0142540
685.706	0.0142342
685.785	0.0141865
685.863	0.0140652
685.941	0.0141586
686.019	0.0141119
686.097	0.0142580
686.175	0.0140691
686.253	0.0141035
686.331	0.0140987
686.410	0.0142349
686.488	0.0142340
686.566	0.0140832
686.644	0.0141604
686.722	0.0140717
686.800	0.0141964
686.878	0.0142262
686.956	0.0141539
687.035	0.0142628
687.113	0.0141531
687.191	0.0142573
687.269	0.0141339
687.347	0.0140756
687.425	0.0141998
687.503	0.0141940
687.581	0.0141854
687.660	0.0141601
687.738	0.0142212
687.816	0.0141832
687.894	0.0142832
687.972	0.0142535
688.050	0.0143182
688.128	0.0141788
688.206	0.0141139
688.285	0.0142971
688.363	0.0142256
688.441	0.0141650
688.519	0.0141779
688.597	0.0142896
688.675	0.0142252
688.753	0.0141685
688.831	0.0141624
688.910	0.0141120
688.988	0.0141661
689.066	0.0142817
689.144	0.0141994
689.222	0.0140905
689.300	0.0143348
689.378	0.0142603
689.456	0.0141702
689.535	0.0141473
689.613	0.0142419
689.691	0.0141716
689.769	0.0141079
689.847	0.0143507
689.925	0.0144051
690.003	0.0142113
690.081	0.0140579
690.160	0.0142918
690.238	0.0141290
690.316	0.0142159
690.394	0.0142573
690.472	0.0143020
690.550	0.0141055
690.628	0.0141649
690.706	0.0142926
690.785	0.0141920
690.863	0.0140496
690.941	0.0141118
691.019	0.0142505
691.097	0.0141273
691.175	0.0141798
691.253	0.0141889
691.331	0.0141988
691.410	0.0142667
691.488	0.0141408
691.566	0.0141228
691.644	0.0140965
691.722	0.0141852
691.800	0.0142735
691.878	0.0141193
691.956	0.0141687
692.035	0.0141161
692.113	0.0141514
692.191	0.0142805
692.269	0.0140703
692.347	0.0141293
692.425	0.0140110
692.503	0.0142760
692.581	0.0142470
692.660	0.0143026
692.738	0.0141607
692.816	0.0141615
692.894	0.0141492
692.972	0.0142921
693.050	0.0142432
693.128	0.0140791
693.206	0.0141549
693.285	0.0142053
693.363	0.0142422
693.441	0.0142251
693.519	0.0140930
693.597	0.0141830
693.675	0.0141293
693.753	0.0140662
693.831	0.0141765
693.910	0.0143620
693.988	0.0143361
694.066	0.0140150
694.144	0.0140900
694.222	0.0142109
694.300	0.0142191
694.378	0.0141644
694.456	0.0140600
694.535	0.0141940
694.613	0.0142654
694.691	0.0143073
694.769	0.0143427
694.847	0.0142708
694.925	0.0141853
695.003	0.0140928
695.081	0.0142165
695.160	0.0142188
695.238	0.0140398
695.316	0.0142519
695.394	0.0141483
695.472	0.0142384
695.550	0.0141003
695.628	0.0142478
695.706	0.0141592
695.785	0.0140872
695.863	0.0141688
695.941	0.0142708
696.019	0.0140526
696.097	0.0142264
696.175	0.0140849
696.253	0.0142072
696.331	0.0142203
696.410	0.0141250
696.488	0.0141645
696.566	0.0141359
696.644	0.0142570
696.722	0.0142831
696.800	0.0141700
696.878	0.0141255
696.956	0.0139768
697.035	0.0140837
697.113	0.0141004
697.191	0.0141119
697.269	0.0141908
697.347	0.0142284
697.425	0.0142469
697.503	0.0143274
697.581	0.0142154
697.660	0.0142217
697.738	0.0142896
697.816	0.0141644
697.894	0.0140951
697.972	0.0141956
698.050	0.0141477
698.128	0.0142371
698.206	0.0141492
698.285	0.0142284
698.363	0.0140981
698.441	0.0141168
698.519	0.0140934
698.597	0.0141705
698.675	0.0142310
698.753	0.0140442
698.831	0.0140908
698.910	0.0142162
698.988	0.0141747
699.066	0.0141003
699.144	0.0140793
699.222	0.0141590
699.300	0.0141582
699.378	0.0141840
699.456	0.0141167
699.535	0.0141196
699.613	0.0141273
699.691	0.0142367
699.769	0.0141383
699.847	0.0142022
699.925	0.0139935
700.003	0.0140393
700.081	0.0141166
700.160	0.0142338
700.238	0.0141961
700.316	0.0141564
700.394	0.0141960
700.472	0.0141582
700.550	0.0142200
700.628	0.0142227
700.706	0.0142133
700.785	0.0142039
700.863	0.0142931
700.941	0.0141702
701.019	0.0143929
701.097	0.0143401
701.175	0.0142820
701.253	0.0142428
701.331	0.0142308
701.410	0.0140765
701.488	0.0143740
701.566	0.0141152
701.644	0.0141628
701.722	0.0141063
701.800	0.0140854
701.878	0.0141445
701.956	0.0140965
702.035	0.0141148
702.113	0.0140695
702.191	0.0140308
702.269	0.0141199
702.347	0.0141502
702.425	0.0141280
702.503	0.0140294
702.581	0.0141267
702.660	0.0142496
702.738	0.0140417
702.816	0.0141691
702.894	0.0142690
702.972	0.0141671
703.050	0.0140696
703.128	0.0141063
703.206	0.0142260
703.285	0.0141074
703.363	0.0141965
703.441	0.0143190
703.519	0.0143322
703.597	0.0143174
703.675	0.0143030
703.753	0.0142766
703.831	0.0142157
703.910	0.0144225
703.988	0.0144102
704.066	0.0144669
704.144	0.0144286
704.222	0.0145930
704.300	0.0146278
704.378	0.0144626
704.456	0.0145651
704.535	0.0144933
704.613	0.0144732
704.691	0.0145155
704.769	0.0145971
704.847	0.0145872
704.925	0.0146249
705.003	0.0147203
705.081	0.0145060
705.160	0.0143524
705.238	0.0145750
705.316	0.0145937
705.394	0.0145181
705.472	0.0145173
705.550	0.0144144
705.628	0.0143649
705.706	0.0141959
705.785	0.0143570
705.863	0.0143787
705.941	0.0141764
706.019	0.0140677
706.097	0.0141557
706.175	0.0139701
706.253	0.0138841
706.331	0.0138735
706.410	0.0138298
706.488	0.0136476
706.566	0.0136723
706.644	0.0136658
706.722	0.0135157
706.800	0.0135966
706.878	0.0132979
706.956	0.0131283
707.035	0.0126978
707.113	0.0122430
707.191	0.0113956
707.269	0.0102440
707.347	0.00933769
707.425	0.00853241
707.503	0.00819405
707.581	0.00903633
707.660	0.0105401
707.738	0.0127668
707.816	0.0157919
707.894	0.0185320
707.972	0.0209332
708.050	0.0220322
708.128	0.0216190
708.206	0.0198121
708.285	0.0169456
708.363	0.0132687
708.441	0.00974380
708.519	0.00680801
708.597	0.00511559
708.675	0.00486000
708.753	0.00602371
708.831	0.00864708
708.910	0.0125777
708.988	0.0170077
709.066	0.0214743
709.144	0.0255643
709.222	0.0284283
709.300	0.0299887
709.378	0.0301051
709.456	0.0286922
709.535	0.0256730
709.613	0.0217967
709.691	0.0173026
709.769	0.0130939
709.847	0.00925919
709.925	0.00638191
710.003	0.00459961
710.081	0.00386124
710.160	0.00392296
710.238	0.00471977
710.316	0.00617592
710.394	0.00765884
710.472	0.00953484
710.550	0.0111443
710.628	0.0125165
710.706	0.0135182
710.785	0.0144110
710.863	0.0149265
710.941	0.0151447
711.019	0.0152480
711.097	0.0152654
711.175	0.0149543
711.253	0.0150913
711.331	0.0148365
711.410	0.0145595
711.488	0.0149172
711.566	0.0149989
711.644	0.0151176
711.722	0.0153603
711.800	0.0153979
711.878	0.0154442
711.956	0.0154035
712.035	0.0152076
712.113	0.0149298
712.191	0.0148566
712.269	0.0148725
712.347	0.0147339
712.425	0.0148824
712.503	0.0150471
712.581	0.0153365
712.660	0.0154864
712.738	0.0156566
712.816	0.0155914
712.894	0.0156869
712.972	0.0154549
713.050	0.0150293
713.128	0.0145069
713.206	0.0139716
713.285	0.0132487
713.363	0.0127130
713.441	0.0122472
713.519	0.0118361
713.597	0.0116219
713.675	0.0116382
713.753	0.0118903
713.831	0.0124813
713.910	0.0130768
713.988	0.0138147
714.066	0.0145747
714.144	0.0152016
714.222	0.0155128
714.300	0.0158981
714.378	0.0163953
714.456	0.0163799
714.535	0.0164467
714.613	0.0163219
714.691	0.0162069
714.769	0.0158321
714.847	0.0152582
714.925	0.0146590
715.003	0.0141566
715.081	0.0133218
715.160	0.0126758
715.238	0.0120632
715.316	0.0117111
715.394	0.0115790
715.472	0.0114817
715.550	0.0116149
715.628	0.0118188
715.706	0.0122266
715.785	0.0126667
715.863	0.0131787
715.941	0.0137557
716.019	0.0142183
716.097	0.0148695
716.175	0.0153204
716.253	0.0157600
716.331	0.0164277
716.410	0.0169643
716.488	0.0175085
716.566	0.0179122
716.644	0.0181460
716.722	0.0182682
716.800	0.0183161
716.878	0.0179182
716.956	0.0175642
717.035	0.0167970
717.113	0.0158620
717.191	0.0152154
717.269	0.0144224
717.347	0.0135748
717.425	0.0129327
717.503	0.0122314
717.581	0.0117599
717.660	0.0112082
717.738	0.0109409
717.816	0.0106815
717.894	0.0104163
717.972	0.0102073
718.050	0.0100025
718.128	0.00989830
718.206	0.0100257
718.285	0.0104138
718.363	0.0106699
718.441	0.0111263
718.519	0.0115615
718.597	0.0120849
718.675	0.0126199
718.753	0.0130246
718.831	0.0135083
718.910	0.0138154
718.988	0.0140509
719.066	0.0143253
719.144	0.0148260
719.222	0.0150224
719.300	0.0154715
719.378	0.0158847
719.456	0.0164341
719.535	0.0168696
719.613	0.0171484
719.691	0.0173131
719.769	0.0173599
719.847	0.0170341
719.925	0.0165253
720.003	0.0161679
720.081	0.0156856
720.160	0.0153844
720.238	0.0151672
720.316	0.0150411
720.394	0.0149585
720.472	0.0147687
720.550	0.0148408
720.628	0.0146626
720.706	0.0146371
720.785	0.0142949
720.863	0.0141630
720.941	0.0139291
721.019	0.0137486
721.097	0.0135906
721.175	0.0136336
721.253	0.0134478
721.331	0.0135175
721.410	0.0132481
721.488	0.0130127
721.566	0.0129642
721.644	0.0126839
721.722	0.0125671
721.800	0.0123363
721.878	0.0122235
721.956	0.0123600
722.035	0.0124834
722.113	0.0126062
722.191	0.0126680
722.269	0.0128396
722.347	0.0129847
722.425	0.0132084
722.503	0.0134036
722.581	0.0134607
722.660	0.0136649
722.738	0.0140303
722.816	0.0141914
722.894	0.0143008
722.972	0.0147298
723.050	0.0151382
723.128	0.0153999
723.206	0.0157468
723.285	0.0158585
723.363	0.0158212
723.441	0.0154884
723.519	0.0151754
723.597	0.0151093
723.675	0.0149025
723.753	0.0147736
723.831	0.0145576
723.910	0.0145457
723.988	0.0142467
724.066	0.0140179
724.144	0.0138702
724.222	0.0137571
724.300	0.0137247
724.378	0.0137300
724.456	0.0138176
724.535	0.0139308
724.613	0.0142143
724.691	0.0142643
724.769	0.0144445
724.847	0.0143998
724.925	0.0142679
725.003	0.0140885
725.081	0.0138808
725.160	0.0135409
725.238	0.0133294
725.316	0.0132148
725.394	0.0133285
725.472	0.0132497
725.550	0.0137066
725.628	0.0142057
725.706	0.0145836
725.785	0.0149491
725.863	0.0153577
725.941	0.0156474
726.019	0.0158508
726.097	0.0160002
726.175	0.0160554
726.253	0.0160527
726.331	0.0160828
726.410	0.0162811
726.488	0.0162403
726.566	0.0162849
726.644	0.0161403
726.722	0.0162186
726.800	0.0159975
726.878	0.0154919
726.956	0.0149426
727.035	0.0144852
727.113	0.0140112
727.191	0.0136941
727.269	0.0131304
727.347	0.0128434
727.425	0.0127815
727.503	0.0124142
727.581	0.0124673
727.660	0.0123690
727.738	0.0124367
727.816	0.0126144
727.894	0.0127763
727.972	0.0129230
728.050	0.0132535
728.128	0.0136947
728.206	0.0139107
728.285	0.0140062
728.363	0.0141817
728.441	0.0140602
728.519	0.0140587
728.597	0.0137959
728.675	0.0134727
728.753	0.0130872
728.831	0.0127879
728.910	0.0124390
728.988	0.0121057
729.066	0.0118756
729.144	0.0116348
729.222	0.0117124
729.300	0.0118484
729.378	0.0119756
729.456	0.0122182
729.535	0.0126614
729.613	0.0131071
729.691	0.0133950
729.769	0.0139167
729.847	0.0143308
729.925	0.0148412
730.003	0.0152657
730.081	0.0155543
730.160	0.0159486
730.238	0.0160028
730.316	0.0159692
730.394	0.0159090
730.472	0.0156174
730.550	0.0153810
730.628	0.0152721
730.706	0.0151674
730.785	0.0151324
730.863	0.0150985
730.941	0.0151450
731.019	0.0151043
731.097	0.0151241
731.175	0.0152666
731.253	0.0154049
731.331	0.0152715
731.410	0.0153806
731.488	0.0154235
731.566	0.0154915
731.644	0.0154266
731.722	0.0153391
731.800	0.0153439
731.878	0.0153364
731.956	0.0150490
732.035	0.0148222
732.113	0.0147287
732.191	0.0145863
732.269	0.0143876
732.347	0.0145023
732.425	0.0141637
732.503	0.0139140
732.581	0.0137037
732.660	0.0133287
732.738	0.0130256
732.816	0.0128592
732.894	0.0125216
732.972	0.0123193
733.050	0.0120331
733.128	0.0121735
733.206	0.0123976
733.285	0.0122896
733.363	0.0126385
733.441	0.0130511
733.519	0.0132417
733.597	0.0135213
733.675	0.0140052
733.753	0.0142910
733.831	0.0145940
733.910	0.0147487
733.988	0.0147101
734.066	0.0147201
734.144	0.0147089
734.222	0.0143113
734.300	0.0141001
734.378	0.0139046
734.456	0.0136913
734.535	0.0134756
734.613	0.0131123
734.691	0.0129877
734.769	0.0129453
734.847	0.0130801
734.925	0.0132589
735.003	0.0135892
735.081	0.0136222
735.160	0.0137430
735.238	0.0138914
735.316	0.0140771
735.394	0.0142120
735.472	0.0142517
735.550	0.0143399
735.628	0.0144223
735.706	0.0145660
735.785	0.0146806
735.863	0.0148302
735.941	0.0149419
736.019	0.0149966
736.097	0.0150344
736.175	0.0151236
736.253	0.0151344
736.331	0.0149717
736.410	0.0150685
736.488	0.0149298
736.566	0.0147995
736.644	0.0149252
736.722	0.0146760
736.800	0.0147623
736.878	0.0147926
736.956	0.0146314
737.035	0.0145639
737.113	0.0145374
737.191	0.0145215
737.269	0.0144405
737.347	0.0144849
737.425	0.0145969
737.503	0.0146573
737.581	0.0146420
737.660	0.0147321
737.738	0.0148423
737.816	0.0148389
737.894	0.0148990
737.972	0.0148322
738.050	0.0147078
738.128	0.0144926
738.206	0.0145403
738.285	0.0144007
738.363	0.0144173
738.441	0.0141999
738.519	0.0141881
738.597	0.0142783
738.675	0.0143861
738.753	0.0144156
738.831	0.0144747
738.910	0.0143600
738.988	0.0143072
739.066	0.0143136
739.144	0.0140231
739.222	0.0139874
739.300	0.0138895
739.378	0.0138137
739.456	0.0134560
739.535	0.0134581
739.613	0.0132718
739.691	0.0131091
739.769	0.0130887
739.847	0.0130594
739.925	0.0131653
740.003	0.0134955
740.081	0.0135647
740.160	0.0137952
740.238	0.0140799
740.316	0.0141206
740.394	0.0140569
740.472	0.0141969
740.550	0.0142957
740.628	0.0141004
740.706	0.0138740
740.785	0.0138299
740.863	0.0133701
740.941	0.0132304
741.019	0.0129297
741.097	0.0126171
741.175	0.0125319
741.253	0.0124342
741.331	0.0125004
741.410	0.0125302
741.488	0.0126953
741.566	0.0131982
741.644	0.0133999
741.722	0.0137788
741.800	0.0140498
741.878	0.0143529
741.956	0.0146490
742.035	0.0148875
742.113	0.0149982
742.191	0.0152330
742.269	0.0151111
742.347	0.0151899
742.425	0.0152281
742.503	0.0150560
742.581	0.0149448
742.660	0.0148348
742.738	0.0147615
742.816	0.0147803
742.894	0.0146834
742.972	0.0146657
743.050	0.0147282
743.128	0.0147855
743.206	0.0147437
743.285	0.0150026
743.363	0.0148708
743.441	0.0149881
743.519	0.0148529
743.597	0.0147172
743.675	0.0148301
743.753	0.0146936
743.831	0.0147324
743.910	0.0147101
743.988	0.0145531
744.066	0.0144491
744.144	0.0143983
744.222	0.0144713
744.300	0.0142544
744.378	0.0142829
744.456	0.0142433
744.535	0.0143736
744.613	0.0143369
744.691	0.0142325
744.769	0.0141438
744.847	0.0142997
744.925	0.0141169
745.003	0.0141431
745.081	0.0141743
745.160	0.0141675
745.238	0.0138383
745.316	0.0137093
745.394	0.0137444
745.472	0.0135993
745.550	0.0133027
745.628	0.0132434
745.706	0.0133830
745.785	0.0131164
745.863	0.0130003
745.941	0.0131928
746.019	0.0132392
746.097	0.0130465
746.175	0.0131959
746.253	0.0131640
746.331	0.0132090
746.410	0.0133247
746.488	0.0134426
746.566	0.0134842
746.644	0.0137218
746.722	0.0137788
746.800	0.0138671
746.878	0.0141784
746.956	0.0142657
747.035	0.0145621
747.113	0.0143575
747.191	0.0143620
747.269	0.0143073
747.347	0.0142021
747.425	0.0142262
747.503	0.0142245
747.581	0.0140942
747.660	0.0141444
747.738	0.0140623
747.816	0.0138240
747.894	0.0140874
747.972	0.0142021
748.050	0.0141354
748.128	0.0143820
748.206	0.0143108
748.285	0.0144128
748.363	0.0144807
748.441	0.0145589
748.519	0.0147244
748.597	0.0147007
748.675	0.0147862
748.753	0.0147875
748.831	0.0146894
748.910	0.0146282
748.988	0.0147441
749.066	0.0146722
749.144	0.0145601
749.222	0.0145214
749.300	0.0145232
749.378	0.0146020
749.456	0.0146678
749.535	0.0149497
749.613	0.0150339
749.691	0.0152132
749.769	0.0152113
749.847	0.0149965
749.925	0.0150533
750.003	0.0150152
750.081	0.0152235
750.160	0.0149212
750.238	0.0147320
750.316	0.0147465
750.394	0.0146995
750.472	0.0147213
750.550	0.0144816
750.628	0.0145669
750.706	0.0145861
750.785	0.0146765
750.863	0.0144992
750.941	0.0146573
751.019	0.0146062
751.097	0.0144994
751.175	0.0145226
751.253	0.0144789
751.331	0.0144167
751.410	0.0143562
751.488	0.0139816
751.566	0.0138672
751.644	0.0135988
751.722	0.0135464
751.800	0.0133722
751.878	0.0130921
751.956	0.0131278
752.035	0.0130652
752.113	0.0132094
752.191	0.0133824
752.269	0.0134113
752.347	0.0135669
752.425	0.0138299
752.503	0.0138293
752.581	0.0138065
752.660	0.0139042
752.738	0.0139098
752.816	0.0139697
752.894	0.0140660
752.972	0.0141505
753.050	0.0140802
753.128	0.0140767
753.206	0.0141803
753.285	0.0142079
753.363	0.0140142
753.441	0.0138703
753.519	0.0139672
753.597	0.0139050
753.675	0.0136243
753.753	0.0136244
753.831	0.0136203
753.910	0.0138332
753.988	0.0138325
754.066	0.0136983
754.144	0.0137524
754.222	0.0136934
754.300	0.0134830
754.378	0.0135930
754.456	0.0136292
754.535	0.0137390
754.613	0.0136872
754.691	0.0138843
754.769	0.0141160
754.847	0.0143276
754.925	0.0146191
755.003	0.0147824
755.081	0.0150558
755.160	0.0151522
755.238	0.0152513
755.316	0.0152957
755.394	0.0152682
755.472	0.0150156
755.550	0.0149278
755.628	0.0149441
755.706	0.0147279
755.785	0.0146436
755.863	0.0146015
755.941	0.0145768
756.019	0.0145644
756.097	0.0144007
756.175	0.0144518
756.253	0.0144585
756.331	0.0144595
756.410	0.0144730
756.488	0.0144513
756.566	0.0143974
756.644	0.0144418
756.722	0.0145921
756.800	0.0144297
756.878	0.0144167
756.956	0.0142783
757.035	0.0143652
757.113	0.0143967
757.191	0.0144620
757.269	0.0144555
757.347	0.0144684
757.425	0.0141224
757.503	0.0141579
757.581	0.0141678
757.660	0.0141418
757.738	0.0140248
757.816	0.0141069
757.894	0.0141479
757.972	0.0139558
758.050	0.0140395
758.128	0.0139017
758.206	0.0138753
758.285	0.0137118
758.363	0.0137112
758.441	0.0137550
758.519	0.0137089
758.597	0.0138501
758.675	0.0138813
758.753	0.0139808
758.831	0.0139717
758.910	0.0139632
758.988	0.0139737
759.066	0.0139365
759.144	0.0139378
759.222	0.0139851
759.300	0.0137650
759.378	0.0137337
759.456	0.0136958
759.535	0.0135856
759.613	0.0136102
759.691	0.0135777
759.769	0.0134824
759.847	0.0136234
759.925	0.0136299
760.003	0.0137589
760.081	0.0138069
760.160	0.0139113
760.238	0.0139060
760.316	0.0141008
760.394	0.0142050
760.472	0.0142147
760.550	0.0142609
760.628	0.0142390
760.706	0.0142184
760.785	0.0141981
760.863	0.0140984
760.941	0.0139414
761.019	0.0138562
761.097	0.0139388
761.175	0.0140253
761.253	0.0139579
761.331	0.0140686
761.410	0.0143398
761.488	0.0144256
761.566	0.0145457
761.644	0.0146938
761.722	0.0146417
761.800	0.0147092
761.878	0.0147694
761.956	0.0148830
762.035	0.0147740
762.113	0.0149496
762.191	0.0151076
762.269	0.0150282
762.347	0.0148231
762.425	0.0147688
762.503	0.0147720
762.581	0.0144569
762.660	0.0145385
762.738	0.0144302
762.816	0.0142803
762.894	0.0142366
762.972	0.0141990
763.050	0.0141919
763.128	0.0142361
763.206	0.0141971
763.285	0.0142137
763.363	0.0142568
763.441	0.0142656
763.519	0.0142870
763.597	0.0143373
763.675	0.0142466
763.753	0.0143113
763.831	0.0144274
763.910	0.0147242
763.988	0.0146886
764.066	0.0146421
764.144	0.0147463
764.222	0.0145951
764.300	0.0146099
764.378	0.0144457
764.456	0.0143835
764.535	0.0142770
764.613	0.0140871
764.691	0.0140778
764.769	0.0139643
764.847	0.0138734
764.925	0.0137236
765.003	0.0138374
765.081	0.0137931
765.160	0.0137984
765.238	0.0137454
765.316	0.0137598
765.394	0.0138972
765.472	0.0140107
765.550	0.0139655
765.628	0.0140213
765.706	0.0140063
765.785	0.0140383
765.863	0.0138953
765.941	0.0139896
766.019	0.0139799
766.097	0.0138860
766.175	0.0140110
766.253	0.0137397
766.331	0.0137888
766.410	0.0138213
766.488	0.0136967
766.566	0.0136833
766.644	0.0136907
766.722	0.0137749
766.800	0.0137292
766.878	0.0139246
766.956	0.0140244
767.035	0.0139925
767.113	0.0139053
767.191	0.0140411
767.269	0.0140713
767.347	0.0140217
767.425	0.0140944
767.503	0.0141411
767.581	0.0140955
767.660	0.0141615
767.738	0.0140415
767.816	0.0141273
767.894	0.0141029
767.972	0.0142997
768.050	0.0142296
768.128	0.0143086
768.206	0.0144205
768.285	0.0142735
768.363	0.0144216
768.441	0.0143948
768.519	0.0144048
768.597	0.0143231
768.675	0.0142829
768.753	0.0142882
768.831	0.0143134
768.910	0.0142689
768.988	0.0142960
769.066	0.0142397
769.144	0.0143848
769.222	0.0144188
769.300	0.0145461
769.378	0.0145605
769.456	0.0145981
769.535	0.0147060
769.613	0.0148254
769.691	0.0147024
769.769	0.0145329
769.847	0.0146593
769.925	0.0145721
770.003	0.0144709
770.081	0.0145808
770.160	0.0145670
770.238	0.0144989
770.316	0.0145210
770.394	0.0146194
770.472	0.0145380
770.550	0.0144353
770.628	0.0146264
770.706	0.0146218
770.785	0.0145069
770.863	0.0146445
770.941	0.0146136
771.019	0.0145413
771.097	0.0144204
771.175	0.0145655
771.253	0.0144547
771.331	0.0144333
771.410	0.0142999
771.488	0.0141463
771.566	0.0140293
771.644	0.0139795
771.722	0.0137832
771.800	0.0138212
771.878	0.0138041
771.956	0.0135950
772.035	0.0136051
772.113	0.0136049
772.191	0.0136477
772.269	0.0137057
772.347	0.0137403
772.425	0.0136785
772.503	0.0134818
772.581	0.0137054
772.660	0.0135781
772.738	0.0136454
772.816	0.0138139
772.894	0.0138506
772.972	0.0137805
773.050	0.0138349
773.128	0.0139076
773.206	0.0140122
773.285	0.0140354
773.363	0.0140100
773.441	0.0140427
773.519	0.0140575
773.597	0.0140936
773.675	0.0141187
773.753	0.0141702
773.831	0.0140444
773.910	0.0139140
773.988	0.0138937
774.066	0.0138917
774.144	0.0139188
774.222	0.0138683
774.300	0.0139270
774.378	0.0140028
774.456	0.0139223
774.535	0.0140926
774.613	0.0141619
774.691	0.0141999
774.769	0.0142504
774.847	0.0143545
774.925	0.0144939
775.003	0.0144498
775.081	0.0145716
775.160	0.0145398
775.238	0.0144932
775.316	0.0145409
775.394	0.0146673
775.472	0.0144643
775.550	0.0144846
775.628	0.0145012
775.706	0.0143956
775.785	0.0143120
775.863	0.0144511
775.941	0.0144621
776.019	0.0144121
776.097	0.0144054
776.175	0.0146813
776.253	0.0145498
776.331	0.0146330
776.410	0.0145931
776.488	0.0146684
776.566	0.0146848
776.644	0.0146953
776.722	0.0144662
776.800	0.0144106
776.878	0.0144430
776.956	0.0144398
777.035	0.0143316
777.113	0.0143223
777.191	0.0143520
777.269	0.0144010
777.347	0.0144413
777.425	0.0144999
777.503	0.0145888
777.581	0.0145936
777.660	0.0145709
777.738	0.0146600
777.816	0.0145598
777.894	0.0145878
777.972	0.0145849
778.050	0.0144971
778.128	0.0145359
778.206	0.0143788
778.285	0.0143819
778.363	0.0143622
778.441	0.0141721
778.519	0.0142496
778.597	0.0142017
778.675	0.0140986
778.753	0.0140534
778.831	0.0141782
778.910	0.0140443
778.988	0.0140504
779.066	0.0139120
779.144	0.0141525
779.222	0.0140034
779.300	0.0139287
779.378	0.0141808
779.456	0.0139712
779.535	0.0140096
779.613	0.0140567
779.691	0.0140160
779.769	0.0140099
779.847	0.0141143
779.925	0.0140779
780.003	0.0139919
780.081	0.0141176
780.160	0.0139304
780.238	0.0139178
780.316	0.0139918
780.394	0.0139031
780.472	0.0138780
780.550	0.0139153
780.628	0.0137463
780.706	0.0135265
780.785	0.0135302
780.863	0.0135863
780.941	0.0135569
781.019	0.0135092
781.097	0.0135023
781.175	0.0135130
781.253	0.0136885
781.331	0.0135008
781.410	0.0138215
781.488	0.0139692
781.566	0.0138873
781.644	0.0140289
781.722	0.0142006
781.800	0.0140764
781.878	0.0142653
781.956	0.0141920
782.035	0.0143304
782.113	0.0143275
782.191	0.0143697
782.269	0.0143202
782.347	0.0143328
782.425	0.0144250
782.503	0.0143098
782.581	0.0143102
782.660	0.0144175
782.738	0.0143247
782.816	0.0143325
782.894	0.0144427
782.972	0.0145035
783.050	0.0143938
783.128	0.0144087
783.206	0.0144851
783.285	0.0145168
783.363	0.0144146
783.441	0.0144956
783.519	0.0143922
783.597	0.0142720
783.675	0.0144001
783.753	0.0145348
783.831	0.0144672
783.910	0.0144165
783.988	0.0143472
784.066	0.0142622
784.144	0.0143287
784.222	0.0141805
784.300	0.0141272
784.378	0.0141302
784.456	0.0142779
784.535	0.0143115
784.613	0.0142471
784.691	0.0141943
784.769	0.0142462
784.847	0.0144251
784.925	0.0142694
785.003	0.0142769
785.081	0.0143941
785.160	0.0143462
785.238	0.0144092
785.316	0.0142818
785.394	0.0143478
785.472	0.0142781
785.550	0.0141719
785.628	0.0142036
785.706	0.0141866
785.785	0.0140958
785.863	0.0139321
785.941	0.0140176
786.019	0.0137943
786.097	0.0136837
786.175	0.0137206
786.253	0.0137368
786.331	0.0137198
786.410	0.0137262
786.488	0.0137397
786.566	0.0138227
786.644	0.0138150
786.722	0.0137762
786.800	0.0138583
786.878	0.0138360
786.956	0.0139051
787.035	0.0140829
787.113	0.0139461
787.191	0.0139113
787.269	0.0142662
787.347	0.0140262
787.425	0.0140218
787.503	0.0140305
787.581	0.0141061
787.660	0.0140473
787.738	0.0138895
787.816	0.0138002
787.894	0.0139214
787.972	0.0140156
788.050	0.0138390
788.128	0.0139281
788.206	0.0140098
788.285	0.0141441
788.363	0.0142000
788.441	0.0141096
788.519	0.0141662
788.597	0.0141341
788.675	0.0142115
788.753	0.0140723
788.831	0.0138570
788.910	0.0139717
788.988	0.0138615
789.066	0.0139009
789.144	0.0138632
789.222	0.0140037
789.300	0.0138571
789.378	0.0140660
789.456	0.0141024
789.535	0.0141659
789.613	0.0141425
789.691	0.0142008
789.769	0.0142712
789.847	0.0142570
789.925	0.0143132
790.003	0.0142727
790.081	0.0144274
790.160	0.0143875
790.238	0.0144486
790.316	0.0145422
790.394	0.0144084
790.472	0.0144793
790.550	0.0146066
790.628	0.0146328
790.706	0.0144739
790.785	0.0145809
790.863	0.0146963
790.941	0.0146209
791.019	0.0147420
791.097	0.0146022
791.175	0.0145908
791.253	0.0146336
791.331	0.0145583
791.410	0.0144994
791.488	0.0144457
791.566	0.0143044
791.644	0.0141718
791.722	0.0141270
791.800	0.0140806
791.878	0.0141568
791.956	0.0142740
792.035	0.0143559
792.113	0.0143888
792.191	0.0143008
792.269	0.0142168
792.347	0.0142627
792.425	0.0143477
792.503	0.0142621
792.581	0.0142075
792.660	0.0142747
792.738	0.0143194
792.816	0.0143436
792.894	0.0141833
792.972	0.0142870
793.050	0.0141253
793.128	0.0140639
793.206	0.0140370
793.285	0.0138496
793.363	0.0137815
793.441	0.0139645
793.519	0.0141744
793.597	0.0140498
793.675	0.0140265
793.753	0.0139777
793.831	0.0139158
793.910	0.0140374
793.988	0.0140066
794.066	0.0140745
794.144	0.0140384
794.222	0.0139573
794.300	0.0139909
794.378	0.0141000
794.456	0.0140531
794.535	0.0139703
794.613	0.0140535
794.691	0.0140883
794.769	0.0140498
794.847	0.0141596
794.925	0.0141257
795.003	0.0139975
795.081	0.0140305
795.160	0.0139483
795.238	0.0138419
795.316	0.0138351
795.394	0.0138335
795.472	0.0139385
795.550	0.0138815
795.628	0.0138498
795.706	0.0139099
795.785	0.0138731
795.863	0.0138681
795.941	0.0139394
796.019	0.0140968
796.097	0.0139752
796.175	0.0139817
796.253	0.0141831
796.331	0.0142629
796.410	0.0142245
796.488	0.0143026
796.566	0.0144542
796.644	0.0141773
796.722	0.0142333
796.800	0.0142402
796.878	0.0141470
796.956	0.0140929
797.035	0.0142326
797.113	0.0141399
797.191	0.0140930
797.269	0.0141773
797.347	0.0141856
797.425	0.0140089
797.503	0.0141210
797.581	0.0142072
797.660	0.0143952
797.738	0.0144934
797.816	0.0145014
797.894	0.0144698
797.972	0.0143417
798.050	0.0144249
798.128	0.0143346
798.206	0.0144401
798.285	0.0144442
798.363	0.0145469
798.441	0.0143905
798.519	0.0144987
798.597	0.0143860
798.675	0.0145146
798.753	0.0144452
798.831	0.0145527
798.910	0.0146483
798.988	0.0146776
799.066	0.0147079
799.144	0.0146135
799.222	0.0145980
799.300	0.0145814
799.378	0.0146138
799.456	0.0145229
799.535	0.0144536
799.613	0.0143745
799.691	0.0142664
799.769	0.0142263
799.847	0.0143127
799.925	0.0142022
800.003	0.0141161
800.081	0.0142223
800.160	0.0140877
800.238	0.0140152
800.316	0.0141047
800.394	0.0141520
800.472	0.0139886
800.550	0.0138969
800.628	0.0139374
800.706	0.0140261
800.785	0.0138264
800.863	0.0137003
800.941	0.0137477
801.019	0.0137917
801.097	0.0138106
801.175	0.0139202
801.253	0.0138116
801.331	0.0138270
801.410	0.0138113
801.488	0.0138184
801.566	0.0137583
801.644	0.0137576
801.722	0.0138431
801.800	0.0139944
801.878	0.0139099
801.956	0.0140012
802.035	0.0139088
802.113	0.0139782
802.191	0.0138786
802.269	0.0139296
802.347	0.0139471
802.425	0.0138612
802.503	0.0139752
802.581	0.0139409
802.660	0.0139626
802.738	0.0139341
802.816	0.0138202
802.894	0.0139616
802.972	0.0138483
803.050	0.0137289
803.128	0.0138519
803.206	0.0137014
803.285	0.0134278
803.363	0.0137270
803.441	0.0137470
803.519	0.0136358
803.597	0.0138654
803.675	0.0137967
803.753	0.0141755
803.831	0.0142961
803.910	0.0143794
803.988	0.0144372
804.066	0.0143947
804.144	0.0144210
804.222	0.0142632
804.300	0.0140695
804.378	0.0140291
804.456	0.0140117
804.535	0.0139259
804.613	0.0139149
804.691	0.0137500
804.769	0.0141574
804.847	0.0140813
804.925	0.0142697
805.003	0.0145787
805.081	0.0148897
805.160	0.0151210
805.238	0.0154273
805.316	0.0155225
805.394	0.0159343
805.472	0.0159225
805.550	0.0158669
805.628	0.0159244
805.706	0.0156123
805.785	0.0154718
805.863	0.0152206
805.941	0.0148449
806.019	0.0143899
806.097	0.0140530
806.175	0.0138478
806.253	0.0134296
806.331	0.0131480
806.410	0.0130772
806.488	0.0129370
806.566	0.0128928
806.644	0.0128423
806.722	0.0130174
806.800	0.0130732
806.878	0.0130965
806.956	0.0133548
807.035	0.0138164
807.113	0.0139921
807.191	0.0142547
807.269	0.0145766
807.347	0.0147824
807.425	0.0149030
807.503	0.0150068
807.581	0.0150993
807.660	0.0151163
807.738	0.0150898
807.816	0.0150007
807.894	0.0148025
807.972	0.0147518
808.050	0.0145339
808.128	0.0142802
808.206	0.0142092
808.285	0.0139688
808.363	0.0139415
808.441	0.0139029
808.519	0.0136956
808.597	0.0137180
808.675	0.0136242
808.753	0.0136401
808.831	0.0135584
808.910	0.0136154
808.988	0.0134100
809.066	0.0135519
809.144	0.0136390
809.222	0.0135451
809.300	0.0134787
809.378	0.0134644
809.456	0.0134508
809.535	0.0134547
809.613	0.0134921
809.691	0.0134679
809.769	0.0135927
809.847	0.0136719
809.925	0.0138074
810.003	0.0136522
810.081	0.0139149
810.160	0.0140389
810.238	0.0140674
810.316	0.0142601
810.394	0.0143264
810.472	0.0144115
810.550	0.0146710
810.628	0.0148603
810.706	0.0148042
810.785	0.0149603
810.863	0.0150675
810.941	0.0151402
811.019	0.0150938
811.097	0.0151723
811.175	0.0150539
811.253	0.0149164
811.331	0.0147257
811.410	0.0146910
811.488	0.0145156
811.566	0.0143373
811.644	0.0143894
811.722	0.0145084
811.800	0.0143344
811.878	0.0143133
811.956	0.0143536
812.035	0.0143214
812.113	0.0142755
812.191	0.0142686
812.269	0.0144405
812.347	0.0145708
812.425	0.0144526
812.503	0.0143951
812.581	0.0144483
812.660	0.0145093
812.738	0.0143931
812.816	0.0141705
812.894	0.0141026
812.972	0.0139678
813.050	0.0138881
813.128	0.0137149
813.206	0.0138434
813.285	0.0137386
813.363	0.0134173
813.441	0.0135369
813.519	0.0135477
813.597	0.0137226
813.675	0.0135579
813.753	0.0136073
813.831	0.0136721
813.910	0.0137979
813.988	0.0137878
814.066	0.0136311
814.144	0.0137817
814.222	0.0139874
814.300	0.0138382
814.378	0.0139045
814.456	0.0141797
814.535	0.0141392
814.613	0.0141175
814.691	0.0143938
814.769	0.0143452
814.847	0.0143922
814.925	0.0144663
815.003	0.0145553
815.081	0.0144309
815.160	0.0143202
815.238	0.0144627
815.316	0.0144524
815.394	0.0143745
815.472	0.0141810
815.550	0.0142022
815.628	0.0141312
815.706	0.0141156
815.785	0.0141296
815.863	0.0141522
815.941	0.0139181
816.019	0.0140307
816.097	0.0139849
816.175	0.0139681
816.253	0.0139999
816.331	0.0139706
816.410	0.0139684
816.488	0.0138641
816.566	0.0139565
816.644	0.0139539
816.722	0.0138531
816.800	0.0139099
816.878	0.0139039
816.956	0.0140926
817.035	0.0141343
817.113	0.0141094
817.191	0.0142062
817.269	0.0143439
817.347	0.0142510
817.425	0.0142157
817.503	0.0142270
817.581	0.0141725
817.660	0.0139913
817.738	0.0140884
817.816	0.0140497
817.894	0.0139742
817.972	0.0141283
818.050	0.0139499
818.128	0.0139169
818.206	0.0138303
818.285	0.0138344
818.363	0.0139525
818.441	0.0139513
818.519	0.0140095
818.597	0.0140539
818.675	0.0140404
818.753	0.0142361
818.831	0.0142524
818.910	0.0140963
818.988	0.0141308
819.066	0.0141789
819.144	0.0140642
819.222	0.0141522
819.300	0.0143518
819.378	0.0144454
819.456	0.0143771
819.535	0.0145352
819.613	0.0144804
819.691	0.0145328
819.769	0.0146666
819.847	0.0147467
819.925	0.0145824
820.003	0.0146176
820.081	0.0146222
820.160	0.0146017
820.238	0.0145784
820.316	0.0146665
820.394	0.0146090
820.472	0.0145307
820.550	0.0144962
820.628	0.0144872
820.706	0.0145765
820.785	0.0144716
820.863	0.0143503
820.941	0.0143893
821.019	0.0143016
821.097	0.0143504
821.175	0.0143423
821.253	0.0142657
821.331	0.0142398
821.410	0.0141958
821.488	0.0139622
821.566	0.0137506
821.644	0.0139627
821.722	0.0138342
821.800	0.0136777
821.878	0.0136945
821.956	0.0137130
822.035	0.0138192
822.113	0.0138769
822.191	0.0139706
822.269	0.0138670
822.347	0.0139143
822.425	0.0139367
822.503	0.0141528
822.581	0.0141588
822.660	0.0141084
822.738	0.0142186
822.816	0.0143427
822.894	0.0142745
822.972	0.0142376
823.050	0.0142501
823.128	0.0140777
823.206	0.0140993
823.285	0.0142037
823.363	0.0140919
823.441	0.0140843
823.519	0.0140676
823.597	0.0140140
823.675	0.0138605
823.753	0.0138745
823.831	0.0137231
823.910	0.0138081
823.988	0.0138635
824.066	0.0138924
824.144	0.0140095
824.222	0.0139204
824.300	0.0139419
824.378	0.0139309
824.456	0.0140763
824.535	0.0140590
824.613	0.0139032
824.691	0.0140726
824.769	0.0141399
824.847	0.0141673
824.925	0.0140318
825.003	0.0140650
825.081	0.0139405
825.160	0.0139112
825.238	0.0139801
825.316	0.0139902
825.394	0.0139983
825.472	0.0140644
825.550	0.0139822
825.628	0.0141914
825.706	0.0142531
825.785	0.0141579
825.863	0.0142871
825.941	0.0142879
826.019	0.0143326
826.097	0.0145271
826.175	0.0146058
826.253	0.0145979
826.331	0.0145001
826.410	0.0147263
826.488	0.0146782
826.566	0.0146149
826.644	0.0145689
826.722	0.0147868
826.800	0.0147858
826.878	0.0146914
826.956	0.0146400
827.035	0.0146967
827.113	0.0146308
827.191	0.0146793
827.269	0.0147633
827.347	0.0147327
827.425	0.0146442
827.503	0.0146676
827.581	0.0145351
827.660	0.0145190
827.738	0.0145553
827.816	0.0143210
827.894	0.0141527
827.972	0.0139763
828.050	0.0142302
828.128	0.0141675
828.206	0.0141589
828.285	0.0141834
828.363	0.0141615
828.441	0.0139967
828.519	0.0140177
828.597	0.0140576
828.675	0.0138895
828.753	0.0138618
828.831	0.0139074
828.910	0.0137283
828.988	0.0136485
829.066	0.0135812
829.144	0.0135769
829.222	0.0136186
829.300	0.0136469
829.378	0.0138087
829.456	0.0136787
829.535	0.0139005
829.613	0.0141004
829.691	0.0140083
829.769	0.0141420
829.847	0.0142928
829.925	0.0141164
830.003	0.0141248
830.081	0.0141478
830.160	0.0141598
830.238	0.0140630
830.316	0.0141640
830.394	0.0140363
830.472	0.0139915
830.550	0.0140547
830.628	0.0141158
830.706	0.0140639
830.785	0.0141224
830.863	0.0141094
830.941	0.0139474
831.019	0.0139420
831.097	0.0140251
831.175	0.0140189
831.253	0.0141261
831.331	0.0139132
831.410	0.0141654
831.488	0.0141816
831.566	0.0142782
831.644	0.0144447
831.722	0.0145026
831.800	0.0142801
831.878	0.0144930
831.956	0.0144677
832.035	0.0144099
832.113	0.0144001
832.191	0.0142727
832.269	0.0144971
832.347	0.0141938
832.425	0.0141946
832.503	0.0142290
832.581	0.0140822
832.660	0.0140493
832.738	0.0139720
832.816	0.0140520
832.894	0.0142412
832.972	0.0144055
833.050	0.0144256
833.128	0.0146196
833.206	0.0146256
833.285	0.0148565
833.363	0.0148248
833.441	0.0149127
833.519	0.0151025
833.597	0.0150800
833.675	0.0150224
833.753	0.0149561
833.831	0.0148204
833.910	0.0146088
833.988	0.0145300
834.066	0.0145370
834.144	0.0140585
834.222	0.0139790
834.300	0.0138510
834.378	0.0137071
834.456	0.0136835
834.535	0.0134551
834.613	0.0135486
834.691	0.0136068
834.769	0.0134488
834.847	0.0135892
834.925	0.0136170
835.003	0.0137521
835.081	0.0140968
835.160	0.0142506
835.238	0.0143324
835.316	0.0144579
835.394	0.0147311
835.472	0.0148730
835.550	0.0148849
835.628	0.0149156
835.706	0.0150723
835.785	0.0149831
835.863	0.0147978
835.941	0.0149197
836.019	0.0147124
836.097	0.0146848
836.175	0.0145378
836.253	0.0144666
836.331	0.0142986
836.410	0.0140070
836.488	0.0138584
836.566	0.0137097
836.644	0.0135362
836.722	0.0134167
836.800	0.0131995
836.878	0.0131496
836.956	0.0130856
837.035	0.0132069
837.113	0.0134734
837.191	0.0133900
837.269	0.0133867
837.347	0.0135763
837.425	0.0137801
837.503	0.0139577
837.581	0.0141201
837.660	0.0140562
837.738	0.0143839
837.816	0.0144656
837.894	0.0146542
837.972	0.0147533
838.050	0.0149215
838.128	0.0149612
838.206	0.0150159
838.285	0.0150945
838.363	0.0150380
838.441	0.0150115
838.519	0.0148967
838.597	0.0147166
838.675	0.0145596
838.753	0.0147008
838.831	0.0142748
838.910	0.0142109
838.988	0.0141286
839.066	0.0140437
839.144	0.0140830
839.222	0.0138473
839.300	0.0136173
839.378	0.0136702
839.456	0.0136655
839.535	0.0137029
839.613	0.0136750
839.691	0.0135884
839.769	0.0136401
839.847	0.0135496
839.925	0.0136927
840.003	0.0139260
840.081	0.0139466
840.160	0.0139564
840.238	0.0141532
840.316	0.0142941
840.394	0.0144709
840.472	0.0144656
840.550	0.0145874
840.628	0.0146400
840.706	0.0144972
840.785	0.0146167
840.863	0.0146889
840.941	0.0146654
841.019	0.0147106
841.097	0.0146528
841.175	0.0146159
841.253	0.0145707
841.331	0.0145950
841.410	0.0143911
841.488	0.0142939
841.566	0.0142807
841.644	0.0142273
841.722	0.0142271
841.800	0.0139546
841.878	0.0140788
841.956	0.0140504
842.035	0.0141890
842.113	0.0140589
842.191	0.0140678
842.269	0.0142251
842.347	0.0141669
842.425	0.0141119
842.503	0.0142355
842.581	0.0142390
842.660	0.0142538
842.738	0.0143004
842.816	0.0142455
842.894	0.0142926
842.972	0.0143058
843.050	0.0141972
843.128	0.0141777
843.206	0.0141930
843.285	0.0141710
843.363	0.0142663
843.441	0.0141900
843.519	0.0141030
843.597	0.0140314
843.675	0.0139641
843.753	0.0141418
843.831	0.0140220
843.910	0.0140083
843.988	0.0142059
844.066	0.0141850
844.144	0.0142796
844.222	0.0142561
844.300	0.0142376
844.378	0.0144367
844.456	0.0144552
844.535	0.0145025
844.613	0.0144252
844.691	0.0145071
844.769	0.0144941
844.847	0.0143395
844.925	0.0141675
845.003	0.0143774
845.081	0.0142900
845.160	0.0141306
845.238	0.0141119
845.316	0.0141024
845.394	0.0140529
845.472	0.0139602
845.550	0.0139688
845.628	0.0139341
845.706	0.0138728
845.785	0.0138224
845.863	0.0137769
845.941	0.0138060
846.019	0.0137187
846.097	0.0138667
846.175	0.0138998
846.253	0.0138465
846.331	0.0139320
846.410	0.0139413
846.488	0.0141192
846.566	0.0141787
846.644	0.0143648
846.722	0.0144730
846.800	0.0143574
846.878	0.0145695
846.956	0.0144334
847.035	0.0145528
847.113	0.0145824
847.191	0.0146261
847.269	0.0147049
847.347	0.0146418
847.425	0.0144613
847.503	0.0146070
847.581	0.0143500
847.660	0.0144703
847.738	0.0145440
847.816	0.0144090
847.894	0.0141927
847.972	0.0142936
848.050	0.0140599
848.128	0.0141054
848.206	0.0140185
848.285	0.0138834
848.363	0.0137724
848.441	0.0138217
848.519	0.0138840
848.597	0.0138512
848.675	0.0138971
848.753	0.0138776
848.831	0.0139532
848.910	0.0139309
848.988	0.0141339
849.066	0.0140093
849.144	0.0141882
849.222	0.0141730
849.300	0.0142313
849.378	0.0143098
849.456	0.0143932
849.535	0.0143602
849.613	0.0146226
849.691	0.0143455
849.769	0.0142443
849.847	0.0144769
849.925	0.0145489
850.003	0.0145626
850.081	0.0144532
850.160	0.0144643
850.238	0.0144842
850.316	0.0144601
850.394	0.0144443
850.472	0.0142606
850.550	0.0141779
850.628	0.0141861
850.706	0.0140939
850.785	0.0140401
850.863	0.0140106
850.941	0.0140253
851.019	0.0139854
851.097	0.0140220
851.175	0.0141038
851.253	0.0140025
851.331	0.0139563
851.410	0.0139641
851.488	0.0140258
851.566	0.0140686
851.644	0.0141533
851.722	0.0141053
851.800	0.0141475
851.878	0.0141328
851.956	0.0141773
852.035	0.0142498
852.113	0.0142101
852.191	0.0142142
852.269	0.0143391
852.347	0.0143407
852.425	0.0144047
852.503	0.0141171
852.581	0.0142686
852.660	0.0143507
852.738	0.0141051
852.816	0.0142262
852.894	0.0141611
852.972	0.0141452
853.050	0.0142091
853.128	0.0140498
853.206	0.0140274
853.285	0.0140922
853.363	0.0141627
853.441	0.0141587
853.519	0.0140517
853.597	0.0141877
853.675	0.0141503
853.753	0.0142329
853.831	0.0142523
853.910	0.0141180
853.988	0.0142107
854.066	0.0143487
854.144	0.0140582
854.222	0.0141132
854.300	0.0143269
854.378	0.0143227
854.456	0.0141947
854.535	0.0142719
854.613	0.0143067
854.691	0.0142297
854.769	0.0141685
854.847	0.0142454
854.925	0.0145091
855.003	0.0144714
855.081	0.0145547
855.160	0.0145153
855.238	0.0144688
855.316	0.0144988
855.394	0.0145469
855.472	0.0144506
855.550	0.0143755
855.628	0.0144936
855.706	0.0145401
855.785	0.0144433
855.863	0.0144033
855.941	0.0143640
856.019	0.0143932
856.097	0.0141414
856.175	0.0142345
856.253	0.0142309
856.331	0.0140402
856.410	0.0139860
856.488	0.0139294
856.566	0.0138713
856.644	0.0138821
856.722	0.0138215
856.800	0.0138505
856.878	0.0138351
856.956	0.0138408
857.035	0.0137969
857.113	0.0139481
857.191	0.0139364
857.269	0.0139307
857.347	0.0139042
857.425	0.0142007
857.503	0.0140806
857.581	0.0141104
857.660	0.0142119
857.738	0.0141681
857.816	0.0143150
857.894	0.0143645
857.972	0.0143623
858.050	0.0144477
858.128	0.0144486
858.206	0.0145734
858.285	0.0146234
858.363	0.0145355
858.441	0.0144997
858.519	0.0145399
858.597	0.0145538
858.675	0.0145329
858.753	0.0143517
858.831	0.0144072
858.910	0.0142368
858.988	0.0142435
859.066	0.0141866
859.144	0.0139269
859.222	0.0140856
859.300	0.0140616
859.378	0.0138255
859.456	0.0138586
859.535	0.0140662
859.613	0.0140316
859.691	0.0140415
859.769	0.0138692
859.847	0.0139922
859.925	0.0140743
860.003	0.0141076
860.081	0.0140618
860.160	0.0141167
860.238	0.0142341
860.316	0.0141012
860.394	0.0141476
860.472	0.0141875
860.550	0.0140895
860.628	0.0141507
860.706	0.0142385
860.785	0.0142759
860.863	0.0141963
860.941	0.0141822
861.019	0.0142257
861.097	0.0142226
861.175	0.0142119
861.253	0.0140696
861.331	0.0138154
861.410	0.0140257
861.488	0.0139230
861.566	0.0139120
861.644	0.0139997
861.722	0.0139207
861.800	0.0139835
861.878	0.0140231
861.956	0.0139656
862.035	0.0140610
862.113	0.0139740
862.191	0.0141064
862.269	0.0142986
862.347	0.0140705
862.425	0.0141344
862.503	0.0140887
862.581	0.0140596
862.660	0.0141090
862.738	0.0139817
862.816	0.0139690
862.894	0.0140669
862.972	0.0140638
863.050	0.0140988
863.128	0.0141529
863.206	0.0142143
863.285	0.0141641
863.363	0.0142464
863.441	0.0142141
863.519	0.0144045
863.597	0.0144254
863.675	0.0141203
863.753	0.0144160
863.831	0.0144608
863.910	0.0145160
863.988	0.0144528
864.066	0.0144681
864.144	0.0143507
864.222	0.0144697
864.300	0.0145304
864.378	0.0145051
864.456	0.0144190
864.535	0.0143020
864.613	0.0143692
864.691	0.0142571
864.769	0.0141449
864.847	0.0141948
864.925	0.0141661
865.003	0.0141283
865.081	0.0141206
865.160	0.0141963
865.238	0.0142455
865.316	0.0141486
865.394	0.0140678
865.472	0.0140858
865.550	0.0140504
865.628	0.0140086
865.706	0.0139391
865.785	0.0138440
865.863	0.0137611
865.941	0.0137798
866.019	0.0138040
866.097	0.0138144
866.175	0.0138734
866.253	0.0137548
866.331	0.0137830
866.410	0.0138298
866.488	0.0138654
866.566	0.0137286
866.644	0.0136161
866.722	0.0138037
866.800	0.0137680
866.878	0.0138409
866.956	0.0138793
867.035	0.0138303
867.113	0.0138603
867.191	0.0139829
867.269	0.0139404
867.347	0.0139858
867.425	0.0140367
867.503	0.0139798
867.581	0.0142624
867.660	0.0142218
867.738	0.0141274
867.816	0.0141675
867.894	0.0142107
867.972	0.0142322
868.050	0.0141199
868.128	0.0144602
868.206	0.0143853
868.285	0.0143843
868.363	0.0142881
868.441	0.0143049
868.519	0.0142361
868.597	0.0142632
868.675	0.0140195
868.753	0.0140544
868.831	0.0141380
868.910	0.0142729
868.988	0.0142740
869.066	0.0142170
869.144	0.0142542
869.222	0.0142979
869.300	0.0142680
869.378	0.0142258
869.456	0.0144390
869.535	0.0143869
869.613	0.0142921
869.691	0.0143537
869.769	0.0142278
869.847	0.0142016
869.925	0.0139643
870.003	0.0141181
870.081	0.0140646
870.160	0.0140621
870.238	0.0139819
870.316	0.0138531
870.394	0.0137362
870.472	0.0136414
870.550	0.0136965
870.628	0.0136452
870.706	0.0136861
870.785	0.0137458
870.863	0.0138021
870.941	0.0138391
871.019	0.0140707
871.097	0.0139390
871.175	0.0139840
871.253	0.0141112
871.331	0.0142226
871.410	0.0144876
871.488	0.0146162
871.566	0.0144687
871.644	0.0145971
871.722	0.0146384
871.800	0.0146515
871.878	0.0148537
871.956	0.0148859
872.035	0.0146904
872.113	0.0148141
872.191	0.0148387
872.269	0.0145804
872.347	0.0145908
872.425	0.0145103
872.503	0.0144884
872.581	0.0143376
872.660	0.0143023
872.738	0.0141602
872.816	0.0140098
872.894	0.0138892
872.972	0.0139957
873.050	0.0139059
873.128	0.0137551
873.206	0.0138529
873.285	0.0139980
873.363	0.0139532
873.441	0.0138264
873.519	0.0137865
873.597	0.0139243
873.675	0.0138910
873.753	0.0139689
873.831	0.0139289
873.910	0.0139214
873.988	0.0139597
874.066	0.0140821
874.144	0.0139836
874.222	0.0139539
874.300	0.0141225
874.378	0.0141646
874.456	0.0140096
874.535	0.0139044
874.613	0.0139894
874.691	0.0139046
874.769	0.0139035
874.847	0.0139223
874.925	0.0138566
875.003	0.0137991
875.081	0.0138795
875.160	0.0139108
875.238	0.0141037
875.316	0.0140621
875.394	0.0140585
875.472	0.0140975
875.550	0.0141592
875.628	0.0140885
875.706	0.0142268
875.785	0.0141892
875.863	0.0141862
875.941	0.0140611
876.019	0.0140732
876.097	0.0139841
876.175	0.0142691
876.253	0.0140601
876.331	0.0139950
876.410	0.0139570
876.488	0.0139845
876.566	0.0140867
876.644	0.0139314
876.722	0.0139809
876.800	0.0139817
876.878	0.0140259
876.956	0.0139121
877.035	0.0137522
877.113	0.0139385
877.191	0.0138906
877.269	0.0139307
877.347	0.0139867
877.425	0.0139512
877.503	0.0139772
877.581	0.0139638
877.660	0.0139172
877.738	0.0139380
877.816	0.0141360
877.894	0.0140102
877.972	0.0140813
878.050	0.0142395
878.128	0.0141965
878.206	0.0141201
878.285	0.0141554
878.363	0.0142010
878.441	0.0142373
878.519	0.0142500
878.597	0.0142263
878.675	0.0140720
878.753	0.0140541
878.831	0.0140822
878.910	0.0142436
878.988	0.0141382
879.066	0.0143121
879.144	0.0142454
879.222	0.0143201
879.300	0.0143527
879.378	0.0144906
879.456	0.0145162
879.535	0.0145526
879.613	0.0145152
879.691	0.0145439
879.769	0.0147365
879.847	0.0144368
879.925	0.0143467
880.003	0.0144479
880.081	0.0143661
880.160	0.0141027
880.238	0.0141402
880.316	0.0139624
880.394	0.0140563
880.472	0.0139737
880.550	0.0138810
880.628	0.0139952
880.706	0.0139188
880.785	0.0138573
880.863	0.0138065
880.941	0.0139286
881.019	0.0138367
881.097	0.0139300
881.175	0.0139975
881.253	0.0138902
881.331	0.0138992
881.410	0.0140149
881.488	0.0141364
881.566	0.0140401
881.644	0.0140520
881.722	0.0143478
881.800	0.0142683
881.878	0.0144276
881.956	0.0143841
882.035	0.0143919
882.113	0.0144939
882.191	0.0143263
882.269	0.0143147
882.347	0.0142272
882.425	0.0141290
882.503	0.0140583
882.581	0.0140611
882.660	0.0140823
882.738	0.0141351
882.816	0.0140455
882.894	0.0139996
882.972	0.0138908
883.050	0.0139618
883.128	0.0139615
883.206	0.0138395
883.285	0.0138699
883.363	0.0137958
883.441	0.0138583
883.519	0.0139178
883.597	0.0138601
883.675	0.0139751
883.753	0.0139482
883.831	0.0141073
883.910	0.0141161
883.988	0.0140172
884.066	0.0141071
884.144	0.0141615
884.222	0.0140941
884.300	0.0142850
884.378	0.0141958
884.456	0.0142478
884.535	0.0144144
884.613	0.0144436
884.691	0.0144493
884.769	0.0145117
884.847	0.0145363
884.925	0.0144883
885.003	0.0144461
885.081	0.0143520
885.160	0.0144760
885.238	0.0143690
885.316	0.0142141
885.394	0.0143332
885.472	0.0141531
885.550	0.0142033
885.628	0.0141473
885.706	0.0139481
885.785	0.0140868
885.863	0.0139443
885.941	0.0138934
886.019	0.0139195
886.097	0.0137646
886.175	0.0139065
886.253	0.0140382
886.331	0.0140772
886.410	0.0141018
886.488	0.0141358
886.566	0.0140652
886.644	0.0141824
886.722	0.0143475
886.800	0.0143496
886.878	0.0144153
886.956	0.0143126
887.035	0.0145538
887.113	0.0144804
887.191	0.0144865
887.269	0.0144047
887.347	0.0145216
887.425	0.0144196
887.503	0.0142561
887.581	0.0143535
887.660	0.0142502
887.738	0.0141315
887.816	0.0140011
887.894	0.0139034
887.972	0.0138607
888.050	0.0138373
888.128	0.0139045
888.206	0.0139246
888.285	0.0138960
888.363	0.0138688
888.441	0.0139053
888.519	0.0139201
888.597	0.0138426
888.675	0.0138356
888.753	0.0138972
888.831	0.0139648
888.910	0.0137913
888.988	0.0138062
889.066	0.0138329
889.144	0.0137354
889.222	0.0139668
889.300	0.0138132
889.378	0.0138448
889.456	0.0139543
889.535	0.0139260
889.613	0.0138686
889.691	0.0140345
889.769	0.0140530
889.847	0.0141079
889.925	0.0139584
890.003	0.0139527
890.081	0.0139950
890.160	0.0141499
890.238	0.0140163
890.316	0.0141245
890.394	0.0141836
890.472	0.0142723
890.550	0.0142421
890.628	0.0142406
890.706	0.0142398
890.785	0.0141997
890.863	0.0142712
890.941	0.0141530
891.019	0.0140759
891.097	0.0141227
891.175	0.0141161
891.253	0.0141241
891.331	0.0140111
891.410	0.0140941
891.488	0.0142046
891.566	0.0141006
891.644	0.0141623
891.722	0.0143013
891.800	0.0141264
891.878	0.0142490
891.956	0.0142375
892.035	0.0143097
892.113	0.0142937
892.191	0.0141581
892.269	0.0142184
892.347	0.0140008
892.425	0.0140075
892.503	0.0140766
892.581	0.0141090
892.660	0.0141697
892.738	0.0140825
892.816	0.0140617
892.894	0.0141335
892.972	0.0140243
893.050	0.0139843
893.128	0.0140353
893.206	0.0140912
893.285	0.0140900
893.363	0.0140992
893.441	0.0140993
893.519	0.0142407
893.597	0.0140626
893.675	0.0140110
893.753	0.0140717
893.831	0.0140903
893.910	0.0141683
893.988	0.0141718
894.066	0.0139674
894.144	0.0140012
894.222	0.0140475
894.300	0.0142190
894.378	0.0143083
894.456	0.0141946
894.535	0.0141486
894.613	0.0142442
894.691	0.0143398
894.769	0.0144129
894.847	0.0144010
894.925	0.0143837
895.003	0.0144875
895.081	0.0144898
895.160	0.0143555
895.238	0.0143403
895.316	0.0142686
895.394	0.0142681
895.472	0.0141502
895.550	0.0141482
895.628	0.0140168
895.706	0.0139126
895.785	0.0139853
895.863	0.0140893
895.941	0.0139835
896.019	0.0140424
896.097	0.0141147
896.175	0.0140904
896.253	0.0139768
896.331	0.0139626
896.410	0.0140210
896.488	0.0140921
896.566	0.0140820
896.644	0.0141514
896.722	0.0141865
896.800	0.0141541
896.878	0.0141150
896.956	0.0141628
897.035	0.0139637
897.113	0.0141452
897.191	0.0141045
897.269	0.0139531
897.347	0.0139691
897.425	0.0140154
897.503	0.0139198
897.581	0.0140744
897.660	0.0140234
897.738	0.0141719
897.816	0.0140034
897.894	0.0141600
897.972	0.0142406
898.050	0.0141934
898.128	0.0142838
898.206	0.0142031
898.285	0.0141845
898.363	0.0140856
898.441	0.0140335
898.519	0.0140755
898.597	0.0139883
898.675	0.0139159
898.753	0.0137836
898.831	0.0137244
898.910	0.0136786
898.988	0.0135498
899.066	0.0133781
899.144	0.0136556
899.222	0.0137354
899.300	0.0138931
899.378	0.0144232
899.456	0.0147862
899.535	0.0150130
899.613	0.0153378
899.691	0.0155167
899.769	0.0156066
899.847	0.0155060
899.925	0.0152039
900.003	0.0147220
900.081	0.0142605
900.160	0.0136823
900.238	0.0134163
900.316	0.0129322
900.394	0.0129286
900.472	0.0132290
900.550	0.0138164
900.628	0.0143277
900.706	0.0149877
900.785	0.0156426
900.863	0.0160027
900.941	0.0161948
901.019	0.0160961
901.097	0.0156079
901.175	0.0148879
901.253	0.0141042
901.331	0.0129236
901.410	0.0121492
901.488	0.0113683
901.566	0.0107125
901.644	0.0104513
901.722	0.0106458
901.800	0.0110406
901.878	0.0117018
901.956	0.0125773
902.035	0.0136057
902.113	0.0146535
902.191	0.0156267
902.269	0.0165003
902.347	0.0170414
902.425	0.0173567
902.503	0.0172037
902.581	0.0170487
902.660	0.0167365
902.738	0.0163074
902.816	0.0156168
902.894	0.0151758
902.972	0.0145020
903.050	0.0140788
903.128	0.0136611
903.206	0.0132079
903.285	0.0129446
903.363	0.0128067
903.441	0.0126199
903.519	0.0126878
903.597	0.0128168
903.675	0.0128220
903.753	0.0131275
903.831	0.0132946
903.910	0.0136342
903.988	0.0138134
904.066	0.0142191
904.144	0.0143732
904.222	0.0145747
904.300	0.0147134
904.378	0.0150132
904.456	0.0149949
904.535	0.0149387
904.613	0.0149705
904.691	0.0148135
904.769	0.0147602
904.847	0.0146149
904.925	0.0144796
905.003	0.0144579
905.081	0.0142557
905.160	0.0142898
905.238	0.0143008
905.316	0.0143149
905.394	0.0142601
905.472	0.0142178
905.550	0.0142973
905.628	0.0142832
905.706	0.0144170
905.785	0.0142431
905.863	0.0145378
905.941	0.0145156
906.019	0.0144051
906.097	0.0143761
906.175	0.0144135
906.253	0.0143365
906.331	0.0142496
906.410	0.0141478
906.488	0.0139974
906.566	0.0139758
906.644	0.0139236
906.722	0.0137983
906.800	0.0136228
906.878	0.0136289
906.956	0.0135265
907.035	0.0135827
907.113	0.0135459
907.191	0.0136943
907.269	0.0137489
907.347	0.0138908
907.425	0.0139314
907.503	0.0140100
907.581	0.0142594
907.660	0.0142740
907.738	0.0143108
907.816	0.0143791
907.894	0.0143666
907.972	0.0144044
908.050	0.0143981
908.128	0.0143639
908.206	0.0146219
908.285	0.0145516
908.363	0.0145007
908.441	0.0146609
908.519	0.0146938
908.597	0.0146915
908.675	0.0147941
908.753	0.0148009
908.831	0.0147485
908.910	0.0145889
908.988	0.0145029
909.066	0.0143461
909.144	0.0142250
909.222	0.0141540
909.300	0.0141932
909.378	0.0139711
909.456	0.0140336
909.535	0.0139077
909.613	0.0139325
909.691	0.0138766
909.769	0.0138715
909.847	0.0139528
909.925	0.0139752
910.003	0.0139323
910.081	0.0137980
910.160	0.0138674
910.238	0.0138614
910.316	0.0138191
910.394	0.0138017
910.472	0.0137105
910.550	0.0137337
910.628	0.0139327
910.706	0.0137126
910.785	0.0138477
910.863	0.0140675
910.941	0.0140015
911.019	0.0141370
911.097	0.0141580
911.175	0.0143513
911.253	0.0142983
911.331	0.0142176
911.410	0.0144988
911.488	0.0144848
911.566	0.0146019
911.644	0.0144597
911.722	0.0142917
911.800	0.0143115
911.878	0.0143923
911.956	0.0141153
912.035	0.0140551
912.113	0.0141425
912.191	0.0139670
912.269	0.0140185
912.347	0.0138383
912.425	0.0137452
912.503	0.0137881
912.581	0.0135969
912.660	0.0138727
912.738	0.0138564
912.816	0.0140075
912.894	0.0139626
912.972	0.0140061
913.050	0.0140118
913.128	0.0141264
913.206	0.0142731
913.285	0.0142865
913.363	0.0142764
913.441	0.0142538
913.519	0.0143003
913.597	0.0143449
913.675	0.0143555
913.753	0.0142612
913.831	0.0141885
913.910	0.0142834
913.988	0.0141685
914.066	0.0141786
914.144	0.0142797
914.222	0.0143887
914.300	0.0145622
914.378	0.0145843
914.456	0.0145787
914.535	0.0146434
914.613	0.0148011
914.691	0.0146865
914.769	0.0148137
914.847	0.0147219
914.925	0.0147122
915.003	0.0145068
915.081	0.0144958
915.160	0.0144031
915.238	0.0141065
915.316	0.0140177
915.394	0.0138774
915.472	0.0138670
915.550	0.0138667
915.628	0.0137044
915.706	0.0137853
915.785	0.0136954
915.863	0.0136259
915.941	0.0137276
916.019	0.0136836
916.097	0.0137756
916.175	0.0139126
916.253	0.0141059
916.331	0.0139359
916.410	0.0140192
916.488	0.0140490
916.566	0.0141824
916.644	0.0140486
916.722	0.0139814
916.800	0.0140639
916.878	0.0141473
916.956	0.0141962
917.035	0.0140381
917.113	0.0142188
917.191	0.0143000
917.269	0.0142604
917.347	0.0145530
917.425	0.0147005
917.503	0.0147202
917.581	0.0146125
917.660	0.0147110
917.738	0.0147697
917.816	0.0147562
917.894	0.0146424
917.972	0.0145879
918.050	0.0144737
918.128	0.0142738
918.206	0.0143237
918.285	0.0141466
918.363	0.0139381
918.441	0.0138900
918.519	0.0137511
918.597	0.0136992
918.675	0.0135721
918.753	0.0136691
918.831	0.0136150
918.910	0.0136626
918.988	0.0135309
919.066	0.0135628
919.144	0.0136920
919.222	0.0135918
919.300	0.0137010
919.378	0.0138386
919.456	0.0139362
919.535	0.0139754
919.613	0.0141525
919.691	0.0139619
919.769	0.0141791
919.847	0.0143451
919.925	0.0142765
920.003	0.0142167
920.081	0.0142119
920.160	0.0142532
920.238	0.0143251
920.316	0.0142001
920.394	0.0141637
920.472	0.0140767
920.550	0.0139957
920.628	0.0139098
920.706	0.0139088
920.785	0.0140457
920.863	0.0141496
920.941	0.0140641
921.019	0.0142517
921.097	0.0143220
921.175	0.0142636
921.253	0.0143711
921.331	0.0145258
921.410	0.0145744
921.488	0.0145508
921.566	0.0147437
921.644	0.0145298
921.722	0.0145766
921.800	0.0144299
921.878	0.0145110
921.956	0.0143922
922.035	0.0142427
922.113	0.0140765
922.191	0.0140092
922.269	0.0140975
922.347	0.0140356
922.425	0.0140258
922.503	0.0141222
922.581	0.0140688
922.660	0.0141628
922.738	0.0142667
922.816	0.0142326
922.894	0.0144560
922.972	0.0145247
923.050	0.0144968
923.128	0.0144347
923.206	0.0145552
923.285	0.0144762
923.363	0.0144815
923.441	0.0144281
923.519	0.0143406
923.597	0.0143246
923.675	0.0143334
923.753	0.0143399
923.831	0.0143060
923.910	0.0141737
923.988	0.0140882
924.066	0.0141151
924.144	0.0140652
924.222	0.0140146
924.300	0.0139828
924.378	0.0138454
924.456	0.0139037
924.535	0.0138046
924.613	0.0137872
924.691	0.0137093
924.769	0.0138882
924.847	0.0139348
924.925	0.0140004
925.003	0.0140086
925.081	0.0139632
925.160	0.0140102
925.238	0.0141173
925.316	0.0141689
925.394	0.0141822
925.472	0.0140677
925.550	0.0140753
925.628	0.0141273
925.706	0.0141465
925.785	0.0141396
925.863	0.0140894
925.941	0.0141236
926.019	0.0142886
926.097	0.0141416
926.175	0.0141466
926.253	0.0143514
926.331	0.0143162
926.410	0.0144611
926.488	0.0143756
926.566	0.0143587
926.644	0.0144866
926.722	0.0146155
926.800	0.0143463
926.878	0.0143617
926.956	0.0142834
927.035	0.0143094
927.113	0.0144738
927.191	0.0141702
927.269	0.0140622
927.347	0.0142245
927.425	0.0142654
927.503	0.0142056
927.581	0.0142136
927.660	0.0142966
927.738	0.0142275
927.816	0.0143265
927.894	0.0141798
927.972	0.0141678
928.050	0.0143099
928.128	0.0141790
928.206	0.0140908
928.285	0.0141558
928.363	0.0140137
928.441	0.0140437
928.519	0.0139404
928.597	0.0139694
928.675	0.0139464
928.753	0.0139116
928.831	0.0140456
928.910	0.0140583
928.988	0.0141492
929.066	0.0143176
929.144	0.0143917
929.222	0.0145003
929.300	0.0146078
929.378	0.0145477
929.456	0.0145699
929.535	0.0147684
929.613	0.0147699
929.691	0.0147849
929.769	0.0148956
929.847	0.0148771
929.925	0.0147646
930.003	0.0145167
930.081	0.0144195
930.160	0.0144377
930.238	0.0144438
930.316	0.0142831
930.394	0.0142718
930.472	0.0141635
930.550	0.0141154
930.628	0.0140917
930.706	0.0140398
930.785	0.0139653
930.863	0.0138745
930.941	0.0138071
931.019	0.0137980
931.097	0.0138719
931.175	0.0139389
931.253	0.0138167
931.331	0.0138435
931.410	0.0138729
931.488	0.0140507
931.566	0.0139176
931.644	0.0140997
931.722	0.0139797
931.800	0.0141451
931.878	0.0142986
931.956	0.0142753
932.035	0.0143377
932.113	0.0143622
932.191	0.0142645
932.269	0.0142196
932.347	0.0142315
932.425	0.0140722
932.503	0.0141011
932.581	0.0139793
932.660	0.0140759
932.738	0.0139779
932.816	0.0140267
932.894	0.0140257
932.972	0.0141204
933.050	0.0141861
933.128	0.0140986
933.206	0.0141277
933.285	0.0141780
933.363	0.0142503
933.441	0.0141741
933.519	0.0143179
933.597	0.0141486
933.675	0.0143158
933.753	0.0143736
933.831	0.0143903
933.910	0.0143244
933.988	0.0144085
934.066	0.0144315
934.144	0.0142776
934.222	0.0143668
934.300	0.0141412
934.378	0.0143378
934.456	0.0143357
934.535	0.0142094
934.613	0.0143505
934.691	0.0143600
934.769	0.0143539
934.847	0.0142216
934.925	0.0143100
935.003	0.0143231
935.081	0.0141283
935.160	0.0142331
935.238	0.0142943
935.316	0.0142823
935.394	0.0138775
935.472	0.0139617
935.550	0.0141207
935.628	0.0140755
935.706	0.0138891
935.785	0.0139214
935.863	0.0137780
935.941	0.0139513
936.019	0.0139822
936.097	0.0138777
936.175	0.0140041
936.253	0.0139085
936.331	0.0138738
936.410	0.0138053
936.488	0.0139404
936.566	0.0139606
936.644	0.0139118
936.722	0.0139501
936.800	0.0138624
936.878	0.0139902
936.956	0.0140668
937.035	0.0139159
937.113	0.0140756
937.191	0.0140481
937.269	0.0142252
937.347	0.0142091
937.425	0.0142538
937.503	0.0144810
937.581	0.0143745
937.660	0.0143250
937.738	0.0144586
937.816	0.0145763
937.894	0.0145045
937.972	0.0147023
938.050	0.0145842
938.128	0.0144495
938.206	0.0145125
938.285	0.0143538
938.363	0.0142435
938.441	0.0141852
938.519	0.0142744
938.597	0.0140306
938.675	0.0139691
938.753	0.0140350
938.831	0.0139021
938.910	0.0138278
938.988	0.0137536
939.066	0.0136851
939.144	0.0139943
939.222	0.0138315
939.300	0.0138400
939.378	0.0138966
939.456	0.0139783
939.535	0.0139849
939.613	0.0139922
939.691	0.0140448
939.769	0.0141347
939.847	0.0140810
939.925	0.0140560
940.003	0.0141849
940.081	0.0141402
940.160	0.0140859
940.238	0.0141300
940.316	0.0142296
940.394	0.0141266
940.472	0.0140336
940.550	0.0140703
940.628	0.0139092
940.706	0.0137994
940.785	0.0140322
940.863	0.0138271
940.941	0.0139141
941.019	0.0140670
941.097	0.0140621
941.175	0.0138744
941.253	0.0139355
941.331	0.0142529
941.410	0.0142615
941.488	0.0142159
941.566	0.0143461
941.644	0.0143359
941.722	0.0143204
941.800	0.0141810
941.878	0.0142154
941.956	0.0141891
942.035	0.0141206
942.113	0.0140758
942.191	0.0140201
942.269	0.0140739
942.347	0.0139975
942.425	0.0140545
942.503	0.0141230
942.581	0.0142618
942.660	0.0143557
942.738	0.0143105
942.816	0.0143078
942.894	0.0144439
942.972	0.0144170
943.050	0.0145367
943.128	0.0143867
943.206	0.0146230
943.285	0.0144855
943.363	0.0144992
943.441	0.0144930
943.519	0.0144310
943.597	0.0144852
943.675	0.0145364
943.753	0.0145827
943.831	0.0143215
943.910	0.0145936
943.988	0.0143443
944.066	0.0142620
944.144	0.0144465
944.222	0.0144007
944.300	0.0143176
944.378	0.0143847
944.456	0.0142657
944.535	0.0143377
944.613	0.0143117
944.691	0.0141942
944.769	0.0143250
944.847	0.0141426
944.925	0.0141618
945.003	0.0140874
945.081	0.0141877
945.160	0.0142572
945.238	0.0142458
945.316	0.0142963
945.394	0.0142068
945.472	0.0142002
945.550	0.0142683
945.628	0.0143472
945.706	0.0140596
945.785	0.0142060
945.863	0.0140436
945.941	0.0139671
946.019	0.0139266
946.097	0.0137731
946.175	0.0138509
946.253	0.0136711
946.331	0.0137015
946.410	0.0137381
946.488	0.0138734
946.566	0.0138417
946.644	0.0138676
946.722	0.0141148
946.800	0.0140280
946.878	0.0143054
946.956	0.0143995
947.035	0.0144831
947.113	0.0144269
947.191	0.0145617
947.269	0.0144646
947.347	0.0146826
947.425	0.0147413
947.503	0.0143305
947.581	0.0144464
947.660	0.0143832
947.738	0.0141882
947.816	0.0141848
947.894	0.0140855
947.972	0.0138572
948.050	0.0138412
948.128	0.0136798
948.206	0.0135448
948.285	0.0137087
948.363	0.0136008
948.441	0.0135629
948.519	0.0137272
948.597	0.0138500
948.675	0.0138759
948.753	0.0140974
948.831	0.0140659
948.910	0.0143131
948.988	0.0143651
949.066	0.0143053
949.144	0.0144041
949.222	0.0144891
949.300	0.0145433
949.378	0.0145013
949.456	0.0142995
949.535	0.0143534
949.613	0.0144131
949.691	0.0141711
949.769	0.0140508
949.847	0.0139080
949.925	0.0140041
950.003	0.0137564
950.081	0.0137662
950.160	0.0138433
950.238	0.0139174
950.316	0.0137030
950.394	0.0136736
950.472	0.0137825
950.550	0.0138978
950.628	0.0139390
950.706	0.0138177
950.785	0.0138206
950.863	0.0140536
950.941	0.0141628
951.019	0.0139941
951.097	0.0139299
951.175	0.0140565
951.253	0.0142149
951.331	0.0142780
951.410	0.0142406
951.488	0.0143284
951.566	0.0142226
951.644	0.0143130
951.722	0.0143292
951.800	0.0144091
951.878	0.0142041
951.956	0.0142522
952.035	0.0142251
952.113	0.0141997
952.191	0.0140742
952.269	0.0138744
952.347	0.0139715
952.425	0.0138129
952.503	0.0138338
952.581	0.0139137
952.660	0.0137633
952.738	0.0136896
952.816	0.0138940
952.894	0.0140123
952.972	0.0139055
953.050	0.0139781
953.128	0.0141660
953.206	0.0141326
953.285	0.0142648
953.363	0.0144974
953.441	0.0144763
953.519	0.0144167
953.597	0.0142982
953.675	0.0144299
953.753	0.0144865
953.831	0.0143431
953.910	0.0143350
953.988	0.0141825
954.066	0.0141467
954.144	0.0140887
954.222	0.0141582
954.300	0.0139410
954.378	0.0140273
954.456	0.0139355
954.535	0.0140355
954.613	0.0140211
954.691	0.0140598
954.769	0.0141306
954.847	0.0140875
954.925	0.0142928
955.003	0.0144292
955.081	0.0143811
955.160	0.0144956
955.238	0.0144306
955.316	0.0144973
955.394	0.0146305
955.472	0.0145212
955.550	0.0145013
955.628	0.0145020
955.706	0.0144007
955.785	0.0144061
955.863	0.0143147
955.941	0.0143033
956.019	0.0143100
956.097	0.0142779
956.175	0.0142281
956.253	0.0143325
956.331	0.0144328
956.410	0.0143039
956.488	0.0143447
956.566	0.0143096
956.644	0.0144018
956.722	0.0143118
956.800	0.0144511
956.878	0.0142598
956.956	0.0141650
957.035	0.0142812
957.113	0.0142207
957.191	0.0142696
957.269	0.0140724
957.347	0.0139093
957.425	0.0138631
957.503	0.0139427
957.581	0.0137820
957.660	0.0136643
957.738	0.0136968
957.816	0.0136639
957.894	0.0136657
957.972	0.0136752
958.050	0.0137362
958.128	0.0139000
958.206	0.0138979
958.285	0.0140350
958.363	0.0140099
958.441	0.0141474
958.519	0.0141238
958.597	0.0140647
958.675	0.0142119
958.753	0.0144237
958.831	0.0143051
958.910	0.0141294
958.988	0.0142592
959.066	0.0143252
959.144	0.0143523
959.222	0.0141957
959.300	0.0142026
959.378	0.0141302
959.456	0.0141685
959.535	0.0141005
959.613	0.0142413
959.691	0.0142415
959.769	0.0142507
959.847	0.0141773
959.925	0.0142290
960.003	0.0143240
960.081	0.0142178
960.160	0.0142114
960.238	0.0142467
960.316	0.0144920
960.394	0.0142896
960.472	0.0142262
960.550	0.0144257
960.628	0.0145168
960.706	0.0144517
960.785	0.0143917
960.863	0.0143821
960.941	0.0144636
961.019	0.0143747
961.097	0.0143790
961.175	0.0144138
961.253	0.0143362
961.331	0.0143733
961.410	0.0142963
961.488	0.0142465
961.566	0.0140762
961.644	0.0141935
961.722	0.0138259
961.800	0.0138537
961.878	0.0139548
961.956	0.0138410
962.035	0.0139160
962.113	0.0138581
962.191	0.0138216
962.269	0.0140145
962.347	0.0140952
962.425	0.0138731
962.503	0.0141609
962.581	0.0139838
962.660	0.0138734
962.738	0.0140704
962.816	0.0138310
962.894	0.0139166
962.972	0.0139461
963.050	0.0138290
963.128	0.0138097
963.206	0.0138740
963.285	0.0138277
963.363	0.0137658
963.441	0.0138285
963.519	0.0137463
963.597	0.0138088
963.675	0.0138110
963.753	0.0138352
963.831	0.0139574
963.910	0.0139886
963.988	0.0140630
964.066	0.0140708
964.144	0.0141494
964.222	0.0142315
964.300	0.0140993
964.378	0.0140870
964.456	0.0141256
964.535	0.0142561
964.613	0.0143411
964.691	0.0143569
964.769	0.0143370
964.847	0.0143090
964.925	0.0144429
965.003	0.0144506
965.081	0.0143393
965.160	0.0144292
965.238	0.0145760
965.316	0.0144800
965.394	0.0144705
965.472	0.0143987
965.550	0.0144925
965.628	0.0146677
965.706	0.0145144
965.785	0.0145402
965.863	0.0145088
965.941	0.0144377
966.019	0.0144057
966.097	0.0143562
966.175	0.0144849
966.253	0.0142758
966.331	0.0141817
966.410	0.0141637
966.488	0.0141428
966.566	0.0141808
966.644	0.0141183
966.722	0.0138873
966.800	0.0137491
966.878	0.0137650
966.956	0.0136867
967.035	0.0136906
967.113	0.0135774
967.191	0.0135246
967.269	0.0135789
967.347	0.0135248
967.425	0.0134072
967.503	0.0137222
967.581	0.0136877
967.660	0.0137716
967.738	0.0138260
967.816	0.0138866
967.894	0.0140241
967.972	0.0140823
968.050	0.0141535
968.128	0.0141549
968.206	0.0141505
968.285	0.0143839
968.363	0.0142735
968.441	0.0143785
968.519	0.0144420
968.597	0.0143900
968.675	0.0143793
968.753	0.0144276
968.831	0.0142410
968.910	0.0141874
968.988	0.0141391
969.066	0.0141721
969.144	0.0141174
969.222	0.0141991
969.300	0.0140366
969.378	0.0139580
969.456	0.0139787
969.535	0.0140710
969.613	0.0140593
969.691	0.0141527
969.769	0.0141528
969.847	0.0142929
969.925	0.0143198
970.003	0.0144661
970.081	0.0144865
970.160	0.0144802
970.238	0.0145174
970.316	0.0144257
970.394	0.0144667
970.472	0.0144595
970.550	0.0145092
970.628	0.0144393
970.706	0.0142759
970.785	0.0142430
970.863	0.0141320
970.941	0.0141058
971.019	0.0139758
971.097	0.0140029
971.175	0.0137762
971.253	0.0138599
971.331	0.0138346
971.410	0.0137612
971.488	0.0137354
971.566	0.0139624
971.644	0.0137708
971.722	0.0137296
971.800	0.0138164
971.878	0.0136909
971.956	0.0140043
972.035	0.0140143
972.113	0.0139524
972.191	0.0139722
972.269	0.0139076
972.347	0.0138882
972.425	0.0138815
972.503	0.0138972
972.581	0.0138485
972.660	0.0137424
972.738	0.0138971
972.816	0.0138724
972.894	0.0139195
972.972	0.0137899
973.050	0.0138572
973.128	0.0139716
973.206	0.0139428
973.285	0.0139931
973.363	0.0138933
973.441	0.0140032
973.519	0.0139294
973.597	0.0140282
973.675	0.0139727
973.753	0.0139418
973.831	0.0140554
973.910	0.0142743
973.988	0.0141129
974.066	0.0144028
974.144	0.0143839
974.222	0.0142991
974.300	0.0144994
974.378	0.0145016
974.456	0.0144761
974.535	0.0144587
974.613	0.0145782
974.691	0.0145247
974.769	0.0145862
974.847	0.0145642
974.925	0.0144933
975.003	0.0146117
975.081	0.0145731
975.160	0.0145515
975.238	0.0144700
975.316	0.0144444
975.394	0.0145411
975.472	0.0143450
975.550	0.0144550
975.628	0.0144572
975.706	0.0143308
975.785	0.0143423
975.863	0.0142643
975.941	0.0143340
976.019	0.0142830
976.097	0.0144514
976.175	0.0142399
976.253	0.0141517
976.331	0.0142294
976.410	0.0142125
976.488	0.0141730
976.566	0.0142754
976.644	0.0142139
976.722	0.0142265
976.800	0.0143237
976.878	0.0143015
976.956	0.0142390
977.035	0.0142507
977.113	0.0143045
977.191	0.0143951
977.269	0.0143082
977.347	0.0141714
977.425	0.0141682
977.503	0.0140593
977.581	0.0139675
977.660	0.0140333
977.738	0.0139376
977.816	0.0138193
977.894	0.0138695
977.972	0.0139037
978.050	0.0139378
978.128	0.0137731
978.206	0.0139273
978.285	0.0139839
978.363	0.0139006
978.441	0.0140861
978.519	0.0140037
978.597	0.0140554
978.675	0.0140836
978.753	0.0141776
978.831	0.0139772
978.910	0.0139820
978.988	0.0140147
979.066	0.0139907
979.144	0.0141779
979.222	0.0141579
979.300	0.0141084
979.378	0.0142032
979.456	0.0142003
979.535	0.0141621
979.613	0.0142858
979.691	0.0142493
979.769	0.0143359
979.847	0.0144523
979.925	0.0143470
