05/03/2022	20:14:01	Ver.	4.1	UNKNOWN
Optical Delay	660.003261	Delta X		0.078125	Sweeps	1	Scan Rate	0/0
Coordinates	Axis 1	NaN	Axis 2	NaN	Axis 3	NaN	Axis 4	NaN	Axis 5	NaN	Axis 6	0.000000
TX Power	0.000000	RX Power	0.000000

660.003	0.0146525
660.081	0.0146629
660.160	0.0147147
660.238	0.0147734
660.316	0.0147479
660.394	0.0145644
660.472	0.0145782
660.550	0.0146342
660.628	0.0146303
660.706	0.0145216
660.785	0.0146314
660.863	0.0146522
660.941	0.0146685
661.019	0.0147031
661.097	0.0146176
661.175	0.0146792
661.253	0.0147144
661.331	0.0146489
661.410	0.0144909
661.488	0.0147972
661.566	0.0148091
661.644	0.0146966
661.722	0.0147115
661.800	0.0146245
661.878	0.0147007
661.956	0.0147210
662.035	0.0147153
662.113	0.0145775
662.191	0.0146555
662.269	0.0146844
662.347	0.0148017
662.425	0.0147469
662.503	0.0147691
662.581	0.0147374
662.660	0.0146217
662.738	0.0147613
662.816	0.0146678
662.894	0.0147410
662.972	0.0147659
663.050	0.0146629
663.128	0.0144514
663.206	0.0146358
663.285	0.0146233
663.363	0.0146411
663.441	0.0146564
663.519	0.0146181
663.597	0.0145569
663.675	0.0147165
663.753	0.0146928
663.831	0.0146185
663.910	0.0146617
663.988	0.0147034
664.066	0.0145898
664.144	0.0144811
664.222	0.0146545
664.300	0.0147303
664.378	0.0146787
664.456	0.0146436
664.535	0.0146983
664.613	0.0146495
664.691	0.0146397
664.769	0.0146150
664.847	0.0147348
664.925	0.0146965
665.003	0.0146976
665.081	0.0146954
665.160	0.0145480
665.238	0.0145680
665.316	0.0146762
665.394	0.0145962
665.472	0.0146017
665.550	0.0146512
665.628	0.0146068
665.706	0.0145882
665.785	0.0145605
665.863	0.0145330
665.941	0.0146267
666.019	0.0147508
666.097	0.0146655
666.175	0.0146407
666.253	0.0147265
666.331	0.0146323
666.410	0.0147432
666.488	0.0147393
666.566	0.0146239
666.644	0.0146507
666.722	0.0145018
666.800	0.0147157
666.878	0.0147259
666.956	0.0146972
667.035	0.0145875
667.113	0.0147611
667.191	0.0146886
667.269	0.0147295
667.347	0.0146820
667.425	0.0147195
667.503	0.0146583
667.581	0.0145783
667.660	0.0146268
667.738	0.0146930
667.816	0.0145632
667.894	0.0146898
667.972	0.0145480
668.050	0.0146711
668.128	0.0146532
668.206	0.0145631
668.285	0.0146585
668.363	0.0145879
668.441	0.0148274
668.519	0.0146534
668.597	0.0146394
668.675	0.0145865
668.753	0.0147581
668.831	0.0148114
668.910	0.0145324
668.988	0.0144902
669.066	0.0147837
669.144	0.0147024
669.222	0.0146153
669.300	0.0145798
669.378	0.0146816
669.456	0.0145603
669.535	0.0147270
669.613	0.0147711
669.691	0.0145470
669.769	0.0146931
669.847	0.0146846
669.925	0.0146074
670.003	0.0146618
670.081	0.0146609
670.160	0.0146002
670.238	0.0145686
670.316	0.0145631
670.394	0.0145966
670.472	0.0148281
670.550	0.0146489
670.628	0.0146710
670.706	0.0147568
670.785	0.0146935
670.863	0.0146220
670.941	0.0146038
671.019	0.0147151
671.097	0.0146725
671.175	0.0145980
671.253	0.0146088
671.331	0.0146666
671.410	0.0146371
671.488	0.0146341
671.566	0.0146764
671.644	0.0145776
671.722	0.0147447
671.800	0.0146340
671.878	0.0146840
671.956	0.0147345
672.035	0.0146336
672.113	0.0145173
672.191	0.0146079
672.269	0.0146069
672.347	0.0147189
672.425	0.0148244
672.503	0.0146767
672.581	0.0146876
672.660	0.0146989
672.738	0.0146777
672.816	0.0146542
672.894	0.0146084
672.972	0.0146774
673.050	0.0148144
673.128	0.0146121
673.206	0.0147083
673.285	0.0146738
673.363	0.0146821
673.441	0.0146210
673.519	0.0147189
673.597	0.0146135
673.675	0.0146385
673.753	0.0146109
673.831	0.0145585
673.910	0.0147047
673.988	0.0146821
674.066	0.0146187
674.144	0.0147156
674.222	0.0145813
674.300	0.0145680
674.378	0.0145806
674.456	0.0147017
674.535	0.0147253
674.613	0.0147061
674.691	0.0146136
674.769	0.0146092
674.847	0.0146654
674.925	0.0147556
675.003	0.0147176
675.081	0.0146378
675.160	0.0145882
675.238	0.0147460
675.316	0.0147497
675.394	0.0147430
675.472	0.0146925
675.550	0.0147040
675.628	0.0148039
675.706	0.0146564
675.785	0.0146740
675.863	0.0145860
675.941	0.0146926
676.019	0.0147594
676.097	0.0146361
676.175	0.0146497
676.253	0.0146499
676.331	0.0147040
676.410	0.0145757
676.488	0.0145864
676.566	0.0147209
676.644	0.0148156
676.722	0.0145554
676.800	0.0146398
676.878	0.0147202
676.956	0.0146044
677.035	0.0146887
677.113	0.0148407
677.191	0.0148489
677.269	0.0146556
677.347	0.0146286
677.425	0.0146572
677.503	0.0145509
677.581	0.0147562
677.660	0.0148186
677.738	0.0147437
677.816	0.0147209
677.894	0.0146800
677.972	0.0146207
678.050	0.0145318
678.128	0.0147677
678.206	0.0146009
678.285	0.0146786
678.363	0.0146172
678.441	0.0146075
678.519	0.0145732
678.597	0.0147060
678.675	0.0147464
678.753	0.0145892
678.831	0.0147117
678.910	0.0146673
678.988	0.0147389
679.066	0.0146853
679.144	0.0146583
679.222	0.0146683
679.300	0.0146024
679.378	0.0145776
679.456	0.0146494
679.535	0.0147079
679.613	0.0145110
679.691	0.0146273
679.769	0.0146018
679.847	0.0147016
679.925	0.0146607
680.003	0.0146697
680.081	0.0146362
680.160	0.0145160
680.238	0.0146803
680.316	0.0146576
680.394	0.0147451
680.472	0.0146549
680.550	0.0146336
680.628	0.0146779
680.706	0.0146912
680.785	0.0147027
680.863	0.0146800
680.941	0.0148421
681.019	0.0145947
681.097	0.0145698
681.175	0.0146556
681.253	0.0146088
681.331	0.0146578
681.410	0.0145650
681.488	0.0145212
681.566	0.0147333
681.644	0.0146745
681.722	0.0146616
681.800	0.0146764
681.878	0.0147463
681.956	0.0146845
682.035	0.0146957
682.113	0.0145731
682.191	0.0146494
682.269	0.0147097
682.347	0.0146962
682.425	0.0146822
682.503	0.0146425
682.581	0.0148058
682.660	0.0146252
682.738	0.0146806
682.816	0.0146292
682.894	0.0145705
682.972	0.0145202
683.050	0.0146745
683.128	0.0147567
683.206	0.0146906
683.285	0.0146420
683.363	0.0146190
683.441	0.0147246
683.519	0.0147658
683.597	0.0146603
683.675	0.0146511
683.753	0.0146928
683.831	0.0146202
683.910	0.0147524
683.988	0.0148382
684.066	0.0147095
684.144	0.0146325
684.222	0.0147874
684.300	0.0146545
684.378	0.0146461
684.456	0.0146748
684.535	0.0147059
684.613	0.0146505
684.691	0.0145092
684.769	0.0146976
684.847	0.0145646
684.925	0.0147500
685.003	0.0147550
685.081	0.0146827
685.160	0.0147422
685.238	0.0145663
685.316	0.0145732
685.394	0.0145888
685.472	0.0146465
685.550	0.0147104
685.628	0.0146390
685.706	0.0146915
685.785	0.0147233
685.863	0.0146249
685.941	0.0146042
686.019	0.0146200
686.097	0.0147063
686.175	0.0146775
686.253	0.0146055
686.331	0.0145504
686.410	0.0147192
686.488	0.0147301
686.566	0.0144385
686.644	0.0146364
686.722	0.0146758
686.800	0.0147266
686.878	0.0146614
686.956	0.0146305
687.035	0.0145976
687.113	0.0146476
687.191	0.0146144
687.269	0.0145840
687.347	0.0146428
687.425	0.0147090
687.503	0.0144514
687.581	0.0145415
687.660	0.0147299
687.738	0.0145766
687.816	0.0145113
687.894	0.0146935
687.972	0.0146660
688.050	0.0146410
688.128	0.0145324
688.206	0.0145248
688.285	0.0146854
688.363	0.0147106
688.441	0.0145145
688.519	0.0146138
688.597	0.0147565
688.675	0.0147612
688.753	0.0146227
688.831	0.0146150
688.910	0.0145824
688.988	0.0146344
689.066	0.0145222
689.144	0.0146925
689.222	0.0146709
689.300	0.0146698
689.378	0.0147326
689.456	0.0145490
689.535	0.0146529
689.613	0.0145293
689.691	0.0147393
689.769	0.0148403
689.847	0.0146284
689.925	0.0147198
690.003	0.0146664
690.081	0.0145507
690.160	0.0146794
690.238	0.0146414
690.316	0.0146564
690.394	0.0147229
690.472	0.0146906
690.550	0.0146391
690.628	0.0145750
690.706	0.0144553
690.785	0.0145840
690.863	0.0146695
690.941	0.0147042
691.019	0.0145798
691.097	0.0145624
691.175	0.0147025
691.253	0.0146909
691.331	0.0146993
691.410	0.0147105
691.488	0.0146538
691.566	0.0145405
691.644	0.0144857
691.722	0.0147001
691.800	0.0145548
691.878	0.0146273
691.956	0.0147642
692.035	0.0146825
692.113	0.0145934
692.191	0.0146529
692.269	0.0147066
692.347	0.0146164
692.425	0.0146381
692.503	0.0146793
692.581	0.0146015
692.660	0.0146660
692.738	0.0146516
692.816	0.0146629
692.894	0.0145448
692.972	0.0145324
693.050	0.0146297
693.128	0.0148727
693.206	0.0146677
693.285	0.0145347
693.363	0.0144785
693.441	0.0145745
693.519	0.0145482
693.597	0.0145233
693.675	0.0146516
693.753	0.0146753
693.831	0.0146233
693.910	0.0146293
693.988	0.0146114
694.066	0.0147028
694.144	0.0146003
694.222	0.0146455
694.300	0.0145263
694.378	0.0146734
694.456	0.0146970
694.535	0.0146373
694.613	0.0147704
694.691	0.0145937
694.769	0.0146219
694.847	0.0147696
694.925	0.0146242
695.003	0.0146372
695.081	0.0146943
695.160	0.0146083
695.238	0.0145755
695.316	0.0146066
695.394	0.0146347
695.472	0.0144928
695.550	0.0145936
695.628	0.0145300
695.706	0.0145518
695.785	0.0146246
695.863	0.0145770
695.941	0.0146704
696.019	0.0146542
696.097	0.0146198
696.175	0.0146696
696.253	0.0147335
696.331	0.0146420
696.410	0.0146296
696.488	0.0147089
696.566	0.0145541
696.644	0.0146336
696.722	0.0146012
696.800	0.0146531
696.878	0.0145244
696.956	0.0147796
697.035	0.0145820
697.113	0.0145256
697.191	0.0146658
697.269	0.0147496
697.347	0.0146923
697.425	0.0145680
697.503	0.0147578
697.581	0.0146302
697.660	0.0146986
697.738	0.0146654
697.816	0.0147060
697.894	0.0146835
697.972	0.0147231
698.050	0.0146554
698.128	0.0145960
698.206	0.0146791
698.285	0.0146138
698.363	0.0147086
698.441	0.0147742
698.519	0.0148317
698.597	0.0146539
698.675	0.0145340
698.753	0.0147112
698.831	0.0146548
698.910	0.0146590
698.988	0.0146676
699.066	0.0146419
699.144	0.0147371
699.222	0.0146353
699.300	0.0145537
699.378	0.0147512
699.456	0.0147232
699.535	0.0146384
699.613	0.0147433
699.691	0.0147344
699.769	0.0147349
699.847	0.0147983
699.925	0.0147023
700.003	0.0146958
700.081	0.0146690
700.160	0.0146919
700.238	0.0146456
700.316	0.0145378
700.394	0.0146669
700.472	0.0145963
700.550	0.0145911
700.628	0.0146220
700.706	0.0145240
700.785	0.0146961
700.863	0.0146046
700.941	0.0144915
701.019	0.0147343
701.097	0.0146371
701.175	0.0146447
701.253	0.0147491
701.331	0.0147445
701.410	0.0146968
701.488	0.0147221
701.566	0.0147919
701.644	0.0148118
701.722	0.0148055
701.800	0.0148872
701.878	0.0148953
701.956	0.0147762
702.035	0.0147219
702.113	0.0148275
702.191	0.0149428
702.269	0.0148416
702.347	0.0147539
702.425	0.0149171
702.503	0.0148065
702.581	0.0148479
702.660	0.0147895
702.738	0.0148383
702.816	0.0148254
702.894	0.0149382
702.972	0.0147737
703.050	0.0147844
703.128	0.0148524
703.206	0.0148376
703.285	0.0147105
703.363	0.0146378
703.441	0.0146185
703.519	0.0145683
703.597	0.0144329
703.675	0.0143441
703.753	0.0142503
703.831	0.0138623
703.910	0.0136186
703.988	0.0136407
704.066	0.0136862
704.144	0.0137550
704.222	0.0141734
704.300	0.0144740
704.378	0.0150518
704.456	0.0155690
704.535	0.0162153
704.613	0.0165141
704.691	0.0164681
704.769	0.0159797
704.847	0.0153188
704.925	0.0143958
705.003	0.0132540
705.081	0.0119193
705.160	0.0106924
705.238	0.00995224
705.316	0.00935829
705.394	0.00925522
705.472	0.00938553
705.550	0.0102118
705.628	0.0112092
705.706	0.0130769
705.785	0.0151366
705.863	0.0176547
705.941	0.0203054
706.019	0.0229102
706.097	0.0255454
706.175	0.0274483
706.253	0.0283176
706.331	0.0282691
706.410	0.0271152
706.488	0.0246888
706.566	0.0212758
706.644	0.0172424
706.722	0.0126312
706.800	0.00806290
706.878	0.00347771
706.956	0.0000101471
707.035	-0.00267006
707.113	-0.00397964
707.191	-0.00404266
707.269	-0.00294868
707.347	-0.00102051
707.425	0.00180313
707.503	0.00495689
707.581	0.00848206
707.660	0.0122205
707.738	0.0157645
707.816	0.0193639
707.894	0.0228485
707.972	0.0259788
708.050	0.0286257
708.128	0.0304996
708.206	0.0321550
708.285	0.0329758
708.363	0.0328291
708.441	0.0321128
708.519	0.0306785
708.597	0.0284887
708.675	0.0257135
708.753	0.0223734
708.831	0.0184892
708.910	0.0143315
708.988	0.00991600
709.066	0.00588280
709.144	0.00229095
709.222	-0.000312347
709.300	-0.00223419
709.378	-0.00316338
709.456	-0.00345650
709.535	-0.00281876
709.613	-0.00148384
709.691	0.000288544
709.769	0.00246628
709.847	0.00507065
709.925	0.00801308
710.003	0.0109969
710.081	0.0140459
710.160	0.0169054
710.238	0.0192860
710.316	0.0219189
710.394	0.0239007
710.472	0.0254521
710.550	0.0268638
710.628	0.0277188
710.706	0.0284708
710.785	0.0285675
710.863	0.0281887
710.941	0.0272408
711.019	0.0260693
711.097	0.0245790
711.175	0.0227254
711.253	0.0205988
711.331	0.0181725
711.410	0.0157254
711.488	0.0130631
711.566	0.0104042
711.644	0.00813675
711.722	0.00636803
711.800	0.00489044
711.878	0.00407089
711.956	0.00367332
712.035	0.00372307
712.113	0.00415253
712.191	0.00477089
712.269	0.00574196
712.347	0.00677849
712.425	0.00803627
712.503	0.00925064
712.581	0.0105193
712.660	0.0120366
712.738	0.0134838
712.816	0.0149998
712.894	0.0166929
712.972	0.0183463
713.050	0.0197146
713.128	0.0209839
713.206	0.0222832
713.285	0.0229906
713.363	0.0234780
713.441	0.0235410
713.519	0.0232237
713.597	0.0227524
713.675	0.0220847
713.753	0.0209735
713.831	0.0198235
713.910	0.0185482
713.988	0.0175490
714.066	0.0163991
714.144	0.0150780
714.222	0.0137794
714.300	0.0127634
714.378	0.0118429
714.456	0.0107263
714.535	0.00990746
714.613	0.00927589
714.691	0.00866463
714.769	0.00837494
714.847	0.00814590
714.925	0.00820679
715.003	0.00824364
715.081	0.00859451
715.160	0.00902275
715.238	0.00959778
715.316	0.0101263
715.394	0.0106070
715.472	0.0111163
715.550	0.0119189
715.628	0.0126159
715.706	0.0133876
715.785	0.0142839
715.863	0.0150938
715.941	0.0161145
716.019	0.0170496
716.097	0.0179884
716.175	0.0187871
716.253	0.0194563
716.331	0.0202083
716.410	0.0203941
716.488	0.0207464
716.566	0.0209496
716.644	0.0208572
716.722	0.0207813
716.800	0.0204876
716.878	0.0200523
716.956	0.0194794
717.035	0.0188113
717.113	0.0177438
717.191	0.0165981
717.269	0.0155011
717.347	0.0143389
717.425	0.0130688
717.503	0.0122012
717.581	0.0111415
717.660	0.0106357
717.738	0.0102256
717.816	0.00990265
717.894	0.00979271
717.972	0.00989174
718.050	0.0100250
718.128	0.0104533
718.206	0.0107320
718.285	0.0110320
718.363	0.0112671
718.441	0.0118307
718.519	0.0121140
718.597	0.0125746
718.675	0.0127616
718.753	0.0130354
718.831	0.0133626
718.910	0.0138115
718.988	0.0138602
719.066	0.0143542
719.144	0.0147952
719.222	0.0151391
719.300	0.0155125
719.378	0.0159370
719.456	0.0162012
719.535	0.0165760
719.613	0.0169350
719.691	0.0170535
719.769	0.0173198
719.847	0.0172872
719.925	0.0171381
720.003	0.0169585
720.081	0.0168103
720.160	0.0165207
720.238	0.0164644
720.316	0.0163026
720.394	0.0159196
720.472	0.0157340
720.550	0.0155539
720.628	0.0153402
720.706	0.0150276
720.785	0.0149789
720.863	0.0146909
720.941	0.0145361
721.019	0.0145977
721.097	0.0144922
721.175	0.0145180
721.253	0.0146157
721.331	0.0149474
721.410	0.0150873
721.488	0.0151617
721.566	0.0153654
721.644	0.0151572
721.722	0.0149693
721.800	0.0145903
721.878	0.0143296
721.956	0.0139490
722.035	0.0135350
722.113	0.0130618
722.191	0.0126168
722.269	0.0121871
722.347	0.0118650
722.425	0.0114828
722.503	0.0113934
722.581	0.0114298
722.660	0.0115571
722.738	0.0117160
722.816	0.0121996
722.894	0.0127630
722.972	0.0135700
723.050	0.0143345
723.128	0.0149993
723.206	0.0157715
723.285	0.0164392
723.363	0.0168301
723.441	0.0172655
723.519	0.0173637
723.597	0.0173449
723.675	0.0175826
723.753	0.0175822
723.831	0.0174614
723.910	0.0174339
723.988	0.0171456
724.066	0.0168407
724.144	0.0165807
724.222	0.0160650
724.300	0.0156445
724.378	0.0152825
724.456	0.0149381
724.535	0.0147514
724.613	0.0145569
724.691	0.0144929
724.769	0.0143045
724.847	0.0141926
724.925	0.0143652
725.003	0.0141439
725.081	0.0140203
725.160	0.0140612
725.238	0.0140339
725.316	0.0141883
725.394	0.0140017
725.472	0.0140515
725.550	0.0139262
725.628	0.0137914
725.706	0.0136479
725.785	0.0133497
725.863	0.0132043
725.941	0.0130763
726.019	0.0127600
726.097	0.0127173
726.175	0.0128072
726.253	0.0126491
726.331	0.0128825
726.410	0.0130718
726.488	0.0131375
726.566	0.0133327
726.644	0.0135628
726.722	0.0137865
726.800	0.0141764
726.878	0.0145737
726.956	0.0150096
727.035	0.0151553
727.113	0.0154556
727.191	0.0158698
727.269	0.0162477
727.347	0.0163753
727.425	0.0164344
727.503	0.0166814
727.581	0.0166998
727.660	0.0167049
727.738	0.0166837
727.816	0.0165760
727.894	0.0163330
727.972	0.0164534
728.050	0.0162012
728.128	0.0160207
728.206	0.0159380
728.285	0.0158262
728.363	0.0158504
728.441	0.0155482
728.519	0.0155209
728.597	0.0152874
728.675	0.0150676
728.753	0.0151098
728.831	0.0150375
728.910	0.0149292
728.988	0.0148779
729.066	0.0148341
729.144	0.0146677
729.222	0.0144530
729.300	0.0141982
729.378	0.0139870
729.456	0.0136431
729.535	0.0133118
729.613	0.0131935
729.691	0.0129501
729.769	0.0127946
729.847	0.0126643
729.925	0.0125224
730.003	0.0125214
730.081	0.0123289
730.160	0.0125908
730.238	0.0126782
730.316	0.0128745
730.394	0.0130864
730.472	0.0133284
730.550	0.0137484
730.628	0.0139555
730.706	0.0141531
730.785	0.0144603
730.863	0.0146413
730.941	0.0147296
731.019	0.0147678
731.097	0.0149822
731.175	0.0149764
731.253	0.0150204
731.331	0.0150830
731.410	0.0154504
731.488	0.0154301
731.566	0.0156109
731.644	0.0156247
731.722	0.0157173
731.800	0.0159138
731.878	0.0161002
731.956	0.0160903
732.035	0.0161159
732.113	0.0161461
732.191	0.0161710
732.269	0.0160724
732.347	0.0158967
732.425	0.0159975
732.503	0.0157678
732.581	0.0157893
732.660	0.0155769
732.738	0.0153210
732.816	0.0151507
732.894	0.0150922
732.972	0.0151759
733.050	0.0149589
733.128	0.0149844
733.206	0.0149663
733.285	0.0151225
733.363	0.0150035
733.441	0.0150006
733.519	0.0148286
733.597	0.0146770
733.675	0.0146137
733.753	0.0144688
733.831	0.0143590
733.910	0.0140040
733.988	0.0139805
734.066	0.0138187
734.144	0.0137524
734.222	0.0136359
734.300	0.0136102
734.378	0.0135052
734.456	0.0134270
734.535	0.0135117
734.613	0.0135016
734.691	0.0134778
734.769	0.0135654
734.847	0.0134507
734.925	0.0135487
735.003	0.0133230
735.081	0.0134182
735.160	0.0133289
735.238	0.0134602
735.316	0.0135659
735.394	0.0138974
735.472	0.0140986
735.550	0.0140847
735.628	0.0146325
735.706	0.0149126
735.785	0.0154279
735.863	0.0156938
735.941	0.0161652
736.019	0.0164839
736.097	0.0166863
736.175	0.0168079
736.253	0.0166866
736.331	0.0167514
736.410	0.0164778
736.488	0.0161676
736.566	0.0160521
736.644	0.0155928
736.722	0.0153615
736.800	0.0149041
736.878	0.0147839
736.956	0.0144759
737.035	0.0143178
737.113	0.0142325
737.191	0.0142547
737.269	0.0141376
737.347	0.0142121
737.425	0.0141415
737.503	0.0145191
737.581	0.0146063
737.660	0.0146394
737.738	0.0147126
737.816	0.0149430
737.894	0.0151273
737.972	0.0150772
738.050	0.0151835
738.128	0.0150558
738.206	0.0150479
738.285	0.0147729
738.363	0.0146357
738.441	0.0144909
738.519	0.0141961
738.597	0.0140238
738.675	0.0138705
738.753	0.0136270
738.831	0.0133777
738.910	0.0134344
738.988	0.0134314
739.066	0.0134792
739.144	0.0133900
739.222	0.0136028
739.300	0.0138809
739.378	0.0139768
739.456	0.0142066
739.535	0.0145654
739.613	0.0146867
739.691	0.0148238
739.769	0.0150552
739.847	0.0150910
739.925	0.0152918
740.003	0.0153999
740.081	0.0154182
740.160	0.0153092
740.238	0.0152213
740.316	0.0151366
740.394	0.0149452
740.472	0.0148418
740.550	0.0147412
740.628	0.0148776
740.706	0.0147987
740.785	0.0147554
740.863	0.0148717
740.941	0.0149580
741.019	0.0150546
741.097	0.0150651
741.175	0.0150736
741.253	0.0151623
741.331	0.0151770
741.410	0.0151960
741.488	0.0150989
741.566	0.0151334
741.644	0.0150010
741.722	0.0148259
741.800	0.0147050
741.878	0.0147389
741.956	0.0145004
742.035	0.0145335
742.113	0.0144410
742.191	0.0142770
742.269	0.0143124
742.347	0.0142611
742.425	0.0142231
742.503	0.0143441
742.581	0.0140263
742.660	0.0143097
742.738	0.0143655
742.816	0.0142461
742.894	0.0141518
742.972	0.0143228
743.050	0.0143378
743.128	0.0143925
743.206	0.0145845
743.285	0.0145188
743.363	0.0143680
743.441	0.0144931
743.519	0.0144521
743.597	0.0143761
743.675	0.0143312
743.753	0.0143763
743.831	0.0142332
743.910	0.0144891
743.988	0.0144577
744.066	0.0144208
744.144	0.0143587
744.222	0.0143256
744.300	0.0143171
744.378	0.0143766
744.456	0.0143982
744.535	0.0143242
744.613	0.0143805
744.691	0.0142188
744.769	0.0142108
744.847	0.0141219
744.925	0.0142238
745.003	0.0142976
745.081	0.0142240
745.160	0.0144348
745.238	0.0145471
745.316	0.0145460
745.394	0.0145378
745.472	0.0146873
745.550	0.0147906
745.628	0.0148558
745.706	0.0148853
745.785	0.0149380
745.863	0.0149709
745.941	0.0153232
746.019	0.0154800
746.097	0.0156894
746.175	0.0156610
746.253	0.0158508
746.331	0.0159428
746.410	0.0160907
746.488	0.0160426
746.566	0.0162175
746.644	0.0161453
746.722	0.0160693
746.800	0.0158829
746.878	0.0157706
746.956	0.0157099
747.035	0.0153812
747.113	0.0150517
747.191	0.0148830
747.269	0.0146876
747.347	0.0144090
747.425	0.0141672
747.503	0.0138705
747.581	0.0138425
747.660	0.0137001
747.738	0.0137523
747.816	0.0137350
747.894	0.0137669
747.972	0.0138599
748.050	0.0139366
748.128	0.0139280
748.206	0.0140209
748.285	0.0141348
748.363	0.0142883
748.441	0.0142664
748.519	0.0142238
748.597	0.0142270
748.675	0.0142267
748.753	0.0142384
748.831	0.0141273
748.910	0.0141485
748.988	0.0142261
749.066	0.0141203
749.144	0.0141535
749.222	0.0141071
749.300	0.0141011
749.378	0.0141933
749.456	0.0142955
749.535	0.0142599
749.613	0.0144032
749.691	0.0145602
749.769	0.0147423
749.847	0.0147800
749.925	0.0147796
750.003	0.0148997
750.081	0.0149701
750.160	0.0149981
750.238	0.0149459
750.316	0.0149527
750.394	0.0150983
750.472	0.0149043
750.550	0.0151357
750.628	0.0151099
750.706	0.0153053
750.785	0.0151897
750.863	0.0151527
750.941	0.0151319
751.019	0.0151649
751.097	0.0150894
751.175	0.0152446
751.253	0.0151214
751.331	0.0150580
751.410	0.0150532
751.488	0.0149554
751.566	0.0149170
751.644	0.0149036
751.722	0.0150278
751.800	0.0149392
751.878	0.0148447
751.956	0.0146799
752.035	0.0149143
752.113	0.0147398
752.191	0.0148245
752.269	0.0147527
752.347	0.0148844
752.425	0.0145956
752.503	0.0146693
752.581	0.0145184
752.660	0.0145313
752.738	0.0143379
752.816	0.0142429
752.894	0.0141870
752.972	0.0141901
753.050	0.0141413
753.128	0.0140425
753.206	0.0142413
753.285	0.0140688
753.363	0.0143418
753.441	0.0144009
753.519	0.0144478
753.597	0.0143823
753.675	0.0144737
753.753	0.0144368
753.831	0.0144221
753.910	0.0145081
753.988	0.0145370
754.066	0.0147016
754.144	0.0146906
754.222	0.0146020
754.300	0.0148438
754.378	0.0148743
754.456	0.0147802
754.535	0.0148107
754.613	0.0149138
754.691	0.0149111
754.769	0.0149185
754.847	0.0149578
754.925	0.0148285
755.003	0.0150375
755.081	0.0147559
755.160	0.0147707
755.238	0.0149374
755.316	0.0149216
755.394	0.0149696
755.472	0.0149028
755.550	0.0149496
755.628	0.0149050
755.706	0.0148970
755.785	0.0148119
755.863	0.0149224
755.941	0.0147765
756.019	0.0148064
756.097	0.0147102
756.175	0.0147131
756.253	0.0145921
756.331	0.0145155
756.410	0.0146086
756.488	0.0144479
756.566	0.0143311
756.644	0.0143696
756.722	0.0144659
756.800	0.0144295
756.878	0.0145208
756.956	0.0145547
757.035	0.0146636
757.113	0.0147318
757.191	0.0147339
757.269	0.0146739
757.347	0.0146857
757.425	0.0147851
757.503	0.0145245
757.581	0.0144412
757.660	0.0144510
757.738	0.0143174
757.816	0.0140311
757.894	0.0138526
757.972	0.0139882
758.050	0.0138602
758.128	0.0139329
758.206	0.0138036
758.285	0.0139803
758.363	0.0140693
758.441	0.0141611
758.519	0.0143679
758.597	0.0145182
758.675	0.0145907
758.753	0.0147127
758.831	0.0149153
758.910	0.0149239
758.988	0.0149615
759.066	0.0151984
759.144	0.0152238
759.222	0.0149900
759.300	0.0152121
759.378	0.0151845
759.456	0.0150666
759.535	0.0150885
759.613	0.0151331
759.691	0.0150778
759.769	0.0152132
759.847	0.0151196
759.925	0.0149230
760.003	0.0150680
760.081	0.0151648
760.160	0.0150684
760.238	0.0150735
760.316	0.0149827
760.394	0.0149306
760.472	0.0151944
760.550	0.0151237
760.628	0.0150827
760.706	0.0149983
760.785	0.0150035
760.863	0.0149409
760.941	0.0148287
761.019	0.0147073
761.097	0.0146082
761.175	0.0144531
761.253	0.0145573
761.331	0.0143222
761.410	0.0141093
761.488	0.0140339
761.566	0.0139359
761.644	0.0139110
761.722	0.0137714
761.800	0.0136665
761.878	0.0136931
761.956	0.0136304
762.035	0.0136848
762.113	0.0136597
762.191	0.0137591
762.269	0.0137634
762.347	0.0139975
762.425	0.0140324
762.503	0.0141245
762.581	0.0142387
762.660	0.0145220
762.738	0.0146784
762.816	0.0146468
762.894	0.0149423
762.972	0.0149888
763.050	0.0152047
763.128	0.0153249
763.206	0.0154594
763.285	0.0154768
763.363	0.0156657
763.441	0.0155553
763.519	0.0156190
763.597	0.0155822
763.675	0.0155328
763.753	0.0155326
763.831	0.0154967
763.910	0.0153549
763.988	0.0154061
764.066	0.0151035
764.144	0.0149950
764.222	0.0147944
764.300	0.0146873
764.378	0.0146586
764.456	0.0144353
764.535	0.0143821
764.613	0.0142226
764.691	0.0142105
764.769	0.0139214
764.847	0.0140250
764.925	0.0139433
765.003	0.0138360
765.081	0.0137905
765.160	0.0138989
765.238	0.0138332
765.316	0.0137196
765.394	0.0138031
765.472	0.0138543
765.550	0.0139263
765.628	0.0140419
765.706	0.0142273
765.785	0.0143327
765.863	0.0144871
765.941	0.0145823
766.019	0.0146981
766.097	0.0148854
766.175	0.0150478
766.253	0.0150450
766.331	0.0153271
766.410	0.0154122
766.488	0.0153725
766.566	0.0154561
766.644	0.0155134
766.722	0.0155955
766.800	0.0155412
766.878	0.0154263
766.956	0.0154156
767.035	0.0152846
767.113	0.0153315
767.191	0.0151871
767.269	0.0151067
767.347	0.0148827
767.425	0.0148452
767.503	0.0148146
767.581	0.0148640
767.660	0.0147437
767.738	0.0148608
767.816	0.0149736
767.894	0.0147455
767.972	0.0145824
768.050	0.0144058
768.128	0.0146523
768.206	0.0146649
768.285	0.0144729
768.363	0.0143507
768.441	0.0141477
768.519	0.0140491
768.597	0.0140826
768.675	0.0140733
768.753	0.0138345
768.831	0.0137698
768.910	0.0137642
768.988	0.0137638
769.066	0.0139094
769.144	0.0139541
769.222	0.0138960
769.300	0.0141199
769.378	0.0142884
769.456	0.0143484
769.535	0.0142910
769.613	0.0144315
769.691	0.0145381
769.769	0.0147015
769.847	0.0147665
769.925	0.0147176
770.003	0.0148677
770.081	0.0148438
770.160	0.0147704
770.238	0.0148768
770.316	0.0150397
770.394	0.0148782
770.472	0.0148417
770.550	0.0149729
770.628	0.0149207
770.706	0.0148872
770.785	0.0148744
770.863	0.0146901
770.941	0.0147601
771.019	0.0146143
771.097	0.0147849
771.175	0.0146857
771.253	0.0146637
771.331	0.0147548
771.410	0.0147341
771.488	0.0148556
771.566	0.0149176
771.644	0.0148289
771.722	0.0148386
771.800	0.0149095
771.878	0.0148222
771.956	0.0149077
772.035	0.0147839
772.113	0.0148170
772.191	0.0145212
772.269	0.0145744
772.347	0.0145030
772.425	0.0143124
772.503	0.0143313
772.581	0.0142897
772.660	0.0143587
772.738	0.0143213
772.816	0.0142987
772.894	0.0143125
772.972	0.0143792
773.050	0.0143551
773.128	0.0145259
773.206	0.0145045
773.285	0.0145222
773.363	0.0146783
773.441	0.0148693
773.519	0.0147094
773.597	0.0148945
773.675	0.0148248
773.753	0.0147246
773.831	0.0148310
773.910	0.0148096
773.988	0.0148305
774.066	0.0148132
774.144	0.0147314
774.222	0.0149155
774.300	0.0148637
774.378	0.0147741
774.456	0.0148235
774.535	0.0148040
774.613	0.0148660
774.691	0.0148396
774.769	0.0148018
774.847	0.0147636
774.925	0.0148772
775.003	0.0149122
775.081	0.0148143
775.160	0.0148081
775.238	0.0149342
775.316	0.0149054
775.394	0.0146721
775.472	0.0148480
775.550	0.0147438
775.628	0.0147758
775.706	0.0147376
775.785	0.0146151
775.863	0.0145256
775.941	0.0146140
776.019	0.0145907
776.097	0.0147100
776.175	0.0145451
776.253	0.0145129
776.331	0.0144885
776.410	0.0144785
776.488	0.0144455
776.566	0.0144384
776.644	0.0143503
776.722	0.0143865
776.800	0.0145434
776.878	0.0143962
776.956	0.0145094
777.035	0.0144209
777.113	0.0143441
777.191	0.0143987
777.269	0.0144402
777.347	0.0144502
777.425	0.0143982
777.503	0.0143967
777.581	0.0143659
777.660	0.0142403
777.738	0.0143304
777.816	0.0142770
777.894	0.0142892
777.972	0.0143867
778.050	0.0143371
778.128	0.0143629
778.206	0.0144610
778.285	0.0144627
778.363	0.0147081
778.441	0.0144761
778.519	0.0145798
778.597	0.0148363
778.675	0.0148090
778.753	0.0148139
778.831	0.0149123
778.910	0.0149982
778.988	0.0149560
779.066	0.0149982
779.144	0.0149992
779.222	0.0149026
779.300	0.0150360
779.378	0.0148422
779.456	0.0149107
779.535	0.0149177
779.613	0.0148666
779.691	0.0148267
779.769	0.0148312
779.847	0.0148133
779.925	0.0147956
780.003	0.0146133
780.081	0.0147316
780.160	0.0146543
780.238	0.0146597
780.316	0.0146545
780.394	0.0147309
780.472	0.0146999
780.550	0.0146057
780.628	0.0145291
780.706	0.0145815
780.785	0.0146835
780.863	0.0145608
780.941	0.0145914
781.019	0.0146310
781.097	0.0146341
781.175	0.0145430
781.253	0.0143448
781.331	0.0144116
781.410	0.0145061
781.488	0.0143737
781.566	0.0142178
781.644	0.0145148
781.722	0.0143201
781.800	0.0143808
781.878	0.0145229
781.956	0.0145259
782.035	0.0144762
782.113	0.0147031
782.191	0.0146510
782.269	0.0147444
782.347	0.0148042
782.425	0.0148487
782.503	0.0147736
782.581	0.0147926
782.660	0.0147900
782.738	0.0146249
782.816	0.0145513
782.894	0.0146663
782.972	0.0145710
783.050	0.0145190
783.128	0.0145641
783.206	0.0143604
783.285	0.0144777
783.363	0.0145843
783.441	0.0144920
783.519	0.0145705
783.597	0.0146735
783.675	0.0146693
783.753	0.0145641
783.831	0.0146847
783.910	0.0149055
783.988	0.0150007
784.066	0.0148152
784.144	0.0147705
784.222	0.0149152
784.300	0.0148130
784.378	0.0148145
784.456	0.0147037
784.535	0.0147979
784.613	0.0148561
784.691	0.0147988
784.769	0.0146983
784.847	0.0147171
784.925	0.0146748
785.003	0.0147001
785.081	0.0147660
785.160	0.0146721
785.238	0.0144930
785.316	0.0145494
785.394	0.0145299
785.472	0.0143534
785.550	0.0143147
785.628	0.0141162
785.706	0.0141124
785.785	0.0142274
785.863	0.0140826
785.941	0.0141120
786.019	0.0138998
786.097	0.0139356
786.175	0.0139439
786.253	0.0140414
786.331	0.0140903
786.410	0.0141497
786.488	0.0141215
786.566	0.0142986
786.644	0.0143254
786.722	0.0143876
786.800	0.0145696
786.878	0.0146254
786.956	0.0147913
787.035	0.0146382
787.113	0.0150030
787.191	0.0149062
787.269	0.0149371
787.347	0.0150852
787.425	0.0152199
787.503	0.0153232
787.581	0.0153766
787.660	0.0153413
787.738	0.0155674
787.816	0.0154207
787.894	0.0154565
787.972	0.0152485
788.050	0.0151124
788.128	0.0150757
788.206	0.0150134
788.285	0.0148794
788.363	0.0147606
788.441	0.0146441
788.519	0.0144750
788.597	0.0143429
788.675	0.0143751
788.753	0.0143208
788.831	0.0142782
788.910	0.0142999
788.988	0.0143853
789.066	0.0141752
789.144	0.0142886
789.222	0.0143780
789.300	0.0144486
789.378	0.0145098
789.456	0.0144784
789.535	0.0144231
789.613	0.0145094
789.691	0.0144638
789.769	0.0143838
789.847	0.0145426
789.925	0.0144566
790.003	0.0144517
790.081	0.0143664
790.160	0.0143275
790.238	0.0142903
790.316	0.0144138
790.394	0.0143475
790.472	0.0143108
790.550	0.0143463
790.628	0.0143242
790.706	0.0143127
790.785	0.0144904
790.863	0.0144904
790.941	0.0144110
791.019	0.0144424
791.097	0.0147142
791.175	0.0145910
791.253	0.0147839
791.331	0.0147253
791.410	0.0147538
791.488	0.0149664
791.566	0.0148917
791.644	0.0149893
791.722	0.0148362
791.800	0.0150249
791.878	0.0149399
791.956	0.0149500
792.035	0.0149499
792.113	0.0148694
792.191	0.0149007
792.269	0.0149400
792.347	0.0147620
792.425	0.0146920
792.503	0.0147363
792.581	0.0148224
792.660	0.0146352
792.738	0.0145957
792.816	0.0147508
792.894	0.0146521
792.972	0.0146526
793.050	0.0146442
793.128	0.0147466
793.206	0.0145844
793.285	0.0144889
793.363	0.0145866
793.441	0.0145007
793.519	0.0143366
793.597	0.0144784
793.675	0.0143073
793.753	0.0142830
793.831	0.0144460
793.910	0.0144409
793.988	0.0142889
794.066	0.0143154
794.144	0.0143628
794.222	0.0142109
794.300	0.0142936
794.378	0.0144441
794.456	0.0144438
794.535	0.0145980
794.613	0.0146915
794.691	0.0148449
794.769	0.0147739
794.847	0.0147890
794.925	0.0149144
795.003	0.0149467
795.081	0.0149435
795.160	0.0149872
795.238	0.0149834
795.316	0.0149722
795.394	0.0151533
795.472	0.0150477
795.550	0.0149800
795.628	0.0150834
795.706	0.0150141
795.785	0.0149281
795.863	0.0147700
795.941	0.0147626
796.019	0.0147831
796.097	0.0148531
796.175	0.0146933
796.253	0.0146564
796.331	0.0146417
796.410	0.0145662
796.488	0.0143754
796.566	0.0144986
796.644	0.0144849
796.722	0.0144941
796.800	0.0144787
796.878	0.0143153
796.956	0.0142764
797.035	0.0143787
797.113	0.0143877
797.191	0.0143739
797.269	0.0141212
797.347	0.0142213
797.425	0.0142522
797.503	0.0140957
797.581	0.0142455
797.660	0.0140504
797.738	0.0141314
797.816	0.0143254
797.894	0.0142844
797.972	0.0144008
798.050	0.0144349
798.128	0.0144715
798.206	0.0145417
798.285	0.0144429
798.363	0.0144640
798.441	0.0144834
798.519	0.0147293
798.597	0.0145439
798.675	0.0146209
798.753	0.0148499
798.831	0.0148796
798.910	0.0149182
798.988	0.0147558
799.066	0.0147813
799.144	0.0148789
799.222	0.0148100
799.300	0.0148462
799.378	0.0148663
799.456	0.0148048
799.535	0.0147541
799.613	0.0147998
799.691	0.0147199
799.769	0.0148210
799.847	0.0146435
799.925	0.0146763
800.003	0.0147819
800.081	0.0148934
800.160	0.0150081
800.238	0.0150015
800.316	0.0149786
800.394	0.0148249
800.472	0.0147544
800.550	0.0148132
800.628	0.0145412
800.706	0.0147114
800.785	0.0146253
800.863	0.0145035
800.941	0.0143768
801.019	0.0142376
801.097	0.0142218
801.175	0.0139427
801.253	0.0139417
801.331	0.0140067
801.410	0.0141560
801.488	0.0141742
801.566	0.0144335
801.644	0.0146397
801.722	0.0147613
801.800	0.0151085
801.878	0.0153436
801.956	0.0155423
802.035	0.0156259
802.113	0.0155918
802.191	0.0154982
802.269	0.0155602
802.347	0.0154473
802.425	0.0151552
802.503	0.0148399
802.581	0.0147061
802.660	0.0143111
802.738	0.0139066
802.816	0.0139207
802.894	0.0137057
802.972	0.0135168
803.050	0.0133975
803.128	0.0133325
803.206	0.0134045
803.285	0.0136138
803.363	0.0138609
803.441	0.0140520
803.519	0.0141875
803.597	0.0144858
803.675	0.0146611
803.753	0.0149021
803.831	0.0151942
803.910	0.0154255
803.988	0.0154916
804.066	0.0157053
804.144	0.0160115
804.222	0.0158704
804.300	0.0159966
804.378	0.0161518
804.456	0.0158672
804.535	0.0159264
804.613	0.0158786
804.691	0.0155379
804.769	0.0153293
804.847	0.0150372
804.925	0.0148416
805.003	0.0145735
805.081	0.0143073
805.160	0.0138852
805.238	0.0135224
805.316	0.0133725
805.394	0.0132141
805.472	0.0130619
805.550	0.0129934
805.628	0.0129734
805.706	0.0129462
805.785	0.0130003
805.863	0.0129069
805.941	0.0130827
806.019	0.0132896
806.097	0.0135307
806.175	0.0136642
806.253	0.0140018
806.331	0.0142802
806.410	0.0144156
806.488	0.0146010
806.566	0.0151037
806.644	0.0153887
806.722	0.0154778
806.800	0.0157113
806.878	0.0157957
806.956	0.0159515
807.035	0.0160202
807.113	0.0162159
807.191	0.0161297
807.269	0.0161209
807.347	0.0160809
807.425	0.0158998
807.503	0.0157024
807.581	0.0155375
807.660	0.0153562
807.738	0.0151210
807.816	0.0150552
807.894	0.0147875
807.972	0.0146957
808.050	0.0146377
808.128	0.0143687
808.206	0.0141254
808.285	0.0141087
808.363	0.0139883
808.441	0.0139962
808.519	0.0138961
808.597	0.0137160
808.675	0.0137791
808.753	0.0137914
808.831	0.0138244
808.910	0.0138372
808.988	0.0139101
809.066	0.0139611
809.144	0.0139817
809.222	0.0141818
809.300	0.0143253
809.378	0.0142032
809.456	0.0145617
809.535	0.0146862
809.613	0.0145159
809.691	0.0148605
809.769	0.0149564
809.847	0.0149553
809.925	0.0148554
810.003	0.0149053
810.081	0.0151698
810.160	0.0150617
810.238	0.0149293
810.316	0.0152140
810.394	0.0150446
810.472	0.0151737
810.550	0.0150665
810.628	0.0150529
810.706	0.0150476
810.785	0.0149017
810.863	0.0148648
810.941	0.0150404
811.019	0.0149028
811.097	0.0150066
811.175	0.0149131
811.253	0.0149297
811.331	0.0148399
811.410	0.0148311
811.488	0.0147382
811.566	0.0146265
811.644	0.0146133
811.722	0.0146872
811.800	0.0144892
811.878	0.0144604
811.956	0.0144714
812.035	0.0142757
812.113	0.0143328
812.191	0.0142816
812.269	0.0142030
812.347	0.0141983
812.425	0.0143752
812.503	0.0144556
812.581	0.0143254
812.660	0.0142956
812.738	0.0144912
812.816	0.0144216
812.894	0.0145282
812.972	0.0145387
813.050	0.0144417
813.128	0.0143839
813.206	0.0143761
813.285	0.0144237
813.363	0.0143978
813.441	0.0143810
813.519	0.0143167
813.597	0.0144303
813.675	0.0144795
813.753	0.0145405
813.831	0.0145915
813.910	0.0146531
813.988	0.0146189
814.066	0.0145316
814.144	0.0148366
814.222	0.0149797
814.300	0.0148241
814.378	0.0149500
814.456	0.0149461
814.535	0.0148127
814.613	0.0149581
814.691	0.0148541
814.769	0.0148907
814.847	0.0149348
814.925	0.0147887
815.003	0.0147578
815.081	0.0148488
815.160	0.0148392
815.238	0.0148440
815.316	0.0148264
815.394	0.0146956
815.472	0.0146983
815.550	0.0146668
815.628	0.0145521
815.706	0.0147652
815.785	0.0147312
815.863	0.0145724
815.941	0.0146745
816.019	0.0147328
816.097	0.0147301
816.175	0.0147590
816.253	0.0147281
816.331	0.0146783
816.410	0.0145293
816.488	0.0145981
816.566	0.0147462
816.644	0.0147584
816.722	0.0146517
816.800	0.0146303
816.878	0.0147045
816.956	0.0146262
817.035	0.0146309
817.113	0.0147282
817.191	0.0147592
817.269	0.0147363
817.347	0.0148407
817.425	0.0148409
817.503	0.0148868
817.581	0.0147598
817.660	0.0147634
817.738	0.0148000
817.816	0.0147921
817.894	0.0148550
817.972	0.0147488
818.050	0.0146727
818.128	0.0146528
818.206	0.0147246
818.285	0.0145054
818.363	0.0145786
818.441	0.0145356
818.519	0.0145763
818.597	0.0144993
818.675	0.0145246
818.753	0.0145033
818.831	0.0145982
818.910	0.0144045
818.988	0.0146027
819.066	0.0145812
819.144	0.0145190
819.222	0.0145002
819.300	0.0143907
819.378	0.0145577
819.456	0.0146078
819.535	0.0145612
819.613	0.0146222
819.691	0.0147014
819.769	0.0147884
819.847	0.0148192
819.925	0.0147662
820.003	0.0147318
820.081	0.0146997
820.160	0.0147868
820.238	0.0147118
820.316	0.0148734
820.394	0.0147930
820.472	0.0148502
820.550	0.0146655
820.628	0.0149364
820.706	0.0147960
820.785	0.0146481
820.863	0.0147037
820.941	0.0147210
821.019	0.0148286
821.097	0.0147041
821.175	0.0145091
821.253	0.0145018
821.331	0.0147009
821.410	0.0146309
821.488	0.0146584
821.566	0.0146233
821.644	0.0146267
821.722	0.0145457
821.800	0.0144909
821.878	0.0146435
821.956	0.0145978
822.035	0.0145920
822.113	0.0146584
822.191	0.0147682
822.269	0.0147693
822.347	0.0148143
822.425	0.0147364
822.503	0.0147455
822.581	0.0148465
822.660	0.0148883
822.738	0.0147198
822.816	0.0148997
822.894	0.0149870
822.972	0.0148299
823.050	0.0148744
823.128	0.0149566
823.206	0.0148618
823.285	0.0148096
823.363	0.0150200
823.441	0.0148802
823.519	0.0148507
823.597	0.0146867
823.675	0.0148521
823.753	0.0146550
823.831	0.0146285
823.910	0.0147398
823.988	0.0146645
824.066	0.0145083
824.144	0.0145623
824.222	0.0144702
824.300	0.0146112
824.378	0.0144827
824.456	0.0143777
824.535	0.0144283
824.613	0.0143710
824.691	0.0144337
824.769	0.0145362
824.847	0.0145354
824.925	0.0145257
825.003	0.0146654
825.081	0.0148070
825.160	0.0149085
825.238	0.0150182
825.316	0.0151477
825.394	0.0152103
825.472	0.0152190
825.550	0.0152149
825.628	0.0154204
825.706	0.0155032
825.785	0.0151694
825.863	0.0151271
825.941	0.0151548
826.019	0.0150520
826.097	0.0150054
826.175	0.0148939
826.253	0.0148177
826.331	0.0146594
826.410	0.0144620
826.488	0.0144494
826.566	0.0143263
826.644	0.0141841
826.722	0.0143084
826.800	0.0140521
826.878	0.0142874
826.956	0.0141441
827.035	0.0141501
827.113	0.0142336
827.191	0.0142219
827.269	0.0143324
827.347	0.0144961
827.425	0.0144392
827.503	0.0145547
827.581	0.0145701
827.660	0.0145612
827.738	0.0145727
827.816	0.0146059
827.894	0.0146992
827.972	0.0146741
828.050	0.0146187
828.128	0.0146194
828.206	0.0144538
828.285	0.0144552
828.363	0.0143460
828.441	0.0144933
828.519	0.0145370
828.597	0.0145563
828.675	0.0145731
828.753	0.0147199
828.831	0.0148800
828.910	0.0148148
828.988	0.0149783
829.066	0.0152629
829.144	0.0154543
829.222	0.0155124
829.300	0.0155170
829.378	0.0157557
829.456	0.0157957
829.535	0.0157075
829.613	0.0156372
829.691	0.0156538
829.769	0.0155368
829.847	0.0152936
829.925	0.0151657
830.003	0.0149363
830.081	0.0147368
830.160	0.0145596
830.238	0.0144309
830.316	0.0141872
830.394	0.0140821
830.472	0.0138857
830.550	0.0137490
830.628	0.0136852
830.706	0.0136398
830.785	0.0136999
830.863	0.0137130
830.941	0.0137112
831.019	0.0138878
831.097	0.0139478
831.175	0.0140163
831.253	0.0142976
831.331	0.0143538
831.410	0.0146533
831.488	0.0148837
831.566	0.0150207
831.644	0.0150565
831.722	0.0151391
831.800	0.0152225
831.878	0.0153896
831.956	0.0155175
832.035	0.0155022
832.113	0.0154726
832.191	0.0154839
832.269	0.0152467
832.347	0.0152641
832.425	0.0151957
832.503	0.0149666
832.581	0.0149601
832.660	0.0149055
832.738	0.0146909
832.816	0.0147337
832.894	0.0145303
832.972	0.0144189
833.050	0.0146099
833.128	0.0145496
833.206	0.0143565
833.285	0.0144947
833.363	0.0143937
833.441	0.0145435
833.519	0.0145490
833.597	0.0146570
833.675	0.0145808
833.753	0.0145425
833.831	0.0144333
833.910	0.0145339
833.988	0.0146735
834.066	0.0146930
834.144	0.0147714
834.222	0.0146825
834.300	0.0146696
834.378	0.0146787
834.456	0.0147955
834.535	0.0149010
834.613	0.0148711
834.691	0.0148555
834.769	0.0148723
834.847	0.0147170
834.925	0.0146583
835.003	0.0147964
835.081	0.0147194
835.160	0.0147265
835.238	0.0146677
835.316	0.0144563
835.394	0.0144753
835.472	0.0145616
835.550	0.0143319
835.628	0.0143837
835.706	0.0143780
835.785	0.0144221
835.863	0.0142332
835.941	0.0142647
836.019	0.0143519
836.097	0.0143036
836.175	0.0144466
836.253	0.0143269
836.331	0.0144352
836.410	0.0145440
836.488	0.0145925
836.566	0.0146490
836.644	0.0145144
836.722	0.0147109
836.800	0.0147975
836.878	0.0148726
836.956	0.0148834
837.035	0.0150761
837.113	0.0150011
837.191	0.0151264
837.269	0.0152691
837.347	0.0153069
837.425	0.0153581
837.503	0.0153281
837.581	0.0153722
837.660	0.0154641
837.738	0.0152793
837.816	0.0152566
837.894	0.0152998
837.972	0.0152499
838.050	0.0150658
838.128	0.0151044
838.206	0.0148161
838.285	0.0147923
838.363	0.0146266
838.441	0.0145536
838.519	0.0145525
838.597	0.0144476
838.675	0.0142891
838.753	0.0142772
838.831	0.0142587
838.910	0.0141171
838.988	0.0140155
839.066	0.0141404
839.144	0.0138506
839.222	0.0137686
839.300	0.0138612
839.378	0.0138304
839.456	0.0139359
839.535	0.0138123
839.613	0.0137859
839.691	0.0140474
839.769	0.0140942
839.847	0.0140514
839.925	0.0142397
840.003	0.0145097
840.081	0.0145715
840.160	0.0145960
840.238	0.0147740
840.316	0.0148718
840.394	0.0150105
840.472	0.0150809
840.550	0.0150714
840.628	0.0152163
840.706	0.0153435
840.785	0.0154876
840.863	0.0155555
840.941	0.0154655
841.019	0.0154763
841.097	0.0154813
841.175	0.0155746
841.253	0.0153050
841.331	0.0151886
841.410	0.0150981
841.488	0.0149819
841.566	0.0147951
841.644	0.0148402
841.722	0.0147350
841.800	0.0144848
841.878	0.0144353
841.956	0.0142973
842.035	0.0143385
842.113	0.0142511
842.191	0.0140472
842.269	0.0140620
842.347	0.0140969
842.425	0.0140569
842.503	0.0141290
842.581	0.0141309
842.660	0.0140643
842.738	0.0141882
842.816	0.0141467
842.894	0.0142896
842.972	0.0144065
843.050	0.0145095
843.128	0.0145705
843.206	0.0146442
843.285	0.0146876
843.363	0.0147284
843.441	0.0148730
843.519	0.0148889
843.597	0.0148798
843.675	0.0149604
843.753	0.0149945
843.831	0.0149259
843.910	0.0149654
843.988	0.0148939
844.066	0.0147813
844.144	0.0148087
844.222	0.0148084
844.300	0.0146943
844.378	0.0148264
844.456	0.0148783
844.535	0.0148078
844.613	0.0148199
844.691	0.0149609
844.769	0.0148976
844.847	0.0149585
844.925	0.0149436
845.003	0.0148505
845.081	0.0146240
845.160	0.0147358
845.238	0.0147286
845.316	0.0146878
845.394	0.0146804
845.472	0.0146126
845.550	0.0146625
845.628	0.0148027
845.706	0.0146656
845.785	0.0147768
845.863	0.0147581
845.941	0.0148328
846.019	0.0148235
846.097	0.0148028
846.175	0.0147485
846.253	0.0146174
846.331	0.0146770
846.410	0.0147327
846.488	0.0147144
846.566	0.0144815
846.644	0.0143834
846.722	0.0144748
846.800	0.0143317
846.878	0.0142597
846.956	0.0142390
847.035	0.0142388
847.113	0.0141465
847.191	0.0142072
847.269	0.0140974
847.347	0.0142046
847.425	0.0142498
847.503	0.0142638
847.581	0.0143282
847.660	0.0143817
847.738	0.0143661
847.816	0.0145535
847.894	0.0146497
847.972	0.0146294
848.050	0.0146655
848.128	0.0147800
848.206	0.0146914
848.285	0.0150790
848.363	0.0152065
848.441	0.0151881
848.519	0.0152098
848.597	0.0152808
848.675	0.0152903
848.753	0.0153155
848.831	0.0152850
848.910	0.0153992
848.988	0.0153438
849.066	0.0152527
849.144	0.0151728
849.222	0.0150359
849.300	0.0149403
849.378	0.0148969
849.456	0.0148130
849.535	0.0147095
849.613	0.0145591
849.691	0.0145111
849.769	0.0143706
849.847	0.0143054
849.925	0.0141975
850.003	0.0143583
850.081	0.0141660
850.160	0.0141478
850.238	0.0141164
850.316	0.0142385
850.394	0.0142965
850.472	0.0141988
850.550	0.0141780
850.628	0.0142093
850.706	0.0143287
850.785	0.0143434
850.863	0.0145686
850.941	0.0146153
851.019	0.0145344
851.097	0.0145560
851.175	0.0146826
851.253	0.0148851
851.331	0.0147524
851.410	0.0147814
851.488	0.0148176
851.566	0.0148695
851.644	0.0148105
851.722	0.0149618
851.800	0.0149178
851.878	0.0147476
851.956	0.0149438
852.035	0.0149754
852.113	0.0149313
852.191	0.0150964
852.269	0.0151130
852.347	0.0151372
852.425	0.0150357
852.503	0.0150950
852.581	0.0150903
852.660	0.0151131
852.738	0.0151254
852.816	0.0148430
852.894	0.0149670
852.972	0.0150426
853.050	0.0148452
853.128	0.0147646
853.206	0.0146729
853.285	0.0145627
853.363	0.0147208
853.441	0.0146392
853.519	0.0146258
853.597	0.0144597
853.675	0.0144368
853.753	0.0143825
853.831	0.0143576
853.910	0.0145041
853.988	0.0146384
854.066	0.0145815
854.144	0.0145525
854.222	0.0145995
854.300	0.0147090
854.378	0.0147038
854.456	0.0146487
854.535	0.0146603
854.613	0.0145996
854.691	0.0145152
854.769	0.0146304
854.847	0.0146477
854.925	0.0146397
855.003	0.0145692
855.081	0.0145504
855.160	0.0146262
855.238	0.0146645
855.316	0.0145773
855.394	0.0147350
855.472	0.0145496
855.550	0.0143684
855.628	0.0143951
855.706	0.0144128
855.785	0.0144858
855.863	0.0145741
855.941	0.0144173
856.019	0.0143885
856.097	0.0145191
856.175	0.0144783
856.253	0.0144677
856.331	0.0145228
856.410	0.0145950
856.488	0.0144624
856.566	0.0146879
856.644	0.0147303
856.722	0.0147935
856.800	0.0147977
856.878	0.0148332
856.956	0.0147898
857.035	0.0149249
857.113	0.0149372
857.191	0.0148862
857.269	0.0147258
857.347	0.0146760
857.425	0.0149476
857.503	0.0147631
857.581	0.0147742
857.660	0.0146452
857.738	0.0146408
857.816	0.0146965
857.894	0.0145150
857.972	0.0144420
858.050	0.0144058
858.128	0.0144356
858.206	0.0144452
858.285	0.0145133
858.363	0.0144081
858.441	0.0143375
858.519	0.0143652
858.597	0.0144180
858.675	0.0145116
858.753	0.0143668
858.831	0.0144086
858.910	0.0145867
858.988	0.0146035
859.066	0.0145627
859.144	0.0144850
859.222	0.0146591
859.300	0.0146310
859.378	0.0145546
859.456	0.0146165
859.535	0.0147001
859.613	0.0146444
859.691	0.0146742
859.769	0.0146143
859.847	0.0147972
859.925	0.0145963
860.003	0.0146113
860.081	0.0148112
860.160	0.0147477
860.238	0.0146336
860.316	0.0146880
860.394	0.0147236
860.472	0.0147225
860.550	0.0148291
860.628	0.0148658
860.706	0.0146386
860.785	0.0146021
860.863	0.0148012
860.941	0.0148499
861.019	0.0147090
861.097	0.0146841
861.175	0.0146019
861.253	0.0147516
861.331	0.0147268
861.410	0.0146127
861.488	0.0147253
861.566	0.0147255
861.644	0.0147939
861.722	0.0145987
861.800	0.0147221
861.878	0.0146880
861.956	0.0145460
862.035	0.0147351
862.113	0.0146874
862.191	0.0146462
862.269	0.0145810
862.347	0.0145153
862.425	0.0146166
862.503	0.0144796
862.581	0.0144691
862.660	0.0142738
862.738	0.0143666
862.816	0.0146172
862.894	0.0145133
862.972	0.0144997
863.050	0.0143638
863.128	0.0145321
863.206	0.0145868
863.285	0.0145613
863.363	0.0145572
863.441	0.0146171
863.519	0.0146843
863.597	0.0146411
863.675	0.0146644
863.753	0.0146407
863.831	0.0147009
863.910	0.0145972
863.988	0.0144770
864.066	0.0144662
864.144	0.0145218
864.222	0.0144795
864.300	0.0143490
864.378	0.0145013
864.456	0.0145843
864.535	0.0144955
864.613	0.0144995
864.691	0.0144926
864.769	0.0145436
864.847	0.0145615
864.925	0.0145472
865.003	0.0146840
865.081	0.0147337
865.160	0.0147275
865.238	0.0148658
865.316	0.0147221
865.394	0.0147425
865.472	0.0148637
865.550	0.0146482
865.628	0.0146944
865.706	0.0146452
865.785	0.0145744
865.863	0.0145313
865.941	0.0144142
866.019	0.0141986
866.097	0.0143912
866.175	0.0143038
866.253	0.0142474
866.331	0.0143117
866.410	0.0141853
866.488	0.0143219
866.566	0.0142661
866.644	0.0143511
866.722	0.0144447
866.800	0.0144305
866.878	0.0145034
866.956	0.0145322
867.035	0.0147218
867.113	0.0147342
867.191	0.0147240
867.269	0.0147766
867.347	0.0148174
867.425	0.0148823
867.503	0.0149517
867.581	0.0147845
867.660	0.0149317
867.738	0.0149804
867.816	0.0149107
867.894	0.0147199
867.972	0.0147658
868.050	0.0147577
868.128	0.0146690
868.206	0.0146683
868.285	0.0144669
868.363	0.0145017
868.441	0.0146321
868.519	0.0143642
868.597	0.0145687
868.675	0.0146872
868.753	0.0145966
868.831	0.0147428
868.910	0.0147012
868.988	0.0146860
869.066	0.0147467
869.144	0.0147389
869.222	0.0150771
869.300	0.0148679
869.378	0.0148103
869.456	0.0149303
869.535	0.0148943
869.613	0.0150309
869.691	0.0148096
869.769	0.0147967
869.847	0.0149541
869.925	0.0149258
870.003	0.0148048
870.081	0.0147562
870.160	0.0145428
870.238	0.0146055
870.316	0.0146211
870.394	0.0145827
870.472	0.0144324
870.550	0.0144672
870.628	0.0143959
870.706	0.0143893
870.785	0.0143751
870.863	0.0143075
870.941	0.0142233
871.019	0.0140990
871.097	0.0142258
871.175	0.0142108
871.253	0.0141424
871.331	0.0144721
871.410	0.0143213
871.488	0.0142138
871.566	0.0144247
871.644	0.0145284
871.722	0.0144537
871.800	0.0144614
871.878	0.0146063
871.956	0.0147278
872.035	0.0145992
872.113	0.0147110
872.191	0.0148120
872.269	0.0146848
872.347	0.0148367
872.425	0.0148048
872.503	0.0147613
872.581	0.0148313
872.660	0.0148180
872.738	0.0148065
872.816	0.0146670
872.894	0.0146346
872.972	0.0147568
873.050	0.0146546
873.128	0.0146079
873.206	0.0145107
873.285	0.0145315
873.363	0.0146877
873.441	0.0146885
873.519	0.0145631
873.597	0.0146621
873.675	0.0149452
873.753	0.0149232
873.831	0.0148058
873.910	0.0148880
873.988	0.0147101
874.066	0.0149498
874.144	0.0147273
874.222	0.0147196
874.300	0.0147800
874.378	0.0148214
874.456	0.0147596
874.535	0.0146941
874.613	0.0146527
874.691	0.0147240
874.769	0.0144234
874.847	0.0145673
874.925	0.0144533
875.003	0.0145940
875.081	0.0144554
875.160	0.0144720
875.238	0.0143822
875.316	0.0144006
875.394	0.0142960
875.472	0.0143924
875.550	0.0143388
875.628	0.0144468
875.706	0.0143255
875.785	0.0144019
875.863	0.0144491
875.941	0.0146699
876.019	0.0146592
876.097	0.0146404
876.175	0.0146072
876.253	0.0146988
876.331	0.0147863
876.410	0.0147755
876.488	0.0147439
876.566	0.0146006
876.644	0.0146340
876.722	0.0147436
876.800	0.0146682
876.878	0.0146415
876.956	0.0146040
877.035	0.0146771
877.113	0.0146156
877.191	0.0146413
877.269	0.0144870
877.347	0.0145646
877.425	0.0145585
877.503	0.0146592
877.581	0.0145172
877.660	0.0144926
877.738	0.0145279
877.816	0.0145641
877.894	0.0145042
877.972	0.0145589
878.050	0.0145377
878.128	0.0145959
878.206	0.0145417
878.285	0.0144679
878.363	0.0145441
878.441	0.0144981
878.519	0.0145744
878.597	0.0146886
878.675	0.0145267
878.753	0.0145413
878.831	0.0145212
878.910	0.0146268
878.988	0.0146592
879.066	0.0145260
879.144	0.0146259
879.222	0.0144904
879.300	0.0145148
879.378	0.0145628
879.456	0.0146478
879.535	0.0146493
879.613	0.0144733
879.691	0.0146951
879.769	0.0146835
879.847	0.0147565
879.925	0.0147272
880.003	0.0147709
880.081	0.0147288
880.160	0.0148577
880.238	0.0148331
880.316	0.0146952
880.394	0.0148048
880.472	0.0148914
880.550	0.0148799
880.628	0.0149029
880.706	0.0148985
880.785	0.0147914
880.863	0.0148868
880.941	0.0147584
881.019	0.0147953
881.097	0.0146894
881.175	0.0148740
881.253	0.0148018
881.331	0.0147450
881.410	0.0147337
881.488	0.0147539
881.566	0.0147805
881.644	0.0147066
881.722	0.0147426
881.800	0.0147576
881.878	0.0147164
881.956	0.0146899
882.035	0.0146385
882.113	0.0145475
882.191	0.0146865
882.269	0.0147157
882.347	0.0146870
882.425	0.0144378
882.503	0.0143214
882.581	0.0144460
882.660	0.0144290
882.738	0.0141648
882.816	0.0141896
882.894	0.0142616
882.972	0.0143989
883.050	0.0143925
883.128	0.0142436
883.206	0.0141476
883.285	0.0143721
883.363	0.0144473
883.441	0.0144760
883.519	0.0144844
883.597	0.0144377
883.675	0.0144668
883.753	0.0145410
883.831	0.0148032
883.910	0.0146354
883.988	0.0148264
884.066	0.0148882
884.144	0.0147581
884.222	0.0147762
884.300	0.0147911
884.378	0.0147490
884.456	0.0148457
884.535	0.0147369
884.613	0.0147354
884.691	0.0148444
884.769	0.0146840
884.847	0.0148172
884.925	0.0148096
885.003	0.0147308
885.081	0.0147560
885.160	0.0147190
885.238	0.0148168
885.316	0.0147160
885.394	0.0146914
885.472	0.0147121
885.550	0.0145748
885.628	0.0145179
885.706	0.0145399
885.785	0.0145226
885.863	0.0145973
885.941	0.0143930
886.019	0.0143805
886.097	0.0144488
886.175	0.0145669
886.253	0.0143823
886.331	0.0146098
886.410	0.0145595
886.488	0.0145163
886.566	0.0144131
886.644	0.0144814
886.722	0.0145697
886.800	0.0145537
886.878	0.0146648
886.956	0.0145560
887.035	0.0145322
887.113	0.0146653
887.191	0.0147018
887.269	0.0147311
887.347	0.0147213
887.425	0.0146175
887.503	0.0147849
887.581	0.0147903
887.660	0.0147010
887.738	0.0146899
887.816	0.0147545
887.894	0.0147745
887.972	0.0148008
888.050	0.0146010
888.128	0.0146313
888.206	0.0145332
888.285	0.0146980
888.363	0.0145832
888.441	0.0146036
888.519	0.0145993
888.597	0.0145406
888.675	0.0144408
888.753	0.0145326
888.831	0.0146352
888.910	0.0145353
888.988	0.0145161
889.066	0.0145530
889.144	0.0145783
889.222	0.0146201
889.300	0.0145107
889.378	0.0146501
889.456	0.0146104
889.535	0.0146537
889.613	0.0146214
889.691	0.0148804
889.769	0.0148301
889.847	0.0147297
889.925	0.0148082
890.003	0.0148305
890.081	0.0148936
890.160	0.0149106
890.238	0.0147684
890.316	0.0147625
890.394	0.0146395
890.472	0.0146479
890.550	0.0145718
890.628	0.0144034
890.706	0.0143982
890.785	0.0143719
890.863	0.0144733
890.941	0.0144522
891.019	0.0143653
891.097	0.0145921
891.175	0.0143397
891.253	0.0145773
891.331	0.0146957
891.410	0.0145863
891.488	0.0145629
891.566	0.0147022
891.644	0.0146855
891.722	0.0146216
891.800	0.0147092
891.878	0.0146253
891.956	0.0145155
892.035	0.0146187
892.113	0.0145914
892.191	0.0144778
892.269	0.0144771
892.347	0.0144711
892.425	0.0145108
892.503	0.0143416
892.581	0.0144241
892.660	0.0144611
892.738	0.0145014
892.816	0.0146143
892.894	0.0146458
892.972	0.0145100
893.050	0.0147461
893.128	0.0147179
893.206	0.0147289
893.285	0.0146629
893.363	0.0147873
893.441	0.0149352
893.519	0.0147958
893.597	0.0146382
893.675	0.0148658
893.753	0.0146758
893.831	0.0147491
893.910	0.0147764
893.988	0.0146670
894.066	0.0145526
894.144	0.0147888
894.222	0.0147224
894.300	0.0146836
894.378	0.0147137
894.456	0.0147375
894.535	0.0147113
894.613	0.0147552
894.691	0.0146694
894.769	0.0146213
894.847	0.0148027
894.925	0.0146897
895.003	0.0145857
895.081	0.0145751
895.160	0.0144044
895.238	0.0145789
895.316	0.0144531
895.394	0.0143895
895.472	0.0142284
895.550	0.0143765
895.628	0.0144039
895.706	0.0142665
895.785	0.0143352
895.863	0.0144505
895.941	0.0145557
896.019	0.0147370
896.097	0.0147089
896.175	0.0149024
896.253	0.0149788
896.331	0.0148855
896.410	0.0149819
896.488	0.0149243
896.566	0.0148371
896.644	0.0148299
896.722	0.0147306
896.800	0.0146095
896.878	0.0145364
896.956	0.0145900
897.035	0.0146350
897.113	0.0144823
897.191	0.0145163
897.269	0.0146108
897.347	0.0147384
897.425	0.0150720
897.503	0.0152122
897.581	0.0152710
897.660	0.0153744
897.738	0.0154771
897.816	0.0154873
897.894	0.0156206
897.972	0.0153030
898.050	0.0149599
898.128	0.0147482
898.206	0.0143029
898.285	0.0138541
898.363	0.0135174
898.441	0.0132011
898.519	0.0130155
898.597	0.0130839
898.675	0.0132096
898.753	0.0134516
898.831	0.0136404
898.910	0.0142220
898.988	0.0145721
899.066	0.0151005
899.144	0.0155766
899.222	0.0159268
899.300	0.0162318
899.378	0.0163483
899.456	0.0163522
899.535	0.0162968
899.613	0.0162072
899.691	0.0160275
899.769	0.0157856
899.847	0.0155119
899.925	0.0152884
900.003	0.0149319
900.081	0.0145819
900.160	0.0142307
900.238	0.0139174
900.316	0.0134917
900.394	0.0131980
900.472	0.0129301
900.550	0.0126808
900.628	0.0124151
900.706	0.0125593
900.785	0.0126785
900.863	0.0127928
900.941	0.0129882
901.019	0.0133712
901.097	0.0139156
901.175	0.0143589
901.253	0.0147711
901.331	0.0152608
901.410	0.0156938
901.488	0.0162185
901.566	0.0165677
901.644	0.0167158
901.722	0.0168132
901.800	0.0168961
901.878	0.0168250
901.956	0.0166301
902.035	0.0166506
902.113	0.0165633
902.191	0.0162718
902.269	0.0159511
902.347	0.0157514
902.425	0.0154527
902.503	0.0149681
902.581	0.0146827
902.660	0.0142671
902.738	0.0138807
902.816	0.0136058
902.894	0.0133531
902.972	0.0130939
903.050	0.0129385
903.128	0.0126797
903.206	0.0125588
903.285	0.0125020
903.363	0.0125694
903.441	0.0127657
903.519	0.0129965
903.597	0.0130418
903.675	0.0133863
903.753	0.0137429
903.831	0.0140396
903.910	0.0143452
903.988	0.0147134
904.066	0.0149872
904.144	0.0152063
904.222	0.0154556
904.300	0.0156183
904.378	0.0159913
904.456	0.0161336
904.535	0.0162356
904.613	0.0162521
904.691	0.0162768
904.769	0.0163963
904.847	0.0163454
904.925	0.0162428
905.003	0.0162973
905.081	0.0161582
905.160	0.0158422
905.238	0.0156716
905.316	0.0155388
905.394	0.0153306
905.472	0.0151672
905.550	0.0147468
905.628	0.0145973
905.706	0.0143049
905.785	0.0140900
905.863	0.0137509
905.941	0.0135766
906.019	0.0134811
906.097	0.0134700
906.175	0.0133844
906.253	0.0133579
906.331	0.0133852
906.410	0.0134303
906.488	0.0134172
906.566	0.0134778
906.644	0.0136939
906.722	0.0137195
906.800	0.0137102
906.878	0.0140256
906.956	0.0141309
907.035	0.0143156
907.113	0.0144402
907.191	0.0145277
907.269	0.0146187
907.347	0.0148148
907.425	0.0148837
907.503	0.0151041
907.581	0.0151716
907.660	0.0154092
907.738	0.0155199
907.816	0.0156019
907.894	0.0154993
907.972	0.0155231
908.050	0.0156653
908.128	0.0156270
908.206	0.0155764
908.285	0.0155696
908.363	0.0154093
908.441	0.0154328
908.519	0.0151425
908.597	0.0149295
908.675	0.0150217
908.753	0.0146803
908.831	0.0145042
908.910	0.0143244
908.988	0.0142487
909.066	0.0140466
909.144	0.0140393
909.222	0.0139771
909.300	0.0138418
909.378	0.0139202
909.456	0.0139225
909.535	0.0139384
909.613	0.0141730
909.691	0.0140988
909.769	0.0141758
909.847	0.0143410
909.925	0.0143327
910.003	0.0144945
910.081	0.0144772
910.160	0.0146162
910.238	0.0147130
910.316	0.0146640
910.394	0.0146803
910.472	0.0146835
910.550	0.0145701
910.628	0.0147408
910.706	0.0146469
910.785	0.0145387
910.863	0.0146281
910.941	0.0146239
911.019	0.0147554
911.097	0.0148820
911.175	0.0149490
911.253	0.0151244
911.331	0.0151288
911.410	0.0150803
911.488	0.0150490
911.566	0.0151230
911.644	0.0150749
911.722	0.0150535
911.800	0.0149541
911.878	0.0149096
911.956	0.0147813
912.035	0.0148643
912.113	0.0147786
912.191	0.0146633
912.269	0.0147565
912.347	0.0146984
912.425	0.0146513
912.503	0.0148762
912.581	0.0149812
912.660	0.0148276
912.738	0.0148380
912.816	0.0147990
912.894	0.0147882
912.972	0.0148097
913.050	0.0147830
913.128	0.0148746
913.206	0.0147758
913.285	0.0147980
913.363	0.0146818
913.441	0.0144420
913.519	0.0145498
913.597	0.0143620
913.675	0.0143947
913.753	0.0143961
913.831	0.0142099
913.910	0.0142996
913.988	0.0142469
914.066	0.0141786
914.144	0.0143350
914.222	0.0143711
914.300	0.0143687
914.378	0.0142322
914.456	0.0142699
914.535	0.0144080
914.613	0.0142793
914.691	0.0143890
914.769	0.0144766
914.847	0.0146739
914.925	0.0146004
915.003	0.0146637
915.081	0.0148335
915.160	0.0146429
915.238	0.0146381
915.316	0.0148200
915.394	0.0148714
915.472	0.0147146
915.550	0.0147131
915.628	0.0146950
915.706	0.0146819
915.785	0.0146561
915.863	0.0147136
915.941	0.0148016
916.019	0.0146505
916.097	0.0145844
916.175	0.0145618
916.253	0.0147215
916.331	0.0148324
916.410	0.0148080
916.488	0.0148559
916.566	0.0148193
916.644	0.0149322
916.722	0.0148665
916.800	0.0148740
916.878	0.0149255
916.956	0.0147103
917.035	0.0148641
917.113	0.0148550
917.191	0.0147955
917.269	0.0148582
917.347	0.0147653
917.425	0.0147491
917.503	0.0146851
917.581	0.0146137
917.660	0.0145817
917.738	0.0146368
917.816	0.0143628
917.894	0.0143986
917.972	0.0143569
918.050	0.0143280
918.128	0.0144229
918.206	0.0142501
918.285	0.0143530
918.363	0.0143302
918.441	0.0142487
918.519	0.0142789
918.597	0.0142351
918.675	0.0144640
918.753	0.0143114
918.831	0.0142414
918.910	0.0144740
918.988	0.0144781
919.066	0.0146514
919.144	0.0147388
919.222	0.0148003
919.300	0.0148454
919.378	0.0149067
919.456	0.0148415
919.535	0.0149677
919.613	0.0150092
919.691	0.0148957
919.769	0.0148092
919.847	0.0150146
919.925	0.0149887
920.003	0.0149445
920.081	0.0149761
920.160	0.0149063
920.238	0.0151868
920.316	0.0151752
920.394	0.0150239
920.472	0.0150837
920.550	0.0151179
920.628	0.0151266
920.706	0.0152586
920.785	0.0152605
920.863	0.0151266
920.941	0.0150541
921.019	0.0149816
921.097	0.0150048
921.175	0.0149451
921.253	0.0148456
921.331	0.0147370
921.410	0.0147607
921.488	0.0147137
921.566	0.0144464
921.644	0.0144269
921.722	0.0144476
921.800	0.0143073
921.878	0.0141883
921.956	0.0142364
922.035	0.0141461
922.113	0.0141565
922.191	0.0141285
922.269	0.0140737
922.347	0.0141411
922.425	0.0142089
922.503	0.0142354
922.581	0.0142909
922.660	0.0144032
922.738	0.0145350
922.816	0.0144595
922.894	0.0144370
922.972	0.0147161
923.050	0.0147196
923.128	0.0148085
923.206	0.0148471
923.285	0.0150191
923.363	0.0149097
923.441	0.0150404
923.519	0.0149600
923.597	0.0149771
923.675	0.0151085
923.753	0.0150974
923.831	0.0151663
923.910	0.0151833
923.988	0.0151064
924.066	0.0150694
924.144	0.0148222
924.222	0.0147726
924.300	0.0147146
924.378	0.0147626
924.456	0.0147997
924.535	0.0146458
924.613	0.0146648
924.691	0.0147353
924.769	0.0145974
924.847	0.0146011
924.925	0.0146379
925.003	0.0146123
925.081	0.0147732
925.160	0.0146334
925.238	0.0144686
925.316	0.0145573
925.394	0.0145191
925.472	0.0146093
925.550	0.0146056
925.628	0.0147038
925.706	0.0146734
925.785	0.0147239
925.863	0.0147250
925.941	0.0147174
926.019	0.0147648
926.097	0.0149452
926.175	0.0149092
926.253	0.0149383
926.331	0.0150920
926.410	0.0149181
926.488	0.0149974
926.566	0.0148544
926.644	0.0148405
926.722	0.0147946
926.800	0.0148099
926.878	0.0147232
926.956	0.0147043
927.035	0.0146467
927.113	0.0145681
927.191	0.0144431
927.269	0.0144975
927.347	0.0144592
927.425	0.0144997
927.503	0.0145894
927.581	0.0146153
927.660	0.0146506
927.738	0.0146853
927.816	0.0146500
927.894	0.0147255
927.972	0.0147788
928.050	0.0146137
928.128	0.0146959
928.206	0.0147679
928.285	0.0146786
928.363	0.0146574
928.441	0.0145764
928.519	0.0146986
928.597	0.0146777
928.675	0.0146590
928.753	0.0147502
928.831	0.0147391
928.910	0.0147094
928.988	0.0146021
929.066	0.0147593
929.144	0.0146965
929.222	0.0147927
929.300	0.0148725
929.378	0.0146412
929.456	0.0147168
929.535	0.0148176
929.613	0.0146110
929.691	0.0145166
929.769	0.0145997
929.847	0.0147632
929.925	0.0145908
930.003	0.0144562
930.081	0.0146431
930.160	0.0145618
930.238	0.0146815
930.316	0.0144992
930.394	0.0145908
930.472	0.0146784
930.550	0.0147038
930.628	0.0147742
930.706	0.0146864
930.785	0.0146454
930.863	0.0146445
930.941	0.0146947
931.019	0.0148014
931.097	0.0148827
931.175	0.0148595
931.253	0.0148455
931.331	0.0149632
931.410	0.0151155
931.488	0.0149989
931.566	0.0150185
931.644	0.0150423
931.722	0.0150578
931.800	0.0149969
931.878	0.0148582
931.956	0.0149144
932.035	0.0148905
932.113	0.0147868
932.191	0.0146867
932.269	0.0145163
932.347	0.0144698
932.425	0.0145092
932.503	0.0144754
932.581	0.0143743
932.660	0.0143713
932.738	0.0143141
932.816	0.0144735
932.894	0.0143581
932.972	0.0144266
933.050	0.0144167
933.128	0.0143393
933.206	0.0143276
933.285	0.0143993
933.363	0.0144238
933.441	0.0144436
933.519	0.0144640
933.597	0.0145252
933.675	0.0145444
933.753	0.0146315
933.831	0.0146222
933.910	0.0147952
933.988	0.0149032
934.066	0.0149202
934.144	0.0148561
934.222	0.0150222
934.300	0.0149744
934.378	0.0149668
934.456	0.0150859
934.535	0.0149975
934.613	0.0150972
934.691	0.0150080
934.769	0.0150317
934.847	0.0148460
934.925	0.0149110
935.003	0.0148858
935.081	0.0148945
935.160	0.0148260
935.238	0.0146070
935.316	0.0145557
935.394	0.0145572
935.472	0.0145035
935.550	0.0144715
935.628	0.0145599
935.706	0.0142950
935.785	0.0142733
935.863	0.0143500
935.941	0.0143816
936.019	0.0143072
936.097	0.0144389
936.175	0.0144226
936.253	0.0144341
936.331	0.0144620
936.410	0.0144643
936.488	0.0144276
936.566	0.0145370
936.644	0.0144913
936.722	0.0144428
936.800	0.0145359
936.878	0.0145192
936.956	0.0146939
937.035	0.0144699
937.113	0.0145601
937.191	0.0147261
937.269	0.0146632
937.347	0.0146442
937.425	0.0146925
937.503	0.0147082
937.581	0.0147940
937.660	0.0146594
937.738	0.0145098
937.816	0.0145940
937.894	0.0146125
937.972	0.0147028
938.050	0.0145600
938.128	0.0144408
938.206	0.0147687
938.285	0.0145803
938.363	0.0144775
938.441	0.0144115
938.519	0.0144940
938.597	0.0144646
938.675	0.0144460
938.753	0.0145174
938.831	0.0144868
938.910	0.0144821
938.988	0.0144823
939.066	0.0145857
939.144	0.0145659
939.222	0.0145949
939.300	0.0146371
939.378	0.0147459
939.456	0.0147353
939.535	0.0147342
939.613	0.0146910
939.691	0.0149435
939.769	0.0149866
939.847	0.0148518
939.925	0.0148812
940.003	0.0149683
940.081	0.0148096
940.160	0.0147891
940.238	0.0146870
940.316	0.0147259
940.394	0.0147113
940.472	0.0146838
940.550	0.0147140
940.628	0.0147582
940.706	0.0145994
940.785	0.0147149
940.863	0.0146219
940.941	0.0146910
941.019	0.0148303
941.097	0.0146337
941.175	0.0147623
941.253	0.0147947
941.331	0.0147171
941.410	0.0145509
941.488	0.0145940
941.566	0.0147550
941.644	0.0145243
941.722	0.0146886
941.800	0.0144842
941.878	0.0145841
941.956	0.0146861
942.035	0.0148717
942.113	0.0146213
942.191	0.0146022
942.269	0.0148550
942.347	0.0148462
942.425	0.0146164
942.503	0.0146529
942.581	0.0146248
942.660	0.0146902
942.738	0.0147294
942.816	0.0145416
942.894	0.0146397
942.972	0.0145240
943.050	0.0146191
943.128	0.0145674
943.206	0.0146272
943.285	0.0144830
943.363	0.0144479
943.441	0.0145219
943.519	0.0145380
943.597	0.0145710
943.675	0.0145277
943.753	0.0145177
943.831	0.0145416
943.910	0.0145033
943.988	0.0143878
944.066	0.0145498
944.144	0.0145573
944.222	0.0145850
944.300	0.0146822
944.378	0.0145576
944.456	0.0145551
944.535	0.0147221
944.613	0.0147282
944.691	0.0146992
944.769	0.0146348
944.847	0.0145784
944.925	0.0146290
945.003	0.0147954
945.081	0.0146899
945.160	0.0148020
945.238	0.0146082
945.316	0.0146733
945.394	0.0146944
945.472	0.0147137
945.550	0.0147842
945.628	0.0147469
945.706	0.0146163
945.785	0.0147471
945.863	0.0149082
945.941	0.0148299
946.019	0.0150434
946.097	0.0149902
946.175	0.0149371
946.253	0.0149194
946.331	0.0150769
946.410	0.0151881
946.488	0.0150253
946.566	0.0149530
946.644	0.0148845
946.722	0.0150848
946.800	0.0150004
946.878	0.0149720
946.956	0.0148933
947.035	0.0147948
947.113	0.0147260
947.191	0.0145969
947.269	0.0147160
947.347	0.0145757
947.425	0.0144555
947.503	0.0143907
947.581	0.0142883
947.660	0.0143428
947.738	0.0142528
947.816	0.0142233
947.894	0.0142506
947.972	0.0141911
948.050	0.0141355
948.128	0.0140947
948.206	0.0141456
948.285	0.0141559
948.363	0.0140752
948.441	0.0141574
948.519	0.0142197
948.597	0.0143276
948.675	0.0142204
948.753	0.0142582
948.831	0.0143167
948.910	0.0144580
948.988	0.0147215
949.066	0.0145800
949.144	0.0145561
949.222	0.0145317
949.300	0.0147823
949.378	0.0147295
949.456	0.0147865
949.535	0.0148392
949.613	0.0149796
949.691	0.0148263
949.769	0.0148907
949.847	0.0148085
949.925	0.0148221
950.003	0.0148843
950.081	0.0149238
950.160	0.0150100
950.238	0.0149273
950.316	0.0148701
950.394	0.0149007
950.472	0.0148849
950.550	0.0148506
950.628	0.0148709
950.706	0.0148109
950.785	0.0148193
950.863	0.0148312
950.941	0.0147375
951.019	0.0148895
951.097	0.0148088
951.175	0.0146712
951.253	0.0149034
951.331	0.0147067
951.410	0.0147715
951.488	0.0148051
951.566	0.0145866
951.644	0.0145507
951.722	0.0148222
951.800	0.0146973
951.878	0.0147626
951.956	0.0146314
952.035	0.0146056
952.113	0.0145450
952.191	0.0144413
952.269	0.0144754
952.347	0.0146743
952.425	0.0144788
952.503	0.0145832
952.581	0.0145448
952.660	0.0145680
952.738	0.0145689
952.816	0.0146353
952.894	0.0146621
952.972	0.0146311
953.050	0.0145892
953.128	0.0146178
953.206	0.0145836
953.285	0.0144921
953.363	0.0145641
953.441	0.0145958
953.519	0.0144769
953.597	0.0143942
953.675	0.0144623
953.753	0.0143153
953.831	0.0141732
953.910	0.0141257
953.988	0.0140785
954.066	0.0140948
954.144	0.0141790
954.222	0.0140044
954.300	0.0142495
954.378	0.0142961
954.456	0.0144199
954.535	0.0145384
954.613	0.0144801
954.691	0.0146279
954.769	0.0148084
954.847	0.0148539
954.925	0.0149910
955.003	0.0149885
955.081	0.0152519
955.160	0.0152142
955.238	0.0151929
955.316	0.0153349
955.394	0.0155605
955.472	0.0153869
955.550	0.0154004
955.628	0.0155246
955.706	0.0154380
955.785	0.0154180
955.863	0.0155663
955.941	0.0152863
956.019	0.0153070
956.097	0.0151598
956.175	0.0151690
956.253	0.0150099
956.331	0.0150259
956.410	0.0148073
956.488	0.0146491
956.566	0.0146561
956.644	0.0145462
956.722	0.0144705
956.800	0.0143064
956.878	0.0142126
956.956	0.0141636
957.035	0.0143645
957.113	0.0141563
957.191	0.0139157
957.269	0.0139208
957.347	0.0140411
957.425	0.0140027
957.503	0.0140604
957.581	0.0140057
957.660	0.0139061
957.738	0.0141055
957.816	0.0140771
957.894	0.0142993
957.972	0.0143442
958.050	0.0145032
958.128	0.0143108
958.206	0.0144793
958.285	0.0145525
958.363	0.0144537
958.441	0.0143856
958.519	0.0145402
958.597	0.0145750
958.675	0.0145100
958.753	0.0144682
958.831	0.0145990
958.910	0.0146285
958.988	0.0145608
959.066	0.0146696
959.144	0.0146184
959.222	0.0145691
959.300	0.0146821
959.378	0.0145108
959.456	0.0146078
959.535	0.0146641
959.613	0.0146262
959.691	0.0146157
959.769	0.0144910
959.847	0.0146405
959.925	0.0148180
960.003	0.0147955
960.081	0.0147607
960.160	0.0148747
960.238	0.0149947
960.316	0.0148898
960.394	0.0148724
960.472	0.0149157
960.550	0.0148907
960.628	0.0148254
960.706	0.0147436
960.785	0.0148637
960.863	0.0147968
960.941	0.0147828
961.019	0.0146912
961.097	0.0146606
961.175	0.0146323
961.253	0.0145103
961.331	0.0144204
961.410	0.0144852
961.488	0.0143796
961.566	0.0143358
961.644	0.0143935
961.722	0.0142133
961.800	0.0142621
961.878	0.0143181
961.956	0.0142677
962.035	0.0140592
962.113	0.0141507
962.191	0.0142417
962.269	0.0141690
962.347	0.0142497
962.425	0.0141714
962.503	0.0143747
962.581	0.0142648
962.660	0.0142139
962.738	0.0143263
962.816	0.0144706
962.894	0.0143439
962.972	0.0144070
963.050	0.0143755
963.128	0.0146017
963.206	0.0145490
963.285	0.0145887
963.363	0.0145952
963.441	0.0146755
963.519	0.0147641
963.597	0.0147879
963.675	0.0150019
963.753	0.0147491
963.831	0.0149286
963.910	0.0147816
963.988	0.0146869
964.066	0.0147800
964.144	0.0148753
964.222	0.0148064
964.300	0.0147795
964.378	0.0147590
964.456	0.0145801
964.535	0.0146401
964.613	0.0146488
964.691	0.0147211
964.769	0.0145381
964.847	0.0145531
964.925	0.0146419
965.003	0.0147283
965.081	0.0146175
965.160	0.0146968
965.238	0.0146715
965.316	0.0146970
965.394	0.0148323
965.472	0.0148330
965.550	0.0147871
965.628	0.0148460
965.706	0.0148595
965.785	0.0148416
965.863	0.0148019
965.941	0.0148639
966.019	0.0147783
966.097	0.0147542
966.175	0.0146226
966.253	0.0147173
966.331	0.0147923
966.410	0.0147692
966.488	0.0147642
966.566	0.0147566
966.644	0.0148161
966.722	0.0145911
966.800	0.0146458
966.878	0.0146251
966.956	0.0146610
967.035	0.0146739
967.113	0.0146680
967.191	0.0145453
967.269	0.0146079
967.347	0.0146865
967.425	0.0146636
967.503	0.0145531
967.581	0.0146447
967.660	0.0145483
967.738	0.0143958
967.816	0.0144666
967.894	0.0143687
967.972	0.0144948
968.050	0.0143565
968.128	0.0144277
968.206	0.0143985
968.285	0.0144257
968.363	0.0144212
968.441	0.0144241
968.519	0.0144182
968.597	0.0144254
968.675	0.0146124
968.753	0.0144670
968.831	0.0145267
968.910	0.0143688
968.988	0.0144067
969.066	0.0146066
969.144	0.0146333
969.222	0.0145055
969.300	0.0145178
969.378	0.0146114
969.456	0.0146615
969.535	0.0146969
969.613	0.0147906
969.691	0.0148634
969.769	0.0147353
969.847	0.0149074
969.925	0.0150374
970.003	0.0149689
970.081	0.0149872
970.160	0.0149235
970.238	0.0148921
970.316	0.0148188
970.394	0.0147739
970.472	0.0147084
970.550	0.0148614
970.628	0.0146297
970.706	0.0146676
970.785	0.0146510
970.863	0.0146198
970.941	0.0143756
971.019	0.0144850
971.097	0.0144903
971.175	0.0144394
971.253	0.0145418
971.331	0.0142866
971.410	0.0145370
971.488	0.0144937
971.566	0.0143250
971.644	0.0144378
971.722	0.0143964
971.800	0.0145437
971.878	0.0145716
971.956	0.0145281
972.035	0.0146635
972.113	0.0145431
972.191	0.0146231
972.269	0.0146400
972.347	0.0147115
972.425	0.0147316
972.503	0.0145809
972.581	0.0145439
972.660	0.0145222
972.738	0.0143794
972.816	0.0144633
972.894	0.0144737
972.972	0.0144936
973.050	0.0146091
973.128	0.0146741
973.206	0.0146159
973.285	0.0147022
973.363	0.0147584
973.441	0.0146364
973.519	0.0146885
973.597	0.0148296
973.675	0.0148160
973.753	0.0147981
973.831	0.0146925
973.910	0.0147755
973.988	0.0148844
974.066	0.0146700
974.144	0.0146136
974.222	0.0146594
974.300	0.0146324
974.378	0.0146425
974.456	0.0145232
974.535	0.0145734
974.613	0.0143568
974.691	0.0145048
974.769	0.0145996
974.847	0.0145664
974.925	0.0146822
975.003	0.0146253
975.081	0.0147041
975.160	0.0145290
975.238	0.0147280
975.316	0.0146442
975.394	0.0146999
975.472	0.0147369
975.550	0.0146651
975.628	0.0148589
975.706	0.0147098
975.785	0.0145823
975.863	0.0145932
975.941	0.0146396
976.019	0.0146548
976.097	0.0146383
976.175	0.0147094
976.253	0.0146138
976.331	0.0147197
976.410	0.0148254
976.488	0.0145820
976.566	0.0145889
976.644	0.0148011
976.722	0.0147461
976.800	0.0146211
976.878	0.0147566
976.956	0.0147325
977.035	0.0146415
977.113	0.0145597
977.191	0.0147317
977.269	0.0146770
977.347	0.0146404
977.425	0.0146335
977.503	0.0145963
977.581	0.0147253
977.660	0.0148476
977.738	0.0147132
977.816	0.0146028
977.894	0.0147475
977.972	0.0146709
978.050	0.0148025
978.128	0.0147496
978.206	0.0147211
978.285	0.0147061
978.363	0.0148578
978.441	0.0147205
978.519	0.0148174
978.597	0.0147510
978.675	0.0147389
978.753	0.0149266
978.831	0.0147702
978.910	0.0147506
978.988	0.0148264
979.066	0.0148154
979.144	0.0147904
979.222	0.0148067
979.300	0.0147835
979.378	0.0146221
979.456	0.0147884
979.535	0.0147112
979.613	0.0148450
979.691	0.0148169
979.769	0.0148390
979.847	0.0148808
979.925	0.0147693
