05/03/2022	20:14:21	Ver.	4.1	UNKNOWN
Optical Delay	660.003261	Delta X		0.078125	Sweeps	1	Scan Rate	0/0
Coordinates	Axis 1	NaN	Axis 2	NaN	Axis 3	NaN	Axis 4	NaN	Axis 5	NaN	Axis 6	0.000000
TX Power	0.000000	RX Power	0.000000

660.003	0.0147735
660.081	0.0147598
660.160	0.0146234
660.238	0.0148311
660.316	0.0148536
660.394	0.0147723
660.472	0.0149245
660.550	0.0148684
660.628	0.0147241
660.706	0.0147308
660.785	0.0148654
660.863	0.0148116
660.941	0.0147256
661.019	0.0146849
661.097	0.0148050
661.175	0.0147718
661.253	0.0148574
661.331	0.0148328
661.410	0.0148453
661.488	0.0148506
661.566	0.0147802
661.644	0.0147208
661.722	0.0148230
661.800	0.0147904
661.878	0.0147525
661.956	0.0147697
662.035	0.0147777
662.113	0.0148586
662.191	0.0147558
662.269	0.0147359
662.347	0.0148969
662.425	0.0147990
662.503	0.0147523
662.581	0.0147803
662.660	0.0147565
662.738	0.0147646
662.816	0.0148627
662.894	0.0148106
662.972	0.0147600
663.050	0.0146656
663.128	0.0146932
663.206	0.0148119
663.285	0.0148183
663.363	0.0147530
663.441	0.0147370
663.519	0.0148594
663.597	0.0148074
663.675	0.0146970
663.753	0.0147690
663.831	0.0146629
663.910	0.0146020
663.988	0.0148125
664.066	0.0148106
664.144	0.0147833
664.222	0.0148336
664.300	0.0147176
664.378	0.0148111
664.456	0.0148003
664.535	0.0148621
664.613	0.0148584
664.691	0.0148859
664.769	0.0148846
664.847	0.0148190
664.925	0.0149667
665.003	0.0148237
665.081	0.0147218
665.160	0.0148431
665.238	0.0148947
665.316	0.0147080
665.394	0.0148653
665.472	0.0148318
665.550	0.0147516
665.628	0.0148738
665.706	0.0147855
665.785	0.0150217
665.863	0.0149181
665.941	0.0147982
666.019	0.0147145
666.097	0.0148478
666.175	0.0148612
666.253	0.0147649
666.331	0.0148943
666.410	0.0148321
666.488	0.0147721
666.566	0.0148463
666.644	0.0148618
666.722	0.0149141
666.800	0.0147578
666.878	0.0147266
666.956	0.0147678
667.035	0.0148298
667.113	0.0148270
667.191	0.0147959
667.269	0.0147543
667.347	0.0146897
667.425	0.0147601
667.503	0.0149444
667.581	0.0148280
667.660	0.0147629
667.738	0.0147501
667.816	0.0148240
667.894	0.0147622
667.972	0.0148274
668.050	0.0149124
668.128	0.0149593
668.206	0.0148421
668.285	0.0147598
668.363	0.0146307
668.441	0.0148409
668.519	0.0148667
668.597	0.0147510
668.675	0.0147295
668.753	0.0148266
668.831	0.0148939
668.910	0.0149509
668.988	0.0147741
669.066	0.0146882
669.144	0.0148589
669.222	0.0147217
669.300	0.0147552
669.378	0.0148717
669.456	0.0148537
669.535	0.0147592
669.613	0.0147509
669.691	0.0148287
669.769	0.0148388
669.847	0.0148351
669.925	0.0148870
670.003	0.0147630
670.081	0.0148499
670.160	0.0148719
670.238	0.0148721
670.316	0.0148075
670.394	0.0148495
670.472	0.0148367
670.550	0.0147092
670.628	0.0149520
670.706	0.0149789
670.785	0.0148667
670.863	0.0147882
670.941	0.0148237
671.019	0.0147807
671.097	0.0149111
671.175	0.0148545
671.253	0.0147697
671.331	0.0148016
671.410	0.0148775
671.488	0.0147169
671.566	0.0148849
671.644	0.0148467
671.722	0.0148495
671.800	0.0148715
671.878	0.0148083
671.956	0.0147127
672.035	0.0149425
672.113	0.0147522
672.191	0.0147669
672.269	0.0147886
672.347	0.0148759
672.425	0.0148775
672.503	0.0148032
672.581	0.0147077
672.660	0.0147357
672.738	0.0148379
672.816	0.0148747
672.894	0.0149010
672.972	0.0147376
673.050	0.0148067
673.128	0.0148882
673.206	0.0148129
673.285	0.0147101
673.363	0.0146843
673.441	0.0148102
673.519	0.0148403
673.597	0.0149673
673.675	0.0147684
673.753	0.0147973
673.831	0.0149181
673.910	0.0147924
673.988	0.0147279
674.066	0.0148380
674.144	0.0146960
674.222	0.0146765
674.300	0.0147649
674.378	0.0147636
674.456	0.0148088
674.535	0.0148486
674.613	0.0148238
674.691	0.0147052
674.769	0.0147610
674.847	0.0148595
674.925	0.0147274
675.003	0.0147429
675.081	0.0148483
675.160	0.0149251
675.238	0.0148656
675.316	0.0148392
675.394	0.0147399
675.472	0.0147968
675.550	0.0147678
675.628	0.0148248
675.706	0.0146465
675.785	0.0145316
675.863	0.0147351
675.941	0.0148380
676.019	0.0147984
676.097	0.0147995
676.175	0.0147865
676.253	0.0147644
676.331	0.0147931
676.410	0.0147420
676.488	0.0147128
676.566	0.0147298
676.644	0.0147316
676.722	0.0146432
676.800	0.0147833
676.878	0.0146547
676.956	0.0146848
677.035	0.0148174
677.113	0.0147230
677.191	0.0149596
677.269	0.0147672
677.347	0.0147949
677.425	0.0147719
677.503	0.0147093
677.581	0.0147130
677.660	0.0147498
677.738	0.0148880
677.816	0.0146741
677.894	0.0147200
677.972	0.0149236
678.050	0.0147864
678.128	0.0147711
678.206	0.0148021
678.285	0.0149487
678.363	0.0148219
678.441	0.0146867
678.519	0.0149406
678.597	0.0147968
678.675	0.0147916
678.753	0.0148183
678.831	0.0148927
678.910	0.0148930
678.988	0.0147906
679.066	0.0148974
679.144	0.0148174
679.222	0.0147077
679.300	0.0148775
679.378	0.0148505
679.456	0.0146718
679.535	0.0146915
679.613	0.0149554
679.691	0.0147188
679.769	0.0147763
679.847	0.0147691
679.925	0.0148596
680.003	0.0148671
680.081	0.0146867
680.160	0.0147358
680.238	0.0147972
680.316	0.0146821
680.394	0.0146890
680.472	0.0149083
680.550	0.0148187
680.628	0.0146873
680.706	0.0147323
680.785	0.0147340
680.863	0.0148603
680.941	0.0148505
681.019	0.0147960
681.097	0.0148757
681.175	0.0146439
681.253	0.0147915
681.331	0.0147794
681.410	0.0146272
681.488	0.0148042
681.566	0.0148350
681.644	0.0147326
681.722	0.0148641
681.800	0.0148694
681.878	0.0146220
681.956	0.0147701
682.035	0.0147334
682.113	0.0148356
682.191	0.0147857
682.269	0.0147598
682.347	0.0148331
682.425	0.0148289
682.503	0.0147120
682.581	0.0146414
682.660	0.0147587
682.738	0.0148074
682.816	0.0147605
682.894	0.0146851
682.972	0.0148003
683.050	0.0149238
683.128	0.0147979
683.206	0.0148153
683.285	0.0148077
683.363	0.0146938
683.441	0.0147027
683.519	0.0147708
683.597	0.0146900
683.675	0.0147021
683.753	0.0147002
683.831	0.0147470
683.910	0.0146914
683.988	0.0148225
684.066	0.0148138
684.144	0.0147779
684.222	0.0149096
684.300	0.0148044
684.378	0.0148085
684.456	0.0147459
684.535	0.0147644
684.613	0.0147915
684.691	0.0147634
684.769	0.0147841
684.847	0.0148922
684.925	0.0147047
685.003	0.0146657
685.081	0.0148525
685.160	0.0147896
685.238	0.0148108
685.316	0.0146886
685.394	0.0146890
685.472	0.0148670
685.550	0.0148775
685.628	0.0146672
685.706	0.0147163
685.785	0.0147529
685.863	0.0148141
685.941	0.0147506
686.019	0.0147353
686.097	0.0147880
686.175	0.0148069
686.253	0.0148910
686.331	0.0148117
686.410	0.0149228
686.488	0.0149029
686.566	0.0147645
686.644	0.0146928
686.722	0.0145860
686.800	0.0147453
686.878	0.0148667
686.956	0.0148773
687.035	0.0148296
687.113	0.0148017
687.191	0.0146459
687.269	0.0148799
687.347	0.0148148
687.425	0.0147647
687.503	0.0146832
687.581	0.0146738
687.660	0.0147853
687.738	0.0149074
687.816	0.0147557
687.894	0.0147057
687.972	0.0146060
688.050	0.0147115
688.128	0.0147096
688.206	0.0148138
688.285	0.0146918
688.363	0.0146479
688.441	0.0146321
688.519	0.0147470
688.597	0.0148130
688.675	0.0149098
688.753	0.0148734
688.831	0.0147365
688.910	0.0149729
688.988	0.0147919
689.066	0.0146158
689.144	0.0146960
689.222	0.0148296
689.300	0.0148372
689.378	0.0148352
689.456	0.0147416
689.535	0.0149216
689.613	0.0149150
689.691	0.0146391
689.769	0.0148159
689.847	0.0147812
689.925	0.0147095
690.003	0.0148962
690.081	0.0147340
690.160	0.0146569
690.238	0.0146776
690.316	0.0148477
690.394	0.0148345
690.472	0.0147890
690.550	0.0147377
690.628	0.0147732
690.706	0.0148199
690.785	0.0148377
690.863	0.0147002
690.941	0.0146877
691.019	0.0147903
691.097	0.0147560
691.175	0.0146174
691.253	0.0147818
691.331	0.0147710
691.410	0.0147511
691.488	0.0147092
691.566	0.0146176
691.644	0.0147285
691.722	0.0147696
691.800	0.0146307
691.878	0.0148196
691.956	0.0147889
692.035	0.0147778
692.113	0.0147356
692.191	0.0146260
692.269	0.0147017
692.347	0.0147372
692.425	0.0146876
692.503	0.0147491
692.581	0.0147553
692.660	0.0148152
692.738	0.0145411
692.816	0.0148263
692.894	0.0146899
692.972	0.0146785
693.050	0.0147269
693.128	0.0146828
693.206	0.0147668
693.285	0.0147935
693.363	0.0147796
693.441	0.0146214
693.519	0.0147137
693.597	0.0147009
693.675	0.0148370
693.753	0.0147475
693.831	0.0147670
693.910	0.0148660
693.988	0.0146741
694.066	0.0148287
694.144	0.0147944
694.222	0.0147649
694.300	0.0148537
694.378	0.0148347
694.456	0.0147809
694.535	0.0148244
694.613	0.0147320
694.691	0.0146323
694.769	0.0147130
694.847	0.0146776
694.925	0.0146768
695.003	0.0146835
695.081	0.0146716
695.160	0.0147568
695.238	0.0147982
695.316	0.0147482
695.394	0.0146346
695.472	0.0147199
695.550	0.0148011
695.628	0.0148707
695.706	0.0146783
695.785	0.0147565
695.863	0.0148628
695.941	0.0147340
696.019	0.0148289
696.097	0.0149812
696.175	0.0147175
696.253	0.0149316
696.331	0.0148708
696.410	0.0149100
696.488	0.0148086
696.566	0.0148168
696.644	0.0147057
696.722	0.0146484
696.800	0.0147740
696.878	0.0147050
696.956	0.0147739
697.035	0.0147765
697.113	0.0147473
697.191	0.0147597
697.269	0.0149209
697.347	0.0147744
697.425	0.0146669
697.503	0.0147133
697.581	0.0147397
697.660	0.0147339
697.738	0.0147768
697.816	0.0147137
697.894	0.0148694
697.972	0.0148304
698.050	0.0147732
698.128	0.0147680
698.206	0.0149013
698.285	0.0147183
698.363	0.0147685
698.441	0.0147047
698.519	0.0148055
698.597	0.0148418
698.675	0.0148018
698.753	0.0148650
698.831	0.0148090
698.910	0.0148826
698.988	0.0147147
699.066	0.0147630
699.144	0.0148083
699.222	0.0147311
699.300	0.0146895
699.378	0.0147242
699.456	0.0148866
699.535	0.0147456
699.613	0.0148626
699.691	0.0150001
699.769	0.0147477
699.847	0.0148250
699.925	0.0147923
700.003	0.0148556
700.081	0.0147406
700.160	0.0148358
700.238	0.0147440
700.316	0.0147691
700.394	0.0147610
700.472	0.0147346
700.550	0.0146849
700.628	0.0147680
700.706	0.0148336
700.785	0.0146704
700.863	0.0147425
700.941	0.0148035
701.019	0.0147275
701.097	0.0149615
701.175	0.0147506
701.253	0.0148015
701.331	0.0149416
701.410	0.0148511
701.488	0.0149476
701.566	0.0149230
701.644	0.0149043
701.722	0.0148773
701.800	0.0149133
701.878	0.0149397
701.956	0.0149070
702.035	0.0150208
702.113	0.0148705
702.191	0.0149635
702.269	0.0149935
702.347	0.0149398
702.425	0.0149847
702.503	0.0149091
702.581	0.0146523
702.660	0.0147613
702.738	0.0147914
702.816	0.0148418
702.894	0.0148670
702.972	0.0146432
703.050	0.0146447
703.128	0.0145812
703.206	0.0145512
703.285	0.0142985
703.363	0.0141702
703.441	0.0140031
703.519	0.0139312
703.597	0.0139622
703.675	0.0141501
703.753	0.0144655
703.831	0.0147967
703.910	0.0152826
703.988	0.0157298
704.066	0.0160429
704.144	0.0161644
704.222	0.0159586
704.300	0.0155923
704.378	0.0147632
704.456	0.0139993
704.535	0.0131120
704.613	0.0120371
704.691	0.0113261
704.769	0.0106379
704.847	0.0104196
704.925	0.0103973
705.003	0.0107515
705.081	0.0114199
705.160	0.0124358
705.238	0.0137689
705.316	0.0154361
705.394	0.0174023
705.472	0.0193759
705.550	0.0216705
705.628	0.0236832
705.706	0.0251985
705.785	0.0263399
705.863	0.0265555
705.941	0.0257841
706.019	0.0242247
706.097	0.0217026
706.175	0.0185731
706.253	0.0147222
706.331	0.0105640
706.410	0.00663513
706.488	0.00293686
706.566	-0.0000415802
706.644	-0.00181015
706.722	-0.00255325
706.800	-0.00201851
706.878	-0.000193634
706.956	0.00207161
707.035	0.00493591
707.113	0.00786774
707.191	0.0110728
707.269	0.0142099
707.347	0.0170204
707.425	0.0198051
707.503	0.0225982
707.581	0.0252180
707.660	0.0273212
707.738	0.0292000
707.816	0.0306408
707.894	0.0313615
707.972	0.0317313
708.050	0.0310372
708.128	0.0299457
708.206	0.0284200
708.285	0.0260143
708.363	0.0231026
708.441	0.0195922
708.519	0.0158268
708.597	0.0116992
708.675	0.00755951
708.753	0.00378372
708.831	0.000644073
708.910	-0.00183792
708.988	-0.00323433
709.066	-0.00373970
709.144	-0.00376785
709.222	-0.00263397
709.300	-0.00115669
709.378	0.000881577
709.456	0.00346558
709.535	0.00606125
709.613	0.00902451
709.691	0.0120564
709.769	0.0151308
709.847	0.0179128
709.925	0.0205343
710.003	0.0229608
710.081	0.0249575
710.160	0.0267421
710.238	0.0280867
710.316	0.0287947
710.394	0.0294132
710.472	0.0295606
710.550	0.0291878
710.628	0.0284715
710.706	0.0271510
710.785	0.0256448
710.863	0.0236913
710.941	0.0213443
711.019	0.0187720
711.097	0.0162282
711.175	0.0133972
711.253	0.0106945
711.331	0.00844704
711.410	0.00658302
711.488	0.00502510
711.566	0.00403755
711.644	0.00342613
711.722	0.00339859
711.800	0.00339645
711.878	0.00387398
711.956	0.00456863
712.035	0.00537086
712.113	0.00626823
712.191	0.00764778
712.269	0.00874649
712.347	0.0101188
712.425	0.0114878
712.503	0.0129678
712.581	0.0146628
712.660	0.0162281
712.738	0.0176470
712.816	0.0191145
712.894	0.0206453
712.972	0.0218732
713.050	0.0227910
713.128	0.0235622
713.206	0.0237821
713.285	0.0239572
713.363	0.0237428
713.441	0.0233696
713.519	0.0227348
713.597	0.0219349
713.675	0.0210283
713.753	0.0198841
713.831	0.0187055
713.910	0.0173676
713.988	0.0159396
714.066	0.0144824
714.144	0.0131046
714.222	0.0116725
714.300	0.0107330
714.378	0.00973694
714.456	0.00888199
714.535	0.00818237
714.613	0.00782211
714.691	0.00769852
714.769	0.00741051
714.847	0.00755394
714.925	0.00812645
715.003	0.00849609
715.081	0.00903671
715.160	0.00949509
715.238	0.0103806
715.316	0.0110326
715.394	0.0117195
715.472	0.0124509
715.550	0.0134609
715.628	0.0143330
715.706	0.0151431
715.785	0.0161055
715.863	0.0170818
715.941	0.0179798
716.019	0.0187740
716.097	0.0196288
716.175	0.0200958
716.253	0.0209431
716.331	0.0212836
716.410	0.0214994
716.488	0.0215794
716.566	0.0213039
716.644	0.0210484
716.722	0.0204100
716.800	0.0193822
716.878	0.0184007
716.956	0.0174424
717.035	0.0162453
717.113	0.0151747
717.191	0.0141251
717.269	0.0132517
717.347	0.0126405
717.425	0.0120859
717.503	0.0116604
717.581	0.0113937
717.660	0.0111508
717.738	0.0110773
717.816	0.0107824
717.894	0.0108649
717.972	0.0108412
718.050	0.0110062
718.128	0.0111869
718.206	0.0114070
718.285	0.0116350
718.363	0.0119267
718.441	0.0121047
718.519	0.0124477
718.597	0.0129278
718.675	0.0131507
718.753	0.0134422
718.831	0.0136681
718.910	0.0139107
718.988	0.0143217
719.066	0.0146377
719.144	0.0148614
719.222	0.0150599
719.300	0.0155212
719.378	0.0159146
719.456	0.0161864
719.535	0.0164237
719.613	0.0166993
719.691	0.0168276
719.769	0.0170238
719.847	0.0170050
719.925	0.0171415
720.003	0.0170149
720.081	0.0170753
720.160	0.0170388
720.238	0.0167272
720.316	0.0166296
720.394	0.0164526
720.472	0.0163532
720.550	0.0161891
720.628	0.0162092
720.706	0.0163589
720.785	0.0162586
720.863	0.0163792
720.941	0.0165176
721.019	0.0164245
721.097	0.0163188
721.175	0.0160748
721.253	0.0157779
721.331	0.0149861
721.410	0.0149205
721.488	0.0142864
721.566	0.0138665
721.644	0.0136125
721.722	0.0131916
721.800	0.0126939
721.878	0.0121752
721.956	0.0119605
722.035	0.0116010
722.113	0.0114249
722.191	0.0112399
722.269	0.0113206
722.347	0.0113806
722.425	0.0112742
722.503	0.0116518
722.581	0.0119587
722.660	0.0123899
722.738	0.0128896
722.816	0.0134243
722.894	0.0141840
722.972	0.0146306
723.050	0.0152457
723.128	0.0155943
723.206	0.0160329
723.285	0.0165012
723.363	0.0170068
723.441	0.0172547
723.519	0.0174981
723.597	0.0175669
723.675	0.0177132
723.753	0.0176501
723.831	0.0172645
723.910	0.0170322
723.988	0.0168011
724.066	0.0164559
724.144	0.0162337
724.222	0.0161570
724.300	0.0159981
724.378	0.0159299
724.456	0.0158573
724.535	0.0158323
724.613	0.0156104
724.691	0.0155833
724.769	0.0152135
724.847	0.0150863
724.925	0.0149662
725.003	0.0146928
725.081	0.0146119
725.160	0.0144254
725.238	0.0143246
725.316	0.0141348
725.394	0.0139146
725.472	0.0139693
725.550	0.0137068
725.628	0.0135273
725.706	0.0133728
725.785	0.0133920
725.863	0.0132142
725.941	0.0129622
726.019	0.0128976
726.097	0.0127747
726.175	0.0128195
726.253	0.0128951
726.331	0.0130282
726.410	0.0129436
726.488	0.0130947
726.566	0.0132619
726.644	0.0134309
726.722	0.0135368
726.800	0.0136658
726.878	0.0139213
726.956	0.0140310
727.035	0.0145956
727.113	0.0148343
727.191	0.0153323
727.269	0.0155791
727.347	0.0159993
727.425	0.0162554
727.503	0.0167149
727.581	0.0168781
727.660	0.0171962
727.738	0.0171203
727.816	0.0173306
727.894	0.0173108
727.972	0.0173166
728.050	0.0169827
728.128	0.0165470
728.206	0.0164147
728.285	0.0160419
728.363	0.0157392
728.441	0.0156820
728.519	0.0152814
728.597	0.0153200
728.675	0.0151970
728.753	0.0151051
728.831	0.0149604
728.910	0.0149818
728.988	0.0149635
729.066	0.0147019
729.144	0.0148308
729.222	0.0146856
729.300	0.0144700
729.378	0.0144678
729.456	0.0144016
729.535	0.0140764
729.613	0.0138818
729.691	0.0135672
729.769	0.0132924
729.847	0.0132839
729.925	0.0131539
730.003	0.0127804
730.081	0.0131551
730.160	0.0130818
730.238	0.0129925
730.316	0.0130000
730.394	0.0132621
730.472	0.0134629
730.550	0.0135753
730.628	0.0137771
730.706	0.0138792
730.785	0.0139989
730.863	0.0140514
730.941	0.0140472
731.019	0.0140936
731.097	0.0140739
731.175	0.0140891
731.253	0.0143452
731.331	0.0144460
731.410	0.0147318
731.488	0.0149589
731.566	0.0152335
731.644	0.0154193
731.722	0.0156800
731.800	0.0160258
731.878	0.0162492
731.956	0.0164501
732.035	0.0165665
732.113	0.0166258
732.191	0.0165137
732.269	0.0165572
732.347	0.0162252
732.425	0.0159946
732.503	0.0160326
732.581	0.0159595
732.660	0.0158067
732.738	0.0156400
732.816	0.0158250
732.894	0.0155873
732.972	0.0156568
733.050	0.0156180
733.128	0.0156286
733.206	0.0155754
733.285	0.0153521
733.363	0.0153978
733.441	0.0153716
733.519	0.0151191
733.597	0.0150291
733.675	0.0148030
733.753	0.0146288
733.831	0.0143914
733.910	0.0140792
733.988	0.0139248
734.066	0.0137588
734.144	0.0136316
734.222	0.0134349
734.300	0.0132594
734.378	0.0131663
734.456	0.0129807
734.535	0.0130850
734.613	0.0130334
734.691	0.0131485
734.769	0.0132724
734.847	0.0135176
734.925	0.0135085
735.003	0.0136353
735.081	0.0137171
735.160	0.0137966
735.238	0.0140321
735.316	0.0140350
735.394	0.0141840
735.472	0.0144183
735.550	0.0145670
735.628	0.0149094
735.706	0.0151323
735.785	0.0152856
735.863	0.0154762
735.941	0.0154726
736.019	0.0154803
736.097	0.0156612
736.175	0.0155630
736.253	0.0157787
736.331	0.0156721
736.410	0.0158215
736.488	0.0155476
736.566	0.0153039
736.644	0.0154581
736.722	0.0154800
736.800	0.0153761
736.878	0.0152183
736.956	0.0153258
737.035	0.0150979
737.113	0.0151057
737.191	0.0150327
737.269	0.0149775
737.347	0.0151078
737.425	0.0149437
737.503	0.0149790
737.581	0.0151447
737.660	0.0151862
737.738	0.0154075
737.816	0.0155181
737.894	0.0157490
737.972	0.0157889
738.050	0.0157730
738.128	0.0155311
738.206	0.0154518
738.285	0.0152630
738.363	0.0149220
738.441	0.0146528
738.519	0.0145254
738.597	0.0140569
738.675	0.0139204
738.753	0.0136468
738.831	0.0135454
738.910	0.0134562
738.988	0.0133551
739.066	0.0134836
739.144	0.0135290
739.222	0.0137712
739.300	0.0139306
739.378	0.0141250
739.456	0.0144069
739.535	0.0146794
739.613	0.0147101
739.691	0.0147092
739.769	0.0148622
739.847	0.0150011
739.925	0.0151167
740.003	0.0150068
740.081	0.0148180
740.160	0.0147304
740.238	0.0146125
740.316	0.0147652
740.394	0.0147968
740.472	0.0147249
740.550	0.0148353
740.628	0.0149141
740.706	0.0150565
740.785	0.0150002
740.863	0.0151421
740.941	0.0152570
741.019	0.0152728
741.097	0.0151585
741.175	0.0152254
741.253	0.0150469
741.331	0.0149516
741.410	0.0149442
741.488	0.0147527
741.566	0.0146411
741.644	0.0145554
741.722	0.0144054
741.800	0.0143777
741.878	0.0144473
741.956	0.0144521
742.035	0.0145132
742.113	0.0147488
742.191	0.0146976
742.269	0.0148846
742.347	0.0149712
742.425	0.0150721
742.503	0.0151555
742.581	0.0152046
742.660	0.0150485
742.738	0.0149764
742.816	0.0150788
742.894	0.0150507
742.972	0.0150819
743.050	0.0147721
743.128	0.0147416
743.206	0.0146082
743.285	0.0146135
743.363	0.0146529
743.441	0.0144709
743.519	0.0144859
743.597	0.0145728
743.675	0.0144750
743.753	0.0144519
743.831	0.0144776
743.910	0.0145210
743.988	0.0145809
744.066	0.0144809
744.144	0.0145374
744.222	0.0144364
744.300	0.0144752
744.378	0.0144750
744.456	0.0143358
744.535	0.0143887
744.613	0.0142638
744.691	0.0142216
744.769	0.0142034
744.847	0.0140082
744.925	0.0140380
745.003	0.0141228
745.081	0.0139795
745.160	0.0139664
745.238	0.0140849
745.316	0.0142002
745.394	0.0145171
745.472	0.0147253
745.550	0.0149636
745.628	0.0150723
745.706	0.0153143
745.785	0.0154635
745.863	0.0157752
745.941	0.0159580
746.019	0.0158877
746.097	0.0160812
746.175	0.0160912
746.253	0.0160188
746.331	0.0161835
746.410	0.0161611
746.488	0.0160017
746.566	0.0158762
746.644	0.0157166
746.722	0.0157378
746.800	0.0154840
746.878	0.0153786
746.956	0.0152152
747.035	0.0148650
747.113	0.0148824
747.191	0.0148486
747.269	0.0145658
747.347	0.0146102
747.425	0.0144415
747.503	0.0144199
747.581	0.0144968
747.660	0.0144901
747.738	0.0145609
747.816	0.0144312
747.894	0.0143864
747.972	0.0145754
748.050	0.0144462
748.128	0.0145392
748.206	0.0143745
748.285	0.0144126
748.363	0.0143363
748.441	0.0143691
748.519	0.0143086
748.597	0.0141448
748.675	0.0141444
748.753	0.0140221
748.831	0.0140738
748.910	0.0141241
748.988	0.0142533
749.066	0.0142517
749.144	0.0142988
749.222	0.0144143
749.300	0.0142719
749.378	0.0143602
749.456	0.0145673
749.535	0.0146079
749.613	0.0144982
749.691	0.0146543
749.769	0.0148219
749.847	0.0147552
749.925	0.0148457
750.003	0.0147900
750.081	0.0149716
750.160	0.0150475
750.238	0.0150564
750.316	0.0149928
750.394	0.0150082
750.472	0.0150101
750.550	0.0149094
750.628	0.0149424
750.706	0.0151122
750.785	0.0149336
750.863	0.0150429
750.941	0.0152081
751.019	0.0151577
751.097	0.0153891
751.175	0.0153659
751.253	0.0153558
751.331	0.0154226
751.410	0.0154761
751.488	0.0154082
751.566	0.0153863
751.644	0.0154099
751.722	0.0153824
751.800	0.0153621
751.878	0.0152941
751.956	0.0151351
752.035	0.0150234
752.113	0.0149208
752.191	0.0147714
752.269	0.0148036
752.347	0.0147171
752.425	0.0144913
752.503	0.0145626
752.581	0.0144263
752.660	0.0144885
752.738	0.0146101
752.816	0.0146522
752.894	0.0146464
752.972	0.0146941
753.050	0.0146828
753.128	0.0146725
753.206	0.0146126
753.285	0.0145770
753.363	0.0144205
753.441	0.0145292
753.519	0.0143520
753.597	0.0143547
753.675	0.0144754
753.753	0.0143413
753.831	0.0143257
753.910	0.0143160
753.988	0.0145201
754.066	0.0143198
754.144	0.0144340
754.222	0.0146149
754.300	0.0145444
754.378	0.0146053
754.456	0.0145628
754.535	0.0148409
754.613	0.0147668
754.691	0.0147868
754.769	0.0149438
754.847	0.0148326
754.925	0.0148328
755.003	0.0148721
755.081	0.0150533
755.160	0.0148672
755.238	0.0149100
755.316	0.0149936
755.394	0.0149523
755.472	0.0149550
755.550	0.0150858
755.628	0.0150845
755.706	0.0150990
755.785	0.0151174
755.863	0.0150429
755.941	0.0150772
756.019	0.0150047
756.097	0.0148931
756.175	0.0150094
756.253	0.0150008
756.331	0.0149208
756.410	0.0149059
756.488	0.0150089
756.566	0.0150306
756.644	0.0150249
756.722	0.0148856
756.800	0.0148931
756.878	0.0149483
756.956	0.0148692
757.035	0.0148422
757.113	0.0147411
757.191	0.0148033
757.269	0.0145133
757.347	0.0144297
757.425	0.0143993
757.503	0.0142964
757.581	0.0141751
757.660	0.0138600
757.738	0.0137285
757.816	0.0139055
757.894	0.0138969
757.972	0.0139185
758.050	0.0140208
758.128	0.0141238
758.206	0.0142568
758.285	0.0144084
758.363	0.0145723
758.441	0.0148032
758.519	0.0149603
758.597	0.0151079
758.675	0.0153043
758.753	0.0154366
758.831	0.0154380
758.910	0.0154391
758.988	0.0156056
759.066	0.0155321
759.144	0.0154701
759.222	0.0155486
759.300	0.0154601
759.378	0.0153313
759.456	0.0153852
759.535	0.0153796
759.613	0.0150519
759.691	0.0151610
759.769	0.0150211
759.847	0.0148806
759.925	0.0149382
760.003	0.0150000
760.081	0.0150680
760.160	0.0149713
760.238	0.0149238
760.316	0.0150330
760.394	0.0149533
760.472	0.0149377
760.550	0.0149167
760.628	0.0149446
760.706	0.0148892
760.785	0.0147816
760.863	0.0146832
760.941	0.0145834
761.019	0.0145799
761.097	0.0144419
761.175	0.0143089
761.253	0.0141560
761.331	0.0139938
761.410	0.0137453
761.488	0.0136685
761.566	0.0137471
761.644	0.0135452
761.722	0.0135497
761.800	0.0136206
761.878	0.0139102
761.956	0.0138841
762.035	0.0139417
762.113	0.0141706
762.191	0.0143510
762.269	0.0144810
762.347	0.0146310
762.425	0.0147327
762.503	0.0150040
762.581	0.0153322
762.660	0.0155724
762.738	0.0157689
762.816	0.0157521
762.894	0.0159259
762.972	0.0159032
763.050	0.0159782
763.128	0.0160847
763.206	0.0161110
763.285	0.0161330
763.363	0.0158891
763.441	0.0159147
763.519	0.0157579
763.597	0.0156660
763.675	0.0155687
763.753	0.0154494
763.831	0.0153436
763.910	0.0152435
763.988	0.0150449
764.066	0.0147380
764.144	0.0146201
764.222	0.0144900
764.300	0.0142815
764.378	0.0141945
764.456	0.0141709
764.535	0.0141267
764.613	0.0139191
764.691	0.0139417
764.769	0.0138783
764.847	0.0138537
764.925	0.0137986
765.003	0.0137421
765.081	0.0138623
765.160	0.0136896
765.238	0.0139037
765.316	0.0138623
765.394	0.0140404
765.472	0.0143204
765.550	0.0144179
765.628	0.0144377
765.706	0.0145251
765.785	0.0147862
765.863	0.0149569
765.941	0.0151584
766.019	0.0153300
766.097	0.0154179
766.175	0.0155013
766.253	0.0153394
766.331	0.0154453
766.410	0.0155222
766.488	0.0156744
766.566	0.0155037
766.644	0.0154736
766.722	0.0153192
766.800	0.0152150
766.878	0.0152879
766.956	0.0151099
767.035	0.0151800
767.113	0.0150392
767.191	0.0150255
767.269	0.0150258
767.347	0.0150966
767.425	0.0150402
767.503	0.0151659
767.581	0.0150604
767.660	0.0150140
767.738	0.0150311
767.816	0.0148530
767.894	0.0149095
767.972	0.0148434
768.050	0.0146880
768.128	0.0146920
768.206	0.0145082
768.285	0.0146409
768.363	0.0145197
768.441	0.0145062
768.519	0.0141985
768.597	0.0142868
768.675	0.0143699
768.753	0.0141893
768.831	0.0141432
768.910	0.0142173
768.988	0.0142625
769.066	0.0141255
769.144	0.0143324
769.222	0.0143013
769.300	0.0143767
769.378	0.0143974
769.456	0.0144533
769.535	0.0146226
769.613	0.0145786
769.691	0.0146935
769.769	0.0148160
769.847	0.0148455
769.925	0.0149705
770.003	0.0150089
770.081	0.0149295
770.160	0.0149226
770.238	0.0148825
770.316	0.0147900
770.394	0.0148829
770.472	0.0147521
770.550	0.0147519
770.628	0.0147291
770.706	0.0146936
770.785	0.0147716
770.863	0.0146426
770.941	0.0147385
771.019	0.0150446
771.097	0.0150237
771.175	0.0149695
771.253	0.0149765
771.331	0.0150334
771.410	0.0153575
771.488	0.0152970
771.566	0.0152458
771.644	0.0152111
771.722	0.0150467
771.800	0.0150782
771.878	0.0151068
771.956	0.0149079
772.035	0.0148166
772.113	0.0147466
772.191	0.0147546
772.269	0.0146899
772.347	0.0147214
772.425	0.0145288
772.503	0.0147876
772.581	0.0146777
772.660	0.0146420
772.738	0.0148383
772.816	0.0146858
772.894	0.0146918
772.972	0.0149657
773.050	0.0149331
773.128	0.0149871
773.206	0.0149632
773.285	0.0148675
773.363	0.0148174
773.441	0.0148795
773.519	0.0150102
773.597	0.0147715
773.675	0.0147901
773.753	0.0146924
773.831	0.0148199
773.910	0.0148133
773.988	0.0146606
774.066	0.0147936
774.144	0.0147733
774.222	0.0145460
774.300	0.0147758
774.378	0.0148334
774.456	0.0147678
774.535	0.0147794
774.613	0.0148319
774.691	0.0147794
774.769	0.0148573
774.847	0.0149426
774.925	0.0148334
775.003	0.0149235
775.081	0.0147677
775.160	0.0149641
775.238	0.0148778
775.316	0.0149461
775.394	0.0148540
775.472	0.0148583
775.550	0.0149261
775.628	0.0147723
775.706	0.0146709
775.785	0.0147640
775.863	0.0147373
775.941	0.0147935
776.019	0.0147984
776.097	0.0146404
776.175	0.0147363
776.253	0.0148491
776.331	0.0148981
776.410	0.0148224
776.488	0.0149234
776.566	0.0148705
776.644	0.0148584
776.722	0.0147392
776.800	0.0149218
776.878	0.0147669
776.956	0.0146180
777.035	0.0145952
777.113	0.0144465
777.191	0.0144245
777.269	0.0144877
777.347	0.0144590
777.425	0.0142725
777.503	0.0143269
777.581	0.0142570
777.660	0.0142651
777.738	0.0143183
777.816	0.0143236
777.894	0.0143925
777.972	0.0144640
778.050	0.0146069
778.128	0.0146066
778.206	0.0147012
778.285	0.0145980
778.363	0.0148280
778.441	0.0148253
778.519	0.0148732
778.597	0.0149138
778.675	0.0149235
778.753	0.0148899
778.831	0.0149136
778.910	0.0152664
778.988	0.0151170
779.066	0.0150290
779.144	0.0151025
779.222	0.0151323
779.300	0.0149341
779.378	0.0152209
779.456	0.0150570
779.535	0.0149340
779.613	0.0148600
779.691	0.0147593
779.769	0.0147979
779.847	0.0148335
779.925	0.0149798
780.003	0.0147997
780.081	0.0148434
780.160	0.0149254
780.238	0.0150246
780.316	0.0151060
780.394	0.0149915
780.472	0.0150246
780.550	0.0150661
780.628	0.0150517
780.706	0.0149046
780.785	0.0150026
780.863	0.0148036
780.941	0.0146897
781.019	0.0147485
781.097	0.0146332
781.175	0.0144633
781.253	0.0144451
781.331	0.0145027
781.410	0.0144384
781.488	0.0143827
781.566	0.0144585
781.644	0.0145878
781.722	0.0145851
781.800	0.0145676
781.878	0.0146000
781.956	0.0145794
782.035	0.0147134
782.113	0.0148370
782.191	0.0147479
782.269	0.0145473
782.347	0.0145566
782.425	0.0145467
782.503	0.0144172
782.581	0.0143919
782.660	0.0142993
782.738	0.0142567
782.816	0.0144436
782.894	0.0142859
782.972	0.0142859
783.050	0.0144939
783.128	0.0145087
783.206	0.0145834
783.285	0.0145214
783.363	0.0147588
783.441	0.0146213
783.519	0.0148974
783.597	0.0151684
783.675	0.0150661
783.753	0.0150105
783.831	0.0150140
783.910	0.0150002
783.988	0.0151401
784.066	0.0151706
784.144	0.0150780
784.222	0.0152068
784.300	0.0151565
784.378	0.0152485
784.456	0.0151492
784.535	0.0150864
784.613	0.0151032
784.691	0.0149035
784.769	0.0147618
784.847	0.0147732
784.925	0.0148438
785.003	0.0148676
785.081	0.0147726
785.160	0.0144386
785.238	0.0144511
785.316	0.0144849
785.394	0.0144496
785.472	0.0142557
785.550	0.0142976
785.628	0.0143466
785.706	0.0142156
785.785	0.0142422
785.863	0.0140488
785.941	0.0143343
786.019	0.0143619
786.097	0.0141949
786.175	0.0143519
786.253	0.0144183
786.331	0.0144453
786.410	0.0145695
786.488	0.0145923
786.566	0.0145926
786.644	0.0147546
786.722	0.0148933
786.800	0.0148683
786.878	0.0149241
786.956	0.0151440
787.035	0.0151206
787.113	0.0152321
787.191	0.0153698
787.269	0.0153067
787.347	0.0153944
787.425	0.0153592
787.503	0.0153699
787.581	0.0152941
787.660	0.0153355
787.738	0.0153120
787.816	0.0151402
787.894	0.0150282
787.972	0.0149434
788.050	0.0147958
788.128	0.0147626
788.206	0.0147977
788.285	0.0145667
788.363	0.0144769
788.441	0.0145772
788.519	0.0145141
788.597	0.0145225
788.675	0.0145410
788.753	0.0144921
788.831	0.0145247
788.910	0.0144926
788.988	0.0145765
789.066	0.0146449
789.144	0.0146831
789.222	0.0146593
789.300	0.0146488
789.378	0.0146890
789.456	0.0147308
789.535	0.0145845
789.613	0.0146918
789.691	0.0146433
789.769	0.0145403
789.847	0.0144251
789.925	0.0144286
790.003	0.0145156
790.081	0.0143618
790.160	0.0142939
790.238	0.0144165
790.316	0.0143497
790.394	0.0143512
790.472	0.0144554
790.550	0.0143074
790.628	0.0144647
790.706	0.0145631
790.785	0.0146174
790.863	0.0149021
790.941	0.0148547
791.019	0.0147435
791.097	0.0147604
791.175	0.0150464
791.253	0.0150587
791.331	0.0151947
791.410	0.0151974
791.488	0.0151871
791.566	0.0151703
791.644	0.0152252
791.722	0.0152326
791.800	0.0151309
791.878	0.0151543
791.956	0.0151310
792.035	0.0150394
792.113	0.0148054
792.191	0.0150387
792.269	0.0150780
792.347	0.0149271
792.425	0.0147982
792.503	0.0148797
792.581	0.0149369
792.660	0.0149706
792.738	0.0150729
792.816	0.0147620
792.894	0.0148106
792.972	0.0148731
793.050	0.0146878
793.128	0.0146936
793.206	0.0148003
793.285	0.0146649
793.363	0.0145860
793.441	0.0145306
793.519	0.0144866
793.597	0.0144302
793.675	0.0143641
793.753	0.0143909
793.831	0.0143480
793.910	0.0142378
793.988	0.0144283
794.066	0.0145274
794.144	0.0145016
794.222	0.0145495
794.300	0.0144434
794.378	0.0146534
794.456	0.0146806
794.535	0.0148997
794.613	0.0149113
794.691	0.0149223
794.769	0.0150034
794.847	0.0149311
794.925	0.0150948
795.003	0.0151788
795.081	0.0151035
795.160	0.0151736
795.238	0.0150699
795.316	0.0149242
795.394	0.0152368
795.472	0.0151307
795.550	0.0151286
795.628	0.0150984
795.706	0.0150692
795.785	0.0150705
795.863	0.0150794
795.941	0.0150594
796.019	0.0149323
796.097	0.0148590
796.175	0.0149451
796.253	0.0149445
796.331	0.0150495
796.410	0.0148965
796.488	0.0148148
796.566	0.0148523
796.644	0.0147703
796.722	0.0146695
796.800	0.0145434
796.878	0.0145253
796.956	0.0144489
797.035	0.0144014
797.113	0.0144232
797.191	0.0144133
797.269	0.0145233
797.347	0.0142870
797.425	0.0142849
797.503	0.0144298
797.581	0.0142677
797.660	0.0143732
797.738	0.0145507
797.816	0.0144756
797.894	0.0144580
797.972	0.0144965
798.050	0.0143761
798.128	0.0145604
798.206	0.0144938
798.285	0.0146418
798.363	0.0146474
798.441	0.0146828
798.519	0.0145527
798.597	0.0145837
798.675	0.0147013
798.753	0.0146761
798.831	0.0147301
798.910	0.0148237
798.988	0.0147106
799.066	0.0149641
799.144	0.0147597
799.222	0.0148573
799.300	0.0148163
799.378	0.0149775
799.456	0.0149993
799.535	0.0150799
799.613	0.0151199
799.691	0.0152600
799.769	0.0152592
799.847	0.0151817
799.925	0.0151378
800.003	0.0151362
800.081	0.0151472
800.160	0.0149049
800.238	0.0148227
800.316	0.0149626
800.394	0.0149059
800.472	0.0145987
800.550	0.0146342
800.628	0.0146706
800.706	0.0146359
800.785	0.0146525
800.863	0.0145548
800.941	0.0146033
801.019	0.0146617
801.097	0.0147188
801.175	0.0148352
801.253	0.0150536
801.331	0.0150940
801.410	0.0153693
801.488	0.0153900
801.566	0.0155067
801.644	0.0157254
801.722	0.0156669
801.800	0.0155674
801.878	0.0154686
801.956	0.0153371
802.035	0.0150416
802.113	0.0147965
802.191	0.0143876
802.269	0.0141626
802.347	0.0139091
802.425	0.0137057
802.503	0.0135953
802.581	0.0134898
802.660	0.0134240
802.738	0.0134480
802.816	0.0136373
802.894	0.0136631
802.972	0.0139474
803.050	0.0140342
803.128	0.0142959
803.206	0.0145001
803.285	0.0148008
803.363	0.0150398
803.441	0.0153273
803.519	0.0155167
803.597	0.0157645
803.675	0.0160696
803.753	0.0161059
803.831	0.0161033
803.910	0.0162582
803.988	0.0163763
804.066	0.0162841
804.144	0.0161761
804.222	0.0160245
804.300	0.0157398
804.378	0.0157024
804.456	0.0154675
804.535	0.0151823
804.613	0.0146748
804.691	0.0144012
804.769	0.0142069
804.847	0.0137656
804.925	0.0135048
805.003	0.0133945
805.081	0.0132611
805.160	0.0133315
805.238	0.0131937
805.316	0.0130314
805.394	0.0130988
805.472	0.0131360
805.550	0.0133418
805.628	0.0135188
805.706	0.0136298
805.785	0.0138029
805.863	0.0139072
805.941	0.0142188
806.019	0.0143905
806.097	0.0147234
806.175	0.0148727
806.253	0.0151997
806.331	0.0154131
806.410	0.0156895
806.488	0.0158725
806.566	0.0160230
806.644	0.0161822
806.722	0.0161435
806.800	0.0162922
806.878	0.0162963
806.956	0.0162819
807.035	0.0161842
807.113	0.0161559
807.191	0.0159504
807.269	0.0156208
807.347	0.0154984
807.425	0.0151318
807.503	0.0149332
807.581	0.0147289
807.660	0.0146631
807.738	0.0145321
807.816	0.0142879
807.894	0.0141018
807.972	0.0141210
808.050	0.0140572
808.128	0.0139772
808.206	0.0140491
808.285	0.0139719
808.363	0.0138607
808.441	0.0138107
808.519	0.0138792
808.597	0.0138593
808.675	0.0139621
808.753	0.0142139
808.831	0.0141166
808.910	0.0142186
808.988	0.0143707
809.066	0.0144653
809.144	0.0147256
809.222	0.0148022
809.300	0.0148373
809.378	0.0150336
809.456	0.0152487
809.535	0.0152038
809.613	0.0153058
809.691	0.0153694
809.769	0.0153436
809.847	0.0154873
809.925	0.0153667
810.003	0.0155037
810.081	0.0153465
810.160	0.0152276
810.238	0.0153129
810.316	0.0150819
810.394	0.0150181
810.472	0.0150294
810.550	0.0149192
810.628	0.0148719
810.706	0.0147456
810.785	0.0148061
810.863	0.0148320
810.941	0.0148085
811.019	0.0146444
811.097	0.0147168
811.175	0.0147569
811.253	0.0146400
811.331	0.0146477
811.410	0.0146143
811.488	0.0145914
811.566	0.0145526
811.644	0.0145277
811.722	0.0144666
811.800	0.0142583
811.878	0.0142426
811.956	0.0142637
812.035	0.0142893
812.113	0.0143864
812.191	0.0142715
812.269	0.0144529
812.347	0.0144222
812.425	0.0144497
812.503	0.0145325
812.581	0.0144864
812.660	0.0146746
812.738	0.0146315
812.816	0.0147272
812.894	0.0148825
812.972	0.0149146
813.050	0.0146587
813.128	0.0146939
813.206	0.0147706
813.285	0.0147539
813.363	0.0147704
813.441	0.0148707
813.519	0.0148168
813.597	0.0148193
813.675	0.0148732
813.753	0.0148685
813.831	0.0149364
813.910	0.0150143
813.988	0.0150497
814.066	0.0149603
814.144	0.0150701
814.222	0.0149030
814.300	0.0149933
814.378	0.0149909
814.456	0.0149863
814.535	0.0148963
814.613	0.0149495
814.691	0.0149921
814.769	0.0148544
814.847	0.0148384
814.925	0.0147282
815.003	0.0149036
815.081	0.0147440
815.160	0.0146754
815.238	0.0147303
815.316	0.0147462
815.394	0.0146798
815.472	0.0146146
815.550	0.0146053
815.628	0.0146304
815.706	0.0147676
815.785	0.0147509
815.863	0.0146736
815.941	0.0147567
816.019	0.0147183
816.097	0.0148401
816.175	0.0148787
816.253	0.0148596
816.331	0.0149714
816.410	0.0149059
816.488	0.0150677
816.566	0.0150414
816.644	0.0149721
816.722	0.0150735
816.800	0.0150596
816.878	0.0150125
816.956	0.0150031
817.035	0.0151324
817.113	0.0148251
817.191	0.0148905
817.269	0.0147762
817.347	0.0149065
817.425	0.0147861
817.503	0.0147345
817.581	0.0146681
817.660	0.0145988
817.738	0.0146574
817.816	0.0146568
817.894	0.0145226
817.972	0.0145464
818.050	0.0145682
818.128	0.0146175
818.206	0.0145667
818.285	0.0144334
818.363	0.0144129
818.441	0.0145461
818.519	0.0144799
818.597	0.0145465
818.675	0.0145360
818.753	0.0145283
818.831	0.0145325
818.910	0.0146564
818.988	0.0146573
819.066	0.0146462
819.144	0.0146689
819.222	0.0146908
819.300	0.0147659
819.378	0.0148061
819.456	0.0148289
819.535	0.0149857
819.613	0.0149295
819.691	0.0151402
819.769	0.0150182
819.847	0.0150951
819.925	0.0152464
820.003	0.0151022
820.081	0.0151880
820.160	0.0150788
820.238	0.0150764
820.316	0.0151012
820.394	0.0151211
820.472	0.0151198
820.550	0.0150961
820.628	0.0149278
820.706	0.0149249
820.785	0.0146524
820.863	0.0147561
820.941	0.0148050
821.019	0.0147585
821.097	0.0146578
821.175	0.0146136
821.253	0.0146787
821.331	0.0145658
821.410	0.0147153
821.488	0.0146682
821.566	0.0147324
821.644	0.0147838
821.722	0.0147941
821.800	0.0148931
821.878	0.0148179
821.956	0.0147964
822.035	0.0148362
822.113	0.0149041
822.191	0.0150480
822.269	0.0151186
822.347	0.0150368
822.425	0.0150323
822.503	0.0150727
822.581	0.0150842
822.660	0.0150075
822.738	0.0150809
822.816	0.0150350
822.894	0.0150994
822.972	0.0150883
823.050	0.0149584
823.128	0.0148380
823.206	0.0149002
823.285	0.0148771
823.363	0.0147471
823.441	0.0147437
823.519	0.0146990
823.597	0.0145647
823.675	0.0145496
823.753	0.0146573
823.831	0.0145925
823.910	0.0145615
823.988	0.0145208
824.066	0.0145252
824.144	0.0143703
824.222	0.0145651
824.300	0.0145189
824.378	0.0144521
824.456	0.0146331
824.535	0.0145881
824.613	0.0145705
824.691	0.0146738
824.769	0.0150006
824.847	0.0150490
824.925	0.0150331
825.003	0.0150118
825.081	0.0150621
825.160	0.0153328
825.238	0.0153948
825.316	0.0153683
825.394	0.0154624
825.472	0.0154581
825.550	0.0153324
825.628	0.0152744
825.706	0.0154548
825.785	0.0153149
825.863	0.0150377
825.941	0.0151467
826.019	0.0151526
826.097	0.0150175
826.175	0.0148336
826.253	0.0148695
826.331	0.0146004
826.410	0.0146229
826.488	0.0144427
826.566	0.0145699
826.644	0.0146245
826.722	0.0145624
826.800	0.0145039
826.878	0.0144817
826.956	0.0146829
827.035	0.0146470
827.113	0.0144994
827.191	0.0145199
827.269	0.0146483
827.347	0.0147793
827.425	0.0148083
827.503	0.0145791
827.581	0.0144659
827.660	0.0145927
827.738	0.0145303
827.816	0.0143998
827.894	0.0144260
827.972	0.0144888
828.050	0.0143689
828.128	0.0143482
828.206	0.0144474
828.285	0.0144795
828.363	0.0145480
828.441	0.0146445
828.519	0.0149489
828.597	0.0148748
828.675	0.0148698
828.753	0.0152196
828.831	0.0155341
828.910	0.0155962
828.988	0.0156134
829.066	0.0158936
829.144	0.0158311
829.222	0.0159574
829.300	0.0160688
829.378	0.0159207
829.456	0.0158288
829.535	0.0156769
829.613	0.0155231
829.691	0.0154100
829.769	0.0151492
829.847	0.0148494
829.925	0.0147771
830.003	0.0146124
830.081	0.0143025
830.160	0.0141856
830.238	0.0140252
830.316	0.0139470
830.394	0.0137303
830.472	0.0138803
830.550	0.0139784
830.628	0.0138264
830.706	0.0139111
830.785	0.0140715
830.863	0.0141832
830.941	0.0142491
831.019	0.0142837
831.097	0.0144395
831.175	0.0145963
831.253	0.0146983
831.331	0.0149581
831.410	0.0151262
831.488	0.0151759
831.566	0.0152474
831.644	0.0154710
831.722	0.0153366
831.800	0.0153403
831.878	0.0153719
831.956	0.0152321
832.035	0.0153054
832.113	0.0153574
832.191	0.0151528
832.269	0.0149848
832.347	0.0150283
832.425	0.0150102
832.503	0.0149303
832.581	0.0148068
832.660	0.0147913
832.738	0.0147049
832.816	0.0147481
832.894	0.0147768
832.972	0.0146127
833.050	0.0147046
833.128	0.0146420
833.206	0.0147837
833.285	0.0147137
833.363	0.0146120
833.441	0.0146500
833.519	0.0148665
833.597	0.0148622
833.675	0.0147395
833.753	0.0146739
833.831	0.0148117
833.910	0.0148818
833.988	0.0149712
834.066	0.0147756
834.144	0.0149216
834.222	0.0148848
834.300	0.0149277
834.378	0.0149141
834.456	0.0149808
834.535	0.0149383
834.613	0.0148379
834.691	0.0147631
834.769	0.0148704
834.847	0.0148673
834.925	0.0146413
835.003	0.0146524
835.081	0.0146012
835.160	0.0144173
835.238	0.0144988
835.316	0.0145238
835.394	0.0143803
835.472	0.0145033
835.550	0.0145160
835.628	0.0143468
835.706	0.0142834
835.785	0.0143111
835.863	0.0142568
835.941	0.0143476
836.019	0.0144418
836.097	0.0144021
836.175	0.0143557
836.253	0.0144675
836.331	0.0146385
836.410	0.0146510
836.488	0.0146945
836.566	0.0148409
836.644	0.0148972
836.722	0.0150190
836.800	0.0150812
836.878	0.0153043
836.956	0.0152694
837.035	0.0153497
837.113	0.0153026
837.191	0.0154059
837.269	0.0154058
837.347	0.0154699
837.425	0.0154234
837.503	0.0154647
837.581	0.0154144
837.660	0.0153677
837.738	0.0153644
837.816	0.0153694
837.894	0.0153947
837.972	0.0151021
838.050	0.0150028
838.128	0.0149259
838.206	0.0149365
838.285	0.0148274
838.363	0.0146326
838.441	0.0144781
838.519	0.0145091
838.597	0.0143932
838.675	0.0143137
838.753	0.0141717
838.831	0.0141217
838.910	0.0140759
838.988	0.0139217
839.066	0.0139258
839.144	0.0137550
839.222	0.0137762
839.300	0.0137272
839.378	0.0139906
839.456	0.0139882
839.535	0.0140528
839.613	0.0141608
839.691	0.0141051
839.769	0.0142458
839.847	0.0144670
839.925	0.0147918
840.003	0.0147625
840.081	0.0149165
840.160	0.0151667
840.238	0.0152631
840.316	0.0152554
840.394	0.0153355
840.472	0.0155315
840.550	0.0155050
840.628	0.0157256
840.706	0.0155228
840.785	0.0154276
840.863	0.0154625
840.941	0.0157196
841.019	0.0156362
841.097	0.0154890
841.175	0.0153959
841.253	0.0153024
841.331	0.0150985
841.410	0.0150585
841.488	0.0148643
841.566	0.0147802
841.644	0.0145245
841.722	0.0143945
841.800	0.0145368
841.878	0.0144850
841.956	0.0143410
842.035	0.0143504
842.113	0.0142847
842.191	0.0142439
842.269	0.0143418
842.347	0.0143474
842.425	0.0143904
842.503	0.0143621
842.581	0.0144125
842.660	0.0145274
842.738	0.0145989
842.816	0.0146687
842.894	0.0147108
842.972	0.0147835
843.050	0.0147872
843.128	0.0147327
843.206	0.0148235
843.285	0.0148769
843.363	0.0149503
843.441	0.0148855
843.519	0.0148681
843.597	0.0148694
843.675	0.0148022
843.753	0.0148762
843.831	0.0147511
843.910	0.0147492
843.988	0.0147690
844.066	0.0146892
844.144	0.0147192
844.222	0.0146734
844.300	0.0147118
844.378	0.0147892
844.456	0.0149726
844.535	0.0150105
844.613	0.0148708
844.691	0.0149623
844.769	0.0150185
844.847	0.0152869
844.925	0.0151454
845.003	0.0151236
845.081	0.0151792
845.160	0.0150259
845.238	0.0152413
845.316	0.0151574
845.394	0.0151675
845.472	0.0151025
845.550	0.0150895
845.628	0.0150761
845.706	0.0151351
845.785	0.0151598
845.863	0.0150906
845.941	0.0149079
846.019	0.0149239
846.097	0.0149400
846.175	0.0146792
846.253	0.0146378
846.331	0.0146496
846.410	0.0144611
846.488	0.0143114
846.566	0.0143563
846.644	0.0141725
846.722	0.0140188
846.800	0.0140087
846.878	0.0140284
846.956	0.0139475
847.035	0.0139672
847.113	0.0140936
847.191	0.0141521
847.269	0.0141296
847.347	0.0141476
847.425	0.0141384
847.503	0.0142560
847.581	0.0143967
847.660	0.0145982
847.738	0.0146820
847.816	0.0146835
847.894	0.0147060
847.972	0.0147997
848.050	0.0150968
848.128	0.0150610
848.206	0.0152617
848.285	0.0153352
848.363	0.0153799
848.441	0.0154441
848.519	0.0155886
848.597	0.0157649
848.675	0.0156598
848.753	0.0156649
848.831	0.0156231
848.910	0.0156183
848.988	0.0155590
849.066	0.0153874
849.144	0.0150836
849.222	0.0150580
849.300	0.0151147
849.378	0.0149979
849.456	0.0147347
849.535	0.0145285
849.613	0.0143288
849.691	0.0143343
849.769	0.0143995
849.847	0.0144247
849.925	0.0143528
850.003	0.0143436
850.081	0.0143343
850.160	0.0144704
850.238	0.0144420
850.316	0.0145477
850.394	0.0144846
850.472	0.0144578
850.550	0.0144952
850.628	0.0146323
850.706	0.0145812
850.785	0.0145531
850.863	0.0147046
850.941	0.0145741
851.019	0.0146810
851.097	0.0146419
851.175	0.0145464
851.253	0.0146513
851.331	0.0148227
851.410	0.0148602
851.488	0.0147785
851.566	0.0148646
851.644	0.0149419
851.722	0.0151357
851.800	0.0149824
851.878	0.0148766
851.956	0.0150993
852.035	0.0151260
852.113	0.0150112
852.191	0.0151308
852.269	0.0151006
852.347	0.0152012
852.425	0.0153926
852.503	0.0153111
852.581	0.0152356
852.660	0.0154103
852.738	0.0151754
852.816	0.0150965
852.894	0.0151850
852.972	0.0150687
853.050	0.0150549
853.128	0.0149683
853.206	0.0150189
853.285	0.0150159
853.363	0.0148888
853.441	0.0148158
853.519	0.0148531
853.597	0.0149189
853.675	0.0147167
853.753	0.0147690
853.831	0.0147012
853.910	0.0145782
853.988	0.0145480
854.066	0.0147892
854.144	0.0146352
854.222	0.0145747
854.300	0.0146726
854.378	0.0147416
854.456	0.0146083
854.535	0.0145219
854.613	0.0145646
854.691	0.0145343
854.769	0.0145783
854.847	0.0145196
854.925	0.0146075
855.003	0.0144342
855.081	0.0143689
855.160	0.0145248
855.238	0.0144202
855.316	0.0144412
855.394	0.0147012
855.472	0.0146512
855.550	0.0146009
855.628	0.0146638
855.706	0.0145094
855.785	0.0146868
855.863	0.0148722
855.941	0.0147940
856.019	0.0148363
856.097	0.0148392
856.175	0.0149402
856.253	0.0148048
856.331	0.0148887
856.410	0.0148909
856.488	0.0150869
856.566	0.0150524
856.644	0.0150459
856.722	0.0150610
856.800	0.0148704
856.878	0.0150063
856.956	0.0149105
857.035	0.0149486
857.113	0.0149818
857.191	0.0150524
857.269	0.0149209
857.347	0.0148166
857.425	0.0149043
857.503	0.0147221
857.581	0.0148583
857.660	0.0147456
857.738	0.0147167
857.816	0.0147329
857.894	0.0146849
857.972	0.0146770
858.050	0.0145094
858.128	0.0145184
858.206	0.0145850
858.285	0.0144707
858.363	0.0144378
858.441	0.0144861
858.519	0.0145396
858.597	0.0145986
858.675	0.0146096
858.753	0.0144991
858.831	0.0147396
858.910	0.0146135
858.988	0.0148554
859.066	0.0149066
859.144	0.0147530
859.222	0.0149559
859.300	0.0149474
859.378	0.0149603
859.456	0.0148515
859.535	0.0148840
859.613	0.0148672
859.691	0.0149282
859.769	0.0148474
859.847	0.0147239
859.925	0.0150185
860.003	0.0148949
860.081	0.0148316
860.160	0.0148438
860.238	0.0148811
860.316	0.0149020
860.394	0.0149918
860.472	0.0150245
860.550	0.0150103
860.628	0.0147824
860.706	0.0148737
860.785	0.0149055
860.863	0.0148677
860.941	0.0149065
861.019	0.0149279
861.097	0.0148556
861.175	0.0149055
861.253	0.0149395
861.331	0.0148519
861.410	0.0148447
861.488	0.0148548
861.566	0.0148466
861.644	0.0149336
861.722	0.0148695
861.800	0.0148705
861.878	0.0148013
861.956	0.0148308
862.035	0.0148378
862.113	0.0147462
862.191	0.0146524
862.269	0.0146727
862.347	0.0146595
862.425	0.0146588
862.503	0.0146377
862.581	0.0145044
862.660	0.0145836
862.738	0.0147622
862.816	0.0145187
862.894	0.0148032
862.972	0.0146890
863.050	0.0146579
863.128	0.0146856
863.206	0.0146930
863.285	0.0147777
863.363	0.0146924
863.441	0.0146527
863.519	0.0146063
863.597	0.0144733
863.675	0.0145109
863.753	0.0146137
863.831	0.0145505
863.910	0.0145093
863.988	0.0146000
864.066	0.0146442
864.144	0.0144158
864.222	0.0145711
864.300	0.0146311
864.378	0.0146703
864.456	0.0146851
864.535	0.0147115
864.613	0.0149270
864.691	0.0147292
864.769	0.0148539
864.847	0.0150215
864.925	0.0149643
865.003	0.0149970
865.081	0.0149274
865.160	0.0147852
865.238	0.0149075
865.316	0.0148603
865.394	0.0148460
865.472	0.0148157
865.550	0.0146189
865.628	0.0145103
865.706	0.0146823
865.785	0.0145798
865.863	0.0143633
865.941	0.0145527
866.019	0.0145433
866.097	0.0145048
866.175	0.0145197
866.253	0.0143874
866.331	0.0145837
866.410	0.0146346
866.488	0.0147086
866.566	0.0147447
866.644	0.0148240
866.722	0.0147770
866.800	0.0148341
866.878	0.0148169
866.956	0.0150596
867.035	0.0148108
867.113	0.0150256
867.191	0.0149519
867.269	0.0149886
867.347	0.0149277
867.425	0.0148249
867.503	0.0148292
867.581	0.0148208
867.660	0.0148599
867.738	0.0146088
867.816	0.0144963
867.894	0.0146002
867.972	0.0144835
868.050	0.0146260
868.128	0.0146443
868.206	0.0144358
868.285	0.0146249
868.363	0.0147164
868.441	0.0147418
868.519	0.0147413
868.597	0.0148792
868.675	0.0148624
868.753	0.0150594
868.831	0.0150563
868.910	0.0149328
868.988	0.0151152
869.066	0.0151934
869.144	0.0150589
869.222	0.0151821
869.300	0.0151739
869.378	0.0150707
869.456	0.0151008
869.535	0.0151285
869.613	0.0150907
869.691	0.0150423
869.769	0.0150633
869.847	0.0149311
869.925	0.0148917
870.003	0.0148645
870.081	0.0148496
870.160	0.0147718
870.238	0.0146490
870.316	0.0144522
870.394	0.0145766
870.472	0.0145012
870.550	0.0143338
870.628	0.0143903
870.706	0.0142770
870.785	0.0144412
870.863	0.0143858
870.941	0.0143701
871.019	0.0144032
871.097	0.0145284
871.175	0.0144997
871.253	0.0145233
871.331	0.0145873
871.410	0.0146247
871.488	0.0146472
871.566	0.0146932
871.644	0.0146132
871.722	0.0147107
871.800	0.0146592
871.878	0.0147563
871.956	0.0148042
872.035	0.0146995
872.113	0.0148296
872.191	0.0149434
872.269	0.0147106
872.347	0.0147180
872.425	0.0148861
872.503	0.0148544
872.581	0.0149230
872.660	0.0149000
872.738	0.0147617
872.816	0.0146924
872.894	0.0147595
872.972	0.0147459
873.050	0.0148663
873.128	0.0148508
873.206	0.0147918
873.285	0.0149233
873.363	0.0149110
873.441	0.0149940
873.519	0.0150764
873.597	0.0151343
873.675	0.0149829
873.753	0.0151906
873.831	0.0151514
873.910	0.0150507
873.988	0.0149467
874.066	0.0149940
874.144	0.0148115
874.222	0.0148333
874.300	0.0147977
874.378	0.0148634
874.456	0.0148442
874.535	0.0145679
874.613	0.0146069
874.691	0.0144362
874.769	0.0145019
874.847	0.0144348
874.925	0.0145000
875.003	0.0144568
875.081	0.0144491
875.160	0.0144102
875.238	0.0144165
875.316	0.0145539
875.394	0.0146079
875.472	0.0145084
875.550	0.0146424
875.628	0.0147089
875.706	0.0149115
875.785	0.0147911
875.863	0.0148796
875.941	0.0148994
876.019	0.0149889
876.097	0.0149586
876.175	0.0148994
876.253	0.0149812
876.331	0.0149463
876.410	0.0147533
876.488	0.0147772
876.566	0.0149027
876.644	0.0149911
876.722	0.0148874
876.800	0.0146996
876.878	0.0147585
876.956	0.0148360
877.035	0.0146134
877.113	0.0146322
877.191	0.0146169
877.269	0.0147055
877.347	0.0145487
877.425	0.0146405
877.503	0.0146459
877.581	0.0146082
877.660	0.0144994
877.738	0.0145076
877.816	0.0148213
877.894	0.0146230
877.972	0.0147057
878.050	0.0146702
878.128	0.0147776
878.206	0.0148247
878.285	0.0147250
878.363	0.0146652
878.441	0.0148519
878.519	0.0147289
878.597	0.0147707
878.675	0.0147935
878.753	0.0148027
878.831	0.0147427
878.910	0.0148538
878.988	0.0147636
879.066	0.0147041
879.144	0.0146667
879.222	0.0146622
879.300	0.0147003
879.378	0.0147816
879.456	0.0147343
879.535	0.0148687
879.613	0.0146902
879.691	0.0147388
879.769	0.0149541
879.847	0.0147759
879.925	0.0147816
880.003	0.0151191
880.081	0.0149168
880.160	0.0148518
880.238	0.0149377
880.316	0.0150629
880.394	0.0150650
880.472	0.0150953
880.550	0.0151675
880.628	0.0150739
880.706	0.0150278
880.785	0.0150628
880.863	0.0152068
880.941	0.0150648
881.019	0.0149532
881.097	0.0150708
881.175	0.0151259
881.253	0.0150576
881.331	0.0149963
881.410	0.0151116
881.488	0.0149937
881.566	0.0148128
881.644	0.0149644
881.722	0.0147070
881.800	0.0146365
881.878	0.0148515
881.956	0.0148174
882.035	0.0147332
882.113	0.0145489
882.191	0.0144962
882.269	0.0144527
882.347	0.0144003
882.425	0.0143199
882.503	0.0143497
882.581	0.0143382
882.660	0.0144303
882.738	0.0143484
882.816	0.0143195
882.894	0.0143575
882.972	0.0142689
883.050	0.0143713
883.128	0.0143091
883.206	0.0144446
883.285	0.0145241
883.363	0.0145950
883.441	0.0145354
883.519	0.0146898
883.597	0.0147504
883.675	0.0146503
883.753	0.0147221
883.831	0.0146553
883.910	0.0148278
883.988	0.0149403
884.066	0.0150298
884.144	0.0148127
884.222	0.0150295
884.300	0.0150239
884.378	0.0151760
884.456	0.0150726
884.535	0.0148663
884.613	0.0150497
884.691	0.0149944
884.769	0.0148615
884.847	0.0148423
884.925	0.0148412
885.003	0.0149415
885.081	0.0149101
885.160	0.0148631
885.238	0.0148074
885.316	0.0149177
885.394	0.0148723
885.472	0.0147974
885.550	0.0148950
885.628	0.0147911
885.706	0.0147395
885.785	0.0147889
885.863	0.0147534
885.941	0.0145872
886.019	0.0147066
886.097	0.0146587
886.175	0.0147302
886.253	0.0147166
886.331	0.0147379
886.410	0.0147721
886.488	0.0148174
886.566	0.0148808
886.644	0.0146618
886.722	0.0146729
886.800	0.0147484
886.878	0.0146525
886.956	0.0146280
887.035	0.0146540
887.113	0.0148112
887.191	0.0145642
887.269	0.0147129
887.347	0.0148214
887.425	0.0147237
887.503	0.0146813
887.581	0.0148780
887.660	0.0147878
887.738	0.0146677
887.816	0.0145899
887.894	0.0147972
887.972	0.0145927
888.050	0.0146221
888.128	0.0146393
888.206	0.0146962
888.285	0.0144700
888.363	0.0143837
888.441	0.0145897
888.519	0.0146046
888.597	0.0146119
888.675	0.0145502
888.753	0.0147432
888.831	0.0147796
888.910	0.0147454
888.988	0.0148119
889.066	0.0148729
889.144	0.0150151
889.222	0.0148498
889.300	0.0149795
889.378	0.0151216
889.456	0.0152185
889.535	0.0150820
889.613	0.0150407
889.691	0.0150722
889.769	0.0150257
889.847	0.0151914
889.925	0.0150436
890.003	0.0149526
890.081	0.0148415
890.160	0.0147961
890.238	0.0147266
890.316	0.0147989
890.394	0.0146824
890.472	0.0148653
890.550	0.0146056
890.628	0.0146734
890.706	0.0147237
890.785	0.0146698
890.863	0.0147152
890.941	0.0147036
891.019	0.0147256
891.097	0.0147141
891.175	0.0147455
891.253	0.0148366
891.331	0.0147025
891.410	0.0146141
891.488	0.0147370
891.566	0.0146574
891.644	0.0146762
891.722	0.0144987
891.800	0.0146225
891.878	0.0145504
891.956	0.0145243
892.035	0.0144849
892.113	0.0145341
892.191	0.0143991
892.269	0.0146422
892.347	0.0144705
892.425	0.0145374
892.503	0.0146066
892.581	0.0146436
892.660	0.0146257
892.738	0.0147619
892.816	0.0148077
892.894	0.0147401
892.972	0.0148162
893.050	0.0148820
893.128	0.0149436
893.206	0.0148571
893.285	0.0148170
893.363	0.0149805
893.441	0.0149632
893.519	0.0148691
893.597	0.0150217
893.675	0.0149356
893.753	0.0149417
893.831	0.0149070
893.910	0.0149856
893.988	0.0150782
894.066	0.0150841
894.144	0.0149932
894.222	0.0149303
894.300	0.0148692
894.378	0.0148502
894.456	0.0148723
894.535	0.0148139
894.613	0.0147624
894.691	0.0147163
894.769	0.0147169
894.847	0.0146616
894.925	0.0146572
895.003	0.0145072
895.081	0.0145130
895.160	0.0144737
895.238	0.0145377
895.316	0.0146703
895.394	0.0145743
895.472	0.0146968
895.550	0.0147553
895.628	0.0147123
895.706	0.0148978
895.785	0.0148539
895.863	0.0148985
895.941	0.0149754
896.019	0.0150053
896.097	0.0149856
896.175	0.0148379
896.253	0.0148154
896.331	0.0147783
896.410	0.0147643
896.488	0.0147046
896.566	0.0148380
896.644	0.0148141
896.722	0.0148259
896.800	0.0150676
896.878	0.0153345
896.956	0.0152238
897.035	0.0154505
897.113	0.0155324
897.191	0.0155594
897.269	0.0156255
897.347	0.0157314
897.425	0.0156012
897.503	0.0153972
897.581	0.0150679
897.660	0.0149369
897.738	0.0146693
897.816	0.0142974
897.894	0.0138952
897.972	0.0137932
898.050	0.0136462
898.128	0.0132969
898.206	0.0134888
898.285	0.0136123
898.363	0.0140180
898.441	0.0143642
898.519	0.0146360
898.597	0.0151440
898.675	0.0156062
898.753	0.0158229
898.831	0.0160860
898.910	0.0161266
898.988	0.0162923
899.066	0.0161824
899.144	0.0159853
899.222	0.0159038
899.300	0.0157591
899.378	0.0154937
899.456	0.0153094
899.535	0.0149422
899.613	0.0148315
899.691	0.0145439
899.769	0.0142798
899.847	0.0140302
899.925	0.0138031
900.003	0.0134946
900.081	0.0131280
900.160	0.0128889
900.238	0.0127715
900.316	0.0126996
900.394	0.0128167
900.472	0.0130498
900.550	0.0132358
900.628	0.0134912
900.706	0.0138123
900.785	0.0142080
900.863	0.0148074
900.941	0.0153078
901.019	0.0158672
901.097	0.0160869
901.175	0.0164109
901.253	0.0165533
901.331	0.0168539
901.410	0.0169352
901.488	0.0168395
901.566	0.0167198
901.644	0.0166661
901.722	0.0166187
901.800	0.0164552
901.878	0.0161623
901.956	0.0158710
902.035	0.0155867
902.113	0.0151421
902.191	0.0151926
902.269	0.0147124
902.347	0.0145190
902.425	0.0142966
902.503	0.0137294
902.581	0.0135658
902.660	0.0133519
902.738	0.0129845
902.816	0.0128302
902.894	0.0129141
902.972	0.0127755
903.050	0.0127679
903.128	0.0130287
903.206	0.0131902
903.285	0.0133716
903.363	0.0135506
903.441	0.0139220
903.519	0.0142624
903.597	0.0148067
903.675	0.0149165
903.753	0.0151697
903.831	0.0155404
903.910	0.0157516
903.988	0.0158601
904.066	0.0159975
904.144	0.0161094
904.222	0.0162131
904.300	0.0163895
904.378	0.0163495
904.456	0.0162637
904.535	0.0162183
904.613	0.0162648
904.691	0.0162640
904.769	0.0161055
904.847	0.0159732
904.925	0.0160448
905.003	0.0158079
905.081	0.0156312
905.160	0.0154428
905.238	0.0152049
905.316	0.0149646
905.394	0.0147063
905.472	0.0145132
905.550	0.0142362
905.628	0.0141216
905.706	0.0138382
905.785	0.0135460
905.863	0.0135413
905.941	0.0135668
906.019	0.0134977
906.097	0.0133582
906.175	0.0134416
906.253	0.0135703
906.331	0.0136514
906.410	0.0136384
906.488	0.0138106
906.566	0.0140822
906.644	0.0141011
906.722	0.0142687
906.800	0.0144534
906.878	0.0146576
906.956	0.0148234
907.035	0.0149602
907.113	0.0151869
907.191	0.0152183
907.269	0.0151922
907.347	0.0153132
907.425	0.0154425
907.503	0.0156972
907.581	0.0155846
907.660	0.0156564
907.738	0.0158547
907.816	0.0158208
907.894	0.0157513
907.972	0.0157439
908.050	0.0157268
908.128	0.0158143
908.206	0.0155634
908.285	0.0153627
908.363	0.0151537
908.441	0.0151230
908.519	0.0150373
908.597	0.0147914
908.675	0.0146616
908.753	0.0144909
908.831	0.0142692
908.910	0.0143688
908.988	0.0142756
909.066	0.0142614
909.144	0.0141988
909.222	0.0142113
909.300	0.0143230
909.378	0.0143421
909.456	0.0145432
909.535	0.0145042
909.613	0.0145871
909.691	0.0145589
909.769	0.0146581
909.847	0.0147240
909.925	0.0147182
910.003	0.0144948
910.081	0.0144823
910.160	0.0145384
910.238	0.0146372
910.316	0.0145188
910.394	0.0145899
910.472	0.0146088
910.550	0.0146229
910.628	0.0144875
910.706	0.0147153
910.785	0.0148510
910.863	0.0148384
910.941	0.0150352
911.019	0.0150626
911.097	0.0150657
911.175	0.0152223
911.253	0.0152739
911.331	0.0151165
911.410	0.0152422
911.488	0.0152879
911.566	0.0151900
911.644	0.0154380
911.722	0.0152765
911.800	0.0150986
911.878	0.0152995
911.956	0.0151373
912.035	0.0152026
912.113	0.0151723
912.191	0.0150753
912.269	0.0150578
912.347	0.0151053
912.425	0.0151865
912.503	0.0149953
912.581	0.0149504
912.660	0.0148750
912.738	0.0149179
912.816	0.0148573
912.894	0.0147581
912.972	0.0147371
913.050	0.0147282
913.128	0.0146243
913.206	0.0147689
913.285	0.0145354
913.363	0.0146624
913.441	0.0146697
913.519	0.0145704
913.597	0.0145883
913.675	0.0147298
913.753	0.0145320
913.831	0.0146007
913.910	0.0145496
913.988	0.0145403
914.066	0.0144257
914.144	0.0145486
914.222	0.0144813
914.300	0.0145583
914.378	0.0143983
914.456	0.0143999
914.535	0.0143817
914.613	0.0144788
914.691	0.0145130
914.769	0.0146352
914.847	0.0146184
914.925	0.0146316
915.003	0.0147498
915.081	0.0148080
915.160	0.0149851
915.238	0.0148280
915.316	0.0148748
915.394	0.0149509
915.472	0.0148161
915.550	0.0149499
915.628	0.0149410
915.706	0.0149821
915.785	0.0149481
915.863	0.0149632
915.941	0.0150811
916.019	0.0152522
916.097	0.0151131
916.175	0.0149741
916.253	0.0149776
916.331	0.0150755
916.410	0.0150723
916.488	0.0152035
916.566	0.0150622
916.644	0.0151278
916.722	0.0150961
916.800	0.0151070
916.878	0.0150840
916.956	0.0150507
917.035	0.0149961
917.113	0.0149863
917.191	0.0149709
917.269	0.0150308
917.347	0.0149713
917.425	0.0148722
917.503	0.0146704
917.581	0.0146703
917.660	0.0146622
917.738	0.0146851
917.816	0.0145541
917.894	0.0145090
917.972	0.0145951
918.050	0.0144405
918.128	0.0144423
918.206	0.0143732
918.285	0.0143590
918.363	0.0143133
918.441	0.0143966
918.519	0.0144724
918.597	0.0145293
918.675	0.0144085
918.753	0.0145917
918.831	0.0146769
918.910	0.0148277
918.988	0.0147559
919.066	0.0149944
919.144	0.0152343
919.222	0.0150795
919.300	0.0151271
919.378	0.0152464
919.456	0.0152083
919.535	0.0152399
919.613	0.0152335
919.691	0.0151649
919.769	0.0151492
919.847	0.0152552
919.925	0.0152538
920.003	0.0151584
920.081	0.0152235
920.160	0.0152489
920.238	0.0151985
920.316	0.0152588
920.394	0.0150822
920.472	0.0152054
920.550	0.0149627
920.628	0.0151241
920.706	0.0151777
920.785	0.0151588
920.863	0.0151365
920.941	0.0149780
921.019	0.0150232
921.097	0.0149240
921.175	0.0148282
921.253	0.0146766
921.331	0.0147689
921.410	0.0146062
921.488	0.0146538
921.566	0.0145431
921.644	0.0142042
921.722	0.0140946
921.800	0.0142747
921.878	0.0142632
921.956	0.0142046
922.035	0.0143520
922.113	0.0143488
922.191	0.0143352
922.269	0.0142929
922.347	0.0143829
922.425	0.0145292
922.503	0.0145427
922.581	0.0145612
922.660	0.0146149
922.738	0.0146790
922.816	0.0146252
922.894	0.0148242
922.972	0.0149126
923.050	0.0149562
923.128	0.0150709
923.206	0.0152467
923.285	0.0151258
923.363	0.0152477
923.441	0.0152795
923.519	0.0153758
923.597	0.0153966
923.675	0.0153841
923.753	0.0154446
923.831	0.0152699
923.910	0.0154068
923.988	0.0153831
924.066	0.0152336
924.144	0.0153271
924.222	0.0149801
924.300	0.0150238
924.378	0.0150187
924.456	0.0148174
924.535	0.0147463
924.613	0.0146465
924.691	0.0146069
924.769	0.0148010
924.847	0.0145841
924.925	0.0146722
925.003	0.0147756
925.081	0.0147045
925.160	0.0146669
925.238	0.0146346
925.316	0.0147889
925.394	0.0147354
925.472	0.0149038
925.550	0.0149283
925.628	0.0149215
925.706	0.0150301
925.785	0.0150978
925.863	0.0150512
925.941	0.0150874
926.019	0.0152127
926.097	0.0150430
926.175	0.0149468
926.253	0.0149738
926.331	0.0150158
926.410	0.0149686
926.488	0.0148631
926.566	0.0147897
926.644	0.0146230
926.722	0.0147643
926.800	0.0146508
926.878	0.0145441
926.956	0.0145930
927.035	0.0145259
927.113	0.0146210
927.191	0.0145870
927.269	0.0146682
927.347	0.0146786
927.425	0.0147282
927.503	0.0148775
927.581	0.0150330
927.660	0.0150508
927.738	0.0149733
927.816	0.0150128
927.894	0.0150266
927.972	0.0151099
928.050	0.0151253
928.128	0.0150361
928.206	0.0150694
928.285	0.0150648
928.363	0.0151306
928.441	0.0151065
928.519	0.0148869
928.597	0.0148833
928.675	0.0149007
928.753	0.0148338
928.831	0.0147991
928.910	0.0146734
928.988	0.0146008
929.066	0.0146400
929.144	0.0147676
929.222	0.0146750
929.300	0.0143938
929.378	0.0145219
929.456	0.0143488
929.535	0.0144974
929.613	0.0145523
929.691	0.0146916
929.769	0.0144461
929.847	0.0144240
929.925	0.0144929
930.003	0.0146756
930.081	0.0147264
930.160	0.0145772
930.238	0.0147127
930.316	0.0146046
930.394	0.0147599
930.472	0.0147557
930.550	0.0148324
930.628	0.0147836
930.706	0.0149632
930.785	0.0149545
930.863	0.0150445
930.941	0.0149311
931.019	0.0150928
931.097	0.0151401
931.175	0.0152361
931.253	0.0151105
931.331	0.0152316
931.410	0.0152866
931.488	0.0151854
931.566	0.0151706
931.644	0.0150531
931.722	0.0150138
931.800	0.0149057
931.878	0.0148286
931.956	0.0149049
932.035	0.0147351
932.113	0.0148251
932.191	0.0146468
932.269	0.0147375
932.347	0.0146735
932.425	0.0145935
932.503	0.0146033
932.581	0.0145446
932.660	0.0145678
932.738	0.0145134
932.816	0.0145805
932.894	0.0145032
932.972	0.0144566
933.050	0.0144711
933.128	0.0145020
933.206	0.0145821
933.285	0.0146864
933.363	0.0146407
933.441	0.0147747
933.519	0.0148357
933.597	0.0148741
933.675	0.0147913
933.753	0.0149031
933.831	0.0150106
933.910	0.0150579
933.988	0.0149448
934.066	0.0149993
934.144	0.0150333
934.222	0.0148663
934.300	0.0150070
934.378	0.0150288
934.456	0.0149783
934.535	0.0148635
934.613	0.0149816
934.691	0.0148161
934.769	0.0149654
934.847	0.0148740
934.925	0.0147259
935.003	0.0146378
935.081	0.0147630
935.160	0.0146789
935.238	0.0145592
935.316	0.0144377
935.394	0.0144357
935.472	0.0145737
935.550	0.0145947
935.628	0.0145026
935.706	0.0146314
935.785	0.0145686
935.863	0.0144949
935.941	0.0145074
936.019	0.0146507
936.097	0.0147334
936.175	0.0147425
936.253	0.0147697
936.331	0.0148260
936.410	0.0147942
936.488	0.0147353
936.566	0.0148733
936.644	0.0147601
936.722	0.0148702
936.800	0.0148840
936.878	0.0148427
936.956	0.0147831
937.035	0.0148449
937.113	0.0148705
937.191	0.0148536
937.269	0.0148380
937.347	0.0148617
937.425	0.0148867
937.503	0.0147899
937.581	0.0148319
937.660	0.0147127
937.738	0.0146197
937.816	0.0147108
937.894	0.0145996
937.972	0.0145000
938.050	0.0145230
938.128	0.0144816
938.206	0.0145200
938.285	0.0144372
938.363	0.0144555
938.441	0.0143885
938.519	0.0145058
938.597	0.0146092
938.675	0.0146880
938.753	0.0147890
938.831	0.0147482
938.910	0.0147292
938.988	0.0147628
939.066	0.0148442
939.144	0.0148664
939.222	0.0149624
939.300	0.0149624
939.378	0.0149395
939.456	0.0149133
939.535	0.0148199
939.613	0.0149673
939.691	0.0148759
939.769	0.0148660
939.847	0.0149678
939.925	0.0148174
940.003	0.0148856
940.081	0.0146944
940.160	0.0147968
940.238	0.0149993
940.316	0.0147800
940.394	0.0148861
940.472	0.0147946
940.550	0.0147723
940.628	0.0147688
940.706	0.0147958
940.785	0.0148939
940.863	0.0146831
940.941	0.0148078
941.019	0.0148661
941.097	0.0146431
941.175	0.0147604
941.253	0.0147813
941.331	0.0146133
941.410	0.0147878
941.488	0.0147033
941.566	0.0147421
941.644	0.0147477
941.722	0.0147874
941.800	0.0144488
941.878	0.0147840
941.956	0.0147157
942.035	0.0147046
942.113	0.0147942
942.191	0.0147598
942.269	0.0148381
942.347	0.0147411
942.425	0.0147137
942.503	0.0148514
942.581	0.0148154
942.660	0.0148220
942.738	0.0149300
942.816	0.0148317
942.894	0.0148965
942.972	0.0149207
943.050	0.0149923
943.128	0.0149707
943.206	0.0149098
943.285	0.0149593
943.363	0.0150469
943.441	0.0148144
943.519	0.0146767
943.597	0.0147081
943.675	0.0147077
943.753	0.0145837
943.831	0.0146366
943.910	0.0145683
943.988	0.0145504
944.066	0.0145557
944.144	0.0146600
944.222	0.0145683
944.300	0.0146220
944.378	0.0147776
944.456	0.0146950
944.535	0.0147914
944.613	0.0148641
944.691	0.0147257
944.769	0.0148114
944.847	0.0147004
944.925	0.0148616
945.003	0.0148146
945.081	0.0147591
945.160	0.0149078
945.238	0.0149247
945.316	0.0149921
945.394	0.0149520
945.472	0.0148473
945.550	0.0148750
945.628	0.0148982
945.706	0.0148437
945.785	0.0149523
945.863	0.0150604
945.941	0.0151543
946.019	0.0150374
946.097	0.0151688
946.175	0.0151176
946.253	0.0150368
946.331	0.0150400
946.410	0.0150358
946.488	0.0151644
946.566	0.0150684
946.644	0.0150691
946.722	0.0148760
946.800	0.0150326
946.878	0.0148718
946.956	0.0146915
947.035	0.0147345
947.113	0.0148427
947.191	0.0147353
947.269	0.0146159
947.347	0.0147039
947.425	0.0147029
947.503	0.0144095
947.581	0.0146214
947.660	0.0147216
947.738	0.0143845
947.816	0.0145113
947.894	0.0145249
947.972	0.0143708
948.050	0.0144588
948.128	0.0144834
948.206	0.0143741
948.285	0.0144196
948.363	0.0144134
948.441	0.0145485
948.519	0.0145859
948.597	0.0146043
948.675	0.0145828
948.753	0.0145676
948.831	0.0147965
948.910	0.0147110
948.988	0.0147274
949.066	0.0148325
949.144	0.0148602
949.222	0.0148065
949.300	0.0148395
949.378	0.0148717
949.456	0.0150087
949.535	0.0149561
949.613	0.0149544
949.691	0.0148938
949.769	0.0148875
949.847	0.0149285
949.925	0.0150353
950.003	0.0148795
950.081	0.0149249
950.160	0.0151602
950.238	0.0150371
950.316	0.0148582
950.394	0.0150013
950.472	0.0149838
950.550	0.0150301
950.628	0.0150079
950.706	0.0150446
950.785	0.0150150
950.863	0.0150808
950.941	0.0149026
951.019	0.0150097
951.097	0.0148849
951.175	0.0148980
951.253	0.0148239
951.331	0.0148551
951.410	0.0148746
951.488	0.0147623
951.566	0.0148705
951.644	0.0148948
951.722	0.0148212
951.800	0.0148094
951.878	0.0146857
951.956	0.0146404
952.035	0.0145634
952.113	0.0146558
952.191	0.0147001
952.269	0.0146091
952.347	0.0147198
952.425	0.0148958
952.503	0.0146291
952.581	0.0145945
952.660	0.0147417
952.738	0.0148456
952.816	0.0146946
952.894	0.0147295
952.972	0.0145695
953.050	0.0147044
953.128	0.0146156
953.206	0.0144565
953.285	0.0145087
953.363	0.0144669
953.441	0.0144689
953.519	0.0142406
953.597	0.0141870
953.675	0.0142533
953.753	0.0143829
953.831	0.0142594
953.910	0.0143636
953.988	0.0143712
954.066	0.0144596
954.144	0.0144169
954.222	0.0144578
954.300	0.0145527
954.378	0.0146639
954.456	0.0146823
954.535	0.0149525
954.613	0.0150848
954.691	0.0150512
954.769	0.0152583
954.847	0.0152567
954.925	0.0152397
955.003	0.0153117
955.081	0.0154430
955.160	0.0154063
955.238	0.0155371
955.316	0.0155397
955.394	0.0154779
955.472	0.0155973
955.550	0.0155838
955.628	0.0152776
955.706	0.0153474
955.785	0.0152593
955.863	0.0152014
955.941	0.0149960
956.019	0.0150282
956.097	0.0148629
956.175	0.0147615
956.253	0.0147182
956.331	0.0144061
956.410	0.0145662
956.488	0.0143478
956.566	0.0142560
956.644	0.0142822
956.722	0.0140712
956.800	0.0140746
956.878	0.0140369
956.956	0.0140210
957.035	0.0140318
957.113	0.0140730
957.191	0.0140475
957.269	0.0139800
957.347	0.0141368
957.425	0.0143486
957.503	0.0142899
957.581	0.0142535
957.660	0.0143723
957.738	0.0145529
957.816	0.0145338
957.894	0.0145533
957.972	0.0145100
958.050	0.0146138
958.128	0.0147120
958.206	0.0146236
958.285	0.0145414
958.363	0.0146480
958.441	0.0145118
958.519	0.0145084
958.597	0.0146003
958.675	0.0144128
958.753	0.0145737
958.831	0.0144728
958.910	0.0145838
958.988	0.0145617
959.066	0.0145366
959.144	0.0146244
959.222	0.0146236
959.300	0.0146581
959.378	0.0146928
959.456	0.0146622
959.535	0.0147928
959.613	0.0147416
959.691	0.0148849
959.769	0.0149902
959.847	0.0150379
959.925	0.0150218
960.003	0.0149189
960.081	0.0149396
960.160	0.0149560
960.238	0.0149854
960.316	0.0150616
960.394	0.0150083
960.472	0.0149694
960.550	0.0148654
960.628	0.0146969
960.706	0.0148113
960.785	0.0148626
960.863	0.0145889
960.941	0.0145856
961.019	0.0145889
961.097	0.0146181
961.175	0.0146244
961.253	0.0146593
961.331	0.0146139
961.410	0.0146574
961.488	0.0145362
961.566	0.0144540
961.644	0.0144723
961.722	0.0144258
961.800	0.0143218
961.878	0.0144452
961.956	0.0144645
962.035	0.0145829
962.113	0.0145119
962.191	0.0145631
962.269	0.0146486
962.347	0.0145618
962.425	0.0144395
962.503	0.0145347
962.581	0.0146312
962.660	0.0146809
962.738	0.0145790
962.816	0.0147966
962.894	0.0148206
962.972	0.0148647
963.050	0.0148302
963.128	0.0148313
963.206	0.0150998
963.285	0.0150585
963.363	0.0151501
963.441	0.0151279
963.519	0.0151756
963.597	0.0150638
963.675	0.0150102
963.753	0.0150204
963.831	0.0149330
963.910	0.0148859
963.988	0.0149545
964.066	0.0149882
964.144	0.0148869
964.222	0.0147214
964.300	0.0149326
964.378	0.0148256
964.456	0.0148094
964.535	0.0147115
964.613	0.0149519
964.691	0.0148294
964.769	0.0148473
964.847	0.0147151
964.925	0.0146382
965.003	0.0148182
965.081	0.0147814
965.160	0.0148103
965.238	0.0148335
965.316	0.0147519
965.394	0.0148309
965.472	0.0149107
965.550	0.0148784
965.628	0.0149277
965.706	0.0148429
965.785	0.0147781
965.863	0.0147646
965.941	0.0147775
966.019	0.0148061
966.097	0.0147660
966.175	0.0147259
966.253	0.0148233
966.331	0.0147959
966.410	0.0148425
966.488	0.0147803
966.566	0.0148999
966.644	0.0147196
966.722	0.0148185
966.800	0.0147314
966.878	0.0148117
966.956	0.0147710
967.035	0.0146429
967.113	0.0145776
967.191	0.0146986
967.269	0.0147459
967.347	0.0145601
967.425	0.0146321
967.503	0.0146255
967.581	0.0146848
967.660	0.0147210
967.738	0.0145351
967.816	0.0145960
967.894	0.0146581
967.972	0.0145016
968.050	0.0145477
968.128	0.0144235
968.206	0.0146604
968.285	0.0146143
968.363	0.0144189
968.441	0.0144505
968.519	0.0146490
968.597	0.0145805
968.675	0.0145618
968.753	0.0146367
968.831	0.0147001
968.910	0.0145291
968.988	0.0145695
969.066	0.0147189
969.144	0.0147855
969.222	0.0147969
969.300	0.0147811
969.378	0.0148290
969.456	0.0149448
969.535	0.0150141
969.613	0.0149804
969.691	0.0150616
969.769	0.0149416
969.847	0.0149501
969.925	0.0150521
970.003	0.0151054
970.081	0.0150339
970.160	0.0150153
970.238	0.0150212
970.316	0.0149757
970.394	0.0148451
970.472	0.0148238
970.550	0.0148476
970.628	0.0146430
970.706	0.0146664
970.785	0.0147513
970.863	0.0146872
970.941	0.0146022
971.019	0.0146806
971.097	0.0146066
971.175	0.0146401
971.253	0.0146621
971.331	0.0146626
971.410	0.0146365
971.488	0.0146738
971.566	0.0146992
971.644	0.0146980
971.722	0.0145766
971.800	0.0146333
971.878	0.0148248
971.956	0.0147589
972.035	0.0148424
972.113	0.0147797
972.191	0.0146429
972.269	0.0148199
972.347	0.0148052
972.425	0.0145655
972.503	0.0146165
972.581	0.0145898
972.660	0.0146855
972.738	0.0147852
972.816	0.0147989
972.894	0.0146539
972.972	0.0148145
973.050	0.0147358
973.128	0.0146862
973.206	0.0148026
973.285	0.0147740
973.363	0.0148344
973.441	0.0148047
973.519	0.0147683
973.597	0.0148044
973.675	0.0148154
973.753	0.0148010
973.831	0.0148487
973.910	0.0146483
973.988	0.0147471
974.066	0.0147710
974.144	0.0147111
974.222	0.0147352
974.300	0.0148411
974.378	0.0147437
974.456	0.0149755
974.535	0.0148661
974.613	0.0148331
974.691	0.0148267
974.769	0.0148179
974.847	0.0148402
974.925	0.0148745
975.003	0.0149140
975.081	0.0149978
975.160	0.0148608
975.238	0.0147444
975.316	0.0147665
975.394	0.0147802
975.472	0.0146685
975.550	0.0147456
975.628	0.0147200
975.706	0.0146164
975.785	0.0147124
975.863	0.0146899
975.941	0.0147894
976.019	0.0147018
976.097	0.0147172
976.175	0.0148240
976.253	0.0146143
976.331	0.0147620
976.410	0.0147994
976.488	0.0148885
976.566	0.0148157
976.644	0.0148414
976.722	0.0147210
976.800	0.0148746
976.878	0.0148358
976.956	0.0147990
977.035	0.0147805
977.113	0.0147676
977.191	0.0147643
977.269	0.0146545
977.347	0.0147566
977.425	0.0148495
977.503	0.0149146
977.581	0.0147253
977.660	0.0147275
977.738	0.0148670
977.816	0.0147960
977.894	0.0147435
977.972	0.0147861
978.050	0.0149765
978.128	0.0148539
978.206	0.0149141
978.285	0.0148215
978.363	0.0149005
978.441	0.0148253
978.519	0.0147720
978.597	0.0147756
978.675	0.0148003
978.753	0.0147799
978.831	0.0148512
978.910	0.0147399
978.988	0.0147739
979.066	0.0148670
979.144	0.0147841
979.222	0.0148472
979.300	0.0148935
979.378	0.0149282
979.456	0.0149313
979.535	0.0148843
979.613	0.0149772
979.691	0.0148228
979.769	0.0146976
979.847	0.0148501
979.925	0.0149464
