05/03/2022	20:15:06	Ver.	4.1	UNKNOWN
Optical Delay	660.003261	Delta X		0.078125	Sweeps	1	Scan Rate	0/0
Coordinates	Axis 1	NaN	Axis 2	NaN	Axis 3	NaN	Axis 4	NaN	Axis 5	NaN	Axis 6	0.000000
TX Power	0.000000	RX Power	0.000000

660.003	0.0143591
660.081	0.0143185
660.160	0.0143045
660.238	0.0141766
660.316	0.0143456
660.394	0.0143050
660.472	0.0142581
660.550	0.0144127
660.628	0.0144572
660.706	0.0144206
660.785	0.0142016
660.863	0.0143172
660.941	0.0143652
661.019	0.0143335
661.097	0.0144104
661.175	0.0144115
661.253	0.0142267
661.331	0.0143251
661.410	0.0143313
661.488	0.0144209
661.566	0.0143835
661.644	0.0143455
661.722	0.0143179
661.800	0.0142885
661.878	0.0143858
661.956	0.0142534
662.035	0.0142584
662.113	0.0144550
662.191	0.0143655
662.269	0.0145380
662.347	0.0143266
662.425	0.0143768
662.503	0.0143713
662.581	0.0144717
662.660	0.0142536
662.738	0.0142272
662.816	0.0144968
662.894	0.0144300
662.972	0.0143428
663.050	0.0143753
663.128	0.0143972
663.206	0.0143317
663.285	0.0143990
663.363	0.0143834
663.441	0.0143992
663.519	0.0142924
663.597	0.0143666
663.675	0.0142600
663.753	0.0142828
663.831	0.0144975
663.910	0.0143723
663.988	0.0143711
664.066	0.0143373
664.144	0.0143282
664.222	0.0143167
664.300	0.0142851
664.378	0.0143666
664.456	0.0143868
664.535	0.0143216
664.613	0.0143924
664.691	0.0143790
664.769	0.0144173
664.847	0.0143907
664.925	0.0142543
665.003	0.0144485
665.081	0.0143586
665.160	0.0142794
665.238	0.0144204
665.316	0.0144079
665.394	0.0142465
665.472	0.0143683
665.550	0.0143006
665.628	0.0142301
665.706	0.0142207
665.785	0.0143176
665.863	0.0142715
665.941	0.0142921
666.019	0.0143343
666.097	0.0144603
666.175	0.0143022
666.253	0.0143034
666.331	0.0142480
666.410	0.0143147
666.488	0.0144446
666.566	0.0143940
666.644	0.0145293
666.722	0.0143373
666.800	0.0142894
666.878	0.0142867
666.956	0.0143180
667.035	0.0143608
667.113	0.0142288
667.191	0.0142381
667.269	0.0143813
667.347	0.0143513
667.425	0.0142881
667.503	0.0144150
667.581	0.0143239
667.660	0.0142154
667.738	0.0142822
667.816	0.0143094
667.894	0.0143677
667.972	0.0143414
668.050	0.0142677
668.128	0.0143070
668.206	0.0142603
668.285	0.0143593
668.363	0.0143921
668.441	0.0142959
668.519	0.0144776
668.597	0.0142858
668.675	0.0143831
668.753	0.0143336
668.831	0.0142695
668.910	0.0142438
668.988	0.0142142
669.066	0.0144026
669.144	0.0143495
669.222	0.0144565
669.300	0.0142873
669.378	0.0142536
669.456	0.0143559
669.535	0.0142434
669.613	0.0142951
669.691	0.0144057
669.769	0.0142992
669.847	0.0143304
669.925	0.0141859
670.003	0.0143507
670.081	0.0144721
670.160	0.0143732
670.238	0.0142890
670.316	0.0144014
670.394	0.0143494
670.472	0.0143449
670.550	0.0143058
670.628	0.0143380
670.706	0.0143365
670.785	0.0144257
670.863	0.0143759
670.941	0.0142866
671.019	0.0143188
671.097	0.0144489
671.175	0.0142973
671.253	0.0143618
671.331	0.0143532
671.410	0.0143421
671.488	0.0142474
671.566	0.0143227
671.644	0.0144889
671.722	0.0142399
671.800	0.0142921
671.878	0.0143967
671.956	0.0143972
672.035	0.0143136
672.113	0.0143867
672.191	0.0144334
672.269	0.0143042
672.347	0.0144762
672.425	0.0145424
672.503	0.0143348
672.581	0.0142017
672.660	0.0144305
672.738	0.0143448
672.816	0.0144294
672.894	0.0145116
672.972	0.0143493
673.050	0.0144062
673.128	0.0143069
673.206	0.0142820
673.285	0.0143011
673.363	0.0143304
673.441	0.0143185
673.519	0.0143951
673.597	0.0143880
673.675	0.0143459
673.753	0.0142120
673.831	0.0142902
673.910	0.0143354
673.988	0.0143257
674.066	0.0144494
674.144	0.0143571
674.222	0.0142667
674.300	0.0143963
674.378	0.0142591
674.456	0.0143145
674.535	0.0143818
674.613	0.0144408
674.691	0.0142699
674.769	0.0143998
674.847	0.0143507
674.925	0.0143903
675.003	0.0143458
675.081	0.0143386
675.160	0.0144976
675.238	0.0143767
675.316	0.0142606
675.394	0.0144325
675.472	0.0144868
675.550	0.0144012
675.628	0.0143958
675.706	0.0141418
675.785	0.0143399
675.863	0.0143250
675.941	0.0144080
676.019	0.0144010
676.097	0.0142473
676.175	0.0143670
676.253	0.0144576
676.331	0.0142802
676.410	0.0143480
676.488	0.0144016
676.566	0.0143485
676.644	0.0143272
676.722	0.0143549
676.800	0.0143287
676.878	0.0143353
676.956	0.0143432
677.035	0.0143943
677.113	0.0142907
677.191	0.0143164
677.269	0.0142445
677.347	0.0143295
677.425	0.0144016
677.503	0.0144028
677.581	0.0143399
677.660	0.0142852
677.738	0.0143218
677.816	0.0142129
677.894	0.0144289
677.972	0.0143484
678.050	0.0143218
678.128	0.0143262
678.206	0.0143512
678.285	0.0143510
678.363	0.0143481
678.441	0.0142093
678.519	0.0142036
678.597	0.0144216
678.675	0.0143549
678.753	0.0143369
678.831	0.0142765
678.910	0.0143352
678.988	0.0144286
679.066	0.0143047
679.144	0.0143332
679.222	0.0143736
679.300	0.0142499
679.378	0.0142216
679.456	0.0143575
679.535	0.0143481
679.613	0.0142245
679.691	0.0143117
679.769	0.0142503
679.847	0.0142619
679.925	0.0143583
680.003	0.0144180
680.081	0.0142961
680.160	0.0143523
680.238	0.0143805
680.316	0.0143002
680.394	0.0142669
680.472	0.0142670
680.550	0.0142567
680.628	0.0142931
680.706	0.0142134
680.785	0.0145077
680.863	0.0144260
680.941	0.0143477
681.019	0.0143066
681.097	0.0143411
681.175	0.0141840
681.253	0.0143958
681.331	0.0144663
681.410	0.0143792
681.488	0.0142616
681.566	0.0143610
681.644	0.0144317
681.722	0.0143375
681.800	0.0143304
681.878	0.0142904
681.956	0.0144848
682.035	0.0143790
682.113	0.0142072
682.191	0.0144028
682.269	0.0144434
682.347	0.0143975
682.425	0.0142998
682.503	0.0144421
682.581	0.0143772
682.660	0.0143345
682.738	0.0144675
682.816	0.0143761
682.894	0.0142870
682.972	0.0144012
683.050	0.0142712
683.128	0.0143314
683.206	0.0143549
683.285	0.0142977
683.363	0.0143413
683.441	0.0144575
683.519	0.0142926
683.597	0.0143861
683.675	0.0143803
683.753	0.0143014
683.831	0.0142466
683.910	0.0144092
683.988	0.0143420
684.066	0.0142017
684.144	0.0142005
684.222	0.0142772
684.300	0.0143665
684.378	0.0143264
684.456	0.0143880
684.535	0.0144723
684.613	0.0143552
684.691	0.0142968
684.769	0.0143048
684.847	0.0143219
684.925	0.0142355
685.003	0.0142707
685.081	0.0143542
685.160	0.0141409
685.238	0.0144074
685.316	0.0143806
685.394	0.0143994
685.472	0.0143151
685.550	0.0142928
685.628	0.0144840
685.706	0.0144056
685.785	0.0143554
685.863	0.0141658
685.941	0.0142609
686.019	0.0143349
686.097	0.0143287
686.175	0.0141877
686.253	0.0143053
686.331	0.0144832
686.410	0.0142978
686.488	0.0143319
686.566	0.0143933
686.644	0.0143220
686.722	0.0143453
686.800	0.0143764
686.878	0.0142696
686.956	0.0144710
687.035	0.0142635
687.113	0.0143087
687.191	0.0142454
687.269	0.0141844
687.347	0.0144084
687.425	0.0144769
687.503	0.0143196
687.581	0.0143773
687.660	0.0143295
687.738	0.0143993
687.816	0.0142413
687.894	0.0143171
687.972	0.0143845
688.050	0.0142842
688.128	0.0144131
688.206	0.0144447
688.285	0.0142611
688.363	0.0142480
688.441	0.0144079
688.519	0.0144267
688.597	0.0143349
688.675	0.0143069
688.753	0.0142590
688.831	0.0143109
688.910	0.0143621
688.988	0.0143761
689.066	0.0144397
689.144	0.0143674
689.222	0.0143872
689.300	0.0142955
689.378	0.0142779
689.456	0.0143139
689.535	0.0142642
689.613	0.0143055
689.691	0.0143549
689.769	0.0142615
689.847	0.0143422
689.925	0.0142956
690.003	0.0142706
690.081	0.0142442
690.160	0.0142975
690.238	0.0143203
690.316	0.0144525
690.394	0.0144398
690.472	0.0142587
690.550	0.0144291
690.628	0.0143781
690.706	0.0143758
690.785	0.0142651
690.863	0.0143652
690.941	0.0142950
691.019	0.0142928
691.097	0.0143431
691.175	0.0144335
691.253	0.0143512
691.331	0.0143974
691.410	0.0143076
691.488	0.0142835
691.566	0.0143884
691.644	0.0144047
691.722	0.0143517
691.800	0.0145113
691.878	0.0143762
691.956	0.0143761
692.035	0.0143360
692.113	0.0143711
692.191	0.0144648
692.269	0.0143701
692.347	0.0144939
692.425	0.0145528
692.503	0.0144935
692.581	0.0143644
692.660	0.0142966
692.738	0.0144833
692.816	0.0143369
692.894	0.0143902
692.972	0.0143561
693.050	0.0144067
693.128	0.0143764
693.206	0.0146151
693.285	0.0144288
693.363	0.0144093
693.441	0.0143195
693.519	0.0143814
693.597	0.0143954
693.675	0.0144872
693.753	0.0143665
693.831	0.0142729
693.910	0.0143842
693.988	0.0143959
694.066	0.0142444
694.144	0.0143310
694.222	0.0141888
694.300	0.0143623
694.378	0.0142816
694.456	0.0144167
694.535	0.0142565
694.613	0.0143343
694.691	0.0143904
694.769	0.0142310
694.847	0.0143660
694.925	0.0143250
695.003	0.0143821
695.081	0.0143710
695.160	0.0142859
695.238	0.0143703
695.316	0.0144041
695.394	0.0144559
695.472	0.0143370
695.550	0.0142400
695.628	0.0141565
695.706	0.0145113
695.785	0.0143600
695.863	0.0143396
695.941	0.0143909
696.019	0.0142993
696.097	0.0143768
696.175	0.0143507
696.253	0.0143498
696.331	0.0142838
696.410	0.0143288
696.488	0.0142268
696.566	0.0142605
696.644	0.0143097
696.722	0.0143506
696.800	0.0143892
696.878	0.0143012
696.956	0.0143154
697.035	0.0143179
697.113	0.0142873
697.191	0.0143956
697.269	0.0144528
697.347	0.0143430
697.425	0.0143085
697.503	0.0143699
697.581	0.0141901
697.660	0.0143012
697.738	0.0144184
697.816	0.0143658
697.894	0.0142706
697.972	0.0144002
698.050	0.0142672
698.128	0.0142074
698.206	0.0143162
698.285	0.0143578
698.363	0.0143212
698.441	0.0144540
698.519	0.0144181
698.597	0.0142677
698.675	0.0142563
698.753	0.0141504
698.831	0.0143517
698.910	0.0143122
698.988	0.0143816
699.066	0.0143904
699.144	0.0143293
699.222	0.0142767
699.300	0.0142973
699.378	0.0143188
699.456	0.0143661
699.535	0.0142848
699.613	0.0143027
699.691	0.0142891
699.769	0.0143070
699.847	0.0144416
699.925	0.0143861
700.003	0.0143403
700.081	0.0142914
700.160	0.0143753
700.238	0.0142841
700.316	0.0143685
700.394	0.0143617
700.472	0.0144630
700.550	0.0144348
700.628	0.0145981
700.706	0.0145275
700.785	0.0143828
700.863	0.0144665
700.941	0.0144131
701.019	0.0145438
701.097	0.0145583
701.175	0.0144231
701.253	0.0145066
701.331	0.0145399
701.410	0.0144911
701.488	0.0144439
701.566	0.0145294
701.644	0.0144941
701.722	0.0143425
701.800	0.0144038
701.878	0.0144398
701.956	0.0144454
702.035	0.0144167
702.113	0.0143625
702.191	0.0143488
702.269	0.0140844
702.347	0.0140730
702.425	0.0140312
702.503	0.0139814
702.581	0.0139879
702.660	0.0138461
702.738	0.0139124
702.816	0.0139046
702.894	0.0141479
702.972	0.0143478
703.050	0.0145939
703.128	0.0150024
703.206	0.0152621
703.285	0.0153024
703.363	0.0151944
703.441	0.0151687
703.519	0.0145945
703.597	0.0140458
703.675	0.0133385
703.753	0.0126195
703.831	0.0120534
703.910	0.0114709
703.988	0.0114292
704.066	0.0113679
704.144	0.0116465
704.222	0.0118806
704.300	0.0123670
704.378	0.0132628
704.456	0.0141105
704.535	0.0151797
704.613	0.0164717
704.691	0.0177253
704.769	0.0190114
704.847	0.0204053
704.925	0.0213936
705.003	0.0221860
705.081	0.0223879
705.160	0.0222386
705.238	0.0216438
705.316	0.0202415
705.394	0.0182447
705.472	0.0158944
705.550	0.0130200
705.628	0.0100673
705.706	0.00693512
705.785	0.00424469
705.863	0.00212265
705.941	0.000968628
706.019	0.000714188
706.097	0.00157051
706.175	0.00299850
706.253	0.00502975
706.331	0.00751579
706.410	0.0100353
706.488	0.0125296
706.566	0.0148816
706.644	0.0168250
706.722	0.0184035
706.800	0.0201963
706.878	0.0218240
706.956	0.0232967
707.035	0.0245988
707.113	0.0257600
707.191	0.0267239
707.269	0.0272764
707.347	0.0272414
707.425	0.0270918
707.503	0.0261400
707.581	0.0247622
707.660	0.0229531
707.738	0.0207388
707.816	0.0181545
707.894	0.0150910
707.972	0.0118160
708.050	0.00846840
708.128	0.00538895
708.206	0.00253258
708.285	0.000336838
708.363	-0.00111542
708.441	-0.00207420
708.519	-0.00218742
708.597	-0.00157806
708.675	-0.000443726
708.753	0.00115166
708.831	0.00320511
708.910	0.00554512
708.988	0.00795860
709.066	0.0104790
709.144	0.0131441
709.222	0.0157661
709.300	0.0181158
709.378	0.0203677
709.456	0.0223052
709.535	0.0242439
709.613	0.0258456
709.691	0.0268279
709.769	0.0277075
709.847	0.0281704
709.925	0.0283474
710.003	0.0282687
710.081	0.0274757
710.160	0.0265163
710.238	0.0250294
710.316	0.0231705
710.394	0.0211671
710.472	0.0190045
710.550	0.0165947
710.628	0.0142371
710.706	0.0120682
710.785	0.00977219
710.863	0.00760445
710.941	0.00589607
711.019	0.00452751
711.097	0.00358864
711.175	0.00285576
711.253	0.00263786
711.331	0.00288162
711.410	0.00325005
711.488	0.00390724
711.566	0.00474548
711.644	0.00581787
711.722	0.00687355
711.800	0.00802078
711.878	0.00940575
711.956	0.0105986
712.035	0.0117046
712.113	0.0130943
712.191	0.0144486
712.269	0.0157452
712.347	0.0172230
712.425	0.0185832
712.503	0.0201081
712.581	0.0212891
712.660	0.0223622
712.738	0.0234801
712.816	0.0240504
712.894	0.0244658
712.972	0.0246556
713.050	0.0243759
713.128	0.0238158
713.206	0.0232227
713.285	0.0221911
713.363	0.0209595
713.441	0.0196083
713.519	0.0180622
713.597	0.0163689
713.675	0.0147025
713.753	0.0129404
713.831	0.0114488
713.910	0.0101090
713.988	0.00871796
714.066	0.00761368
714.144	0.00688057
714.222	0.00638908
714.300	0.00620438
714.378	0.00606239
714.456	0.00637558
714.535	0.00698700
714.613	0.00758858
714.691	0.00832680
714.769	0.00905403
714.847	0.00989929
714.925	0.0106232
715.003	0.0113511
715.081	0.0120676
715.160	0.0125837
715.238	0.0132092
715.316	0.0137119
715.394	0.0144408
715.472	0.0152843
715.550	0.0159330
715.628	0.0167694
715.706	0.0179533
715.785	0.0189497
715.863	0.0197330
715.941	0.0203624
716.019	0.0208755
716.097	0.0210405
716.175	0.0208232
716.253	0.0206683
716.331	0.0202151
716.410	0.0195324
716.488	0.0186822
716.566	0.0179582
716.644	0.0171068
716.722	0.0163288
716.800	0.0156696
716.878	0.0150867
716.956	0.0143267
717.035	0.0138078
717.113	0.0133061
717.191	0.0126563
717.269	0.0123735
717.347	0.0119164
717.425	0.0114870
717.503	0.0113569
717.581	0.0110341
717.660	0.0107651
717.738	0.0107741
717.816	0.0107151
717.894	0.0108084
717.972	0.0108454
718.050	0.0108950
718.128	0.0110869
718.206	0.0112408
718.285	0.0112275
718.363	0.0115540
718.441	0.0117113
718.519	0.0118862
718.597	0.0121361
718.675	0.0122208
718.753	0.0125243
718.831	0.0126723
718.910	0.0128578
718.988	0.0134692
719.066	0.0138618
719.144	0.0144324
719.222	0.0149377
719.300	0.0157559
719.378	0.0162483
719.456	0.0167377
719.535	0.0172283
719.613	0.0176870
719.691	0.0177857
719.769	0.0180360
719.847	0.0180578
719.925	0.0180299
720.003	0.0179398
720.081	0.0179465
720.160	0.0179907
720.238	0.0180311
720.316	0.0180496
720.394	0.0179424
720.472	0.0177604
720.550	0.0174826
720.628	0.0171530
720.706	0.0167365
720.785	0.0162495
720.863	0.0156902
720.941	0.0150230
721.019	0.0144555
721.097	0.0138360
721.175	0.0132059
721.253	0.0125388
721.331	0.0121040
721.410	0.0117420
721.488	0.0112459
721.566	0.0109946
721.644	0.0107994
721.722	0.0104124
721.800	0.0105621
721.878	0.0105235
721.956	0.0106522
722.035	0.0106019
722.113	0.0109278
722.191	0.0111220
722.269	0.0112395
722.347	0.0116010
722.425	0.0117300
722.503	0.0120638
722.581	0.0122762
722.660	0.0126041
722.738	0.0131721
722.816	0.0136134
722.894	0.0139576
722.972	0.0146188
723.050	0.0151003
723.128	0.0157476
723.206	0.0160946
723.285	0.0165169
723.363	0.0169622
723.441	0.0170980
723.519	0.0173331
723.597	0.0177352
723.675	0.0177378
723.753	0.0177943
723.831	0.0179973
723.910	0.0178423
723.988	0.0175795
724.066	0.0174390
724.144	0.0170605
724.222	0.0168430
724.300	0.0165520
724.378	0.0162824
724.456	0.0158126
724.535	0.0154724
724.613	0.0150497
724.691	0.0149467
724.769	0.0145604
724.847	0.0142825
724.925	0.0140846
725.003	0.0139961
725.081	0.0138976
725.160	0.0137119
725.238	0.0136113
725.316	0.0134544
725.394	0.0133036
725.472	0.0132230
725.550	0.0132135
725.628	0.0129850
725.706	0.0128442
725.785	0.0127570
725.863	0.0124100
725.941	0.0121068
726.019	0.0119570
726.097	0.0117167
726.175	0.0117102
726.253	0.0115089
726.331	0.0116871
726.410	0.0117297
726.488	0.0118301
726.566	0.0120517
726.644	0.0122231
726.722	0.0124553
726.800	0.0128992
726.878	0.0132906
726.956	0.0136451
727.035	0.0141683
727.113	0.0144614
727.191	0.0151682
727.269	0.0156267
727.347	0.0158926
727.425	0.0162952
727.503	0.0165820
727.581	0.0166622
727.660	0.0167276
727.738	0.0167200
727.816	0.0168312
727.894	0.0165958
727.972	0.0162929
728.050	0.0162224
728.128	0.0159471
728.206	0.0159886
728.285	0.0159659
728.363	0.0158105
728.441	0.0157778
728.519	0.0157028
728.597	0.0154852
728.675	0.0155585
728.753	0.0156200
728.831	0.0154686
728.910	0.0152778
728.988	0.0152551
729.066	0.0153267
729.144	0.0150706
729.222	0.0149834
729.300	0.0147202
729.378	0.0144811
729.456	0.0142995
729.535	0.0139659
729.613	0.0136694
729.691	0.0132973
729.769	0.0130430
729.847	0.0128387
729.925	0.0125925
730.003	0.0121759
730.081	0.0122591
730.160	0.0122643
730.238	0.0122813
730.316	0.0120242
730.394	0.0120647
730.472	0.0121911
730.550	0.0123787
730.628	0.0123952
730.706	0.0124017
730.785	0.0125574
730.863	0.0126895
730.941	0.0127918
731.019	0.0129890
731.097	0.0133345
731.175	0.0133150
731.253	0.0135661
731.331	0.0138871
731.410	0.0139113
731.488	0.0141879
731.566	0.0144030
731.644	0.0146957
731.722	0.0149401
731.800	0.0153851
731.878	0.0156504
731.956	0.0158134
732.035	0.0161907
732.113	0.0163876
732.191	0.0164666
732.269	0.0164700
732.347	0.0165701
732.425	0.0165087
732.503	0.0167630
732.581	0.0165827
732.660	0.0163099
732.738	0.0162021
732.816	0.0160992
732.894	0.0159772
732.972	0.0157079
733.050	0.0155049
733.128	0.0154248
733.206	0.0151869
733.285	0.0148589
733.363	0.0146664
733.441	0.0144875
733.519	0.0143034
733.597	0.0142220
733.675	0.0139781
733.753	0.0138608
733.831	0.0137348
733.910	0.0138030
733.988	0.0134720
734.066	0.0133916
734.144	0.0134149
734.222	0.0135104
734.300	0.0133708
734.378	0.0135068
734.456	0.0133980
734.535	0.0132851
734.613	0.0130891
734.691	0.0131985
734.769	0.0133307
734.847	0.0131531
734.925	0.0131636
735.003	0.0129308
735.081	0.0129898
735.160	0.0129402
735.238	0.0130522
735.316	0.0129738
735.394	0.0126450
735.472	0.0128705
735.550	0.0128229
735.628	0.0130926
735.706	0.0132800
735.785	0.0135773
735.863	0.0137203
735.941	0.0142047
736.019	0.0144843
736.097	0.0146706
736.175	0.0149316
736.253	0.0150945
736.331	0.0153015
736.410	0.0156071
736.488	0.0157220
736.566	0.0155386
736.644	0.0157293
736.722	0.0156213
736.800	0.0155870
736.878	0.0155956
736.956	0.0154977
737.035	0.0152300
737.113	0.0152023
737.191	0.0152811
737.269	0.0152521
737.347	0.0153123
737.425	0.0152975
737.503	0.0153268
737.581	0.0154509
737.660	0.0154502
737.738	0.0154570
737.816	0.0155763
737.894	0.0157185
737.972	0.0152463
738.050	0.0152628
738.128	0.0151386
738.206	0.0149464
738.285	0.0146423
738.363	0.0144946
738.441	0.0143162
738.519	0.0141356
738.597	0.0138747
738.675	0.0139500
738.753	0.0137364
738.831	0.0134103
738.910	0.0133615
738.988	0.0132027
739.066	0.0132687
739.144	0.0131330
739.222	0.0132027
739.300	0.0132708
739.378	0.0133935
739.456	0.0134083
739.535	0.0135909
739.613	0.0135721
739.691	0.0137432
739.769	0.0139428
739.847	0.0139103
739.925	0.0140280
740.003	0.0142179
740.081	0.0141989
740.160	0.0141747
740.238	0.0143433
740.316	0.0144246
740.394	0.0144234
740.472	0.0140875
740.550	0.0140064
740.628	0.0141364
740.706	0.0140547
740.785	0.0139289
740.863	0.0138869
740.941	0.0139343
741.019	0.0137926
741.097	0.0139803
741.175	0.0138725
741.253	0.0139935
741.331	0.0140977
741.410	0.0142494
741.488	0.0142612
741.566	0.0143160
741.644	0.0146152
741.722	0.0144176
741.800	0.0146057
741.878	0.0146500
741.956	0.0148026
742.035	0.0150266
742.113	0.0149934
742.191	0.0151385
742.269	0.0151794
742.347	0.0152911
742.425	0.0152629
742.503	0.0152540
742.581	0.0152141
742.660	0.0152135
742.738	0.0153030
742.816	0.0152917
742.894	0.0150918
742.972	0.0148995
743.050	0.0149937
743.128	0.0149879
743.206	0.0149318
743.285	0.0146998
743.363	0.0145255
743.441	0.0143993
743.519	0.0144118
743.597	0.0143496
743.675	0.0141725
743.753	0.0139290
743.831	0.0139404
743.910	0.0139317
743.988	0.0138710
744.066	0.0138892
744.144	0.0138739
744.222	0.0137951
744.300	0.0136904
744.378	0.0136507
744.456	0.0136768
744.535	0.0134975
744.613	0.0134208
744.691	0.0134700
744.769	0.0135390
744.847	0.0135914
744.925	0.0134583
745.003	0.0136763
745.081	0.0136776
745.160	0.0137532
745.238	0.0139965
745.316	0.0140855
745.394	0.0142336
745.472	0.0142205
745.550	0.0144130
745.628	0.0146811
745.706	0.0147250
745.785	0.0148663
745.863	0.0149767
745.941	0.0148996
746.019	0.0148515
746.097	0.0149243
746.175	0.0148844
746.253	0.0149420
746.331	0.0148158
746.410	0.0147566
746.488	0.0148114
746.566	0.0147739
746.644	0.0148291
746.722	0.0149345
746.800	0.0150015
746.878	0.0152480
746.956	0.0153407
747.035	0.0150603
747.113	0.0152234
747.191	0.0152523
747.269	0.0151802
747.347	0.0152149
747.425	0.0149310
747.503	0.0147222
747.581	0.0146793
747.660	0.0145882
747.738	0.0145710
747.816	0.0141833
747.894	0.0141962
747.972	0.0140650
748.050	0.0140266
748.128	0.0140633
748.206	0.0140469
748.285	0.0138863
748.363	0.0140027
748.441	0.0138215
748.519	0.0138863
748.597	0.0138306
748.675	0.0137474
748.753	0.0139056
748.831	0.0138638
748.910	0.0138039
748.988	0.0138490
749.066	0.0137292
749.144	0.0138399
749.222	0.0138169
749.300	0.0137744
749.378	0.0138680
749.456	0.0137893
749.535	0.0139606
749.613	0.0138387
749.691	0.0138927
749.769	0.0138400
749.847	0.0139282
749.925	0.0138734
750.003	0.0139842
750.081	0.0138680
750.160	0.0139969
750.238	0.0140037
750.316	0.0142403
750.394	0.0143217
750.472	0.0142735
750.550	0.0145540
750.628	0.0145917
750.706	0.0147628
750.785	0.0150102
750.863	0.0150683
750.941	0.0151248
751.019	0.0151367
751.097	0.0153690
751.175	0.0154026
751.253	0.0153403
751.331	0.0154667
751.410	0.0154453
751.488	0.0152871
751.566	0.0152367
751.644	0.0150881
751.722	0.0150363
751.800	0.0147900
751.878	0.0146990
751.956	0.0145756
752.035	0.0145090
752.113	0.0145264
752.191	0.0145580
752.269	0.0145938
752.347	0.0144817
752.425	0.0143863
752.503	0.0145419
752.581	0.0145802
752.660	0.0143993
752.738	0.0144689
752.816	0.0145093
752.894	0.0143877
752.972	0.0142550
753.050	0.0142435
753.128	0.0140768
753.206	0.0140322
753.285	0.0138834
753.363	0.0138431
753.441	0.0136695
753.519	0.0136426
753.597	0.0136143
753.675	0.0134782
753.753	0.0135107
753.831	0.0134701
753.910	0.0134087
753.988	0.0135537
754.066	0.0134757
754.144	0.0136398
754.222	0.0136936
754.300	0.0137485
754.378	0.0139415
754.456	0.0140208
754.535	0.0140388
754.613	0.0141470
754.691	0.0141385
754.769	0.0141992
754.847	0.0143046
754.925	0.0144423
755.003	0.0146217
755.081	0.0145650
755.160	0.0146185
755.238	0.0145758
755.316	0.0147095
755.394	0.0146385
755.472	0.0145435
755.550	0.0147063
755.628	0.0148627
755.706	0.0149480
755.785	0.0151022
755.863	0.0151041
755.941	0.0149963
756.019	0.0150409
756.097	0.0150956
756.175	0.0148640
756.253	0.0148129
756.331	0.0148486
756.410	0.0149870
756.488	0.0146760
756.566	0.0144485
756.644	0.0143871
756.722	0.0142620
756.800	0.0142873
756.878	0.0139854
756.956	0.0138161
757.035	0.0138229
757.113	0.0137851
757.191	0.0137123
757.269	0.0137363
757.347	0.0138333
757.425	0.0137238
757.503	0.0137831
757.581	0.0137897
757.660	0.0137775
757.738	0.0140981
757.816	0.0140926
757.894	0.0140318
757.972	0.0140648
758.050	0.0143291
758.128	0.0143562
758.206	0.0145329
758.285	0.0146041
758.363	0.0147382
758.441	0.0148669
758.519	0.0149456
758.597	0.0150771
758.675	0.0152464
758.753	0.0151126
758.831	0.0152328
758.910	0.0152626
758.988	0.0150599
759.066	0.0151749
759.144	0.0150751
759.222	0.0149282
759.300	0.0147335
759.378	0.0147429
759.456	0.0146639
759.535	0.0144431
759.613	0.0144039
759.691	0.0142698
759.769	0.0140642
759.847	0.0142999
759.925	0.0141689
760.003	0.0141706
760.081	0.0139695
760.160	0.0139690
760.238	0.0138699
760.316	0.0139202
760.394	0.0139079
760.472	0.0138481
760.550	0.0138221
760.628	0.0136919
760.706	0.0135940
760.785	0.0133981
760.863	0.0132826
760.941	0.0134859
761.019	0.0133168
761.097	0.0132484
761.175	0.0131934
761.253	0.0133897
761.331	0.0135428
761.410	0.0135073
761.488	0.0136298
761.566	0.0138145
761.644	0.0138821
761.722	0.0139941
761.800	0.0140359
761.878	0.0142759
761.956	0.0144831
762.035	0.0146671
762.113	0.0148705
762.191	0.0149785
762.269	0.0150817
762.347	0.0153181
762.425	0.0153512
762.503	0.0156838
762.581	0.0156798
762.660	0.0157310
762.738	0.0159136
762.816	0.0157083
762.894	0.0158527
762.972	0.0157571
763.050	0.0155688
763.128	0.0156985
763.206	0.0155644
763.285	0.0153768
763.363	0.0152943
763.441	0.0149496
763.519	0.0148618
763.597	0.0148950
763.675	0.0146484
763.753	0.0146427
763.831	0.0144496
763.910	0.0143171
763.988	0.0141087
764.066	0.0141080
764.144	0.0138383
764.222	0.0135865
764.300	0.0136771
764.378	0.0136782
764.456	0.0135314
764.535	0.0132706
764.613	0.0133582
764.691	0.0133704
764.769	0.0134486
764.847	0.0134539
764.925	0.0133322
765.003	0.0135491
765.081	0.0134209
765.160	0.0137238
765.238	0.0136779
765.316	0.0138532
765.394	0.0140189
765.472	0.0141249
765.550	0.0142581
765.628	0.0143905
765.706	0.0144719
765.785	0.0144117
765.863	0.0143935
765.941	0.0146408
766.019	0.0146783
766.097	0.0145596
766.175	0.0146368
766.253	0.0147424
766.331	0.0146354
766.410	0.0145860
766.488	0.0146509
766.566	0.0145330
766.644	0.0146317
766.722	0.0144933
766.800	0.0145038
766.878	0.0145260
766.956	0.0145750
767.035	0.0145428
767.113	0.0145143
767.191	0.0143735
767.269	0.0144796
767.347	0.0145197
767.425	0.0146815
767.503	0.0146932
767.581	0.0144279
767.660	0.0145791
767.738	0.0146352
767.816	0.0145071
767.894	0.0147214
767.972	0.0143861
768.050	0.0146129
768.128	0.0143794
768.206	0.0145673
768.285	0.0145678
768.363	0.0144537
768.441	0.0143832
768.519	0.0142856
768.597	0.0143306
768.675	0.0144454
768.753	0.0142419
768.831	0.0141616
768.910	0.0140984
768.988	0.0139929
769.066	0.0142189
769.144	0.0142800
769.222	0.0142316
769.300	0.0142609
769.378	0.0143066
769.456	0.0141444
769.535	0.0142188
769.613	0.0142693
769.691	0.0142892
769.769	0.0140779
769.847	0.0141549
769.925	0.0142103
770.003	0.0141093
770.081	0.0140063
770.160	0.0139384
770.238	0.0139658
770.316	0.0139640
770.394	0.0140113
770.472	0.0140576
770.550	0.0141873
770.628	0.0140495
770.706	0.0142100
770.785	0.0141911
770.863	0.0142828
770.941	0.0144413
771.019	0.0144324
771.097	0.0144721
771.175	0.0145265
771.253	0.0147333
771.331	0.0146495
771.410	0.0147617
771.488	0.0147911
771.566	0.0146728
771.644	0.0148215
771.722	0.0149421
771.800	0.0148748
771.878	0.0148112
771.956	0.0147894
772.035	0.0149528
772.113	0.0148241
772.191	0.0148583
772.269	0.0147621
772.347	0.0147527
772.425	0.0148197
772.503	0.0147311
772.581	0.0146339
772.660	0.0146634
772.738	0.0147127
772.816	0.0146754
772.894	0.0145725
772.972	0.0145966
773.050	0.0142700
773.128	0.0144707
773.206	0.0142576
773.285	0.0141921
773.363	0.0141401
773.441	0.0141077
773.519	0.0142106
773.597	0.0141290
773.675	0.0141569
773.753	0.0140797
773.831	0.0140631
773.910	0.0139667
773.988	0.0140337
774.066	0.0141172
774.144	0.0139561
774.222	0.0140668
774.300	0.0141701
774.378	0.0141528
774.456	0.0143356
774.535	0.0142790
774.613	0.0143252
774.691	0.0142648
774.769	0.0144157
774.847	0.0143371
774.925	0.0144088
775.003	0.0145705
775.081	0.0145891
775.160	0.0145654
775.238	0.0145569
775.316	0.0144420
775.394	0.0145510
775.472	0.0145633
775.550	0.0144162
775.628	0.0144739
775.706	0.0147831
775.785	0.0146641
775.863	0.0145449
775.941	0.0145878
776.019	0.0145712
776.097	0.0147275
776.175	0.0147039
776.253	0.0145779
776.331	0.0147059
776.410	0.0145882
776.488	0.0145425
776.566	0.0144737
776.644	0.0144514
776.722	0.0142536
776.800	0.0142235
776.878	0.0140942
776.956	0.0140683
777.035	0.0139508
777.113	0.0139111
777.191	0.0139129
777.269	0.0139687
777.347	0.0138786
777.425	0.0138950
777.503	0.0140572
777.581	0.0140767
777.660	0.0140378
777.738	0.0141458
777.816	0.0140943
777.894	0.0140572
777.972	0.0141795
778.050	0.0142423
778.128	0.0142148
778.206	0.0141550
778.285	0.0142957
778.363	0.0144262
778.441	0.0144103
778.519	0.0144585
778.597	0.0145039
778.675	0.0145177
778.753	0.0145880
778.831	0.0146064
778.910	0.0145586
778.988	0.0146698
779.066	0.0146409
779.144	0.0145638
779.222	0.0144444
779.300	0.0145856
779.378	0.0146252
779.456	0.0146129
779.535	0.0145216
779.613	0.0145219
779.691	0.0145055
779.769	0.0145883
779.847	0.0145071
779.925	0.0145302
780.003	0.0146317
780.081	0.0146339
780.160	0.0146836
780.238	0.0145549
780.316	0.0145290
780.394	0.0145400
780.472	0.0144992
780.550	0.0144690
780.628	0.0143627
780.706	0.0142862
780.785	0.0143542
780.863	0.0141624
780.941	0.0140657
781.019	0.0142411
781.097	0.0142103
781.175	0.0141945
781.253	0.0141319
781.331	0.0141056
781.410	0.0140813
781.488	0.0142139
781.566	0.0140639
781.644	0.0141666
781.722	0.0140033
781.800	0.0138947
781.878	0.0138828
781.956	0.0139117
782.035	0.0139681
782.113	0.0138523
782.191	0.0139349
782.269	0.0139228
782.347	0.0139323
782.425	0.0140752
782.503	0.0139578
782.581	0.0139828
782.660	0.0138848
782.738	0.0140212
782.816	0.0142297
782.894	0.0142183
782.972	0.0142079
783.050	0.0143958
783.128	0.0145608
783.206	0.0146605
783.285	0.0146865
783.363	0.0146888
783.441	0.0147958
783.519	0.0149845
783.597	0.0149948
783.675	0.0149638
783.753	0.0149704
783.831	0.0150407
783.910	0.0150617
783.988	0.0151174
784.066	0.0150240
784.144	0.0148629
784.222	0.0148762
784.300	0.0147669
784.378	0.0147564
784.456	0.0145012
784.535	0.0144576
784.613	0.0142822
784.691	0.0141678
784.769	0.0141077
784.847	0.0141064
784.925	0.0139500
785.003	0.0138918
785.081	0.0139277
785.160	0.0138762
785.238	0.0139904
785.316	0.0139491
785.394	0.0138752
785.472	0.0140189
785.550	0.0139739
785.628	0.0139428
785.706	0.0141061
785.785	0.0139831
785.863	0.0140503
785.941	0.0140915
786.019	0.0142106
786.097	0.0141251
786.175	0.0142612
786.253	0.0142616
786.331	0.0143914
786.410	0.0143614
786.488	0.0146004
786.566	0.0146249
786.644	0.0145216
786.722	0.0146097
786.800	0.0147764
786.878	0.0146854
786.956	0.0147715
787.035	0.0148708
787.113	0.0146795
787.191	0.0146847
787.269	0.0146736
787.347	0.0146539
787.425	0.0144316
787.503	0.0143938
787.581	0.0143559
787.660	0.0144366
787.738	0.0144736
787.816	0.0143922
787.894	0.0143662
787.972	0.0143993
788.050	0.0143408
788.128	0.0144283
788.206	0.0144348
788.285	0.0144003
788.363	0.0143765
788.441	0.0145393
788.519	0.0144502
788.597	0.0144304
788.675	0.0142026
788.753	0.0141999
788.831	0.0143369
788.910	0.0143159
788.988	0.0141345
789.066	0.0143856
789.144	0.0142274
789.222	0.0141089
789.300	0.0140357
789.378	0.0139100
789.456	0.0140935
789.535	0.0139266
789.613	0.0138679
789.691	0.0139975
789.769	0.0138684
789.847	0.0137594
789.925	0.0137892
790.003	0.0138843
790.081	0.0138680
790.160	0.0137794
790.238	0.0138316
790.316	0.0140629
790.394	0.0140864
790.472	0.0142957
790.550	0.0143354
790.628	0.0143195
790.706	0.0145087
790.785	0.0145405
790.863	0.0146635
790.941	0.0147386
791.019	0.0147592
791.097	0.0147134
791.175	0.0149113
791.253	0.0148458
791.331	0.0149181
791.410	0.0149455
791.488	0.0148980
791.566	0.0149332
791.644	0.0148762
791.722	0.0149573
791.800	0.0149650
791.878	0.0149766
791.956	0.0150026
792.035	0.0148215
792.113	0.0148897
792.191	0.0149631
792.269	0.0147790
792.347	0.0147367
792.425	0.0147360
792.503	0.0145370
792.581	0.0144881
792.660	0.0143771
792.738	0.0142144
792.816	0.0141536
792.894	0.0143275
792.972	0.0141815
793.050	0.0141373
793.128	0.0140703
793.206	0.0141625
793.285	0.0140458
793.363	0.0140543
793.441	0.0139790
793.519	0.0140073
793.597	0.0139214
793.675	0.0140109
793.753	0.0139024
793.831	0.0140259
793.910	0.0141879
793.988	0.0140014
794.066	0.0140313
794.144	0.0141427
794.222	0.0139485
794.300	0.0141051
794.378	0.0143354
794.456	0.0143590
794.535	0.0142902
794.613	0.0144151
794.691	0.0145774
794.769	0.0145764
794.847	0.0145543
794.925	0.0145675
795.003	0.0146506
795.081	0.0147557
795.160	0.0146648
795.238	0.0144684
795.316	0.0145242
795.394	0.0146220
795.472	0.0146073
795.550	0.0145751
795.628	0.0147231
795.706	0.0145969
795.785	0.0145618
795.863	0.0145499
795.941	0.0145817
796.019	0.0145895
796.097	0.0145293
796.175	0.0145958
796.253	0.0146203
796.331	0.0145194
796.410	0.0144922
796.488	0.0143484
796.566	0.0144134
796.644	0.0142439
796.722	0.0143591
796.800	0.0141937
796.878	0.0142413
796.956	0.0142377
797.035	0.0141491
797.113	0.0140780
797.191	0.0141850
797.269	0.0141472
797.347	0.0139867
797.425	0.0141093
797.503	0.0139236
797.581	0.0140607
797.660	0.0140607
797.738	0.0139680
797.816	0.0140518
797.894	0.0140781
797.972	0.0140845
798.050	0.0141021
798.128	0.0140269
798.206	0.0140253
798.285	0.0142264
798.363	0.0140091
798.441	0.0141697
798.519	0.0142317
798.597	0.0142226
798.675	0.0143226
798.753	0.0142972
798.831	0.0143307
798.910	0.0142913
798.988	0.0144138
799.066	0.0144299
799.144	0.0144156
799.222	0.0144288
799.300	0.0144271
799.378	0.0144984
799.456	0.0143727
799.535	0.0145094
799.613	0.0144530
799.691	0.0146277
799.769	0.0145504
799.847	0.0145589
799.925	0.0143578
800.003	0.0144649
800.081	0.0146205
800.160	0.0146293
800.238	0.0148038
800.316	0.0147346
800.394	0.0146221
800.472	0.0149179
800.550	0.0148943
800.628	0.0151368
800.706	0.0150690
800.785	0.0152333
800.863	0.0152128
800.941	0.0151800
801.019	0.0150138
801.097	0.0150340
801.175	0.0147185
801.253	0.0145973
801.331	0.0144388
801.410	0.0140739
801.488	0.0138466
801.566	0.0136028
801.644	0.0134351
801.722	0.0133573
801.800	0.0131944
801.878	0.0131268
801.956	0.0130977
802.035	0.0132512
802.113	0.0132834
802.191	0.0133906
802.269	0.0135452
802.347	0.0137729
802.425	0.0139111
802.503	0.0141105
802.581	0.0143764
802.660	0.0145753
802.738	0.0146764
802.816	0.0148624
802.894	0.0150473
802.972	0.0151562
803.050	0.0154173
803.128	0.0155628
803.206	0.0155173
803.285	0.0156470
803.363	0.0155560
803.441	0.0155504
803.519	0.0155875
803.597	0.0153651
803.675	0.0151376
803.753	0.0149180
803.831	0.0146938
803.910	0.0145053
803.988	0.0142058
804.066	0.0138425
804.144	0.0137511
804.222	0.0136594
804.300	0.0134482
804.378	0.0132610
804.456	0.0132221
804.535	0.0131763
804.613	0.0131686
804.691	0.0131067
804.769	0.0131970
804.847	0.0132898
804.925	0.0133910
805.003	0.0135163
805.081	0.0134719
805.160	0.0137315
805.238	0.0136664
805.316	0.0138741
805.394	0.0139915
805.472	0.0141069
805.550	0.0143139
805.628	0.0146429
805.706	0.0148544
805.785	0.0148413
805.863	0.0150705
805.941	0.0151844
806.019	0.0153510
806.097	0.0154288
806.175	0.0155614
806.253	0.0155035
806.331	0.0153179
806.410	0.0154373
806.488	0.0154202
806.566	0.0151572
806.644	0.0149774
806.722	0.0148117
806.800	0.0145728
806.878	0.0144737
806.956	0.0141594
807.035	0.0140478
807.113	0.0138528
807.191	0.0138010
807.269	0.0136835
807.347	0.0135793
807.425	0.0134776
807.503	0.0134846
807.581	0.0135377
807.660	0.0135590
807.738	0.0133980
807.816	0.0134980
807.894	0.0134723
807.972	0.0136694
808.050	0.0136583
808.128	0.0137221
808.206	0.0138481
808.285	0.0137877
808.363	0.0140436
808.441	0.0142406
808.519	0.0142138
808.597	0.0144568
808.675	0.0144766
808.753	0.0149088
808.831	0.0149908
808.910	0.0150519
808.988	0.0151222
809.066	0.0153931
809.144	0.0154249
809.222	0.0154726
809.300	0.0155676
809.378	0.0153962
809.456	0.0154304
809.535	0.0153782
809.613	0.0152641
809.691	0.0150478
809.769	0.0148540
809.847	0.0148675
809.925	0.0147300
810.003	0.0144982
810.081	0.0143659
810.160	0.0142911
810.238	0.0141081
810.316	0.0140490
810.394	0.0140143
810.472	0.0139484
810.550	0.0138395
810.628	0.0139404
810.706	0.0139004
810.785	0.0137275
810.863	0.0137650
810.941	0.0138029
811.019	0.0137151
811.097	0.0136845
811.175	0.0135260
811.253	0.0136198
811.331	0.0137416
811.410	0.0136481
811.488	0.0138374
811.566	0.0137960
811.644	0.0137660
811.722	0.0140614
811.800	0.0139633
811.878	0.0140070
811.956	0.0142099
812.035	0.0142860
812.113	0.0143827
812.191	0.0143784
812.269	0.0144275
812.347	0.0146173
812.425	0.0148116
812.503	0.0147834
812.581	0.0148794
812.660	0.0149319
812.738	0.0148363
812.816	0.0147754
812.894	0.0149343
812.972	0.0149522
813.050	0.0147720
813.128	0.0147038
813.206	0.0147343
813.285	0.0147476
813.363	0.0146317
813.441	0.0147311
813.519	0.0146249
813.597	0.0144949
813.675	0.0145063
813.753	0.0145016
813.831	0.0145464
813.910	0.0143832
813.988	0.0143961
814.066	0.0143895
814.144	0.0142328
814.222	0.0142014
814.300	0.0141863
814.378	0.0139961
814.456	0.0141108
814.535	0.0140934
814.613	0.0140926
814.691	0.0140416
814.769	0.0139819
814.847	0.0140449
814.925	0.0140860
815.003	0.0140553
815.081	0.0142680
815.160	0.0141895
815.238	0.0141972
815.316	0.0144227
815.394	0.0144246
815.472	0.0144948
815.550	0.0146266
815.628	0.0146326
815.706	0.0145456
815.785	0.0146951
815.863	0.0149055
815.941	0.0148928
816.019	0.0149640
816.097	0.0148761
816.175	0.0149088
816.253	0.0148670
816.331	0.0149104
816.410	0.0147485
816.488	0.0147397
816.566	0.0148140
816.644	0.0147736
816.722	0.0145925
816.800	0.0144223
816.878	0.0144610
816.956	0.0144395
817.035	0.0143154
817.113	0.0141992
817.191	0.0141669
817.269	0.0142863
817.347	0.0142439
817.425	0.0141293
817.503	0.0141767
817.581	0.0139749
817.660	0.0140318
817.738	0.0139898
817.816	0.0137036
817.894	0.0138750
817.972	0.0139861
818.050	0.0138463
818.128	0.0140229
818.206	0.0139101
818.285	0.0139673
818.363	0.0142297
818.441	0.0140730
818.519	0.0141704
818.597	0.0143328
818.675	0.0143418
818.753	0.0143361
818.831	0.0143557
818.910	0.0144194
818.988	0.0145216
819.066	0.0146168
819.144	0.0143801
819.222	0.0145447
819.300	0.0147678
819.378	0.0146203
819.456	0.0146159
819.535	0.0145562
819.613	0.0146574
819.691	0.0146776
819.769	0.0145815
819.847	0.0145219
819.925	0.0145451
820.003	0.0146040
820.081	0.0145328
820.160	0.0144751
820.238	0.0144016
820.316	0.0143766
820.394	0.0142743
820.472	0.0143127
820.550	0.0141911
820.628	0.0142912
820.706	0.0142400
820.785	0.0141619
820.863	0.0142088
820.941	0.0141067
821.019	0.0141644
821.097	0.0143850
821.175	0.0142687
821.253	0.0144828
821.331	0.0144929
821.410	0.0145484
821.488	0.0145228
821.566	0.0146242
821.644	0.0146557
821.722	0.0147368
821.800	0.0147979
821.878	0.0147215
821.956	0.0147864
822.035	0.0148655
822.113	0.0148891
822.191	0.0148213
822.269	0.0147677
822.347	0.0146597
822.425	0.0144958
822.503	0.0146066
822.581	0.0145661
822.660	0.0144354
822.738	0.0143559
822.816	0.0142819
822.894	0.0143106
822.972	0.0142699
823.050	0.0141223
823.128	0.0140143
823.206	0.0140942
823.285	0.0140816
823.363	0.0140206
823.441	0.0142775
823.519	0.0141315
823.597	0.0139673
823.675	0.0140549
823.753	0.0141138
823.831	0.0139921
823.910	0.0142245
823.988	0.0142838
824.066	0.0141953
824.144	0.0143102
824.222	0.0142531
824.300	0.0142508
824.378	0.0143718
824.456	0.0144077
824.535	0.0144692
824.613	0.0144987
824.691	0.0144401
824.769	0.0145932
824.847	0.0145893
824.925	0.0144704
825.003	0.0146144
825.081	0.0146441
825.160	0.0147019
825.238	0.0146114
825.316	0.0147209
825.394	0.0146577
825.472	0.0146244
825.550	0.0146449
825.628	0.0147767
825.706	0.0145721
825.785	0.0145332
825.863	0.0145691
825.941	0.0146258
826.019	0.0144127
826.097	0.0142906
826.175	0.0146962
826.253	0.0143880
826.331	0.0144122
826.410	0.0143212
826.488	0.0142748
826.566	0.0143330
826.644	0.0142643
826.722	0.0142234
826.800	0.0142882
826.878	0.0142441
826.956	0.0140501
827.035	0.0141492
827.113	0.0140547
827.191	0.0140509
827.269	0.0140556
827.347	0.0139793
827.425	0.0138860
827.503	0.0137249
827.581	0.0137246
827.660	0.0138174
827.738	0.0137943
827.816	0.0138840
827.894	0.0140737
827.972	0.0142548
828.050	0.0143447
828.128	0.0145466
828.206	0.0144663
828.285	0.0148099
828.363	0.0149799
828.441	0.0151344
828.519	0.0152191
828.597	0.0154204
828.675	0.0152973
828.753	0.0154977
828.831	0.0153496
828.910	0.0152389
828.988	0.0152039
829.066	0.0149302
829.144	0.0149247
829.222	0.0146751
829.300	0.0146331
829.378	0.0144664
829.456	0.0142944
829.535	0.0141769
829.613	0.0139980
829.691	0.0137767
829.769	0.0136709
829.847	0.0137286
829.925	0.0136499
830.003	0.0136988
830.081	0.0135952
830.160	0.0137415
830.238	0.0137588
830.316	0.0137572
830.394	0.0137840
830.472	0.0139536
830.550	0.0139699
830.628	0.0141654
830.706	0.0141721
830.785	0.0142690
830.863	0.0142192
830.941	0.0143577
831.019	0.0145208
831.097	0.0146411
831.175	0.0144554
831.253	0.0145251
831.331	0.0145490
831.410	0.0146171
831.488	0.0145316
831.566	0.0145153
831.644	0.0145971
831.722	0.0145628
831.800	0.0145737
831.878	0.0145393
831.956	0.0143926
832.035	0.0144215
832.113	0.0144612
832.191	0.0143986
832.269	0.0143497
832.347	0.0141748
832.425	0.0142925
832.503	0.0140638
832.581	0.0142260
832.660	0.0141511
832.738	0.0140968
832.816	0.0141132
832.894	0.0141223
832.972	0.0141283
833.050	0.0141898
833.128	0.0141071
833.206	0.0143307
833.285	0.0143301
833.363	0.0142683
833.441	0.0141776
833.519	0.0144382
833.597	0.0145493
833.675	0.0146570
833.753	0.0144815
833.831	0.0146501
833.910	0.0146320
833.988	0.0146068
834.066	0.0145374
834.144	0.0145885
834.222	0.0146269
834.300	0.0144479
834.378	0.0145432
834.456	0.0145152
834.535	0.0143753
834.613	0.0143629
834.691	0.0143058
834.769	0.0141767
834.847	0.0141315
834.925	0.0140093
835.003	0.0140324
835.081	0.0141303
835.160	0.0140507
835.238	0.0140693
835.316	0.0140984
835.394	0.0139923
835.472	0.0141398
835.550	0.0141553
835.628	0.0141441
835.706	0.0141911
835.785	0.0142182
835.863	0.0142214
835.941	0.0144107
836.019	0.0142609
836.097	0.0143124
836.175	0.0144056
836.253	0.0144334
836.331	0.0144869
836.410	0.0147226
836.488	0.0146547
836.566	0.0146857
836.644	0.0146989
836.722	0.0146648
836.800	0.0147692
836.878	0.0147576
836.956	0.0147294
837.035	0.0147859
837.113	0.0147757
837.191	0.0148539
837.269	0.0147398
837.347	0.0147453
837.425	0.0148389
837.503	0.0147206
837.581	0.0145660
837.660	0.0145782
837.738	0.0144175
837.816	0.0143971
837.894	0.0143877
837.972	0.0144312
838.050	0.0142929
838.128	0.0141338
838.206	0.0140324
838.285	0.0140131
838.363	0.0140218
838.441	0.0138187
838.519	0.0137373
838.597	0.0136723
838.675	0.0136676
838.753	0.0137144
838.831	0.0137309
838.910	0.0137317
838.988	0.0137743
839.066	0.0137337
839.144	0.0137527
839.222	0.0139630
839.300	0.0140357
839.378	0.0141101
839.456	0.0142579
839.535	0.0144442
839.613	0.0143839
839.691	0.0146355
839.769	0.0146916
839.847	0.0146943
839.925	0.0148578
840.003	0.0148776
840.081	0.0148101
840.160	0.0149006
840.238	0.0147775
840.316	0.0147624
840.394	0.0148872
840.472	0.0147676
840.550	0.0147884
840.628	0.0148193
840.706	0.0148135
840.785	0.0146811
840.863	0.0145644
840.941	0.0145287
841.019	0.0143076
841.097	0.0144718
841.175	0.0143847
841.253	0.0143491
841.331	0.0142957
841.410	0.0142387
841.488	0.0142269
841.566	0.0141702
841.644	0.0142421
841.722	0.0141087
841.800	0.0141624
841.878	0.0140941
841.956	0.0140753
842.035	0.0142508
842.113	0.0142348
842.191	0.0140991
842.269	0.0142291
842.347	0.0143253
842.425	0.0142173
842.503	0.0142329
842.581	0.0143339
842.660	0.0142319
842.738	0.0141247
842.816	0.0141216
842.894	0.0140652
842.972	0.0139936
843.050	0.0141159
843.128	0.0141078
843.206	0.0140504
843.285	0.0138963
843.363	0.0140874
843.441	0.0141281
843.519	0.0142575
843.597	0.0141354
843.675	0.0140908
843.753	0.0142222
843.831	0.0142948
843.910	0.0142460
843.988	0.0143728
844.066	0.0143593
844.144	0.0144952
844.222	0.0146236
844.300	0.0145213
844.378	0.0147018
844.456	0.0149178
844.535	0.0148064
844.613	0.0148447
844.691	0.0148836
844.769	0.0149935
844.847	0.0150518
844.925	0.0149120
845.003	0.0151070
845.081	0.0149115
845.160	0.0149924
845.238	0.0150143
845.316	0.0147890
845.394	0.0148283
845.472	0.0147194
845.550	0.0145274
845.628	0.0146171
845.706	0.0145375
845.785	0.0144897
845.863	0.0143851
845.941	0.0141786
846.019	0.0140374
846.097	0.0140115
846.175	0.0139439
846.253	0.0138322
846.331	0.0136450
846.410	0.0134760
846.488	0.0135209
846.566	0.0135491
846.644	0.0134384
846.722	0.0134914
846.800	0.0135070
846.878	0.0135143
846.956	0.0135156
847.035	0.0134750
847.113	0.0136350
847.191	0.0138014
847.269	0.0137939
847.347	0.0139521
847.425	0.0140950
847.503	0.0142464
847.581	0.0141438
847.660	0.0145523
847.738	0.0146084
847.816	0.0145785
847.894	0.0147575
847.972	0.0148317
848.050	0.0149052
848.128	0.0148927
848.206	0.0151696
848.285	0.0151652
848.363	0.0151437
848.441	0.0151897
848.519	0.0151247
848.597	0.0151208
848.675	0.0151097
848.753	0.0151933
848.831	0.0150509
848.910	0.0149449
848.988	0.0148090
849.066	0.0148598
849.144	0.0145779
849.222	0.0145276
849.300	0.0143762
849.378	0.0141996
849.456	0.0142139
849.535	0.0140948
849.613	0.0141386
849.691	0.0140244
849.769	0.0139699
849.847	0.0140112
849.925	0.0140057
850.003	0.0138953
850.081	0.0139902
850.160	0.0139971
850.238	0.0140681
850.316	0.0140057
850.394	0.0140015
850.472	0.0139672
850.550	0.0139091
850.628	0.0139456
850.706	0.0138643
850.785	0.0140251
850.863	0.0139613
850.941	0.0139087
851.019	0.0138116
851.097	0.0140579
851.175	0.0140703
851.253	0.0142409
851.331	0.0142472
851.410	0.0144048
851.488	0.0144672
851.566	0.0145177
851.644	0.0146138
851.722	0.0148299
851.800	0.0146545
851.878	0.0148647
851.956	0.0148626
852.035	0.0148164
852.113	0.0148836
852.191	0.0149214
852.269	0.0148743
852.347	0.0147536
852.425	0.0149095
852.503	0.0148080
852.581	0.0147920
852.660	0.0146862
852.738	0.0147815
852.816	0.0146898
852.894	0.0146370
852.972	0.0146482
853.050	0.0144357
853.128	0.0145595
853.206	0.0145650
853.285	0.0145679
853.363	0.0144317
853.441	0.0144151
853.519	0.0142919
853.597	0.0142763
853.675	0.0140595
853.753	0.0141456
853.831	0.0142496
853.910	0.0140984
853.988	0.0139635
854.066	0.0139617
854.144	0.0139442
854.222	0.0138504
854.300	0.0138116
854.378	0.0137746
854.456	0.0137476
854.535	0.0136932
854.613	0.0137255
854.691	0.0137346
854.769	0.0137431
854.847	0.0139733
854.925	0.0137552
855.003	0.0139687
855.081	0.0140360
855.160	0.0139609
855.238	0.0142085
855.316	0.0143373
855.394	0.0143232
855.472	0.0144780
855.550	0.0145656
855.628	0.0147106
855.706	0.0146901
855.785	0.0147799
855.863	0.0147560
855.941	0.0148466
856.019	0.0147763
856.097	0.0145306
856.175	0.0148629
856.253	0.0147577
856.331	0.0145981
856.410	0.0144841
856.488	0.0144861
856.566	0.0144964
856.644	0.0144015
856.722	0.0143536
856.800	0.0143411
856.878	0.0142828
856.956	0.0143124
857.035	0.0142448
857.113	0.0142081
857.191	0.0141542
857.269	0.0142252
857.347	0.0141296
857.425	0.0141621
857.503	0.0142133
857.581	0.0140340
857.660	0.0141596
857.738	0.0141134
857.816	0.0140817
857.894	0.0140804
857.972	0.0141769
858.050	0.0141019
858.128	0.0141172
858.206	0.0140029
858.285	0.0140343
858.363	0.0140859
858.441	0.0140690
858.519	0.0141203
858.597	0.0140839
858.675	0.0141988
858.753	0.0143465
858.831	0.0142944
858.910	0.0143938
858.988	0.0143239
859.066	0.0144065
859.144	0.0143936
859.222	0.0144950
859.300	0.0146755
859.378	0.0146709
859.456	0.0145639
859.535	0.0145798
859.613	0.0145811
859.691	0.0144899
859.769	0.0146541
859.847	0.0145926
859.925	0.0144814
860.003	0.0145366
860.081	0.0145346
860.160	0.0145092
860.238	0.0145808
860.316	0.0145483
860.394	0.0145152
860.472	0.0145571
860.550	0.0144917
860.628	0.0146307
860.706	0.0146473
860.785	0.0145703
860.863	0.0145569
860.941	0.0145513
861.019	0.0145610
861.097	0.0144304
861.175	0.0143594
861.253	0.0143107
861.331	0.0141889
861.410	0.0143069
861.488	0.0140929
861.566	0.0141254
861.644	0.0142278
861.722	0.0140678
861.800	0.0140420
861.878	0.0142170
861.956	0.0141861
862.035	0.0141516
862.113	0.0142020
862.191	0.0142583
862.269	0.0143539
862.347	0.0141542
862.425	0.0141719
862.503	0.0141134
862.581	0.0141718
862.660	0.0142204
862.738	0.0141109
862.816	0.0142662
862.894	0.0142522
862.972	0.0141058
863.050	0.0140519
863.128	0.0142282
863.206	0.0140517
863.285	0.0140375
863.363	0.0141684
863.441	0.0140637
863.519	0.0140155
863.597	0.0141618
863.675	0.0141559
863.753	0.0141047
863.831	0.0141739
863.910	0.0143041
863.988	0.0142714
864.066	0.0143285
864.144	0.0144740
864.222	0.0142820
864.300	0.0144624
864.378	0.0144695
864.456	0.0144009
864.535	0.0144930
864.613	0.0145457
864.691	0.0143106
864.769	0.0143552
864.847	0.0143029
864.925	0.0143359
865.003	0.0141644
865.081	0.0141264
865.160	0.0142895
865.238	0.0143248
865.316	0.0143447
865.394	0.0142976
865.472	0.0143954
865.550	0.0142771
865.628	0.0143684
865.706	0.0145241
865.785	0.0144608
865.863	0.0144611
865.941	0.0144759
866.019	0.0145388
866.097	0.0146331
866.175	0.0145699
866.253	0.0146319
866.331	0.0146896
866.410	0.0145916
866.488	0.0142019
866.566	0.0143760
866.644	0.0145061
866.722	0.0143598
866.800	0.0142744
866.878	0.0141780
866.956	0.0141294
867.035	0.0140808
867.113	0.0138960
867.191	0.0139903
867.269	0.0139634
867.347	0.0139257
867.425	0.0137862
867.503	0.0139545
867.581	0.0138841
867.660	0.0138348
867.738	0.0139788
867.816	0.0140128
867.894	0.0142403
867.972	0.0142659
868.050	0.0142236
868.128	0.0144531
868.206	0.0143696
868.285	0.0144492
868.363	0.0145723
868.441	0.0145563
868.519	0.0145738
868.597	0.0146352
868.675	0.0146158
868.753	0.0146931
868.831	0.0147405
868.910	0.0147003
868.988	0.0146355
869.066	0.0146007
869.144	0.0147109
869.222	0.0146857
869.300	0.0146095
869.378	0.0145878
869.456	0.0146532
869.535	0.0145219
869.613	0.0143753
869.691	0.0144251
869.769	0.0143353
869.847	0.0143122
869.925	0.0142588
870.003	0.0140355
870.081	0.0141477
870.160	0.0141176
870.238	0.0141350
870.316	0.0141756
870.394	0.0141024
870.472	0.0140591
870.550	0.0140445
870.628	0.0140199
870.706	0.0140533
870.785	0.0141248
870.863	0.0140416
870.941	0.0141800
871.019	0.0141792
871.097	0.0139922
871.175	0.0140997
871.253	0.0142953
871.331	0.0141806
871.410	0.0140138
871.488	0.0140749
871.566	0.0141529
871.644	0.0142419
871.722	0.0141219
871.800	0.0141510
871.878	0.0141943
871.956	0.0142814
872.035	0.0143893
872.113	0.0143328
872.191	0.0143607
872.269	0.0143810
872.347	0.0143761
872.425	0.0146136
872.503	0.0144934
872.581	0.0145688
872.660	0.0145385
872.738	0.0145451
872.816	0.0148247
872.894	0.0146864
872.972	0.0146718
873.050	0.0145477
873.128	0.0148056
873.206	0.0145609
873.285	0.0144772
873.363	0.0143581
873.441	0.0144888
873.519	0.0144479
873.597	0.0144143
873.675	0.0144044
873.753	0.0142390
873.831	0.0141399
873.910	0.0142518
873.988	0.0141961
874.066	0.0140978
874.144	0.0139679
874.222	0.0139851
874.300	0.0139536
874.378	0.0140470
874.456	0.0139693
874.535	0.0141531
874.613	0.0141253
874.691	0.0139666
874.769	0.0139679
874.847	0.0140534
874.925	0.0141084
875.003	0.0142994
875.081	0.0142604
875.160	0.0142139
875.238	0.0143452
875.316	0.0144267
875.394	0.0143966
875.472	0.0143997
875.550	0.0144864
875.628	0.0145052
875.706	0.0145232
875.785	0.0145909
875.863	0.0144418
875.941	0.0144872
876.019	0.0144041
876.097	0.0145206
876.175	0.0143839
876.253	0.0144353
876.331	0.0144596
876.410	0.0143940
876.488	0.0143952
876.566	0.0142047
876.644	0.0143606
876.722	0.0143243
876.800	0.0143041
876.878	0.0142603
876.956	0.0143070
877.035	0.0141863
877.113	0.0142510
877.191	0.0141872
877.269	0.0141292
877.347	0.0142334
877.425	0.0142133
877.503	0.0141636
877.581	0.0143211
877.660	0.0144032
877.738	0.0143051
877.816	0.0143977
877.894	0.0144730
877.972	0.0142800
878.050	0.0144738
878.128	0.0143120
878.206	0.0143068
878.285	0.0142879
878.363	0.0143044
878.441	0.0142318
878.519	0.0143278
878.597	0.0141502
878.675	0.0141139
878.753	0.0140228
878.831	0.0141739
878.910	0.0140554
878.988	0.0140197
879.066	0.0141795
879.144	0.0141793
879.222	0.0143351
879.300	0.0143009
879.378	0.0141801
879.456	0.0142670
879.535	0.0141987
879.613	0.0141260
879.691	0.0143465
879.769	0.0143695
879.847	0.0143934
879.925	0.0142527
880.003	0.0144556
880.081	0.0143744
880.160	0.0144349
880.238	0.0146781
880.316	0.0146697
880.394	0.0145828
880.472	0.0147178
880.550	0.0147933
880.628	0.0146185
880.706	0.0146090
880.785	0.0147585
880.863	0.0146832
880.941	0.0146327
881.019	0.0144813
881.097	0.0144707
881.175	0.0144788
881.253	0.0144580
881.331	0.0143052
881.410	0.0144465
881.488	0.0142925
881.566	0.0142461
881.644	0.0140767
881.722	0.0142360
881.800	0.0141732
881.878	0.0141755
881.956	0.0140494
882.035	0.0139633
882.113	0.0139804
882.191	0.0140151
882.269	0.0140278
882.347	0.0139515
882.425	0.0139320
882.503	0.0139523
882.581	0.0138513
882.660	0.0139306
882.738	0.0140225
882.816	0.0140376
882.894	0.0140573
882.972	0.0139669
883.050	0.0140726
883.128	0.0141706
883.206	0.0142653
883.285	0.0141983
883.363	0.0142427
883.441	0.0142465
883.519	0.0141934
883.597	0.0142840
883.675	0.0143792
883.753	0.0144014
883.831	0.0143839
883.910	0.0143974
883.988	0.0143760
884.066	0.0143904
884.144	0.0142539
884.222	0.0143198
884.300	0.0144718
884.378	0.0143201
884.456	0.0142166
884.535	0.0141748
884.613	0.0143558
884.691	0.0144118
884.769	0.0141573
884.847	0.0142740
884.925	0.0143417
885.003	0.0142321
885.081	0.0142484
885.160	0.0143441
885.238	0.0143329
885.316	0.0143703
885.394	0.0144514
885.472	0.0144648
885.550	0.0144924
885.628	0.0144363
885.706	0.0144499
885.785	0.0143685
885.863	0.0145382
885.941	0.0145512
886.019	0.0144999
886.097	0.0145219
886.175	0.0145358
886.253	0.0144388
886.331	0.0145405
886.410	0.0144447
886.488	0.0143013
886.566	0.0144914
886.644	0.0143114
886.722	0.0142422
886.800	0.0142212
886.878	0.0141306
886.956	0.0140641
887.035	0.0140919
887.113	0.0141907
887.191	0.0140310
887.269	0.0140327
887.347	0.0140195
887.425	0.0139920
887.503	0.0140327
887.581	0.0141191
887.660	0.0140162
887.738	0.0140682
887.816	0.0139825
887.894	0.0139622
887.972	0.0139805
888.050	0.0141199
888.128	0.0139299
888.206	0.0140065
888.285	0.0141535
888.363	0.0142726
888.441	0.0141583
888.519	0.0143398
888.597	0.0142989
888.675	0.0143992
888.753	0.0145218
888.831	0.0146471
888.910	0.0145230
888.988	0.0147260
889.066	0.0147367
889.144	0.0146523
889.222	0.0146373
889.300	0.0146421
889.378	0.0145640
889.456	0.0145529
889.535	0.0144894
889.613	0.0145325
889.691	0.0143825
889.769	0.0144199
889.847	0.0145327
889.925	0.0145635
890.003	0.0145217
890.081	0.0144602
890.160	0.0144331
890.238	0.0144299
890.316	0.0144244
890.394	0.0144854
890.472	0.0143452
890.550	0.0143408
890.628	0.0143945
890.706	0.0145228
890.785	0.0142542
890.863	0.0143401
890.941	0.0141830
891.019	0.0142029
891.097	0.0141114
891.175	0.0140411
891.253	0.0139751
891.331	0.0139571
891.410	0.0139054
891.488	0.0140486
891.566	0.0140690
891.644	0.0140041
891.722	0.0139684
891.800	0.0140353
891.878	0.0141399
891.956	0.0141022
892.035	0.0141286
892.113	0.0143079
892.191	0.0142764
892.269	0.0143330
892.347	0.0144614
892.425	0.0143734
892.503	0.0142911
892.581	0.0142801
892.660	0.0145747
892.738	0.0144884
892.816	0.0146635
892.894	0.0146050
892.972	0.0146964
893.050	0.0146365
893.128	0.0147151
893.206	0.0145834
893.285	0.0146475
893.363	0.0147719
893.441	0.0146719
893.519	0.0147112
893.597	0.0147078
893.675	0.0144971
893.753	0.0146018
893.831	0.0145416
893.910	0.0147603
893.988	0.0143828
894.066	0.0143829
894.144	0.0144199
894.222	0.0142504
894.300	0.0143167
894.378	0.0141796
894.456	0.0142841
894.535	0.0140626
894.613	0.0141186
894.691	0.0142153
894.769	0.0142999
894.847	0.0143069
894.925	0.0142300
895.003	0.0143949
895.081	0.0142409
895.160	0.0142682
895.238	0.0142608
895.316	0.0142075
895.394	0.0141994
895.472	0.0142297
895.550	0.0143094
895.628	0.0142905
895.706	0.0142635
895.785	0.0143305
895.863	0.0144305
895.941	0.0145219
896.019	0.0144544
896.097	0.0145528
896.175	0.0147857
896.253	0.0148759
896.331	0.0147038
896.410	0.0148383
896.488	0.0149929
896.566	0.0148538
896.644	0.0148474
896.722	0.0147630
896.800	0.0145773
896.878	0.0144154
896.956	0.0143327
897.035	0.0142123
897.113	0.0140374
897.191	0.0138214
897.269	0.0137225
897.347	0.0136974
897.425	0.0137344
897.503	0.0137297
897.581	0.0139091
897.660	0.0141364
897.738	0.0144138
897.816	0.0145432
897.894	0.0149758
897.972	0.0150922
898.050	0.0153486
898.128	0.0155312
898.206	0.0155073
898.285	0.0155889
898.363	0.0154887
898.441	0.0152299
898.519	0.0151024
898.597	0.0149653
898.675	0.0147020
898.753	0.0146700
898.831	0.0145068
898.910	0.0143373
898.988	0.0142074
899.066	0.0138322
899.144	0.0137186
899.222	0.0133873
899.300	0.0133263
899.378	0.0132512
899.456	0.0129385
899.535	0.0129865
899.613	0.0127280
899.691	0.0127557
899.769	0.0129229
899.847	0.0127905
899.925	0.0131412
900.003	0.0133363
900.081	0.0138710
900.160	0.0139924
900.238	0.0144009
900.316	0.0146916
900.394	0.0151827
900.472	0.0155731
900.550	0.0156234
900.628	0.0158323
900.706	0.0160279
900.785	0.0160805
900.863	0.0159623
900.941	0.0158120
901.019	0.0156329
901.097	0.0154180
901.175	0.0153944
901.253	0.0154421
901.331	0.0149271
901.410	0.0147282
901.488	0.0146229
901.566	0.0146603
901.644	0.0143141
901.722	0.0140993
901.800	0.0138985
901.878	0.0136819
901.956	0.0134087
902.035	0.0133080
902.113	0.0131480
902.191	0.0131077
902.269	0.0129356
902.347	0.0129502
902.425	0.0129546
902.503	0.0130608
902.581	0.0130769
902.660	0.0134830
902.738	0.0134820
902.816	0.0135809
902.894	0.0140107
902.972	0.0141404
903.050	0.0143993
903.128	0.0144794
903.206	0.0148664
903.285	0.0151746
903.363	0.0152216
903.441	0.0152748
903.519	0.0153320
903.597	0.0152941
903.675	0.0152885
903.753	0.0153694
903.831	0.0153652
903.910	0.0152872
903.988	0.0152280
904.066	0.0152248
904.144	0.0152693
904.222	0.0152686
904.300	0.0151861
904.378	0.0153175
904.456	0.0153773
904.535	0.0151653
904.613	0.0150087
904.691	0.0148231
904.769	0.0149580
904.847	0.0146440
904.925	0.0144395
905.003	0.0142184
905.081	0.0139160
905.160	0.0137991
905.238	0.0135756
905.316	0.0133508
905.394	0.0132501
905.472	0.0131858
905.550	0.0130540
905.628	0.0130910
905.706	0.0130576
905.785	0.0131703
905.863	0.0132312
905.941	0.0133348
906.019	0.0135626
906.097	0.0138018
906.175	0.0139101
906.253	0.0141247
906.331	0.0143418
906.410	0.0143096
906.488	0.0144057
906.566	0.0145863
906.644	0.0147716
906.722	0.0146499
906.800	0.0146869
906.878	0.0146508
906.956	0.0147549
907.035	0.0147337
907.113	0.0147231
907.191	0.0147431
907.269	0.0148139
907.347	0.0148408
907.425	0.0149751
907.503	0.0150185
907.581	0.0150423
907.660	0.0150733
907.738	0.0149168
907.816	0.0148864
907.894	0.0149043
907.972	0.0147243
908.050	0.0146270
908.128	0.0144674
908.206	0.0142627
908.285	0.0142122
908.363	0.0139844
908.441	0.0139574
908.519	0.0138629
908.597	0.0137697
908.675	0.0138522
908.753	0.0138441
908.831	0.0139945
908.910	0.0139365
908.988	0.0140445
909.066	0.0139325
909.144	0.0140125
909.222	0.0141076
909.300	0.0141910
909.378	0.0141262
909.456	0.0141602
909.535	0.0141013
909.613	0.0141125
909.691	0.0140803
909.769	0.0140894
909.847	0.0140594
909.925	0.0142178
910.003	0.0141746
910.081	0.0142786
910.160	0.0142928
910.238	0.0142338
910.316	0.0143262
910.394	0.0145130
910.472	0.0145122
910.550	0.0145135
910.628	0.0145713
910.706	0.0145892
910.785	0.0146323
910.863	0.0147102
910.941	0.0147265
911.019	0.0148784
911.097	0.0149162
911.175	0.0147390
911.253	0.0149237
911.331	0.0150867
911.410	0.0148774
911.488	0.0148220
911.566	0.0147674
911.644	0.0146822
911.722	0.0146841
911.800	0.0144788
911.878	0.0143712
911.956	0.0144485
912.035	0.0144179
912.113	0.0143484
912.191	0.0142287
912.269	0.0143349
912.347	0.0143129
912.425	0.0142268
912.503	0.0141463
912.581	0.0141343
912.660	0.0143600
912.738	0.0141837
912.816	0.0142843
912.894	0.0143613
912.972	0.0143182
913.050	0.0144274
913.128	0.0142935
913.206	0.0142877
913.285	0.0141599
913.363	0.0143223
913.441	0.0142309
913.519	0.0142747
913.597	0.0142962
913.675	0.0143653
913.753	0.0140479
913.831	0.0142262
913.910	0.0141182
913.988	0.0140967
914.066	0.0139436
914.144	0.0140063
914.222	0.0140704
914.300	0.0139954
914.378	0.0139384
914.456	0.0137898
914.535	0.0140736
914.613	0.0140273
914.691	0.0139447
914.769	0.0141376
914.847	0.0143550
914.925	0.0144143
915.003	0.0144771
915.081	0.0146311
915.160	0.0146934
915.238	0.0147700
915.316	0.0147583
915.394	0.0148635
915.472	0.0147858
915.550	0.0149161
915.628	0.0149216
915.706	0.0147417
915.785	0.0148207
915.863	0.0147118
915.941	0.0146053
916.019	0.0145446
916.097	0.0144939
916.175	0.0145213
916.253	0.0143437
916.331	0.0143996
916.410	0.0143059
916.488	0.0143047
916.566	0.0143354
916.644	0.0144399
916.722	0.0143765
916.800	0.0143716
916.878	0.0144135
916.956	0.0144384
917.035	0.0142896
917.113	0.0142169
917.191	0.0143333
917.269	0.0143179
917.347	0.0141154
917.425	0.0141449
917.503	0.0140930
917.581	0.0138884
917.660	0.0140829
917.738	0.0139069
917.816	0.0138706
917.894	0.0140089
917.972	0.0140237
918.050	0.0140408
918.128	0.0139848
918.206	0.0139314
918.285	0.0141511
918.363	0.0141776
918.441	0.0142370
918.519	0.0141368
918.597	0.0143312
918.675	0.0144978
918.753	0.0146327
918.831	0.0146159
918.910	0.0145470
918.988	0.0146696
919.066	0.0148325
919.144	0.0149432
919.222	0.0148125
919.300	0.0147884
919.378	0.0149590
919.456	0.0149580
919.535	0.0149542
919.613	0.0151021
919.691	0.0151862
919.769	0.0149778
919.847	0.0149104
919.925	0.0148891
920.003	0.0148046
920.081	0.0146656
920.160	0.0147800
920.238	0.0147320
920.316	0.0146175
920.394	0.0146045
920.472	0.0143797
920.550	0.0143107
920.628	0.0141328
920.706	0.0141116
920.785	0.0140017
920.863	0.0138805
920.941	0.0138875
921.019	0.0138979
921.097	0.0138206
921.175	0.0139001
921.253	0.0138309
921.331	0.0138642
921.410	0.0140135
921.488	0.0138680
921.566	0.0139190
921.644	0.0139325
921.722	0.0140630
921.800	0.0140937
921.878	0.0141402
921.956	0.0141734
922.035	0.0141023
922.113	0.0141923
922.191	0.0142879
922.269	0.0141415
922.347	0.0143634
922.425	0.0143543
922.503	0.0144695
922.581	0.0145318
922.660	0.0145054
922.738	0.0145573
922.816	0.0145937
922.894	0.0146651
922.972	0.0146449
923.050	0.0147377
923.128	0.0147491
923.206	0.0148478
923.285	0.0151197
923.363	0.0149454
923.441	0.0150936
923.519	0.0149787
923.597	0.0149097
923.675	0.0150623
923.753	0.0149496
923.831	0.0148544
923.910	0.0147699
923.988	0.0147662
924.066	0.0147009
924.144	0.0145808
924.222	0.0146206
924.300	0.0144875
924.378	0.0143858
924.456	0.0142680
924.535	0.0142854
924.613	0.0142528
924.691	0.0142371
924.769	0.0142888
924.847	0.0144181
924.925	0.0143729
925.003	0.0143737
925.081	0.0142979
925.160	0.0144917
925.238	0.0144511
925.316	0.0144274
925.394	0.0145089
925.472	0.0144698
925.550	0.0144135
925.628	0.0144288
925.706	0.0141693
925.785	0.0142603
925.863	0.0143340
925.941	0.0142126
926.019	0.0141244
926.097	0.0142223
926.175	0.0141114
926.253	0.0141199
926.331	0.0140536
926.410	0.0140337
926.488	0.0141384
926.566	0.0140842
926.644	0.0140565
926.722	0.0141670
926.800	0.0143241
926.878	0.0142565
926.956	0.0142519
927.035	0.0143414
927.113	0.0143566
927.191	0.0143880
927.269	0.0145329
927.347	0.0146027
927.425	0.0143925
927.503	0.0147034
927.581	0.0146644
927.660	0.0147277
927.738	0.0147879
927.816	0.0149503
927.894	0.0147979
927.972	0.0147371
928.050	0.0148309
928.128	0.0148077
928.206	0.0146481
928.285	0.0144813
928.363	0.0143179
928.441	0.0143572
928.519	0.0144723
928.597	0.0142715
928.675	0.0141119
928.753	0.0140038
928.831	0.0140180
928.910	0.0139833
928.988	0.0140569
929.066	0.0140313
929.144	0.0140292
929.222	0.0138438
929.300	0.0140036
929.378	0.0139906
929.456	0.0139854
929.535	0.0139618
929.613	0.0140358
929.691	0.0139972
929.769	0.0142137
929.847	0.0143434
929.925	0.0141189
930.003	0.0142920
930.081	0.0144765
930.160	0.0146214
930.238	0.0145679
930.316	0.0145200
930.394	0.0146086
930.472	0.0147134
930.550	0.0148152
930.628	0.0146299
930.706	0.0147604
930.785	0.0146967
930.863	0.0146220
930.941	0.0146040
931.019	0.0146249
931.097	0.0144918
931.175	0.0145764
931.253	0.0146384
931.331	0.0144769
931.410	0.0143479
931.488	0.0143177
931.566	0.0143237
931.644	0.0144207
931.722	0.0143320
931.800	0.0142731
931.878	0.0144344
931.956	0.0143612
932.035	0.0143639
932.113	0.0143301
932.191	0.0142807
932.269	0.0143258
932.347	0.0142150
932.425	0.0142838
932.503	0.0142820
932.581	0.0141260
932.660	0.0140664
932.738	0.0142621
932.816	0.0140797
932.894	0.0140996
932.972	0.0141882
933.050	0.0141607
933.128	0.0143286
933.206	0.0143015
933.285	0.0142307
933.363	0.0142930
933.441	0.0142577
933.519	0.0142265
933.597	0.0144118
933.675	0.0144274
933.753	0.0143373
933.831	0.0143539
933.910	0.0142400
933.988	0.0141428
934.066	0.0144349
934.144	0.0142188
934.222	0.0142261
934.300	0.0142271
934.378	0.0142403
934.456	0.0142197
934.535	0.0141516
934.613	0.0141589
934.691	0.0141122
934.769	0.0141367
934.847	0.0141951
934.925	0.0141722
935.003	0.0141075
935.081	0.0139983
935.160	0.0141359
935.238	0.0143362
935.316	0.0139595
935.394	0.0141558
935.472	0.0141496
935.550	0.0142356
935.628	0.0141328
935.706	0.0141782
935.785	0.0143331
935.863	0.0142731
935.941	0.0144045
936.019	0.0142709
936.097	0.0143449
936.175	0.0144852
936.253	0.0143813
936.331	0.0144772
936.410	0.0145403
936.488	0.0144499
936.566	0.0145260
936.644	0.0145419
936.722	0.0142704
936.800	0.0142927
936.878	0.0144504
936.956	0.0142376
937.035	0.0142597
937.113	0.0142056
937.191	0.0143193
937.269	0.0142518
937.347	0.0141808
937.425	0.0141631
937.503	0.0138937
937.581	0.0140699
937.660	0.0140899
937.738	0.0141437
937.816	0.0141268
937.894	0.0140936
937.972	0.0142651
938.050	0.0142403
938.128	0.0141936
938.206	0.0143018
938.285	0.0143188
938.363	0.0144475
938.441	0.0144607
938.519	0.0144014
938.597	0.0144965
938.675	0.0146523
938.753	0.0145984
938.831	0.0145360
938.910	0.0145732
938.988	0.0144000
939.066	0.0143929
939.144	0.0145583
939.222	0.0144169
939.300	0.0144225
939.378	0.0143602
939.456	0.0142866
939.535	0.0143781
939.613	0.0143379
939.691	0.0144747
939.769	0.0144295
939.847	0.0144707
939.925	0.0144236
940.003	0.0143936
940.081	0.0144249
940.160	0.0145189
940.238	0.0142594
940.316	0.0143047
940.394	0.0141973
940.472	0.0142281
940.550	0.0143152
940.628	0.0142309
940.706	0.0142587
940.785	0.0141765
940.863	0.0142457
940.941	0.0142963
941.019	0.0141780
941.097	0.0140869
941.175	0.0140562
941.253	0.0142136
941.331	0.0144034
941.410	0.0143347
941.488	0.0142040
941.566	0.0142498
941.644	0.0143881
941.722	0.0143225
941.800	0.0144614
941.878	0.0145936
941.956	0.0145369
942.035	0.0144939
942.113	0.0144809
942.191	0.0145844
942.269	0.0145994
942.347	0.0146667
942.425	0.0147368
942.503	0.0147396
942.581	0.0146607
942.660	0.0146530
942.738	0.0148229
942.816	0.0148235
942.894	0.0146886
942.972	0.0145746
943.050	0.0146415
943.128	0.0144794
943.206	0.0145293
943.285	0.0143435
943.363	0.0142525
943.441	0.0142245
943.519	0.0143127
943.597	0.0142450
943.675	0.0141683
943.753	0.0144029
943.831	0.0142410
943.910	0.0140869
943.988	0.0142466
944.066	0.0142136
944.144	0.0140771
944.222	0.0143063
944.300	0.0141090
944.378	0.0142673
944.456	0.0143026
944.535	0.0142398
944.613	0.0144646
944.691	0.0144411
944.769	0.0144405
944.847	0.0145336
944.925	0.0145691
945.003	0.0145123
945.081	0.0146321
945.160	0.0147629
945.238	0.0145138
945.316	0.0144350
945.394	0.0146323
945.472	0.0146385
945.550	0.0145385
945.628	0.0146102
945.706	0.0145348
945.785	0.0145620
945.863	0.0144450
945.941	0.0145909
946.019	0.0146545
946.097	0.0145821
946.175	0.0145054
946.253	0.0145624
946.331	0.0145034
946.410	0.0143976
946.488	0.0144497
946.566	0.0143221
946.644	0.0144765
946.722	0.0145350
946.800	0.0143491
946.878	0.0144728
946.956	0.0144502
947.035	0.0142922
947.113	0.0143640
947.191	0.0143390
947.269	0.0142779
947.347	0.0141929
947.425	0.0143321
947.503	0.0142714
947.581	0.0142109
947.660	0.0143204
947.738	0.0143311
947.816	0.0142276
947.894	0.0140582
947.972	0.0140397
948.050	0.0142178
948.128	0.0142503
948.206	0.0142381
948.285	0.0142968
948.363	0.0142657
948.441	0.0142833
948.519	0.0142760
948.597	0.0143745
948.675	0.0143465
948.753	0.0142595
948.831	0.0143098
948.910	0.0143619
948.988	0.0143619
949.066	0.0143327
949.144	0.0143241
949.222	0.0142448
949.300	0.0142721
949.378	0.0143848
949.456	0.0143555
949.535	0.0142248
949.613	0.0142132
949.691	0.0144151
949.769	0.0145133
949.847	0.0144228
949.925	0.0144766
950.003	0.0146388
950.081	0.0145585
950.160	0.0145422
950.238	0.0146036
950.316	0.0146811
950.394	0.0144553
950.472	0.0144610
950.550	0.0145755
950.628	0.0145688
950.706	0.0144856
950.785	0.0143980
950.863	0.0143395
950.941	0.0143141
951.019	0.0144019
951.097	0.0142661
951.175	0.0142757
951.253	0.0143182
951.331	0.0141650
951.410	0.0142060
951.488	0.0141970
951.566	0.0141585
951.644	0.0142460
951.722	0.0142176
951.800	0.0143112
951.878	0.0143301
951.956	0.0142173
952.035	0.0141637
952.113	0.0141433
952.191	0.0141687
952.269	0.0141740
952.347	0.0141641
952.425	0.0141503
952.503	0.0139755
952.581	0.0141784
952.660	0.0140404
952.738	0.0139222
952.816	0.0140237
952.894	0.0139135
952.972	0.0139115
953.050	0.0138608
953.128	0.0138920
953.206	0.0138965
953.285	0.0139458
953.363	0.0139053
953.441	0.0140395
953.519	0.0139929
953.597	0.0141305
953.675	0.0141372
953.753	0.0141617
953.831	0.0141902
953.910	0.0143222
953.988	0.0144129
954.066	0.0144240
954.144	0.0145296
954.222	0.0146106
954.300	0.0147107
954.378	0.0146661
954.456	0.0147563
954.535	0.0149637
954.613	0.0147477
954.691	0.0147583
954.769	0.0149813
954.847	0.0150659
954.925	0.0148544
955.003	0.0149714
955.081	0.0148635
955.160	0.0147534
955.238	0.0146837
955.316	0.0146274
955.394	0.0144859
955.472	0.0144596
955.550	0.0144037
955.628	0.0141611
955.706	0.0140584
955.785	0.0141541
955.863	0.0139910
955.941	0.0137860
956.019	0.0136774
956.097	0.0137649
956.175	0.0136456
956.253	0.0135173
956.331	0.0136428
956.410	0.0135375
956.488	0.0136091
956.566	0.0135828
956.644	0.0135898
956.722	0.0137217
956.800	0.0137553
956.878	0.0138113
956.956	0.0138162
957.035	0.0141225
957.113	0.0140910
957.191	0.0141791
957.269	0.0142147
957.347	0.0141759
957.425	0.0142645
957.503	0.0144035
957.581	0.0144469
957.660	0.0143807
957.738	0.0142942
957.816	0.0144370
957.894	0.0143460
957.972	0.0144171
958.050	0.0141921
958.128	0.0142306
958.206	0.0141875
958.285	0.0142687
958.363	0.0141966
958.441	0.0142503
958.519	0.0142663
958.597	0.0142715
958.675	0.0142807
958.753	0.0143108
958.831	0.0144676
958.910	0.0145305
958.988	0.0146387
959.066	0.0147463
959.144	0.0147701
959.222	0.0147065
959.300	0.0148351
959.378	0.0148846
959.456	0.0147036
959.535	0.0149088
959.613	0.0147897
959.691	0.0146751
959.769	0.0146691
959.847	0.0147716
959.925	0.0145838
960.003	0.0146297
960.081	0.0145013
960.160	0.0144701
960.238	0.0142628
960.316	0.0142283
960.394	0.0143547
960.472	0.0140996
960.550	0.0140918
960.628	0.0139929
960.706	0.0140962
960.785	0.0141260
960.863	0.0140571
960.941	0.0140355
961.019	0.0140605
961.097	0.0140398
961.175	0.0141053
961.253	0.0140226
961.331	0.0139782
961.410	0.0140441
961.488	0.0138824
961.566	0.0139581
961.644	0.0138861
961.722	0.0139756
961.800	0.0139449
961.878	0.0140409
961.956	0.0140207
962.035	0.0142094
962.113	0.0141553
962.191	0.0141668
962.269	0.0143607
962.347	0.0143456
962.425	0.0143137
962.503	0.0144455
962.581	0.0143734
962.660	0.0145626
962.738	0.0145392
962.816	0.0145676
962.894	0.0146978
962.972	0.0145918
963.050	0.0145735
963.128	0.0146879
963.206	0.0146839
963.285	0.0147307
963.363	0.0147668
963.441	0.0145827
963.519	0.0146685
963.597	0.0146355
963.675	0.0145535
963.753	0.0144699
963.831	0.0143538
963.910	0.0144491
963.988	0.0143813
964.066	0.0143053
964.144	0.0143999
964.222	0.0144482
964.300	0.0142522
964.378	0.0141037
964.456	0.0142077
964.535	0.0142022
964.613	0.0140182
964.691	0.0141087
964.769	0.0140910
964.847	0.0140602
964.925	0.0140944
965.003	0.0140864
965.081	0.0140914
965.160	0.0140632
965.238	0.0142536
965.316	0.0142179
965.394	0.0141454
965.472	0.0141959
965.550	0.0143656
965.628	0.0144196
965.706	0.0143586
965.785	0.0144351
965.863	0.0145117
965.941	0.0144837
966.019	0.0144764
966.097	0.0145450
966.175	0.0145657
966.253	0.0144773
966.331	0.0143044
966.410	0.0144331
966.488	0.0144185
966.566	0.0144493
966.644	0.0144269
966.722	0.0143980
966.800	0.0142264
966.878	0.0142757
966.956	0.0141819
967.035	0.0142031
967.113	0.0141056
967.191	0.0141560
967.269	0.0142112
967.347	0.0140674
967.425	0.0140173
967.503	0.0141638
967.581	0.0141051
967.660	0.0141595
967.738	0.0141043
967.816	0.0142888
967.894	0.0143135
967.972	0.0142663
968.050	0.0142390
968.128	0.0143124
968.206	0.0143900
968.285	0.0143027
968.363	0.0143806
968.441	0.0144846
968.519	0.0145774
968.597	0.0145522
968.675	0.0144774
968.753	0.0144770
968.831	0.0145547
968.910	0.0146592
968.988	0.0145950
969.066	0.0147559
969.144	0.0147196
969.222	0.0144344
969.300	0.0144559
969.378	0.0145466
969.456	0.0145052
969.535	0.0145103
969.613	0.0143886
969.691	0.0144798
969.769	0.0143497
969.847	0.0143651
969.925	0.0143134
970.003	0.0144062
970.081	0.0142645
970.160	0.0144151
970.238	0.0143214
970.316	0.0144830
970.394	0.0145540
970.472	0.0145261
970.550	0.0144302
970.628	0.0144466
970.706	0.0142447
970.785	0.0143355
970.863	0.0144354
970.941	0.0143243
971.019	0.0143116
971.097	0.0143204
971.175	0.0142694
971.253	0.0141721
971.331	0.0143124
971.410	0.0142400
971.488	0.0141309
971.566	0.0142001
971.644	0.0142242
971.722	0.0140950
971.800	0.0140401
971.878	0.0142747
971.956	0.0142276
972.035	0.0142194
972.113	0.0141644
972.191	0.0141483
972.269	0.0143169
972.347	0.0142759
972.425	0.0143067
972.503	0.0143022
972.581	0.0142689
972.660	0.0143150
972.738	0.0143406
972.816	0.0142841
972.894	0.0141479
972.972	0.0142189
973.050	0.0142632
973.128	0.0142155
973.206	0.0141555
973.285	0.0141881
973.363	0.0142794
973.441	0.0143660
973.519	0.0142742
973.597	0.0142414
973.675	0.0143959
973.753	0.0142323
973.831	0.0144924
973.910	0.0146596
973.988	0.0146391
974.066	0.0146019
974.144	0.0144783
974.222	0.0145341
974.300	0.0147085
974.378	0.0146275
974.456	0.0145438
974.535	0.0144692
974.613	0.0145311
974.691	0.0144997
974.769	0.0143947
974.847	0.0142478
974.925	0.0143005
975.003	0.0142480
975.081	0.0142986
975.160	0.0140932
975.238	0.0140204
975.316	0.0141982
975.394	0.0141407
975.472	0.0141505
975.550	0.0140044
975.628	0.0140329
975.706	0.0139825
975.785	0.0140378
975.863	0.0141271
975.941	0.0140749
976.019	0.0142598
976.097	0.0142494
976.175	0.0143165
976.253	0.0142101
976.331	0.0141463
976.410	0.0142878
976.488	0.0141832
976.566	0.0142053
976.644	0.0141985
976.722	0.0142663
976.800	0.0142337
976.878	0.0143760
976.956	0.0142294
977.035	0.0142319
977.113	0.0143551
977.191	0.0143600
977.269	0.0142634
977.347	0.0143262
977.425	0.0144837
977.503	0.0144409
977.581	0.0142283
977.660	0.0143736
977.738	0.0143499
977.816	0.0143359
977.894	0.0142860
977.972	0.0141833
978.050	0.0143691
978.128	0.0142262
978.206	0.0141779
978.285	0.0143532
978.363	0.0143671
978.441	0.0144278
978.519	0.0144242
978.597	0.0143821
978.675	0.0144209
978.753	0.0146034
978.831	0.0144894
978.910	0.0145152
978.988	0.0145275
979.066	0.0145031
979.144	0.0144766
979.222	0.0145486
979.300	0.0143083
979.378	0.0144866
979.456	0.0144592
979.535	0.0143632
979.613	0.0144069
979.691	0.0143108
979.769	0.0143116
979.847	0.0142959
979.925	0.0142674
