05/03/2022	19:56:35	Ver.	4.1	UNKNOWN
Optical Delay	660.009933	Delta X		0.078125	Sweeps	1	Scan Rate	0/0
Coordinates	Axis 1	NaN	Axis 2	NaN	Axis 3	NaN	Axis 4	NaN	Axis 5	NaN	Axis 6	0.000000
TX Power	0.000000	RX Power	0.000000

660.010	0.0149113
660.088	0.0148952
660.166	0.0149096
660.244	0.0147720
660.322	0.0149693
660.401	0.0149639
660.479	0.0150336
660.557	0.0151109
660.635	0.0149766
660.713	0.0149834
660.791	0.0148389
660.869	0.0149426
660.947	0.0150482
661.026	0.0149344
661.104	0.0149615
661.182	0.0149732
661.260	0.0149747
661.338	0.0149230
661.416	0.0149450
661.494	0.0149811
661.572	0.0148637
661.651	0.0149068
661.729	0.0149162
661.807	0.0149420
661.885	0.0150297
661.963	0.0150011
662.041	0.0149015
662.119	0.0149306
662.197	0.0148425
662.276	0.0150408
662.354	0.0150668
662.432	0.0147968
662.510	0.0148777
662.588	0.0149230
662.666	0.0150029
662.744	0.0148131
662.822	0.0149942
662.901	0.0149164
662.979	0.0148295
663.057	0.0149654
663.135	0.0149493
663.213	0.0150883
663.291	0.0149625
663.369	0.0150282
663.447	0.0149139
663.526	0.0149542
663.604	0.0149490
663.682	0.0149619
663.760	0.0149298
663.838	0.0148835
663.916	0.0149911
663.994	0.0149104
664.072	0.0149065
664.151	0.0149122
664.229	0.0149392
664.307	0.0148628
664.385	0.0149345
664.463	0.0149764
664.541	0.0151301
664.619	0.0149571
664.697	0.0150074
664.776	0.0148563
664.854	0.0149114
664.932	0.0149934
665.010	0.0149284
665.088	0.0148461
665.166	0.0149061
665.244	0.0149888
665.322	0.0149964
665.401	0.0149723
665.479	0.0149617
665.557	0.0148332
665.635	0.0149369
665.713	0.0147806
665.791	0.0147601
665.869	0.0148274
665.947	0.0150172
666.026	0.0149150
666.104	0.0150245
666.182	0.0150166
666.260	0.0148993
666.338	0.0147942
666.416	0.0149123
666.494	0.0150211
666.572	0.0149995
666.651	0.0148356
666.729	0.0150262
666.807	0.0149477
666.885	0.0149580
666.963	0.0149138
667.041	0.0148509
667.119	0.0150047
667.197	0.0148711
667.276	0.0150288
667.354	0.0149368
667.432	0.0149434
667.510	0.0150721
667.588	0.0149133
667.666	0.0148535
667.744	0.0148752
667.822	0.0148395
667.901	0.0149380
667.979	0.0149371
668.057	0.0148753
668.135	0.0149377
668.213	0.0149477
668.291	0.0150313
668.369	0.0149739
668.447	0.0149860
668.526	0.0149081
668.604	0.0149449
668.682	0.0148495
668.760	0.0149055
668.838	0.0150309
668.916	0.0149566
668.994	0.0148573
669.072	0.0149033
669.151	0.0149637
669.229	0.0150140
669.307	0.0149425
669.385	0.0149573
669.463	0.0148336
669.541	0.0148832
669.619	0.0149660
669.697	0.0148000
669.776	0.0149401
669.854	0.0149612
669.932	0.0150175
670.010	0.0150245
670.088	0.0148587
670.166	0.0148991
670.244	0.0150430
670.322	0.0148796
670.401	0.0148417
670.479	0.0147972
670.557	0.0149722
670.635	0.0149648
670.713	0.0149894
670.791	0.0148959
670.869	0.0149048
670.947	0.0150318
671.026	0.0150018
671.104	0.0149337
671.182	0.0149313
671.260	0.0148940
671.338	0.0149216
671.416	0.0150268
671.494	0.0150806
671.572	0.0149591
671.651	0.0147965
671.729	0.0148022
671.807	0.0149281
671.885	0.0148829
671.963	0.0149020
672.041	0.0149065
672.119	0.0149335
672.197	0.0149976
672.276	0.0150945
672.354	0.0151856
672.432	0.0148811
672.510	0.0149358
672.588	0.0148927
672.666	0.0148509
672.744	0.0149657
672.822	0.0149876
672.901	0.0149191
672.979	0.0149893
673.057	0.0148380
673.135	0.0149529
673.213	0.0149232
673.291	0.0148702
673.369	0.0149489
673.447	0.0149348
673.526	0.0149288
673.604	0.0149843
673.682	0.0148832
673.760	0.0149303
673.838	0.0149436
673.916	0.0150169
673.994	0.0150002
674.072	0.0151080
674.151	0.0150456
674.229	0.0148425
674.307	0.0149464
674.385	0.0150396
674.463	0.0150314
674.541	0.0147495
674.619	0.0149335
674.697	0.0150493
674.776	0.0148950
674.854	0.0149309
674.932	0.0150082
675.010	0.0149199
675.088	0.0149809
675.166	0.0149001
675.244	0.0149416
675.322	0.0149427
675.401	0.0148116
675.479	0.0149642
675.557	0.0148709
675.635	0.0149908
675.713	0.0149585
675.791	0.0149676
675.869	0.0150051
675.947	0.0150930
676.026	0.0150642
676.104	0.0148974
676.182	0.0149525
676.260	0.0149072
676.338	0.0149202
676.416	0.0149075
676.494	0.0148776
676.572	0.0149696
676.651	0.0149991
676.729	0.0151048
676.807	0.0149232
676.885	0.0149212
676.963	0.0149156
677.041	0.0149240
677.119	0.0149651
677.197	0.0150336
677.276	0.0149403
677.354	0.0149142
677.432	0.0149588
677.510	0.0147667
677.588	0.0149841
677.666	0.0149740
677.744	0.0149971
677.822	0.0148820
677.901	0.0150302
677.979	0.0148795
678.057	0.0148755
678.135	0.0148784
678.213	0.0150164
678.291	0.0150583
678.369	0.0148634
678.447	0.0148198
678.526	0.0150060
678.604	0.0150577
678.682	0.0150941
678.760	0.0149608
678.838	0.0148910
678.916	0.0148548
678.994	0.0149360
679.072	0.0149954
679.151	0.0150342
679.229	0.0149723
679.307	0.0149694
679.385	0.0150086
679.463	0.0150024
679.541	0.0149578
679.619	0.0148158
679.697	0.0150700
679.776	0.0149314
679.854	0.0148580
679.932	0.0149886
680.010	0.0149939
680.088	0.0149500
680.166	0.0149423
680.244	0.0149977
680.322	0.0150123
680.401	0.0148820
680.479	0.0150523
680.557	0.0149899
680.635	0.0148019
680.713	0.0149073
680.791	0.0150008
680.869	0.0147995
680.947	0.0149370
681.026	0.0149711
681.104	0.0149177
681.182	0.0149222
681.260	0.0149749
681.338	0.0148949
681.416	0.0149730
681.494	0.0149436
681.572	0.0149660
681.651	0.0149314
681.729	0.0148289
681.807	0.0148494
681.885	0.0148769
681.963	0.0147929
682.041	0.0148556
682.119	0.0148617
682.197	0.0149978
682.276	0.0150159
682.354	0.0149667
682.432	0.0148779
682.510	0.0148624
682.588	0.0148055
682.666	0.0148531
682.744	0.0149152
682.822	0.0147601
682.901	0.0148711
682.979	0.0148502
683.057	0.0148201
683.135	0.0148557
683.213	0.0149656
683.291	0.0150287
683.369	0.0149435
683.447	0.0148639
683.526	0.0149824
683.604	0.0149847
683.682	0.0149593
683.760	0.0148751
683.838	0.0149216
683.916	0.0149511
683.994	0.0148710
684.072	0.0149485
684.151	0.0149115
684.229	0.0146930
684.307	0.0150181
684.385	0.0150191
684.463	0.0148663
684.541	0.0148297
684.619	0.0149527
684.697	0.0148047
684.776	0.0148120
684.854	0.0147134
684.932	0.0148653
685.010	0.0149090
685.088	0.0149624
685.166	0.0149719
685.244	0.0149694
685.322	0.0148422
685.401	0.0147766
685.479	0.0149882
685.557	0.0149917
685.635	0.0148959
685.713	0.0148573
685.791	0.0148367
685.869	0.0149390
685.947	0.0149969
686.026	0.0148792
686.104	0.0148488
686.182	0.0147991
686.260	0.0147827
686.338	0.0147725
686.416	0.0149084
686.494	0.0149792
686.572	0.0149702
686.651	0.0149104
686.729	0.0148019
686.807	0.0149222
686.885	0.0149217
686.963	0.0149408
687.041	0.0149571
687.119	0.0148102
687.197	0.0149693
687.276	0.0149123
687.354	0.0147546
687.432	0.0150044
687.510	0.0147469
687.588	0.0148705
687.666	0.0150163
687.744	0.0148444
687.822	0.0150798
687.901	0.0150152
687.979	0.0149039
688.057	0.0150471
688.135	0.0149155
688.213	0.0148483
688.291	0.0149543
688.369	0.0148826
688.447	0.0149905
688.526	0.0148656
688.604	0.0149646
688.682	0.0150725
688.760	0.0150095
688.838	0.0149171
688.916	0.0149622
688.994	0.0149355
689.072	0.0150155
689.151	0.0149879
689.229	0.0149775
689.307	0.0150388
689.385	0.0147867
689.463	0.0148059
689.541	0.0150428
689.619	0.0149512
689.697	0.0150526
689.776	0.0149624
689.854	0.0147672
689.932	0.0149034
690.010	0.0148768
690.088	0.0148524
690.166	0.0149043
690.244	0.0148843
690.322	0.0149550
690.401	0.0149792
690.479	0.0149071
690.557	0.0149078
690.635	0.0149320
690.713	0.0150228
690.791	0.0150475
690.869	0.0148801
690.947	0.0149096
691.026	0.0150271
691.104	0.0149486
691.182	0.0149784
691.260	0.0149532
691.338	0.0149550
691.416	0.0150652
691.494	0.0149291
691.572	0.0149538
691.651	0.0149794
691.729	0.0150104
691.807	0.0150063
691.885	0.0149744
691.963	0.0150095
692.041	0.0148244
692.119	0.0148336
692.197	0.0150743
692.276	0.0148279
692.354	0.0149579
692.432	0.0151051
692.510	0.0150570
692.588	0.0150723
692.666	0.0149551
692.744	0.0149699
692.822	0.0147041
692.901	0.0148734
692.979	0.0148623
693.057	0.0149255
693.135	0.0149733
693.213	0.0149670
693.291	0.0149166
693.369	0.0149159
693.447	0.0149590
693.526	0.0147533
693.604	0.0149164
693.682	0.0148816
693.760	0.0148619
693.838	0.0150496
693.916	0.0149597
693.994	0.0149096
694.072	0.0149023
694.151	0.0149089
694.229	0.0151371
694.307	0.0149461
694.385	0.0149494
694.463	0.0149174
694.541	0.0149561
694.619	0.0148278
694.697	0.0147840
694.776	0.0148444
694.854	0.0148915
694.932	0.0148510
695.010	0.0150440
695.088	0.0150826
695.166	0.0148644
695.244	0.0149956
695.322	0.0148937
695.401	0.0148378
695.479	0.0149573
695.557	0.0149725
695.635	0.0149458
695.713	0.0149234
695.791	0.0149854
695.869	0.0148848
695.947	0.0149297
696.026	0.0149799
696.104	0.0149905
696.182	0.0150024
696.260	0.0150089
696.338	0.0150385
696.416	0.0149908
696.494	0.0149120
696.572	0.0150577
696.651	0.0150137
696.729	0.0148977
696.807	0.0150231
696.885	0.0148856
696.963	0.0148843
697.041	0.0149927
697.119	0.0149737
697.197	0.0148949
697.276	0.0150057
697.354	0.0150372
697.432	0.0149210
697.510	0.0148244
697.588	0.0149261
697.666	0.0150027
697.744	0.0150375
697.822	0.0149747
697.901	0.0149986
697.979	0.0149335
698.057	0.0149442
698.135	0.0149683
698.213	0.0148785
698.291	0.0149628
698.369	0.0150261
698.447	0.0148641
698.526	0.0149773
698.604	0.0150276
698.682	0.0150359
698.760	0.0149033
698.838	0.0148681
698.916	0.0150430
698.994	0.0149622
699.072	0.0149554
699.151	0.0148745
699.229	0.0150431
699.307	0.0149147
699.385	0.0149672
699.463	0.0151110
699.541	0.0149838
699.619	0.0149788
699.697	0.0149904
699.776	0.0148891
699.854	0.0149987
699.932	0.0150477
700.010	0.0150216
700.088	0.0149026
700.166	0.0148588
700.244	0.0150241
700.322	0.0149954
700.401	0.0148806
700.479	0.0149743
700.557	0.0148588
700.635	0.0149097
700.713	0.0150235
700.791	0.0149071
700.869	0.0149618
700.947	0.0149554
701.026	0.0151109
701.104	0.0149456
701.182	0.0149339
701.260	0.0149810
701.338	0.0148153
701.416	0.0148614
701.494	0.0149638
701.572	0.0149705
701.651	0.0149292
701.729	0.0149765
701.807	0.0150222
701.885	0.0150578
701.963	0.0149908
702.041	0.0149235
702.119	0.0151305
702.197	0.0149609
702.276	0.0150319
702.354	0.0149908
702.432	0.0150239
702.510	0.0149654
702.588	0.0149371
702.666	0.0150092
702.744	0.0150397
702.822	0.0149685
702.901	0.0149506
702.979	0.0148879
703.057	0.0148667
703.135	0.0148442
703.213	0.0149106
703.291	0.0149651
703.369	0.0149744
703.447	0.0149744
703.526	0.0149515
703.604	0.0147812
703.682	0.0149904
703.760	0.0149377
703.838	0.0148644
703.916	0.0149796
703.994	0.0151162
704.072	0.0150697
704.151	0.0149453
704.229	0.0149251
704.307	0.0149864
704.385	0.0149176
704.463	0.0149886
704.541	0.0149795
704.619	0.0150038
704.697	0.0149432
704.776	0.0149896
704.854	0.0149262
704.932	0.0149584
705.010	0.0149235
705.088	0.0148628
705.166	0.0149635
705.244	0.0149901
705.322	0.0149093
705.401	0.0149300
705.479	0.0151781
705.557	0.0150214
705.635	0.0149347
705.713	0.0150867
705.791	0.0150048
705.869	0.0151167
705.947	0.0150845
706.026	0.0151452
706.104	0.0151882
706.182	0.0149502
706.260	0.0150012
706.338	0.0149059
706.416	0.0150143
706.494	0.0150020
706.572	0.0149372
706.651	0.0148631
706.729	0.0146870
706.807	0.0147249
706.885	0.0148362
706.963	0.0148210
707.041	0.0149581
707.119	0.0148672
707.197	0.0148057
707.276	0.0149615
707.354	0.0149355
707.432	0.0150901
707.510	0.0150579
707.588	0.0150887
707.666	0.0150378
707.744	0.0149699
707.822	0.0152230
707.901	0.0150493
707.979	0.0150298
708.057	0.0150646
708.135	0.0149952
708.213	0.0149834
708.291	0.0150012
708.369	0.0150605
708.447	0.0149731
708.526	0.0148649
708.604	0.0147494
708.682	0.0147614
708.760	0.0146329
708.838	0.0146508
708.916	0.0143869
708.994	0.0143007
709.072	0.0142027
709.151	0.0140220
709.229	0.0140178
709.307	0.0141348
709.385	0.0142388
709.463	0.0144279
709.541	0.0147041
709.619	0.0151274
709.697	0.0151744
709.776	0.0154620
709.854	0.0157764
709.932	0.0156477
710.010	0.0155341
710.088	0.0154176
710.166	0.0151694
710.244	0.0149696
710.322	0.0144640
710.401	0.0142767
710.479	0.0139980
710.557	0.0140832
710.635	0.0140112
710.713	0.0140164
710.791	0.0140493
710.869	0.0143333
710.947	0.0147023
711.026	0.0148818
711.104	0.0151052
711.182	0.0153642
711.260	0.0155657
711.338	0.0157320
711.416	0.0158644
711.494	0.0159553
711.572	0.0159430
711.651	0.0159889
711.729	0.0160737
711.807	0.0159931
711.885	0.0160210
711.963	0.0158090
712.041	0.0156997
712.119	0.0155151
712.197	0.0154034
712.276	0.0152632
712.354	0.0150932
712.432	0.0148903
712.510	0.0148881
712.588	0.0147562
712.666	0.0145775
712.744	0.0145747
712.822	0.0144946
712.901	0.0146257
712.979	0.0143771
713.057	0.0143925
713.135	0.0146011
713.213	0.0143764
713.291	0.0145130
713.369	0.0146366
713.447	0.0145824
713.526	0.0147565
713.604	0.0148513
713.682	0.0149916
713.760	0.0152261
713.838	0.0153004
713.916	0.0154129
713.994	0.0153636
714.072	0.0154592
714.151	0.0154040
714.229	0.0151003
714.307	0.0152263
714.385	0.0150301
714.463	0.0148180
714.541	0.0146507
714.619	0.0142414
714.697	0.0140150
714.776	0.0138310
714.854	0.0136909
714.932	0.0135378
715.010	0.0136001
715.088	0.0136194
715.166	0.0136527
715.244	0.0138680
715.322	0.0140942
715.401	0.0143594
715.479	0.0145768
715.557	0.0148513
715.635	0.0152026
715.713	0.0155846
715.791	0.0159102
715.869	0.0160301
715.947	0.0161347
716.026	0.0163228
716.104	0.0164387
716.182	0.0164354
716.260	0.0164112
716.338	0.0163686
716.416	0.0162218
716.494	0.0160627
716.572	0.0159641
716.651	0.0158714
716.729	0.0157529
716.807	0.0154385
716.885	0.0154659
716.963	0.0151289
717.041	0.0149241
717.119	0.0147590
717.197	0.0145963
717.276	0.0144539
717.354	0.0140604
717.432	0.0139601
717.510	0.0139273
717.588	0.0138555
717.666	0.0136419
717.744	0.0135263
717.822	0.0136531
717.901	0.0134427
717.979	0.0134160
718.057	0.0135780
718.135	0.0137853
718.213	0.0138262
718.291	0.0139282
718.369	0.0142322
718.447	0.0144489
718.526	0.0148370
718.604	0.0148675
718.682	0.0151923
718.760	0.0156367
718.838	0.0157310
718.916	0.0158041
718.994	0.0160089
719.072	0.0162601
719.151	0.0164481
719.229	0.0163969
719.307	0.0163974
719.385	0.0165749
719.463	0.0166026
719.541	0.0163909
719.619	0.0161890
719.697	0.0160252
719.776	0.0160455
719.854	0.0159361
719.932	0.0154549
720.010	0.0153490
720.088	0.0151408
720.166	0.0149615
720.244	0.0148569
720.322	0.0146133
720.401	0.0145235
720.479	0.0143059
720.557	0.0143512
720.635	0.0141032
720.713	0.0140889
720.791	0.0140619
720.869	0.0140193
720.947	0.0140672
721.026	0.0139845
721.104	0.0140176
721.182	0.0137965
721.260	0.0138437
721.338	0.0139521
721.416	0.0138919
721.494	0.0138333
721.572	0.0137487
721.651	0.0138457
721.729	0.0138436
721.807	0.0138769
721.885	0.0137080
721.963	0.0139399
722.041	0.0138646
722.119	0.0139436
722.197	0.0140898
722.276	0.0142407
722.354	0.0145036
722.432	0.0145650
722.510	0.0147054
722.588	0.0149606
722.666	0.0152279
722.744	0.0154592
722.822	0.0156522
722.901	0.0157570
722.979	0.0157463
723.057	0.0161477
723.135	0.0161966
723.213	0.0162718
723.291	0.0162296
723.369	0.0162041
723.447	0.0164115
723.526	0.0163990
723.604	0.0162156
723.682	0.0162252
723.760	0.0160885
723.838	0.0161313
723.916	0.0158886
723.994	0.0160401
724.072	0.0159386
724.151	0.0158900
724.229	0.0157910
724.307	0.0157780
724.385	0.0156021
724.463	0.0154344
724.541	0.0154642
724.619	0.0153864
724.697	0.0151273
724.776	0.0149672
724.854	0.0148589
724.932	0.0148652
725.010	0.0146845
725.088	0.0145340
725.166	0.0144057
725.244	0.0143428
725.322	0.0141930
725.401	0.0141180
725.479	0.0142448
725.557	0.0139117
725.635	0.0139710
725.713	0.0137472
725.791	0.0136388
725.869	0.0136498
725.947	0.0137390
726.026	0.0137037
726.104	0.0135753
726.182	0.0136141
726.260	0.0137337
726.338	0.0138000
726.416	0.0137815
726.494	0.0139172
726.572	0.0138481
726.651	0.0140422
726.729	0.0141705
726.807	0.0142265
726.885	0.0142506
726.963	0.0143548
727.041	0.0144183
727.119	0.0146257
727.197	0.0146862
727.276	0.0147595
727.354	0.0150033
727.432	0.0149371
727.510	0.0150929
727.588	0.0153011
727.666	0.0156095
727.744	0.0158875
727.822	0.0159391
727.901	0.0161891
727.979	0.0161916
728.057	0.0161774
728.135	0.0164024
728.213	0.0164126
728.291	0.0164713
728.369	0.0165459
728.447	0.0163998
728.526	0.0164022
728.604	0.0163931
728.682	0.0162271
728.760	0.0161500
728.838	0.0161200
728.916	0.0159793
728.994	0.0159132
729.072	0.0158006
729.151	0.0157378
729.229	0.0155975
729.307	0.0154693
729.385	0.0152117
729.463	0.0151624
729.541	0.0150872
729.619	0.0149989
729.697	0.0148932
729.776	0.0148164
729.854	0.0147143
729.932	0.0146538
730.010	0.0145100
730.088	0.0145727
730.166	0.0144139
730.244	0.0143587
730.322	0.0142390
730.401	0.0141537
730.479	0.0141232
730.557	0.0140462
730.635	0.0138818
730.713	0.0137443
730.791	0.0138097
730.869	0.0137254
730.947	0.0135133
731.026	0.0137012
731.104	0.0136858
731.182	0.0134637
731.260	0.0136376
731.338	0.0137450
731.416	0.0136667
731.494	0.0136724
731.572	0.0138367
731.651	0.0139146
731.729	0.0139589
731.807	0.0141576
731.885	0.0143749
731.963	0.0145033
732.041	0.0145126
732.119	0.0144542
732.197	0.0146128
732.276	0.0146575
732.354	0.0146487
732.432	0.0148518
732.510	0.0149593
732.588	0.0149107
732.666	0.0150268
732.744	0.0152031
732.822	0.0152359
732.901	0.0152686
732.979	0.0153252
733.057	0.0154543
733.135	0.0156310
733.213	0.0155205
733.291	0.0157169
733.369	0.0157564
733.447	0.0159098
733.526	0.0159249
733.604	0.0160495
733.682	0.0161016
733.760	0.0161893
733.838	0.0160980
733.916	0.0162615
733.994	0.0161707
734.072	0.0162968
734.151	0.0162013
734.229	0.0161992
734.307	0.0162613
734.385	0.0160556
734.463	0.0160141
734.541	0.0160660
734.619	0.0159746
734.697	0.0158214
734.776	0.0155774
734.854	0.0153902
734.932	0.0151911
735.010	0.0152379
735.088	0.0149673
735.166	0.0149073
735.244	0.0149258
735.322	0.0148586
735.401	0.0147516
735.479	0.0145937
735.557	0.0146528
735.635	0.0146639
735.713	0.0144882
735.791	0.0144441
735.869	0.0144121
735.947	0.0143111
736.026	0.0143855
736.104	0.0142371
736.182	0.0143102
736.260	0.0141763
736.338	0.0140728
736.416	0.0139883
736.494	0.0141736
736.572	0.0139493
736.651	0.0139573
736.729	0.0138293
736.807	0.0139914
736.885	0.0139009
736.963	0.0139718
737.041	0.0139456
737.119	0.0139247
737.197	0.0140747
737.276	0.0140347
737.354	0.0141084
737.432	0.0142849
737.510	0.0140038
737.588	0.0143073
737.666	0.0144285
737.744	0.0143741
737.822	0.0144768
737.901	0.0145442
737.979	0.0145016
738.057	0.0146980
738.135	0.0147983
738.213	0.0150872
738.291	0.0149669
738.369	0.0152118
738.447	0.0151789
738.526	0.0151853
738.604	0.0152856
738.682	0.0154743
738.760	0.0155248
738.838	0.0156373
738.916	0.0156856
738.994	0.0156000
739.072	0.0158191
739.151	0.0157337
739.229	0.0157818
739.307	0.0158426
739.385	0.0158701
739.463	0.0158491
739.541	0.0159176
739.619	0.0158701
739.697	0.0158949
739.776	0.0158479
739.854	0.0157882
739.932	0.0157437
740.010	0.0157906
740.088	0.0156041
740.166	0.0156298
740.244	0.0156017
740.322	0.0154927
740.401	0.0154034
740.479	0.0153555
740.557	0.0153581
740.635	0.0152727
740.713	0.0150625
740.791	0.0150796
740.869	0.0151501
740.947	0.0150360
741.026	0.0149621
741.104	0.0147050
741.182	0.0147543
741.260	0.0148692
741.338	0.0148824
741.416	0.0146805
741.494	0.0147124
741.572	0.0146971
741.651	0.0146046
741.729	0.0148241
741.807	0.0146790
741.885	0.0146186
741.963	0.0146237
742.041	0.0146783
742.119	0.0145319
742.197	0.0144859
742.276	0.0144107
742.354	0.0143436
742.432	0.0141588
742.510	0.0143414
742.588	0.0142382
742.666	0.0139578
742.744	0.0140560
742.822	0.0140332
742.901	0.0140042
742.979	0.0139688
743.057	0.0140408
743.135	0.0140324
743.213	0.0142155
743.291	0.0141853
743.369	0.0140380
743.447	0.0143294
743.526	0.0143339
743.604	0.0144332
743.682	0.0143810
743.760	0.0144923
743.838	0.0145287
743.916	0.0146691
743.994	0.0145378
744.072	0.0146117
744.151	0.0146738
744.229	0.0148338
744.307	0.0147635
744.385	0.0147484
744.463	0.0147758
744.541	0.0149172
744.619	0.0148757
744.697	0.0151179
744.776	0.0150395
744.854	0.0150771
744.932	0.0152675
745.010	0.0151987
745.088	0.0153190
745.166	0.0153053
745.244	0.0152048
745.322	0.0153506
745.401	0.0154627
745.479	0.0154402
745.557	0.0154216
745.635	0.0154472
745.713	0.0155692
745.791	0.0155413
745.869	0.0154771
745.947	0.0154863
746.026	0.0154777
746.104	0.0156635
746.182	0.0154933
746.260	0.0156372
746.338	0.0155759
746.416	0.0155622
746.494	0.0155402
746.572	0.0155475
746.651	0.0154185
746.729	0.0154755
746.807	0.0154263
746.885	0.0154395
746.963	0.0153769
747.041	0.0151897
747.119	0.0152703
747.197	0.0152605
747.276	0.0150529
747.354	0.0149097
747.432	0.0149014
747.510	0.0148161
747.588	0.0147718
747.666	0.0146761
747.744	0.0146271
747.822	0.0147340
747.901	0.0146688
747.979	0.0146232
748.057	0.0143391
748.135	0.0145018
748.213	0.0144419
748.291	0.0143393
748.369	0.0144132
748.447	0.0143366
748.526	0.0144305
748.604	0.0142376
748.682	0.0140302
748.760	0.0143093
748.838	0.0142385
748.916	0.0140692
748.994	0.0141856
749.072	0.0142513
749.151	0.0142372
749.229	0.0142187
749.307	0.0142702
749.385	0.0142670
749.463	0.0143865
749.541	0.0142534
749.619	0.0143662
749.697	0.0144276
749.776	0.0144730
749.854	0.0146377
749.932	0.0145980
750.010	0.0144894
750.088	0.0145877
750.166	0.0145829
750.244	0.0146881
750.322	0.0146311
750.401	0.0146907
750.479	0.0147978
750.557	0.0149626
750.635	0.0148526
750.713	0.0148449
750.791	0.0150622
750.869	0.0150266
750.947	0.0150884
751.026	0.0152963
751.104	0.0152271
751.182	0.0153682
751.260	0.0154058
751.338	0.0155309
751.416	0.0155048
751.494	0.0154646
751.572	0.0154784
751.651	0.0154821
751.729	0.0155390
751.807	0.0153944
751.885	0.0156106
751.963	0.0155056
752.041	0.0154817
752.119	0.0155793
752.197	0.0156174
752.276	0.0155320
752.354	0.0155857
752.432	0.0154985
752.510	0.0154562
752.588	0.0155026
752.666	0.0155597
752.744	0.0153861
752.822	0.0154591
752.901	0.0154173
752.979	0.0153634
753.057	0.0154698
753.135	0.0154429
753.213	0.0153062
753.291	0.0153859
753.369	0.0152129
753.447	0.0152510
753.526	0.0151242
753.604	0.0150760
753.682	0.0151849
753.760	0.0151225
753.838	0.0147567
753.916	0.0149110
753.994	0.0149116
754.072	0.0148956
754.151	0.0148244
754.229	0.0147998
754.307	0.0148029
754.385	0.0147721
754.463	0.0147185
754.541	0.0146825
754.619	0.0146628
754.697	0.0145649
754.776	0.0144653
754.854	0.0146263
754.932	0.0144618
755.010	0.0145125
755.088	0.0144112
755.166	0.0144567
755.244	0.0144761
755.322	0.0143818
755.401	0.0144529
755.479	0.0144923
755.557	0.0143546
755.635	0.0141658
755.713	0.0144360
755.791	0.0142888
755.869	0.0142594
755.947	0.0144083
756.026	0.0144822
756.104	0.0142905
756.182	0.0142863
756.260	0.0142847
756.338	0.0144344
756.416	0.0143895
756.494	0.0145609
756.572	0.0146800
756.651	0.0144938
756.729	0.0147200
756.807	0.0148556
756.885	0.0147502
756.963	0.0149261
757.041	0.0148114
757.119	0.0149822
757.197	0.0151331
757.276	0.0148962
757.354	0.0151550
757.432	0.0150527
757.510	0.0151797
757.588	0.0151118
757.666	0.0150275
757.744	0.0150656
757.822	0.0150859
757.901	0.0151606
757.979	0.0151479
758.057	0.0151820
758.135	0.0151945
758.213	0.0151358
758.291	0.0152116
758.369	0.0152684
758.447	0.0153273
758.526	0.0153729
758.604	0.0153167
758.682	0.0154096
758.760	0.0153419
758.838	0.0153815
758.916	0.0155161
758.994	0.0153667
759.072	0.0153493
759.151	0.0153522
759.229	0.0153864
759.307	0.0153722
759.385	0.0154032
759.463	0.0152044
759.541	0.0154063
759.619	0.0153719
759.697	0.0153411
759.776	0.0153374
759.854	0.0153042
759.932	0.0153260
760.010	0.0151929
760.088	0.0151658
760.166	0.0152281
760.244	0.0150024
760.322	0.0149513
760.401	0.0148943
760.479	0.0149543
760.557	0.0148221
760.635	0.0146394
760.713	0.0146908
760.791	0.0144858
760.869	0.0145352
760.947	0.0144936
761.026	0.0143800
761.104	0.0144576
761.182	0.0144925
761.260	0.0144825
761.338	0.0145893
761.416	0.0145554
761.494	0.0146874
761.572	0.0145401
761.651	0.0144650
761.729	0.0146516
761.807	0.0147459
761.885	0.0147166
761.963	0.0147124
762.041	0.0148032
762.119	0.0146130
762.197	0.0145870
762.276	0.0148093
762.354	0.0147804
762.432	0.0147317
762.510	0.0146173
762.588	0.0147447
762.666	0.0148199
762.744	0.0146571
762.822	0.0145466
762.901	0.0146112
762.979	0.0146911
763.057	0.0146702
763.135	0.0146348
763.213	0.0145167
763.291	0.0146365
763.369	0.0145907
763.447	0.0145866
763.526	0.0145947
763.604	0.0146424
763.682	0.0146876
763.760	0.0147680
763.838	0.0148133
763.916	0.0147935
763.994	0.0147797
764.072	0.0148692
764.151	0.0148419
764.229	0.0147717
764.307	0.0150616
764.385	0.0151401
764.463	0.0151128
764.541	0.0150918
764.619	0.0153191
764.697	0.0153899
764.776	0.0152859
764.854	0.0152876
764.932	0.0153597
765.010	0.0154379
765.088	0.0154877
765.166	0.0155112
765.244	0.0154162
765.322	0.0154132
765.401	0.0153413
765.479	0.0153318
765.557	0.0154036
765.635	0.0153233
765.713	0.0153086
765.791	0.0153365
765.869	0.0153143
765.947	0.0153519
766.026	0.0153242
766.104	0.0152958
766.182	0.0153426
766.260	0.0154796
766.338	0.0154204
766.416	0.0152499
766.494	0.0154913
766.572	0.0155008
766.651	0.0154098
766.729	0.0153216
766.807	0.0152661
766.885	0.0153620
766.963	0.0152898
767.041	0.0152027
767.119	0.0150927
767.197	0.0150780
767.276	0.0148749
767.354	0.0150730
767.432	0.0150372
767.510	0.0148283
767.588	0.0148569
767.666	0.0148724
767.744	0.0145913
767.822	0.0146435
767.901	0.0146194
767.979	0.0145884
768.057	0.0144672
768.135	0.0144836
768.213	0.0144962
768.291	0.0144553
768.369	0.0143605
768.447	0.0144052
768.526	0.0143978
768.604	0.0143662
768.682	0.0144355
768.760	0.0144579
768.838	0.0144024
768.916	0.0144436
768.994	0.0143144
769.072	0.0143354
769.151	0.0144040
769.229	0.0144882
769.307	0.0143673
769.385	0.0143678
769.463	0.0145421
769.541	0.0144975
769.619	0.0144878
769.697	0.0143432
769.776	0.0145184
769.854	0.0145380
769.932	0.0145416
770.010	0.0145174
770.088	0.0145331
770.166	0.0146756
770.244	0.0147742
770.322	0.0145887
770.401	0.0147267
770.479	0.0147363
770.557	0.0147093
770.635	0.0148632
770.713	0.0146983
770.791	0.0148087
770.869	0.0147918
770.947	0.0149113
771.026	0.0148255
771.104	0.0148969
771.182	0.0149747
771.260	0.0149804
771.338	0.0149408
771.416	0.0151596
771.494	0.0151459
771.572	0.0151170
771.651	0.0151352
771.729	0.0151688
771.807	0.0152406
771.885	0.0152742
771.963	0.0153690
772.041	0.0154051
772.119	0.0153705
772.197	0.0153402
772.276	0.0154919
772.354	0.0155251
772.432	0.0154375
772.510	0.0152782
772.588	0.0153689
772.666	0.0153930
772.744	0.0151965
772.822	0.0153821
772.901	0.0152749
772.979	0.0152535
773.057	0.0152091
773.135	0.0152224
773.213	0.0152866
773.291	0.0152632
773.369	0.0151252
773.447	0.0151753
773.526	0.0152700
773.604	0.0151448
773.682	0.0151148
773.760	0.0152335
773.838	0.0151537
773.916	0.0150464
773.994	0.0151160
774.072	0.0149790
774.151	0.0150092
774.229	0.0149966
774.307	0.0149963
774.385	0.0149969
774.463	0.0149500
774.541	0.0148302
774.619	0.0147601
774.697	0.0147291
774.776	0.0147925
774.854	0.0147514
774.932	0.0147329
775.010	0.0147153
775.088	0.0148186
775.166	0.0146812
775.244	0.0146254
775.322	0.0146967
775.401	0.0147874
775.479	0.0146179
775.557	0.0146816
775.635	0.0146522
775.713	0.0146665
775.791	0.0145333
775.869	0.0144719
775.947	0.0146344
776.026	0.0146043
776.104	0.0145449
776.182	0.0144644
776.260	0.0144328
776.338	0.0145383
776.416	0.0145422
776.494	0.0145613
776.572	0.0145332
776.651	0.0144674
776.729	0.0144957
776.807	0.0144733
776.885	0.0145116
776.963	0.0146120
777.041	0.0146265
777.119	0.0145929
777.197	0.0146367
777.276	0.0147915
777.354	0.0147900
777.432	0.0146487
777.510	0.0150718
777.588	0.0148964
777.666	0.0149477
777.744	0.0150906
777.822	0.0149792
777.901	0.0149049
777.979	0.0150098
778.057	0.0150935
778.135	0.0151166
778.213	0.0152703
778.291	0.0152102
778.369	0.0151377
778.447	0.0151316
778.526	0.0150991
778.604	0.0151361
778.682	0.0151355
778.760	0.0151560
778.838	0.0152822
778.916	0.0152942
778.994	0.0153033
779.072	0.0152799
779.151	0.0152059
779.229	0.0152311
779.307	0.0152808
779.385	0.0152153
779.463	0.0152112
779.541	0.0152837
779.619	0.0152055
779.697	0.0151693
779.776	0.0152734
779.854	0.0151198
779.932	0.0151598
780.010	0.0151463
780.088	0.0151615
780.166	0.0151401
780.244	0.0151727
780.322	0.0151078
780.401	0.0151885
780.479	0.0151418
780.557	0.0152069
780.635	0.0152621
780.713	0.0151219
780.791	0.0150871
780.869	0.0151128
780.947	0.0150533
781.026	0.0149181
781.104	0.0149407
781.182	0.0150035
781.260	0.0148318
781.338	0.0149323
781.416	0.0148378
781.494	0.0148683
781.572	0.0148253
781.651	0.0149571
781.729	0.0149092
781.807	0.0147755
781.885	0.0148686
781.963	0.0149004
782.041	0.0148663
782.119	0.0148953
782.197	0.0148186
782.276	0.0148315
782.354	0.0147935
782.432	0.0148504
782.510	0.0147146
782.588	0.0147260
782.666	0.0147792
782.744	0.0146300
782.822	0.0146146
782.901	0.0144545
782.979	0.0146416
783.057	0.0145786
783.135	0.0144055
783.213	0.0145880
783.291	0.0146236
783.369	0.0145068
783.447	0.0144479
783.526	0.0145760
783.604	0.0144949
783.682	0.0146727
783.760	0.0146299
783.838	0.0145366
783.916	0.0145381
783.994	0.0146138
784.072	0.0147868
784.151	0.0147980
784.229	0.0149151
784.307	0.0149088
784.385	0.0149641
784.463	0.0149316
784.541	0.0149110
784.619	0.0149695
784.697	0.0149410
784.776	0.0150121
784.854	0.0149514
784.932	0.0149107
785.010	0.0150343
785.088	0.0149568
785.166	0.0150034
785.244	0.0149612
785.322	0.0150053
785.401	0.0149521
785.479	0.0150301
785.557	0.0150710
785.635	0.0151905
785.713	0.0151347
785.791	0.0151482
785.869	0.0150557
785.947	0.0151431
786.026	0.0151615
786.104	0.0153172
786.182	0.0153009
786.260	0.0152655
786.338	0.0151815
786.416	0.0153344
786.494	0.0153482
786.572	0.0152616
786.651	0.0152532
786.729	0.0151655
786.807	0.0152071
786.885	0.0152710
786.963	0.0151382
787.041	0.0151005
787.119	0.0151652
787.197	0.0151851
787.276	0.0152314
787.354	0.0150446
787.432	0.0150645
787.510	0.0151246
787.588	0.0150970
787.666	0.0149564
787.744	0.0150718
787.822	0.0150664
787.901	0.0150008
787.979	0.0148976
788.057	0.0149534
788.135	0.0149992
788.213	0.0150471
788.291	0.0150776
788.369	0.0149449
788.447	0.0149731
788.526	0.0149064
788.604	0.0148966
788.682	0.0148479
788.760	0.0147520
788.838	0.0149264
788.916	0.0149600
788.994	0.0147056
789.072	0.0147828
789.151	0.0148077
789.229	0.0148273
789.307	0.0148126
789.385	0.0146936
789.463	0.0146293
789.541	0.0146924
789.619	0.0147476
789.697	0.0146656
789.776	0.0146825
789.854	0.0147538
789.932	0.0147969
790.010	0.0147402
790.088	0.0146024
790.166	0.0146064
790.244	0.0145165
790.322	0.0146996
790.401	0.0146521
790.479	0.0146623
790.557	0.0147023
790.635	0.0147206
790.713	0.0147581
790.791	0.0146638
790.869	0.0146642
790.947	0.0148735
791.026	0.0149385
791.104	0.0148456
791.182	0.0146829
791.260	0.0147894
791.338	0.0149622
791.416	0.0149095
791.494	0.0147874
791.572	0.0149030
791.651	0.0148704
791.729	0.0148153
791.807	0.0148193
791.885	0.0148647
791.963	0.0149263
792.041	0.0147969
792.119	0.0149271
792.197	0.0149383
792.276	0.0148888
792.354	0.0149699
792.432	0.0148478
792.510	0.0148541
792.588	0.0149699
792.666	0.0150248
792.744	0.0148857
792.822	0.0148179
792.901	0.0149384
792.979	0.0150452
793.057	0.0149971
793.135	0.0151275
793.213	0.0151524
793.291	0.0151588
793.369	0.0151965
793.447	0.0151385
793.526	0.0151385
793.604	0.0151738
793.682	0.0152001
793.760	0.0151837
793.838	0.0152811
793.916	0.0153720
793.994	0.0151693
794.072	0.0151788
794.151	0.0152319
794.229	0.0153249
794.307	0.0151963
794.385	0.0151253
794.463	0.0152249
794.541	0.0151892
794.619	0.0152734
794.697	0.0151877
794.776	0.0150196
794.854	0.0152020
794.932	0.0151070
795.010	0.0151390
795.088	0.0151475
795.166	0.0150030
795.244	0.0151691
795.322	0.0150875
795.401	0.0150546
795.479	0.0149822
795.557	0.0149102
795.635	0.0148890
795.713	0.0150286
795.791	0.0149868
795.869	0.0148042
795.947	0.0149019
796.026	0.0148342
796.104	0.0147864
796.182	0.0147624
796.260	0.0147970
796.338	0.0148243
796.416	0.0148007
796.494	0.0146381
796.572	0.0145704
796.651	0.0146977
796.729	0.0147736
796.807	0.0146455
796.885	0.0145387
796.963	0.0147627
797.041	0.0146381
797.119	0.0145734
797.197	0.0144688
797.276	0.0147221
797.354	0.0148429
797.432	0.0146171
797.510	0.0146764
797.588	0.0148329
797.666	0.0146880
797.744	0.0146967
797.822	0.0145094
797.901	0.0146474
797.979	0.0145937
798.057	0.0146696
798.135	0.0147045
798.213	0.0147003
798.291	0.0146922
798.369	0.0146838
798.447	0.0146673
798.526	0.0145774
798.604	0.0148553
798.682	0.0148900
798.760	0.0148085
798.838	0.0148168
798.916	0.0150185
798.994	0.0148936
799.072	0.0150718
799.151	0.0148076
799.229	0.0148455
799.307	0.0149825
799.385	0.0149774
799.463	0.0150161
799.541	0.0149696
799.619	0.0149286
799.697	0.0149553
799.776	0.0150616
799.854	0.0150249
799.932	0.0150423
800.010	0.0150176
800.088	0.0150648
800.166	0.0151188
800.244	0.0150324
800.322	0.0149726
800.401	0.0150500
800.479	0.0149818
800.557	0.0150517
800.635	0.0152032
800.713	0.0151347
800.791	0.0151271
800.869	0.0150146
800.947	0.0149998
801.026	0.0151289
801.104	0.0151847
801.182	0.0151152
801.260	0.0151304
801.338	0.0150742
801.416	0.0151431
801.494	0.0152029
801.572	0.0150777
801.651	0.0151691
801.729	0.0151852
801.807	0.0151402
801.885	0.0149125
801.963	0.0151543
802.041	0.0152255
802.119	0.0149625
802.197	0.0150838
802.276	0.0149787
802.354	0.0150060
802.432	0.0149456
802.510	0.0149092
802.588	0.0150190
802.666	0.0149980
802.744	0.0150349
802.822	0.0149269
802.901	0.0149433
802.979	0.0148576
803.057	0.0149403
803.135	0.0147866
803.213	0.0148736
803.291	0.0148920
803.369	0.0147620
803.447	0.0146899
803.526	0.0147904
803.604	0.0148106
803.682	0.0148489
803.760	0.0147589
803.838	0.0148164
803.916	0.0147839
803.994	0.0145656
804.072	0.0146468
804.151	0.0146290
804.229	0.0145706
804.307	0.0145212
804.385	0.0146262
804.463	0.0145850
804.541	0.0145873
804.619	0.0145309
804.697	0.0144736
804.776	0.0146172
804.854	0.0146117
804.932	0.0144967
805.010	0.0144698
805.088	0.0144993
805.166	0.0143950
805.244	0.0146120
805.322	0.0145440
805.401	0.0144201
805.479	0.0145179
805.557	0.0146552
805.635	0.0145717
805.713	0.0147191
805.791	0.0146354
805.869	0.0145943
805.947	0.0146768
806.026	0.0148591
806.104	0.0148325
806.182	0.0149107
806.260	0.0147189
806.338	0.0148296
806.416	0.0149910
806.494	0.0148768
806.572	0.0150032
806.651	0.0149312
806.729	0.0150961
806.807	0.0151777
806.885	0.0150024
806.963	0.0149974
807.041	0.0149616
807.119	0.0150354
807.197	0.0150342
807.276	0.0150649
807.354	0.0150124
807.432	0.0150183
807.510	0.0152690
807.588	0.0151009
807.666	0.0151818
807.744	0.0151119
807.822	0.0150896
807.901	0.0152727
807.979	0.0151516
808.057	0.0152833
808.135	0.0152001
808.213	0.0152258
808.291	0.0152825
808.369	0.0153226
808.447	0.0152357
808.526	0.0151534
808.604	0.0152521
808.682	0.0151842
808.760	0.0151064
808.838	0.0152831
808.916	0.0152321
808.994	0.0151887
809.072	0.0151850
809.151	0.0150447
809.229	0.0150196
809.307	0.0149759
809.385	0.0151598
809.463	0.0149963
809.541	0.0150748
809.619	0.0150771
809.697	0.0151212
809.776	0.0150909
809.854	0.0150109
809.932	0.0150925
810.010	0.0150840
810.088	0.0150803
810.166	0.0148558
810.244	0.0148660
810.322	0.0149606
810.401	0.0149283
810.479	0.0149182
810.557	0.0149913
810.635	0.0150609
810.713	0.0149899
810.791	0.0148256
810.869	0.0148318
810.947	0.0148888
811.026	0.0147711
811.104	0.0148179
811.182	0.0147572
811.260	0.0145727
811.338	0.0146037
811.416	0.0144133
811.494	0.0142968
811.572	0.0142334
811.651	0.0142284
811.729	0.0142672
811.807	0.0142983
811.885	0.0143510
811.963	0.0141913
812.041	0.0143905
812.119	0.0144459
812.197	0.0144719
812.276	0.0146738
812.354	0.0147082
812.432	0.0148241
812.510	0.0149484
812.588	0.0149377
812.666	0.0149731
812.744	0.0150690
812.822	0.0149212
812.901	0.0151823
812.979	0.0150780
813.057	0.0150305
813.135	0.0150217
813.213	0.0150961
813.291	0.0149932
813.369	0.0151071
813.447	0.0149403
813.526	0.0149937
813.604	0.0149970
813.682	0.0149448
813.760	0.0150929
813.838	0.0149895
813.916	0.0151576
813.994	0.0149220
814.072	0.0149517
814.151	0.0148612
814.229	0.0150168
814.307	0.0152357
814.385	0.0151640
814.463	0.0150529
814.541	0.0149699
814.619	0.0149626
814.697	0.0150683
814.776	0.0150855
814.854	0.0149972
814.932	0.0150369
815.010	0.0151047
815.088	0.0150024
815.166	0.0149053
815.244	0.0150341
815.322	0.0150986
815.401	0.0150366
815.479	0.0150180
815.557	0.0150801
815.635	0.0151216
815.713	0.0150776
815.791	0.0149840
815.869	0.0150638
815.947	0.0153117
816.026	0.0149892
816.104	0.0149247
816.182	0.0151196
816.260	0.0151576
816.338	0.0150410
816.416	0.0151838
816.494	0.0151682
816.572	0.0150200
816.651	0.0152003
816.729	0.0152005
816.807	0.0151615
816.885	0.0150982
816.963	0.0150659
817.041	0.0151285
817.119	0.0151704
817.197	0.0150434
817.276	0.0149412
817.354	0.0149457
817.432	0.0150121
817.510	0.0150323
817.588	0.0149712
817.666	0.0149908
817.744	0.0149655
817.822	0.0149487
817.901	0.0147572
817.979	0.0147491
818.057	0.0145688
818.135	0.0146383
818.213	0.0147385
818.291	0.0145831
818.369	0.0145171
818.447	0.0146698
818.526	0.0145656
818.604	0.0145171
818.682	0.0145161
818.760	0.0145625
818.838	0.0146056
818.916	0.0146481
818.994	0.0146233
819.072	0.0146441
819.151	0.0147391
819.229	0.0147649
819.307	0.0148872
819.385	0.0145633
819.463	0.0145553
819.541	0.0145947
819.619	0.0147152
819.697	0.0147630
819.776	0.0146616
819.854	0.0148420
819.932	0.0148383
820.010	0.0148116
820.088	0.0147792
820.166	0.0150037
820.244	0.0148529
820.322	0.0148377
820.401	0.0150062
820.479	0.0151365
820.557	0.0149310
820.635	0.0151151
820.713	0.0151315
820.791	0.0149969
820.869	0.0150026
820.947	0.0149817
821.026	0.0151355
821.104	0.0151607
821.182	0.0150861
821.260	0.0152077
821.338	0.0149804
821.416	0.0152413
821.494	0.0152860
821.572	0.0150387
821.651	0.0151108
821.729	0.0151642
821.807	0.0151495
821.885	0.0152753
821.963	0.0151620
822.041	0.0149021
822.119	0.0150932
822.197	0.0149688
822.276	0.0150289
822.354	0.0149810
822.432	0.0151009
822.510	0.0149105
822.588	0.0149821
822.666	0.0150462
822.744	0.0149525
822.822	0.0149267
822.901	0.0150014
822.979	0.0150066
823.057	0.0150311
823.135	0.0149127
823.213	0.0149911
823.291	0.0150315
823.369	0.0148564
823.447	0.0150444
823.526	0.0151035
823.604	0.0148768
823.682	0.0148872
823.760	0.0148462
823.838	0.0147379
823.916	0.0148158
823.994	0.0148761
824.072	0.0148421
824.151	0.0148772
824.229	0.0149151
824.307	0.0149009
824.385	0.0148402
824.463	0.0148297
824.541	0.0148894
824.619	0.0148698
824.697	0.0147610
824.776	0.0148173
824.854	0.0149049
824.932	0.0148917
825.010	0.0148888
825.088	0.0149379
825.166	0.0148813
825.244	0.0149503
825.322	0.0150184
825.401	0.0149629
825.479	0.0149696
825.557	0.0148997
825.635	0.0150694
825.713	0.0149842
825.791	0.0150076
825.869	0.0149011
825.947	0.0150237
826.026	0.0148912
826.104	0.0149934
826.182	0.0149395
826.260	0.0149640
826.338	0.0150731
826.416	0.0147237
826.494	0.0148085
826.572	0.0148948
826.651	0.0147980
826.729	0.0147805
826.807	0.0147687
826.885	0.0147208
826.963	0.0148773
827.041	0.0147147
827.119	0.0148008
827.197	0.0146652
827.276	0.0148155
827.354	0.0147844
827.432	0.0146290
827.510	0.0147627
827.588	0.0148530
827.666	0.0147969
827.744	0.0147489
827.822	0.0146284
827.901	0.0147277
827.979	0.0146010
828.057	0.0147081
828.135	0.0147650
828.213	0.0147076
828.291	0.0147091
828.369	0.0146983
828.447	0.0145616
828.526	0.0145788
828.604	0.0147127
828.682	0.0148385
828.760	0.0148753
828.838	0.0148103
828.916	0.0149393
828.994	0.0147948
829.072	0.0150626
829.151	0.0150047
829.229	0.0151199
829.307	0.0152089
829.385	0.0152312
829.463	0.0151420
829.541	0.0151465
829.619	0.0152882
829.697	0.0151431
829.776	0.0151759
829.854	0.0152135
829.932	0.0150653
830.010	0.0151514
830.088	0.0152770
830.166	0.0152197
830.244	0.0151346
830.322	0.0151936
830.401	0.0150327
830.479	0.0151104
830.557	0.0151933
830.635	0.0151326
830.713	0.0151784
830.791	0.0150401
830.869	0.0151257
830.947	0.0151244
831.026	0.0150327
831.104	0.0152422
831.182	0.0149891
831.260	0.0149384
831.338	0.0149612
831.416	0.0149006
831.494	0.0149535
831.572	0.0149862
831.651	0.0147667
831.729	0.0148775
831.807	0.0147652
831.885	0.0148498
831.963	0.0149113
832.041	0.0147579
832.119	0.0147801
832.197	0.0148551
832.276	0.0148003
832.354	0.0147768
832.432	0.0145444
832.510	0.0148231
832.588	0.0147505
832.666	0.0146220
832.744	0.0147498
832.822	0.0147304
832.901	0.0145536
832.979	0.0146026
833.057	0.0145743
833.135	0.0143935
833.213	0.0144831
833.291	0.0145748
833.369	0.0146083
833.447	0.0146407
833.526	0.0146507
833.604	0.0146471
833.682	0.0146587
833.760	0.0146274
833.838	0.0147501
833.916	0.0145826
833.994	0.0146455
834.072	0.0146412
834.151	0.0146078
834.229	0.0144533
834.307	0.0145187
834.385	0.0144491
834.463	0.0144876
834.541	0.0145569
834.619	0.0144884
834.697	0.0145003
834.776	0.0146710
834.854	0.0146371
834.932	0.0146402
835.010	0.0146531
835.088	0.0148219
835.166	0.0148723
835.244	0.0150218
835.322	0.0150468
835.401	0.0150885
835.479	0.0151304
835.557	0.0152154
835.635	0.0152901
835.713	0.0152694
835.791	0.0152297
835.869	0.0152308
835.947	0.0151231
836.026	0.0153040
836.104	0.0153119
836.182	0.0152523
836.260	0.0151235
836.338	0.0152908
836.416	0.0152841
836.494	0.0152204
836.572	0.0152563
836.651	0.0152013
836.729	0.0151971
836.807	0.0151497
836.885	0.0152434
836.963	0.0151735
837.041	0.0152270
837.119	0.0150660
837.197	0.0150967
837.276	0.0148656
837.354	0.0149157
837.432	0.0151103
837.510	0.0149751
837.588	0.0148994
837.666	0.0149389
837.744	0.0149213
837.822	0.0147792
837.901	0.0146516
837.979	0.0148972
838.057	0.0148990
838.135	0.0147553
838.213	0.0147633
838.291	0.0148752
838.369	0.0149289
838.447	0.0149015
838.526	0.0148148
838.604	0.0148846
838.682	0.0149469
838.760	0.0148997
838.838	0.0150197
838.916	0.0148692
838.994	0.0148840
839.072	0.0150539
839.151	0.0150198
839.229	0.0149659
839.307	0.0148718
839.385	0.0147863
839.463	0.0148407
839.541	0.0148554
839.619	0.0147774
839.697	0.0146714
839.776	0.0147076
839.854	0.0146781
839.932	0.0147394
840.010	0.0147841
840.088	0.0147594
840.166	0.0146359
840.244	0.0147635
840.322	0.0147493
840.401	0.0148214
840.479	0.0146941
840.557	0.0147244
840.635	0.0145556
840.713	0.0145554
840.791	0.0146841
840.869	0.0146253
840.947	0.0145761
841.026	0.0145289
841.104	0.0148370
841.182	0.0147087
841.260	0.0146684
841.338	0.0147898
841.416	0.0148795
841.494	0.0148754
841.572	0.0147942
841.651	0.0148091
841.729	0.0147202
841.807	0.0148128
841.885	0.0150433
841.963	0.0148888
842.041	0.0148808
842.119	0.0148034
842.197	0.0150322
842.276	0.0149744
842.354	0.0150190
842.432	0.0150444
842.510	0.0150564
842.588	0.0150868
842.666	0.0151051
842.744	0.0151007
842.822	0.0153033
842.901	0.0154127
842.979	0.0152221
843.057	0.0153230
843.135	0.0153252
843.213	0.0152799
843.291	0.0151463
843.369	0.0152242
843.447	0.0151133
843.526	0.0152380
843.604	0.0151283
843.682	0.0150970
843.760	0.0151134
843.838	0.0149369
843.916	0.0149928
843.994	0.0148923
844.072	0.0148523
844.151	0.0148235
844.229	0.0148273
844.307	0.0148711
844.385	0.0149309
844.463	0.0149226
844.541	0.0150095
844.619	0.0148331
844.697	0.0149333
844.776	0.0149075
844.854	0.0149673
844.932	0.0148885
845.010	0.0149424
845.088	0.0151206
845.166	0.0149726
845.244	0.0149866
845.322	0.0148435
845.401	0.0148244
845.479	0.0150039
845.557	0.0146992
845.635	0.0148418
845.713	0.0148238
845.791	0.0147516
845.869	0.0147701
845.947	0.0147414
846.026	0.0146045
846.104	0.0145630
846.182	0.0147923
846.260	0.0147071
846.338	0.0146114
846.416	0.0146748
846.494	0.0146885
846.572	0.0147366
846.651	0.0147554
846.729	0.0147984
846.807	0.0148466
846.885	0.0147841
846.963	0.0148467
847.041	0.0150810
847.119	0.0150710
847.197	0.0148890
847.276	0.0149972
847.354	0.0149083
847.432	0.0150671
847.510	0.0151303
847.588	0.0152089
847.666	0.0152366
847.744	0.0149540
847.822	0.0150336
847.901	0.0150846
847.979	0.0149326
848.057	0.0149479
848.135	0.0149567
848.213	0.0149207
848.291	0.0147933
848.369	0.0148589
848.447	0.0149313
848.526	0.0147820
848.604	0.0147556
848.682	0.0148139
848.760	0.0147830
848.838	0.0146717
848.916	0.0148239
848.994	0.0147593
849.072	0.0148158
849.151	0.0148810
849.229	0.0147602
849.307	0.0148695
849.385	0.0150180
849.463	0.0149507
849.541	0.0149381
849.619	0.0148871
849.697	0.0149466
849.776	0.0149668
849.854	0.0150392
849.932	0.0150410
850.010	0.0150690
850.088	0.0150100
850.166	0.0149813
850.244	0.0150023
850.322	0.0149937
850.401	0.0149142
850.479	0.0150272
850.557	0.0149599
850.635	0.0149809
850.713	0.0150941
850.791	0.0148969
850.869	0.0150311
850.947	0.0149665
851.026	0.0150941
851.104	0.0150074
851.182	0.0151080
851.260	0.0149635
851.338	0.0150805
851.416	0.0149244
851.494	0.0150389
851.572	0.0149990
851.651	0.0149297
851.729	0.0149444
851.807	0.0148738
851.885	0.0147414
851.963	0.0149330
852.041	0.0148421
852.119	0.0148631
852.197	0.0146078
852.276	0.0149053
852.354	0.0149304
852.432	0.0147935
852.510	0.0148900
852.588	0.0147687
852.666	0.0150259
852.744	0.0148781
852.822	0.0150354
852.901	0.0148869
852.979	0.0151291
853.057	0.0149772
853.135	0.0149815
853.213	0.0148946
853.291	0.0149354
853.369	0.0149979
853.447	0.0148981
853.526	0.0148178
853.604	0.0150276
853.682	0.0149347
853.760	0.0148254
853.838	0.0148525
853.916	0.0150574
853.994	0.0150368
854.072	0.0150563
854.151	0.0149901
854.229	0.0150089
854.307	0.0148995
854.385	0.0148949
854.463	0.0150125
854.541	0.0150127
854.619	0.0148930
854.697	0.0148647
854.776	0.0148304
854.854	0.0149053
854.932	0.0149049
855.010	0.0148634
855.088	0.0149393
855.166	0.0149239
855.244	0.0149775
855.322	0.0148734
855.401	0.0150206
855.479	0.0150383
855.557	0.0149485
855.635	0.0148817
855.713	0.0150966
855.791	0.0149334
855.869	0.0149953
855.947	0.0151447
856.026	0.0149847
856.104	0.0149620
856.182	0.0149197
856.260	0.0149483
856.338	0.0149708
856.416	0.0149203
856.494	0.0149844
856.572	0.0149020
856.651	0.0149227
856.729	0.0148322
856.807	0.0148918
856.885	0.0149625
856.963	0.0147327
857.041	0.0146980
857.119	0.0148918
857.197	0.0148050
857.276	0.0147721
857.354	0.0147581
857.432	0.0146737
857.510	0.0147139
857.588	0.0148677
857.666	0.0147369
857.744	0.0147879
857.822	0.0149906
857.901	0.0148394
857.979	0.0149052
858.057	0.0149284
858.135	0.0149317
858.213	0.0149723
858.291	0.0149998
858.369	0.0151271
858.447	0.0150416
858.526	0.0151456
858.604	0.0151360
858.682	0.0151424
858.760	0.0151304
858.838	0.0151751
858.916	0.0151138
858.994	0.0150589
859.072	0.0151559
859.151	0.0150635
859.229	0.0151115
859.307	0.0150865
859.385	0.0149424
859.463	0.0150027
859.541	0.0149993
859.619	0.0149487
859.697	0.0150144
859.776	0.0149905
859.854	0.0150231
859.932	0.0150220
860.010	0.0150317
860.088	0.0150436
860.166	0.0150484
860.244	0.0151046
860.322	0.0150355
860.401	0.0149795
860.479	0.0151081
860.557	0.0149693
860.635	0.0150391
860.713	0.0150397
860.791	0.0151290
860.869	0.0149866
860.947	0.0148403
861.026	0.0149102
861.104	0.0149819
861.182	0.0150378
861.260	0.0149180
861.338	0.0148760
861.416	0.0149295
861.494	0.0149962
861.572	0.0150182
861.651	0.0148280
861.729	0.0148447
861.807	0.0149484
861.885	0.0148627
861.963	0.0149651
862.041	0.0150120
862.119	0.0148543
862.197	0.0150706
862.276	0.0149294
862.354	0.0147959
862.432	0.0149153
862.510	0.0148882
862.588	0.0147640
862.666	0.0147700
862.744	0.0148990
862.822	0.0149413
862.901	0.0147484
862.979	0.0147999
863.057	0.0148329
863.135	0.0149106
863.213	0.0148947
863.291	0.0149451
863.369	0.0148833
863.447	0.0147708
863.526	0.0147153
863.604	0.0147907
863.682	0.0147115
863.760	0.0147251
863.838	0.0146712
863.916	0.0147527
863.994	0.0147788
864.072	0.0146794
864.151	0.0148641
864.229	0.0147236
864.307	0.0145971
864.385	0.0146860
864.463	0.0148165
864.541	0.0146851
864.619	0.0146940
864.697	0.0147668
864.776	0.0149884
864.854	0.0149693
864.932	0.0151426
865.010	0.0151628
865.088	0.0151917
865.166	0.0152040
865.244	0.0151090
865.322	0.0150603
865.401	0.0151486
865.479	0.0150542
865.557	0.0148563
865.635	0.0148884
865.713	0.0149119
865.791	0.0148520
865.869	0.0148219
865.947	0.0148795
866.026	0.0147036
866.104	0.0147343
866.182	0.0146369
866.260	0.0146135
866.338	0.0147775
866.416	0.0147445
866.494	0.0147561
866.572	0.0149659
866.651	0.0150340
866.729	0.0149577
866.807	0.0150517
866.885	0.0151763
866.963	0.0151797
867.041	0.0151257
867.119	0.0151687
867.197	0.0151861
867.276	0.0152471
867.354	0.0152399
867.432	0.0152526
867.510	0.0152946
867.588	0.0152374
867.666	0.0151423
867.744	0.0152222
867.822	0.0151462
867.901	0.0151083
867.979	0.0151564
868.057	0.0149742
868.135	0.0149581
868.213	0.0150996
868.291	0.0149181
868.369	0.0147438
868.447	0.0147396
868.526	0.0148464
868.604	0.0146983
868.682	0.0147771
868.760	0.0147980
868.838	0.0146803
868.916	0.0147899
868.994	0.0148013
869.072	0.0146271
869.151	0.0147672
869.229	0.0146469
869.307	0.0146835
869.385	0.0146499
869.463	0.0146372
869.541	0.0146980
869.619	0.0147843
869.697	0.0146763
869.776	0.0147979
869.854	0.0147298
869.932	0.0146636
870.010	0.0147186
870.088	0.0148928
870.166	0.0147338
870.244	0.0146552
870.322	0.0148432
870.401	0.0147820
870.479	0.0149095
870.557	0.0150251
870.635	0.0149910
870.713	0.0150266
870.791	0.0150136
870.869	0.0149979
870.947	0.0152493
871.026	0.0150935
871.104	0.0150536
871.182	0.0150879
871.260	0.0150685
871.338	0.0150244
871.416	0.0151684
871.494	0.0151942
871.572	0.0151357
871.651	0.0149956
871.729	0.0150261
871.807	0.0151394
871.885	0.0149148
871.963	0.0149871
872.041	0.0150780
872.119	0.0148529
872.197	0.0150198
872.276	0.0150662
872.354	0.0150349
872.432	0.0149665
872.510	0.0149080
872.588	0.0151303
872.666	0.0149335
872.744	0.0150510
872.822	0.0151788
872.901	0.0150916
872.979	0.0151958
873.057	0.0151025
873.135	0.0150043
873.213	0.0149295
873.291	0.0150290
873.369	0.0149392
873.447	0.0149529
873.526	0.0149097
873.604	0.0149014
873.682	0.0149112
873.760	0.0149331
873.838	0.0148762
873.916	0.0148957
873.994	0.0149089
874.072	0.0150411
874.151	0.0151138
874.229	0.0149542
874.307	0.0149425
874.385	0.0149820
874.463	0.0151176
874.541	0.0149820
874.619	0.0150419
874.697	0.0151064
874.776	0.0151006
874.854	0.0150169
874.932	0.0149501
875.010	0.0149925
875.088	0.0150401
875.166	0.0151006
875.244	0.0150552
875.322	0.0149825
875.401	0.0148914
875.479	0.0149149
875.557	0.0150543
875.635	0.0149126
875.713	0.0148947
875.791	0.0149297
875.869	0.0148739
875.947	0.0148683
876.026	0.0147923
876.104	0.0149065
876.182	0.0148799
876.260	0.0149243
876.338	0.0148503
876.416	0.0148936
876.494	0.0148072
876.572	0.0148937
876.651	0.0149335
876.729	0.0149061
876.807	0.0148147
876.885	0.0148845
876.963	0.0149641
877.041	0.0149775
877.119	0.0148806
877.197	0.0147414
877.276	0.0148917
877.354	0.0148748
877.432	0.0147993
877.510	0.0148485
877.588	0.0148455
877.666	0.0149422
877.744	0.0147873
877.822	0.0147288
877.901	0.0147050
877.979	0.0148199
878.057	0.0147334
878.135	0.0147302
878.213	0.0148174
878.291	0.0147048
878.369	0.0148583
878.447	0.0148132
878.526	0.0147643
878.604	0.0149014
878.682	0.0147197
878.760	0.0149857
878.838	0.0148759
878.916	0.0149236
878.994	0.0150238
879.072	0.0148943
879.151	0.0150567
879.229	0.0149596
879.307	0.0149123
879.385	0.0150198
879.463	0.0150157
879.541	0.0150451
879.619	0.0150265
879.697	0.0150440
879.776	0.0150684
879.854	0.0149909
879.932	0.0150295
880.010	0.0151499
880.088	0.0149438
880.166	0.0150006
880.244	0.0150765
880.322	0.0149078
880.401	0.0148080
880.479	0.0149184
880.557	0.0148649
880.635	0.0148237
880.713	0.0149831
880.791	0.0148459
880.869	0.0149159
880.947	0.0148434
881.026	0.0148489
881.104	0.0149792
881.182	0.0150130
881.260	0.0148812
881.338	0.0150307
881.416	0.0152079
881.494	0.0151664
881.572	0.0152267
881.651	0.0152551
881.729	0.0152608
881.807	0.0151427
881.885	0.0150484
881.963	0.0150655
882.041	0.0150995
882.119	0.0151739
882.197	0.0149799
882.276	0.0149655
882.354	0.0150829
882.432	0.0150123
882.510	0.0149787
882.588	0.0149980
882.666	0.0148832
882.744	0.0149372
882.822	0.0151022
882.901	0.0149622
882.979	0.0149059
883.057	0.0149628
883.135	0.0148904
883.213	0.0147680
883.291	0.0149286
883.369	0.0148130
883.447	0.0148882
883.526	0.0148661
883.604	0.0148902
883.682	0.0147465
883.760	0.0148704
883.838	0.0149030
883.916	0.0148591
883.994	0.0149767
884.072	0.0148892
884.151	0.0149722
884.229	0.0148808
884.307	0.0149075
884.385	0.0149828
884.463	0.0148672
884.541	0.0148518
884.619	0.0148272
884.697	0.0148489
884.776	0.0148360
884.854	0.0147928
884.932	0.0147379
885.010	0.0149184
885.088	0.0148649
885.166	0.0148093
885.244	0.0149344
885.322	0.0149707
885.401	0.0147886
885.479	0.0148162
885.557	0.0149813
885.635	0.0149302
885.713	0.0149306
885.791	0.0150071
885.869	0.0148447
885.947	0.0148536
886.026	0.0148774
886.104	0.0148148
886.182	0.0147432
886.260	0.0147989
886.338	0.0148898
886.416	0.0149268
886.494	0.0147636
886.572	0.0147645
886.651	0.0148813
886.729	0.0149918
886.807	0.0149220
886.885	0.0148743
886.963	0.0148499
887.041	0.0149618
887.119	0.0149038
887.197	0.0150021
887.276	0.0149886
887.354	0.0149507
887.432	0.0149438
887.510	0.0150936
887.588	0.0150804
887.666	0.0149937
887.744	0.0149562
887.822	0.0150757
887.901	0.0149179
887.979	0.0150200
888.057	0.0151080
888.135	0.0150796
888.213	0.0151257
888.291	0.0151292
888.369	0.0151674
888.447	0.0150439
888.526	0.0152541
888.604	0.0152461
888.682	0.0150949
888.760	0.0152156
888.838	0.0149493
888.916	0.0152012
888.994	0.0150272
889.072	0.0151315
889.151	0.0150386
889.229	0.0148905
889.307	0.0149803
889.385	0.0147781
889.463	0.0147939
889.541	0.0149305
889.619	0.0147974
889.697	0.0148421
889.776	0.0148745
889.854	0.0149460
889.932	0.0148967
890.010	0.0149237
890.088	0.0149487
890.166	0.0147729
890.244	0.0149293
890.322	0.0149008
890.401	0.0148175
890.479	0.0150594
890.557	0.0149552
890.635	0.0149234
890.713	0.0149236
890.791	0.0148112
890.869	0.0147661
890.947	0.0149086
891.026	0.0148276
891.104	0.0146720
891.182	0.0148040
891.260	0.0148746
891.338	0.0147620
891.416	0.0147083
891.494	0.0147854
891.572	0.0147559
891.651	0.0146946
891.729	0.0147822
891.807	0.0148978
891.885	0.0146676
891.963	0.0147479
892.041	0.0148721
892.119	0.0147794
892.197	0.0147500
892.276	0.0147909
892.354	0.0147274
892.432	0.0147187
892.510	0.0148518
892.588	0.0147213
892.666	0.0147241
892.744	0.0147807
892.822	0.0148191
892.901	0.0147864
892.979	0.0149087
893.057	0.0149002
893.135	0.0148618
893.213	0.0149392
893.291	0.0149728
893.369	0.0147863
893.447	0.0147376
893.526	0.0150137
893.604	0.0149207
893.682	0.0149921
893.760	0.0150242
893.838	0.0149594
893.916	0.0148617
893.994	0.0149118
894.072	0.0148513
894.151	0.0148261
894.229	0.0149712
894.307	0.0148450
894.385	0.0148914
894.463	0.0148291
894.541	0.0149001
894.619	0.0149433
894.697	0.0149141
894.776	0.0150513
894.854	0.0148809
894.932	0.0149780
895.010	0.0149730
895.088	0.0150439
895.166	0.0150693
895.244	0.0149957
895.322	0.0150300
895.401	0.0149431
895.479	0.0148756
895.557	0.0147239
895.635	0.0149055
895.713	0.0148021
895.791	0.0148324
895.869	0.0149237
895.947	0.0148939
896.026	0.0149790
896.104	0.0148390
896.182	0.0148455
896.260	0.0150450
896.338	0.0150010
896.416	0.0149383
896.494	0.0151172
896.572	0.0151948
896.651	0.0150739
896.729	0.0151089
896.807	0.0150039
896.885	0.0151099
896.963	0.0149960
897.041	0.0151311
897.119	0.0151024
897.197	0.0150654
897.276	0.0150189
897.354	0.0148906
897.432	0.0148531
897.510	0.0149002
897.588	0.0149248
897.666	0.0148415
897.744	0.0148328
897.822	0.0150011
897.901	0.0147594
897.979	0.0146924
898.057	0.0149567
898.135	0.0148111
898.213	0.0147735
898.291	0.0148557
898.369	0.0150125
898.447	0.0148586
898.526	0.0147659
898.604	0.0148161
898.682	0.0147926
898.760	0.0148393
898.838	0.0148894
898.916	0.0148167
898.994	0.0149326
899.072	0.0147610
899.151	0.0148569
899.229	0.0151404
899.307	0.0149513
899.385	0.0148534
899.463	0.0148980
899.541	0.0149179
899.619	0.0148987
899.697	0.0148081
899.776	0.0148254
899.854	0.0147281
899.932	0.0146972
900.010	0.0147519
900.088	0.0147925
900.166	0.0148022
900.244	0.0147016
900.322	0.0146854
900.401	0.0148395
900.479	0.0149387
900.557	0.0148155
900.635	0.0147948
900.713	0.0146689
900.791	0.0148217
900.869	0.0148254
900.947	0.0147885
901.026	0.0149458
901.104	0.0148417
901.182	0.0149298
901.260	0.0148551
901.338	0.0149511
901.416	0.0150987
901.494	0.0150177
901.572	0.0148719
901.651	0.0150368
901.729	0.0150137
901.807	0.0148922
901.885	0.0149114
901.963	0.0148201
902.041	0.0147916
902.119	0.0146732
902.197	0.0147119
902.276	0.0146781
902.354	0.0147165
902.432	0.0147668
902.510	0.0147746
902.588	0.0148368
902.666	0.0149540
902.744	0.0148839
902.822	0.0149696
902.901	0.0150134
902.979	0.0151324
903.057	0.0151006
903.135	0.0151156
903.213	0.0152760
903.291	0.0151852
903.369	0.0151398
903.447	0.0151170
903.526	0.0151498
903.604	0.0152162
903.682	0.0149931
903.760	0.0151325
903.838	0.0151277
903.916	0.0150562
903.994	0.0149648
904.072	0.0150607
904.151	0.0149737
904.229	0.0148516
904.307	0.0148518
904.385	0.0149936
904.463	0.0149422
904.541	0.0149432
904.619	0.0148728
904.697	0.0148528
904.776	0.0148436
904.854	0.0147436
904.932	0.0147178
905.010	0.0147426
905.088	0.0145660
905.166	0.0146632
905.244	0.0146516
905.322	0.0147034
905.401	0.0149094
905.479	0.0149488
905.557	0.0149422
905.635	0.0149673
905.713	0.0149213
905.791	0.0149526
905.869	0.0150103
905.947	0.0148253
906.026	0.0147852
906.104	0.0145919
906.182	0.0145501
906.260	0.0145984
906.338	0.0143883
906.416	0.0144195
906.494	0.0143922
906.572	0.0143802
906.651	0.0146770
906.729	0.0148667
906.807	0.0149014
906.885	0.0149859
906.963	0.0151214
907.041	0.0151862
907.119	0.0154211
907.197	0.0155873
907.276	0.0155254
907.354	0.0155547
907.432	0.0156271
907.510	0.0154548
907.588	0.0155708
907.666	0.0153963
907.744	0.0153352
907.822	0.0153910
907.901	0.0151597
907.979	0.0152574
908.057	0.0151115
908.135	0.0149722
908.213	0.0150084
908.291	0.0149234
908.369	0.0147014
908.447	0.0146655
908.526	0.0146297
908.604	0.0146877
908.682	0.0144759
908.760	0.0143634
908.838	0.0142583
908.916	0.0142195
908.994	0.0142502
909.072	0.0142098
909.151	0.0142101
909.229	0.0142899
909.307	0.0142876
909.385	0.0142960
909.463	0.0144582
909.541	0.0144228
909.619	0.0145795
909.697	0.0146458
909.776	0.0147710
909.854	0.0147304
909.932	0.0149823
910.010	0.0148524
910.088	0.0151006
910.166	0.0152168
910.244	0.0152459
910.322	0.0152414
910.401	0.0153154
910.479	0.0154946
910.557	0.0154375
910.635	0.0155839
910.713	0.0155997
910.791	0.0154234
910.869	0.0154806
910.947	0.0154843
911.026	0.0155295
911.104	0.0153951
911.182	0.0154261
911.260	0.0152133
911.338	0.0152047
911.416	0.0152831
911.494	0.0152100
911.572	0.0150851
911.651	0.0150191
911.729	0.0150050
911.807	0.0150955
911.885	0.0148767
911.963	0.0147841
912.041	0.0149431
912.119	0.0147867
912.197	0.0145536
912.276	0.0146865
912.354	0.0146881
912.432	0.0144172
912.510	0.0144894
912.588	0.0144987
912.666	0.0145168
912.744	0.0145560
912.822	0.0145168
912.901	0.0144043
912.979	0.0144812
913.057	0.0146681
913.135	0.0146674
913.213	0.0147279
913.291	0.0146071
913.369	0.0146578
913.447	0.0147263
913.526	0.0149850
913.604	0.0149194
913.682	0.0149012
913.760	0.0147141
913.838	0.0148848
913.916	0.0149701
913.994	0.0149007
914.072	0.0151801
914.151	0.0151283
914.229	0.0149975
914.307	0.0151501
914.385	0.0152169
914.463	0.0152109
914.541	0.0152233
914.619	0.0151948
914.697	0.0152547
914.776	0.0152023
914.854	0.0151398
914.932	0.0150833
915.010	0.0150684
915.088	0.0151477
915.166	0.0149836
915.244	0.0151450
915.322	0.0151665
915.401	0.0151233
915.479	0.0149880
915.557	0.0150706
915.635	0.0151923
915.713	0.0150598
915.791	0.0148930
915.869	0.0149634
915.947	0.0149120
916.026	0.0147910
916.104	0.0148560
916.182	0.0147822
916.260	0.0150513
916.338	0.0148933
916.416	0.0148797
916.494	0.0148993
916.572	0.0146867
916.651	0.0148604
916.729	0.0148939
916.807	0.0149369
916.885	0.0147031
916.963	0.0148644
917.041	0.0148816
917.119	0.0148935
917.197	0.0147580
917.276	0.0146798
917.354	0.0146642
917.432	0.0147623
917.510	0.0146860
917.588	0.0147150
917.666	0.0147591
917.744	0.0146679
917.822	0.0147366
917.901	0.0148537
917.979	0.0148700
918.057	0.0147913
918.135	0.0148425
918.213	0.0148737
918.291	0.0149046
918.369	0.0150506
918.447	0.0150135
918.526	0.0149759
918.604	0.0149453
918.682	0.0149805
918.760	0.0149963
918.838	0.0151051
918.916	0.0152114
918.994	0.0151730
919.072	0.0151574
919.151	0.0152206
919.229	0.0154104
919.307	0.0151635
919.385	0.0152456
919.463	0.0153487
919.541	0.0153506
919.619	0.0151601
919.697	0.0150975
919.776	0.0152081
919.854	0.0151421
919.932	0.0148647
920.010	0.0148962
920.088	0.0148717
920.166	0.0148048
920.244	0.0149409
920.322	0.0148468
920.401	0.0147142
920.479	0.0147932
920.557	0.0148078
920.635	0.0148322
920.713	0.0147750
920.791	0.0148270
920.869	0.0148240
920.947	0.0149204
921.026	0.0148063
921.104	0.0149664
921.182	0.0146819
921.260	0.0146171
921.338	0.0146582
921.416	0.0145756
921.494	0.0146429
921.572	0.0147063
921.651	0.0145976
921.729	0.0145649
921.807	0.0145527
921.885	0.0145628
921.963	0.0146075
922.041	0.0146965
922.119	0.0146603
922.197	0.0145426
922.276	0.0147771
922.354	0.0147408
922.432	0.0147279
922.510	0.0146364
922.588	0.0146535
922.666	0.0146317
922.744	0.0147676
922.822	0.0147403
922.901	0.0147512
922.979	0.0147242
923.057	0.0148148
923.135	0.0148552
923.213	0.0147318
923.291	0.0147611
923.369	0.0148215
923.447	0.0148769
923.526	0.0149466
923.604	0.0149290
923.682	0.0149191
923.760	0.0148933
923.838	0.0149076
923.916	0.0149227
923.994	0.0150347
924.072	0.0151419
924.151	0.0151251
924.229	0.0151279
924.307	0.0151769
924.385	0.0151529
924.463	0.0152995
924.541	0.0152646
924.619	0.0150437
924.697	0.0151842
924.776	0.0152305
924.854	0.0152885
924.932	0.0152329
925.010	0.0151350
925.088	0.0150751
925.166	0.0152033
925.244	0.0152151
925.322	0.0150323
925.401	0.0151570
925.479	0.0150761
925.557	0.0149272
925.635	0.0150451
925.713	0.0149384
925.791	0.0149400
925.869	0.0147440
925.947	0.0150220
926.026	0.0149062
926.104	0.0148345
926.182	0.0148690
926.260	0.0148955
926.338	0.0149374
926.416	0.0147984
926.494	0.0146685
926.572	0.0146333
926.651	0.0147753
926.729	0.0147393
926.807	0.0145953
926.885	0.0146662
926.963	0.0148217
927.041	0.0147845
927.119	0.0147466
927.197	0.0148962
927.276	0.0147147
927.354	0.0149822
927.432	0.0148475
927.510	0.0149648
927.588	0.0149693
927.666	0.0148601
927.744	0.0150266
927.822	0.0148870
927.901	0.0149477
927.979	0.0149432
928.057	0.0148655
928.135	0.0148669
928.213	0.0149967
928.291	0.0150340
928.369	0.0149810
928.447	0.0149543
928.526	0.0148840
928.604	0.0148505
928.682	0.0147313
928.760	0.0147606
928.838	0.0147607
928.916	0.0147691
928.994	0.0147595
929.072	0.0146717
929.151	0.0148497
929.229	0.0147064
929.307	0.0147262
929.385	0.0147119
929.463	0.0146293
929.541	0.0147157
929.619	0.0149744
929.697	0.0149177
929.776	0.0149976
929.854	0.0149795
929.932	0.0148680
930.010	0.0150229
930.088	0.0151676
930.166	0.0150891
930.244	0.0151417
930.322	0.0151958
930.401	0.0151862
930.479	0.0149931
930.557	0.0149237
930.635	0.0150829
930.713	0.0151098
930.791	0.0148677
930.869	0.0149820
930.947	0.0150334
931.026	0.0148532
931.104	0.0149051
931.182	0.0150240
931.260	0.0148947
931.338	0.0148672
931.416	0.0149210
931.494	0.0148910
931.572	0.0148412
931.651	0.0149821
931.729	0.0150255
931.807	0.0149044
931.885	0.0149253
931.963	0.0149206
932.041	0.0149956
932.119	0.0150835
932.197	0.0150121
932.276	0.0150282
932.354	0.0150018
932.432	0.0150428
932.510	0.0149697
932.588	0.0150086
932.666	0.0149507
932.744	0.0149272
932.822	0.0148923
932.901	0.0149585
932.979	0.0148492
933.057	0.0148627
933.135	0.0149410
933.213	0.0148540
933.291	0.0147517
933.369	0.0147832
933.447	0.0148187
933.526	0.0147476
933.604	0.0148572
933.682	0.0147680
933.760	0.0149172
933.838	0.0148067
933.916	0.0147797
933.994	0.0148598
934.072	0.0149671
934.151	0.0148190
934.229	0.0147707
934.307	0.0148533
934.385	0.0147565
934.463	0.0147627
934.541	0.0148254
934.619	0.0147491
934.697	0.0147899
934.776	0.0149190
934.854	0.0148405
934.932	0.0148946
935.010	0.0147961
935.088	0.0149064
935.166	0.0148067
935.244	0.0149655
935.322	0.0150927
935.401	0.0150621
935.479	0.0151495
935.557	0.0151382
935.635	0.0152531
935.713	0.0151208
935.791	0.0151206
935.869	0.0152285
935.947	0.0151717
936.026	0.0152186
936.104	0.0150927
936.182	0.0151375
936.260	0.0151035
936.338	0.0149352
936.416	0.0149070
936.494	0.0149575
936.572	0.0150248
936.651	0.0148230
936.729	0.0148820
936.807	0.0148680
936.885	0.0148462
936.963	0.0148280
937.041	0.0148206
937.119	0.0149642
937.197	0.0149023
937.276	0.0148548
937.354	0.0148598
937.432	0.0148357
937.510	0.0148859
937.588	0.0148463
937.666	0.0148970
937.744	0.0148287
937.822	0.0149358
937.901	0.0148586
937.979	0.0149277
938.057	0.0148573
938.135	0.0148547
938.213	0.0148976
938.291	0.0147916
938.369	0.0149892
938.447	0.0148740
938.526	0.0148427
938.604	0.0149801
938.682	0.0150285
938.760	0.0149883
938.838	0.0148846
938.916	0.0148073
938.994	0.0149895
939.072	0.0150471
939.151	0.0150317
939.229	0.0150894
939.307	0.0150173
939.385	0.0151244
939.463	0.0150675
939.541	0.0150504
939.619	0.0149489
939.697	0.0150887
939.776	0.0149982
939.854	0.0149832
939.932	0.0148619
940.010	0.0149940
940.088	0.0149693
940.166	0.0149042
940.244	0.0150268
940.322	0.0149565
940.401	0.0148831
940.479	0.0148848
940.557	0.0148859
940.635	0.0149419
940.713	0.0148818
940.791	0.0150230
940.869	0.0149875
940.947	0.0151033
941.026	0.0151231
941.104	0.0150966
941.182	0.0149740
941.260	0.0151069
941.338	0.0149801
941.416	0.0150733
941.494	0.0151424
941.572	0.0150024
941.651	0.0149413
941.729	0.0148769
941.807	0.0148876
941.885	0.0148383
941.963	0.0149172
942.041	0.0147735
942.119	0.0147813
942.197	0.0147850
942.276	0.0147932
942.354	0.0148151
942.432	0.0148391
942.510	0.0149274
942.588	0.0148727
942.666	0.0149033
942.744	0.0149029
942.822	0.0149661
942.901	0.0148645
942.979	0.0149924
943.057	0.0149795
943.135	0.0147820
943.213	0.0148939
943.291	0.0147590
943.369	0.0149284
943.447	0.0147507
943.526	0.0147101
943.604	0.0147478
943.682	0.0148549
943.760	0.0149106
943.838	0.0148434
943.916	0.0149173
943.994	0.0149055
944.072	0.0149757
944.151	0.0149792
944.229	0.0149096
944.307	0.0151283
944.385	0.0149883
944.463	0.0149585
944.541	0.0149196
944.619	0.0150334
944.697	0.0150539
944.776	0.0150205
944.854	0.0149870
944.932	0.0150801
945.010	0.0150153
945.088	0.0149493
945.166	0.0149352
945.244	0.0149815
945.322	0.0148974
945.401	0.0148907
945.479	0.0149409
945.557	0.0149960
945.635	0.0149809
945.713	0.0149718
945.791	0.0150703
945.869	0.0151170
945.947	0.0150012
946.026	0.0151713
946.104	0.0151294
946.182	0.0151984
946.260	0.0151633
946.338	0.0150452
946.416	0.0150491
946.494	0.0149897
946.572	0.0150193
946.651	0.0149421
946.729	0.0150039
946.807	0.0148541
946.885	0.0148880
946.963	0.0148943
947.041	0.0147534
947.119	0.0146951
947.197	0.0147115
947.276	0.0148009
947.354	0.0147742
947.432	0.0148503
947.510	0.0148003
947.588	0.0149312
947.666	0.0149447
947.744	0.0150648
947.822	0.0151389
947.901	0.0151192
947.979	0.0151681
948.057	0.0152039
948.135	0.0151058
948.213	0.0151937
948.291	0.0150275
948.369	0.0150092
948.447	0.0148874
948.526	0.0148058
948.604	0.0145964
948.682	0.0145337
948.760	0.0146619
948.838	0.0145569
948.916	0.0145711
948.994	0.0144388
949.072	0.0143776
949.151	0.0144085
949.229	0.0145366
949.307	0.0144948
949.385	0.0146268
949.463	0.0148131
949.541	0.0148064
949.619	0.0149472
949.697	0.0149783
949.776	0.0150011
949.854	0.0151381
949.932	0.0152271
950.010	0.0151953
950.088	0.0151369
950.166	0.0150577
950.244	0.0151738
950.322	0.0152219
950.401	0.0151647
950.479	0.0150620
950.557	0.0149252
950.635	0.0150177
950.713	0.0149769
950.791	0.0149168
950.869	0.0148789
950.947	0.0148510
951.026	0.0147491
951.104	0.0149638
951.182	0.0148045
951.260	0.0147746
951.338	0.0147848
951.416	0.0148663
951.494	0.0148210
951.572	0.0148302
951.651	0.0147929
951.729	0.0148329
951.807	0.0149888
951.885	0.0149033
951.963	0.0148495
952.041	0.0148798
952.119	0.0148457
952.197	0.0148639
952.276	0.0148338
952.354	0.0149448
952.432	0.0148779
952.510	0.0147981
952.588	0.0148491
952.666	0.0148387
952.744	0.0149799
952.822	0.0149274
952.901	0.0148307
952.979	0.0148221
953.057	0.0147218
953.135	0.0147897
953.213	0.0148154
953.291	0.0148746
953.369	0.0148442
953.447	0.0148401
953.526	0.0148891
953.604	0.0147975
953.682	0.0148740
953.760	0.0147569
953.838	0.0149993
953.916	0.0148756
953.994	0.0149426
954.072	0.0150419
954.151	0.0149061
954.229	0.0149802
954.307	0.0151157
954.385	0.0150132
954.463	0.0150253
954.541	0.0150613
954.619	0.0150304
954.697	0.0152033
954.776	0.0151402
954.854	0.0151970
954.932	0.0151610
955.010	0.0151756
955.088	0.0153136
955.166	0.0153328
955.244	0.0152193
955.322	0.0151104
955.401	0.0151256
955.479	0.0151540
955.557	0.0151060
955.635	0.0150149
955.713	0.0150024
955.791	0.0149635
955.869	0.0150483
955.947	0.0150165
956.026	0.0147553
956.104	0.0149063
956.182	0.0148320
956.260	0.0149291
956.338	0.0149191
956.416	0.0147876
956.494	0.0148109
956.572	0.0148029
956.651	0.0147267
956.729	0.0148669
956.807	0.0149373
956.885	0.0148007
956.963	0.0148101
957.041	0.0148263
957.119	0.0149260
957.197	0.0148272
957.276	0.0150220
957.354	0.0148863
957.432	0.0149345
957.510	0.0150679
957.588	0.0150613
957.666	0.0149966
957.744	0.0149983
957.822	0.0151289
957.901	0.0150763
957.979	0.0151191
958.057	0.0149403
958.135	0.0150836
958.213	0.0151852
958.291	0.0151929
958.369	0.0149587
958.447	0.0150568
958.526	0.0150021
958.604	0.0151472
958.682	0.0151492
958.760	0.0150543
958.838	0.0150911
958.916	0.0150443
958.994	0.0151218
959.072	0.0150818
959.151	0.0150478
959.229	0.0150123
959.307	0.0150246
959.385	0.0150896
959.463	0.0149937
959.541	0.0148599
959.619	0.0147848
959.697	0.0150475
959.776	0.0148483
959.854	0.0148081
959.932	0.0148795
960.010	0.0146461
960.088	0.0147353
960.166	0.0147823
960.244	0.0146245
960.322	0.0148176
960.401	0.0146264
960.479	0.0147813
960.557	0.0147929
960.635	0.0148715
960.713	0.0148957
960.791	0.0148206
960.869	0.0147592
960.947	0.0149799
961.026	0.0150224
961.104	0.0149120
961.182	0.0149427
961.260	0.0149055
961.338	0.0148468
961.416	0.0148606
961.494	0.0148636
961.572	0.0148362
961.651	0.0147686
961.729	0.0150388
961.807	0.0148794
961.885	0.0150549
961.963	0.0150423
962.041	0.0150610
962.119	0.0150654
962.197	0.0150906
962.276	0.0151673
962.354	0.0151544
962.432	0.0151305
962.510	0.0151469
962.588	0.0151378
962.666	0.0152651
962.744	0.0153001
962.822	0.0151759
962.901	0.0154940
962.979	0.0153529
963.057	0.0153194
963.135	0.0153783
963.213	0.0152827
963.291	0.0152718
963.369	0.0152744
963.447	0.0152071
963.526	0.0152057
963.604	0.0151907
963.682	0.0150471
963.760	0.0150521
963.838	0.0149649
963.916	0.0149069
963.994	0.0149619
964.072	0.0149458
964.151	0.0147375
964.229	0.0147558
964.307	0.0147741
964.385	0.0148534
964.463	0.0147021
964.541	0.0146447
964.619	0.0147304
964.697	0.0147921
964.776	0.0147288
964.854	0.0148161
964.932	0.0147929
965.010	0.0148936
965.088	0.0147610
965.166	0.0148195
965.244	0.0148401
965.322	0.0147979
965.401	0.0148042
965.479	0.0147956
965.557	0.0148695
965.635	0.0146071
965.713	0.0148032
965.791	0.0148723
965.869	0.0146385
965.947	0.0145759
966.026	0.0146650
966.104	0.0147825
966.182	0.0146832
966.260	0.0146223
966.338	0.0147373
966.416	0.0147718
966.494	0.0146863
966.572	0.0147786
966.651	0.0148510
966.729	0.0148632
966.807	0.0149086
966.885	0.0150234
966.963	0.0149054
967.041	0.0149625
967.119	0.0150695
967.197	0.0149928
967.276	0.0151070
967.354	0.0149504
967.432	0.0149991
967.510	0.0149821
967.588	0.0148853
967.666	0.0148694
967.744	0.0149124
967.822	0.0148725
967.901	0.0149608
967.979	0.0149536
968.057	0.0149112
968.135	0.0148466
968.213	0.0149471
968.291	0.0148928
968.369	0.0150013
968.447	0.0150998
968.526	0.0150345
968.604	0.0150801
968.682	0.0151057
968.760	0.0152270
968.838	0.0151202
968.916	0.0150868
968.994	0.0151176
969.072	0.0152523
969.151	0.0151273
969.229	0.0150694
969.307	0.0150269
969.385	0.0148264
969.463	0.0149525
969.541	0.0150033
969.619	0.0147768
969.697	0.0149102
969.776	0.0149888
969.854	0.0149088
969.932	0.0149027
970.010	0.0147894
970.088	0.0147939
970.166	0.0150211
970.244	0.0150066
970.322	0.0151168
970.401	0.0151134
970.479	0.0150829
970.557	0.0148418
970.635	0.0149288
970.713	0.0149862
970.791	0.0148808
970.869	0.0147911
970.947	0.0148370
971.026	0.0148202
971.104	0.0147539
971.182	0.0147815
971.260	0.0147311
971.338	0.0146758
971.416	0.0146787
971.494	0.0145850
971.572	0.0147926
971.651	0.0148074
971.729	0.0147233
971.807	0.0147481
971.885	0.0149263
971.963	0.0148263
972.041	0.0148385
972.119	0.0150073
972.197	0.0149493
972.276	0.0149435
972.354	0.0149047
972.432	0.0149708
972.510	0.0149558
972.588	0.0151911
972.666	0.0151285
972.744	0.0148169
972.822	0.0149780
972.901	0.0149878
972.979	0.0149893
973.057	0.0149187
973.135	0.0148706
973.213	0.0147793
973.291	0.0149670
973.369	0.0148385
973.447	0.0147689
973.526	0.0148298
973.604	0.0148727
973.682	0.0147649
973.760	0.0149283
973.838	0.0147701
973.916	0.0149181
973.994	0.0148125
974.072	0.0149036
974.151	0.0149021
974.229	0.0149056
974.307	0.0148977
974.385	0.0148333
974.463	0.0147690
974.541	0.0149445
974.619	0.0149206
974.697	0.0147192
974.776	0.0149535
974.854	0.0148949
974.932	0.0148358
975.010	0.0149145
975.088	0.0148456
975.166	0.0148318
975.244	0.0148244
975.322	0.0149129
975.401	0.0149165
975.479	0.0147732
975.557	0.0149291
975.635	0.0148628
975.713	0.0148389
975.791	0.0149043
975.869	0.0149984
975.947	0.0148577
976.026	0.0148866
976.104	0.0149983
976.182	0.0149536
976.260	0.0146874
976.338	0.0148660
976.416	0.0149442
976.494	0.0149749
976.572	0.0149533
976.651	0.0150052
976.729	0.0151291
976.807	0.0150582
976.885	0.0150513
976.963	0.0151597
977.041	0.0152317
977.119	0.0151670
977.197	0.0152480
977.276	0.0153081
977.354	0.0151106
977.432	0.0152468
977.510	0.0151331
977.588	0.0151718
977.666	0.0151817
977.744	0.0150874
977.822	0.0151110
977.901	0.0150916
977.979	0.0150526
978.057	0.0149255
978.135	0.0148915
978.213	0.0148249
978.291	0.0147891
978.369	0.0147768
978.447	0.0147336
978.526	0.0150289
978.604	0.0149897
978.682	0.0149863
978.760	0.0147675
978.838	0.0148118
978.916	0.0148898
978.994	0.0147211
979.072	0.0147353
979.151	0.0148039
979.229	0.0149671
979.307	0.0149341
979.385	0.0148057
979.463	0.0150170
979.541	0.0149466
979.619	0.0149966
979.697	0.0149668
979.776	0.0150307
979.854	0.0148504
979.932	0.0148768
