05/03/2022	20:23:07	Ver.	4.1	UNKNOWN
Optical Delay	660.003261	Delta X		0.078125	Sweeps	1	Scan Rate	0/0
Coordinates	Axis 1	NaN	Axis 2	NaN	Axis 3	NaN	Axis 4	NaN	Axis 5	NaN	Axis 6	0.000000
TX Power	0.000000	RX Power	0.000000

660.003	0.0143481
660.081	0.0143535
660.160	0.0143378
660.238	0.0142857
660.316	0.0144492
660.394	0.0142778
660.472	0.0142883
660.550	0.0143233
660.628	0.0143080
660.706	0.0143987
660.785	0.0144913
660.863	0.0142912
660.941	0.0143058
661.019	0.0142145
661.097	0.0142852
661.175	0.0143616
661.253	0.0143625
661.331	0.0142359
661.410	0.0143865
661.488	0.0143323
661.566	0.0142676
661.644	0.0143342
661.722	0.0145709
661.800	0.0144021
661.878	0.0142699
661.956	0.0142009
662.035	0.0142253
662.113	0.0143422
662.191	0.0144255
662.269	0.0144101
662.347	0.0143231
662.425	0.0144121
662.503	0.0143405
662.581	0.0144521
662.660	0.0143361
662.738	0.0143396
662.816	0.0143921
662.894	0.0144297
662.972	0.0144574
663.050	0.0143225
663.128	0.0142274
663.206	0.0143185
663.285	0.0143522
663.363	0.0144462
663.441	0.0145181
663.519	0.0143025
663.597	0.0143912
663.675	0.0143616
663.753	0.0144379
663.831	0.0142272
663.910	0.0143050
663.988	0.0143768
664.066	0.0143055
664.144	0.0143268
664.222	0.0142745
664.300	0.0144512
664.378	0.0143353
664.456	0.0143359
664.535	0.0143637
664.613	0.0143318
664.691	0.0142628
664.769	0.0143574
664.847	0.0143847
664.925	0.0144080
665.003	0.0144133
665.081	0.0142018
665.160	0.0142319
665.238	0.0145164
665.316	0.0143062
665.394	0.0142583
665.472	0.0142594
665.550	0.0143225
665.628	0.0143177
665.706	0.0144757
665.785	0.0141705
665.863	0.0144147
665.941	0.0144163
666.019	0.0144231
666.097	0.0143728
666.175	0.0143300
666.253	0.0143872
666.331	0.0143227
666.410	0.0144071
666.488	0.0143285
666.566	0.0143593
666.644	0.0142825
666.722	0.0143826
666.800	0.0143943
666.878	0.0144045
666.956	0.0145112
667.035	0.0143771
667.113	0.0144872
667.191	0.0144464
667.269	0.0142208
667.347	0.0144069
667.425	0.0144938
667.503	0.0143514
667.581	0.0144342
667.660	0.0143658
667.738	0.0143791
667.816	0.0145351
667.894	0.0143864
667.972	0.0144658
668.050	0.0143529
668.128	0.0143275
668.206	0.0143946
668.285	0.0144366
668.363	0.0142986
668.441	0.0143838
668.519	0.0144264
668.597	0.0144573
668.675	0.0143191
668.753	0.0144019
668.831	0.0144328
668.910	0.0142915
668.988	0.0143490
669.066	0.0144877
669.144	0.0143483
669.222	0.0144807
669.300	0.0143528
669.378	0.0144495
669.456	0.0145091
669.535	0.0143887
669.613	0.0143813
669.691	0.0143755
669.769	0.0143981
669.847	0.0144849
669.925	0.0145022
670.003	0.0145185
670.081	0.0144945
670.160	0.0144812
670.238	0.0143701
670.316	0.0144418
670.394	0.0144549
670.472	0.0143612
670.550	0.0143525
670.628	0.0144202
670.706	0.0143681
670.785	0.0143816
670.863	0.0142448
670.941	0.0143071
671.019	0.0145445
671.097	0.0142834
671.175	0.0143214
671.253	0.0144080
671.331	0.0144971
671.410	0.0145094
671.488	0.0143327
671.566	0.0143906
671.644	0.0143746
671.722	0.0142907
671.800	0.0144312
671.878	0.0143117
671.956	0.0144499
672.035	0.0144065
672.113	0.0142570
672.191	0.0145292
672.269	0.0142900
672.347	0.0142972
672.425	0.0144523
672.503	0.0143369
672.581	0.0143906
672.660	0.0144391
672.738	0.0142820
672.816	0.0143796
672.894	0.0144914
672.972	0.0143899
673.050	0.0144057
673.128	0.0143488
673.206	0.0144067
673.285	0.0142927
673.363	0.0143501
673.441	0.0143518
673.519	0.0144260
673.597	0.0143311
673.675	0.0142606
673.753	0.0144472
673.831	0.0143852
673.910	0.0141577
673.988	0.0142031
674.066	0.0143142
674.144	0.0143114
674.222	0.0141886
674.300	0.0143829
674.378	0.0143115
674.456	0.0142615
674.535	0.0143682
674.613	0.0143045
674.691	0.0141256
674.769	0.0143150
674.847	0.0144762
674.925	0.0142446
675.003	0.0142879
675.081	0.0143436
675.160	0.0144258
675.238	0.0144175
675.316	0.0143566
675.394	0.0143904
675.472	0.0143108
675.550	0.0143756
675.628	0.0142973
675.706	0.0143176
675.785	0.0143715
675.863	0.0142672
675.941	0.0142595
676.019	0.0143925
676.097	0.0143552
676.175	0.0143671
676.253	0.0142494
676.331	0.0142599
676.410	0.0143250
676.488	0.0144629
676.566	0.0143349
676.644	0.0143932
676.722	0.0144859
676.800	0.0143837
676.878	0.0144073
676.956	0.0143086
677.035	0.0142569
677.113	0.0144623
677.191	0.0143952
677.269	0.0143377
677.347	0.0144643
677.425	0.0143906
677.503	0.0143505
677.581	0.0144016
677.660	0.0143034
677.738	0.0143840
677.816	0.0144552
677.894	0.0144707
677.972	0.0144939
678.050	0.0143157
678.128	0.0143967
678.206	0.0144565
678.285	0.0143591
678.363	0.0144499
678.441	0.0143732
678.519	0.0143460
678.597	0.0143855
678.675	0.0144058
678.753	0.0143925
678.831	0.0143215
678.910	0.0143852
678.988	0.0145253
679.066	0.0144933
679.144	0.0144283
679.222	0.0144487
679.300	0.0144115
679.378	0.0144850
679.456	0.0143382
679.535	0.0144872
679.613	0.0145514
679.691	0.0145264
679.769	0.0144491
679.847	0.0144180
679.925	0.0143953
680.003	0.0143917
680.081	0.0143778
680.160	0.0144659
680.238	0.0144526
680.316	0.0143676
680.394	0.0145685
680.472	0.0144351
680.550	0.0145750
680.628	0.0144231
680.706	0.0143601
680.785	0.0144634
680.863	0.0144028
680.941	0.0143835
681.019	0.0143232
681.097	0.0143091
681.175	0.0143700
681.253	0.0144192
681.331	0.0144974
681.410	0.0143295
681.488	0.0143840
681.566	0.0143398
681.644	0.0144143
681.722	0.0143276
681.800	0.0142966
681.878	0.0143474
681.956	0.0143734
682.035	0.0143495
682.113	0.0143624
682.191	0.0144087
682.269	0.0144531
682.347	0.0143788
682.425	0.0143265
682.503	0.0144389
682.581	0.0144079
682.660	0.0142089
682.738	0.0142905
682.816	0.0143643
682.894	0.0143896
682.972	0.0142747
683.050	0.0142713
683.128	0.0142950
683.206	0.0145032
683.285	0.0143779
683.363	0.0143861
683.441	0.0143967
683.519	0.0144456
683.597	0.0144083
683.675	0.0143947
683.753	0.0142401
683.831	0.0143050
683.910	0.0143687
683.988	0.0144479
684.066	0.0142937
684.144	0.0144125
684.222	0.0144788
684.300	0.0144534
684.378	0.0143113
684.456	0.0142216
684.535	0.0143164
684.613	0.0142662
684.691	0.0142794
684.769	0.0144526
684.847	0.0143753
684.925	0.0143738
685.003	0.0144429
685.081	0.0144545
685.160	0.0143380
685.238	0.0143188
685.316	0.0144389
685.394	0.0142562
685.472	0.0144360
685.550	0.0144052
685.628	0.0143633
685.706	0.0143639
685.785	0.0143272
685.863	0.0143977
685.941	0.0145370
686.019	0.0142534
686.097	0.0143673
686.175	0.0144133
686.253	0.0144651
686.331	0.0142978
686.410	0.0142638
686.488	0.0143040
686.566	0.0143243
686.644	0.0143746
686.722	0.0143958
686.800	0.0144030
686.878	0.0143311
686.956	0.0145482
687.035	0.0143456
687.113	0.0144025
687.191	0.0143468
687.269	0.0144556
687.347	0.0145564
687.425	0.0142977
687.503	0.0144619
687.581	0.0143255
687.660	0.0143318
687.738	0.0144315
687.816	0.0145077
687.894	0.0144708
687.972	0.0143005
688.050	0.0143229
688.128	0.0144389
688.206	0.0144421
688.285	0.0144807
688.363	0.0143044
688.441	0.0145061
688.519	0.0143844
688.597	0.0143851
688.675	0.0144257
688.753	0.0143440
688.831	0.0144115
688.910	0.0143628
688.988	0.0144374
689.066	0.0145117
689.144	0.0144749
689.222	0.0143884
689.300	0.0143459
689.378	0.0144387
689.456	0.0144049
689.535	0.0142226
689.613	0.0143510
689.691	0.0143704
689.769	0.0144166
689.847	0.0144701
689.925	0.0144208
690.003	0.0144806
690.081	0.0142226
690.160	0.0144298
690.238	0.0144173
690.316	0.0142911
690.394	0.0143374
690.472	0.0145356
690.550	0.0143835
690.628	0.0143584
690.706	0.0144010
690.785	0.0144788
690.863	0.0143689
690.941	0.0144212
691.019	0.0144102
691.097	0.0143618
691.175	0.0145419
691.253	0.0145271
691.331	0.0143650
691.410	0.0143231
691.488	0.0144314
691.566	0.0144159
691.644	0.0143139
691.722	0.0144759
691.800	0.0143176
691.878	0.0145945
691.956	0.0146152
692.035	0.0144543
692.113	0.0144254
692.191	0.0145472
692.269	0.0142673
692.347	0.0144285
692.425	0.0144897
692.503	0.0143795
692.581	0.0143804
692.660	0.0144330
692.738	0.0144152
692.816	0.0143970
692.894	0.0144345
692.972	0.0144293
693.050	0.0143499
693.128	0.0143768
693.206	0.0145069
693.285	0.0142826
693.363	0.0143709
693.441	0.0143158
693.519	0.0143967
693.597	0.0143116
693.675	0.0144831
693.753	0.0143711
693.831	0.0144064
693.910	0.0143300
693.988	0.0145419
694.066	0.0142533
694.144	0.0143104
694.222	0.0144251
694.300	0.0143847
694.378	0.0144088
694.456	0.0144118
694.535	0.0144085
694.613	0.0144394
694.691	0.0143940
694.769	0.0143942
694.847	0.0143997
694.925	0.0143447
695.003	0.0143490
695.081	0.0143892
695.160	0.0143661
695.238	0.0144595
695.316	0.0143077
695.394	0.0144846
695.472	0.0143163
695.550	0.0144128
695.628	0.0144461
695.706	0.0144657
695.785	0.0144831
695.863	0.0144350
695.941	0.0144441
696.019	0.0145644
696.097	0.0145566
696.175	0.0145364
696.253	0.0145063
696.331	0.0145626
696.410	0.0145503
696.488	0.0144456
696.566	0.0143529
696.644	0.0141988
696.722	0.0141573
696.800	0.0139794
696.878	0.0141271
696.956	0.0140415
697.035	0.0139899
697.113	0.0140310
697.191	0.0140841
697.269	0.0141152
697.347	0.0142521
697.425	0.0143866
697.503	0.0144150
697.581	0.0145155
697.660	0.0145835
697.738	0.0147623
697.816	0.0148788
697.894	0.0150064
697.972	0.0150923
698.050	0.0151637
698.128	0.0150084
698.206	0.0150111
698.285	0.0150495
698.363	0.0148888
698.441	0.0147764
698.519	0.0146765
698.597	0.0144040
698.675	0.0142683
698.753	0.0142705
698.831	0.0140634
698.910	0.0137627
698.988	0.0136995
699.066	0.0134208
699.144	0.0133401
699.222	0.0132211
699.300	0.0133229
699.378	0.0133128
699.456	0.0133341
699.535	0.0133862
699.613	0.0133661
699.691	0.0134461
699.769	0.0136378
699.847	0.0139367
699.925	0.0140769
700.003	0.0142390
700.081	0.0144294
700.160	0.0146016
700.238	0.0148690
700.316	0.0149912
700.394	0.0152642
700.472	0.0155551
700.550	0.0157948
700.628	0.0159657
700.706	0.0161742
700.785	0.0161609
700.863	0.0163161
700.941	0.0164588
701.019	0.0164595
701.097	0.0163039
701.175	0.0160264
701.253	0.0157452
701.331	0.0152797
701.410	0.0149398
701.488	0.0144664
701.566	0.0140697
701.644	0.0137199
701.722	0.0133292
701.800	0.0131738
701.878	0.0128075
701.956	0.0125468
702.035	0.0124491
702.113	0.0122447
702.191	0.0121422
702.269	0.0121541
702.347	0.0121254
702.425	0.0123617
702.503	0.0123870
702.581	0.0126099
702.660	0.0128899
702.738	0.0130700
702.816	0.0132871
702.894	0.0135993
702.972	0.0140650
703.050	0.0141503
703.128	0.0143293
703.206	0.0143591
703.285	0.0144762
703.363	0.0147145
703.441	0.0147240
703.519	0.0148067
703.597	0.0150745
703.675	0.0150847
703.753	0.0152567
703.831	0.0154137
703.910	0.0155892
703.988	0.0156577
704.066	0.0160005
704.144	0.0163680
704.222	0.0165816
704.300	0.0168747
704.378	0.0173203
704.456	0.0176810
704.535	0.0179256
704.613	0.0180122
704.691	0.0178786
704.769	0.0175647
704.847	0.0170585
704.925	0.0163063
705.003	0.0155385
705.081	0.0146783
705.160	0.0136931
705.238	0.0128922
705.316	0.0122747
705.394	0.0117484
705.472	0.0113519
705.550	0.0109805
705.628	0.0111178
705.706	0.0112898
705.785	0.0112655
705.863	0.0114629
705.941	0.0117516
706.019	0.0116211
706.097	0.0117096
706.175	0.0120033
706.253	0.0119326
706.331	0.0121127
706.410	0.0122301
706.488	0.0122511
706.566	0.0124570
706.644	0.0127070
706.722	0.0129185
706.800	0.0132615
706.878	0.0135725
706.956	0.0138609
707.035	0.0142065
707.113	0.0145176
707.191	0.0147744
707.269	0.0150677
707.347	0.0154005
707.425	0.0154834
707.503	0.0157805
707.581	0.0157279
707.660	0.0158567
707.738	0.0161043
707.816	0.0161536
707.894	0.0164059
707.972	0.0165269
708.050	0.0168288
708.128	0.0171759
708.206	0.0176391
708.285	0.0178824
708.363	0.0183309
708.441	0.0185181
708.519	0.0187421
708.597	0.0188143
708.675	0.0185615
708.753	0.0182155
708.831	0.0176257
708.910	0.0167896
708.988	0.0161400
709.066	0.0154059
709.144	0.0144759
709.222	0.0136688
709.300	0.0129649
709.378	0.0122521
709.456	0.0115543
709.535	0.0110268
709.613	0.0105479
709.691	0.0101858
709.769	0.00996696
709.847	0.00982819
709.925	0.00978355
710.003	0.00984406
710.081	0.0100420
710.160	0.0101864
710.238	0.0104626
710.316	0.0107500
710.394	0.0109376
710.472	0.0113642
710.550	0.0118197
710.628	0.0121484
710.706	0.0124561
710.785	0.0129331
710.863	0.0131314
710.941	0.0134797
711.019	0.0139893
711.097	0.0144677
711.175	0.0147880
711.253	0.0152612
711.331	0.0154964
711.410	0.0157957
711.488	0.0158845
711.566	0.0159270
711.644	0.0160261
711.722	0.0162582
711.800	0.0163124
711.878	0.0163229
711.956	0.0167538
712.035	0.0171260
712.113	0.0175996
712.191	0.0179778
712.269	0.0184007
712.347	0.0188729
712.425	0.0189545
712.503	0.0190949
712.581	0.0189194
712.660	0.0184689
712.738	0.0180955
712.816	0.0174160
712.894	0.0166589
712.972	0.0162128
713.050	0.0155161
713.128	0.0150693
713.206	0.0144073
713.285	0.0140835
713.363	0.0137013
713.441	0.0133529
713.519	0.0130421
713.597	0.0126477
713.675	0.0124392
713.753	0.0122984
713.831	0.0119405
713.910	0.0117420
713.988	0.0114656
714.066	0.0113620
714.144	0.0110126
714.222	0.0109032
714.300	0.0106764
714.378	0.0108617
714.456	0.0108086
714.535	0.0108490
714.613	0.0109998
714.691	0.0112366
714.769	0.0114989
714.847	0.0119250
714.925	0.0123380
715.003	0.0126701
715.081	0.0132072
715.160	0.0135680
715.238	0.0140000
715.316	0.0142718
715.394	0.0144919
715.472	0.0148183
715.550	0.0147855
715.628	0.0147313
715.706	0.0146832
715.785	0.0146980
715.863	0.0148858
715.941	0.0149538
716.019	0.0152503
716.097	0.0154517
716.175	0.0157176
716.253	0.0161150
716.331	0.0164825
716.410	0.0169367
716.488	0.0176527
716.566	0.0178291
716.644	0.0180135
716.722	0.0182175
716.800	0.0183027
716.878	0.0181448
716.956	0.0181110
717.035	0.0178149
717.113	0.0175089
717.191	0.0168911
717.269	0.0164561
717.347	0.0161227
717.425	0.0157122
717.503	0.0153423
717.581	0.0150106
717.660	0.0146084
717.738	0.0144074
717.816	0.0140565
717.894	0.0138277
717.972	0.0136014
718.050	0.0133077
718.128	0.0129783
718.206	0.0126692
718.285	0.0122844
718.363	0.0119541
718.441	0.0116772
718.519	0.0113712
718.597	0.0113187
718.675	0.0112698
718.753	0.0112649
718.831	0.0113352
718.910	0.0114772
718.988	0.0116294
719.066	0.0119710
719.144	0.0121639
719.222	0.0125125
719.300	0.0127398
719.378	0.0130874
719.456	0.0133825
719.535	0.0135950
719.613	0.0136105
719.691	0.0140036
719.769	0.0137993
719.847	0.0139124
719.925	0.0140147
720.003	0.0136948
720.081	0.0137624
720.160	0.0138708
720.238	0.0138513
720.316	0.0139294
720.394	0.0140544
720.472	0.0143905
720.550	0.0146716
720.628	0.0148825
720.706	0.0154333
720.785	0.0156551
720.863	0.0161833
720.941	0.0164543
721.019	0.0166701
721.097	0.0169157
721.175	0.0172757
721.253	0.0175356
721.331	0.0174163
721.410	0.0174297
721.488	0.0176443
721.566	0.0175191
721.644	0.0173598
721.722	0.0169875
721.800	0.0169461
721.878	0.0168301
721.956	0.0164832
722.035	0.0163073
722.113	0.0159343
722.191	0.0157660
722.269	0.0155434
722.347	0.0151298
722.425	0.0146819
722.503	0.0144682
722.581	0.0139812
722.660	0.0136836
722.738	0.0133137
722.816	0.0129131
722.894	0.0125893
722.972	0.0123233
723.050	0.0121462
723.128	0.0118231
723.206	0.0117079
723.285	0.0115770
723.363	0.0115291
723.441	0.0115086
723.519	0.0114574
723.597	0.0117523
723.675	0.0118019
723.753	0.0119030
723.831	0.0121132
723.910	0.0122490
723.988	0.0125375
724.066	0.0128223
724.144	0.0129771
724.222	0.0130614
724.300	0.0131229
724.378	0.0130913
724.456	0.0132665
724.535	0.0134049
724.613	0.0133184
724.691	0.0131886
724.769	0.0133027
724.847	0.0133401
724.925	0.0135100
725.003	0.0136861
725.081	0.0139115
725.160	0.0141176
725.238	0.0143456
725.316	0.0147884
725.394	0.0150148
725.472	0.0153392
725.550	0.0159724
725.628	0.0162605
725.706	0.0166061
725.785	0.0171492
725.863	0.0174456
725.941	0.0178302
726.019	0.0181091
726.097	0.0182658
726.175	0.0182714
726.253	0.0183701
726.331	0.0182040
726.410	0.0180096
726.488	0.0177621
726.566	0.0177750
726.644	0.0171602
726.722	0.0166373
726.800	0.0164937
726.878	0.0160732
726.956	0.0157218
727.035	0.0152859
727.113	0.0149597
727.191	0.0146424
727.269	0.0144043
727.347	0.0140476
727.425	0.0137613
727.503	0.0136425
727.581	0.0134190
727.660	0.0132904
727.738	0.0130889
727.816	0.0129975
727.894	0.0125458
727.972	0.0124842
728.050	0.0122057
728.128	0.0121500
728.206	0.0119505
728.285	0.0118750
728.363	0.0115816
728.441	0.0114520
728.519	0.0112521
728.597	0.0111583
728.675	0.0111723
728.753	0.0112241
728.831	0.0112154
728.910	0.0112354
728.988	0.0114556
729.066	0.0115566
729.144	0.0116892
729.222	0.0119514
729.300	0.0121973
729.378	0.0123192
729.456	0.0123801
729.535	0.0126796
729.613	0.0127972
729.691	0.0131828
729.769	0.0135000
729.847	0.0135405
729.925	0.0139124
730.003	0.0144343
730.081	0.0147115
730.160	0.0149215
730.238	0.0154773
730.316	0.0157756
730.394	0.0161184
730.472	0.0165189
730.550	0.0167956
730.628	0.0170262
730.706	0.0174391
730.785	0.0176839
730.863	0.0179172
730.941	0.0178288
731.019	0.0178561
731.097	0.0178770
731.175	0.0179042
731.253	0.0177907
731.331	0.0180421
731.410	0.0178680
731.488	0.0175932
731.566	0.0174617
731.644	0.0174268
731.722	0.0173056
731.800	0.0170133
731.878	0.0167130
731.956	0.0165543
732.035	0.0161242
732.113	0.0157796
732.191	0.0155657
732.269	0.0153271
732.347	0.0150005
732.425	0.0145660
732.503	0.0141094
732.581	0.0136224
732.660	0.0133771
732.738	0.0131429
732.816	0.0126009
732.894	0.0122750
732.972	0.0119744
733.050	0.0116057
733.128	0.0112515
733.206	0.0111503
733.285	0.0110937
733.363	0.0107590
733.441	0.0108344
733.519	0.0107223
733.597	0.0108118
733.675	0.0108351
733.753	0.0108453
733.831	0.0110322
733.910	0.0110410
733.988	0.0113654
734.066	0.0115759
734.144	0.0118008
734.222	0.0119062
734.300	0.0121333
734.378	0.0122578
734.456	0.0125593
734.535	0.0128501
734.613	0.0129802
734.691	0.0131659
734.769	0.0134204
734.847	0.0138066
734.925	0.0140350
735.003	0.0142195
735.081	0.0144944
735.160	0.0147732
735.238	0.0151125
735.316	0.0153947
735.394	0.0157928
735.472	0.0161582
735.550	0.0164812
735.628	0.0168037
735.706	0.0170173
735.785	0.0172771
735.863	0.0173073
735.941	0.0173167
736.019	0.0175038
736.097	0.0176891
736.175	0.0175220
736.253	0.0175682
736.331	0.0175016
736.410	0.0173533
736.488	0.0172346
736.566	0.0171503
736.644	0.0170043
736.722	0.0167904
736.800	0.0165308
736.878	0.0164775
736.956	0.0163157
737.035	0.0162558
737.113	0.0161364
737.191	0.0158443
737.269	0.0156387
737.347	0.0156190
737.425	0.0153123
737.503	0.0149845
737.581	0.0147626
737.660	0.0145219
737.738	0.0141238
737.816	0.0138820
737.894	0.0137427
737.972	0.0135307
738.050	0.0130358
738.128	0.0129478
738.206	0.0128394
738.285	0.0123613
738.363	0.0123381
738.441	0.0120963
738.519	0.0119498
738.597	0.0118840
738.675	0.0117187
738.753	0.0117545
738.831	0.0116035
738.910	0.0116180
738.988	0.0116789
739.066	0.0116812
739.144	0.0117554
739.222	0.0118831
739.300	0.0118362
739.378	0.0119304
739.456	0.0121226
739.535	0.0119698
739.613	0.0121677
739.691	0.0122718
739.769	0.0125068
739.847	0.0125883
739.925	0.0128469
740.003	0.0129520
740.081	0.0134121
740.160	0.0135159
740.238	0.0138082
740.316	0.0140111
740.394	0.0143710
740.472	0.0146507
740.550	0.0148990
740.628	0.0150967
740.706	0.0153070
740.785	0.0154805
740.863	0.0156142
740.941	0.0158368
741.019	0.0159045
741.097	0.0161306
741.175	0.0163285
741.253	0.0164077
741.331	0.0165794
741.410	0.0167009
741.488	0.0168237
741.566	0.0168224
741.644	0.0168858
741.722	0.0168110
741.800	0.0167417
741.878	0.0168110
741.956	0.0166660
742.035	0.0165764
742.113	0.0165789
742.191	0.0166513
742.269	0.0164543
742.347	0.0165234
742.425	0.0163394
742.503	0.0163264
742.581	0.0160945
742.660	0.0160664
742.738	0.0159547
742.816	0.0156737
742.894	0.0156477
742.972	0.0153115
743.050	0.0151711
743.128	0.0148705
743.206	0.0147319
743.285	0.0144885
743.363	0.0141570
743.441	0.0137296
743.519	0.0134219
743.597	0.0132214
743.675	0.0129669
743.753	0.0125200
743.831	0.0122752
743.910	0.0120520
743.988	0.0118454
744.066	0.0117231
744.144	0.0116078
744.222	0.0114975
744.300	0.0113511
744.378	0.0112590
744.456	0.0113338
744.535	0.0116034
744.613	0.0116602
744.691	0.0116201
744.769	0.0118026
744.847	0.0119145
744.925	0.0122461
745.003	0.0124032
745.081	0.0125593
745.160	0.0127500
745.238	0.0128614
745.316	0.0131655
745.394	0.0132985
745.472	0.0135316
745.550	0.0136955
745.628	0.0139649
745.706	0.0140697
745.785	0.0140930
745.863	0.0143050
745.941	0.0146157
746.019	0.0147379
746.097	0.0150732
746.175	0.0150753
746.253	0.0153994
746.331	0.0157026
746.410	0.0158066
746.488	0.0160699
746.566	0.0163928
746.644	0.0165184
746.722	0.0165946
746.800	0.0167759
746.878	0.0168844
746.956	0.0169560
747.035	0.0168752
747.113	0.0169859
747.191	0.0169935
747.269	0.0169386
747.347	0.0169997
747.425	0.0168855
747.503	0.0167314
747.581	0.0167072
747.660	0.0166917
747.738	0.0165372
747.816	0.0164468
747.894	0.0162458
747.972	0.0162602
748.050	0.0160033
748.128	0.0157892
748.206	0.0156548
748.285	0.0152280
748.363	0.0150278
748.441	0.0146429
748.519	0.0142344
748.597	0.0140274
748.675	0.0136136
748.753	0.0133487
748.831	0.0131882
748.910	0.0129464
748.988	0.0127654
749.066	0.0127579
749.144	0.0123775
749.222	0.0123621
749.300	0.0121788
749.378	0.0118839
749.456	0.0118552
749.535	0.0117386
749.613	0.0115858
749.691	0.0118381
749.769	0.0117764
749.847	0.0118186
749.925	0.0121086
750.003	0.0123544
750.081	0.0124422
750.160	0.0126096
750.238	0.0128307
750.316	0.0129350
750.394	0.0130514
750.472	0.0134021
750.550	0.0135000
750.628	0.0137479
750.706	0.0137451
750.785	0.0139279
750.863	0.0140440
750.941	0.0141476
751.019	0.0142412
751.097	0.0142455
751.175	0.0144022
751.253	0.0145555
751.331	0.0146015
751.410	0.0145316
751.488	0.0145840
751.566	0.0148466
751.644	0.0150115
751.722	0.0151392
751.800	0.0151101
751.878	0.0153634
751.956	0.0154272
752.035	0.0155151
752.113	0.0154877
752.191	0.0155975
752.269	0.0157999
752.347	0.0157723
752.425	0.0158750
752.503	0.0158163
752.581	0.0160152
752.660	0.0159517
752.738	0.0160298
752.816	0.0159332
752.894	0.0158843
752.972	0.0158467
753.050	0.0157870
753.128	0.0156796
753.206	0.0157099
753.285	0.0155643
753.363	0.0154388
753.441	0.0153414
753.519	0.0152533
753.597	0.0152392
753.675	0.0151171
753.753	0.0149628
753.831	0.0148656
753.910	0.0146896
753.988	0.0145769
754.066	0.0145171
754.144	0.0143955
754.222	0.0142873
754.300	0.0142065
754.378	0.0141196
754.456	0.0139874
754.535	0.0138281
754.613	0.0138876
754.691	0.0135741
754.769	0.0133815
754.847	0.0133699
754.925	0.0131503
755.003	0.0130743
755.081	0.0130768
755.160	0.0129766
755.238	0.0129076
755.316	0.0129552
755.394	0.0130433
755.472	0.0130827
755.550	0.0132104
755.628	0.0132112
755.706	0.0132925
755.785	0.0134491
755.863	0.0133895
755.941	0.0134537
756.019	0.0132782
756.097	0.0133172
756.175	0.0133093
756.253	0.0135001
756.331	0.0133675
756.410	0.0133845
756.488	0.0133269
756.566	0.0133862
756.644	0.0134234
756.722	0.0134645
756.800	0.0136438
756.878	0.0136124
756.956	0.0137004
757.035	0.0138790
757.113	0.0139140
757.191	0.0141850
757.269	0.0145433
757.347	0.0144835
757.425	0.0147283
757.503	0.0148922
757.581	0.0148578
757.660	0.0149486
757.738	0.0151341
757.816	0.0151733
757.894	0.0151401
757.972	0.0153518
758.050	0.0156773
758.128	0.0156254
758.206	0.0156857
758.285	0.0157323
758.363	0.0158538
758.441	0.0157607
758.519	0.0160121
758.597	0.0159121
758.675	0.0157956
758.753	0.0157420
758.831	0.0155714
758.910	0.0156038
758.988	0.0155793
759.066	0.0155782
759.144	0.0155661
759.222	0.0153720
759.300	0.0153091
759.378	0.0151681
759.456	0.0150347
759.535	0.0150063
759.613	0.0148380
759.691	0.0147534
759.769	0.0146861
759.847	0.0145838
759.925	0.0146414
760.003	0.0144524
760.081	0.0143984
760.160	0.0142152
760.238	0.0141534
760.316	0.0142128
760.394	0.0141709
760.472	0.0140498
760.550	0.0139259
760.628	0.0138262
760.706	0.0138249
760.785	0.0136742
760.863	0.0133648
760.941	0.0133183
761.019	0.0133281
761.097	0.0132491
761.175	0.0132055
761.253	0.0130763
761.331	0.0129240
761.410	0.0129512
761.488	0.0131676
761.566	0.0129961
761.644	0.0132299
761.722	0.0131874
761.800	0.0133040
761.878	0.0133389
761.956	0.0134521
762.035	0.0133932
762.113	0.0135791
762.191	0.0135720
762.269	0.0135284
762.347	0.0138981
762.425	0.0139769
762.503	0.0140557
762.581	0.0142080
762.660	0.0143212
762.738	0.0143803
762.816	0.0146752
762.894	0.0147184
762.972	0.0149028
763.050	0.0151801
763.128	0.0151329
763.206	0.0152603
763.285	0.0153509
763.363	0.0152174
763.441	0.0153966
763.519	0.0154488
763.597	0.0153985
763.675	0.0154554
763.753	0.0154056
763.831	0.0152862
763.910	0.0152468
763.988	0.0152817
764.066	0.0151708
764.144	0.0152951
764.222	0.0149902
764.300	0.0150455
764.378	0.0150955
764.456	0.0149436
764.535	0.0148638
764.613	0.0149118
764.691	0.0147673
764.769	0.0147681
764.847	0.0147980
764.925	0.0148057
765.003	0.0148575
765.081	0.0146507
765.160	0.0146741
765.238	0.0145293
765.316	0.0144849
765.394	0.0144578
765.472	0.0144281
765.550	0.0142827
765.628	0.0141838
765.706	0.0141606
765.785	0.0140177
765.863	0.0140141
765.941	0.0140752
766.019	0.0139654
766.097	0.0140520
766.175	0.0139388
766.253	0.0141554
766.331	0.0141951
766.410	0.0141121
766.488	0.0140666
766.566	0.0140478
766.644	0.0140217
766.722	0.0139888
766.800	0.0138825
766.878	0.0138326
766.956	0.0137386
767.035	0.0138818
767.113	0.0136855
767.191	0.0137202
767.269	0.0136106
767.347	0.0136571
767.425	0.0136407
767.503	0.0136678
767.581	0.0138689
767.660	0.0138285
767.738	0.0140026
767.816	0.0139850
767.894	0.0140171
767.972	0.0142389
768.050	0.0143677
768.128	0.0143849
768.206	0.0144466
768.285	0.0145913
768.363	0.0146902
768.441	0.0146872
768.519	0.0148575
768.597	0.0147910
768.675	0.0146524
768.753	0.0147099
768.831	0.0148607
768.910	0.0146658
768.988	0.0147175
769.066	0.0147128
769.144	0.0146529
769.222	0.0146535
769.300	0.0146486
769.378	0.0145763
769.456	0.0146169
769.535	0.0147958
769.613	0.0145843
769.691	0.0145997
769.769	0.0147079
769.847	0.0146320
769.925	0.0144799
770.003	0.0146387
770.081	0.0146474
770.160	0.0146854
770.238	0.0147028
770.316	0.0147440
770.394	0.0146730
770.472	0.0147392
770.550	0.0148296
770.628	0.0148048
770.706	0.0147722
770.785	0.0147928
770.863	0.0148347
770.941	0.0147932
771.019	0.0148432
771.097	0.0148026
771.175	0.0146470
771.253	0.0145910
771.331	0.0146111
771.410	0.0146592
771.488	0.0145476
771.566	0.0145319
771.644	0.0143808
771.722	0.0143643
771.800	0.0143682
771.878	0.0145203
771.956	0.0144750
772.035	0.0145117
772.113	0.0143377
772.191	0.0144306
772.269	0.0146393
772.347	0.0146342
772.425	0.0144834
772.503	0.0144307
772.581	0.0144102
772.660	0.0143557
772.738	0.0143394
772.816	0.0142519
772.894	0.0140463
772.972	0.0139934
773.050	0.0138162
773.128	0.0139116
773.206	0.0138741
773.285	0.0136823
773.363	0.0138680
773.441	0.0136695
773.519	0.0136743
773.597	0.0136875
773.675	0.0137666
773.753	0.0136593
773.831	0.0137380
773.910	0.0140322
773.988	0.0139918
774.066	0.0139198
774.144	0.0140675
774.222	0.0142209
774.300	0.0142477
774.378	0.0143050
774.456	0.0142929
774.535	0.0144167
774.613	0.0143842
774.691	0.0143544
774.769	0.0143036
774.847	0.0142169
774.925	0.0142915
775.003	0.0143266
775.081	0.0142689
775.160	0.0143351
775.238	0.0143778
775.316	0.0143880
775.394	0.0142401
775.472	0.0142609
775.550	0.0145261
775.628	0.0145758
775.706	0.0145832
775.785	0.0145824
775.863	0.0145154
775.941	0.0147256
776.019	0.0148499
776.097	0.0149498
776.175	0.0148742
776.253	0.0149796
776.331	0.0148061
776.410	0.0147705
776.488	0.0147861
776.566	0.0148046
776.644	0.0147238
776.722	0.0147733
776.800	0.0147150
776.878	0.0144810
776.956	0.0146328
777.035	0.0144413
777.113	0.0143678
777.191	0.0144659
777.269	0.0144863
777.347	0.0143687
777.425	0.0142227
777.503	0.0142240
777.581	0.0142460
777.660	0.0142646
777.738	0.0140480
777.816	0.0142805
777.894	0.0144135
777.972	0.0145127
778.050	0.0143205
778.128	0.0144600
778.206	0.0144081
778.285	0.0144584
778.363	0.0145197
778.441	0.0146675
778.519	0.0144582
778.597	0.0144818
778.675	0.0146235
778.753	0.0144604
778.831	0.0144924
778.910	0.0144333
778.988	0.0143093
779.066	0.0142252
779.144	0.0141792
779.222	0.0141936
779.300	0.0142351
779.378	0.0141314
779.456	0.0140887
779.535	0.0142221
779.613	0.0140807
779.691	0.0141365
779.769	0.0140912
779.847	0.0142345
779.925	0.0142164
780.003	0.0141322
780.081	0.0141569
780.160	0.0140129
780.238	0.0141151
780.316	0.0140624
780.394	0.0141541
780.472	0.0140523
780.550	0.0141842
780.628	0.0141312
780.706	0.0141574
780.785	0.0141270
780.863	0.0141674
780.941	0.0142194
781.019	0.0142822
781.097	0.0140826
781.175	0.0142468
781.253	0.0142609
781.331	0.0143185
781.410	0.0141327
781.488	0.0141629
781.566	0.0143453
781.644	0.0143195
781.722	0.0143124
781.800	0.0143568
781.878	0.0144049
781.956	0.0145030
782.035	0.0145267
782.113	0.0146003
782.191	0.0146995
782.269	0.0146537
782.347	0.0147609
782.425	0.0146246
782.503	0.0145682
782.581	0.0147672
782.660	0.0148334
782.738	0.0147469
782.816	0.0146085
782.894	0.0148168
782.972	0.0146497
783.050	0.0146809
783.128	0.0147645
783.206	0.0148254
783.285	0.0146660
783.363	0.0147951
783.441	0.0148835
783.519	0.0147810
783.597	0.0149477
783.675	0.0148311
783.753	0.0147294
783.831	0.0148239
783.910	0.0149023
783.988	0.0147390
784.066	0.0146441
784.144	0.0145974
784.222	0.0145026
784.300	0.0144259
784.378	0.0143578
784.456	0.0142993
784.535	0.0141190
784.613	0.0142209
784.691	0.0140287
784.769	0.0139938
784.847	0.0139265
784.925	0.0138647
785.003	0.0139610
785.081	0.0138876
785.160	0.0138137
785.238	0.0137982
785.316	0.0137090
785.394	0.0136980
785.472	0.0137219
785.550	0.0137764
785.628	0.0138306
785.706	0.0136766
785.785	0.0139312
785.863	0.0139901
785.941	0.0139837
786.019	0.0139305
786.097	0.0139744
786.175	0.0142487
786.253	0.0141408
786.331	0.0142595
786.410	0.0142204
786.488	0.0142826
786.566	0.0142486
786.644	0.0143352
786.722	0.0144157
786.800	0.0142235
786.878	0.0144604
786.956	0.0142785
787.035	0.0142220
787.113	0.0143513
787.191	0.0143635
787.269	0.0142499
787.347	0.0143340
787.425	0.0143675
787.503	0.0144714
787.581	0.0145285
787.660	0.0145935
787.738	0.0145722
787.816	0.0147179
787.894	0.0147418
787.972	0.0146154
788.050	0.0148200
788.128	0.0146485
788.206	0.0147693
788.285	0.0147292
788.363	0.0148042
788.441	0.0147932
788.519	0.0145984
788.597	0.0146940
788.675	0.0148100
788.753	0.0145609
788.831	0.0145112
788.910	0.0144073
788.988	0.0144759
789.066	0.0144389
789.144	0.0143669
789.222	0.0142627
789.300	0.0142970
789.378	0.0143213
789.456	0.0142160
789.535	0.0141454
789.613	0.0141729
789.691	0.0141737
789.769	0.0140567
789.847	0.0141691
789.925	0.0142688
790.003	0.0141226
790.081	0.0140790
790.160	0.0141515
790.238	0.0142529
790.316	0.0143192
790.394	0.0142779
790.472	0.0142533
790.550	0.0142681
790.628	0.0143803
790.706	0.0145173
790.785	0.0143877
790.863	0.0144560
790.941	0.0143762
791.019	0.0144127
791.097	0.0143565
791.175	0.0144733
791.253	0.0145952
791.331	0.0145602
791.410	0.0145952
791.488	0.0146186
791.566	0.0146705
791.644	0.0146834
791.722	0.0144975
791.800	0.0144595
791.878	0.0144060
791.956	0.0143102
792.035	0.0144917
792.113	0.0144283
792.191	0.0143582
792.269	0.0144075
792.347	0.0144778
792.425	0.0142258
792.503	0.0142773
792.581	0.0143846
792.660	0.0142931
792.738	0.0141686
792.816	0.0142358
792.894	0.0142410
792.972	0.0142824
793.050	0.0143510
793.128	0.0143361
793.206	0.0142675
793.285	0.0142822
793.363	0.0144302
793.441	0.0144447
793.519	0.0142905
793.597	0.0142008
793.675	0.0144241
793.753	0.0144508
793.831	0.0144289
793.910	0.0144131
793.988	0.0145023
794.066	0.0145486
794.144	0.0144879
794.222	0.0142194
794.300	0.0143069
794.378	0.0144646
794.456	0.0141974
794.535	0.0141439
794.613	0.0141779
794.691	0.0140120
794.769	0.0141727
794.847	0.0142036
794.925	0.0140405
795.003	0.0141096
795.081	0.0142627
795.160	0.0140874
795.238	0.0143803
795.316	0.0143230
795.394	0.0143050
795.472	0.0144920
795.550	0.0145360
795.628	0.0145320
795.706	0.0144352
795.785	0.0145223
795.863	0.0145703
795.941	0.0144994
796.019	0.0144192
796.097	0.0145833
796.175	0.0146127
796.253	0.0146302
796.331	0.0146018
796.410	0.0146181
796.488	0.0145750
796.566	0.0145901
796.644	0.0146121
796.722	0.0146291
796.800	0.0145202
796.878	0.0144872
796.956	0.0145580
797.035	0.0145407
797.113	0.0144458
797.191	0.0143948
797.269	0.0143493
797.347	0.0141685
797.425	0.0142046
797.503	0.0142384
797.581	0.0139414
797.660	0.0139496
797.738	0.0139351
797.816	0.0139253
797.894	0.0139713
797.972	0.0138262
798.050	0.0139431
798.128	0.0139483
798.206	0.0139412
798.285	0.0138399
798.363	0.0137914
798.441	0.0140098
798.519	0.0140926
798.597	0.0140398
798.675	0.0141920
798.753	0.0142019
798.831	0.0142908
798.910	0.0142484
798.988	0.0142858
799.066	0.0143386
799.144	0.0142988
799.222	0.0143584
799.300	0.0145751
799.378	0.0145127
799.456	0.0142982
799.535	0.0144843
799.613	0.0146553
799.691	0.0146040
799.769	0.0147108
799.847	0.0147480
799.925	0.0148139
800.003	0.0148833
800.081	0.0148342
800.160	0.0148368
800.238	0.0149000
800.316	0.0149997
800.394	0.0148845
800.472	0.0147369
800.550	0.0149320
800.628	0.0146087
800.706	0.0146407
800.785	0.0146317
800.863	0.0146078
800.941	0.0145103
801.019	0.0146511
801.097	0.0143661
801.175	0.0142994
801.253	0.0142545
801.331	0.0141447
801.410	0.0140871
801.488	0.0140134
801.566	0.0138863
801.644	0.0140412
801.722	0.0140417
801.800	0.0140201
801.878	0.0139730
801.956	0.0140084
802.035	0.0140610
802.113	0.0140499
802.191	0.0139532
802.269	0.0140308
802.347	0.0141315
802.425	0.0141839
802.503	0.0142752
802.581	0.0142884
802.660	0.0142389
802.738	0.0141929
802.816	0.0142999
802.894	0.0144092
802.972	0.0142918
803.050	0.0144231
803.128	0.0143944
803.206	0.0141695
803.285	0.0142458
803.363	0.0143388
803.441	0.0142894
803.519	0.0143796
803.597	0.0143793
803.675	0.0144755
803.753	0.0145957
803.831	0.0145624
803.910	0.0145028
803.988	0.0145895
804.066	0.0146620
804.144	0.0147869
804.222	0.0149134
804.300	0.0148788
804.378	0.0148787
804.456	0.0148293
804.535	0.0149550
804.613	0.0149496
804.691	0.0149759
804.769	0.0148048
804.847	0.0147098
804.925	0.0146047
805.003	0.0145722
805.081	0.0145365
805.160	0.0143629
805.238	0.0142482
805.316	0.0141345
805.394	0.0141140
805.472	0.0140813
805.550	0.0139215
805.628	0.0139509
805.706	0.0138620
805.785	0.0137148
805.863	0.0136916
805.941	0.0136652
806.019	0.0139354
806.097	0.0137242
806.175	0.0138593
806.253	0.0138667
806.331	0.0137573
806.410	0.0138620
806.488	0.0138610
806.566	0.0141362
806.644	0.0141743
806.722	0.0141811
806.800	0.0141677
806.878	0.0142524
806.956	0.0142422
807.035	0.0142249
807.113	0.0143561
807.191	0.0142795
807.269	0.0143245
807.347	0.0143788
807.425	0.0145730
807.503	0.0144840
807.581	0.0144377
807.660	0.0145078
807.738	0.0144659
807.816	0.0145898
807.894	0.0146146
807.972	0.0147166
808.050	0.0148564
808.128	0.0147656
808.206	0.0149413
808.285	0.0149913
808.363	0.0150911
808.441	0.0152366
808.519	0.0150363
808.597	0.0150047
808.675	0.0150478
808.753	0.0149395
808.831	0.0149466
808.910	0.0150697
808.988	0.0149473
809.066	0.0148286
809.144	0.0147297
809.222	0.0146556
809.300	0.0145056
809.378	0.0145194
809.456	0.0143922
809.535	0.0142662
809.613	0.0141788
809.691	0.0141264
809.769	0.0140868
809.847	0.0140599
809.925	0.0138527
810.003	0.0137978
810.081	0.0137745
810.160	0.0137545
810.238	0.0137527
810.316	0.0137689
810.394	0.0136856
810.472	0.0136749
810.550	0.0137962
810.628	0.0137617
810.706	0.0138563
810.785	0.0138504
810.863	0.0138105
810.941	0.0139503
811.019	0.0138345
811.097	0.0137247
811.175	0.0138243
811.253	0.0139796
811.331	0.0140738
811.410	0.0139862
811.488	0.0139706
811.566	0.0141103
811.644	0.0141397
811.722	0.0140795
811.800	0.0142167
811.878	0.0142931
811.956	0.0141740
812.035	0.0142575
812.113	0.0143186
812.191	0.0143676
812.269	0.0145135
812.347	0.0144710
812.425	0.0145706
812.503	0.0146881
812.581	0.0147306
812.660	0.0147852
812.738	0.0148192
812.816	0.0148396
812.894	0.0148164
812.972	0.0146642
813.050	0.0148077
813.128	0.0147924
813.206	0.0147327
813.285	0.0147949
813.363	0.0147167
813.441	0.0147742
813.519	0.0147303
813.597	0.0147360
813.675	0.0146712
813.753	0.0146262
813.831	0.0146764
813.910	0.0147297
813.988	0.0145800
814.066	0.0144180
814.144	0.0145526
814.222	0.0145263
814.300	0.0144186
814.378	0.0144180
814.456	0.0144588
814.535	0.0144171
814.613	0.0144701
814.691	0.0144482
814.769	0.0144640
814.847	0.0144701
814.925	0.0144577
815.003	0.0143992
815.081	0.0144234
815.160	0.0143388
815.238	0.0143277
815.316	0.0142931
815.394	0.0144484
815.472	0.0143454
815.550	0.0142631
815.628	0.0143104
815.706	0.0143737
815.785	0.0142749
815.863	0.0143097
815.941	0.0141932
816.019	0.0141740
816.097	0.0142696
816.175	0.0142977
816.253	0.0143056
816.331	0.0141503
816.410	0.0141190
816.488	0.0140386
816.566	0.0142191
816.644	0.0142400
816.722	0.0141838
816.800	0.0142029
816.878	0.0141019
816.956	0.0142473
817.035	0.0142872
817.113	0.0142444
817.191	0.0142325
817.269	0.0141884
817.347	0.0143335
817.425	0.0144186
817.503	0.0144357
817.581	0.0142332
817.660	0.0145502
817.738	0.0143857
817.816	0.0145023
817.894	0.0145114
817.972	0.0144915
818.050	0.0144859
818.128	0.0144809
818.206	0.0143597
818.285	0.0144597
818.363	0.0144720
818.441	0.0144734
818.519	0.0144018
818.597	0.0143307
818.675	0.0144254
818.753	0.0143703
818.831	0.0143013
818.910	0.0143974
818.988	0.0143262
819.066	0.0143368
819.144	0.0142825
819.222	0.0142106
819.300	0.0143825
819.378	0.0144375
819.456	0.0142997
819.535	0.0144019
819.613	0.0145147
819.691	0.0142677
819.769	0.0144332
819.847	0.0145301
819.925	0.0146870
820.003	0.0145248
820.081	0.0146018
820.160	0.0145541
820.238	0.0144722
820.316	0.0145022
820.394	0.0146035
820.472	0.0145533
820.550	0.0143742
820.628	0.0144237
820.706	0.0143718
820.785	0.0143801
820.863	0.0144031
820.941	0.0142828
821.019	0.0143875
821.097	0.0142023
821.175	0.0142336
821.253	0.0141343
821.331	0.0141450
821.410	0.0141330
821.488	0.0141618
821.566	0.0140602
821.644	0.0141637
821.722	0.0141565
821.800	0.0140671
821.878	0.0143092
821.956	0.0142561
822.035	0.0141683
822.113	0.0142271
822.191	0.0142398
822.269	0.0145183
822.347	0.0144145
822.425	0.0145505
822.503	0.0146105
822.581	0.0146999
822.660	0.0147817
822.738	0.0148215
822.816	0.0147445
822.894	0.0148301
822.972	0.0148866
823.050	0.0148090
823.128	0.0147308
823.206	0.0146917
823.285	0.0147961
823.363	0.0147909
823.441	0.0147314
823.519	0.0146887
823.597	0.0145956
823.675	0.0146601
823.753	0.0143781
823.831	0.0143723
823.910	0.0144857
823.988	0.0144532
824.066	0.0144303
824.144	0.0143442
824.222	0.0143777
824.300	0.0143789
824.378	0.0142704
824.456	0.0140859
824.535	0.0141963
824.613	0.0142126
824.691	0.0140743
824.769	0.0141880
824.847	0.0141609
824.925	0.0141617
825.003	0.0141833
825.081	0.0141673
825.160	0.0141163
825.238	0.0142693
825.316	0.0141626
825.394	0.0141697
825.472	0.0141030
825.550	0.0142241
825.628	0.0142678
825.706	0.0143198
825.785	0.0142229
825.863	0.0141505
825.941	0.0143629
826.019	0.0142510
826.097	0.0142705
826.175	0.0143153
826.253	0.0144948
826.331	0.0143996
826.410	0.0145811
826.488	0.0145438
826.566	0.0143975
826.644	0.0144572
826.722	0.0146436
826.800	0.0146149
826.878	0.0145714
826.956	0.0145154
827.035	0.0145706
827.113	0.0145439
827.191	0.0146987
827.269	0.0148030
827.347	0.0146601
827.425	0.0145869
827.503	0.0146122
827.581	0.0146111
827.660	0.0145162
827.738	0.0145892
827.816	0.0146611
827.894	0.0144851
827.972	0.0144877
828.050	0.0146561
828.128	0.0144681
828.206	0.0144293
828.285	0.0142815
828.363	0.0143220
828.441	0.0142399
828.519	0.0144324
828.597	0.0142456
828.675	0.0143272
828.753	0.0143242
828.831	0.0143457
828.910	0.0144130
828.988	0.0145239
829.066	0.0144006
829.144	0.0143030
829.222	0.0144080
829.300	0.0144121
829.378	0.0145010
829.456	0.0146552
829.535	0.0145229
829.613	0.0145744
829.691	0.0146684
829.769	0.0145480
829.847	0.0147453
829.925	0.0146954
830.003	0.0145857
830.081	0.0146409
830.160	0.0145722
830.238	0.0145451
830.316	0.0145997
830.394	0.0144621
830.472	0.0143248
830.550	0.0143911
830.628	0.0143909
830.706	0.0142529
830.785	0.0141538
830.863	0.0141911
830.941	0.0142297
831.019	0.0140717
831.097	0.0140887
831.175	0.0139156
831.253	0.0139646
831.331	0.0140033
831.410	0.0140356
831.488	0.0142043
831.566	0.0140668
831.644	0.0139182
831.722	0.0139149
831.800	0.0140604
831.878	0.0139929
831.956	0.0138556
832.035	0.0139888
832.113	0.0141106
832.191	0.0140724
832.269	0.0141869
832.347	0.0142449
832.425	0.0143236
832.503	0.0142426
832.581	0.0144054
832.660	0.0144978
832.738	0.0145438
832.816	0.0146922
832.894	0.0148665
832.972	0.0148524
833.050	0.0149211
833.128	0.0149689
833.206	0.0150494
833.285	0.0151921
833.363	0.0150625
833.441	0.0151350
833.519	0.0149781
833.597	0.0150497
833.675	0.0149776
833.753	0.0148930
833.831	0.0148788
833.910	0.0147936
833.988	0.0148001
834.066	0.0147809
834.144	0.0147218
834.222	0.0147669
834.300	0.0146848
834.378	0.0146617
834.456	0.0145039
834.535	0.0144497
834.613	0.0144722
834.691	0.0144133
834.769	0.0142192
834.847	0.0143936
834.925	0.0142358
835.003	0.0142947
835.081	0.0142110
835.160	0.0142719
835.238	0.0140807
835.316	0.0141230
835.394	0.0140935
835.472	0.0139610
835.550	0.0140752
835.628	0.0142142
835.706	0.0140481
835.785	0.0139162
835.863	0.0140509
835.941	0.0139568
836.019	0.0141512
836.097	0.0140927
836.175	0.0140421
836.253	0.0142175
836.331	0.0141722
836.410	0.0139491
836.488	0.0139949
836.566	0.0140289
836.644	0.0141257
836.722	0.0140704
836.800	0.0140742
836.878	0.0139640
836.956	0.0140386
837.035	0.0141728
837.113	0.0141363
837.191	0.0142833
837.269	0.0141981
837.347	0.0142519
837.425	0.0143457
837.503	0.0144648
837.581	0.0143987
837.660	0.0145991
837.738	0.0145161
837.816	0.0146076
837.894	0.0145975
837.972	0.0146637
838.050	0.0147194
838.128	0.0145855
838.206	0.0146679
838.285	0.0146651
838.363	0.0146994
838.441	0.0147866
838.519	0.0147169
838.597	0.0148044
838.675	0.0147670
838.753	0.0147404
838.831	0.0148129
838.910	0.0145950
838.988	0.0146657
839.066	0.0147062
839.144	0.0146958
839.222	0.0146091
839.300	0.0145992
839.378	0.0145509
839.456	0.0145437
839.535	0.0145706
839.613	0.0145136
839.691	0.0144655
839.769	0.0143997
839.847	0.0145218
839.925	0.0145338
840.003	0.0143392
840.081	0.0143977
840.160	0.0145535
840.238	0.0143539
840.316	0.0143038
840.394	0.0142793
840.472	0.0141998
840.550	0.0141808
840.628	0.0142282
840.706	0.0140716
840.785	0.0141318
840.863	0.0140568
840.941	0.0141479
841.019	0.0140145
841.097	0.0139700
841.175	0.0139249
841.253	0.0141013
841.331	0.0141620
841.410	0.0141296
841.488	0.0139786
841.566	0.0142397
841.644	0.0141109
841.722	0.0141169
841.800	0.0141581
841.878	0.0142499
841.956	0.0142514
842.035	0.0143305
842.113	0.0141711
842.191	0.0142394
842.269	0.0142760
842.347	0.0143343
842.425	0.0144137
842.503	0.0142448
842.581	0.0144225
842.660	0.0142197
842.738	0.0143689
842.816	0.0143619
842.894	0.0144067
842.972	0.0144975
843.050	0.0144131
843.128	0.0144924
843.206	0.0144712
843.285	0.0145060
843.363	0.0144103
843.441	0.0144609
843.519	0.0143844
843.597	0.0145216
843.675	0.0144721
843.753	0.0143185
843.831	0.0144776
843.910	0.0145465
843.988	0.0145328
844.066	0.0144971
844.144	0.0145068
844.222	0.0146554
844.300	0.0145645
844.378	0.0146466
844.456	0.0144406
844.535	0.0146407
844.613	0.0146631
844.691	0.0146105
844.769	0.0146461
844.847	0.0146774
844.925	0.0146619
845.003	0.0145599
845.081	0.0147388
845.160	0.0146224
845.238	0.0146841
845.316	0.0146131
845.394	0.0144617
845.472	0.0144905
845.550	0.0145762
845.628	0.0143961
845.706	0.0144660
845.785	0.0143752
845.863	0.0143927
845.941	0.0143921
846.019	0.0144098
846.097	0.0142435
846.175	0.0141748
846.253	0.0142811
846.331	0.0141978
846.410	0.0141166
846.488	0.0141066
846.566	0.0140035
846.644	0.0141409
846.722	0.0143211
846.800	0.0140556
846.878	0.0141063
846.956	0.0142286
847.035	0.0142809
847.113	0.0143218
847.191	0.0142206
847.269	0.0143674
847.347	0.0144451
847.425	0.0143271
847.503	0.0144800
847.581	0.0144341
847.660	0.0144577
847.738	0.0144534
847.816	0.0145257
847.894	0.0144940
847.972	0.0143907
848.050	0.0144328
848.128	0.0143568
848.206	0.0144244
848.285	0.0145036
848.363	0.0144205
848.441	0.0143099
848.519	0.0144769
848.597	0.0143005
848.675	0.0142825
848.753	0.0146262
848.831	0.0144559
848.910	0.0143564
848.988	0.0145769
849.066	0.0145669
849.144	0.0143432
849.222	0.0144086
849.300	0.0144540
849.378	0.0143578
849.456	0.0143546
849.535	0.0145490
849.613	0.0144440
849.691	0.0144435
849.769	0.0143947
849.847	0.0145834
849.925	0.0146900
850.003	0.0145124
850.081	0.0145882
850.160	0.0146301
850.238	0.0145570
850.316	0.0147446
850.394	0.0148180
850.472	0.0146906
850.550	0.0147422
850.628	0.0146221
850.706	0.0145515
850.785	0.0145580
850.863	0.0144744
850.941	0.0145548
851.019	0.0144480
851.097	0.0144842
851.175	0.0144935
851.253	0.0143159
851.331	0.0144684
851.410	0.0144446
851.488	0.0143385
851.566	0.0141876
851.644	0.0143246
851.722	0.0144104
851.800	0.0143730
851.878	0.0142516
851.956	0.0142053
852.035	0.0143053
852.113	0.0141782
852.191	0.0140953
852.269	0.0141428
852.347	0.0141059
852.425	0.0142834
852.503	0.0142879
852.581	0.0142510
852.660	0.0141479
852.738	0.0141447
852.816	0.0142699
852.894	0.0142250
852.972	0.0141515
853.050	0.0142390
853.128	0.0143069
853.206	0.0142621
853.285	0.0143709
853.363	0.0142872
853.441	0.0142657
853.519	0.0144613
853.597	0.0142731
853.675	0.0142799
853.753	0.0143691
853.831	0.0143516
853.910	0.0142513
853.988	0.0143266
854.066	0.0143636
854.144	0.0142665
854.222	0.0145024
854.300	0.0144435
854.378	0.0142811
854.456	0.0143415
854.535	0.0145515
854.613	0.0144117
854.691	0.0145148
854.769	0.0145752
854.847	0.0144830
854.925	0.0145482
855.003	0.0145987
855.081	0.0144907
855.160	0.0145318
855.238	0.0145404
855.316	0.0145891
855.394	0.0144557
855.472	0.0145365
855.550	0.0145784
855.628	0.0142846
855.706	0.0144369
855.785	0.0144128
855.863	0.0144120
855.941	0.0145207
856.019	0.0143510
856.097	0.0143549
856.175	0.0144048
856.253	0.0145688
856.331	0.0143580
856.410	0.0142900
856.488	0.0144244
856.566	0.0144154
856.644	0.0143555
856.722	0.0143076
856.800	0.0144379
856.878	0.0143182
856.956	0.0143730
857.035	0.0144540
857.113	0.0143774
857.191	0.0143628
857.269	0.0143184
857.347	0.0142771
857.425	0.0143716
857.503	0.0144128
857.581	0.0142495
857.660	0.0144540
857.738	0.0143671
857.816	0.0142800
857.894	0.0142751
857.972	0.0141862
858.050	0.0142658
858.128	0.0143090
858.206	0.0142902
858.285	0.0142329
858.363	0.0141647
858.441	0.0140945
858.519	0.0140479
858.597	0.0142127
858.675	0.0142012
858.753	0.0142326
858.831	0.0142612
858.910	0.0144642
858.988	0.0143904
859.066	0.0144192
859.144	0.0143208
859.222	0.0143311
859.300	0.0143414
859.378	0.0142362
859.456	0.0144105
859.535	0.0142956
859.613	0.0144028
859.691	0.0143561
859.769	0.0143505
859.847	0.0144155
859.925	0.0143537
860.003	0.0142804
860.081	0.0144524
860.160	0.0144381
860.238	0.0144843
860.316	0.0145267
860.394	0.0145395
860.472	0.0143917
860.550	0.0143385
860.628	0.0144674
860.706	0.0145702
860.785	0.0144147
860.863	0.0145161
860.941	0.0143851
861.019	0.0143542
861.097	0.0144064
861.175	0.0142619
861.253	0.0144596
861.331	0.0144540
861.410	0.0144767
861.488	0.0144151
861.566	0.0143396
861.644	0.0144906
861.722	0.0144206
861.800	0.0144199
861.878	0.0143932
861.956	0.0144214
862.035	0.0144464
862.113	0.0144281
862.191	0.0144022
862.269	0.0144241
862.347	0.0144160
862.425	0.0144029
862.503	0.0143469
862.581	0.0143601
862.660	0.0144763
862.738	0.0143028
862.816	0.0143777
862.894	0.0143463
862.972	0.0143891
863.050	0.0142631
863.128	0.0143437
863.206	0.0142583
863.285	0.0142961
863.363	0.0142843
863.441	0.0144015
863.519	0.0143456
863.597	0.0142824
863.675	0.0142437
863.753	0.0143182
863.831	0.0142528
863.910	0.0141586
863.988	0.0143382
864.066	0.0142555
864.144	0.0141571
864.222	0.0143524
864.300	0.0142452
864.378	0.0141536
864.456	0.0141514
864.535	0.0142882
864.613	0.0142167
864.691	0.0141370
864.769	0.0142977
864.847	0.0143375
864.925	0.0143034
865.003	0.0141940
865.081	0.0142126
865.160	0.0142332
865.238	0.0142220
865.316	0.0143070
865.394	0.0142369
865.472	0.0142579
865.550	0.0143092
865.628	0.0143401
865.706	0.0142154
865.785	0.0141806
865.863	0.0142527
865.941	0.0141017
866.019	0.0141983
866.097	0.0142023
866.175	0.0141547
866.253	0.0142960
866.331	0.0141783
866.410	0.0141795
866.488	0.0142509
866.566	0.0142425
866.644	0.0140887
866.722	0.0142261
866.800	0.0143233
866.878	0.0143042
866.956	0.0141927
867.035	0.0142355
867.113	0.0143759
867.191	0.0142578
867.269	0.0144441
867.347	0.0144526
867.425	0.0146754
867.503	0.0145686
867.581	0.0146703
867.660	0.0146865
867.738	0.0147568
867.816	0.0147248
867.894	0.0146743
867.972	0.0147914
868.050	0.0146700
868.128	0.0146730
868.206	0.0147008
868.285	0.0146885
868.363	0.0146454
868.441	0.0145189
868.519	0.0146853
868.597	0.0145798
868.675	0.0146224
868.753	0.0144674
868.831	0.0145767
868.910	0.0145228
868.988	0.0145625
869.066	0.0144517
869.144	0.0145258
869.222	0.0145229
869.300	0.0146089
869.378	0.0145334
869.456	0.0145855
869.535	0.0144551
869.613	0.0144988
869.691	0.0144559
869.769	0.0142281
869.847	0.0143653
869.925	0.0143560
870.003	0.0142133
870.081	0.0142053
870.160	0.0142389
870.238	0.0141341
870.316	0.0140491
870.394	0.0140795
870.472	0.0140630
870.550	0.0140726
870.628	0.0139480
870.706	0.0139294
870.785	0.0140160
870.863	0.0140435
870.941	0.0140776
871.019	0.0140678
871.097	0.0141701
871.175	0.0142652
871.253	0.0142507
871.331	0.0142654
871.410	0.0141708
871.488	0.0142673
871.566	0.0143569
871.644	0.0143973
871.722	0.0141544
871.800	0.0143260
871.878	0.0142890
871.956	0.0142253
872.035	0.0143034
872.113	0.0143153
872.191	0.0143343
872.269	0.0143942
872.347	0.0143390
872.425	0.0144801
872.503	0.0144229
872.581	0.0144200
872.660	0.0144164
872.738	0.0145134
872.816	0.0146221
872.894	0.0146468
872.972	0.0146222
873.050	0.0145827
873.128	0.0146399
873.206	0.0146299
873.285	0.0147427
873.363	0.0147733
873.441	0.0145745
873.519	0.0145909
873.597	0.0145990
873.675	0.0145741
873.753	0.0146633
873.831	0.0147535
873.910	0.0146430
873.988	0.0145841
874.066	0.0144339
874.144	0.0143959
874.222	0.0144470
874.300	0.0145562
874.378	0.0144987
874.456	0.0144975
874.535	0.0145350
874.613	0.0144655
874.691	0.0144108
874.769	0.0144215
874.847	0.0144818
874.925	0.0144590
875.003	0.0143722
875.081	0.0143627
875.160	0.0144450
875.238	0.0143052
875.316	0.0142880
875.394	0.0141324
875.472	0.0141676
875.550	0.0142757
875.628	0.0142648
875.706	0.0140610
875.785	0.0141447
875.863	0.0143243
875.941	0.0141956
876.019	0.0141400
876.097	0.0140755
876.175	0.0141837
876.253	0.0141663
876.331	0.0141918
876.410	0.0142280
876.488	0.0143527
876.566	0.0142392
876.644	0.0142325
876.722	0.0142604
876.800	0.0143900
876.878	0.0141868
876.956	0.0143378
877.035	0.0144650
877.113	0.0143417
877.191	0.0143057
877.269	0.0143327
877.347	0.0143266
877.425	0.0144458
877.503	0.0142875
877.581	0.0143137
877.660	0.0142253
877.738	0.0142913
877.816	0.0143159
877.894	0.0143920
877.972	0.0143235
878.050	0.0143253
878.128	0.0143166
878.206	0.0143266
878.285	0.0143272
878.363	0.0145126
878.441	0.0145590
878.519	0.0145604
878.597	0.0145436
878.675	0.0145292
878.753	0.0145947
878.831	0.0145940
878.910	0.0146794
878.988	0.0146473
879.066	0.0144382
879.144	0.0147231
879.222	0.0145615
879.300	0.0144123
879.378	0.0146043
879.456	0.0145072
879.535	0.0145570
879.613	0.0144135
879.691	0.0144668
879.769	0.0144817
879.847	0.0145632
879.925	0.0145103
880.003	0.0144884
880.081	0.0144355
880.160	0.0143268
880.238	0.0145078
880.316	0.0143890
880.394	0.0143346
880.472	0.0143560
880.550	0.0141708
880.628	0.0142310
880.706	0.0141728
880.785	0.0142468
880.863	0.0144066
880.941	0.0141643
881.019	0.0140021
881.097	0.0141088
881.175	0.0141941
881.253	0.0142571
881.331	0.0142733
881.410	0.0142415
881.488	0.0142499
881.566	0.0143091
881.644	0.0142070
881.722	0.0143167
881.800	0.0143655
881.878	0.0143954
881.956	0.0142519
882.035	0.0142970
882.113	0.0143669
882.191	0.0142250
882.269	0.0142905
882.347	0.0140585
882.425	0.0141460
882.503	0.0142431
882.581	0.0143156
882.660	0.0143644
882.738	0.0141792
882.816	0.0143642
882.894	0.0143374
882.972	0.0144066
883.050	0.0143021
883.128	0.0143162
883.206	0.0143265
883.285	0.0143414
883.363	0.0143817
883.441	0.0144958
883.519	0.0144403
883.597	0.0144675
883.675	0.0144165
883.753	0.0145256
883.831	0.0144302
883.910	0.0145518
883.988	0.0145583
884.066	0.0145461
884.144	0.0144728
884.222	0.0145703
884.300	0.0146546
884.378	0.0146536
884.456	0.0146573
884.535	0.0145926
884.613	0.0145921
884.691	0.0145940
884.769	0.0147166
884.847	0.0146224
884.925	0.0146824
885.003	0.0147189
885.081	0.0145879
885.160	0.0147060
885.238	0.0147211
885.316	0.0143750
885.394	0.0143284
885.472	0.0143997
885.550	0.0143450
885.628	0.0144201
885.706	0.0144168
885.785	0.0143047
885.863	0.0143674
885.941	0.0144113
886.019	0.0143855
886.097	0.0144244
886.175	0.0143456
886.253	0.0143217
886.331	0.0143840
886.410	0.0142603
886.488	0.0142230
886.566	0.0142390
886.644	0.0142200
886.722	0.0143005
886.800	0.0143646
886.878	0.0142255
886.956	0.0142973
887.035	0.0142215
887.113	0.0142658
887.191	0.0142472
887.269	0.0142454
887.347	0.0141450
887.425	0.0142333
887.503	0.0141702
887.581	0.0142028
887.660	0.0142144
887.738	0.0141558
887.816	0.0141586
887.894	0.0143631
887.972	0.0142114
888.050	0.0142975
888.128	0.0142452
888.206	0.0142726
888.285	0.0143415
888.363	0.0142956
888.441	0.0143785
888.519	0.0143542
888.597	0.0145123
888.675	0.0145597
888.753	0.0144144
888.831	0.0143539
888.910	0.0144932
888.988	0.0145367
889.066	0.0144939
889.144	0.0145515
889.222	0.0144593
889.300	0.0144398
889.378	0.0144225
889.456	0.0143862
889.535	0.0145206
889.613	0.0145546
889.691	0.0143439
889.769	0.0144341
889.847	0.0144275
889.925	0.0144579
890.003	0.0144872
890.081	0.0144423
890.160	0.0143516
890.238	0.0143183
890.316	0.0143786
890.394	0.0142605
890.472	0.0143643
890.550	0.0143456
890.628	0.0144192
890.706	0.0145407
890.785	0.0144061
890.863	0.0144944
890.941	0.0144074
891.019	0.0144005
891.097	0.0144369
891.175	0.0144983
891.253	0.0144862
891.331	0.0144438
891.410	0.0145081
891.488	0.0144807
891.566	0.0143816
891.644	0.0143123
891.722	0.0143279
891.800	0.0142828
891.878	0.0142990
891.956	0.0143154
892.035	0.0141975
892.113	0.0142161
892.191	0.0142079
892.269	0.0140480
892.347	0.0142869
892.425	0.0142493
892.503	0.0141589
892.581	0.0142748
892.660	0.0142787
892.738	0.0141284
892.816	0.0142379
892.894	0.0142427
892.972	0.0140639
893.050	0.0140918
893.128	0.0141646
893.206	0.0142336
893.285	0.0141748
893.363	0.0142675
893.441	0.0142888
893.519	0.0143539
893.597	0.0144187
893.675	0.0144579
893.753	0.0146399
893.831	0.0145476
893.910	0.0146111
893.988	0.0146957
894.066	0.0146367
894.144	0.0146945
894.222	0.0145454
894.300	0.0146223
894.378	0.0145492
894.456	0.0145118
894.535	0.0144711
894.613	0.0146401
894.691	0.0144391
894.769	0.0145274
894.847	0.0144915
894.925	0.0143536
895.003	0.0142742
895.081	0.0143088
895.160	0.0144048
895.238	0.0143781
895.316	0.0142573
895.394	0.0143784
895.472	0.0144040
895.550	0.0143153
895.628	0.0142995
895.706	0.0143575
895.785	0.0142577
895.863	0.0143311
895.941	0.0143691
896.019	0.0143844
896.097	0.0144960
896.175	0.0143935
896.253	0.0145451
896.331	0.0144791
896.410	0.0144357
896.488	0.0143296
896.566	0.0142065
896.644	0.0141708
896.722	0.0144444
896.800	0.0143332
896.878	0.0141734
896.956	0.0144724
897.035	0.0143783
897.113	0.0143832
897.191	0.0145516
897.269	0.0146769
897.347	0.0148247
897.425	0.0149416
897.503	0.0148974
897.581	0.0149133
897.660	0.0148780
897.738	0.0148750
897.816	0.0148550
897.894	0.0147632
897.972	0.0146212
898.050	0.0146037
898.128	0.0145355
898.206	0.0143967
898.285	0.0143796
898.363	0.0145140
898.441	0.0144629
898.519	0.0142682
898.597	0.0142516
898.675	0.0144041
898.753	0.0143932
898.831	0.0142770
898.910	0.0144222
898.988	0.0141267
899.066	0.0143646
899.144	0.0143652
899.222	0.0141665
899.300	0.0141132
899.378	0.0140643
899.456	0.0140703
899.535	0.0139683
899.613	0.0139046
899.691	0.0138899
899.769	0.0137950
899.847	0.0139568
899.925	0.0138643
900.003	0.0139202
900.081	0.0140076
900.160	0.0140649
900.238	0.0138858
900.316	0.0139218
900.394	0.0140031
900.472	0.0139820
900.550	0.0138009
900.628	0.0137881
900.706	0.0137589
900.785	0.0138109
900.863	0.0139882
900.941	0.0140786
901.019	0.0141071
901.097	0.0143945
901.175	0.0143862
901.253	0.0145626
901.331	0.0147052
901.410	0.0149111
901.488	0.0149872
901.566	0.0149940
901.644	0.0151359
901.722	0.0152296
901.800	0.0151632
901.878	0.0152152
901.956	0.0150565
902.035	0.0151221
902.113	0.0151941
902.191	0.0149569
902.269	0.0149441
902.347	0.0149146
902.425	0.0148418
902.503	0.0147971
902.581	0.0144949
902.660	0.0146010
902.738	0.0145287
902.816	0.0143817
902.894	0.0142658
902.972	0.0142638
903.050	0.0144084
903.128	0.0142462
903.206	0.0142369
903.285	0.0141810
903.363	0.0140458
903.441	0.0141737
903.519	0.0141953
903.597	0.0140990
903.675	0.0140119
903.753	0.0143055
903.831	0.0142860
903.910	0.0141344
903.988	0.0143293
904.066	0.0143784
904.144	0.0144953
904.222	0.0142714
904.300	0.0144689
904.378	0.0142914
904.456	0.0142365
904.535	0.0140607
904.613	0.0141257
904.691	0.0141231
904.769	0.0139982
904.847	0.0139400
904.925	0.0141220
905.003	0.0140316
905.081	0.0140529
905.160	0.0140972
905.238	0.0142556
905.316	0.0142159
905.394	0.0144096
905.472	0.0142847
905.550	0.0143356
905.628	0.0143889
905.706	0.0143668
905.785	0.0143684
905.863	0.0145503
905.941	0.0145958
906.019	0.0145343
906.097	0.0143545
906.175	0.0143961
906.253	0.0144048
906.331	0.0144836
906.410	0.0145577
906.488	0.0146137
906.566	0.0144738
906.644	0.0144324
906.722	0.0145407
906.800	0.0145346
906.878	0.0146196
906.956	0.0145629
907.035	0.0145603
907.113	0.0145121
907.191	0.0144724
907.269	0.0144874
907.347	0.0143665
907.425	0.0143404
907.503	0.0143713
907.581	0.0144103
907.660	0.0143789
907.738	0.0144370
907.816	0.0143398
907.894	0.0144630
907.972	0.0144762
908.050	0.0146386
908.128	0.0146862
908.206	0.0146129
908.285	0.0145061
908.363	0.0145989
908.441	0.0146223
908.519	0.0145186
908.597	0.0144792
908.675	0.0145094
908.753	0.0143839
908.831	0.0141296
908.910	0.0142813
908.988	0.0141774
909.066	0.0140023
909.144	0.0141140
909.222	0.0140430
909.300	0.0141245
909.378	0.0142325
909.456	0.0142310
909.535	0.0142547
909.613	0.0143268
909.691	0.0143283
909.769	0.0144532
909.847	0.0143267
909.925	0.0143813
910.003	0.0144753
910.081	0.0143937
910.160	0.0144484
910.238	0.0144172
910.316	0.0144652
910.394	0.0144374
910.472	0.0143224
910.550	0.0142829
910.628	0.0143961
910.706	0.0145119
910.785	0.0144763
910.863	0.0145693
910.941	0.0144907
911.019	0.0146277
911.097	0.0146832
911.175	0.0145840
911.253	0.0145251
911.331	0.0145650
911.410	0.0146136
911.488	0.0143867
911.566	0.0144331
911.644	0.0145174
911.722	0.0143486
911.800	0.0142760
911.878	0.0142823
911.956	0.0141779
912.035	0.0142153
912.113	0.0141670
912.191	0.0141835
912.269	0.0143291
912.347	0.0141966
912.425	0.0143760
912.503	0.0144099
912.581	0.0144749
912.660	0.0144268
912.738	0.0143689
912.816	0.0143507
912.894	0.0144331
912.972	0.0144260
913.050	0.0142891
913.128	0.0143575
913.206	0.0141283
913.285	0.0142028
913.363	0.0141763
913.441	0.0140816
913.519	0.0141372
913.597	0.0141045
913.675	0.0141164
913.753	0.0140804
913.831	0.0139610
913.910	0.0141380
913.988	0.0141352
914.066	0.0140414
914.144	0.0141625
914.222	0.0141113
914.300	0.0141723
914.378	0.0142371
914.456	0.0141540
914.535	0.0142180
914.613	0.0142782
914.691	0.0142210
914.769	0.0143999
914.847	0.0144054
914.925	0.0144198
915.003	0.0143559
915.081	0.0144176
915.160	0.0143857
915.238	0.0143681
915.316	0.0144916
915.394	0.0143761
915.472	0.0143718
915.550	0.0143437
915.628	0.0144163
915.706	0.0145245
915.785	0.0144418
915.863	0.0144562
915.941	0.0145466
916.019	0.0144843
916.097	0.0145351
916.175	0.0145210
916.253	0.0143867
916.331	0.0145045
916.410	0.0145087
916.488	0.0144067
916.566	0.0144846
916.644	0.0145143
916.722	0.0144565
916.800	0.0144236
916.878	0.0145788
916.956	0.0146438
917.035	0.0147163
917.113	0.0145921
917.191	0.0145573
917.269	0.0146470
917.347	0.0145293
917.425	0.0145299
917.503	0.0146931
917.581	0.0145931
917.660	0.0146499
917.738	0.0147031
917.816	0.0144849
917.894	0.0144510
917.972	0.0142671
918.050	0.0142744
918.128	0.0142986
918.206	0.0143797
918.285	0.0141322
918.363	0.0142201
918.441	0.0140578
918.519	0.0139833
918.597	0.0140485
918.675	0.0140036
918.753	0.0140255
918.831	0.0140609
918.910	0.0140002
918.988	0.0142757
919.066	0.0142905
919.144	0.0142458
919.222	0.0142107
919.300	0.0142371
919.378	0.0143035
919.456	0.0141502
919.535	0.0143679
919.613	0.0142303
919.691	0.0142432
919.769	0.0142220
919.847	0.0142116
919.925	0.0141712
920.003	0.0141102
920.081	0.0140953
920.160	0.0141500
920.238	0.0141786
920.316	0.0138759
920.394	0.0141503
920.472	0.0141660
920.550	0.0141265
920.628	0.0140463
920.706	0.0141154
920.785	0.0140591
920.863	0.0141399
920.941	0.0142641
921.019	0.0143602
921.097	0.0143792
921.175	0.0143099
921.253	0.0144800
921.331	0.0144810
921.410	0.0144215
921.488	0.0146222
921.566	0.0146265
921.644	0.0147121
921.722	0.0147189
921.800	0.0146744
921.878	0.0146900
921.956	0.0147036
922.035	0.0147515
922.113	0.0146998
922.191	0.0147421
922.269	0.0147206
922.347	0.0147362
922.425	0.0146137
922.503	0.0145662
922.581	0.0145323
922.660	0.0145419
922.738	0.0144921
922.816	0.0145724
922.894	0.0145620
922.972	0.0144248
923.050	0.0144569
923.128	0.0145553
923.206	0.0145374
923.285	0.0144210
923.363	0.0143845
923.441	0.0142979
923.519	0.0144176
923.597	0.0143526
923.675	0.0141931
923.753	0.0142297
923.831	0.0142892
923.910	0.0141097
923.988	0.0140832
924.066	0.0140704
924.144	0.0141077
924.222	0.0141244
924.300	0.0139889
924.378	0.0140135
924.456	0.0140205
924.535	0.0140765
924.613	0.0139546
924.691	0.0139957
924.769	0.0140398
924.847	0.0141214
924.925	0.0142677
925.003	0.0142869
925.081	0.0142124
925.160	0.0142448
925.238	0.0142964
925.316	0.0143533
925.394	0.0143796
925.472	0.0144569
925.550	0.0143313
925.628	0.0144203
925.706	0.0145675
925.785	0.0145348
925.863	0.0145564
925.941	0.0145207
926.019	0.0143016
926.097	0.0144656
926.175	0.0146431
926.253	0.0145148
926.331	0.0145217
926.410	0.0146003
926.488	0.0145280
926.566	0.0145412
926.644	0.0146420
926.722	0.0145222
926.800	0.0146056
926.878	0.0145616
926.956	0.0145289
927.035	0.0146332
927.113	0.0146831
927.191	0.0147399
927.269	0.0146658
927.347	0.0147610
927.425	0.0147868
927.503	0.0147192
927.581	0.0146507
927.660	0.0146465
927.738	0.0147461
927.816	0.0147521
927.894	0.0147082
927.972	0.0146040
928.050	0.0144633
928.128	0.0144026
928.206	0.0144366
928.285	0.0142548
928.363	0.0141663
928.441	0.0142181
928.519	0.0140820
928.597	0.0139780
928.675	0.0140264
928.753	0.0140953
928.831	0.0140340
928.910	0.0140438
928.988	0.0140730
929.066	0.0139532
929.144	0.0140254
929.222	0.0140123
929.300	0.0141391
929.378	0.0140245
929.456	0.0141150
929.535	0.0141622
929.613	0.0141095
929.691	0.0142131
929.769	0.0142688
929.847	0.0143318
929.925	0.0143088
930.003	0.0142928
930.081	0.0143386
930.160	0.0144093
930.238	0.0144455
930.316	0.0144024
930.394	0.0142454
930.472	0.0143338
930.550	0.0143430
930.628	0.0143917
930.706	0.0144851
930.785	0.0143971
930.863	0.0143831
930.941	0.0144835
931.019	0.0144419
931.097	0.0145555
931.175	0.0144994
931.253	0.0145841
931.331	0.0144897
931.410	0.0144444
931.488	0.0146010
931.566	0.0145718
931.644	0.0144601
931.722	0.0145372
931.800	0.0144775
931.878	0.0145615
931.956	0.0147764
932.035	0.0146886
932.113	0.0145479
932.191	0.0144753
932.269	0.0145148
932.347	0.0146133
932.425	0.0146457
932.503	0.0145162
932.581	0.0144227
932.660	0.0144520
932.738	0.0144388
932.816	0.0145458
932.894	0.0144530
932.972	0.0144179
933.050	0.0142240
933.128	0.0143556
933.206	0.0143730
933.285	0.0144640
933.363	0.0142242
933.441	0.0142464
933.519	0.0143442
933.597	0.0142269
933.675	0.0143363
933.753	0.0144620
933.831	0.0143468
933.910	0.0142905
933.988	0.0143162
934.066	0.0143970
934.144	0.0143371
934.222	0.0144411
934.300	0.0144162
934.378	0.0143746
934.456	0.0144024
934.535	0.0144219
934.613	0.0144534
934.691	0.0143683
934.769	0.0143025
934.847	0.0143291
934.925	0.0143755
935.003	0.0142789
935.081	0.0141809
935.160	0.0142078
935.238	0.0142068
935.316	0.0142001
935.394	0.0140693
935.472	0.0143649
935.550	0.0142255
935.628	0.0142094
935.706	0.0142785
935.785	0.0141817
935.863	0.0142111
935.941	0.0141706
936.019	0.0141797
936.097	0.0141857
936.175	0.0143019
936.253	0.0141515
936.331	0.0142394
936.410	0.0141546
936.488	0.0142442
936.566	0.0142164
936.644	0.0143551
936.722	0.0144704
936.800	0.0145354
936.878	0.0143846
936.956	0.0143053
937.035	0.0144160
937.113	0.0144620
937.191	0.0144583
937.269	0.0144065
937.347	0.0146158
937.425	0.0144068
937.503	0.0145883
937.581	0.0145840
937.660	0.0145710
937.738	0.0147765
937.816	0.0146624
937.894	0.0147089
937.972	0.0147184
938.050	0.0146494
938.128	0.0146959
938.206	0.0148119
938.285	0.0147609
938.363	0.0146725
938.441	0.0146771
938.519	0.0145745
938.597	0.0146162
938.675	0.0146738
938.753	0.0145169
938.831	0.0143752
938.910	0.0144250
938.988	0.0142803
939.066	0.0142636
939.144	0.0141360
939.222	0.0140852
939.300	0.0143069
939.378	0.0143845
939.456	0.0143384
939.535	0.0141958
939.613	0.0142258
939.691	0.0142018
939.769	0.0141929
939.847	0.0141800
939.925	0.0142418
940.003	0.0142097
940.081	0.0141373
940.160	0.0141882
940.238	0.0142220
940.316	0.0141661
940.394	0.0142097
940.472	0.0140970
940.550	0.0142335
940.628	0.0142879
940.706	0.0141311
940.785	0.0143159
940.863	0.0143272
940.941	0.0143883
941.019	0.0142493
941.097	0.0144064
941.175	0.0145894
941.253	0.0145926
941.331	0.0145120
941.410	0.0145374
941.488	0.0145586
941.566	0.0145291
941.644	0.0147764
941.722	0.0146094
941.800	0.0144776
941.878	0.0145916
941.956	0.0144604
942.035	0.0144799
942.113	0.0145171
942.191	0.0144223
942.269	0.0145372
942.347	0.0144733
942.425	0.0143002
942.503	0.0144485
942.581	0.0143707
942.660	0.0143357
942.738	0.0144611
942.816	0.0144081
942.894	0.0142542
942.972	0.0144016
943.050	0.0145071
943.128	0.0143427
943.206	0.0144627
943.285	0.0143503
943.363	0.0142808
943.441	0.0143459
943.519	0.0142862
943.597	0.0143335
943.675	0.0144532
943.753	0.0143258
943.831	0.0141828
943.910	0.0142883
943.988	0.0142009
944.066	0.0142415
944.144	0.0141248
944.222	0.0140267
944.300	0.0142240
944.378	0.0141161
944.456	0.0141624
944.535	0.0142583
944.613	0.0141377
944.691	0.0142802
944.769	0.0141682
944.847	0.0141300
944.925	0.0141157
945.003	0.0142494
945.081	0.0142415
945.160	0.0142281
945.238	0.0142495
945.316	0.0141916
945.394	0.0142651
945.472	0.0143555
945.550	0.0143784
945.628	0.0143542
945.706	0.0143404
945.785	0.0143533
945.863	0.0143701
945.941	0.0143218
946.019	0.0144846
946.097	0.0144674
946.175	0.0145224
946.253	0.0145222
946.331	0.0144984
946.410	0.0143954
946.488	0.0145605
946.566	0.0143494
946.644	0.0144985
946.722	0.0145709
946.800	0.0144798
946.878	0.0143775
946.956	0.0143887
947.035	0.0144308
947.113	0.0143922
947.191	0.0144415
947.269	0.0144521
947.347	0.0143614
947.425	0.0145719
947.503	0.0144820
947.581	0.0144187
947.660	0.0145379
947.738	0.0145239
947.816	0.0144763
947.894	0.0145214
947.972	0.0146700
948.050	0.0146329
948.128	0.0145404
948.206	0.0145573
948.285	0.0145613
948.363	0.0144568
948.441	0.0144003
948.519	0.0144374
948.597	0.0143776
948.675	0.0144323
948.753	0.0144440
948.831	0.0144366
948.910	0.0143849
948.988	0.0142117
949.066	0.0142876
949.144	0.0143365
949.222	0.0142682
949.300	0.0143993
949.378	0.0143057
949.456	0.0143517
949.535	0.0143666
949.613	0.0141959
949.691	0.0143857
949.769	0.0143482
949.847	0.0144099
949.925	0.0142693
950.003	0.0142905
950.081	0.0144185
950.160	0.0143366
950.238	0.0143214
950.316	0.0143279
950.394	0.0142614
950.472	0.0142721
950.550	0.0143224
950.628	0.0143414
950.706	0.0144212
950.785	0.0142630
950.863	0.0142327
950.941	0.0141036
951.019	0.0142189
951.097	0.0142744
951.175	0.0143167
951.253	0.0142073
951.331	0.0143288
951.410	0.0142488
951.488	0.0143374
951.566	0.0144859
951.644	0.0143663
951.722	0.0142977
951.800	0.0143071
951.878	0.0142872
951.956	0.0143525
952.035	0.0143577
952.113	0.0145496
952.191	0.0144270
952.269	0.0145625
952.347	0.0145817
952.425	0.0145841
952.503	0.0145996
952.581	0.0145559
952.660	0.0146146
952.738	0.0146650
952.816	0.0146593
952.894	0.0146744
952.972	0.0148005
953.050	0.0146314
953.128	0.0146156
953.206	0.0146922
953.285	0.0145353
953.363	0.0146803
953.441	0.0146444
953.519	0.0145746
953.597	0.0145444
953.675	0.0144056
953.753	0.0145702
953.831	0.0145423
953.910	0.0145207
953.988	0.0145105
954.066	0.0145349
954.144	0.0145615
954.222	0.0144287
954.300	0.0144282
954.378	0.0143580
954.456	0.0143616
954.535	0.0142461
954.613	0.0141912
954.691	0.0143029
954.769	0.0141970
954.847	0.0141990
954.925	0.0141604
955.003	0.0140857
955.081	0.0142929
955.160	0.0140265
955.238	0.0142346
955.316	0.0141802
955.394	0.0142320
955.472	0.0141320
955.550	0.0140096
955.628	0.0141537
955.706	0.0141132
955.785	0.0141224
955.863	0.0141364
955.941	0.0140932
956.019	0.0140539
956.097	0.0141993
956.175	0.0141743
956.253	0.0140717
956.331	0.0143035
956.410	0.0142162
956.488	0.0142130
956.566	0.0141923
956.644	0.0142547
956.722	0.0143857
956.800	0.0145247
956.878	0.0144010
956.956	0.0143815
957.035	0.0143828
957.113	0.0144844
957.191	0.0145142
957.269	0.0145026
957.347	0.0146003
957.425	0.0145576
957.503	0.0145541
957.581	0.0145958
957.660	0.0145504
957.738	0.0145316
957.816	0.0145160
957.894	0.0145047
957.972	0.0145648
958.050	0.0145921
958.128	0.0146545
958.206	0.0145912
958.285	0.0146243
958.363	0.0146938
958.441	0.0147233
958.519	0.0146466
958.597	0.0145795
958.675	0.0146135
958.753	0.0146805
958.831	0.0146049
958.910	0.0145052
958.988	0.0145770
959.066	0.0145260
959.144	0.0145732
959.222	0.0144527
959.300	0.0143580
959.378	0.0144678
959.456	0.0142583
959.535	0.0143597
959.613	0.0143198
959.691	0.0141539
959.769	0.0142570
959.847	0.0141918
959.925	0.0140611
960.003	0.0142206
960.081	0.0141638
960.160	0.0141319
960.238	0.0140697
960.316	0.0141532
960.394	0.0142973
960.472	0.0142947
960.550	0.0142448
960.628	0.0143189
960.706	0.0143613
960.785	0.0142208
960.863	0.0143758
960.941	0.0142800
961.019	0.0142908
961.097	0.0144562
961.175	0.0144221
961.253	0.0141785
961.331	0.0142806
961.410	0.0143432
961.488	0.0143623
961.566	0.0143806
961.644	0.0143473
961.722	0.0142132
961.800	0.0142484
961.878	0.0143252
961.956	0.0143914
962.035	0.0143665
962.113	0.0142751
962.191	0.0144048
962.269	0.0143947
962.347	0.0143459
962.425	0.0144878
962.503	0.0143745
962.581	0.0142995
962.660	0.0144382
962.738	0.0145878
962.816	0.0144877
962.894	0.0144438
962.972	0.0144216
963.050	0.0144638
963.128	0.0144911
963.206	0.0143761
963.285	0.0143864
963.363	0.0144617
963.441	0.0143719
963.519	0.0144102
963.597	0.0143192
963.675	0.0143228
963.753	0.0143248
963.831	0.0142870
963.910	0.0143542
963.988	0.0142847
964.066	0.0142498
964.144	0.0141302
964.222	0.0143394
964.300	0.0142796
964.378	0.0142914
964.456	0.0144018
964.535	0.0143259
964.613	0.0143512
964.691	0.0144711
964.769	0.0144466
964.847	0.0144148
964.925	0.0143874
965.003	0.0145879
965.081	0.0144389
965.160	0.0144378
965.238	0.0145038
965.316	0.0144527
965.394	0.0145588
965.472	0.0147083
965.550	0.0147240
965.628	0.0146605
965.706	0.0146627
965.785	0.0145600
965.863	0.0146706
965.941	0.0146081
966.019	0.0147408
966.097	0.0146735
966.175	0.0145522
966.253	0.0145000
966.331	0.0144316
966.410	0.0144213
966.488	0.0143835
966.566	0.0144720
966.644	0.0143537
966.722	0.0144037
966.800	0.0144122
966.878	0.0142820
966.956	0.0142648
967.035	0.0143796
967.113	0.0142821
967.191	0.0143596
967.269	0.0144498
967.347	0.0143164
967.425	0.0141282
967.503	0.0141782
967.581	0.0142391
967.660	0.0142213
967.738	0.0142428
967.816	0.0141201
967.894	0.0141223
967.972	0.0141615
968.050	0.0141596
968.128	0.0141335
968.206	0.0139783
968.285	0.0139404
968.363	0.0141444
968.441	0.0142021
968.519	0.0140340
968.597	0.0141216
968.675	0.0141783
968.753	0.0142626
968.831	0.0144265
968.910	0.0143035
968.988	0.0144554
969.066	0.0143275
969.144	0.0144991
969.222	0.0145925
969.300	0.0145410
969.378	0.0145801
969.456	0.0145773
969.535	0.0144642
969.613	0.0146272
969.691	0.0145403
969.769	0.0145908
969.847	0.0147247
969.925	0.0147061
970.003	0.0145387
970.081	0.0146368
970.160	0.0147045
970.238	0.0146545
970.316	0.0145119
970.394	0.0147327
970.472	0.0145449
970.550	0.0146697
970.628	0.0146371
970.706	0.0144591
970.785	0.0146019
970.863	0.0146970
970.941	0.0145638
971.019	0.0146206
971.097	0.0146006
971.175	0.0146578
971.253	0.0145924
971.331	0.0144331
971.410	0.0144781
971.488	0.0145684
971.566	0.0144318
971.644	0.0144098
971.722	0.0144203
971.800	0.0143552
971.878	0.0141978
971.956	0.0144183
972.035	0.0143417
972.113	0.0141676
972.191	0.0141055
972.269	0.0141872
972.347	0.0140469
972.425	0.0140882
972.503	0.0141240
972.581	0.0139463
972.660	0.0139497
972.738	0.0140852
972.816	0.0139967
972.894	0.0138654
972.972	0.0139964
973.050	0.0139236
973.128	0.0140409
973.206	0.0140781
973.285	0.0139751
973.363	0.0141521
973.441	0.0141600
973.519	0.0140522
973.597	0.0140667
973.675	0.0140602
973.753	0.0141769
973.831	0.0142747
973.910	0.0142017
973.988	0.0141597
974.066	0.0142953
974.144	0.0142773
974.222	0.0144315
974.300	0.0144658
974.378	0.0144961
974.456	0.0143417
974.535	0.0143069
974.613	0.0144458
974.691	0.0145249
974.769	0.0146561
974.847	0.0146678
974.925	0.0146407
975.003	0.0146172
975.081	0.0147014
975.160	0.0145450
975.238	0.0146665
975.316	0.0146864
975.394	0.0145456
975.472	0.0146057
975.550	0.0146998
975.628	0.0146003
975.706	0.0144624
975.785	0.0145823
975.863	0.0146736
975.941	0.0145679
976.019	0.0144865
976.097	0.0145226
976.175	0.0143900
976.253	0.0143055
976.331	0.0143697
976.410	0.0144595
976.488	0.0143851
976.566	0.0143394
976.644	0.0142081
976.722	0.0142674
976.800	0.0144048
976.878	0.0143510
976.956	0.0142577
977.035	0.0142101
977.113	0.0143250
977.191	0.0141993
977.269	0.0142976
977.347	0.0142210
977.425	0.0143150
977.503	0.0142927
977.581	0.0141963
977.660	0.0141840
977.738	0.0141414
977.816	0.0143182
977.894	0.0142961
977.972	0.0143789
978.050	0.0142583
978.128	0.0142393
978.206	0.0142746
978.285	0.0141845
978.363	0.0142127
978.441	0.0139993
978.519	0.0141029
978.597	0.0142660
978.675	0.0141273
978.753	0.0141480
978.831	0.0140526
978.910	0.0142100
978.988	0.0142179
979.066	0.0142719
979.144	0.0141880
979.222	0.0143497
979.300	0.0142110
979.378	0.0141109
979.456	0.0142605
979.535	0.0143984
979.613	0.0144247
979.691	0.0144997
979.769	0.0143970
979.847	0.0144386
979.925	0.0145086
