05/03/2022	20:25:22	Ver.	4.1	UNKNOWN
Optical Delay	660.003261	Delta X		0.078125	Sweeps	1	Scan Rate	0/0
Coordinates	Axis 1	NaN	Axis 2	NaN	Axis 3	NaN	Axis 4	NaN	Axis 5	NaN	Axis 6	0.000000
TX Power	0.000000	RX Power	0.000000

660.003	0.0145155
660.081	0.0143404
660.160	0.0144833
660.238	0.0144452
660.316	0.0143966
660.394	0.0145078
660.472	0.0144258
660.550	0.0143895
660.628	0.0144794
660.706	0.0143883
660.785	0.0144425
660.863	0.0144503
660.941	0.0144438
661.019	0.0145377
661.097	0.0145509
661.175	0.0144829
661.253	0.0145363
661.331	0.0143787
661.410	0.0144431
661.488	0.0144421
661.566	0.0144555
661.644	0.0144730
661.722	0.0144558
661.800	0.0144260
661.878	0.0144250
661.956	0.0145467
662.035	0.0144704
662.113	0.0143150
662.191	0.0145045
662.269	0.0143244
662.347	0.0143590
662.425	0.0144968
662.503	0.0144939
662.581	0.0144551
662.660	0.0145110
662.738	0.0144394
662.816	0.0144356
662.894	0.0144601
662.972	0.0144490
663.050	0.0145409
663.128	0.0144379
663.206	0.0144387
663.285	0.0144566
663.363	0.0145416
663.441	0.0145404
663.519	0.0144094
663.597	0.0144716
663.675	0.0144263
663.753	0.0143639
663.831	0.0144395
663.910	0.0144581
663.988	0.0144478
664.066	0.0144093
664.144	0.0143343
664.222	0.0144252
664.300	0.0145472
664.378	0.0144186
664.456	0.0143945
664.535	0.0145993
664.613	0.0144448
664.691	0.0144608
664.769	0.0144083
664.847	0.0145302
664.925	0.0144779
665.003	0.0143574
665.081	0.0145496
665.160	0.0145489
665.238	0.0145672
665.316	0.0146558
665.394	0.0145512
665.472	0.0145401
665.550	0.0144850
665.628	0.0145246
665.706	0.0145770
665.785	0.0145370
665.863	0.0145300
665.941	0.0145185
666.019	0.0144361
666.097	0.0146162
666.175	0.0145279
666.253	0.0144047
666.331	0.0145592
666.410	0.0144950
666.488	0.0144766
666.566	0.0145126
666.644	0.0145842
666.722	0.0144067
666.800	0.0144993
666.878	0.0146353
666.956	0.0146110
667.035	0.0144363
667.113	0.0145387
667.191	0.0145030
667.269	0.0144340
667.347	0.0146281
667.425	0.0145619
667.503	0.0146649
667.581	0.0145628
667.660	0.0145499
667.738	0.0146344
667.816	0.0144978
667.894	0.0144479
667.972	0.0145788
668.050	0.0145329
668.128	0.0146635
668.206	0.0146551
668.285	0.0144492
668.363	0.0144293
668.441	0.0145912
668.519	0.0144451
668.597	0.0144759
668.675	0.0145317
668.753	0.0144135
668.831	0.0146585
668.910	0.0146321
668.988	0.0144273
669.066	0.0144209
669.144	0.0144405
669.222	0.0145448
669.300	0.0144465
669.378	0.0145953
669.456	0.0145650
669.535	0.0143230
669.613	0.0145277
669.691	0.0145511
669.769	0.0144588
669.847	0.0143543
669.925	0.0143130
670.003	0.0145701
670.081	0.0143906
670.160	0.0143890
670.238	0.0145813
670.316	0.0145908
670.394	0.0145331
670.472	0.0144561
670.550	0.0143487
670.628	0.0145592
670.706	0.0144400
670.785	0.0144956
670.863	0.0145090
670.941	0.0145121
671.019	0.0145644
671.097	0.0143844
671.175	0.0146025
671.253	0.0145187
671.331	0.0145045
671.410	0.0144955
671.488	0.0144288
671.566	0.0144299
671.644	0.0144904
671.722	0.0145394
671.800	0.0144144
671.878	0.0144112
671.956	0.0145173
672.035	0.0145850
672.113	0.0144525
672.191	0.0144585
672.269	0.0143990
672.347	0.0144286
672.425	0.0145699
672.503	0.0144694
672.581	0.0145707
672.660	0.0144423
672.738	0.0144544
672.816	0.0144751
672.894	0.0144950
672.972	0.0145454
673.050	0.0143909
673.128	0.0144333
673.206	0.0144135
673.285	0.0143637
673.363	0.0143182
673.441	0.0144418
673.519	0.0144190
673.597	0.0144882
673.675	0.0143866
673.753	0.0144602
673.831	0.0144379
673.910	0.0143189
673.988	0.0143652
674.066	0.0144588
674.144	0.0144828
674.222	0.0144983
674.300	0.0143988
674.378	0.0144579
674.456	0.0145335
674.535	0.0145559
674.613	0.0143615
674.691	0.0145326
674.769	0.0144456
674.847	0.0144569
674.925	0.0142592
675.003	0.0143394
675.081	0.0145046
675.160	0.0144682
675.238	0.0144458
675.316	0.0143778
675.394	0.0143753
675.472	0.0145167
675.550	0.0144746
675.628	0.0144090
675.706	0.0144884
675.785	0.0146880
675.863	0.0144390
675.941	0.0145337
676.019	0.0145600
676.097	0.0145374
676.175	0.0144009
676.253	0.0144037
676.331	0.0146149
676.410	0.0146377
676.488	0.0145250
676.566	0.0145003
676.644	0.0145132
676.722	0.0145942
676.800	0.0143918
676.878	0.0145602
676.956	0.0145344
677.035	0.0144856
677.113	0.0145379
677.191	0.0143916
677.269	0.0145939
677.347	0.0146168
677.425	0.0145660
677.503	0.0145029
677.581	0.0144450
677.660	0.0144770
677.738	0.0146747
677.816	0.0146422
677.894	0.0145255
677.972	0.0145508
678.050	0.0144044
678.128	0.0144888
678.206	0.0144410
678.285	0.0143845
678.363	0.0145107
678.441	0.0144990
678.519	0.0145309
678.597	0.0146073
678.675	0.0145633
678.753	0.0144055
678.831	0.0144564
678.910	0.0146014
678.988	0.0145721
679.066	0.0145602
679.144	0.0145550
679.222	0.0145631
679.300	0.0145613
679.378	0.0146023
679.456	0.0145177
679.535	0.0144473
679.613	0.0145329
679.691	0.0145438
679.769	0.0144099
679.847	0.0146255
679.925	0.0144162
680.003	0.0144592
680.081	0.0145223
680.160	0.0145368
680.238	0.0146519
680.316	0.0145930
680.394	0.0144765
680.472	0.0145348
680.550	0.0144984
680.628	0.0144769
680.706	0.0145187
680.785	0.0144595
680.863	0.0144737
680.941	0.0145409
681.019	0.0144045
681.097	0.0145216
681.175	0.0146000
681.253	0.0144489
681.331	0.0145811
681.410	0.0143566
681.488	0.0143757
681.566	0.0145640
681.644	0.0144642
681.722	0.0144419
681.800	0.0144812
681.878	0.0144996
681.956	0.0143769
682.035	0.0143922
682.113	0.0144728
682.191	0.0145419
682.269	0.0145469
682.347	0.0144106
682.425	0.0144457
682.503	0.0145524
682.581	0.0144882
682.660	0.0144093
682.738	0.0145443
682.816	0.0146252
682.894	0.0144859
682.972	0.0143983
683.050	0.0143230
683.128	0.0145223
683.206	0.0144932
683.285	0.0146014
683.363	0.0143476
683.441	0.0145787
683.519	0.0144891
683.597	0.0143927
683.675	0.0145489
683.753	0.0144763
683.831	0.0143556
683.910	0.0146111
683.988	0.0144744
684.066	0.0144798
684.144	0.0144289
684.222	0.0145085
684.300	0.0146426
684.378	0.0145168
684.456	0.0145195
684.535	0.0144418
684.613	0.0144090
684.691	0.0145236
684.769	0.0144632
684.847	0.0145155
684.925	0.0145274
685.003	0.0145121
685.081	0.0143900
685.160	0.0144611
685.238	0.0144781
685.316	0.0144513
685.394	0.0145298
685.472	0.0144201
685.550	0.0145091
685.628	0.0144942
685.706	0.0144997
685.785	0.0144039
685.863	0.0144135
685.941	0.0144848
686.019	0.0146283
686.097	0.0144923
686.175	0.0145170
686.253	0.0145260
686.331	0.0144827
686.410	0.0146279
686.488	0.0144678
686.566	0.0144250
686.644	0.0144468
686.722	0.0144170
686.800	0.0144541
686.878	0.0145080
686.956	0.0145100
687.035	0.0145327
687.113	0.0144926
687.191	0.0144382
687.269	0.0145213
687.347	0.0145122
687.425	0.0143920
687.503	0.0144707
687.581	0.0143756
687.660	0.0144678
687.738	0.0145457
687.816	0.0143513
687.894	0.0142724
687.972	0.0144134
688.050	0.0145927
688.128	0.0144889
688.206	0.0144302
688.285	0.0145756
688.363	0.0144440
688.441	0.0144283
688.519	0.0144525
688.597	0.0145703
688.675	0.0145225
688.753	0.0143414
688.831	0.0144614
688.910	0.0144768
688.988	0.0145033
689.066	0.0144554
689.144	0.0144144
689.222	0.0144951
689.300	0.0144720
689.378	0.0145426
689.456	0.0144385
689.535	0.0144560
689.613	0.0144649
689.691	0.0144952
689.769	0.0144901
689.847	0.0145859
689.925	0.0144568
690.003	0.0143301
690.081	0.0144727
690.160	0.0144563
690.238	0.0143900
690.316	0.0144862
690.394	0.0144437
690.472	0.0145116
690.550	0.0144041
690.628	0.0145718
690.706	0.0144460
690.785	0.0144788
690.863	0.0145724
690.941	0.0144121
691.019	0.0144556
691.097	0.0145744
691.175	0.0144681
691.253	0.0144605
691.331	0.0145189
691.410	0.0144126
691.488	0.0144955
691.566	0.0144437
691.644	0.0144289
691.722	0.0145272
691.800	0.0146005
691.878	0.0144690
691.956	0.0144143
692.035	0.0145284
692.113	0.0144953
692.191	0.0143759
692.269	0.0144060
692.347	0.0145626
692.425	0.0145655
692.503	0.0143819
692.581	0.0143501
692.660	0.0144582
692.738	0.0145367
692.816	0.0144733
692.894	0.0146291
692.972	0.0146176
693.050	0.0145903
693.128	0.0144277
693.206	0.0146041
693.285	0.0145585
693.363	0.0145354
693.441	0.0146144
693.519	0.0145965
693.597	0.0145997
693.675	0.0144816
693.753	0.0144656
693.831	0.0145132
693.910	0.0143385
693.988	0.0142979
694.066	0.0143654
694.144	0.0143159
694.222	0.0141843
694.300	0.0143065
694.378	0.0143475
694.456	0.0142862
694.535	0.0141985
694.613	0.0142622
694.691	0.0144052
694.769	0.0144771
694.847	0.0145375
694.925	0.0145498
695.003	0.0147429
695.081	0.0146206
695.160	0.0146660
695.238	0.0147881
695.316	0.0149960
695.394	0.0148429
695.472	0.0147864
695.550	0.0148597
695.628	0.0146146
695.706	0.0147410
695.785	0.0146684
695.863	0.0145013
695.941	0.0144398
696.019	0.0141631
696.097	0.0142155
696.175	0.0140463
696.253	0.0139930
696.331	0.0139899
696.410	0.0139993
696.488	0.0138248
696.566	0.0138719
696.644	0.0139146
696.722	0.0140060
696.800	0.0139711
696.878	0.0141397
696.956	0.0140848
697.035	0.0142707
697.113	0.0143382
697.191	0.0145439
697.269	0.0144835
697.347	0.0145441
697.425	0.0146051
697.503	0.0147748
697.581	0.0148978
697.660	0.0148077
697.738	0.0147755
697.816	0.0148827
697.894	0.0149223
697.972	0.0152711
698.050	0.0152821
698.128	0.0152654
698.206	0.0154129
698.285	0.0154455
698.363	0.0155544
698.441	0.0154842
698.519	0.0155894
698.597	0.0152534
698.675	0.0151836
698.753	0.0149033
698.831	0.0148166
698.910	0.0146107
698.988	0.0141428
699.066	0.0139560
699.144	0.0138430
699.222	0.0135860
699.300	0.0135138
699.378	0.0135133
699.456	0.0134305
699.535	0.0131955
699.613	0.0130917
699.691	0.0132487
699.769	0.0132403
699.847	0.0133396
699.925	0.0132944
700.003	0.0134219
700.081	0.0136848
700.160	0.0139368
700.238	0.0140874
700.316	0.0142145
700.394	0.0144093
700.472	0.0144971
700.550	0.0147390
700.628	0.0148261
700.706	0.0147968
700.785	0.0148251
700.863	0.0148885
700.941	0.0148682
701.019	0.0149475
701.097	0.0149934
701.175	0.0149990
701.253	0.0149576
701.331	0.0153039
701.410	0.0153723
701.488	0.0152775
701.566	0.0154439
701.644	0.0155068
701.722	0.0156862
701.800	0.0156420
701.878	0.0159139
701.956	0.0159848
702.035	0.0159409
702.113	0.0160699
702.191	0.0160071
702.269	0.0158942
702.347	0.0157732
702.425	0.0154798
702.503	0.0149260
702.581	0.0144888
702.660	0.0137706
702.738	0.0136445
702.816	0.0131777
702.894	0.0127758
702.972	0.0126527
703.050	0.0125700
703.128	0.0125714
703.206	0.0127623
703.285	0.0128741
703.363	0.0132226
703.441	0.0132954
703.519	0.0134035
703.597	0.0137493
703.675	0.0138084
703.753	0.0138179
703.831	0.0138392
703.910	0.0138226
703.988	0.0139424
704.066	0.0140276
704.144	0.0138423
704.222	0.0140032
704.300	0.0140170
704.378	0.0141212
704.456	0.0142903
704.535	0.0143123
704.613	0.0140745
704.691	0.0143645
704.769	0.0144167
704.847	0.0144153
704.925	0.0145284
705.003	0.0145865
705.081	0.0145531
705.160	0.0147652
705.238	0.0149075
705.316	0.0151710
705.394	0.0152261
705.472	0.0152742
705.550	0.0156043
705.628	0.0158134
705.706	0.0156673
705.785	0.0158030
705.863	0.0160731
705.941	0.0162384
706.019	0.0163865
706.097	0.0165748
706.175	0.0166411
706.253	0.0166182
706.331	0.0166973
706.410	0.0166893
706.488	0.0165111
706.566	0.0164707
706.644	0.0160912
706.722	0.0156383
706.800	0.0152991
706.878	0.0148442
706.956	0.0141501
707.035	0.0136220
707.113	0.0133029
707.191	0.0127164
707.269	0.0125111
707.347	0.0121989
707.425	0.0120695
707.503	0.0118991
707.581	0.0118824
707.660	0.0121704
707.738	0.0122333
707.816	0.0123084
707.894	0.0126058
707.972	0.0127561
708.050	0.0128411
708.128	0.0128970
708.206	0.0130714
708.285	0.0131630
708.363	0.0132470
708.441	0.0134660
708.519	0.0137008
708.597	0.0139585
708.675	0.0142642
708.753	0.0144342
708.831	0.0148221
708.910	0.0150042
708.988	0.0152969
709.066	0.0152335
709.144	0.0153772
709.222	0.0152627
709.300	0.0153198
709.378	0.0151252
709.456	0.0149556
709.535	0.0147070
709.613	0.0146365
709.691	0.0145822
709.769	0.0145798
709.847	0.0144390
709.925	0.0144390
710.003	0.0146413
710.081	0.0149283
710.160	0.0150764
710.238	0.0152459
710.316	0.0155336
710.394	0.0160350
710.472	0.0163002
710.550	0.0166184
710.628	0.0170721
710.706	0.0173019
710.785	0.0173528
710.863	0.0176363
710.941	0.0176687
711.019	0.0174747
711.097	0.0170976
711.175	0.0166732
711.253	0.0160182
711.331	0.0155564
711.410	0.0148578
711.488	0.0144666
711.566	0.0139270
711.644	0.0134035
711.722	0.0129269
711.800	0.0124821
711.878	0.0124428
711.956	0.0122388
712.035	0.0120526
712.113	0.0120942
712.191	0.0119609
712.269	0.0119729
712.347	0.0118491
712.425	0.0120863
712.503	0.0122406
712.581	0.0123385
712.660	0.0123224
712.738	0.0126917
712.816	0.0126854
712.894	0.0128398
712.972	0.0131911
713.050	0.0133492
713.128	0.0133386
713.206	0.0136243
713.285	0.0139907
713.363	0.0140449
713.441	0.0142000
713.519	0.0144152
713.597	0.0146497
713.675	0.0149364
713.753	0.0148553
713.831	0.0149159
713.910	0.0149739
713.988	0.0150362
714.066	0.0148817
714.144	0.0148309
714.222	0.0147533
714.300	0.0147768
714.378	0.0148051
714.456	0.0145863
714.535	0.0147346
714.613	0.0149429
714.691	0.0150594
714.769	0.0151660
714.847	0.0154800
714.925	0.0157283
715.003	0.0161208
715.081	0.0163356
715.160	0.0166174
715.238	0.0168605
715.316	0.0170523
715.394	0.0171873
715.472	0.0171117
715.550	0.0170815
715.628	0.0169492
715.706	0.0167893
715.785	0.0165417
715.863	0.0161684
715.941	0.0159044
716.019	0.0154992
716.097	0.0151062
716.175	0.0148096
716.253	0.0147182
716.331	0.0144905
716.410	0.0140686
716.488	0.0139001
716.566	0.0134868
716.644	0.0132599
716.722	0.0130473
716.800	0.0127190
716.878	0.0126226
716.956	0.0124789
717.035	0.0121353
717.113	0.0119504
717.191	0.0118401
717.269	0.0119373
717.347	0.0120535
717.425	0.0121721
717.503	0.0124097
717.581	0.0125169
717.660	0.0125652
717.738	0.0129560
717.816	0.0132012
717.894	0.0132809
717.972	0.0135487
718.050	0.0137756
718.128	0.0141063
718.206	0.0143141
718.285	0.0144428
718.363	0.0145166
718.441	0.0145035
718.519	0.0144006
718.597	0.0145417
718.675	0.0143761
718.753	0.0143520
718.831	0.0143282
718.910	0.0141528
718.988	0.0142245
719.066	0.0143369
719.144	0.0142786
719.222	0.0143575
719.300	0.0145517
719.378	0.0148516
719.456	0.0150308
719.535	0.0154978
719.613	0.0158352
719.691	0.0159818
719.769	0.0161657
719.847	0.0163162
719.925	0.0166811
720.003	0.0168751
720.081	0.0170412
720.160	0.0170751
720.238	0.0170836
720.316	0.0170388
720.394	0.0167462
720.472	0.0166077
720.550	0.0165885
720.628	0.0162909
720.706	0.0161278
720.785	0.0156867
720.863	0.0154804
720.941	0.0152794
721.019	0.0151089
721.097	0.0148627
721.175	0.0144181
721.253	0.0141635
721.331	0.0140392
721.410	0.0137614
721.488	0.0135394
721.566	0.0132582
721.644	0.0131197
721.722	0.0127346
721.800	0.0127480
721.878	0.0124832
721.956	0.0123170
722.035	0.0122314
722.113	0.0122059
722.191	0.0122487
722.269	0.0122960
722.347	0.0126219
722.425	0.0124977
722.503	0.0128638
722.581	0.0130433
722.660	0.0131326
722.738	0.0133615
722.816	0.0134618
722.894	0.0136549
722.972	0.0137754
723.050	0.0137474
723.128	0.0139169
723.206	0.0137340
723.285	0.0138002
723.363	0.0137561
723.441	0.0137127
723.519	0.0137154
723.597	0.0137953
723.675	0.0138351
723.753	0.0139091
723.831	0.0141526
723.910	0.0141253
723.988	0.0141968
724.066	0.0146253
724.144	0.0148218
724.222	0.0149493
724.300	0.0152054
724.378	0.0154720
724.456	0.0156245
724.535	0.0159503
724.613	0.0161207
724.691	0.0162670
724.769	0.0165121
724.847	0.0166725
724.925	0.0169063
725.003	0.0170268
725.081	0.0167770
725.160	0.0169753
725.238	0.0169939
725.316	0.0169112
725.394	0.0168687
725.472	0.0167507
725.550	0.0164653
725.628	0.0161756
725.706	0.0160245
725.785	0.0157560
725.863	0.0154097
725.941	0.0151950
726.019	0.0148648
726.097	0.0146075
726.175	0.0143359
726.253	0.0140781
726.331	0.0138309
726.410	0.0136470
726.488	0.0135691
726.566	0.0133739
726.644	0.0132459
726.722	0.0130408
726.800	0.0128267
726.878	0.0129099
726.956	0.0127342
727.035	0.0126970
727.113	0.0126812
727.191	0.0127239
727.269	0.0126028
727.347	0.0124616
727.425	0.0124517
727.503	0.0125266
727.581	0.0125629
727.660	0.0126160
727.738	0.0127829
727.816	0.0129335
727.894	0.0130009
727.972	0.0131387
728.050	0.0130920
728.128	0.0133783
728.206	0.0134460
728.285	0.0134949
728.363	0.0136443
728.441	0.0136905
728.519	0.0139808
728.597	0.0140962
728.675	0.0141366
728.753	0.0143427
728.831	0.0142779
728.910	0.0143471
728.988	0.0145959
729.066	0.0148368
729.144	0.0146609
729.222	0.0146697
729.300	0.0151563
729.378	0.0153996
729.456	0.0156214
729.535	0.0158276
729.613	0.0158569
729.691	0.0161574
729.769	0.0163586
729.847	0.0167039
729.925	0.0168246
730.003	0.0167828
730.081	0.0169685
730.160	0.0169156
730.238	0.0169286
730.316	0.0170654
730.394	0.0167745
730.472	0.0165049
730.550	0.0165076
730.628	0.0161478
730.706	0.0160387
730.785	0.0158625
730.863	0.0158308
730.941	0.0155125
731.019	0.0153302
731.097	0.0151054
731.175	0.0150677
731.253	0.0147787
731.331	0.0146508
731.410	0.0144063
731.488	0.0143604
731.566	0.0142538
731.644	0.0140572
731.722	0.0140060
731.800	0.0136848
731.878	0.0134662
731.956	0.0133508
732.035	0.0131438
732.113	0.0129877
732.191	0.0128689
732.269	0.0127617
732.347	0.0125818
732.425	0.0125703
732.503	0.0124410
732.581	0.0124295
732.660	0.0122684
732.738	0.0124088
732.816	0.0123128
732.894	0.0123844
732.972	0.0124014
733.050	0.0124619
733.128	0.0124093
733.206	0.0126099
733.285	0.0127969
733.363	0.0127840
733.441	0.0129559
733.519	0.0133133
733.597	0.0133575
733.675	0.0135468
733.753	0.0136771
733.831	0.0138457
733.910	0.0140177
733.988	0.0141314
734.066	0.0142429
734.144	0.0142299
734.222	0.0144478
734.300	0.0147005
734.378	0.0148875
734.456	0.0149533
734.535	0.0150285
734.613	0.0153379
734.691	0.0156087
734.769	0.0156731
734.847	0.0160287
734.925	0.0160558
735.003	0.0162333
735.081	0.0163362
735.160	0.0164294
735.238	0.0165441
735.316	0.0165880
735.394	0.0166979
735.472	0.0167253
735.550	0.0169444
735.628	0.0168612
735.706	0.0168757
735.785	0.0167423
735.863	0.0167609
735.941	0.0167139
736.019	0.0165758
736.097	0.0165125
736.175	0.0162609
736.253	0.0160108
736.331	0.0161024
736.410	0.0160341
736.488	0.0158559
736.566	0.0156850
736.644	0.0156246
736.722	0.0155206
736.800	0.0154308
736.878	0.0151192
736.956	0.0148813
737.035	0.0145952
737.113	0.0145052
737.191	0.0142129
737.269	0.0139616
737.347	0.0136339
737.425	0.0133485
737.503	0.0129372
737.581	0.0124496
737.660	0.0123151
737.738	0.0120948
737.816	0.0118771
737.894	0.0116691
737.972	0.0115238
738.050	0.0114436
738.128	0.0115563
738.206	0.0114601
738.285	0.0115317
738.363	0.0116269
738.441	0.0117650
738.519	0.0118590
738.597	0.0120487
738.675	0.0122818
738.753	0.0124977
738.831	0.0127866
738.910	0.0128063
738.988	0.0130152
739.066	0.0130881
739.144	0.0130402
739.222	0.0134769
739.300	0.0136285
739.378	0.0136353
739.456	0.0137202
739.535	0.0138588
739.613	0.0140833
739.691	0.0140429
739.769	0.0143124
739.847	0.0143926
739.925	0.0146814
740.003	0.0150633
740.081	0.0150665
740.160	0.0154507
740.238	0.0158028
740.316	0.0159573
740.394	0.0162566
740.472	0.0164565
740.550	0.0167908
740.628	0.0171084
740.706	0.0172928
740.785	0.0172683
740.863	0.0172381
740.941	0.0173946
741.019	0.0174265
741.097	0.0172984
741.175	0.0170757
741.253	0.0170479
741.331	0.0169713
741.410	0.0169852
741.488	0.0168221
741.566	0.0166627
741.644	0.0167465
741.722	0.0167067
741.800	0.0165919
741.878	0.0163863
741.956	0.0161069
742.035	0.0161089
742.113	0.0159861
742.191	0.0158318
742.269	0.0155988
742.347	0.0153595
742.425	0.0149947
742.503	0.0147161
742.581	0.0142532
742.660	0.0139922
742.738	0.0136179
742.816	0.0132675
742.894	0.0131330
742.972	0.0126845
743.050	0.0123560
743.128	0.0121527
743.206	0.0119881
743.285	0.0117502
743.363	0.0116866
743.441	0.0114046
743.519	0.0114552
743.597	0.0115573
743.675	0.0113833
743.753	0.0113312
743.831	0.0115180
743.910	0.0117728
743.988	0.0118993
744.066	0.0118909
744.144	0.0120993
744.222	0.0124686
744.300	0.0127033
744.378	0.0126789
744.456	0.0127554
744.535	0.0129514
744.613	0.0131222
744.691	0.0133089
744.769	0.0133925
744.847	0.0136251
744.925	0.0136149
745.003	0.0137484
745.081	0.0139240
745.160	0.0140321
745.238	0.0142481
745.316	0.0144310
745.394	0.0145268
745.472	0.0148904
745.550	0.0148951
745.628	0.0152399
745.706	0.0151234
745.785	0.0155487
745.863	0.0157694
745.941	0.0157804
746.019	0.0158884
746.097	0.0161588
746.175	0.0164111
746.253	0.0165194
746.331	0.0166847
746.410	0.0167120
746.488	0.0169103
746.566	0.0169922
746.644	0.0170415
746.722	0.0170606
746.800	0.0168634
746.878	0.0168868
746.956	0.0168304
747.035	0.0168266
747.113	0.0167737
747.191	0.0166515
747.269	0.0165673
747.347	0.0164631
747.425	0.0162741
747.503	0.0160828
747.581	0.0160350
747.660	0.0158560
747.738	0.0156570
747.816	0.0153945
747.894	0.0152200
747.972	0.0149512
748.050	0.0148428
748.128	0.0145696
748.206	0.0144249
748.285	0.0142085
748.363	0.0140697
748.441	0.0139055
748.519	0.0136320
748.597	0.0134292
748.675	0.0131110
748.753	0.0129970
748.831	0.0129284
748.910	0.0126485
748.988	0.0126228
749.066	0.0125143
749.144	0.0123731
749.222	0.0124464
749.300	0.0122266
749.378	0.0121977
749.456	0.0123093
749.535	0.0124310
749.613	0.0123817
749.691	0.0123524
749.769	0.0123231
749.847	0.0123022
749.925	0.0122842
750.003	0.0123759
750.081	0.0123563
750.160	0.0125574
750.238	0.0126346
750.316	0.0125900
750.394	0.0127747
750.472	0.0128648
750.550	0.0128932
750.628	0.0130448
750.706	0.0130957
750.785	0.0134151
750.863	0.0137609
750.941	0.0138354
751.019	0.0142160
751.097	0.0143826
751.175	0.0147340
751.253	0.0147443
751.331	0.0149912
751.410	0.0152453
751.488	0.0155525
751.566	0.0157250
751.644	0.0157271
751.722	0.0161272
751.800	0.0162409
751.878	0.0162778
751.956	0.0164365
752.035	0.0165263
752.113	0.0165963
752.191	0.0167802
752.269	0.0167215
752.347	0.0167465
752.425	0.0167348
752.503	0.0168764
752.581	0.0167838
752.660	0.0166534
752.738	0.0165855
752.816	0.0166218
752.894	0.0165557
752.972	0.0162672
753.050	0.0162231
753.128	0.0160732
753.206	0.0160049
753.285	0.0159398
753.363	0.0159351
753.441	0.0156429
753.519	0.0154574
753.597	0.0152972
753.675	0.0151689
753.753	0.0149461
753.831	0.0148956
753.910	0.0146897
753.988	0.0144589
754.066	0.0141728
754.144	0.0141205
754.222	0.0141534
754.300	0.0139476
754.378	0.0139478
754.456	0.0138717
754.535	0.0135546
754.613	0.0135283
754.691	0.0133128
754.769	0.0131699
754.847	0.0130266
754.925	0.0128246
755.003	0.0127758
755.081	0.0126102
755.160	0.0124666
755.238	0.0123801
755.316	0.0122877
755.394	0.0122961
755.472	0.0123528
755.550	0.0122753
755.628	0.0123515
755.706	0.0124114
755.785	0.0123612
755.863	0.0125633
755.941	0.0126330
756.019	0.0128804
756.097	0.0130347
756.175	0.0131324
756.253	0.0130992
756.331	0.0132883
756.410	0.0135725
756.488	0.0136406
756.566	0.0136255
756.644	0.0139460
756.722	0.0141101
756.800	0.0143140
756.878	0.0145737
756.956	0.0145375
757.035	0.0148670
757.113	0.0150230
757.191	0.0151544
757.269	0.0152219
757.347	0.0154722
757.425	0.0154716
757.503	0.0155716
757.581	0.0155672
757.660	0.0157434
757.738	0.0157200
757.816	0.0158523
757.894	0.0158231
757.972	0.0158917
758.050	0.0161395
758.128	0.0160049
758.206	0.0160101
758.285	0.0161743
758.363	0.0162214
758.441	0.0161104
758.519	0.0160677
758.597	0.0161869
758.675	0.0161698
758.753	0.0159875
758.831	0.0159211
758.910	0.0161306
758.988	0.0158427
759.066	0.0158580
759.144	0.0159013
759.222	0.0156812
759.300	0.0156196
759.378	0.0155409
759.456	0.0154311
759.535	0.0152940
759.613	0.0151041
759.691	0.0149351
759.769	0.0148976
759.847	0.0146535
759.925	0.0145410
760.003	0.0144962
760.081	0.0142915
760.160	0.0143167
760.238	0.0142345
760.316	0.0140330
760.394	0.0138788
760.472	0.0137968
760.550	0.0137459
760.628	0.0136197
760.706	0.0136166
760.785	0.0134051
760.863	0.0132715
760.941	0.0130184
761.019	0.0129820
761.097	0.0129507
761.175	0.0127072
761.253	0.0126218
761.331	0.0127557
761.410	0.0127093
761.488	0.0127283
761.566	0.0126285
761.644	0.0128181
761.722	0.0127427
761.800	0.0129578
761.878	0.0130108
761.956	0.0131372
762.035	0.0133360
762.113	0.0133961
762.191	0.0136413
762.269	0.0136274
762.347	0.0138196
762.425	0.0139751
762.503	0.0140209
762.581	0.0142701
762.660	0.0143143
762.738	0.0143136
762.816	0.0144702
762.894	0.0145205
762.972	0.0145764
763.050	0.0145826
763.128	0.0148349
763.206	0.0148685
763.285	0.0148940
763.363	0.0149445
763.441	0.0150599
763.519	0.0151842
763.597	0.0153204
763.675	0.0154738
763.753	0.0155328
763.831	0.0154337
763.910	0.0156132
763.988	0.0155803
764.066	0.0156925
764.144	0.0157601
764.222	0.0157407
764.300	0.0157758
764.378	0.0159655
764.456	0.0159470
764.535	0.0158933
764.613	0.0158784
764.691	0.0159063
764.769	0.0159447
764.847	0.0157915
764.925	0.0157176
765.003	0.0155525
765.081	0.0154769
765.160	0.0154263
765.238	0.0153426
765.316	0.0151364
765.394	0.0150263
765.472	0.0149712
765.550	0.0147236
765.628	0.0145853
765.706	0.0144393
765.785	0.0144660
765.863	0.0142720
765.941	0.0142622
766.019	0.0143449
766.097	0.0143210
766.175	0.0141626
766.253	0.0141147
766.331	0.0141177
766.410	0.0141721
766.488	0.0140020
766.566	0.0138515
766.644	0.0139248
766.722	0.0136829
766.800	0.0136409
766.878	0.0135990
766.956	0.0134749
767.035	0.0132845
767.113	0.0132597
767.191	0.0132625
767.269	0.0133020
767.347	0.0130250
767.425	0.0131001
767.503	0.0130467
767.581	0.0129472
767.660	0.0130403
767.738	0.0131821
767.816	0.0131086
767.894	0.0131992
767.972	0.0133878
768.050	0.0134380
768.128	0.0134899
768.206	0.0137003
768.285	0.0139093
768.363	0.0140481
768.441	0.0142705
768.519	0.0144386
768.597	0.0145432
768.675	0.0145747
768.753	0.0146519
768.831	0.0147334
768.910	0.0147881
768.988	0.0147473
769.066	0.0149637
769.144	0.0148511
769.222	0.0149269
769.300	0.0149866
769.378	0.0150957
769.456	0.0151181
769.535	0.0152393
769.613	0.0152997
769.691	0.0153788
769.769	0.0156065
769.847	0.0155740
769.925	0.0157053
770.003	0.0155910
770.081	0.0158650
770.160	0.0159029
770.238	0.0158515
770.316	0.0158587
770.394	0.0158067
770.472	0.0158227
770.550	0.0157974
770.628	0.0155991
770.706	0.0155076
770.785	0.0153323
770.863	0.0152637
770.941	0.0152052
771.019	0.0150143
771.097	0.0149575
771.175	0.0148987
771.253	0.0145536
771.331	0.0145765
771.410	0.0144246
771.488	0.0144472
771.566	0.0143682
771.644	0.0142775
771.722	0.0143583
771.800	0.0142439
771.878	0.0141422
771.956	0.0142983
772.035	0.0141349
772.113	0.0141362
772.191	0.0142874
772.269	0.0142970
772.347	0.0142405
772.425	0.0143148
772.503	0.0141961
772.581	0.0142371
772.660	0.0141807
772.738	0.0141038
772.816	0.0139662
772.894	0.0139238
772.972	0.0138155
773.050	0.0137791
773.128	0.0135013
773.206	0.0134686
773.285	0.0133324
773.363	0.0132591
773.441	0.0134350
773.519	0.0134132
773.597	0.0133860
773.675	0.0133517
773.753	0.0134776
773.831	0.0135905
773.910	0.0135798
773.988	0.0136242
774.066	0.0136033
774.144	0.0138072
774.222	0.0138310
774.300	0.0137947
774.378	0.0138326
774.456	0.0141214
774.535	0.0142184
774.613	0.0140961
774.691	0.0142361
774.769	0.0143550
774.847	0.0144313
774.925	0.0145783
775.003	0.0145527
775.081	0.0146165
775.160	0.0145662
775.238	0.0146040
775.316	0.0145796
775.394	0.0146250
775.472	0.0147295
775.550	0.0150312
775.628	0.0149259
775.706	0.0149993
775.785	0.0150595
775.863	0.0150247
775.941	0.0151260
776.019	0.0151913
776.097	0.0151256
776.175	0.0153841
776.253	0.0155195
776.331	0.0153570
776.410	0.0153788
776.488	0.0154053
776.566	0.0154464
776.644	0.0154223
776.722	0.0153950
776.800	0.0152970
776.878	0.0152705
776.956	0.0153495
777.035	0.0152305
777.113	0.0151218
777.191	0.0149887
777.269	0.0150196
777.347	0.0150119
777.425	0.0150857
777.503	0.0149689
777.581	0.0150861
777.660	0.0150977
777.738	0.0148550
777.816	0.0147769
777.894	0.0148772
777.972	0.0148447
778.050	0.0146638
778.128	0.0146381
778.206	0.0144611
778.285	0.0142615
778.363	0.0142444
778.441	0.0142815
778.519	0.0141489
778.597	0.0141348
778.675	0.0139082
778.753	0.0139143
778.831	0.0139080
778.910	0.0138161
778.988	0.0138142
779.066	0.0136186
779.144	0.0136001
779.222	0.0136209
779.300	0.0136875
779.378	0.0135201
779.456	0.0136164
779.535	0.0135709
779.613	0.0134462
779.691	0.0135648
779.769	0.0136834
779.847	0.0137871
779.925	0.0138571
780.003	0.0137131
780.081	0.0136400
780.160	0.0137697
780.238	0.0138223
780.316	0.0138847
780.394	0.0139749
780.472	0.0139182
780.550	0.0140452
780.628	0.0140788
780.706	0.0140598
780.785	0.0140795
780.863	0.0143026
780.941	0.0143870
781.019	0.0143977
781.097	0.0143926
781.175	0.0146935
781.253	0.0147279
781.331	0.0146150
781.410	0.0145455
781.488	0.0148518
781.566	0.0148505
781.644	0.0148706
781.722	0.0149599
781.800	0.0150327
781.878	0.0150332
781.956	0.0149414
782.035	0.0152501
782.113	0.0151897
782.191	0.0152303
782.269	0.0152527
782.347	0.0153180
782.425	0.0151318
782.503	0.0152560
782.581	0.0152857
782.660	0.0152415
782.738	0.0152221
782.816	0.0151836
782.894	0.0151401
782.972	0.0151180
783.050	0.0151845
783.128	0.0152041
783.206	0.0151114
783.285	0.0149313
783.363	0.0149004
783.441	0.0147678
783.519	0.0147149
783.597	0.0147454
783.675	0.0146323
783.753	0.0144109
783.831	0.0144032
783.910	0.0143797
783.988	0.0143438
784.066	0.0143590
784.144	0.0143034
784.222	0.0141627
784.300	0.0142216
784.378	0.0142717
784.456	0.0142355
784.535	0.0141506
784.613	0.0140831
784.691	0.0141558
784.769	0.0141079
784.847	0.0141964
784.925	0.0142265
785.003	0.0141662
785.081	0.0142120
785.160	0.0141245
785.238	0.0141528
785.316	0.0141927
785.394	0.0141324
785.472	0.0141823
785.550	0.0140569
785.628	0.0140717
785.706	0.0140541
785.785	0.0139764
785.863	0.0138525
785.941	0.0137964
786.019	0.0138055
786.097	0.0138763
786.175	0.0139300
786.253	0.0138624
786.331	0.0139786
786.410	0.0139443
786.488	0.0139143
786.566	0.0139918
786.644	0.0139854
786.722	0.0140916
786.800	0.0140135
786.878	0.0139166
786.956	0.0141426
787.035	0.0143450
787.113	0.0142555
787.191	0.0144698
787.269	0.0144288
787.347	0.0143581
787.425	0.0144471
787.503	0.0146708
787.581	0.0146858
787.660	0.0146428
787.738	0.0147477
787.816	0.0148222
787.894	0.0146690
787.972	0.0147095
788.050	0.0148920
788.128	0.0148250
788.206	0.0148065
788.285	0.0148597
788.363	0.0148479
788.441	0.0148438
788.519	0.0149441
788.597	0.0149784
788.675	0.0148884
788.753	0.0147775
788.831	0.0148104
788.910	0.0148966
788.988	0.0147995
789.066	0.0148798
789.144	0.0149930
789.222	0.0149321
789.300	0.0148893
789.378	0.0149274
789.456	0.0150266
789.535	0.0150295
789.613	0.0148779
789.691	0.0148386
789.769	0.0149957
789.847	0.0148379
789.925	0.0148801
790.003	0.0148658
790.081	0.0146569
790.160	0.0147214
790.238	0.0147245
790.316	0.0146802
790.394	0.0145581
790.472	0.0144244
790.550	0.0144703
790.628	0.0146205
790.706	0.0145504
790.785	0.0144385
790.863	0.0144746
790.941	0.0144041
791.019	0.0144512
791.097	0.0144056
791.175	0.0142949
791.253	0.0142846
791.331	0.0142711
791.410	0.0142622
791.488	0.0143592
791.566	0.0143314
791.644	0.0142277
791.722	0.0142061
791.800	0.0140691
791.878	0.0140975
791.956	0.0141605
792.035	0.0140610
792.113	0.0139768
792.191	0.0139639
792.269	0.0139374
792.347	0.0141190
792.425	0.0140083
792.503	0.0138599
792.581	0.0139513
792.660	0.0139254
792.738	0.0139732
792.816	0.0139249
792.894	0.0140132
792.972	0.0140611
793.050	0.0141331
793.128	0.0142028
793.206	0.0144588
793.285	0.0143012
793.363	0.0143389
793.441	0.0144688
793.519	0.0144069
793.597	0.0145852
793.675	0.0144321
793.753	0.0144791
793.831	0.0146564
793.910	0.0146331
793.988	0.0146039
794.066	0.0146577
794.144	0.0146671
794.222	0.0146658
794.300	0.0146476
794.378	0.0145297
794.456	0.0144334
794.535	0.0146342
794.613	0.0146788
794.691	0.0145816
794.769	0.0145295
794.847	0.0144507
794.925	0.0146796
795.003	0.0145335
795.081	0.0145698
795.160	0.0145621
795.238	0.0145354
795.316	0.0144866
795.394	0.0145025
795.472	0.0145147
795.550	0.0145863
795.628	0.0146452
795.706	0.0144976
795.785	0.0146240
795.863	0.0145276
795.941	0.0145181
796.019	0.0145787
796.097	0.0145965
796.175	0.0146461
796.253	0.0147222
796.331	0.0145415
796.410	0.0146346
796.488	0.0145975
796.566	0.0145403
796.644	0.0146329
796.722	0.0147324
796.800	0.0147876
796.878	0.0146686
796.956	0.0146825
797.035	0.0146099
797.113	0.0146248
797.191	0.0145675
797.269	0.0144226
797.347	0.0146485
797.425	0.0145231
797.503	0.0144930
797.581	0.0145293
797.660	0.0145016
797.738	0.0144279
797.816	0.0144869
797.894	0.0144261
797.972	0.0144760
798.050	0.0144829
798.128	0.0143034
798.206	0.0142707
798.285	0.0142271
798.363	0.0143176
798.441	0.0143906
798.519	0.0142592
798.597	0.0141016
798.675	0.0142281
798.753	0.0141369
798.831	0.0141422
798.910	0.0139626
798.988	0.0140504
799.066	0.0139814
799.144	0.0141589
799.222	0.0143004
799.300	0.0141965
799.378	0.0141850
799.456	0.0142314
799.535	0.0141870
799.613	0.0141610
799.691	0.0143183
799.769	0.0142924
799.847	0.0142547
799.925	0.0143797
800.003	0.0143231
800.081	0.0142712
800.160	0.0143723
800.238	0.0143789
800.316	0.0143263
800.394	0.0143421
800.472	0.0143194
800.550	0.0143945
800.628	0.0142623
800.706	0.0143291
800.785	0.0144120
800.863	0.0143040
800.941	0.0143384
801.019	0.0145292
801.097	0.0145632
801.175	0.0145227
801.253	0.0147626
801.331	0.0146607
801.410	0.0146152
801.488	0.0147747
801.566	0.0147401
801.644	0.0147865
801.722	0.0149067
801.800	0.0149563
801.878	0.0148816
801.956	0.0148608
802.035	0.0147942
802.113	0.0149055
802.191	0.0149712
802.269	0.0148732
802.347	0.0150144
802.425	0.0149319
802.503	0.0148902
802.581	0.0148036
802.660	0.0148370
802.738	0.0145898
802.816	0.0148599
802.894	0.0147928
802.972	0.0145999
803.050	0.0145402
803.128	0.0144154
803.206	0.0145058
803.285	0.0143566
803.363	0.0141686
803.441	0.0143258
803.519	0.0143502
803.597	0.0142164
803.675	0.0143253
803.753	0.0140565
803.831	0.0141970
803.910	0.0142513
803.988	0.0142319
804.066	0.0142574
804.144	0.0143384
804.222	0.0142442
804.300	0.0143437
804.378	0.0145317
804.456	0.0144659
804.535	0.0144323
804.613	0.0144562
804.691	0.0145143
804.769	0.0145818
804.847	0.0144901
804.925	0.0144381
805.003	0.0145312
805.081	0.0143102
805.160	0.0143115
805.238	0.0143740
805.316	0.0143050
805.394	0.0142748
805.472	0.0141684
805.550	0.0143352
805.628	0.0142464
805.706	0.0143757
805.785	0.0144174
805.863	0.0142516
805.941	0.0144775
806.019	0.0144640
806.097	0.0144659
806.175	0.0146930
806.253	0.0147346
806.331	0.0147510
806.410	0.0149731
806.488	0.0148819
806.566	0.0149330
806.644	0.0149699
806.722	0.0149653
806.800	0.0149181
806.878	0.0148613
806.956	0.0150429
807.035	0.0147474
807.113	0.0146225
807.191	0.0145319
807.269	0.0145600
807.347	0.0145093
807.425	0.0143568
807.503	0.0143424
807.581	0.0142009
807.660	0.0143849
807.738	0.0142326
807.816	0.0142046
807.894	0.0141671
807.972	0.0140884
808.050	0.0139810
808.128	0.0141061
808.206	0.0140610
808.285	0.0143143
808.363	0.0142629
808.441	0.0141462
808.519	0.0143657
808.597	0.0142294
808.675	0.0141949
808.753	0.0142844
808.831	0.0143383
808.910	0.0145088
808.988	0.0144190
809.066	0.0144823
809.144	0.0144183
809.222	0.0146301
809.300	0.0145200
809.378	0.0146667
809.456	0.0146944
809.535	0.0145805
809.613	0.0146736
809.691	0.0144940
809.769	0.0145513
809.847	0.0145798
809.925	0.0145499
810.003	0.0145258
810.081	0.0145499
810.160	0.0145152
810.238	0.0145138
810.316	0.0146029
810.394	0.0145797
810.472	0.0146006
810.550	0.0145885
810.628	0.0146411
810.706	0.0147500
810.785	0.0148084
810.863	0.0146114
810.941	0.0148891
811.019	0.0149208
811.097	0.0149308
811.175	0.0149699
811.253	0.0149810
811.331	0.0150182
811.410	0.0149518
811.488	0.0148474
811.566	0.0147794
811.644	0.0149044
811.722	0.0147987
811.800	0.0148595
811.878	0.0146564
811.956	0.0145731
812.035	0.0146848
812.113	0.0145789
812.191	0.0144364
812.269	0.0144670
812.347	0.0140928
812.425	0.0142018
812.503	0.0141553
812.581	0.0140959
812.660	0.0141665
812.738	0.0139767
812.816	0.0140390
812.894	0.0139584
812.972	0.0140096
813.050	0.0138892
813.128	0.0139397
813.206	0.0139552
813.285	0.0139494
813.363	0.0139673
813.441	0.0140359
813.519	0.0140839
813.597	0.0141371
813.675	0.0141852
813.753	0.0142058
813.831	0.0141734
813.910	0.0142206
813.988	0.0144399
814.066	0.0145204
814.144	0.0143687
814.222	0.0145161
814.300	0.0146118
814.378	0.0145113
814.456	0.0145560
814.535	0.0146068
814.613	0.0146925
814.691	0.0147408
814.769	0.0145834
814.847	0.0147345
814.925	0.0146365
815.003	0.0145525
815.081	0.0146622
815.160	0.0145264
815.238	0.0147145
815.316	0.0147337
815.394	0.0147207
815.472	0.0147259
815.550	0.0146446
815.628	0.0145862
815.706	0.0149142
815.785	0.0147905
815.863	0.0146799
815.941	0.0147336
816.019	0.0146230
816.097	0.0148637
816.175	0.0148660
816.253	0.0148265
816.331	0.0147781
816.410	0.0148554
816.488	0.0149799
816.566	0.0147826
816.644	0.0148656
816.722	0.0147854
816.800	0.0147653
816.878	0.0147174
816.956	0.0147001
817.035	0.0145609
817.113	0.0144487
817.191	0.0144006
817.269	0.0142500
817.347	0.0143201
817.425	0.0141202
817.503	0.0141917
817.581	0.0142070
817.660	0.0140094
817.738	0.0139454
817.816	0.0140328
817.894	0.0138490
817.972	0.0139855
818.050	0.0140160
818.128	0.0140424
818.206	0.0139176
818.285	0.0140488
818.363	0.0140286
818.441	0.0139764
818.519	0.0140237
818.597	0.0140659
818.675	0.0141473
818.753	0.0140515
818.831	0.0139454
818.910	0.0141164
818.988	0.0140538
819.066	0.0140292
819.144	0.0141033
819.222	0.0141679
819.300	0.0141823
819.378	0.0143251
819.456	0.0142468
819.535	0.0143214
819.613	0.0143649
819.691	0.0145160
819.769	0.0144328
819.847	0.0142950
819.925	0.0144279
820.003	0.0144642
820.081	0.0144323
820.160	0.0144035
820.238	0.0143467
820.316	0.0144679
820.394	0.0144871
820.472	0.0144412
820.550	0.0145222
820.628	0.0146233
820.706	0.0145737
820.785	0.0146674
820.863	0.0146503
820.941	0.0147028
821.019	0.0148587
821.097	0.0148994
821.175	0.0148907
821.253	0.0149244
821.331	0.0149729
821.410	0.0150976
821.488	0.0149468
821.566	0.0150269
821.644	0.0149622
821.722	0.0148205
821.800	0.0149951
821.878	0.0147641
821.956	0.0147464
822.035	0.0146850
822.113	0.0145351
822.191	0.0147346
822.269	0.0144937
822.347	0.0144740
822.425	0.0143002
822.503	0.0144170
822.581	0.0143632
822.660	0.0141925
822.738	0.0142209
822.816	0.0142750
822.894	0.0142807
822.972	0.0141872
823.050	0.0141444
823.128	0.0140559
823.206	0.0142780
823.285	0.0143178
823.363	0.0141985
823.441	0.0143111
823.519	0.0143014
823.597	0.0142421
823.675	0.0142826
823.753	0.0143063
823.831	0.0144283
823.910	0.0144809
823.988	0.0144978
824.066	0.0145261
824.144	0.0145258
824.222	0.0144506
824.300	0.0145329
824.378	0.0144426
824.456	0.0143562
824.535	0.0143781
824.613	0.0143355
824.691	0.0143848
824.769	0.0142358
824.847	0.0142157
824.925	0.0141896
825.003	0.0143446
825.081	0.0142863
825.160	0.0140865
825.238	0.0141415
825.316	0.0140692
825.394	0.0141130
825.472	0.0141293
825.550	0.0140991
825.628	0.0140469
825.706	0.0143360
825.785	0.0142312
825.863	0.0143689
825.941	0.0143642
826.019	0.0144375
826.097	0.0144527
826.175	0.0143876
826.253	0.0144391
826.331	0.0146006
826.410	0.0146029
826.488	0.0147514
826.566	0.0146704
826.644	0.0146092
826.722	0.0146674
826.800	0.0147913
826.878	0.0147365
826.956	0.0147577
827.035	0.0148681
827.113	0.0149342
827.191	0.0149744
827.269	0.0147967
827.347	0.0150248
827.425	0.0149788
827.503	0.0148741
827.581	0.0148386
827.660	0.0148962
827.738	0.0149066
827.816	0.0148705
827.894	0.0147852
827.972	0.0147789
828.050	0.0149051
828.128	0.0148600
828.206	0.0148410
828.285	0.0149125
828.363	0.0146956
828.441	0.0146835
828.519	0.0147332
828.597	0.0147592
828.675	0.0146857
828.753	0.0146204
828.831	0.0145011
828.910	0.0144619
828.988	0.0145988
829.066	0.0146221
829.144	0.0143433
829.222	0.0142883
829.300	0.0144327
829.378	0.0143889
829.456	0.0142854
829.535	0.0142410
829.613	0.0141490
829.691	0.0141554
829.769	0.0142789
829.847	0.0142656
829.925	0.0141578
830.003	0.0141486
830.081	0.0141451
830.160	0.0141000
830.238	0.0140382
830.316	0.0140169
830.394	0.0141711
830.472	0.0141687
830.550	0.0141958
830.628	0.0141868
830.706	0.0141067
830.785	0.0141150
830.863	0.0141340
830.941	0.0143114
831.019	0.0141417
831.097	0.0141409
831.175	0.0142944
831.253	0.0142429
831.331	0.0143132
831.410	0.0142908
831.488	0.0143811
831.566	0.0143516
831.644	0.0145154
831.722	0.0144157
831.800	0.0143799
831.878	0.0145066
831.956	0.0145021
832.035	0.0145639
832.113	0.0146091
832.191	0.0145109
832.269	0.0146219
832.347	0.0145940
832.425	0.0148448
832.503	0.0148750
832.581	0.0147469
832.660	0.0147530
832.738	0.0148490
832.816	0.0147762
832.894	0.0148012
832.972	0.0147066
833.050	0.0148754
833.128	0.0149402
833.206	0.0148402
833.285	0.0148422
833.363	0.0148159
833.441	0.0147112
833.519	0.0146598
833.597	0.0149968
833.675	0.0147636
833.753	0.0146602
833.831	0.0148121
833.910	0.0146250
833.988	0.0146544
834.066	0.0147070
834.144	0.0145378
834.222	0.0145412
834.300	0.0143881
834.378	0.0143607
834.456	0.0144453
834.535	0.0144836
834.613	0.0144254
834.691	0.0144171
834.769	0.0143789
834.847	0.0142633
834.925	0.0142102
835.003	0.0142390
835.081	0.0142188
835.160	0.0142094
835.238	0.0140835
835.316	0.0140693
835.394	0.0141959
835.472	0.0142577
835.550	0.0139500
835.628	0.0140176
835.706	0.0141899
835.785	0.0141570
835.863	0.0140755
835.941	0.0142039
836.019	0.0142707
836.097	0.0142464
836.175	0.0142982
836.253	0.0144110
836.331	0.0143710
836.410	0.0143538
836.488	0.0144306
836.566	0.0143121
836.644	0.0143553
836.722	0.0144107
836.800	0.0143880
836.878	0.0143906
836.956	0.0143600
837.035	0.0143942
837.113	0.0141708
837.191	0.0143323
837.269	0.0144453
837.347	0.0144090
837.425	0.0144763
837.503	0.0143359
837.581	0.0144514
837.660	0.0144157
837.738	0.0144221
837.816	0.0144934
837.894	0.0144247
837.972	0.0146190
838.050	0.0143978
838.128	0.0144838
838.206	0.0146015
838.285	0.0147186
838.363	0.0146341
838.441	0.0145975
838.519	0.0146858
838.597	0.0149552
838.675	0.0146967
838.753	0.0147177
838.831	0.0148232
838.910	0.0148442
838.988	0.0149026
839.066	0.0147897
839.144	0.0149208
839.222	0.0149445
839.300	0.0146821
839.378	0.0147871
839.456	0.0147139
839.535	0.0146333
839.613	0.0147020
839.691	0.0146873
839.769	0.0145777
839.847	0.0146072
839.925	0.0144852
840.003	0.0144086
840.081	0.0144470
840.160	0.0144208
840.238	0.0144173
840.316	0.0141051
840.394	0.0142286
840.472	0.0142535
840.550	0.0140768
840.628	0.0140956
840.706	0.0140779
840.785	0.0140511
840.863	0.0139088
840.941	0.0141052
841.019	0.0141162
841.097	0.0139771
841.175	0.0140302
841.253	0.0141609
841.331	0.0141776
841.410	0.0141439
841.488	0.0141013
841.566	0.0141695
841.644	0.0141247
841.722	0.0141281
841.800	0.0142088
841.878	0.0142026
841.956	0.0142046
842.035	0.0142018
842.113	0.0143513
842.191	0.0144434
842.269	0.0144254
842.347	0.0144450
842.425	0.0144806
842.503	0.0145515
842.581	0.0145675
842.660	0.0145760
842.738	0.0145515
842.816	0.0145908
842.894	0.0145407
842.972	0.0145963
843.050	0.0146406
843.128	0.0146346
843.206	0.0146417
843.285	0.0146075
843.363	0.0146259
843.441	0.0146716
843.519	0.0147247
843.597	0.0146718
843.675	0.0148141
843.753	0.0147643
843.831	0.0146726
843.910	0.0147192
843.988	0.0147123
844.066	0.0147482
844.144	0.0147145
844.222	0.0147495
844.300	0.0147536
844.378	0.0148009
844.456	0.0146613
844.535	0.0147432
844.613	0.0147141
844.691	0.0147194
844.769	0.0146711
844.847	0.0146306
844.925	0.0147521
845.003	0.0145876
845.081	0.0146043
845.160	0.0145959
845.238	0.0146265
845.316	0.0146349
845.394	0.0145679
845.472	0.0145111
845.550	0.0144731
845.628	0.0144397
845.706	0.0144621
845.785	0.0143642
845.863	0.0143774
845.941	0.0142210
846.019	0.0142921
846.097	0.0142292
846.175	0.0143503
846.253	0.0142484
846.331	0.0141396
846.410	0.0142324
846.488	0.0141093
846.566	0.0141283
846.644	0.0142087
846.722	0.0142748
846.800	0.0141418
846.878	0.0141013
846.956	0.0141948
847.035	0.0141785
847.113	0.0144074
847.191	0.0143738
847.269	0.0142845
847.347	0.0142624
847.425	0.0142473
847.503	0.0142709
847.581	0.0143244
847.660	0.0143829
847.738	0.0143710
847.816	0.0143882
847.894	0.0145076
847.972	0.0144958
848.050	0.0143764
848.128	0.0143461
848.206	0.0145079
848.285	0.0145875
848.363	0.0145919
848.441	0.0145185
848.519	0.0145502
848.597	0.0145673
848.675	0.0145966
848.753	0.0145737
848.831	0.0145131
848.910	0.0146512
848.988	0.0146438
849.066	0.0147164
849.144	0.0146108
849.222	0.0148068
849.300	0.0146030
849.378	0.0145876
849.456	0.0146171
849.535	0.0146059
849.613	0.0144123
849.691	0.0146495
849.769	0.0146023
849.847	0.0145049
849.925	0.0146065
850.003	0.0144935
850.081	0.0145525
850.160	0.0146014
850.238	0.0145348
850.316	0.0145805
850.394	0.0144728
850.472	0.0144377
850.550	0.0144943
850.628	0.0145464
850.706	0.0144267
850.785	0.0143532
850.863	0.0144790
850.941	0.0145267
851.019	0.0145390
851.097	0.0145396
851.175	0.0143908
851.253	0.0145495
851.331	0.0145673
851.410	0.0144892
851.488	0.0145893
851.566	0.0144301
851.644	0.0145319
851.722	0.0143788
851.800	0.0143768
851.878	0.0144118
851.956	0.0142473
852.035	0.0142179
852.113	0.0144105
852.191	0.0142067
852.269	0.0142323
852.347	0.0142764
852.425	0.0142387
852.503	0.0142383
852.581	0.0141564
852.660	0.0142477
852.738	0.0142003
852.816	0.0143725
852.894	0.0143482
852.972	0.0143462
853.050	0.0142978
853.128	0.0143121
853.206	0.0145411
853.285	0.0144731
853.363	0.0143375
853.441	0.0143406
853.519	0.0143794
853.597	0.0145288
853.675	0.0145118
853.753	0.0143810
853.831	0.0142783
853.910	0.0144818
853.988	0.0143394
854.066	0.0145115
854.144	0.0145171
854.222	0.0144917
854.300	0.0145309
854.378	0.0144936
854.456	0.0145994
854.535	0.0145876
854.613	0.0146534
854.691	0.0145530
854.769	0.0145312
854.847	0.0145098
854.925	0.0144786
855.003	0.0144437
855.081	0.0145721
855.160	0.0145412
855.238	0.0144950
855.316	0.0146121
855.394	0.0146755
855.472	0.0146358
855.550	0.0146206
855.628	0.0145643
855.706	0.0145906
855.785	0.0147045
855.863	0.0144630
855.941	0.0146928
856.019	0.0148732
856.097	0.0148524
856.175	0.0147659
856.253	0.0148714
856.331	0.0147983
856.410	0.0148109
856.488	0.0149019
856.566	0.0148103
856.644	0.0148087
856.722	0.0149141
856.800	0.0149376
856.878	0.0146752
856.956	0.0147569
857.035	0.0146771
857.113	0.0146778
857.191	0.0146828
857.269	0.0147189
857.347	0.0146767
857.425	0.0146182
857.503	0.0146862
857.581	0.0145404
857.660	0.0144633
857.738	0.0145669
857.816	0.0145879
857.894	0.0145016
857.972	0.0144874
858.050	0.0144257
858.128	0.0144341
858.206	0.0143259
858.285	0.0143374
858.363	0.0142821
858.441	0.0141604
858.519	0.0140166
858.597	0.0141515
858.675	0.0140874
858.753	0.0140634
858.831	0.0141077
858.910	0.0140524
858.988	0.0140249
859.066	0.0140426
859.144	0.0140100
859.222	0.0140460
859.300	0.0142777
859.378	0.0141946
859.456	0.0141653
859.535	0.0141640
859.613	0.0142371
859.691	0.0141478
859.769	0.0142220
859.847	0.0143391
859.925	0.0143778
860.003	0.0144736
860.081	0.0144352
860.160	0.0144102
860.238	0.0143214
860.316	0.0143521
860.394	0.0144837
860.472	0.0143624
860.550	0.0145535
860.628	0.0145286
860.706	0.0144392
860.785	0.0145951
860.863	0.0146107
860.941	0.0144959
861.019	0.0146109
861.097	0.0146078
861.175	0.0147669
861.253	0.0146464
861.331	0.0147086
861.410	0.0148115
861.488	0.0147836
861.566	0.0148239
861.644	0.0147623
861.722	0.0146931
861.800	0.0148559
861.878	0.0147365
861.956	0.0148817
862.035	0.0147034
862.113	0.0148569
862.191	0.0147794
862.269	0.0147070
862.347	0.0148447
862.425	0.0147084
862.503	0.0144589
862.581	0.0145930
862.660	0.0145560
862.738	0.0146795
862.816	0.0146082
862.894	0.0144202
862.972	0.0145710
863.050	0.0145905
863.128	0.0146262
863.206	0.0146690
863.285	0.0145582
863.363	0.0144302
863.441	0.0144642
863.519	0.0145634
863.597	0.0145937
863.675	0.0145840
863.753	0.0144660
863.831	0.0143022
863.910	0.0143127
863.988	0.0141958
864.066	0.0141855
864.144	0.0143042
864.222	0.0141923
864.300	0.0141862
864.378	0.0141383
864.456	0.0140617
864.535	0.0139983
864.613	0.0139585
864.691	0.0141582
864.769	0.0142128
864.847	0.0140388
864.925	0.0140704
865.003	0.0142928
865.081	0.0141208
865.160	0.0141218
865.238	0.0142060
865.316	0.0142246
865.394	0.0142169
865.472	0.0143655
865.550	0.0141761
865.628	0.0143505
865.706	0.0142007
865.785	0.0142103
865.863	0.0142683
865.941	0.0143562
866.019	0.0142361
866.097	0.0142356
866.175	0.0144073
866.253	0.0142684
866.331	0.0143036
866.410	0.0143369
866.488	0.0143750
866.566	0.0142866
866.644	0.0144337
866.722	0.0145192
866.800	0.0143983
866.878	0.0145180
866.956	0.0146152
867.035	0.0147924
867.113	0.0148437
867.191	0.0148821
867.269	0.0148584
867.347	0.0149014
867.425	0.0147998
867.503	0.0148977
867.581	0.0149684
867.660	0.0148505
867.738	0.0149194
867.816	0.0150079
867.894	0.0149329
867.972	0.0148470
868.050	0.0148461
868.128	0.0149107
868.206	0.0148574
868.285	0.0148065
868.363	0.0146804
868.441	0.0147779
868.519	0.0146795
868.597	0.0144941
868.675	0.0146235
868.753	0.0145139
868.831	0.0144726
868.910	0.0144312
868.988	0.0145118
869.066	0.0144724
869.144	0.0142896
869.222	0.0144604
869.300	0.0144951
869.378	0.0145041
869.456	0.0144443
869.535	0.0143958
869.613	0.0143662
869.691	0.0143099
869.769	0.0143124
869.847	0.0144057
869.925	0.0143993
870.003	0.0143706
870.081	0.0142283
870.160	0.0143305
870.238	0.0143531
870.316	0.0143367
870.394	0.0143451
870.472	0.0142954
870.550	0.0143056
870.628	0.0143137
870.706	0.0142597
870.785	0.0143582
870.863	0.0143897
870.941	0.0142412
871.019	0.0143094
871.097	0.0142331
871.175	0.0143148
871.253	0.0141644
871.331	0.0142447
871.410	0.0144057
871.488	0.0141453
871.566	0.0141937
871.644	0.0142365
871.722	0.0142979
871.800	0.0143179
871.878	0.0144482
871.956	0.0142921
872.035	0.0144492
872.113	0.0146062
872.191	0.0144828
872.269	0.0145677
872.347	0.0145377
872.425	0.0145467
872.503	0.0145927
872.581	0.0146399
872.660	0.0146535
872.738	0.0146484
872.816	0.0145988
872.894	0.0147015
872.972	0.0145805
873.050	0.0147761
873.128	0.0147223
873.206	0.0147502
873.285	0.0147607
873.363	0.0146740
873.441	0.0146162
873.519	0.0146478
873.597	0.0146041
873.675	0.0147276
873.753	0.0147034
873.831	0.0146661
873.910	0.0145928
873.988	0.0145126
874.066	0.0146901
874.144	0.0147607
874.222	0.0146155
874.300	0.0145367
874.378	0.0145630
874.456	0.0145138
874.535	0.0145366
874.613	0.0145557
874.691	0.0144733
874.769	0.0144049
874.847	0.0145435
874.925	0.0144405
875.003	0.0145831
875.081	0.0144186
875.160	0.0144970
875.238	0.0145493
875.316	0.0143238
875.394	0.0144727
875.472	0.0143036
875.550	0.0143940
875.628	0.0143783
875.706	0.0143300
875.785	0.0142799
875.863	0.0142957
875.941	0.0141286
876.019	0.0141505
876.097	0.0142442
876.175	0.0141703
876.253	0.0141176
876.331	0.0141938
876.410	0.0141563
876.488	0.0140103
876.566	0.0141556
876.644	0.0142113
876.722	0.0142681
876.800	0.0143111
876.878	0.0141972
876.956	0.0142317
877.035	0.0142488
877.113	0.0142975
877.191	0.0143130
877.269	0.0143095
877.347	0.0142828
877.425	0.0144501
877.503	0.0142441
877.581	0.0145786
877.660	0.0144047
877.738	0.0143804
877.816	0.0144967
877.894	0.0145597
877.972	0.0144611
878.050	0.0146226
878.128	0.0145075
878.206	0.0144353
878.285	0.0146060
878.363	0.0146828
878.441	0.0147730
878.519	0.0147600
878.597	0.0147266
878.675	0.0147112
878.753	0.0146378
878.831	0.0147414
878.910	0.0146666
878.988	0.0147102
879.066	0.0148926
879.144	0.0147173
879.222	0.0147976
879.300	0.0148365
879.378	0.0146978
879.456	0.0146313
879.535	0.0146458
879.613	0.0146080
879.691	0.0146636
879.769	0.0145822
879.847	0.0146728
879.925	0.0147916
880.003	0.0146175
880.081	0.0145944
880.160	0.0146552
880.238	0.0145492
880.316	0.0144158
880.394	0.0145033
880.472	0.0144498
880.550	0.0144283
880.628	0.0145002
880.706	0.0142925
880.785	0.0142921
880.863	0.0144035
880.941	0.0144537
881.019	0.0144585
881.097	0.0142664
881.175	0.0142506
881.253	0.0143005
881.331	0.0142059
881.410	0.0143647
881.488	0.0142686
881.566	0.0142960
881.644	0.0143517
881.722	0.0143063
881.800	0.0145524
881.878	0.0142495
881.956	0.0143967
882.035	0.0142860
882.113	0.0143579
882.191	0.0144837
882.269	0.0144289
882.347	0.0144297
882.425	0.0144365
882.503	0.0145841
882.581	0.0143706
882.660	0.0144097
882.738	0.0143417
882.816	0.0143258
882.894	0.0143463
882.972	0.0142486
883.050	0.0143355
883.128	0.0143374
883.206	0.0145339
883.285	0.0144499
883.363	0.0145351
883.441	0.0146126
883.519	0.0144388
883.597	0.0144708
883.675	0.0144986
883.753	0.0145087
883.831	0.0145454
883.910	0.0145764
883.988	0.0145612
884.066	0.0145878
884.144	0.0146344
884.222	0.0146232
884.300	0.0147762
884.378	0.0147120
884.456	0.0146502
884.535	0.0147257
884.613	0.0147813
884.691	0.0147357
884.769	0.0148505
884.847	0.0148045
884.925	0.0148731
885.003	0.0148849
885.081	0.0148846
885.160	0.0147683
885.238	0.0146121
885.316	0.0147815
885.394	0.0147414
885.472	0.0147084
885.550	0.0145319
885.628	0.0145174
885.706	0.0146520
885.785	0.0144239
885.863	0.0144379
885.941	0.0146021
886.019	0.0146040
886.097	0.0145193
886.175	0.0145758
886.253	0.0146830
886.331	0.0147574
886.410	0.0146510
886.488	0.0145648
886.566	0.0146201
886.644	0.0145341
886.722	0.0145281
886.800	0.0144991
886.878	0.0144876
886.956	0.0144239
887.035	0.0143810
887.113	0.0145928
887.191	0.0143707
887.269	0.0142725
887.347	0.0143626
887.425	0.0142001
887.503	0.0143825
887.581	0.0143684
887.660	0.0143707
887.738	0.0143195
887.816	0.0141212
887.894	0.0142315
887.972	0.0144159
888.050	0.0143380
888.128	0.0139854
888.206	0.0142059
888.285	0.0143248
888.363	0.0143401
888.441	0.0141809
888.519	0.0140811
888.597	0.0142086
888.675	0.0141457
888.753	0.0142271
888.831	0.0142341
888.910	0.0142315
888.988	0.0141337
889.066	0.0141856
889.144	0.0141988
889.222	0.0142923
889.300	0.0143513
889.378	0.0141617
889.456	0.0142971
889.535	0.0143449
889.613	0.0142845
889.691	0.0144003
889.769	0.0144171
889.847	0.0144173
889.925	0.0143892
890.003	0.0144592
890.081	0.0145437
890.160	0.0143196
890.238	0.0145210
890.316	0.0145236
890.394	0.0145414
890.472	0.0145709
890.550	0.0146832
890.628	0.0146228
890.706	0.0145498
890.785	0.0147015
890.863	0.0146687
890.941	0.0146725
891.019	0.0147292
891.097	0.0146838
891.175	0.0148216
891.253	0.0148936
891.331	0.0148214
891.410	0.0148241
891.488	0.0147965
891.566	0.0148599
891.644	0.0148167
891.722	0.0146902
891.800	0.0146555
891.878	0.0147825
891.956	0.0147375
892.035	0.0146490
892.113	0.0147337
892.191	0.0145641
892.269	0.0146616
892.347	0.0144935
892.425	0.0144501
892.503	0.0143737
892.581	0.0144501
892.660	0.0144146
892.738	0.0142266
892.816	0.0142530
892.894	0.0142939
892.972	0.0141796
893.050	0.0141307
893.128	0.0141599
893.206	0.0142509
893.285	0.0140698
893.363	0.0141867
893.441	0.0141122
893.519	0.0140948
893.597	0.0142322
893.675	0.0141109
893.753	0.0141020
893.831	0.0140389
893.910	0.0139552
893.988	0.0139538
894.066	0.0142210
894.144	0.0142870
894.222	0.0140910
894.300	0.0140652
894.378	0.0141151
894.456	0.0141743
894.535	0.0142328
894.613	0.0144065
894.691	0.0145432
894.769	0.0146410
894.847	0.0145483
894.925	0.0145524
895.003	0.0147630
895.081	0.0146991
895.160	0.0148941
895.238	0.0148650
895.316	0.0149091
895.394	0.0148380
895.472	0.0147874
895.550	0.0147064
895.628	0.0147139
895.706	0.0145840
895.785	0.0146592
895.863	0.0147050
895.941	0.0147501
896.019	0.0147713
896.097	0.0148383
896.175	0.0146328
896.253	0.0146729
896.331	0.0147250
896.410	0.0146455
896.488	0.0146033
896.566	0.0148170
896.644	0.0147398
896.722	0.0146568
896.800	0.0146389
896.878	0.0145393
896.956	0.0144936
897.035	0.0144573
897.113	0.0144669
897.191	0.0143655
897.269	0.0143371
897.347	0.0142234
897.425	0.0141785
897.503	0.0142344
897.581	0.0142654
897.660	0.0142706
897.738	0.0142207
897.816	0.0143359
897.894	0.0142316
897.972	0.0141030
898.050	0.0142367
898.128	0.0142676
898.206	0.0142762
898.285	0.0143074
898.363	0.0142153
898.441	0.0142863
898.519	0.0144021
898.597	0.0143241
898.675	0.0142664
898.753	0.0145425
898.831	0.0144377
898.910	0.0145817
898.988	0.0145823
899.066	0.0145423
899.144	0.0145342
899.222	0.0146390
899.300	0.0147696
899.378	0.0148479
899.456	0.0147897
899.535	0.0147771
899.613	0.0147684
899.691	0.0146703
899.769	0.0146037
899.847	0.0146687
899.925	0.0146487
900.003	0.0146519
900.081	0.0146159
900.160	0.0144451
900.238	0.0144934
900.316	0.0145012
900.394	0.0144281
900.472	0.0144206
900.550	0.0144212
900.628	0.0144386
900.706	0.0144671
900.785	0.0144792
900.863	0.0143018
900.941	0.0144566
901.019	0.0145264
901.097	0.0143838
901.175	0.0143497
901.253	0.0144285
901.331	0.0145414
901.410	0.0143694
901.488	0.0143869
901.566	0.0144026
901.644	0.0144259
901.722	0.0145151
901.800	0.0145927
901.878	0.0146640
901.956	0.0145918
902.035	0.0147176
902.113	0.0145959
902.191	0.0145677
902.269	0.0147810
902.347	0.0147601
902.425	0.0146330
902.503	0.0146819
902.581	0.0146652
902.660	0.0146635
902.738	0.0144026
902.816	0.0144347
902.894	0.0144530
902.972	0.0144256
903.050	0.0142828
903.128	0.0142579
903.206	0.0143011
903.285	0.0143193
903.363	0.0143490
903.441	0.0143312
903.519	0.0144145
903.597	0.0144789
903.675	0.0144365
903.753	0.0145495
903.831	0.0146367
903.910	0.0145949
903.988	0.0146265
904.066	0.0147015
904.144	0.0145425
904.222	0.0145076
904.300	0.0145122
904.378	0.0145725
904.456	0.0146140
904.535	0.0145593
904.613	0.0145307
904.691	0.0146449
904.769	0.0144146
904.847	0.0145353
904.925	0.0144727
905.003	0.0145403
905.081	0.0144439
905.160	0.0145406
905.238	0.0144476
905.316	0.0144116
905.394	0.0146035
905.472	0.0144261
905.550	0.0145355
905.628	0.0144365
905.706	0.0144701
905.785	0.0144379
905.863	0.0143204
905.941	0.0143956
906.019	0.0143495
906.097	0.0144219
906.175	0.0144563
906.253	0.0144154
906.331	0.0142434
906.410	0.0143092
906.488	0.0144197
906.566	0.0144381
906.644	0.0145443
906.722	0.0145238
906.800	0.0145964
906.878	0.0145249
906.956	0.0145914
907.035	0.0145515
907.113	0.0145046
907.191	0.0144999
907.269	0.0144695
907.347	0.0145492
907.425	0.0143519
907.503	0.0144578
907.581	0.0144759
907.660	0.0143172
907.738	0.0143517
907.816	0.0142742
907.894	0.0143410
907.972	0.0145662
908.050	0.0143951
908.128	0.0144892
908.206	0.0145950
908.285	0.0144893
908.363	0.0145534
908.441	0.0145086
908.519	0.0146760
908.597	0.0146262
908.675	0.0146008
908.753	0.0145300
908.831	0.0146638
908.910	0.0147245
908.988	0.0146529
909.066	0.0146622
909.144	0.0147062
909.222	0.0146584
909.300	0.0146050
909.378	0.0146069
909.456	0.0145320
909.535	0.0146822
909.613	0.0146528
909.691	0.0145152
909.769	0.0145295
909.847	0.0144440
909.925	0.0143822
910.003	0.0143312
910.081	0.0144614
910.160	0.0144838
910.238	0.0143896
910.316	0.0143565
910.394	0.0142758
910.472	0.0142554
910.550	0.0142413
910.628	0.0141021
910.706	0.0143330
910.785	0.0140877
910.863	0.0141525
910.941	0.0140812
911.019	0.0141125
911.097	0.0141725
911.175	0.0140106
911.253	0.0141991
911.331	0.0142438
911.410	0.0142352
911.488	0.0143214
911.566	0.0143712
911.644	0.0143549
911.722	0.0143227
911.800	0.0143639
911.878	0.0144559
911.956	0.0143352
912.035	0.0142747
912.113	0.0143996
912.191	0.0144580
912.269	0.0143663
912.347	0.0143469
912.425	0.0143923
912.503	0.0144498
912.581	0.0144863
912.660	0.0145146
912.738	0.0145255
912.816	0.0146336
912.894	0.0145865
912.972	0.0147641
913.050	0.0146168
913.128	0.0148595
913.206	0.0146994
913.285	0.0147662
913.363	0.0147254
913.441	0.0148714
913.519	0.0148852
913.597	0.0146809
913.675	0.0147846
913.753	0.0148458
913.831	0.0147937
913.910	0.0147633
913.988	0.0147398
914.066	0.0149532
914.144	0.0148470
914.222	0.0148257
914.300	0.0148417
914.378	0.0146666
914.456	0.0149122
914.535	0.0148009
914.613	0.0148320
914.691	0.0147313
914.769	0.0147345
914.847	0.0147440
914.925	0.0145848
915.003	0.0144472
915.081	0.0143283
915.160	0.0143572
915.238	0.0142500
915.316	0.0142575
915.394	0.0143047
915.472	0.0142538
915.550	0.0142426
915.628	0.0140945
915.706	0.0140959
915.785	0.0141484
915.863	0.0141588
915.941	0.0140784
916.019	0.0140997
916.097	0.0142053
916.175	0.0141065
916.253	0.0141996
916.331	0.0142833
916.410	0.0141302
916.488	0.0142449
916.566	0.0141914
916.644	0.0142857
916.722	0.0143308
916.800	0.0142970
916.878	0.0142872
916.956	0.0143353
917.035	0.0142382
917.113	0.0143299
917.191	0.0143158
917.269	0.0144820
917.347	0.0144347
917.425	0.0143320
917.503	0.0143336
917.581	0.0143193
917.660	0.0144096
917.738	0.0144368
917.816	0.0145332
917.894	0.0145009
917.972	0.0144834
918.050	0.0145033
918.128	0.0145506
918.206	0.0146534
918.285	0.0146482
918.363	0.0147305
918.441	0.0146011
918.519	0.0146599
918.597	0.0145609
918.675	0.0147243
918.753	0.0147577
918.831	0.0147456
918.910	0.0146107
918.988	0.0146308
919.066	0.0147255
919.144	0.0148119
919.222	0.0147579
919.300	0.0146888
919.378	0.0145513
919.456	0.0146624
919.535	0.0147550
919.613	0.0145660
919.691	0.0146939
919.769	0.0144801
919.847	0.0144858
919.925	0.0143877
920.003	0.0144082
920.081	0.0144379
920.160	0.0144281
920.238	0.0145724
920.316	0.0143286
920.394	0.0143754
920.472	0.0143154
920.550	0.0141412
920.628	0.0142782
920.706	0.0142679
920.785	0.0140674
920.863	0.0142647
920.941	0.0142383
921.019	0.0142146
921.097	0.0143094
921.175	0.0143402
921.253	0.0142077
921.331	0.0142912
921.410	0.0142442
921.488	0.0144495
921.566	0.0144456
921.644	0.0143539
921.722	0.0144617
921.800	0.0142164
921.878	0.0141725
921.956	0.0143346
922.035	0.0142561
922.113	0.0142525
922.191	0.0143536
922.269	0.0144131
922.347	0.0143763
922.425	0.0144312
922.503	0.0143440
922.581	0.0143526
922.660	0.0144829
922.738	0.0144595
922.816	0.0144762
922.894	0.0144056
922.972	0.0145576
923.050	0.0144111
923.128	0.0144839
923.206	0.0144288
923.285	0.0144973
923.363	0.0145880
923.441	0.0144444
923.519	0.0146365
923.597	0.0144157
923.675	0.0144640
923.753	0.0145543
923.831	0.0145214
923.910	0.0144540
923.988	0.0145972
924.066	0.0145084
924.144	0.0143781
924.222	0.0145047
924.300	0.0144761
924.378	0.0144261
924.456	0.0143085
924.535	0.0142976
924.613	0.0144308
924.691	0.0143156
924.769	0.0143665
924.847	0.0143628
924.925	0.0144379
925.003	0.0144179
925.081	0.0144508
925.160	0.0144531
925.238	0.0145292
925.316	0.0145136
925.394	0.0146344
925.472	0.0146259
925.550	0.0145348
925.628	0.0146958
925.706	0.0146320
925.785	0.0147755
925.863	0.0146706
925.941	0.0146165
926.019	0.0145490
926.097	0.0145824
926.175	0.0145454
926.253	0.0144246
926.331	0.0144854
926.410	0.0144663
926.488	0.0144511
926.566	0.0144393
926.644	0.0144135
926.722	0.0144841
926.800	0.0144392
926.878	0.0143970
926.956	0.0143354
927.035	0.0143790
927.113	0.0145069
927.191	0.0144193
927.269	0.0144617
927.347	0.0145052
927.425	0.0144457
927.503	0.0144347
927.581	0.0144419
927.660	0.0144427
927.738	0.0146309
927.816	0.0146782
927.894	0.0144176
927.972	0.0144927
928.050	0.0145390
928.128	0.0144196
928.206	0.0145043
928.285	0.0145568
928.363	0.0144074
928.441	0.0145010
928.519	0.0144790
928.597	0.0143250
928.675	0.0144099
928.753	0.0143597
928.831	0.0143546
928.910	0.0143706
928.988	0.0144193
929.066	0.0144409
929.144	0.0142434
929.222	0.0144296
929.300	0.0143908
929.378	0.0143372
929.456	0.0143816
929.535	0.0143228
929.613	0.0143937
929.691	0.0143976
929.769	0.0143849
929.847	0.0143328
929.925	0.0144955
930.003	0.0143776
930.081	0.0145242
930.160	0.0143966
930.238	0.0145562
930.316	0.0145605
930.394	0.0145287
930.472	0.0145597
930.550	0.0145942
930.628	0.0145913
930.706	0.0145019
930.785	0.0144791
930.863	0.0145573
930.941	0.0145049
931.019	0.0146475
931.097	0.0145023
931.175	0.0145556
931.253	0.0143820
931.331	0.0144791
931.410	0.0145536
931.488	0.0145074
931.566	0.0146754
931.644	0.0147077
931.722	0.0146333
931.800	0.0145634
931.878	0.0146687
931.956	0.0147858
932.035	0.0147202
932.113	0.0148130
932.191	0.0148341
932.269	0.0145933
932.347	0.0147157
932.425	0.0146800
932.503	0.0146780
932.581	0.0147112
932.660	0.0146616
932.738	0.0145351
932.816	0.0146482
932.894	0.0145826
932.972	0.0143569
933.050	0.0144938
933.128	0.0144694
933.206	0.0143721
933.285	0.0143818
933.363	0.0144730
933.441	0.0142789
933.519	0.0143929
933.597	0.0145447
933.675	0.0142771
933.753	0.0143565
933.831	0.0145177
933.910	0.0143348
933.988	0.0143980
934.066	0.0143025
934.144	0.0144469
934.222	0.0142762
934.300	0.0143520
934.378	0.0142889
934.456	0.0142609
934.535	0.0143778
934.613	0.0141906
934.691	0.0143084
934.769	0.0146188
934.847	0.0144425
934.925	0.0143626
935.003	0.0143619
935.081	0.0145631
935.160	0.0145389
935.238	0.0146326
935.316	0.0145853
935.394	0.0146598
935.472	0.0144382
935.550	0.0145693
935.628	0.0146201
935.706	0.0145063
935.785	0.0146426
935.863	0.0144773
935.941	0.0145930
936.019	0.0146758
936.097	0.0144324
936.175	0.0144993
936.253	0.0145496
936.331	0.0144486
936.410	0.0145249
936.488	0.0144178
936.566	0.0143562
936.644	0.0144756
936.722	0.0146362
936.800	0.0145219
936.878	0.0144926
936.956	0.0144799
937.035	0.0144670
937.113	0.0144773
937.191	0.0146622
937.269	0.0146603
937.347	0.0145638
937.425	0.0144497
937.503	0.0144733
937.581	0.0144554
937.660	0.0144086
937.738	0.0145148
937.816	0.0144936
937.894	0.0143584
937.972	0.0144563
938.050	0.0146088
938.128	0.0145481
938.206	0.0144640
938.285	0.0145621
938.363	0.0146523
938.441	0.0145482
938.519	0.0145837
938.597	0.0144973
938.675	0.0146137
938.753	0.0146326
938.831	0.0144830
938.910	0.0143028
938.988	0.0144977
939.066	0.0146006
939.144	0.0145257
939.222	0.0144749
939.300	0.0144510
939.378	0.0144029
939.456	0.0144370
939.535	0.0143322
939.613	0.0144682
939.691	0.0145343
939.769	0.0145412
939.847	0.0144601
939.925	0.0144299
940.003	0.0144096
940.081	0.0145219
940.160	0.0144567
940.238	0.0144748
940.316	0.0144185
940.394	0.0144398
940.472	0.0143356
940.550	0.0145528
940.628	0.0144683
940.706	0.0144506
940.785	0.0142839
940.863	0.0142908
940.941	0.0143878
941.019	0.0145134
941.097	0.0142818
941.175	0.0142137
941.253	0.0143221
941.331	0.0142455
941.410	0.0140276
941.488	0.0141915
941.566	0.0141767
941.644	0.0140867
941.722	0.0141068
941.800	0.0142773
941.878	0.0143291
941.956	0.0142722
942.035	0.0142213
942.113	0.0141801
942.191	0.0142921
942.269	0.0143550
942.347	0.0144908
942.425	0.0143443
942.503	0.0143993
942.581	0.0144405
942.660	0.0145780
942.738	0.0145853
942.816	0.0145283
942.894	0.0143915
942.972	0.0144830
943.050	0.0147309
943.128	0.0145712
943.206	0.0144213
943.285	0.0146941
943.363	0.0146566
943.441	0.0146134
943.519	0.0144204
943.597	0.0145083
943.675	0.0145250
943.753	0.0145349
943.831	0.0145550
943.910	0.0145473
943.988	0.0146313
944.066	0.0147057
944.144	0.0146667
944.222	0.0145812
944.300	0.0145121
944.378	0.0144800
944.456	0.0144665
944.535	0.0146016
944.613	0.0144295
944.691	0.0144207
944.769	0.0143829
944.847	0.0143082
944.925	0.0143678
945.003	0.0143846
945.081	0.0143233
945.160	0.0143638
945.238	0.0143433
945.316	0.0143149
945.394	0.0144007
945.472	0.0143209
945.550	0.0143348
945.628	0.0143961
945.706	0.0145589
945.785	0.0144883
945.863	0.0144229
945.941	0.0143623
946.019	0.0144955
946.097	0.0144357
946.175	0.0144505
946.253	0.0143504
946.331	0.0144216
946.410	0.0143687
946.488	0.0144269
946.566	0.0144621
946.644	0.0144980
946.722	0.0143651
946.800	0.0144432
946.878	0.0144293
946.956	0.0144533
947.035	0.0144757
947.113	0.0143806
947.191	0.0144877
947.269	0.0145517
947.347	0.0144491
947.425	0.0144032
947.503	0.0144450
947.581	0.0144139
947.660	0.0144279
947.738	0.0143497
947.816	0.0143624
947.894	0.0144437
947.972	0.0144130
948.050	0.0144123
948.128	0.0144539
948.206	0.0144780
948.285	0.0143745
948.363	0.0144370
948.441	0.0145371
948.519	0.0144432
948.597	0.0143208
948.675	0.0145990
948.753	0.0145106
948.831	0.0144128
948.910	0.0145506
948.988	0.0144951
949.066	0.0145185
949.144	0.0144960
949.222	0.0145292
949.300	0.0146075
949.378	0.0146219
949.456	0.0146712
949.535	0.0144948
949.613	0.0144933
949.691	0.0145016
949.769	0.0145413
949.847	0.0143975
949.925	0.0146214
950.003	0.0146688
950.081	0.0145840
950.160	0.0146767
950.238	0.0146523
950.316	0.0146126
950.394	0.0145824
950.472	0.0146583
950.550	0.0145924
950.628	0.0146443
950.706	0.0146675
950.785	0.0146412
950.863	0.0146393
950.941	0.0146191
951.019	0.0144979
951.097	0.0146508
951.175	0.0145625
951.253	0.0145804
951.331	0.0144846
951.410	0.0143826
951.488	0.0144648
951.566	0.0143806
951.644	0.0143830
951.722	0.0143050
951.800	0.0143108
951.878	0.0143675
951.956	0.0141008
952.035	0.0142395
952.113	0.0143037
952.191	0.0142625
952.269	0.0143158
952.347	0.0141679
952.425	0.0143276
952.503	0.0143072
952.581	0.0143705
952.660	0.0142623
952.738	0.0142746
952.816	0.0144746
952.894	0.0143464
952.972	0.0143924
953.050	0.0143858
953.128	0.0142532
953.206	0.0142650
953.285	0.0142853
953.363	0.0144895
953.441	0.0144406
953.519	0.0144506
953.597	0.0143282
953.675	0.0143955
953.753	0.0145718
953.831	0.0144475
953.910	0.0144254
953.988	0.0146593
954.066	0.0147752
954.144	0.0146301
954.222	0.0147165
954.300	0.0147183
954.378	0.0146008
954.456	0.0146468
954.535	0.0146268
954.613	0.0147591
954.691	0.0148250
954.769	0.0148299
954.847	0.0147966
954.925	0.0148160
955.003	0.0147195
955.081	0.0148303
955.160	0.0146288
955.238	0.0148167
955.316	0.0149006
955.394	0.0148478
955.472	0.0147678
955.550	0.0146927
955.628	0.0146915
955.706	0.0148105
955.785	0.0147046
955.863	0.0145625
955.941	0.0146444
956.019	0.0147647
956.097	0.0145931
956.175	0.0146259
956.253	0.0145750
956.331	0.0145445
956.410	0.0146768
956.488	0.0144272
956.566	0.0144592
956.644	0.0144563
956.722	0.0143978
956.800	0.0144147
956.878	0.0144985
956.956	0.0142952
957.035	0.0143735
957.113	0.0143874
957.191	0.0142865
957.269	0.0142757
957.347	0.0142239
957.425	0.0142355
957.503	0.0142870
957.581	0.0141127
957.660	0.0142806
957.738	0.0143520
957.816	0.0143132
957.894	0.0142288
957.972	0.0141770
958.050	0.0143893
958.128	0.0143784
958.206	0.0141550
958.285	0.0142091
958.363	0.0143726
958.441	0.0144875
958.519	0.0145290
958.597	0.0144527
958.675	0.0145128
958.753	0.0146009
958.831	0.0145226
958.910	0.0145718
958.988	0.0144680
959.066	0.0145184
959.144	0.0145394
959.222	0.0144820
959.300	0.0147413
959.378	0.0146375
959.456	0.0145961
959.535	0.0147282
959.613	0.0146783
959.691	0.0147559
959.769	0.0146208
959.847	0.0147430
959.925	0.0146296
960.003	0.0146923
960.081	0.0146647
960.160	0.0146891
960.238	0.0147740
960.316	0.0147021
960.394	0.0147271
960.472	0.0148305
960.550	0.0146160
960.628	0.0147489
960.706	0.0148042
960.785	0.0146137
960.863	0.0146551
960.941	0.0147068
961.019	0.0146993
961.097	0.0146166
961.175	0.0146442
961.253	0.0147083
961.331	0.0145697
961.410	0.0145181
961.488	0.0145690
961.566	0.0144523
961.644	0.0145002
961.722	0.0144982
961.800	0.0143128
961.878	0.0143330
961.956	0.0143700
962.035	0.0142606
962.113	0.0142860
962.191	0.0141267
962.269	0.0141856
962.347	0.0141263
962.425	0.0141299
962.503	0.0141747
962.581	0.0142120
962.660	0.0141509
962.738	0.0142592
962.816	0.0140509
962.894	0.0141499
962.972	0.0142892
963.050	0.0142277
963.128	0.0142117
963.206	0.0144225
963.285	0.0143699
963.363	0.0144165
963.441	0.0144408
963.519	0.0144442
963.597	0.0145163
963.675	0.0144830
963.753	0.0144640
963.831	0.0143687
963.910	0.0144794
963.988	0.0145441
964.066	0.0145864
964.144	0.0144342
964.222	0.0145878
964.300	0.0145377
964.378	0.0146513
964.456	0.0144927
964.535	0.0143424
964.613	0.0145747
964.691	0.0146568
964.769	0.0145477
964.847	0.0146272
964.925	0.0145555
965.003	0.0145346
965.081	0.0145981
965.160	0.0145657
965.238	0.0146531
965.316	0.0148380
965.394	0.0146550
965.472	0.0146368
965.550	0.0147403
965.628	0.0147282
965.706	0.0145127
965.785	0.0147079
965.863	0.0148356
965.941	0.0146681
966.019	0.0146823
966.097	0.0147422
966.175	0.0147698
966.253	0.0145822
966.331	0.0146345
966.410	0.0145521
966.488	0.0145238
966.566	0.0146287
966.644	0.0145038
966.722	0.0143716
966.800	0.0144945
966.878	0.0143591
966.956	0.0143642
967.035	0.0142040
967.113	0.0142805
967.191	0.0141964
967.269	0.0143520
967.347	0.0141557
967.425	0.0142410
967.503	0.0142319
967.581	0.0143227
967.660	0.0143425
967.738	0.0142257
967.816	0.0141617
967.894	0.0140642
967.972	0.0142690
968.050	0.0142328
968.128	0.0140843
968.206	0.0142877
968.285	0.0141780
968.363	0.0142245
968.441	0.0140849
968.519	0.0142207
968.597	0.0142660
968.675	0.0142503
968.753	0.0142857
968.831	0.0142775
968.910	0.0143753
968.988	0.0143967
969.066	0.0142376
969.144	0.0143151
969.222	0.0144048
969.300	0.0145450
969.378	0.0144726
969.456	0.0145834
969.535	0.0145223
969.613	0.0146165
969.691	0.0146512
969.769	0.0145708
969.847	0.0146993
969.925	0.0147467
970.003	0.0146642
970.081	0.0146831
970.160	0.0146261
970.238	0.0145837
970.316	0.0145794
970.394	0.0147064
970.472	0.0145998
970.550	0.0146474
970.628	0.0145855
970.706	0.0144474
970.785	0.0145297
970.863	0.0144215
970.941	0.0143158
971.019	0.0143696
971.097	0.0144439
971.175	0.0143274
971.253	0.0144551
971.331	0.0144363
971.410	0.0144942
971.488	0.0144362
971.566	0.0144942
971.644	0.0144599
971.722	0.0143375
971.800	0.0145840
971.878	0.0145435
971.956	0.0145154
972.035	0.0146278
972.113	0.0145197
972.191	0.0145635
972.269	0.0145805
972.347	0.0145280
972.425	0.0146336
972.503	0.0144530
972.581	0.0145985
972.660	0.0145789
972.738	0.0144868
972.816	0.0143788
972.894	0.0145308
972.972	0.0145051
973.050	0.0143638
973.128	0.0145026
973.206	0.0143591
973.285	0.0144030
973.363	0.0144581
973.441	0.0143906
973.519	0.0142927
973.597	0.0144807
973.675	0.0143674
973.753	0.0143971
973.831	0.0144775
973.910	0.0146106
973.988	0.0144931
974.066	0.0145118
974.144	0.0145703
974.222	0.0146349
974.300	0.0145382
974.378	0.0144953
974.456	0.0145010
974.535	0.0145914
974.613	0.0146184
974.691	0.0147449
974.769	0.0146046
974.847	0.0144088
974.925	0.0144397
975.003	0.0145358
975.081	0.0145848
975.160	0.0146462
975.238	0.0147097
975.316	0.0145005
975.394	0.0145902
975.472	0.0146201
975.550	0.0144501
975.628	0.0145007
975.706	0.0144550
975.785	0.0142269
975.863	0.0145097
975.941	0.0144513
976.019	0.0145268
976.097	0.0143187
976.175	0.0142445
976.253	0.0142309
976.331	0.0143941
976.410	0.0144614
976.488	0.0142492
976.566	0.0143042
976.644	0.0144352
976.722	0.0144357
976.800	0.0142434
976.878	0.0143330
976.956	0.0144453
977.035	0.0144242
977.113	0.0144342
977.191	0.0143581
977.269	0.0144208
977.347	0.0144244
977.425	0.0143372
977.503	0.0142389
977.581	0.0142457
977.660	0.0144331
977.738	0.0144446
977.816	0.0144411
977.894	0.0144424
977.972	0.0143944
978.050	0.0143793
978.128	0.0143734
978.206	0.0146134
978.285	0.0144453
978.363	0.0144654
978.441	0.0146192
978.519	0.0145732
978.597	0.0145445
978.675	0.0145654
978.753	0.0145782
978.831	0.0146823
978.910	0.0146964
978.988	0.0146232
979.066	0.0147516
979.144	0.0147229
979.222	0.0147200
979.300	0.0145830
979.378	0.0146810
979.456	0.0147298
979.535	0.0146634
979.613	0.0147220
979.691	0.0146883
979.769	0.0146247
979.847	0.0146563
979.925	0.0145936
