05/03/2022	20:45:43	Ver.	4.1	UNKNOWN
Optical Delay	660.003261	Delta X		0.078125	Sweeps	1	Scan Rate	0/0
Coordinates	Axis 1	NaN	Axis 2	NaN	Axis 3	NaN	Axis 4	NaN	Axis 5	NaN	Axis 6	0.000000
TX Power	0.000000	RX Power	0.000000

660.003	0.0140211
660.081	0.0141010
660.160	0.0140939
660.238	0.0140784
660.316	0.0138702
660.394	0.0139783
660.472	0.0139656
660.550	0.0140295
660.628	0.0140180
660.706	0.0140590
660.785	0.0139953
660.863	0.0141199
660.941	0.0139071
661.019	0.0140222
661.097	0.0139948
661.175	0.0139899
661.253	0.0141258
661.331	0.0140125
661.410	0.0139636
661.488	0.0139554
661.566	0.0140274
661.644	0.0139404
661.722	0.0139321
661.800	0.0140552
661.878	0.0139842
661.956	0.0139740
662.035	0.0139840
662.113	0.0139624
662.191	0.0140608
662.269	0.0139706
662.347	0.0140257
662.425	0.0141592
662.503	0.0140337
662.581	0.0139954
662.660	0.0140374
662.738	0.0140094
662.816	0.0139518
662.894	0.0140718
662.972	0.0141582
663.050	0.0141169
663.128	0.0140757
663.206	0.0139604
663.285	0.0138982
663.363	0.0141442
663.441	0.0142487
663.519	0.0140800
663.597	0.0140648
663.675	0.0140990
663.753	0.0141118
663.831	0.0141322
663.910	0.0141400
663.988	0.0141196
664.066	0.0140311
664.144	0.0141165
664.222	0.0140833
664.300	0.0141019
664.378	0.0141643
664.456	0.0141838
664.535	0.0140764
664.613	0.0141850
664.691	0.0141753
664.769	0.0141394
664.847	0.0141619
664.925	0.0141020
665.003	0.0142007
665.081	0.0141517
665.160	0.0141231
665.238	0.0142144
665.316	0.0143303
665.394	0.0141148
665.472	0.0141730
665.550	0.0140029
665.628	0.0139201
665.706	0.0140916
665.785	0.0141818
665.863	0.0141488
665.941	0.0140157
666.019	0.0140730
666.097	0.0142132
666.175	0.0141366
666.253	0.0141909
666.331	0.0142288
666.410	0.0141166
666.488	0.0141308
666.566	0.0140960
666.644	0.0140382
666.722	0.0140947
666.800	0.0140008
666.878	0.0141310
666.956	0.0141293
667.035	0.0142091
667.113	0.0140857
667.191	0.0140978
667.269	0.0140401
667.347	0.0141567
667.425	0.0141737
667.503	0.0140139
667.581	0.0140511
667.660	0.0142307
667.738	0.0141548
667.816	0.0141676
667.894	0.0141856
667.972	0.0140046
668.050	0.0140827
668.128	0.0141459
668.206	0.0140811
668.285	0.0141884
668.363	0.0140574
668.441	0.0140727
668.519	0.0139922
668.597	0.0140979
668.675	0.0139897
668.753	0.0141299
668.831	0.0141946
668.910	0.0140417
668.988	0.0141373
669.066	0.0140894
669.144	0.0140353
669.222	0.0139530
669.300	0.0138954
669.378	0.0138304
669.456	0.0140025
669.535	0.0140730
669.613	0.0141066
669.691	0.0140157
669.769	0.0141000
669.847	0.0139984
669.925	0.0140273
670.003	0.0140333
670.081	0.0140074
670.160	0.0140811
670.238	0.0140912
670.316	0.0139615
670.394	0.0139825
670.472	0.0141047
670.550	0.0140831
670.628	0.0139266
670.706	0.0140003
670.785	0.0140422
670.863	0.0139310
670.941	0.0140240
671.019	0.0139190
671.097	0.0140384
671.175	0.0139691
671.253	0.0139211
671.331	0.0139845
671.410	0.0140814
671.488	0.0140652
671.566	0.0139910
671.644	0.0138580
671.722	0.0139901
671.800	0.0139600
671.878	0.0139920
671.956	0.0138573
672.035	0.0140291
672.113	0.0140703
672.191	0.0139821
672.269	0.0139590
672.347	0.0139928
672.425	0.0138602
672.503	0.0139417
672.581	0.0139651
672.660	0.0138494
672.738	0.0139909
672.816	0.0138814
672.894	0.0140416
672.972	0.0139910
673.050	0.0139846
673.128	0.0139377
673.206	0.0140297
673.285	0.0139384
673.363	0.0140501
673.441	0.0139417
673.519	0.0138210
673.597	0.0140080
673.675	0.0139842
673.753	0.0140400
673.831	0.0140084
673.910	0.0139767
673.988	0.0140070
674.066	0.0139249
674.144	0.0139017
674.222	0.0140231
674.300	0.0140189
674.378	0.0137306
674.456	0.0137445
674.535	0.0139154
674.613	0.0140108
674.691	0.0137354
674.769	0.0137939
674.847	0.0138490
674.925	0.0139614
675.003	0.0139416
675.081	0.0138806
675.160	0.0139053
675.238	0.0137496
675.316	0.0138788
675.394	0.0139196
675.472	0.0138567
675.550	0.0137318
675.628	0.0138860
675.706	0.0139513
675.785	0.0138309
675.863	0.0139502
675.941	0.0138805
676.019	0.0138688
676.097	0.0138366
676.175	0.0138751
676.253	0.0138985
676.331	0.0139005
676.410	0.0138447
676.488	0.0139537
676.566	0.0138184
676.644	0.0137715
676.722	0.0138091
676.800	0.0138174
676.878	0.0138839
676.956	0.0138620
677.035	0.0138191
677.113	0.0138755
677.191	0.0139030
677.269	0.0139698
677.347	0.0138136
677.425	0.0138332
677.503	0.0137251
677.581	0.0137875
677.660	0.0139236
677.738	0.0139128
677.816	0.0138608
677.894	0.0138776
677.972	0.0137699
678.050	0.0136784
678.128	0.0138504
678.206	0.0137426
678.285	0.0137720
678.363	0.0138836
678.441	0.0138818
678.519	0.0138451
678.597	0.0138887
678.675	0.0138556
678.753	0.0137470
678.831	0.0138026
678.910	0.0139172
678.988	0.0138194
679.066	0.0138162
679.144	0.0138480
679.222	0.0138427
679.300	0.0138494
679.378	0.0139321
679.456	0.0139039
679.535	0.0138749
679.613	0.0139899
679.691	0.0138416
679.769	0.0139632
679.847	0.0140472
679.925	0.0139481
680.003	0.0138539
680.081	0.0139941
680.160	0.0139863
680.238	0.0138799
680.316	0.0139194
680.394	0.0138665
680.472	0.0139513
680.550	0.0140575
680.628	0.0140387
680.706	0.0138778
680.785	0.0139215
680.863	0.0139993
680.941	0.0138803
681.019	0.0141154
681.097	0.0140372
681.175	0.0142377
681.253	0.0140714
681.331	0.0140453
681.410	0.0141857
681.488	0.0141021
681.566	0.0139671
681.644	0.0141676
681.722	0.0141573
681.800	0.0140891
681.878	0.0140936
681.956	0.0142030
682.035	0.0141532
682.113	0.0141589
682.191	0.0140289
682.269	0.0141499
682.347	0.0140956
682.425	0.0141524
682.503	0.0139394
682.581	0.0139183
682.660	0.0139812
682.738	0.0138855
682.816	0.0139012
682.894	0.0138647
682.972	0.0139736
683.050	0.0140453
683.128	0.0138308
683.206	0.0139561
683.285	0.0137856
683.363	0.0138303
683.441	0.0139261
683.519	0.0139213
683.597	0.0138902
683.675	0.0139167
683.753	0.0140296
683.831	0.0140082
683.910	0.0139109
683.988	0.0137985
684.066	0.0138129
684.144	0.0138348
684.222	0.0139077
684.300	0.0139574
684.378	0.0138734
684.456	0.0138422
684.535	0.0139098
684.613	0.0140118
684.691	0.0140679
684.769	0.0139927
684.847	0.0140622
684.925	0.0139754
685.003	0.0141328
685.081	0.0139294
685.160	0.0139804
685.238	0.0141431
685.316	0.0141068
685.394	0.0140517
685.472	0.0140552
685.550	0.0140372
685.628	0.0137897
685.706	0.0138811
685.785	0.0141299
685.863	0.0141213
685.941	0.0140485
686.019	0.0140650
686.097	0.0140373
686.175	0.0140355
686.253	0.0140380
686.331	0.0139464
686.410	0.0138477
686.488	0.0140338
686.566	0.0141083
686.644	0.0140253
686.722	0.0141267
686.800	0.0139349
686.878	0.0139236
686.956	0.0139798
687.035	0.0140897
687.113	0.0139764
687.191	0.0140360
687.269	0.0140279
687.347	0.0139888
687.425	0.0139348
687.503	0.0140446
687.581	0.0140290
687.660	0.0139244
687.738	0.0141260
687.816	0.0141522
687.894	0.0141220
687.972	0.0139906
688.050	0.0139873
688.128	0.0142127
688.206	0.0141171
688.285	0.0140755
688.363	0.0140128
688.441	0.0141645
688.519	0.0141531
688.597	0.0140740
688.675	0.0139520
688.753	0.0140681
688.831	0.0139370
688.910	0.0139725
688.988	0.0140314
689.066	0.0138211
689.144	0.0140044
689.222	0.0139849
689.300	0.0139654
689.378	0.0139680
689.456	0.0139984
689.535	0.0140753
689.613	0.0139663
689.691	0.0140462
689.769	0.0141821
689.847	0.0141026
689.925	0.0139799
690.003	0.0138853
690.081	0.0139922
690.160	0.0139682
690.238	0.0140790
690.316	0.0139835
690.394	0.0139878
690.472	0.0141563
690.550	0.0141750
690.628	0.0141041
690.706	0.0142376
690.785	0.0142093
690.863	0.0141471
690.941	0.0141587
691.019	0.0139936
691.097	0.0141916
691.175	0.0141718
691.253	0.0141046
691.331	0.0141284
691.410	0.0141473
691.488	0.0141484
691.566	0.0141738
691.644	0.0142267
691.722	0.0141998
691.800	0.0141048
691.878	0.0140078
691.956	0.0140072
692.035	0.0140084
692.113	0.0140800
692.191	0.0139382
692.269	0.0140529
692.347	0.0140173
692.425	0.0140311
692.503	0.0139676
692.581	0.0139145
692.660	0.0141030
692.738	0.0141981
692.816	0.0141428
692.894	0.0141376
692.972	0.0141803
693.050	0.0140657
693.128	0.0141138
693.206	0.0142013
693.285	0.0140897
693.363	0.0142078
693.441	0.0141104
693.519	0.0139619
693.597	0.0139788
693.675	0.0138547
693.753	0.0140182
693.831	0.0138882
693.910	0.0138858
693.988	0.0139189
694.066	0.0139038
694.144	0.0138487
694.222	0.0138108
694.300	0.0139273
694.378	0.0140044
694.456	0.0140248
694.535	0.0139584
694.613	0.0139005
694.691	0.0141489
694.769	0.0140075
694.847	0.0140612
694.925	0.0140369
695.003	0.0139658
695.081	0.0140133
695.160	0.0139964
695.238	0.0139783
695.316	0.0139737
695.394	0.0138637
695.472	0.0138290
695.550	0.0139024
695.628	0.0139154
695.706	0.0138296
695.785	0.0137141
695.863	0.0138179
695.941	0.0139381
696.019	0.0138352
696.097	0.0137811
696.175	0.0137174
696.253	0.0138702
696.331	0.0140417
696.410	0.0139535
696.488	0.0138287
696.566	0.0139592
696.644	0.0140402
696.722	0.0139445
696.800	0.0138869
696.878	0.0138965
696.956	0.0139087
697.035	0.0138977
697.113	0.0139711
697.191	0.0139528
697.269	0.0139777
697.347	0.0140353
697.425	0.0138042
697.503	0.0140043
697.581	0.0140051
697.660	0.0138338
697.738	0.0137879
697.816	0.0138652
697.894	0.0138855
697.972	0.0139158
698.050	0.0139410
698.128	0.0138680
698.206	0.0138138
698.285	0.0139400
698.363	0.0138934
698.441	0.0139147
698.519	0.0138686
698.597	0.0136826
698.675	0.0139272
698.753	0.0139324
698.831	0.0139349
698.910	0.0139684
698.988	0.0140087
699.066	0.0140374
699.144	0.0141316
699.222	0.0139751
699.300	0.0141414
699.378	0.0139530
699.456	0.0140574
699.535	0.0139522
699.613	0.0138608
699.691	0.0138553
699.769	0.0139558
699.847	0.0139228
699.925	0.0137662
700.003	0.0139191
700.081	0.0139531
700.160	0.0138206
700.238	0.0139533
700.316	0.0139859
700.394	0.0139766
700.472	0.0139256
700.550	0.0139343
700.628	0.0139391
700.706	0.0139822
700.785	0.0138792
700.863	0.0139664
700.941	0.0139268
701.019	0.0139741
701.097	0.0138239
701.175	0.0138393
701.253	0.0138440
701.331	0.0140088
701.410	0.0139124
701.488	0.0137054
701.566	0.0138270
701.644	0.0139330
701.722	0.0137350
701.800	0.0138796
701.878	0.0139882
701.956	0.0138400
702.035	0.0138430
702.113	0.0138646
702.191	0.0137203
702.269	0.0138741
702.347	0.0139534
702.425	0.0139944
702.503	0.0139371
702.581	0.0139786
702.660	0.0139394
702.738	0.0139901
702.816	0.0138703
702.894	0.0138914
702.972	0.0139931
703.050	0.0138148
703.128	0.0138741
703.206	0.0139339
703.285	0.0139643
703.363	0.0139710
703.441	0.0141251
703.519	0.0139682
703.597	0.0139928
703.675	0.0140462
703.753	0.0140247
703.831	0.0138964
703.910	0.0139400
703.988	0.0140525
704.066	0.0140718
704.144	0.0139651
704.222	0.0140546
704.300	0.0140372
704.378	0.0139523
704.456	0.0142348
704.535	0.0140517
704.613	0.0140029
704.691	0.0140742
704.769	0.0141632
704.847	0.0139948
704.925	0.0140601
705.003	0.0140495
705.081	0.0140693
705.160	0.0140796
705.238	0.0141315
705.316	0.0140046
705.394	0.0140743
705.472	0.0139831
705.550	0.0140236
705.628	0.0141961
705.706	0.0141255
705.785	0.0139065
705.863	0.0140041
705.941	0.0139919
706.019	0.0141110
706.097	0.0140522
706.175	0.0140958
706.253	0.0140139
706.331	0.0139885
706.410	0.0139747
706.488	0.0139947
706.566	0.0139133
706.644	0.0139547
706.722	0.0139993
706.800	0.0140652
706.878	0.0141180
706.956	0.0140710
707.035	0.0141917
707.113	0.0142835
707.191	0.0139579
707.269	0.0139998
707.347	0.0141334
707.425	0.0140854
707.503	0.0141900
707.581	0.0141704
707.660	0.0140360
707.738	0.0139645
707.816	0.0140094
707.894	0.0138406
707.972	0.0140112
708.050	0.0142342
708.128	0.0139154
708.206	0.0139801
708.285	0.0139854
708.363	0.0138196
708.441	0.0140894
708.519	0.0139444
708.597	0.0140196
708.675	0.0140064
708.753	0.0140128
708.831	0.0139232
708.910	0.0138914
708.988	0.0139895
709.066	0.0139971
709.144	0.0140408
709.222	0.0140260
709.300	0.0139371
709.378	0.0139375
709.456	0.0138942
709.535	0.0139546
709.613	0.0140456
709.691	0.0139258
709.769	0.0139043
709.847	0.0139894
709.925	0.0139298
710.003	0.0139022
710.081	0.0140009
710.160	0.0139473
710.238	0.0138852
710.316	0.0139776
710.394	0.0138734
710.472	0.0140118
710.550	0.0139581
710.628	0.0139444
710.706	0.0139635
710.785	0.0141319
710.863	0.0141927
710.941	0.0139262
711.019	0.0141051
711.097	0.0139596
711.175	0.0141122
711.253	0.0140882
711.331	0.0140916
711.410	0.0140713
711.488	0.0140896
711.566	0.0141438
711.644	0.0140179
711.722	0.0139636
711.800	0.0139095
711.878	0.0141080
711.956	0.0140716
712.035	0.0140022
712.113	0.0140368
712.191	0.0140045
712.269	0.0140079
712.347	0.0141586
712.425	0.0140327
712.503	0.0140188
712.581	0.0139756
712.660	0.0141389
712.738	0.0141029
712.816	0.0140283
712.894	0.0140868
712.972	0.0139892
713.050	0.0138802
713.128	0.0139709
713.206	0.0140203
713.285	0.0138705
713.363	0.0139700
713.441	0.0138226
713.519	0.0138074
713.597	0.0139165
713.675	0.0139058
713.753	0.0139133
713.831	0.0140240
713.910	0.0140604
713.988	0.0140326
714.066	0.0140739
714.144	0.0141407
714.222	0.0139636
714.300	0.0140715
714.378	0.0140485
714.456	0.0139921
714.535	0.0140113
714.613	0.0140691
714.691	0.0140757
714.769	0.0141905
714.847	0.0138522
714.925	0.0138869
715.003	0.0140940
715.081	0.0140659
715.160	0.0138408
715.238	0.0138982
715.316	0.0140698
715.394	0.0139938
715.472	0.0139442
715.550	0.0139947
715.628	0.0140588
715.706	0.0141060
715.785	0.0140862
715.863	0.0140689
715.941	0.0141324
716.019	0.0138640
716.097	0.0139566
716.175	0.0138901
716.253	0.0140412
716.331	0.0140134
716.410	0.0141102
716.488	0.0140102
716.566	0.0139387
716.644	0.0139491
716.722	0.0139800
716.800	0.0138572
716.878	0.0140431
716.956	0.0140712
717.035	0.0140858
717.113	0.0139475
717.191	0.0140425
717.269	0.0141656
717.347	0.0139560
717.425	0.0140599
717.503	0.0140959
717.581	0.0139104
717.660	0.0140988
717.738	0.0140341
717.816	0.0139438
717.894	0.0140034
717.972	0.0140731
718.050	0.0140848
718.128	0.0139191
718.206	0.0139915
718.285	0.0140462
718.363	0.0141790
718.441	0.0140762
718.519	0.0140027
718.597	0.0140974
718.675	0.0140475
718.753	0.0140417
718.831	0.0140667
718.910	0.0140273
718.988	0.0140018
719.066	0.0140115
719.144	0.0138335
719.222	0.0138863
719.300	0.0140609
719.378	0.0138072
719.456	0.0139057
719.535	0.0139754
719.613	0.0138326
719.691	0.0139412
719.769	0.0139417
719.847	0.0138209
719.925	0.0137943
720.003	0.0139424
720.081	0.0138642
720.160	0.0139789
720.238	0.0139491
720.316	0.0137798
720.394	0.0139027
720.472	0.0137772
720.550	0.0139513
720.628	0.0138999
720.706	0.0139527
720.785	0.0138747
720.863	0.0138645
720.941	0.0140060
721.019	0.0139525
721.097	0.0137825
721.175	0.0139579
721.253	0.0139543
721.331	0.0140076
721.410	0.0138875
721.488	0.0138476
721.566	0.0138866
721.644	0.0137319
721.722	0.0137946
721.800	0.0138823
721.878	0.0139551
721.956	0.0138157
722.035	0.0138662
722.113	0.0138728
722.191	0.0138726
722.269	0.0139098
722.347	0.0140012
722.425	0.0141481
722.503	0.0140443
722.581	0.0139376
722.660	0.0140845
722.738	0.0139301
722.816	0.0140925
722.894	0.0140166
722.972	0.0139966
723.050	0.0138760
723.128	0.0140596
723.206	0.0139949
723.285	0.0139078
723.363	0.0139105
723.441	0.0140259
723.519	0.0138453
723.597	0.0139211
723.675	0.0139601
723.753	0.0140287
723.831	0.0139943
723.910	0.0140098
723.988	0.0139935
724.066	0.0139854
724.144	0.0140625
724.222	0.0139925
724.300	0.0140166
724.378	0.0141486
724.456	0.0141229
724.535	0.0141782
724.613	0.0139616
724.691	0.0141298
724.769	0.0142097
724.847	0.0141965
724.925	0.0141305
725.003	0.0141598
725.081	0.0142641
725.160	0.0140891
725.238	0.0140487
725.316	0.0142883
725.394	0.0141445
725.472	0.0140654
725.550	0.0140931
725.628	0.0140541
725.706	0.0140753
725.785	0.0140623
725.863	0.0139480
725.941	0.0141707
726.019	0.0140825
726.097	0.0140484
726.175	0.0141344
726.253	0.0141592
726.331	0.0139087
726.410	0.0139820
726.488	0.0140909
726.566	0.0140706
726.644	0.0139756
726.722	0.0140054
726.800	0.0141902
726.878	0.0140357
726.956	0.0141445
727.035	0.0140284
727.113	0.0140001
727.191	0.0140070
727.269	0.0139039
727.347	0.0139534
727.425	0.0139849
727.503	0.0141409
727.581	0.0141010
727.660	0.0141589
727.738	0.0139697
727.816	0.0140712
727.894	0.0140559
727.972	0.0139596
728.050	0.0139806
728.128	0.0139902
728.206	0.0139226
728.285	0.0140212
728.363	0.0140910
728.441	0.0140218
728.519	0.0139098
728.597	0.0140618
728.675	0.0140137
728.753	0.0140150
728.831	0.0139512
728.910	0.0140011
728.988	0.0140685
729.066	0.0139701
729.144	0.0139959
729.222	0.0139562
729.300	0.0140735
729.378	0.0140211
729.456	0.0140153
729.535	0.0140218
729.613	0.0140858
729.691	0.0140260
729.769	0.0139045
729.847	0.0139757
729.925	0.0139417
730.003	0.0141367
730.081	0.0141299
730.160	0.0139876
730.238	0.0140329
730.316	0.0140383
730.394	0.0138345
730.472	0.0139253
730.550	0.0140884
730.628	0.0139349
730.706	0.0140528
730.785	0.0141252
730.863	0.0139731
730.941	0.0139762
731.019	0.0143137
731.097	0.0140375
731.175	0.0141051
731.253	0.0140471
731.331	0.0140756
731.410	0.0140630
731.488	0.0140702
731.566	0.0142407
731.644	0.0140726
731.722	0.0141210
731.800	0.0141511
731.878	0.0142987
731.956	0.0141774
732.035	0.0141854
732.113	0.0143755
732.191	0.0142487
732.269	0.0141073
732.347	0.0141173
732.425	0.0140831
732.503	0.0141832
732.581	0.0140842
732.660	0.0141520
732.738	0.0141258
732.816	0.0140581
732.894	0.0140761
732.972	0.0140131
733.050	0.0141385
733.128	0.0141199
733.206	0.0142104
733.285	0.0140228
733.363	0.0139165
733.441	0.0140649
733.519	0.0140804
733.597	0.0139961
733.675	0.0140425
733.753	0.0139788
733.831	0.0141028
733.910	0.0140318
733.988	0.0140340
734.066	0.0139552
734.144	0.0139441
734.222	0.0141669
734.300	0.0141093
734.378	0.0140187
734.456	0.0140305
734.535	0.0139877
734.613	0.0140486
734.691	0.0140662
734.769	0.0140688
734.847	0.0139625
734.925	0.0139762
735.003	0.0139792
735.081	0.0140227
735.160	0.0140774
735.238	0.0139379
735.316	0.0138145
735.394	0.0140268
735.472	0.0140469
735.550	0.0138762
735.628	0.0139221
735.706	0.0140435
735.785	0.0140597
735.863	0.0139831
735.941	0.0140700
736.019	0.0140670
736.097	0.0140319
736.175	0.0138929
736.253	0.0140299
736.331	0.0139509
736.410	0.0140186
736.488	0.0139825
736.566	0.0140270
736.644	0.0140147
736.722	0.0140665
736.800	0.0139105
736.878	0.0140071
736.956	0.0139727
737.035	0.0139533
737.113	0.0140255
737.191	0.0140492
737.269	0.0139947
737.347	0.0138863
737.425	0.0139864
737.503	0.0138905
737.581	0.0140090
737.660	0.0139474
737.738	0.0138705
737.816	0.0139036
737.894	0.0139204
737.972	0.0139065
738.050	0.0137470
738.128	0.0139989
738.206	0.0138216
738.285	0.0140814
738.363	0.0139700
738.441	0.0140797
738.519	0.0140181
738.597	0.0139655
738.675	0.0139831
738.753	0.0140557
738.831	0.0141512
738.910	0.0140527
738.988	0.0140432
739.066	0.0141146
739.144	0.0140439
739.222	0.0140366
739.300	0.0141336
739.378	0.0140265
739.456	0.0140168
739.535	0.0140450
739.613	0.0139178
739.691	0.0140285
739.769	0.0139258
739.847	0.0140582
739.925	0.0139526
740.003	0.0138773
740.081	0.0139602
740.160	0.0140518
740.238	0.0140078
740.316	0.0138702
740.394	0.0139590
740.472	0.0139034
740.550	0.0137067
740.628	0.0138432
740.706	0.0138216
740.785	0.0139262
740.863	0.0137712
740.941	0.0138998
741.019	0.0140137
741.097	0.0138798
741.175	0.0137819
741.253	0.0139014
741.331	0.0138657
741.410	0.0139018
741.488	0.0138935
741.566	0.0139095
741.644	0.0139507
741.722	0.0140365
741.800	0.0138139
741.878	0.0138489
741.956	0.0139773
742.035	0.0139129
742.113	0.0138822
742.191	0.0139886
742.269	0.0138404
742.347	0.0138716
742.425	0.0137791
742.503	0.0138968
742.581	0.0139201
742.660	0.0139925
742.738	0.0139048
742.816	0.0137586
742.894	0.0139623
742.972	0.0139090
743.050	0.0139377
743.128	0.0140279
743.206	0.0140034
743.285	0.0139211
743.363	0.0139767
743.441	0.0139568
743.519	0.0139439
743.597	0.0137054
743.675	0.0138927
743.753	0.0139845
743.831	0.0140067
743.910	0.0138818
743.988	0.0140133
744.066	0.0139453
744.144	0.0138850
744.222	0.0139344
744.300	0.0140457
744.378	0.0139227
744.456	0.0139205
744.535	0.0138048
744.613	0.0140311
744.691	0.0138219
744.769	0.0138500
744.847	0.0139693
744.925	0.0139253
745.003	0.0140475
745.081	0.0138866
745.160	0.0138468
745.238	0.0139104
745.316	0.0140343
745.394	0.0142181
745.472	0.0141968
745.550	0.0141009
745.628	0.0140176
745.706	0.0140052
745.785	0.0141892
745.863	0.0141595
745.941	0.0141201
746.019	0.0141837
746.097	0.0142464
746.175	0.0143163
746.253	0.0142291
746.331	0.0140476
746.410	0.0141735
746.488	0.0142350
746.566	0.0141312
746.644	0.0141803
746.722	0.0141016
746.800	0.0141010
746.878	0.0139976
746.956	0.0141506
747.035	0.0141261
747.113	0.0141817
747.191	0.0140974
747.269	0.0140815
747.347	0.0139320
747.425	0.0139779
747.503	0.0139629
747.581	0.0139895
747.660	0.0139351
747.738	0.0139210
747.816	0.0140112
747.894	0.0139709
747.972	0.0139456
748.050	0.0139822
748.128	0.0139825
748.206	0.0139108
748.285	0.0139085
748.363	0.0139408
748.441	0.0140751
748.519	0.0139268
748.597	0.0139607
748.675	0.0139806
748.753	0.0139013
748.831	0.0139327
748.910	0.0140097
748.988	0.0139205
749.066	0.0139970
749.144	0.0139753
749.222	0.0139426
749.300	0.0139095
749.378	0.0140278
749.456	0.0139938
749.535	0.0140273
749.613	0.0138419
749.691	0.0139870
749.769	0.0139154
749.847	0.0139906
749.925	0.0139734
750.003	0.0139377
750.081	0.0139303
750.160	0.0139044
750.238	0.0138862
750.316	0.0138728
750.394	0.0138499
750.472	0.0139308
750.550	0.0139130
750.628	0.0138996
750.706	0.0139349
750.785	0.0139632
750.863	0.0138773
750.941	0.0139099
751.019	0.0139671
751.097	0.0139575
751.175	0.0139106
751.253	0.0140338
751.331	0.0139194
751.410	0.0139180
751.488	0.0139473
751.566	0.0138779
751.644	0.0138925
751.722	0.0139602
751.800	0.0141417
751.878	0.0140382
751.956	0.0138934
752.035	0.0140282
752.113	0.0140980
752.191	0.0139534
752.269	0.0139651
752.347	0.0140261
752.425	0.0140260
752.503	0.0139192
752.581	0.0139379
752.660	0.0141165
752.738	0.0141087
752.816	0.0140450
752.894	0.0141026
752.972	0.0142295
753.050	0.0141175
753.128	0.0141492
753.206	0.0141237
753.285	0.0139793
753.363	0.0142048
753.441	0.0142200
753.519	0.0142665
753.597	0.0140578
753.675	0.0140292
753.753	0.0140976
753.831	0.0142999
753.910	0.0142056
753.988	0.0141716
754.066	0.0141353
754.144	0.0141874
754.222	0.0141271
754.300	0.0142210
754.378	0.0142002
754.456	0.0140260
754.535	0.0140646
754.613	0.0140345
754.691	0.0139944
754.769	0.0141826
754.847	0.0140031
754.925	0.0138779
755.003	0.0139687
755.081	0.0140719
755.160	0.0140044
755.238	0.0141302
755.316	0.0141061
755.394	0.0141412
755.472	0.0140804
755.550	0.0141734
755.628	0.0141443
755.706	0.0141077
755.785	0.0141045
755.863	0.0140640
755.941	0.0141077
756.019	0.0140300
756.097	0.0140787
756.175	0.0140278
756.253	0.0139430
756.331	0.0139415
756.410	0.0141264
756.488	0.0138879
756.566	0.0139615
756.644	0.0139944
756.722	0.0139954
756.800	0.0139491
756.878	0.0141029
756.956	0.0140641
757.035	0.0139282
757.113	0.0140652
757.191	0.0139321
757.269	0.0139214
757.347	0.0140933
757.425	0.0140036
757.503	0.0139874
757.581	0.0139745
757.660	0.0139233
757.738	0.0141949
757.816	0.0140031
757.894	0.0139524
757.972	0.0139692
758.050	0.0139554
758.128	0.0140063
758.206	0.0139346
758.285	0.0140070
758.363	0.0141278
758.441	0.0140818
758.519	0.0140554
758.597	0.0141123
758.675	0.0140659
758.753	0.0140401
758.831	0.0140527
758.910	0.0141119
758.988	0.0140406
759.066	0.0140120
759.144	0.0142220
759.222	0.0140609
759.300	0.0140530
759.378	0.0140407
759.456	0.0139870
759.535	0.0139870
759.613	0.0140340
759.691	0.0141880
759.769	0.0142023
759.847	0.0140278
759.925	0.0141185
760.003	0.0141846
760.081	0.0141798
760.160	0.0140414
760.238	0.0141662
760.316	0.0141777
760.394	0.0142356
760.472	0.0142528
760.550	0.0141676
760.628	0.0142214
760.706	0.0143177
760.785	0.0144141
760.863	0.0141963
760.941	0.0141045
761.019	0.0141392
761.097	0.0141901
761.175	0.0141569
761.253	0.0141001
761.331	0.0142026
761.410	0.0140587
761.488	0.0141055
761.566	0.0141193
761.644	0.0140981
761.722	0.0140248
761.800	0.0140063
761.878	0.0139141
761.956	0.0140609
762.035	0.0139935
762.113	0.0137046
762.191	0.0139133
762.269	0.0139806
762.347	0.0139574
762.425	0.0139040
762.503	0.0139629
762.581	0.0140051
762.660	0.0139217
762.738	0.0139230
762.816	0.0137962
762.894	0.0140452
762.972	0.0138208
763.050	0.0139608
763.128	0.0139375
763.206	0.0139133
763.285	0.0138612
763.363	0.0138013
763.441	0.0137895
763.519	0.0139324
763.597	0.0139613
763.675	0.0139510
763.753	0.0137748
763.831	0.0138828
763.910	0.0139989
763.988	0.0138928
764.066	0.0139693
764.144	0.0138924
764.222	0.0138772
764.300	0.0139632
764.378	0.0139497
764.456	0.0138255
764.535	0.0140088
764.613	0.0139980
764.691	0.0139862
764.769	0.0139347
764.847	0.0138823
764.925	0.0138039
765.003	0.0140701
765.081	0.0138604
765.160	0.0138042
765.238	0.0139828
765.316	0.0139086
765.394	0.0140353
765.472	0.0139294
765.550	0.0141000
765.628	0.0139881
765.706	0.0139944
765.785	0.0139464
765.863	0.0139310
765.941	0.0139382
766.019	0.0139597
766.097	0.0140613
766.175	0.0139941
766.253	0.0139090
766.331	0.0138949
766.410	0.0141051
766.488	0.0139186
766.566	0.0139645
766.644	0.0140222
766.722	0.0139458
766.800	0.0139698
766.878	0.0140014
766.956	0.0140411
767.035	0.0140514
767.113	0.0140303
767.191	0.0139445
767.269	0.0140049
767.347	0.0140241
767.425	0.0140758
767.503	0.0141151
767.581	0.0141362
767.660	0.0144698
767.738	0.0141506
767.816	0.0141662
767.894	0.0141409
767.972	0.0141441
768.050	0.0142816
768.128	0.0143238
768.206	0.0141530
768.285	0.0141045
768.363	0.0139709
768.441	0.0142191
768.519	0.0141899
768.597	0.0141038
768.675	0.0140311
768.753	0.0140376
768.831	0.0141032
768.910	0.0140176
768.988	0.0139447
769.066	0.0138097
769.144	0.0138425
769.222	0.0138041
769.300	0.0140401
769.378	0.0139179
769.456	0.0138613
769.535	0.0138569
769.613	0.0138846
769.691	0.0139584
769.769	0.0139150
769.847	0.0137447
769.925	0.0139628
770.003	0.0140788
770.081	0.0137978
770.160	0.0138469
770.238	0.0139138
770.316	0.0140237
770.394	0.0140592
770.472	0.0139379
770.550	0.0138396
770.628	0.0138741
770.706	0.0139232
770.785	0.0139256
770.863	0.0137321
770.941	0.0139491
771.019	0.0139127
771.097	0.0139062
771.175	0.0138085
771.253	0.0138496
771.331	0.0139072
771.410	0.0139284
771.488	0.0140234
771.566	0.0139510
771.644	0.0138247
771.722	0.0139149
771.800	0.0139724
771.878	0.0137936
771.956	0.0139307
772.035	0.0140268
772.113	0.0140189
772.191	0.0138527
772.269	0.0140264
772.347	0.0139650
772.425	0.0139757
772.503	0.0139385
772.581	0.0140482
772.660	0.0140138
772.738	0.0139042
772.816	0.0138799
772.894	0.0139394
772.972	0.0140201
773.050	0.0139556
773.128	0.0139444
773.206	0.0139921
773.285	0.0139487
773.363	0.0138957
773.441	0.0140358
773.519	0.0140576
773.597	0.0139595
773.675	0.0140041
773.753	0.0140198
773.831	0.0138974
773.910	0.0140095
773.988	0.0139915
774.066	0.0139786
774.144	0.0138261
774.222	0.0140915
774.300	0.0141080
774.378	0.0141714
774.456	0.0141436
774.535	0.0140994
774.613	0.0141007
774.691	0.0141943
774.769	0.0141880
774.847	0.0140607
774.925	0.0142393
775.003	0.0141704
775.081	0.0141381
775.160	0.0140738
775.238	0.0141351
775.316	0.0142630
775.394	0.0141843
775.472	0.0141662
775.550	0.0142725
775.628	0.0142577
775.706	0.0141341
775.785	0.0141211
775.863	0.0140861
775.941	0.0141085
776.019	0.0140310
776.097	0.0139072
776.175	0.0140229
776.253	0.0140546
776.331	0.0140538
776.410	0.0139209
776.488	0.0138531
776.566	0.0139602
776.644	0.0139265
776.722	0.0139053
776.800	0.0140613
776.878	0.0138874
776.956	0.0138770
777.035	0.0139684
777.113	0.0140707
777.191	0.0139565
777.269	0.0138877
777.347	0.0138315
777.425	0.0140216
777.503	0.0138148
777.581	0.0137832
777.660	0.0138738
777.738	0.0139498
777.816	0.0139231
777.894	0.0139247
777.972	0.0139502
778.050	0.0139850
778.128	0.0138394
778.206	0.0138694
778.285	0.0139355
778.363	0.0139060
778.441	0.0137247
778.519	0.0138646
778.597	0.0138647
778.675	0.0139831
778.753	0.0138500
778.831	0.0138205
778.910	0.0138957
778.988	0.0138663
779.066	0.0139143
779.144	0.0138861
779.222	0.0139146
779.300	0.0140527
779.378	0.0139537
779.456	0.0138412
779.535	0.0138171
779.613	0.0139355
779.691	0.0140170
779.769	0.0139661
779.847	0.0139778
779.925	0.0139555
780.003	0.0139644
780.081	0.0137695
780.160	0.0140159
780.238	0.0140289
780.316	0.0139691
780.394	0.0139458
780.472	0.0140987
780.550	0.0139723
780.628	0.0139883
780.706	0.0139409
780.785	0.0139362
780.863	0.0138977
780.941	0.0139994
781.019	0.0140459
781.097	0.0140346
781.175	0.0141142
781.253	0.0140649
781.331	0.0140067
781.410	0.0140972
781.488	0.0140860
781.566	0.0142183
781.644	0.0141154
781.722	0.0141093
781.800	0.0142548
781.878	0.0143185
781.956	0.0142445
782.035	0.0143233
782.113	0.0143333
782.191	0.0141599
782.269	0.0143076
782.347	0.0142038
782.425	0.0142957
782.503	0.0143755
782.581	0.0143652
782.660	0.0142695
782.738	0.0142256
782.816	0.0143184
782.894	0.0142937
782.972	0.0142067
783.050	0.0143132
783.128	0.0143062
783.206	0.0141808
783.285	0.0141095
783.363	0.0141915
783.441	0.0141389
783.519	0.0141839
783.597	0.0141335
783.675	0.0142166
783.753	0.0140971
783.831	0.0140434
783.910	0.0140582
783.988	0.0140769
784.066	0.0141640
784.144	0.0140488
784.222	0.0139767
784.300	0.0140558
784.378	0.0141212
784.456	0.0140026
784.535	0.0140099
784.613	0.0140449
784.691	0.0139449
784.769	0.0139366
784.847	0.0139568
784.925	0.0139734
785.003	0.0139701
785.081	0.0138530
785.160	0.0139881
785.238	0.0139428
785.316	0.0138554
785.394	0.0139525
785.472	0.0139774
785.550	0.0138602
785.628	0.0138982
785.706	0.0139462
785.785	0.0139286
785.863	0.0138723
785.941	0.0138796
786.019	0.0139116
786.097	0.0139320
786.175	0.0139569
786.253	0.0139354
786.331	0.0139459
786.410	0.0140654
786.488	0.0138889
786.566	0.0139871
786.644	0.0139854
786.722	0.0140215
786.800	0.0139755
786.878	0.0139265
786.956	0.0139524
787.035	0.0140308
787.113	0.0139571
787.191	0.0139601
787.269	0.0138766
787.347	0.0140629
787.425	0.0139755
787.503	0.0139874
787.581	0.0138401
787.660	0.0139543
787.738	0.0139307
787.816	0.0139873
787.894	0.0139230
787.972	0.0139268
788.050	0.0139840
788.128	0.0139198
788.206	0.0139547
788.285	0.0140689
788.363	0.0142027
788.441	0.0139726
788.519	0.0140863
788.597	0.0140351
788.675	0.0141122
788.753	0.0140546
788.831	0.0139661
788.910	0.0142538
788.988	0.0141094
789.066	0.0140617
789.144	0.0141872
789.222	0.0142093
789.300	0.0141716
789.378	0.0141371
789.456	0.0141528
789.535	0.0141245
789.613	0.0141309
789.691	0.0142948
789.769	0.0142068
789.847	0.0142343
789.925	0.0142737
790.003	0.0142958
790.081	0.0141314
790.160	0.0141173
790.238	0.0142413
790.316	0.0142255
790.394	0.0140588
790.472	0.0140225
790.550	0.0140893
790.628	0.0141003
790.706	0.0138184
790.785	0.0139434
790.863	0.0138866
790.941	0.0138990
791.019	0.0139963
791.097	0.0139059
791.175	0.0139390
791.253	0.0139180
791.331	0.0140614
791.410	0.0138735
791.488	0.0138818
791.566	0.0138461
791.644	0.0138745
791.722	0.0139076
791.800	0.0138131
791.878	0.0139032
791.956	0.0139904
792.035	0.0138293
792.113	0.0140005
792.191	0.0138495
792.269	0.0137955
792.347	0.0138426
792.425	0.0138451
792.503	0.0140585
792.581	0.0139828
792.660	0.0139489
792.738	0.0138571
792.816	0.0139413
792.894	0.0139620
792.972	0.0139953
793.050	0.0138206
793.128	0.0138375
793.206	0.0139989
793.285	0.0141179
793.363	0.0140475
793.441	0.0139740
793.519	0.0139623
793.597	0.0139816
793.675	0.0138942
793.753	0.0138967
793.831	0.0139680
793.910	0.0140350
793.988	0.0140335
794.066	0.0140002
794.144	0.0139178
794.222	0.0140726
794.300	0.0140461
794.378	0.0140562
794.456	0.0140121
794.535	0.0140310
794.613	0.0138970
794.691	0.0139796
794.769	0.0140244
794.847	0.0138805
794.925	0.0138283
795.003	0.0139188
795.081	0.0139301
795.160	0.0139938
795.238	0.0138805
795.316	0.0139363
795.394	0.0138192
795.472	0.0138956
795.550	0.0139254
795.628	0.0138818
795.706	0.0140841
795.785	0.0139668
795.863	0.0140114
795.941	0.0140030
796.019	0.0140096
796.097	0.0141196
796.175	0.0140031
796.253	0.0139633
796.331	0.0139394
796.410	0.0140428
796.488	0.0141701
796.566	0.0141815
796.644	0.0141331
796.722	0.0141833
796.800	0.0142373
796.878	0.0141827
796.956	0.0142805
797.035	0.0141970
797.113	0.0141612
797.191	0.0142265
797.269	0.0141424
797.347	0.0141437
797.425	0.0141152
797.503	0.0140847
797.581	0.0140322
797.660	0.0140060
797.738	0.0141251
797.816	0.0140442
797.894	0.0139864
797.972	0.0138783
798.050	0.0139295
798.128	0.0139939
798.206	0.0139616
798.285	0.0139414
798.363	0.0138432
798.441	0.0139391
798.519	0.0139209
798.597	0.0139312
798.675	0.0138838
798.753	0.0139901
798.831	0.0139542
798.910	0.0140182
798.988	0.0139104
799.066	0.0139526
799.144	0.0138776
799.222	0.0139005
799.300	0.0139914
799.378	0.0139072
799.456	0.0139803
799.535	0.0139175
799.613	0.0138014
799.691	0.0138789
799.769	0.0138934
799.847	0.0139523
799.925	0.0138158
800.003	0.0138090
800.081	0.0139126
800.160	0.0138354
800.238	0.0138919
800.316	0.0138313
800.394	0.0138451
800.472	0.0138354
800.550	0.0138188
800.628	0.0139459
800.706	0.0139397
800.785	0.0138191
800.863	0.0139915
800.941	0.0140141
801.019	0.0139001
801.097	0.0138541
801.175	0.0138631
801.253	0.0138357
801.331	0.0138074
801.410	0.0139135
801.488	0.0139468
801.566	0.0140557
801.644	0.0139808
801.722	0.0138861
801.800	0.0139374
801.878	0.0138580
801.956	0.0138958
802.035	0.0139671
802.113	0.0139778
802.191	0.0138801
802.269	0.0138645
802.347	0.0139254
802.425	0.0138190
802.503	0.0138432
802.581	0.0140230
802.660	0.0140057
802.738	0.0139118
802.816	0.0138731
802.894	0.0140440
802.972	0.0138400
803.050	0.0139282
803.128	0.0139720
803.206	0.0138429
803.285	0.0139182
803.363	0.0139956
803.441	0.0139529
803.519	0.0139075
803.597	0.0141801
803.675	0.0141245
803.753	0.0141025
803.831	0.0140180
803.910	0.0140807
803.988	0.0141931
804.066	0.0141749
804.144	0.0141638
804.222	0.0143115
804.300	0.0140445
804.378	0.0141908
804.456	0.0141048
804.535	0.0140901
804.613	0.0142365
804.691	0.0140852
804.769	0.0141647
804.847	0.0141895
804.925	0.0140141
805.003	0.0141891
805.081	0.0139449
805.160	0.0139679
805.238	0.0140511
805.316	0.0140107
805.394	0.0139780
805.472	0.0139726
805.550	0.0138754
805.628	0.0138537
805.706	0.0139425
805.785	0.0139747
805.863	0.0139323
805.941	0.0141142
806.019	0.0139873
806.097	0.0139782
806.175	0.0140910
806.253	0.0139931
806.331	0.0140579
806.410	0.0139624
806.488	0.0139967
806.566	0.0140855
806.644	0.0140605
806.722	0.0140268
806.800	0.0139695
806.878	0.0140760
806.956	0.0139162
807.035	0.0138834
807.113	0.0139378
807.191	0.0139220
807.269	0.0139879
807.347	0.0139492
807.425	0.0139803
807.503	0.0139989
807.581	0.0140140
807.660	0.0139869
807.738	0.0140949
807.816	0.0139983
807.894	0.0141815
807.972	0.0140558
808.050	0.0140703
808.128	0.0140881
808.206	0.0140939
808.285	0.0141242
808.363	0.0141274
808.441	0.0139892
808.519	0.0140707
808.597	0.0140891
808.675	0.0140704
808.753	0.0140611
808.831	0.0140804
808.910	0.0141891
808.988	0.0142429
809.066	0.0140840
809.144	0.0139711
809.222	0.0141837
809.300	0.0140500
809.378	0.0141718
809.456	0.0139697
809.535	0.0140826
809.613	0.0140343
809.691	0.0140498
809.769	0.0139969
809.847	0.0139696
809.925	0.0140562
810.003	0.0141273
810.081	0.0140641
810.160	0.0141596
810.238	0.0142645
810.316	0.0140644
810.394	0.0142258
810.472	0.0142711
810.550	0.0141877
810.628	0.0142352
810.706	0.0142340
810.785	0.0142293
810.863	0.0142281
810.941	0.0141419
811.019	0.0142773
811.097	0.0143298
811.175	0.0142207
811.253	0.0143163
811.331	0.0143884
811.410	0.0142710
811.488	0.0142898
811.566	0.0143215
811.644	0.0141521
811.722	0.0142397
811.800	0.0142654
811.878	0.0141972
811.956	0.0142093
812.035	0.0139946
812.113	0.0140384
812.191	0.0141261
812.269	0.0139742
812.347	0.0140154
812.425	0.0140424
812.503	0.0139722
812.581	0.0139017
812.660	0.0140762
812.738	0.0139337
812.816	0.0138918
812.894	0.0137678
812.972	0.0138461
813.050	0.0139195
813.128	0.0138578
813.206	0.0138837
813.285	0.0138342
813.363	0.0139121
813.441	0.0138590
813.519	0.0140001
813.597	0.0138683
813.675	0.0137390
813.753	0.0140048
813.831	0.0139438
813.910	0.0139392
813.988	0.0139062
814.066	0.0139806
814.144	0.0139641
814.222	0.0139023
814.300	0.0139777
814.378	0.0137893
814.456	0.0138849
814.535	0.0139484
814.613	0.0139223
814.691	0.0140411
814.769	0.0139923
814.847	0.0139890
814.925	0.0139580
815.003	0.0139277
815.081	0.0140016
815.160	0.0139775
815.238	0.0140854
815.316	0.0141135
815.394	0.0139790
815.472	0.0139307
815.550	0.0139884
815.628	0.0141245
815.706	0.0139122
815.785	0.0140898
815.863	0.0140868
815.941	0.0140264
816.019	0.0140923
816.097	0.0140991
816.175	0.0140656
816.253	0.0139911
816.331	0.0140252
816.410	0.0139714
816.488	0.0140543
816.566	0.0139385
816.644	0.0137951
816.722	0.0140480
816.800	0.0140907
816.878	0.0140770
816.956	0.0139282
817.035	0.0138682
817.113	0.0140224
817.191	0.0139035
817.269	0.0139692
817.347	0.0140269
817.425	0.0139589
817.503	0.0140450
817.581	0.0140797
817.660	0.0140791
817.738	0.0139342
817.816	0.0138809
817.894	0.0140844
817.972	0.0140237
818.050	0.0139102
818.128	0.0138683
818.206	0.0140387
818.285	0.0140509
818.363	0.0140237
818.441	0.0138934
818.519	0.0140099
818.597	0.0140926
818.675	0.0138411
818.753	0.0139085
818.831	0.0140035
818.910	0.0140565
818.988	0.0139088
819.066	0.0139240
819.144	0.0138392
819.222	0.0139264
819.300	0.0138622
819.378	0.0139375
819.456	0.0139024
819.535	0.0138878
819.613	0.0139057
819.691	0.0138902
819.769	0.0138291
819.847	0.0136795
819.925	0.0137380
820.003	0.0138145
820.081	0.0137636
820.160	0.0136603
820.238	0.0137353
820.316	0.0137494
820.394	0.0137779
820.472	0.0137981
820.550	0.0138912
820.628	0.0138850
820.706	0.0138187
820.785	0.0138926
820.863	0.0137696
820.941	0.0137851
821.019	0.0138301
821.097	0.0137939
821.175	0.0139716
821.253	0.0138839
821.331	0.0139574
821.410	0.0140643
821.488	0.0140757
821.566	0.0139536
821.644	0.0139415
821.722	0.0140331
821.800	0.0140683
821.878	0.0140343
821.956	0.0140426
822.035	0.0140209
822.113	0.0140842
822.191	0.0141187
822.269	0.0140595
822.347	0.0140881
822.425	0.0141169
822.503	0.0140407
822.581	0.0140773
822.660	0.0139509
822.738	0.0141416
822.816	0.0141633
822.894	0.0140699
822.972	0.0139681
823.050	0.0139877
823.128	0.0140206
823.206	0.0142331
823.285	0.0140094
823.363	0.0140778
823.441	0.0142400
823.519	0.0141421
823.597	0.0140565
823.675	0.0139683
823.753	0.0138883
823.831	0.0141002
823.910	0.0140321
823.988	0.0139577
824.066	0.0139636
824.144	0.0139214
824.222	0.0139850
824.300	0.0138641
824.378	0.0139272
824.456	0.0140270
824.535	0.0140082
824.613	0.0140543
824.691	0.0139954
824.769	0.0141285
824.847	0.0141283
824.925	0.0141742
825.003	0.0140617
825.081	0.0140697
825.160	0.0140327
825.238	0.0139809
825.316	0.0139810
825.394	0.0139682
825.472	0.0141048
825.550	0.0141538
825.628	0.0140975
825.706	0.0141197
825.785	0.0141985
825.863	0.0141468
825.941	0.0140523
826.019	0.0141721
826.097	0.0141180
826.175	0.0141423
826.253	0.0141373
826.331	0.0142401
826.410	0.0141759
826.488	0.0140405
826.566	0.0140481
826.644	0.0142018
826.722	0.0140563
826.800	0.0139445
826.878	0.0141187
826.956	0.0140055
827.035	0.0139713
827.113	0.0141162
827.191	0.0141521
827.269	0.0140728
827.347	0.0139101
827.425	0.0139808
827.503	0.0140498
827.581	0.0141055
827.660	0.0140366
827.738	0.0139970
827.816	0.0139010
827.894	0.0139414
827.972	0.0141096
828.050	0.0139304
828.128	0.0138889
828.206	0.0138992
828.285	0.0139923
828.363	0.0138597
828.441	0.0140345
828.519	0.0140087
828.597	0.0139112
828.675	0.0138799
828.753	0.0139384
828.831	0.0139657
828.910	0.0138157
828.988	0.0139050
829.066	0.0139915
829.144	0.0138946
829.222	0.0138592
829.300	0.0141309
829.378	0.0140031
829.456	0.0139304
829.535	0.0139789
829.613	0.0140469
829.691	0.0138895
829.769	0.0140408
829.847	0.0141325
829.925	0.0138701
830.003	0.0137886
830.081	0.0139260
830.160	0.0139057
830.238	0.0140429
830.316	0.0140137
830.394	0.0140459
830.472	0.0140726
830.550	0.0139866
830.628	0.0141001
830.706	0.0139996
830.785	0.0140755
830.863	0.0141338
830.941	0.0141531
831.019	0.0140691
831.097	0.0140688
831.175	0.0142001
831.253	0.0141159
831.331	0.0141126
831.410	0.0139716
831.488	0.0140558
831.566	0.0140833
831.644	0.0140405
831.722	0.0139546
831.800	0.0140485
831.878	0.0143665
831.956	0.0142334
832.035	0.0139990
832.113	0.0141988
832.191	0.0142676
832.269	0.0142410
832.347	0.0141251
832.425	0.0141933
832.503	0.0143900
832.581	0.0142665
832.660	0.0143044
832.738	0.0142274
832.816	0.0143595
832.894	0.0143298
832.972	0.0141255
833.050	0.0141942
833.128	0.0144807
833.206	0.0142259
833.285	0.0142524
833.363	0.0142590
833.441	0.0140881
833.519	0.0142425
833.597	0.0141376
833.675	0.0141767
833.753	0.0141282
833.831	0.0142102
833.910	0.0141503
833.988	0.0141180
834.066	0.0140166
834.144	0.0141323
834.222	0.0140643
834.300	0.0140132
834.378	0.0139632
834.456	0.0141666
834.535	0.0141160
834.613	0.0140440
834.691	0.0140392
834.769	0.0139909
834.847	0.0139509
834.925	0.0139896
835.003	0.0140573
835.081	0.0140656
835.160	0.0140924
835.238	0.0139660
835.316	0.0139491
835.394	0.0140311
835.472	0.0141273
835.550	0.0138890
835.628	0.0138848
835.706	0.0138487
835.785	0.0139911
835.863	0.0139965
835.941	0.0140656
836.019	0.0139234
836.097	0.0140823
836.175	0.0140544
836.253	0.0140094
836.331	0.0140842
836.410	0.0139410
836.488	0.0139627
836.566	0.0140047
836.644	0.0140260
836.722	0.0141058
836.800	0.0140273
836.878	0.0139904
836.956	0.0139592
837.035	0.0139342
837.113	0.0140714
837.191	0.0140163
837.269	0.0139710
837.347	0.0138332
837.425	0.0139912
837.503	0.0140131
837.581	0.0139861
837.660	0.0139335
837.738	0.0139593
837.816	0.0139635
837.894	0.0139861
837.972	0.0140207
838.050	0.0140678
838.128	0.0139631
838.206	0.0139179
838.285	0.0139919
838.363	0.0141236
838.441	0.0139771
838.519	0.0138814
838.597	0.0139059
838.675	0.0139910
838.753	0.0139071
838.831	0.0138659
838.910	0.0139732
838.988	0.0138718
839.066	0.0139288
839.144	0.0138234
839.222	0.0139363
839.300	0.0141172
839.378	0.0138702
839.456	0.0140854
839.535	0.0140602
839.613	0.0140244
839.691	0.0140268
839.769	0.0139319
839.847	0.0140672
839.925	0.0140867
840.003	0.0141793
840.081	0.0142170
840.160	0.0142514
840.238	0.0142235
840.316	0.0141254
840.394	0.0141310
840.472	0.0142107
840.550	0.0143091
840.628	0.0142639
840.706	0.0140535
840.785	0.0141385
840.863	0.0142246
840.941	0.0141092
841.019	0.0141256
841.097	0.0141632
841.175	0.0142728
841.253	0.0141293
841.331	0.0142249
841.410	0.0141933
841.488	0.0140823
841.566	0.0140419
841.644	0.0140434
841.722	0.0140247
841.800	0.0140636
841.878	0.0140668
841.956	0.0141607
842.035	0.0140086
842.113	0.0140027
842.191	0.0139353
842.269	0.0139568
842.347	0.0139555
842.425	0.0140244
842.503	0.0140019
842.581	0.0140398
842.660	0.0139481
842.738	0.0139734
842.816	0.0140190
842.894	0.0138814
842.972	0.0140047
843.050	0.0139516
843.128	0.0139052
843.206	0.0138524
843.285	0.0138991
843.363	0.0138504
843.441	0.0138724
843.519	0.0139342
843.597	0.0138689
843.675	0.0137528
843.753	0.0139764
843.831	0.0139660
843.910	0.0138408
843.988	0.0138658
844.066	0.0139416
844.144	0.0138734
844.222	0.0139423
844.300	0.0140115
844.378	0.0138549
844.456	0.0138005
844.535	0.0138949
844.613	0.0138737
844.691	0.0138246
844.769	0.0139068
844.847	0.0138709
844.925	0.0139551
845.003	0.0138358
845.081	0.0138573
845.160	0.0139352
845.238	0.0138841
845.316	0.0138718
845.394	0.0138728
845.472	0.0139842
845.550	0.0139348
845.628	0.0138622
845.706	0.0138848
845.785	0.0138509
845.863	0.0139102
845.941	0.0138010
846.019	0.0137842
846.097	0.0138442
846.175	0.0139729
846.253	0.0138268
846.331	0.0138943
846.410	0.0139870
846.488	0.0139362
846.566	0.0140222
846.644	0.0139651
846.722	0.0138982
846.800	0.0138971
846.878	0.0140101
846.956	0.0140867
847.035	0.0141721
847.113	0.0140984
847.191	0.0141068
847.269	0.0141743
847.347	0.0141029
847.425	0.0142079
847.503	0.0143416
847.581	0.0141985
847.660	0.0141402
847.738	0.0142250
847.816	0.0141038
847.894	0.0142748
847.972	0.0143665
848.050	0.0143089
848.128	0.0142461
848.206	0.0141436
848.285	0.0142030
848.363	0.0142374
848.441	0.0141769
848.519	0.0141524
848.597	0.0141782
848.675	0.0141386
848.753	0.0140931
848.831	0.0140987
848.910	0.0141967
848.988	0.0141673
849.066	0.0142163
849.144	0.0141443
849.222	0.0139645
849.300	0.0140546
849.378	0.0139027
849.456	0.0141405
849.535	0.0141038
849.613	0.0140543
849.691	0.0141661
849.769	0.0140478
849.847	0.0140832
849.925	0.0141629
850.003	0.0140691
850.081	0.0140521
850.160	0.0141206
850.238	0.0140957
850.316	0.0141015
850.394	0.0141721
850.472	0.0139895
850.550	0.0141442
850.628	0.0140179
850.706	0.0140383
850.785	0.0142280
850.863	0.0140548
850.941	0.0140936
851.019	0.0139947
851.097	0.0140584
851.175	0.0141006
851.253	0.0140574
851.331	0.0141242
851.410	0.0140656
851.488	0.0140005
851.566	0.0140750
851.644	0.0141264
851.722	0.0141319
851.800	0.0140982
851.878	0.0141436
851.956	0.0139674
852.035	0.0140325
852.113	0.0141415
852.191	0.0139724
852.269	0.0139882
852.347	0.0140670
852.425	0.0140420
852.503	0.0139617
852.581	0.0142124
852.660	0.0140993
852.738	0.0140631
852.816	0.0140183
852.894	0.0139911
852.972	0.0143362
853.050	0.0141132
853.128	0.0141508
853.206	0.0139884
853.285	0.0139807
853.363	0.0141979
853.441	0.0140832
853.519	0.0140620
853.597	0.0141634
853.675	0.0141154
853.753	0.0141382
853.831	0.0141929
853.910	0.0140828
853.988	0.0141970
854.066	0.0142274
854.144	0.0142333
854.222	0.0141435
854.300	0.0141824
854.378	0.0144092
854.456	0.0143864
854.535	0.0141804
854.613	0.0142627
854.691	0.0142911
854.769	0.0143214
854.847	0.0143474
854.925	0.0143739
855.003	0.0141277
855.081	0.0142976
855.160	0.0143486
855.238	0.0141740
855.316	0.0143932
855.394	0.0141241
855.472	0.0143028
855.550	0.0142114
855.628	0.0141083
855.706	0.0141228
855.785	0.0141193
855.863	0.0140575
855.941	0.0141184
856.019	0.0141161
856.097	0.0141295
856.175	0.0141185
856.253	0.0141135
856.331	0.0140147
856.410	0.0140485
856.488	0.0140349
856.566	0.0140180
856.644	0.0139456
856.722	0.0140018
856.800	0.0138657
856.878	0.0140656
856.956	0.0140485
857.035	0.0141024
857.113	0.0141064
857.191	0.0138982
857.269	0.0140274
857.347	0.0139699
857.425	0.0139406
857.503	0.0139255
857.581	0.0139372
857.660	0.0139529
857.738	0.0139357
857.816	0.0140269
857.894	0.0140105
857.972	0.0138721
858.050	0.0137879
858.128	0.0139007
858.206	0.0139316
858.285	0.0137663
858.363	0.0140437
858.441	0.0138780
858.519	0.0140646
858.597	0.0140183
858.675	0.0137955
858.753	0.0140246
858.831	0.0140423
858.910	0.0138086
858.988	0.0138663
859.066	0.0140226
859.144	0.0139075
859.222	0.0138474
859.300	0.0139371
859.378	0.0138981
859.456	0.0139922
859.535	0.0138878
859.613	0.0139165
859.691	0.0140974
859.769	0.0139893
859.847	0.0139022
859.925	0.0138226
860.003	0.0140130
860.081	0.0139232
860.160	0.0139547
860.238	0.0139035
860.316	0.0138226
860.394	0.0140086
860.472	0.0140467
860.550	0.0139051
860.628	0.0139487
860.706	0.0138671
860.785	0.0138924
860.863	0.0138481
860.941	0.0139023
861.019	0.0140636
861.097	0.0139651
861.175	0.0141404
861.253	0.0141601
861.331	0.0139867
861.410	0.0139662
861.488	0.0140768
861.566	0.0142538
861.644	0.0140768
861.722	0.0141080
861.800	0.0141721
861.878	0.0141863
861.956	0.0141551
862.035	0.0142328
862.113	0.0142166
862.191	0.0142579
862.269	0.0142483
862.347	0.0142478
862.425	0.0142917
862.503	0.0143719
862.581	0.0141325
862.660	0.0141987
862.738	0.0140955
862.816	0.0141144
862.894	0.0142223
862.972	0.0141336
863.050	0.0140151
863.128	0.0140445
863.206	0.0141370
863.285	0.0141721
863.363	0.0140589
863.441	0.0139965
863.519	0.0140337
863.597	0.0139373
863.675	0.0139265
863.753	0.0140115
863.831	0.0141026
863.910	0.0140450
863.988	0.0138703
864.066	0.0140211
864.144	0.0139924
864.222	0.0139602
864.300	0.0139714
864.378	0.0139632
864.456	0.0138878
864.535	0.0139000
864.613	0.0138736
864.691	0.0138902
864.769	0.0139083
864.847	0.0139024
864.925	0.0137347
865.003	0.0140733
865.081	0.0138889
865.160	0.0136672
865.238	0.0137650
865.316	0.0140413
865.394	0.0137784
865.472	0.0137006
865.550	0.0139846
865.628	0.0139172
865.706	0.0137528
865.785	0.0138734
865.863	0.0137074
865.941	0.0137488
866.019	0.0137637
866.097	0.0138306
866.175	0.0137994
866.253	0.0138493
866.331	0.0139372
866.410	0.0139526
866.488	0.0138518
866.566	0.0139851
866.644	0.0138715
866.722	0.0139362
866.800	0.0139349
866.878	0.0140430
866.956	0.0139072
867.035	0.0139141
867.113	0.0138080
867.191	0.0140366
867.269	0.0138936
867.347	0.0138637
867.425	0.0138335
867.503	0.0140172
867.581	0.0139014
867.660	0.0139166
867.738	0.0142144
867.816	0.0139085
867.894	0.0138646
867.972	0.0140302
868.050	0.0141437
868.128	0.0140786
868.206	0.0140154
868.285	0.0140871
868.363	0.0140981
868.441	0.0139951
868.519	0.0141354
868.597	0.0141704
868.675	0.0140928
868.753	0.0142184
868.831	0.0141755
868.910	0.0140260
868.988	0.0139829
869.066	0.0141115
869.144	0.0141680
869.222	0.0142222
869.300	0.0141185
869.378	0.0141721
869.456	0.0141467
869.535	0.0141983
869.613	0.0144102
869.691	0.0142418
869.769	0.0142798
869.847	0.0142908
869.925	0.0142020
870.003	0.0140849
870.081	0.0142345
870.160	0.0142795
870.238	0.0141168
870.316	0.0140891
870.394	0.0142027
870.472	0.0140862
870.550	0.0140878
870.628	0.0141908
870.706	0.0142612
870.785	0.0141760
870.863	0.0140352
870.941	0.0140970
871.019	0.0142054
871.097	0.0140916
871.175	0.0141992
871.253	0.0141761
871.331	0.0141698
871.410	0.0141557
871.488	0.0142056
871.566	0.0141409
871.644	0.0141451
871.722	0.0141418
871.800	0.0140656
871.878	0.0140610
871.956	0.0141953
872.035	0.0139531
872.113	0.0140988
872.191	0.0140561
872.269	0.0139172
872.347	0.0139224
872.425	0.0141003
872.503	0.0139498
872.581	0.0138428
872.660	0.0139340
872.738	0.0139715
872.816	0.0140120
872.894	0.0139312
872.972	0.0139468
873.050	0.0138354
873.128	0.0139216
873.206	0.0140186
873.285	0.0139299
873.363	0.0140401
873.441	0.0140569
873.519	0.0139427
873.597	0.0140173
873.675	0.0139738
873.753	0.0140365
873.831	0.0140233
873.910	0.0139549
873.988	0.0140754
874.066	0.0141212
874.144	0.0141101
874.222	0.0140512
874.300	0.0139764
874.378	0.0140249
874.456	0.0140549
874.535	0.0139255
874.613	0.0140022
874.691	0.0140778
874.769	0.0139488
874.847	0.0140584
874.925	0.0140445
875.003	0.0140005
875.081	0.0140776
875.160	0.0141193
875.238	0.0139663
875.316	0.0139695
875.394	0.0139996
875.472	0.0141589
875.550	0.0142092
875.628	0.0140524
875.706	0.0141606
875.785	0.0140997
875.863	0.0141628
875.941	0.0141976
876.019	0.0140984
876.097	0.0142229
876.175	0.0141722
876.253	0.0140199
876.331	0.0142320
876.410	0.0143491
876.488	0.0142294
876.566	0.0142101
876.644	0.0142850
876.722	0.0142546
876.800	0.0143021
876.878	0.0143600
876.956	0.0143233
877.035	0.0141727
877.113	0.0142681
877.191	0.0142587
877.269	0.0142242
877.347	0.0141715
877.425	0.0141321
877.503	0.0143349
877.581	0.0140925
877.660	0.0142432
877.738	0.0141961
877.816	0.0141328
877.894	0.0140694
877.972	0.0142354
878.050	0.0142125
878.128	0.0140117
878.206	0.0140771
878.285	0.0141409
878.363	0.0141014
878.441	0.0139912
878.519	0.0138703
878.597	0.0140686
878.675	0.0140042
878.753	0.0141286
878.831	0.0139213
878.910	0.0138773
878.988	0.0139942
879.066	0.0138695
879.144	0.0139076
879.222	0.0140569
879.300	0.0139399
879.378	0.0138678
879.456	0.0140306
879.535	0.0139944
879.613	0.0139371
879.691	0.0138762
879.769	0.0139137
879.847	0.0139082
879.925	0.0138731
880.003	0.0138495
880.081	0.0138482
880.160	0.0139700
880.238	0.0137784
880.316	0.0138062
880.394	0.0138618
880.472	0.0139094
880.550	0.0139429
880.628	0.0140456
880.706	0.0138039
880.785	0.0139172
880.863	0.0138409
880.941	0.0139110
881.019	0.0140146
881.097	0.0138675
881.175	0.0138342
881.253	0.0140012
881.331	0.0140747
881.410	0.0139360
881.488	0.0138895
881.566	0.0138877
881.644	0.0140637
881.722	0.0139896
881.800	0.0140302
881.878	0.0138663
881.956	0.0139339
882.035	0.0139573
882.113	0.0138435
882.191	0.0139204
882.269	0.0138805
882.347	0.0139524
882.425	0.0139254
882.503	0.0140769
882.581	0.0138213
882.660	0.0138747
882.738	0.0140706
882.816	0.0138818
882.894	0.0139172
882.972	0.0141299
883.050	0.0139919
883.128	0.0139377
883.206	0.0140367
883.285	0.0141342
883.363	0.0142842
883.441	0.0141082
883.519	0.0140501
883.597	0.0141513
883.675	0.0141999
883.753	0.0142461
883.831	0.0142799
883.910	0.0142445
883.988	0.0141183
884.066	0.0142338
884.144	0.0141998
884.222	0.0142673
884.300	0.0141050
884.378	0.0140266
884.456	0.0141703
884.535	0.0141339
884.613	0.0141757
884.691	0.0140600
884.769	0.0140398
884.847	0.0140395
884.925	0.0141490
885.003	0.0139690
885.081	0.0139706
885.160	0.0140771
885.238	0.0139243
885.316	0.0137836
885.394	0.0139905
885.472	0.0139351
885.550	0.0139639
885.628	0.0139719
885.706	0.0137868
885.785	0.0139619
885.863	0.0139221
885.941	0.0141504
886.019	0.0139706
886.097	0.0139121
886.175	0.0140777
886.253	0.0141206
886.331	0.0139120
886.410	0.0140208
886.488	0.0139500
886.566	0.0139098
886.644	0.0138409
886.722	0.0138873
886.800	0.0138196
886.878	0.0139133
886.956	0.0138506
887.035	0.0138434
887.113	0.0138483
887.191	0.0139070
887.269	0.0139203
887.347	0.0138491
887.425	0.0139067
887.503	0.0139919
887.581	0.0138524
887.660	0.0139070
887.738	0.0139463
887.816	0.0140615
887.894	0.0138398
887.972	0.0140031
888.050	0.0138839
888.128	0.0139759
888.206	0.0138790
888.285	0.0140843
888.363	0.0140308
888.441	0.0141477
888.519	0.0140492
888.597	0.0140522
888.675	0.0138856
888.753	0.0140536
888.831	0.0140929
888.910	0.0140224
888.988	0.0140518
889.066	0.0141168
889.144	0.0140877
889.222	0.0141603
889.300	0.0140836
889.378	0.0142106
889.456	0.0141248
889.535	0.0140460
889.613	0.0139725
889.691	0.0140894
889.769	0.0140933
889.847	0.0139771
889.925	0.0141007
890.003	0.0141078
890.081	0.0140380
890.160	0.0140218
890.238	0.0140904
890.316	0.0139903
890.394	0.0141451
890.472	0.0139895
890.550	0.0141345
890.628	0.0141778
890.706	0.0141407
890.785	0.0141545
890.863	0.0140340
890.941	0.0140505
891.019	0.0141959
891.097	0.0141945
891.175	0.0140276
891.253	0.0141835
891.331	0.0142056
891.410	0.0142362
891.488	0.0140823
891.566	0.0140503
891.644	0.0139651
891.722	0.0138667
891.800	0.0139945
891.878	0.0139674
891.956	0.0138681
892.035	0.0138417
892.113	0.0138630
892.191	0.0138847
892.269	0.0138416
892.347	0.0137392
892.425	0.0136951
892.503	0.0137299
892.581	0.0138490
892.660	0.0137833
892.738	0.0137943
892.816	0.0136537
892.894	0.0139045
892.972	0.0136324
893.050	0.0137138
893.128	0.0137922
893.206	0.0138522
893.285	0.0138362
893.363	0.0137154
893.441	0.0137453
893.519	0.0137788
893.597	0.0137547
893.675	0.0136784
893.753	0.0138387
893.831	0.0137934
893.910	0.0137679
893.988	0.0137980
894.066	0.0137257
894.144	0.0138139
894.222	0.0138239
894.300	0.0137785
894.378	0.0137164
894.456	0.0138554
894.535	0.0137511
894.613	0.0138345
894.691	0.0139145
894.769	0.0139632
894.847	0.0138737
894.925	0.0138572
895.003	0.0138697
895.081	0.0138959
895.160	0.0138669
895.238	0.0139201
895.316	0.0139243
895.394	0.0139285
895.472	0.0139046
895.550	0.0139867
895.628	0.0138367
895.706	0.0138985
895.785	0.0139228
895.863	0.0139709
895.941	0.0138617
896.019	0.0140092
896.097	0.0139526
896.175	0.0139424
896.253	0.0140215
896.331	0.0140114
896.410	0.0138902
896.488	0.0138776
896.566	0.0139515
896.644	0.0138463
896.722	0.0140653
896.800	0.0139953
896.878	0.0140826
896.956	0.0141443
897.035	0.0140269
897.113	0.0140389
897.191	0.0141208
897.269	0.0140763
897.347	0.0139558
897.425	0.0139829
897.503	0.0140179
897.581	0.0139941
897.660	0.0141738
897.738	0.0141186
897.816	0.0141579
897.894	0.0140986
897.972	0.0140744
898.050	0.0140796
898.128	0.0141415
898.206	0.0142141
898.285	0.0143410
898.363	0.0141817
898.441	0.0141633
898.519	0.0142084
898.597	0.0141083
898.675	0.0141407
898.753	0.0140827
898.831	0.0141126
898.910	0.0140734
898.988	0.0142946
899.066	0.0140627
899.144	0.0140807
899.222	0.0141472
899.300	0.0140533
899.378	0.0140955
899.456	0.0140291
899.535	0.0140904
899.613	0.0139562
899.691	0.0139524
899.769	0.0140189
899.847	0.0139508
899.925	0.0139587
900.003	0.0140228
900.081	0.0140004
900.160	0.0140968
900.238	0.0139835
900.316	0.0140365
900.394	0.0140552
900.472	0.0140620
900.550	0.0142566
900.628	0.0140027
900.706	0.0140388
900.785	0.0140462
900.863	0.0139228
900.941	0.0139092
901.019	0.0140778
901.097	0.0140062
901.175	0.0140263
901.253	0.0138314
901.331	0.0138581
901.410	0.0140409
901.488	0.0139604
901.566	0.0138972
901.644	0.0139372
901.722	0.0140939
901.800	0.0140715
901.878	0.0142036
901.956	0.0139774
902.035	0.0139644
902.113	0.0139506
902.191	0.0139931
902.269	0.0141150
902.347	0.0140529
902.425	0.0140170
902.503	0.0140893
902.581	0.0141032
902.660	0.0139814
902.738	0.0139213
902.816	0.0139753
902.894	0.0139075
902.972	0.0140321
903.050	0.0140057
903.128	0.0139324
903.206	0.0139033
903.285	0.0139915
903.363	0.0139543
903.441	0.0139659
903.519	0.0138726
903.597	0.0138577
903.675	0.0139469
903.753	0.0140279
903.831	0.0140344
903.910	0.0138558
903.988	0.0140989
904.066	0.0138963
904.144	0.0138816
904.222	0.0138097
904.300	0.0139766
904.378	0.0140056
904.456	0.0139675
904.535	0.0140130
904.613	0.0139757
904.691	0.0140375
904.769	0.0139453
904.847	0.0140647
904.925	0.0140237
905.003	0.0140987
905.081	0.0141881
905.160	0.0140880
905.238	0.0141459
905.316	0.0143336
905.394	0.0140380
905.472	0.0141259
905.550	0.0140660
905.628	0.0141506
905.706	0.0143047
905.785	0.0142020
905.863	0.0141173
905.941	0.0141421
906.019	0.0142199
906.097	0.0141933
906.175	0.0140686
906.253	0.0141823
906.331	0.0140905
906.410	0.0139833
906.488	0.0141264
906.566	0.0140959
906.644	0.0141188
906.722	0.0139577
906.800	0.0139555
906.878	0.0140748
906.956	0.0140427
907.035	0.0141338
907.113	0.0138965
907.191	0.0139907
907.269	0.0140759
907.347	0.0140330
907.425	0.0139967
907.503	0.0140909
907.581	0.0140269
907.660	0.0139819
907.738	0.0142655
907.816	0.0140920
907.894	0.0140942
907.972	0.0139784
908.050	0.0139664
908.128	0.0140586
908.206	0.0140233
908.285	0.0141013
908.363	0.0140924
908.441	0.0140652
908.519	0.0141383
908.597	0.0140116
908.675	0.0139802
908.753	0.0140213
908.831	0.0139890
908.910	0.0140900
908.988	0.0139684
909.066	0.0138571
909.144	0.0140801
909.222	0.0140671
909.300	0.0140342
909.378	0.0139303
909.456	0.0140432
909.535	0.0139895
909.613	0.0139075
909.691	0.0138720
909.769	0.0140533
909.847	0.0138635
909.925	0.0138775
910.003	0.0138878
910.081	0.0138247
910.160	0.0139143
910.238	0.0138925
910.316	0.0140141
910.394	0.0139552
910.472	0.0138676
910.550	0.0138396
910.628	0.0139307
910.706	0.0139032
910.785	0.0138807
910.863	0.0140465
910.941	0.0138894
911.019	0.0140530
911.097	0.0139654
911.175	0.0138529
911.253	0.0139503
911.331	0.0140180
911.410	0.0138480
911.488	0.0139330
911.566	0.0138696
911.644	0.0140977
911.722	0.0139139
911.800	0.0138957
911.878	0.0138723
911.956	0.0138775
912.035	0.0139832
912.113	0.0140510
912.191	0.0140890
912.269	0.0139486
912.347	0.0139489
912.425	0.0140296
912.503	0.0140991
912.581	0.0141257
912.660	0.0140440
912.738	0.0140202
912.816	0.0140964
912.894	0.0141455
912.972	0.0141407
913.050	0.0140179
913.128	0.0141631
913.206	0.0141198
913.285	0.0138940
913.363	0.0140931
913.441	0.0142622
913.519	0.0142168
913.597	0.0140398
913.675	0.0140758
913.753	0.0140599
913.831	0.0139558
913.910	0.0141147
913.988	0.0140220
914.066	0.0140226
914.144	0.0138589
914.222	0.0138833
914.300	0.0138541
914.378	0.0140255
914.456	0.0138743
914.535	0.0139260
914.613	0.0139189
914.691	0.0138689
914.769	0.0138528
914.847	0.0139070
914.925	0.0139245
915.003	0.0139463
915.081	0.0139381
915.160	0.0139194
915.238	0.0139757
915.316	0.0140482
915.394	0.0140407
915.472	0.0140122
915.550	0.0138514
915.628	0.0139574
915.706	0.0139439
915.785	0.0139304
915.863	0.0139400
915.941	0.0138731
916.019	0.0138795
916.097	0.0139415
916.175	0.0140385
916.253	0.0138107
916.331	0.0138833
916.410	0.0139845
916.488	0.0137510
916.566	0.0138241
916.644	0.0138354
916.722	0.0138397
916.800	0.0139091
916.878	0.0139424
916.956	0.0139189
917.035	0.0138698
917.113	0.0139008
917.191	0.0138531
917.269	0.0138113
917.347	0.0137707
917.425	0.0139312
917.503	0.0137994
917.581	0.0138300
917.660	0.0137934
917.738	0.0137697
917.816	0.0138514
917.894	0.0138280
917.972	0.0136346
918.050	0.0137306
918.128	0.0139257
918.206	0.0138003
918.285	0.0137940
918.363	0.0137434
918.441	0.0140112
918.519	0.0138760
918.597	0.0139051
918.675	0.0138062
918.753	0.0138363
918.831	0.0138534
918.910	0.0139201
918.988	0.0137698
919.066	0.0138145
919.144	0.0139748
919.222	0.0138872
919.300	0.0138789
919.378	0.0138660
919.456	0.0138661
919.535	0.0138267
919.613	0.0140139
919.691	0.0139173
919.769	0.0140488
919.847	0.0140442
919.925	0.0140215
920.003	0.0141341
920.081	0.0140527
920.160	0.0141335
920.238	0.0141476
920.316	0.0141109
920.394	0.0141750
920.472	0.0142123
920.550	0.0141903
920.628	0.0141441
920.706	0.0141596
920.785	0.0140741
920.863	0.0141013
920.941	0.0140633
921.019	0.0140472
921.097	0.0139568
921.175	0.0140295
921.253	0.0141660
921.331	0.0140627
921.410	0.0140527
921.488	0.0140983
921.566	0.0141703
921.644	0.0139944
921.722	0.0140406
921.800	0.0140177
921.878	0.0140593
921.956	0.0139857
922.035	0.0139828
922.113	0.0139771
922.191	0.0141753
922.269	0.0140518
922.347	0.0139957
922.425	0.0140290
922.503	0.0140032
922.581	0.0140665
922.660	0.0139984
922.738	0.0141994
922.816	0.0141026
922.894	0.0140717
922.972	0.0140361
923.050	0.0140182
923.128	0.0140745
923.206	0.0138959
923.285	0.0139556
923.363	0.0139708
923.441	0.0138062
923.519	0.0138412
923.597	0.0139778
923.675	0.0139898
923.753	0.0139977
923.831	0.0139407
923.910	0.0138838
923.988	0.0138714
924.066	0.0138569
924.144	0.0139328
924.222	0.0139633
924.300	0.0140265
924.378	0.0138651
924.456	0.0139725
924.535	0.0138831
924.613	0.0138242
924.691	0.0139142
924.769	0.0141319
924.847	0.0139377
924.925	0.0138287
925.003	0.0139992
925.081	0.0138835
925.160	0.0138647
925.238	0.0139202
925.316	0.0141578
925.394	0.0139425
925.472	0.0139688
925.550	0.0140881
925.628	0.0141212
925.706	0.0139648
925.785	0.0139711
925.863	0.0140760
925.941	0.0140464
926.019	0.0139679
926.097	0.0140363
926.175	0.0139742
926.253	0.0139864
926.331	0.0140054
926.410	0.0141654
926.488	0.0140140
926.566	0.0139625
926.644	0.0140063
926.722	0.0141184
926.800	0.0141280
926.878	0.0140204
926.956	0.0139717
927.035	0.0141573
927.113	0.0141624
927.191	0.0141563
927.269	0.0143327
927.347	0.0142352
927.425	0.0141741
927.503	0.0142151
927.581	0.0143697
927.660	0.0143054
927.738	0.0143818
927.816	0.0142339
927.894	0.0141310
927.972	0.0143707
928.050	0.0141804
928.128	0.0141076
928.206	0.0142117
928.285	0.0142478
928.363	0.0141081
928.441	0.0140790
928.519	0.0141667
928.597	0.0140938
928.675	0.0140476
928.753	0.0140561
928.831	0.0140662
928.910	0.0140909
928.988	0.0141096
929.066	0.0139990
929.144	0.0140498
929.222	0.0140894
929.300	0.0140012
929.378	0.0140698
929.456	0.0140467
929.535	0.0140234
929.613	0.0139684
929.691	0.0139988
929.769	0.0139179
929.847	0.0140250
929.925	0.0138525
930.003	0.0139349
930.081	0.0140829
930.160	0.0139816
930.238	0.0139594
930.316	0.0138656
930.394	0.0139006
930.472	0.0139610
930.550	0.0139750
930.628	0.0140467
930.706	0.0138741
930.785	0.0138730
930.863	0.0138733
930.941	0.0139110
931.019	0.0139227
931.097	0.0138134
931.175	0.0138499
931.253	0.0138850
931.331	0.0138816
931.410	0.0139286
931.488	0.0138452
931.566	0.0139712
931.644	0.0140714
931.722	0.0140873
931.800	0.0138899
931.878	0.0137452
931.956	0.0139970
932.035	0.0139295
932.113	0.0140040
932.191	0.0140308
932.269	0.0139549
932.347	0.0139650
932.425	0.0139194
932.503	0.0140077
932.581	0.0139034
932.660	0.0140659
932.738	0.0140413
932.816	0.0139006
932.894	0.0139938
932.972	0.0141589
933.050	0.0140806
933.128	0.0138927
933.206	0.0140750
933.285	0.0140097
933.363	0.0140125
933.441	0.0140445
933.519	0.0140540
933.597	0.0140043
933.675	0.0139867
933.753	0.0140576
933.831	0.0139833
933.910	0.0140573
933.988	0.0139077
934.066	0.0138546
934.144	0.0140554
934.222	0.0139834
934.300	0.0141105
934.378	0.0141164
934.456	0.0139674
934.535	0.0141182
934.613	0.0141166
934.691	0.0141324
934.769	0.0140448
934.847	0.0141088
934.925	0.0142873
935.003	0.0142102
935.081	0.0141523
935.160	0.0141454
935.238	0.0139961
935.316	0.0140424
935.394	0.0139844
935.472	0.0141887
935.550	0.0140411
935.628	0.0140200
935.706	0.0140524
935.785	0.0139732
935.863	0.0140128
935.941	0.0140622
936.019	0.0139929
936.097	0.0139373
936.175	0.0139461
936.253	0.0139479
936.331	0.0139046
936.410	0.0139140
936.488	0.0139458
936.566	0.0138749
936.644	0.0139571
936.722	0.0140311
936.800	0.0139505
936.878	0.0140293
936.956	0.0138198
937.035	0.0140249
937.113	0.0140647
937.191	0.0138660
937.269	0.0141144
937.347	0.0140112
937.425	0.0140506
937.503	0.0139597
937.581	0.0140434
937.660	0.0138583
937.738	0.0137569
937.816	0.0138341
937.894	0.0139295
937.972	0.0139124
938.050	0.0140024
938.128	0.0139566
938.206	0.0139378
938.285	0.0138361
938.363	0.0138344
938.441	0.0139651
938.519	0.0139034
938.597	0.0138445
938.675	0.0139374
938.753	0.0138992
938.831	0.0138486
938.910	0.0141277
938.988	0.0139886
939.066	0.0138694
939.144	0.0138961
939.222	0.0139641
939.300	0.0137798
939.378	0.0140513
939.456	0.0139663
939.535	0.0140217
939.613	0.0137929
939.691	0.0138922
939.769	0.0138357
939.847	0.0139664
939.925	0.0138670
940.003	0.0138264
940.081	0.0139384
940.160	0.0140136
940.238	0.0139436
940.316	0.0138919
940.394	0.0139477
940.472	0.0138777
940.550	0.0139445
940.628	0.0140554
940.706	0.0139928
940.785	0.0138895
940.863	0.0139837
940.941	0.0139648
941.019	0.0139974
941.097	0.0139023
941.175	0.0139782
941.253	0.0140536
941.331	0.0139752
941.410	0.0139500
941.488	0.0138908
941.566	0.0139001
941.644	0.0139345
941.722	0.0140085
941.800	0.0140614
941.878	0.0140254
941.956	0.0140658
942.035	0.0139513
942.113	0.0139610
942.191	0.0141440
942.269	0.0140302
942.347	0.0140130
942.425	0.0140855
942.503	0.0139802
942.581	0.0139948
942.660	0.0141231
942.738	0.0139965
942.816	0.0141779
942.894	0.0140995
942.972	0.0141299
943.050	0.0140054
943.128	0.0140383
943.206	0.0141472
943.285	0.0140799
943.363	0.0139101
943.441	0.0139762
943.519	0.0140461
943.597	0.0141107
943.675	0.0140997
943.753	0.0140303
943.831	0.0138860
943.910	0.0140404
943.988	0.0139216
944.066	0.0140996
944.144	0.0140668
944.222	0.0140564
944.300	0.0140774
944.378	0.0141252
944.456	0.0140043
944.535	0.0140512
944.613	0.0141613
944.691	0.0140135
944.769	0.0140176
944.847	0.0140952
944.925	0.0141245
945.003	0.0140447
945.081	0.0139828
945.160	0.0140138
945.238	0.0140453
945.316	0.0139810
945.394	0.0138490
945.472	0.0139288
945.550	0.0139696
945.628	0.0140456
945.706	0.0140393
945.785	0.0139375
945.863	0.0139957
945.941	0.0139842
946.019	0.0139732
946.097	0.0138341
946.175	0.0138950
946.253	0.0140096
946.331	0.0140250
946.410	0.0139635
946.488	0.0140519
946.566	0.0139149
946.644	0.0138923
946.722	0.0138989
946.800	0.0139075
946.878	0.0140142
946.956	0.0139759
947.035	0.0141834
947.113	0.0140675
947.191	0.0139616
947.269	0.0140324
947.347	0.0139063
947.425	0.0141098
947.503	0.0139384
947.581	0.0137374
947.660	0.0138713
947.738	0.0139500
947.816	0.0138284
947.894	0.0138432
947.972	0.0138295
948.050	0.0139368
948.128	0.0138881
948.206	0.0138847
948.285	0.0138396
948.363	0.0139052
948.441	0.0138718
948.519	0.0138677
948.597	0.0138492
948.675	0.0139388
948.753	0.0141104
948.831	0.0138321
948.910	0.0139764
948.988	0.0141323
949.066	0.0139928
949.144	0.0139849
949.222	0.0140347
949.300	0.0140694
949.378	0.0141547
949.456	0.0141923
949.535	0.0138853
949.613	0.0139672
949.691	0.0141531
949.769	0.0141297
949.847	0.0142901
949.925	0.0141976
950.003	0.0140813
950.081	0.0141503
950.160	0.0141866
950.238	0.0142377
950.316	0.0141547
950.394	0.0141429
950.472	0.0142040
950.550	0.0141389
950.628	0.0141264
950.706	0.0140968
950.785	0.0140002
950.863	0.0140661
950.941	0.0140991
951.019	0.0141297
951.097	0.0141050
951.175	0.0140540
951.253	0.0142058
951.331	0.0142079
951.410	0.0140670
951.488	0.0141737
951.566	0.0141156
951.644	0.0141768
951.722	0.0141547
951.800	0.0141299
951.878	0.0141848
951.956	0.0140742
952.035	0.0140570
952.113	0.0140142
952.191	0.0140393
952.269	0.0140900
952.347	0.0139133
952.425	0.0140146
952.503	0.0140107
952.581	0.0139965
952.660	0.0139469
952.738	0.0138557
952.816	0.0138142
952.894	0.0137947
952.972	0.0139247
953.050	0.0139308
953.128	0.0138517
953.206	0.0138331
953.285	0.0138287
953.363	0.0137955
953.441	0.0139806
953.519	0.0138126
953.597	0.0137666
953.675	0.0139301
953.753	0.0137521
953.831	0.0138161
953.910	0.0137984
953.988	0.0137766
954.066	0.0138010
954.144	0.0137798
954.222	0.0137328
954.300	0.0137370
954.378	0.0137561
954.456	0.0137113
954.535	0.0138091
954.613	0.0138343
954.691	0.0137615
954.769	0.0137639
954.847	0.0138740
954.925	0.0137075
955.003	0.0137904
955.081	0.0137595
955.160	0.0138451
955.238	0.0136427
955.316	0.0137251
955.394	0.0138481
955.472	0.0137859
955.550	0.0137796
955.628	0.0137148
955.706	0.0138018
955.785	0.0137991
955.863	0.0138498
955.941	0.0138050
956.019	0.0138267
956.097	0.0138036
956.175	0.0138343
956.253	0.0138725
956.331	0.0138698
956.410	0.0138668
956.488	0.0139050
956.566	0.0138126
956.644	0.0139614
956.722	0.0140791
956.800	0.0138998
956.878	0.0140689
956.956	0.0141390
957.035	0.0141299
957.113	0.0140589
957.191	0.0141010
957.269	0.0140324
957.347	0.0140482
957.425	0.0141962
957.503	0.0141353
957.581	0.0140346
957.660	0.0141089
957.738	0.0140372
957.816	0.0139891
957.894	0.0140323
957.972	0.0140808
958.050	0.0139456
958.128	0.0141249
958.206	0.0140348
958.285	0.0139822
958.363	0.0140281
958.441	0.0141048
958.519	0.0141969
958.597	0.0139807
958.675	0.0140361
958.753	0.0141639
958.831	0.0140082
958.910	0.0140531
958.988	0.0140424
959.066	0.0140334
959.144	0.0139988
959.222	0.0139423
959.300	0.0140054
959.378	0.0139737
959.456	0.0141346
959.535	0.0139065
959.613	0.0139469
959.691	0.0140091
959.769	0.0140114
959.847	0.0139214
959.925	0.0139764
960.003	0.0138416
960.081	0.0138309
960.160	0.0138762
960.238	0.0137872
960.316	0.0137193
960.394	0.0137720
960.472	0.0136381
960.550	0.0138309
960.628	0.0138521
960.706	0.0139598
960.785	0.0138843
960.863	0.0136369
960.941	0.0138003
961.019	0.0138252
961.097	0.0137960
961.175	0.0138136
961.253	0.0139169
961.331	0.0138548
961.410	0.0139227
961.488	0.0139575
961.566	0.0138761
961.644	0.0137621
961.722	0.0139388
961.800	0.0138995
961.878	0.0139093
961.956	0.0139422
962.035	0.0140385
962.113	0.0139632
962.191	0.0139479
962.269	0.0139732
962.347	0.0139514
962.425	0.0139987
962.503	0.0139635
962.581	0.0139019
962.660	0.0139691
962.738	0.0138950
962.816	0.0138445
962.894	0.0141106
962.972	0.0140395
963.050	0.0139145
963.128	0.0140408
963.206	0.0140144
963.285	0.0141179
963.363	0.0141453
963.441	0.0142510
963.519	0.0141042
963.597	0.0140695
963.675	0.0140547
963.753	0.0140678
963.831	0.0142726
963.910	0.0140991
963.988	0.0142283
964.066	0.0141975
964.144	0.0142879
964.222	0.0144495
964.300	0.0143196
964.378	0.0142340
964.456	0.0141943
964.535	0.0142747
964.613	0.0142797
964.691	0.0142036
964.769	0.0141877
964.847	0.0142955
964.925	0.0142426
965.003	0.0141674
965.081	0.0141392
965.160	0.0141660
965.238	0.0141881
965.316	0.0139989
965.394	0.0140930
965.472	0.0141276
965.550	0.0141746
965.628	0.0140744
965.706	0.0140253
965.785	0.0140533
965.863	0.0141484
965.941	0.0142206
966.019	0.0139958
966.097	0.0139995
966.175	0.0141592
966.253	0.0140339
966.331	0.0139555
966.410	0.0141199
966.488	0.0142037
966.566	0.0140933
966.644	0.0140311
966.722	0.0141135
966.800	0.0140665
966.878	0.0141159
966.956	0.0140368
967.035	0.0139671
967.113	0.0141267
967.191	0.0138120
967.269	0.0138515
967.347	0.0139668
967.425	0.0139930
967.503	0.0138560
967.581	0.0139605
967.660	0.0138598
967.738	0.0137914
967.816	0.0138792
967.894	0.0139995
967.972	0.0138960
968.050	0.0140866
968.128	0.0138371
968.206	0.0138837
968.285	0.0139422
968.363	0.0138372
968.441	0.0138363
968.519	0.0138557
968.597	0.0139671
968.675	0.0140514
968.753	0.0140165
968.831	0.0139707
968.910	0.0140875
968.988	0.0139514
969.066	0.0140498
969.144	0.0139395
969.222	0.0138010
969.300	0.0140587
969.378	0.0140749
969.456	0.0140292
969.535	0.0139983
969.613	0.0141031
969.691	0.0140799
969.769	0.0140791
969.847	0.0139437
969.925	0.0139960
970.003	0.0140736
970.081	0.0139542
970.160	0.0140639
970.238	0.0140215
970.316	0.0139730
970.394	0.0140304
970.472	0.0141524
970.550	0.0140175
970.628	0.0140730
970.706	0.0141761
970.785	0.0140802
970.863	0.0139137
970.941	0.0139464
971.019	0.0140630
971.097	0.0140552
971.175	0.0141285
971.253	0.0140534
971.331	0.0140157
971.410	0.0142519
971.488	0.0141442
971.566	0.0140854
971.644	0.0141219
971.722	0.0140340
971.800	0.0142364
971.878	0.0140611
971.956	0.0140733
972.035	0.0141011
972.113	0.0141129
972.191	0.0141393
972.269	0.0141162
972.347	0.0140443
972.425	0.0141589
972.503	0.0141068
972.581	0.0139782
972.660	0.0139920
972.738	0.0139053
972.816	0.0140782
972.894	0.0139733
972.972	0.0139985
973.050	0.0138846
973.128	0.0138651
973.206	0.0139989
973.285	0.0141288
973.363	0.0141715
973.441	0.0140231
973.519	0.0140496
973.597	0.0139502
973.675	0.0138969
973.753	0.0140101
973.831	0.0139805
973.910	0.0140496
973.988	0.0139494
974.066	0.0139852
974.144	0.0139663
974.222	0.0139759
974.300	0.0139099
974.378	0.0139582
974.456	0.0139602
974.535	0.0139952
974.613	0.0139363
974.691	0.0140293
974.769	0.0139314
974.847	0.0138410
974.925	0.0137632
975.003	0.0137906
975.081	0.0139373
975.160	0.0140376
975.238	0.0139088
975.316	0.0138930
975.394	0.0140955
975.472	0.0138254
975.550	0.0140858
975.628	0.0140608
975.706	0.0140314
975.785	0.0140777
975.863	0.0140373
975.941	0.0139972
976.019	0.0138825
976.097	0.0139201
976.175	0.0140155
976.253	0.0139274
976.331	0.0140395
976.410	0.0140057
976.488	0.0138699
976.566	0.0139801
976.644	0.0140649
976.722	0.0140977
976.800	0.0139527
976.878	0.0140862
976.956	0.0139713
977.035	0.0140011
977.113	0.0138806
977.191	0.0139368
977.269	0.0138839
977.347	0.0139051
977.425	0.0140294
977.503	0.0139057
977.581	0.0139826
977.660	0.0139236
977.738	0.0138710
977.816	0.0138393
977.894	0.0139607
977.972	0.0137984
978.050	0.0139554
978.128	0.0139522
978.206	0.0138995
978.285	0.0139413
978.363	0.0139973
978.441	0.0140556
978.519	0.0140697
978.597	0.0139392
978.675	0.0140837
978.753	0.0142756
978.831	0.0141116
978.910	0.0140033
978.988	0.0140556
979.066	0.0140154
979.144	0.0140635
979.222	0.0140739
979.300	0.0141484
979.378	0.0139680
979.456	0.0138884
979.535	0.0141121
979.613	0.0140695
979.691	0.0140546
979.769	0.0140385
979.847	0.0139938
979.925	0.0139276
