05/20/2022	16:47:28	Ver.	4.1	UNKNOWN
Optical Delay	639.982744	Delta X		0.078125	Sweeps	1	Scan Rate	0/0
Coordinates	Axis 1	NaN	Axis 2	NaN	Axis 3	NaN	Axis 4	NaN	Axis 5	NaN	Axis 6	0.000000
TX Power	0.000000	RX Power	0.000000

639.983	0.0143719
640.061	0.0144353
640.139	0.0143186
640.217	0.0142135
640.295	0.0143687
640.373	0.0143127
640.451	0.0142899
640.530	0.0144381
640.608	0.0142259
640.686	0.0142619
640.764	0.0142628
640.842	0.0143434
640.920	0.0143143
640.998	0.0142535
641.076	0.0143378
641.155	0.0142328
641.233	0.0143118
641.311	0.0142971
641.389	0.0142351
641.467	0.0142873
641.545	0.0142977
641.623	0.0142831
641.701	0.0142885
641.780	0.0143111
641.858	0.0142702
641.936	0.0143996
642.014	0.0144246
642.092	0.0143721
642.170	0.0144081
642.248	0.0143453
642.326	0.0142893
642.405	0.0141914
642.483	0.0142691
642.561	0.0142188
642.639	0.0144060
642.717	0.0142226
642.795	0.0143122
642.873	0.0142928
642.951	0.0141277
643.030	0.0143023
643.108	0.0142011
643.186	0.0142974
643.264	0.0142195
643.342	0.0144849
643.420	0.0145684
643.498	0.0143027
643.576	0.0144141
643.655	0.0143412
643.733	0.0145100
643.811	0.0144993
643.889	0.0143147
643.967	0.0143748
644.045	0.0145115
644.123	0.0144951
644.201	0.0143764
644.280	0.0144107
644.358	0.0143834
644.436	0.0142996
644.514	0.0142742
644.592	0.0145145
644.670	0.0144867
644.748	0.0144177
644.826	0.0144006
644.905	0.0143446
644.983	0.0143301
645.061	0.0144408
645.139	0.0143312
645.217	0.0144321
645.295	0.0144135
645.373	0.0144721
645.451	0.0144050
645.530	0.0144203
645.608	0.0144661
645.686	0.0144199
645.764	0.0144288
645.842	0.0143649
645.920	0.0143423
645.998	0.0143398
646.076	0.0143116
646.155	0.0144150
646.233	0.0144802
646.311	0.0142799
646.389	0.0142496
646.467	0.0143356
646.545	0.0143625
646.623	0.0143497
646.701	0.0145045
646.780	0.0143697
646.858	0.0142873
646.936	0.0144326
647.014	0.0143829
647.092	0.0144180
647.170	0.0145225
647.248	0.0144672
647.326	0.0142847
647.405	0.0143739
647.483	0.0144810
647.561	0.0143047
647.639	0.0143673
647.717	0.0142094
647.795	0.0144759
647.873	0.0143525
647.951	0.0143320
648.030	0.0142850
648.108	0.0143399
648.186	0.0144212
648.264	0.0143055
648.342	0.0143909
648.420	0.0142803
648.498	0.0143849
648.576	0.0143011
648.655	0.0143192
648.733	0.0142135
648.811	0.0143237
648.889	0.0142570
648.967	0.0142177
649.045	0.0142732
649.123	0.0143771
649.201	0.0143698
649.280	0.0143244
649.358	0.0143298
649.436	0.0143316
649.514	0.0142181
649.592	0.0142234
649.670	0.0142686
649.748	0.0142009
649.826	0.0142407
649.905	0.0142318
649.983	0.0142116
650.061	0.0144040
650.139	0.0142419
650.217	0.0141321
650.295	0.0143523
650.373	0.0142690
650.451	0.0141075
650.530	0.0142551
650.608	0.0141518
650.686	0.0142300
650.764	0.0140356
650.842	0.0141222
650.920	0.0141183
650.998	0.0140894
651.076	0.0141985
651.155	0.0142310
651.233	0.0141375
651.311	0.0141242
651.389	0.0140860
651.467	0.0141875
651.545	0.0140314
651.623	0.0141761
651.701	0.0140617
651.780	0.0140074
651.858	0.0141470
651.936	0.0139248
652.014	0.0139983
652.092	0.0140196
652.170	0.0140061
652.248	0.0140639
652.326	0.0140350
652.405	0.0139491
652.483	0.0139651
652.561	0.0140540
652.639	0.0140757
652.717	0.0139314
652.795	0.0139732
652.873	0.0140237
652.951	0.0140688
653.030	0.0141251
653.108	0.0139898
653.186	0.0138763
653.264	0.0139548
653.342	0.0140015
653.420	0.0139538
653.498	0.0140065
653.576	0.0140351
653.655	0.0139468
653.733	0.0139196
653.811	0.0141518
653.889	0.0139037
653.967	0.0140917
654.045	0.0141976
654.123	0.0141251
654.201	0.0140239
654.280	0.0141538
654.358	0.0141663
654.436	0.0141663
654.514	0.0141286
654.592	0.0141675
654.670	0.0141663
654.748	0.0142802
654.826	0.0142267
654.905	0.0141800
654.983	0.0144209
655.061	0.0142917
655.139	0.0141232
655.217	0.0142432
655.295	0.0142635
655.373	0.0142257
655.451	0.0142436
655.530	0.0143836
655.608	0.0143654
655.686	0.0143495
655.764	0.0143829
655.842	0.0143108
655.920	0.0143772
655.998	0.0143789
656.076	0.0142284
656.155	0.0143110
656.233	0.0143485
656.311	0.0143056
656.389	0.0144089
656.467	0.0143731
656.545	0.0142658
656.623	0.0145004
656.701	0.0142992
656.780	0.0142596
656.858	0.0143513
656.936	0.0143715
657.014	0.0144013
657.092	0.0143238
657.170	0.0142357
657.248	0.0141599
657.326	0.0142236
657.405	0.0142701
657.483	0.0144160
657.561	0.0141946
657.639	0.0143056
657.717	0.0141999
657.795	0.0143221
657.873	0.0142706
657.951	0.0141470
658.030	0.0142816
658.108	0.0141451
658.186	0.0142078
658.264	0.0142709
658.342	0.0142420
658.420	0.0142487
658.498	0.0143644
658.576	0.0141415
658.655	0.0141898
658.733	0.0142205
658.811	0.0143513
658.889	0.0143327
658.967	0.0142992
659.045	0.0144071
659.123	0.0143993
659.201	0.0142964
659.280	0.0144952
659.358	0.0144707
659.436	0.0144885
659.514	0.0146294
659.592	0.0145569
659.670	0.0146275
659.748	0.0145978
659.826	0.0144576
659.905	0.0146089
659.983	0.0145135
660.061	0.0145435
660.139	0.0144937
660.217	0.0145400
660.295	0.0145167
660.373	0.0145405
660.451	0.0146381
660.530	0.0145715
660.608	0.0146648
660.686	0.0146809
660.764	0.0145714
660.842	0.0146274
660.920	0.0145191
660.998	0.0146992
661.076	0.0147678
661.155	0.0144938
661.233	0.0145385
661.311	0.0145145
661.389	0.0145155
661.467	0.0145816
661.545	0.0145228
661.623	0.0145310
661.701	0.0144946
661.780	0.0143865
661.858	0.0143739
661.936	0.0143620
662.014	0.0144727
662.092	0.0144775
662.170	0.0143782
662.248	0.0144367
662.326	0.0143575
662.405	0.0143545
662.483	0.0145174
662.561	0.0143032
662.639	0.0142739
662.717	0.0142276
662.795	0.0142277
662.873	0.0142446
662.951	0.0141428
663.030	0.0142365
663.108	0.0143754
663.186	0.0142635
663.264	0.0143181
663.342	0.0142449
663.420	0.0143003
663.498	0.0143930
663.576	0.0144369
663.655	0.0144912
663.733	0.0144331
663.811	0.0144021
663.889	0.0145656
663.967	0.0144353
664.045	0.0144645
664.123	0.0144626
664.201	0.0144118
664.280	0.0143349
664.358	0.0144444
664.436	0.0143490
664.514	0.0142716
664.592	0.0141538
664.670	0.0141213
664.748	0.0140615
664.826	0.0141714
664.905	0.0142234
664.983	0.0140131
665.061	0.0142177
665.139	0.0141599
665.217	0.0141742
665.295	0.0142742
665.373	0.0142695
665.451	0.0141039
665.530	0.0142145
665.608	0.0141886
665.686	0.0140955
665.764	0.0142354
665.842	0.0142786
665.920	0.0141134
665.998	0.0141293
666.076	0.0140946
666.155	0.0138787
666.233	0.0140746
666.311	0.0141021
666.389	0.0140086
666.467	0.0140936
666.545	0.0140757
666.623	0.0140991
666.701	0.0141578
666.780	0.0140797
666.858	0.0141042
666.936	0.0142479
667.014	0.0142255
667.092	0.0143496
667.170	0.0144762
667.248	0.0143667
667.326	0.0143203
667.405	0.0145444
667.483	0.0143816
667.561	0.0145344
667.639	0.0144388
667.717	0.0144830
667.795	0.0146036
667.873	0.0146274
667.951	0.0145781
668.030	0.0144584
668.108	0.0145197
668.186	0.0146751
668.264	0.0145889
668.342	0.0144456
668.420	0.0145023
668.498	0.0144327
668.576	0.0144888
668.655	0.0145332
668.733	0.0142709
668.811	0.0143082
668.889	0.0143526
668.967	0.0140454
669.045	0.0140426
669.123	0.0138646
669.201	0.0137779
669.280	0.0137962
669.358	0.0135642
669.436	0.0136630
669.514	0.0135207
669.592	0.0134615
669.670	0.0133850
669.748	0.0136411
669.826	0.0134990
669.905	0.0136532
669.983	0.0137743
670.061	0.0138097
670.139	0.0136533
670.217	0.0138112
670.295	0.0138994
670.373	0.0140385
670.451	0.0140855
670.530	0.0140462
670.608	0.0143257
670.686	0.0143599
670.764	0.0145142
670.842	0.0147627
670.920	0.0146754
670.998	0.0146636
671.076	0.0148752
671.155	0.0150337
671.233	0.0150224
671.311	0.0151435
671.389	0.0151623
671.467	0.0151910
671.545	0.0153006
671.623	0.0152903
671.701	0.0151573
671.780	0.0149908
671.858	0.0150497
671.936	0.0150708
672.014	0.0148509
672.092	0.0147116
672.170	0.0146758
672.248	0.0145727
672.326	0.0144055
672.405	0.0142602
672.483	0.0141258
672.561	0.0139265
672.639	0.0137788
672.717	0.0137629
672.795	0.0135136
672.873	0.0132668
672.951	0.0132665
673.030	0.0133007
673.108	0.0132235
673.186	0.0132290
673.264	0.0131972
673.342	0.0131039
673.420	0.0132996
673.498	0.0134268
673.576	0.0133287
673.655	0.0133825
673.733	0.0136276
673.811	0.0136410
673.889	0.0138702
673.967	0.0140181
674.045	0.0141443
674.123	0.0143771
674.201	0.0143127
674.280	0.0147839
674.358	0.0148315
674.436	0.0148534
674.514	0.0149232
674.592	0.0151895
674.670	0.0154610
674.748	0.0155116
674.826	0.0155798
674.905	0.0155260
674.983	0.0155005
675.061	0.0157466
675.139	0.0156030
675.217	0.0155463
675.295	0.0155495
675.373	0.0155108
675.451	0.0153290
675.530	0.0151386
675.608	0.0151042
675.686	0.0150579
675.764	0.0147809
675.842	0.0147356
675.920	0.0145535
675.998	0.0144145
676.076	0.0143002
676.155	0.0141525
676.233	0.0138988
676.311	0.0137803
676.389	0.0138857
676.467	0.0136322
676.545	0.0134012
676.623	0.0132662
676.701	0.0132618
676.780	0.0132770
676.858	0.0132591
676.936	0.0132215
677.014	0.0133812
677.092	0.0133349
677.170	0.0134119
677.248	0.0133838
677.326	0.0135221
677.405	0.0136232
677.483	0.0138697
677.561	0.0139493
677.639	0.0139522
677.717	0.0141728
677.795	0.0142546
677.873	0.0144242
677.951	0.0145076
678.030	0.0144302
678.108	0.0146027
678.186	0.0145839
678.264	0.0147510
678.342	0.0148706
678.420	0.0149200
678.498	0.0149645
678.576	0.0148663
678.655	0.0150773
678.733	0.0149394
678.811	0.0150982
678.889	0.0151273
678.967	0.0150388
679.045	0.0149030
679.123	0.0151050
679.201	0.0150706
679.280	0.0150235
679.358	0.0147466
679.436	0.0148892
679.514	0.0148313
679.592	0.0149696
679.670	0.0148266
679.748	0.0149029
679.826	0.0147528
679.905	0.0147408
679.983	0.0147773
680.061	0.0148386
680.139	0.0148361
680.217	0.0148886
680.295	0.0147549
680.373	0.0148522
680.451	0.0148109
680.530	0.0146677
680.608	0.0148091
680.686	0.0147256
680.764	0.0146271
680.842	0.0146018
680.920	0.0143433
680.998	0.0142627
681.076	0.0142773
681.155	0.0142050
681.233	0.0140575
681.311	0.0138875
681.389	0.0138554
681.467	0.0138037
681.545	0.0136584
681.623	0.0137651
681.701	0.0135405
681.780	0.0133480
681.858	0.0133953
681.936	0.0133498
682.014	0.0134935
682.092	0.0135777
682.170	0.0135643
682.248	0.0137935
682.326	0.0138444
682.405	0.0140182
682.483	0.0142731
682.561	0.0144130
682.639	0.0144356
682.717	0.0147394
682.795	0.0147781
682.873	0.0149399
682.951	0.0149547
683.030	0.0150266
683.108	0.0151575
683.186	0.0152676
683.264	0.0154803
683.342	0.0154077
683.420	0.0155900
683.498	0.0154874
683.576	0.0154565
683.655	0.0156359
683.733	0.0156226
683.811	0.0155449
683.889	0.0154818
683.967	0.0153342
684.045	0.0151889
684.123	0.0152085
684.201	0.0149494
684.280	0.0148047
684.358	0.0146257
684.436	0.0144508
684.514	0.0142491
684.592	0.0142014
684.670	0.0140195
684.748	0.0139160
684.826	0.0136820
684.905	0.0135331
684.983	0.0135266
685.061	0.0133906
685.139	0.0134527
685.217	0.0134375
685.295	0.0135124
685.373	0.0134012
685.451	0.0134843
685.530	0.0134095
685.608	0.0134409
685.686	0.0133634
685.764	0.0135151
685.842	0.0135625
685.920	0.0136421
685.998	0.0135549
686.076	0.0137540
686.155	0.0138174
686.233	0.0138260
686.311	0.0138678
686.389	0.0140310
686.467	0.0140908
686.545	0.0139724
686.623	0.0140498
686.701	0.0142079
686.780	0.0141312
686.858	0.0141070
686.936	0.0143266
687.014	0.0142126
687.092	0.0142965
687.170	0.0143241
687.248	0.0143918
687.326	0.0143999
687.405	0.0144364
687.483	0.0144844
687.561	0.0145814
687.639	0.0148715
687.717	0.0147594
687.795	0.0148602
687.873	0.0150391
687.951	0.0149754
688.030	0.0151897
688.108	0.0153699
688.186	0.0153865
688.264	0.0154134
688.342	0.0152959
688.420	0.0153750
688.498	0.0154095
688.576	0.0153623
688.655	0.0153101
688.733	0.0152869
688.811	0.0152917
688.889	0.0152243
688.967	0.0151964
689.045	0.0149027
689.123	0.0147427
689.201	0.0145267
689.280	0.0144533
689.358	0.0141956
689.436	0.0141515
689.514	0.0138512
689.592	0.0136624
689.670	0.0136101
689.748	0.0135722
689.826	0.0132349
689.905	0.0131999
689.983	0.0130676
690.061	0.0131690
690.139	0.0130712
690.217	0.0129706
690.295	0.0128947
690.373	0.0127871
690.451	0.0129658
690.530	0.0131333
690.608	0.0131213
690.686	0.0131691
690.764	0.0134812
690.842	0.0134887
690.920	0.0138960
690.998	0.0141984
691.076	0.0143636
691.155	0.0145521
691.233	0.0148211
691.311	0.0149400
691.389	0.0150658
691.467	0.0153380
691.545	0.0154444
691.623	0.0156120
691.701	0.0155711
691.780	0.0155547
691.858	0.0157735
691.936	0.0156596
692.014	0.0155556
692.092	0.0155009
692.170	0.0153716
692.248	0.0152702
692.326	0.0152277
692.405	0.0152549
692.483	0.0148692
692.561	0.0145864
692.639	0.0144119
692.717	0.0143965
692.795	0.0142454
692.873	0.0140096
692.951	0.0139404
693.030	0.0137796
693.108	0.0137318
693.186	0.0135868
693.264	0.0135169
693.342	0.0133386
693.420	0.0132696
693.498	0.0133816
693.576	0.0133919
693.655	0.0134270
693.733	0.0133743
693.811	0.0135095
693.889	0.0135368
693.967	0.0136266
694.045	0.0137070
694.123	0.0137804
694.201	0.0139027
694.280	0.0140681
694.358	0.0142412
694.436	0.0143134
694.514	0.0145124
694.592	0.0144746
694.670	0.0145384
694.748	0.0146857
694.826	0.0147920
694.905	0.0146500
694.983	0.0147405
695.061	0.0148265
695.139	0.0147083
695.217	0.0145320
695.295	0.0145833
695.373	0.0145753
695.451	0.0145353
695.530	0.0146006
695.608	0.0145652
695.686	0.0145235
695.764	0.0144772
695.842	0.0144456
695.920	0.0145045
695.998	0.0144421
696.076	0.0145338
696.155	0.0145024
696.233	0.0145574
696.311	0.0144373
696.389	0.0144341
696.467	0.0144621
696.545	0.0143929
696.623	0.0143324
696.701	0.0144090
696.780	0.0142809
696.858	0.0143513
696.936	0.0143841
697.014	0.0145135
697.092	0.0144358
697.170	0.0145505
697.248	0.0144662
697.326	0.0144065
697.405	0.0143331
697.483	0.0144080
697.561	0.0141697
697.639	0.0141587
697.717	0.0141692
697.795	0.0141440
697.873	0.0138825
697.951	0.0138075
698.030	0.0138704
698.108	0.0137423
698.186	0.0136111
698.264	0.0136097
698.342	0.0135886
698.420	0.0135690
698.498	0.0137061
698.576	0.0135751
698.655	0.0134877
698.733	0.0137291
698.811	0.0137441
698.889	0.0136089
698.967	0.0137565
699.045	0.0138837
699.123	0.0138833
699.201	0.0139278
699.280	0.0141089
699.358	0.0142315
699.436	0.0142806
699.514	0.0145084
699.592	0.0145774
699.670	0.0147598
699.748	0.0149020
699.826	0.0148960
699.905	0.0149271
699.983	0.0151337
700.061	0.0152046
700.139	0.0151710
700.217	0.0152678
700.295	0.0152826
700.373	0.0154316
700.451	0.0156755
700.530	0.0156249
700.608	0.0155779
700.686	0.0155324
700.764	0.0154205
700.842	0.0153300
700.920	0.0151031
700.998	0.0150332
701.076	0.0148004
701.155	0.0145594
701.233	0.0143657
701.311	0.0140798
701.389	0.0138042
701.467	0.0135593
701.545	0.0134103
701.623	0.0131011
701.701	0.0130906
701.780	0.0130524
701.858	0.0129084
701.936	0.0126854
702.014	0.0127600
702.092	0.0125345
702.170	0.0125272
702.248	0.0124630
702.326	0.0124724
702.405	0.0125856
702.483	0.0126488
702.561	0.0125802
702.639	0.0128965
702.717	0.0130580
702.795	0.0132997
702.873	0.0133708
702.951	0.0137958
703.030	0.0139569
703.108	0.0141591
703.186	0.0143751
703.264	0.0149898
703.342	0.0148837
703.420	0.0150826
703.498	0.0155136
703.576	0.0157742
703.655	0.0159731
703.733	0.0159604
703.811	0.0161887
703.889	0.0162713
703.967	0.0163150
704.045	0.0165749
704.123	0.0164178
704.201	0.0162173
704.280	0.0163187
704.358	0.0162402
704.436	0.0159885
704.514	0.0158893
704.592	0.0156505
704.670	0.0153935
704.748	0.0151951
704.826	0.0149541
704.905	0.0147950
704.983	0.0145721
705.061	0.0143938
705.139	0.0141174
705.217	0.0139379
705.295	0.0139246
705.373	0.0135027
705.451	0.0135278
705.530	0.0133970
705.608	0.0133077
705.686	0.0133578
705.764	0.0132774
705.842	0.0133144
705.920	0.0133965
705.998	0.0131249
706.076	0.0131371
706.155	0.0131632
706.233	0.0131593
706.311	0.0132342
706.389	0.0131612
706.467	0.0133539
706.545	0.0133878
706.623	0.0133704
706.701	0.0133432
706.780	0.0135521
706.858	0.0137243
706.936	0.0137501
707.014	0.0138428
707.092	0.0139361
707.170	0.0140868
707.248	0.0141227
707.326	0.0141877
707.405	0.0142785
707.483	0.0142391
707.561	0.0143024
707.639	0.0144434
707.717	0.0144530
707.795	0.0143815
707.873	0.0145250
707.951	0.0145744
708.030	0.0145490
708.108	0.0144874
708.186	0.0146088
708.264	0.0145747
708.342	0.0146027
708.420	0.0146248
708.498	0.0147430
708.576	0.0145096
708.655	0.0148163
708.733	0.0147749
708.811	0.0148111
708.889	0.0148670
708.967	0.0148437
709.045	0.0148210
709.123	0.0147724
709.201	0.0149249
709.280	0.0148579
709.358	0.0147026
709.436	0.0146474
709.514	0.0145654
709.592	0.0144444
709.670	0.0142898
709.748	0.0140833
709.826	0.0139267
709.905	0.0139304
709.983	0.0138065
710.061	0.0137305
710.139	0.0136282
710.217	0.0136283
710.295	0.0137755
710.373	0.0138383
710.451	0.0137573
710.530	0.0138103
710.608	0.0137090
710.686	0.0136893
710.764	0.0138547
710.842	0.0139252
710.920	0.0140525
710.998	0.0138631
711.076	0.0139838
711.155	0.0139280
711.233	0.0140437
711.311	0.0139742
711.389	0.0141702
711.467	0.0142023
711.545	0.0142426
711.623	0.0143422
711.701	0.0142936
711.780	0.0144727
711.858	0.0144486
711.936	0.0144768
712.014	0.0146078
712.092	0.0146833
712.170	0.0147041
712.248	0.0148599
712.326	0.0148358
712.405	0.0148833
712.483	0.0148641
712.561	0.0149622
712.639	0.0149839
712.717	0.0149762
712.795	0.0151068
712.873	0.0149580
712.951	0.0148246
713.030	0.0148309
713.108	0.0146825
713.186	0.0146921
713.264	0.0145940
713.342	0.0145475
713.420	0.0146577
713.498	0.0143446
713.576	0.0142416
713.655	0.0141483
713.733	0.0140626
713.811	0.0138934
713.889	0.0136629
713.967	0.0137617
714.045	0.0136667
714.123	0.0135279
714.201	0.0134157
714.280	0.0134784
714.358	0.0133746
714.436	0.0133054
714.514	0.0135004
714.592	0.0134998
714.670	0.0134854
714.748	0.0134084
714.826	0.0134457
714.905	0.0135711
714.983	0.0137148
715.061	0.0137552
715.139	0.0137162
715.217	0.0139341
715.295	0.0140452
715.373	0.0141378
715.451	0.0141663
715.530	0.0143907
715.608	0.0144078
715.686	0.0144814
715.764	0.0146779
715.842	0.0148176
715.920	0.0149685
715.998	0.0149471
716.076	0.0150653
716.155	0.0152029
716.233	0.0151936
716.311	0.0152332
716.389	0.0153024
716.467	0.0152550
716.545	0.0153127
716.623	0.0152754
716.701	0.0151357
716.780	0.0150101
716.858	0.0151241
716.936	0.0151148
717.014	0.0149929
717.092	0.0148412
717.170	0.0146287
717.248	0.0146613
717.326	0.0146099
717.405	0.0146184
717.483	0.0144991
717.561	0.0143329
717.639	0.0144142
717.717	0.0144991
717.795	0.0145334
717.873	0.0145391
717.951	0.0144095
718.030	0.0144721
718.108	0.0144949
718.186	0.0143633
718.264	0.0143767
718.342	0.0144151
718.420	0.0144920
718.498	0.0143864
718.576	0.0145211
718.655	0.0142957
718.733	0.0142448
718.811	0.0142193
718.889	0.0142674
718.967	0.0140598
719.045	0.0141962
719.123	0.0140742
719.201	0.0139839
719.280	0.0139682
719.358	0.0138815
719.436	0.0137949
719.514	0.0137238
719.592	0.0136498
719.670	0.0136729
719.748	0.0136515
719.826	0.0137864
719.905	0.0136471
719.983	0.0136494
720.061	0.0138009
720.139	0.0137547
720.217	0.0139234
720.295	0.0139139
720.373	0.0138350
720.451	0.0139156
720.530	0.0142258
720.608	0.0141714
720.686	0.0140551
720.764	0.0142098
720.842	0.0142809
720.920	0.0142667
720.998	0.0143356
721.076	0.0144234
721.155	0.0145245
721.233	0.0145782
721.311	0.0144859
721.389	0.0145007
721.467	0.0146326
721.545	0.0146764
721.623	0.0146478
721.701	0.0146846
721.780	0.0147162
721.858	0.0147903
721.936	0.0148528
722.014	0.0146559
722.092	0.0148953
722.170	0.0148975
722.248	0.0147621
722.326	0.0149235
722.405	0.0148614
722.483	0.0148747
722.561	0.0148106
722.639	0.0146111
722.717	0.0148488
722.795	0.0148352
722.873	0.0147604
722.951	0.0147378
723.030	0.0146496
723.108	0.0143822
723.186	0.0144841
723.264	0.0145384
723.342	0.0143407
723.420	0.0144193
723.498	0.0142320
723.576	0.0143250
723.655	0.0143761
723.733	0.0142178
723.811	0.0140845
723.889	0.0138822
723.967	0.0140726
724.045	0.0138521
724.123	0.0138303
724.201	0.0136747
724.280	0.0136507
724.358	0.0136849
724.436	0.0136793
724.514	0.0136450
724.592	0.0137398
724.670	0.0135661
724.748	0.0136890
724.826	0.0137029
724.905	0.0138858
724.983	0.0137390
725.061	0.0139469
725.139	0.0139280
725.217	0.0139670
725.295	0.0141799
725.373	0.0139926
725.451	0.0140620
725.530	0.0141360
725.608	0.0141502
725.686	0.0140929
725.764	0.0141174
725.842	0.0142666
725.920	0.0143665
725.998	0.0144317
726.076	0.0143050
726.155	0.0145107
726.233	0.0145723
726.311	0.0147692
726.389	0.0148264
726.467	0.0148048
726.545	0.0147268
726.623	0.0146290
726.701	0.0146998
726.780	0.0147009
726.858	0.0145413
726.936	0.0145515
727.014	0.0145442
727.092	0.0143742
727.170	0.0142886
727.248	0.0142064
727.326	0.0140870
727.405	0.0140857
727.483	0.0141177
727.561	0.0138918
727.639	0.0137830
727.717	0.0138800
727.795	0.0138136
727.873	0.0136036
727.951	0.0134830
728.030	0.0133703
728.108	0.0134362
728.186	0.0132670
728.264	0.0131963
728.342	0.0132222
728.420	0.0132230
728.498	0.0132634
728.576	0.0133050
728.655	0.0132832
728.733	0.0134099
728.811	0.0135611
728.889	0.0135937
728.967	0.0136847
729.045	0.0138174
729.123	0.0139359
729.201	0.0139519
729.280	0.0140813
729.358	0.0141536
729.436	0.0144039
729.514	0.0145056
729.592	0.0146755
729.670	0.0147644
729.748	0.0148514
729.826	0.0150761
729.905	0.0150986
729.983	0.0150710
730.061	0.0152728
730.139	0.0150455
730.217	0.0152132
730.295	0.0152424
730.373	0.0152284
730.451	0.0151043
730.530	0.0149775
730.608	0.0149219
730.686	0.0149147
730.764	0.0148055
730.842	0.0146498
730.920	0.0145570
730.998	0.0144080
731.076	0.0142925
731.155	0.0142676
731.233	0.0143099
731.311	0.0141219
731.389	0.0141364
731.467	0.0140383
731.545	0.0140925
731.623	0.0138986
731.701	0.0140120
731.780	0.0140688
731.858	0.0140771
731.936	0.0141028
732.014	0.0142067
732.092	0.0140145
732.170	0.0140730
732.248	0.0140946
732.326	0.0139410
732.405	0.0141730
732.483	0.0140389
732.561	0.0140966
732.639	0.0141689
732.717	0.0141322
732.795	0.0139895
732.873	0.0140192
732.951	0.0141544
733.030	0.0140825
733.108	0.0139330
733.186	0.0140515
733.264	0.0142952
733.342	0.0141031
733.420	0.0141721
733.498	0.0140740
733.576	0.0141624
733.655	0.0141978
733.733	0.0142077
733.811	0.0141676
733.889	0.0142912
733.967	0.0143697
734.045	0.0140631
734.123	0.0141420
734.201	0.0142224
734.280	0.0142636
734.358	0.0141856
734.436	0.0141791
734.514	0.0142411
734.592	0.0141728
734.670	0.0143759
734.748	0.0142207
734.826	0.0142056
734.905	0.0142014
734.983	0.0142928
735.061	0.0142647
735.139	0.0143275
735.217	0.0143854
735.295	0.0145117
735.373	0.0143779
735.451	0.0143152
735.530	0.0143684
735.608	0.0143510
735.686	0.0143343
735.764	0.0145576
735.842	0.0147308
735.920	0.0148081
735.998	0.0146617
736.076	0.0149223
736.155	0.0150223
736.233	0.0149592
736.311	0.0149804
736.389	0.0150380
736.467	0.0151437
736.545	0.0150182
736.623	0.0149943
736.701	0.0151431
736.780	0.0150003
736.858	0.0148949
736.936	0.0147306
737.014	0.0148335
737.092	0.0147636
737.170	0.0146455
737.248	0.0146864
737.326	0.0144641
737.405	0.0144482
737.483	0.0140805
737.561	0.0140958
737.639	0.0140528
737.717	0.0139725
737.795	0.0138810
737.873	0.0141257
737.951	0.0140380
738.030	0.0139835
738.108	0.0139243
738.186	0.0140050
738.264	0.0141144
738.342	0.0141363
738.420	0.0141212
738.498	0.0141665
738.576	0.0142319
738.655	0.0141704
738.733	0.0142526
738.811	0.0143116
738.889	0.0143581
738.967	0.0143971
739.045	0.0143211
739.123	0.0145925
739.201	0.0144767
739.280	0.0144667
739.358	0.0146570
739.436	0.0146992
739.514	0.0147321
739.592	0.0146547
739.670	0.0146498
739.748	0.0146334
739.826	0.0146056
739.905	0.0145681
739.983	0.0146209
740.061	0.0145535
740.139	0.0145207
740.217	0.0145084
740.295	0.0144208
740.373	0.0144630
740.451	0.0144872
740.530	0.0143816
740.608	0.0143867
740.686	0.0143176
740.764	0.0143267
740.842	0.0140953
740.920	0.0142255
740.998	0.0142413
741.076	0.0141542
741.155	0.0140287
741.233	0.0141981
741.311	0.0140721
741.389	0.0138847
741.467	0.0139215
741.545	0.0142460
741.623	0.0140014
741.701	0.0138885
741.780	0.0140202
741.858	0.0140502
741.936	0.0140845
742.014	0.0141580
742.092	0.0141778
742.170	0.0144135
742.248	0.0142744
742.326	0.0142976
742.405	0.0144898
742.483	0.0143795
742.561	0.0145869
742.639	0.0145243
742.717	0.0145293
742.795	0.0145044
742.873	0.0144814
742.951	0.0145667
743.030	0.0145441
743.108	0.0145078
743.186	0.0144807
743.264	0.0143343
743.342	0.0145346
743.420	0.0144296
743.498	0.0142965
743.576	0.0144102
743.655	0.0142944
743.733	0.0140897
743.811	0.0142087
743.889	0.0141201
743.967	0.0141071
744.045	0.0141501
744.123	0.0141083
744.201	0.0140119
744.280	0.0140224
744.358	0.0142720
744.436	0.0140803
744.514	0.0138038
744.592	0.0140043
744.670	0.0140923
744.748	0.0140305
744.826	0.0139408
744.905	0.0141156
744.983	0.0139717
745.061	0.0140304
745.139	0.0139329
745.217	0.0140592
745.295	0.0142221
745.373	0.0141704
745.451	0.0142013
745.530	0.0142109
745.608	0.0143819
745.686	0.0143916
745.764	0.0144280
745.842	0.0145565
745.920	0.0144867
745.998	0.0145603
746.076	0.0145586
746.155	0.0146103
746.233	0.0145261
746.311	0.0145338
746.389	0.0145937
746.467	0.0145059
746.545	0.0145895
746.623	0.0145892
746.701	0.0146381
746.780	0.0146330
746.858	0.0146383
746.936	0.0144548
747.014	0.0145173
747.092	0.0145754
747.170	0.0144110
747.248	0.0144116
747.326	0.0143375
747.405	0.0144151
747.483	0.0144308
747.561	0.0144443
747.639	0.0143132
747.717	0.0143327
747.795	0.0144205
747.873	0.0144386
747.951	0.0143746
748.030	0.0141869
748.108	0.0143629
748.186	0.0143137
748.264	0.0141730
748.342	0.0142123
748.420	0.0142436
748.498	0.0141613
748.576	0.0142365
748.655	0.0141078
748.733	0.0139899
748.811	0.0140726
748.889	0.0141235
748.967	0.0139718
749.045	0.0139433
749.123	0.0138474
749.201	0.0140150
749.280	0.0139252
749.358	0.0139629
749.436	0.0138998
749.514	0.0139542
749.592	0.0139217
749.670	0.0140093
749.748	0.0140953
749.826	0.0140473
749.905	0.0140791
749.983	0.0141292
750.061	0.0141378
750.139	0.0141074
750.217	0.0143139
750.295	0.0142885
750.373	0.0143491
750.451	0.0142948
750.530	0.0143553
750.608	0.0142996
750.686	0.0142715
750.764	0.0144548
750.842	0.0143297
750.920	0.0145400
750.998	0.0141912
751.076	0.0141900
751.155	0.0143859
751.233	0.0142416
751.311	0.0140504
751.389	0.0142538
751.467	0.0143081
751.545	0.0141733
751.623	0.0140958
751.701	0.0142921
751.780	0.0143383
751.858	0.0142501
751.936	0.0139728
752.014	0.0143253
752.092	0.0143690
752.170	0.0143279
752.248	0.0143080
752.326	0.0143244
752.405	0.0143352
752.483	0.0144556
752.561	0.0142715
752.639	0.0143689
752.717	0.0143925
752.795	0.0142896
752.873	0.0143190
752.951	0.0144293
753.030	0.0142474
753.108	0.0144294
753.186	0.0144060
753.264	0.0144276
753.342	0.0143755
753.420	0.0143077
753.498	0.0141526
753.576	0.0142894
753.655	0.0141626
753.733	0.0142040
753.811	0.0142834
753.889	0.0141061
753.967	0.0139522
754.045	0.0140566
754.123	0.0140870
754.201	0.0139841
754.280	0.0140160
754.358	0.0140811
754.436	0.0139545
754.514	0.0139156
754.592	0.0140691
754.670	0.0141907
754.748	0.0140399
754.826	0.0140506
754.905	0.0141190
754.983	0.0140934
755.061	0.0142193
755.139	0.0142168
755.217	0.0143341
755.295	0.0143281
755.373	0.0142395
755.451	0.0141942
755.530	0.0143073
755.608	0.0143647
755.686	0.0146659
755.764	0.0145900
755.842	0.0145474
755.920	0.0144717
755.998	0.0144255
756.076	0.0145976
756.155	0.0146449
756.233	0.0146323
756.311	0.0146098
756.389	0.0147655
756.467	0.0146652
756.545	0.0145298
756.623	0.0145000
756.701	0.0145182
756.780	0.0144522
756.858	0.0146289
756.936	0.0143412
757.014	0.0144728
757.092	0.0144283
757.170	0.0143518
757.248	0.0143277
757.326	0.0141885
757.405	0.0142809
757.483	0.0142349
757.561	0.0142334
757.639	0.0142675
757.717	0.0141496
757.795	0.0140947
757.873	0.0141228
757.951	0.0143049
758.030	0.0143296
758.108	0.0141586
758.186	0.0141322
758.264	0.0141221
758.342	0.0143442
758.420	0.0143417
758.498	0.0143005
758.576	0.0142538
758.655	0.0142733
758.733	0.0142033
758.811	0.0142635
758.889	0.0142278
758.967	0.0144155
759.045	0.0143317
759.123	0.0144216
759.201	0.0143600
759.280	0.0142989
759.358	0.0144890
759.436	0.0145630
759.514	0.0145107
759.592	0.0145487
759.670	0.0145549
759.748	0.0144962
759.826	0.0145126
759.905	0.0145142
759.983	0.0146608
760.061	0.0145641
760.139	0.0147504
760.217	0.0145901
760.295	0.0147338
760.373	0.0147176
760.451	0.0146315
760.530	0.0146951
760.608	0.0146795
760.686	0.0146276
760.764	0.0146299
760.842	0.0146863
760.920	0.0145879
760.998	0.0146572
761.076	0.0145747
761.155	0.0145836
761.233	0.0146093
761.311	0.0144167
761.389	0.0142745
761.467	0.0144349
761.545	0.0143835
761.623	0.0141118
761.701	0.0142524
761.780	0.0142817
761.858	0.0142297
761.936	0.0142528
762.014	0.0141864
762.092	0.0143449
762.170	0.0142013
762.248	0.0140902
762.326	0.0141243
762.405	0.0140645
762.483	0.0141919
762.561	0.0141157
762.639	0.0141116
762.717	0.0141183
762.795	0.0141915
762.873	0.0141231
762.951	0.0143114
763.030	0.0141541
763.108	0.0141335
763.186	0.0142130
763.264	0.0141576
763.342	0.0142045
763.420	0.0141672
763.498	0.0141745
763.576	0.0142875
763.655	0.0141977
763.733	0.0141475
763.811	0.0141533
763.889	0.0142435
763.967	0.0141784
764.045	0.0142234
764.123	0.0143168
764.201	0.0143488
764.280	0.0141947
764.358	0.0143718
764.436	0.0142094
764.514	0.0142219
764.592	0.0141658
764.670	0.0141833
764.748	0.0142946
764.826	0.0141736
764.905	0.0141571
764.983	0.0141661
765.061	0.0141261
765.139	0.0142248
765.217	0.0142643
765.295	0.0141277
765.373	0.0142123
765.451	0.0142140
765.530	0.0141711
765.608	0.0141389
765.686	0.0141084
765.764	0.0142465
765.842	0.0141086
765.920	0.0142627
765.998	0.0142179
766.076	0.0141618
766.155	0.0141519
766.233	0.0140508
766.311	0.0140587
766.389	0.0141314
766.467	0.0142287
766.545	0.0141750
766.623	0.0142550
766.701	0.0142357
766.780	0.0142915
766.858	0.0142240
766.936	0.0141778
767.014	0.0141146
767.092	0.0141808
767.170	0.0142592
767.248	0.0141821
767.326	0.0141489
767.405	0.0142327
767.483	0.0142651
767.561	0.0141893
767.639	0.0142593
767.717	0.0143263
767.795	0.0144262
767.873	0.0142634
767.951	0.0144821
768.030	0.0142319
768.108	0.0142409
768.186	0.0144434
768.264	0.0144209
768.342	0.0143392
768.420	0.0142773
768.498	0.0142665
768.576	0.0143087
768.655	0.0143483
768.733	0.0142384
768.811	0.0142797
768.889	0.0142056
768.967	0.0142200
769.045	0.0141510
769.123	0.0139400
769.201	0.0139165
769.280	0.0139471
769.358	0.0139162
769.436	0.0139913
769.514	0.0140997
769.592	0.0137837
769.670	0.0137588
769.748	0.0138043
769.826	0.0140382
769.905	0.0139800
769.983	0.0139389
770.061	0.0139925
770.139	0.0141589
770.217	0.0139954
770.295	0.0141579
770.373	0.0141966
770.451	0.0143713
770.530	0.0142036
770.608	0.0143021
770.686	0.0143403
770.764	0.0144659
770.842	0.0145952
770.920	0.0145956
770.998	0.0147664
771.076	0.0145798
771.155	0.0145376
771.233	0.0146836
771.311	0.0146447
771.389	0.0145824
771.467	0.0145565
771.545	0.0146599
771.623	0.0145194
771.701	0.0143524
771.780	0.0145365
771.858	0.0144944
771.936	0.0144714
772.014	0.0145316
772.092	0.0144959
772.170	0.0143255
772.248	0.0145306
772.326	0.0143952
772.405	0.0145058
772.483	0.0144438
772.561	0.0143985
772.639	0.0142347
772.717	0.0142431
772.795	0.0143834
772.873	0.0144037
772.951	0.0144041
773.030	0.0141883
773.108	0.0140617
773.186	0.0142271
773.264	0.0142562
773.342	0.0140884
773.420	0.0140961
773.498	0.0141504
773.576	0.0140511
773.655	0.0141064
773.733	0.0140206
773.811	0.0140698
773.889	0.0140803
773.967	0.0141048
774.045	0.0141226
774.123	0.0140614
774.201	0.0141354
774.280	0.0141257
774.358	0.0140899
774.436	0.0142846
774.514	0.0144245
774.592	0.0143305
774.670	0.0142253
774.748	0.0143793
774.826	0.0144378
774.905	0.0144856
774.983	0.0144430
775.061	0.0143732
775.139	0.0143948
775.217	0.0144227
775.295	0.0144753
775.373	0.0144943
775.451	0.0144555
775.530	0.0143884
775.608	0.0143606
775.686	0.0143557
775.764	0.0143891
775.842	0.0143629
775.920	0.0143314
775.998	0.0144303
776.076	0.0141945
776.155	0.0142381
776.233	0.0142007
776.311	0.0142734
776.389	0.0142960
776.467	0.0141861
776.545	0.0142624
776.623	0.0143673
776.701	0.0142005
776.780	0.0142594
776.858	0.0143452
776.936	0.0142458
777.014	0.0143450
777.092	0.0141525
777.170	0.0142032
777.248	0.0142464
777.326	0.0141915
777.405	0.0142931
777.483	0.0142327
777.561	0.0141986
777.639	0.0142448
777.717	0.0142384
777.795	0.0142601
777.873	0.0142563
777.951	0.0140858
778.030	0.0141599
778.108	0.0141487
778.186	0.0141553
778.264	0.0141357
778.342	0.0142868
778.420	0.0143492
778.498	0.0142715
778.576	0.0142349
778.655	0.0141733
778.733	0.0142355
778.811	0.0143641
778.889	0.0143295
778.967	0.0142474
779.045	0.0142458
779.123	0.0143508
779.201	0.0141940
779.280	0.0142395
779.358	0.0143318
779.436	0.0142719
779.514	0.0142915
779.592	0.0143394
779.670	0.0143927
779.748	0.0142973
779.826	0.0144064
779.905	0.0144208
779.983	0.0143996
780.061	0.0143830
780.139	0.0144747
780.217	0.0145453
780.295	0.0145689
780.373	0.0143715
780.451	0.0143659
780.530	0.0146114
780.608	0.0145860
780.686	0.0144781
780.764	0.0143916
780.842	0.0145029
780.920	0.0145397
780.998	0.0144767
781.076	0.0145490
781.155	0.0144982
781.233	0.0145403
781.311	0.0145152
781.389	0.0145892
781.467	0.0146033
781.545	0.0145525
781.623	0.0145740
781.701	0.0145518
781.780	0.0145232
781.858	0.0145925
781.936	0.0144544
782.014	0.0144202
782.092	0.0145798
782.170	0.0147407
782.248	0.0144151
782.326	0.0143938
782.405	0.0143427
782.483	0.0144872
782.561	0.0144487
782.639	0.0145152
782.717	0.0144797
782.795	0.0145383
782.873	0.0146412
782.951	0.0143912
783.030	0.0144513
783.108	0.0143965
783.186	0.0142546
783.264	0.0144370
783.342	0.0141714
783.420	0.0142139
783.498	0.0143073
783.576	0.0143292
783.655	0.0141971
783.733	0.0142923
783.811	0.0142503
783.889	0.0141664
783.967	0.0141426
784.045	0.0142011
784.123	0.0140462
784.201	0.0141191
784.280	0.0141085
784.358	0.0143276
784.436	0.0142961
784.514	0.0144439
784.592	0.0143212
784.670	0.0144081
784.748	0.0143789
784.826	0.0143444
784.905	0.0144036
784.983	0.0145787
785.061	0.0144486
785.139	0.0143778
785.217	0.0145988
785.295	0.0144713
785.373	0.0143707
785.451	0.0144128
785.530	0.0144481
785.608	0.0143490
785.686	0.0144594
785.764	0.0143774
785.842	0.0143929
785.920	0.0143773
785.998	0.0143096
786.076	0.0141834
786.155	0.0142368
786.233	0.0141788
786.311	0.0141263
786.389	0.0141395
786.467	0.0141744
786.545	0.0141314
786.623	0.0141492
786.701	0.0142835
786.780	0.0141309
786.858	0.0140868
786.936	0.0140810
787.014	0.0140406
787.092	0.0140829
787.170	0.0142463
787.248	0.0142377
787.326	0.0141041
787.405	0.0140903
787.483	0.0141226
787.561	0.0141418
787.639	0.0141430
787.717	0.0142292
787.795	0.0142400
787.873	0.0141103
787.951	0.0142583
788.030	0.0142672
788.108	0.0142024
788.186	0.0142504
788.264	0.0142770
788.342	0.0142435
788.420	0.0144885
788.498	0.0143620
788.576	0.0141411
788.655	0.0142751
788.733	0.0144102
788.811	0.0144244
788.889	0.0142827
788.967	0.0142014
789.045	0.0143819
789.123	0.0142686
789.201	0.0141611
789.280	0.0143254
789.358	0.0142175
789.436	0.0141495
789.514	0.0142012
789.592	0.0141827
789.670	0.0141064
789.748	0.0140621
789.826	0.0141131
789.905	0.0140258
789.983	0.0139635
790.061	0.0140060
790.139	0.0141037
790.217	0.0140691
790.295	0.0140182
790.373	0.0140256
790.451	0.0139797
790.530	0.0139328
790.608	0.0139705
790.686	0.0140954
790.764	0.0140842
790.842	0.0141976
790.920	0.0141209
790.998	0.0140764
791.076	0.0141267
791.155	0.0140906
791.233	0.0141735
791.311	0.0141818
791.389	0.0143367
791.467	0.0142278
791.545	0.0142901
791.623	0.0142661
791.701	0.0142078
791.780	0.0143532
791.858	0.0142862
791.936	0.0141274
792.014	0.0143925
792.092	0.0143018
792.170	0.0140379
792.248	0.0142431
792.326	0.0141510
792.405	0.0141747
792.483	0.0142238
792.561	0.0140874
792.639	0.0142608
792.717	0.0140987
792.795	0.0141470
792.873	0.0141003
792.951	0.0140984
793.030	0.0141455
793.108	0.0143156
793.186	0.0142963
793.264	0.0141205
793.342	0.0141879
793.420	0.0142411
793.498	0.0141885
793.576	0.0141699
793.655	0.0143166
793.733	0.0142820
793.811	0.0141566
793.889	0.0141188
793.967	0.0142506
794.045	0.0142587
794.123	0.0144579
794.201	0.0142839
794.280	0.0142851
794.358	0.0142967
794.436	0.0142295
794.514	0.0142049
794.592	0.0142919
794.670	0.0143396
794.748	0.0141904
794.826	0.0142153
794.905	0.0141914
794.983	0.0143399
795.061	0.0142480
795.139	0.0141917
795.217	0.0140858
795.295	0.0141434
795.373	0.0141470
795.451	0.0142401
795.530	0.0142833
795.608	0.0142484
795.686	0.0142387
795.764	0.0143642
795.842	0.0142741
795.920	0.0142628
795.998	0.0142910
796.076	0.0143378
796.155	0.0144457
796.233	0.0144455
796.311	0.0144984
796.389	0.0144817
796.467	0.0143841
796.545	0.0144578
796.623	0.0143478
796.701	0.0143780
796.780	0.0144142
796.858	0.0144324
796.936	0.0144984
797.014	0.0144637
797.092	0.0143694
797.170	0.0144886
797.248	0.0144215
797.326	0.0142864
797.405	0.0143488
797.483	0.0144267
797.561	0.0143285
797.639	0.0144504
797.717	0.0142975
797.795	0.0141896
797.873	0.0142833
797.951	0.0143196
798.030	0.0141245
798.108	0.0142287
798.186	0.0140564
798.264	0.0141504
798.342	0.0141994
798.420	0.0140879
798.498	0.0140423
798.576	0.0139631
798.655	0.0141232
798.733	0.0140421
798.811	0.0140034
798.889	0.0140391
798.967	0.0140679
799.045	0.0141273
799.123	0.0141332
799.201	0.0142278
799.280	0.0140951
799.358	0.0142713
799.436	0.0143154
799.514	0.0141204
799.592	0.0143216
799.670	0.0144521
799.748	0.0143420
799.826	0.0143449
799.905	0.0145338
799.983	0.0143886
800.061	0.0144702
800.139	0.0145930
800.217	0.0144971
800.295	0.0144564
800.373	0.0145085
800.451	0.0145212
800.530	0.0144115
800.608	0.0145940
800.686	0.0143684
800.764	0.0143973
800.842	0.0144345
800.920	0.0143492
800.998	0.0143753
801.076	0.0144388
801.155	0.0144220
801.233	0.0144660
801.311	0.0146206
801.389	0.0144428
801.467	0.0143311
801.545	0.0143933
801.623	0.0142393
801.701	0.0143144
801.780	0.0143587
801.858	0.0143997
801.936	0.0142276
802.014	0.0143369
802.092	0.0142996
802.170	0.0144020
802.248	0.0143977
802.326	0.0142937
802.405	0.0143769
802.483	0.0143666
802.561	0.0143716
802.639	0.0143709
802.717	0.0143178
802.795	0.0144764
802.873	0.0144550
802.951	0.0145154
803.030	0.0144351
803.108	0.0144112
803.186	0.0145128
803.264	0.0144107
803.342	0.0143941
803.420	0.0144330
803.498	0.0144336
803.576	0.0145843
803.655	0.0146284
803.733	0.0146128
803.811	0.0145551
803.889	0.0145356
803.967	0.0147295
804.045	0.0146062
804.123	0.0145341
804.201	0.0145748
804.280	0.0146201
804.358	0.0146561
804.436	0.0143392
804.514	0.0145718
804.592	0.0143882
804.670	0.0145419
804.748	0.0145174
804.826	0.0143969
804.905	0.0145467
804.983	0.0144206
805.061	0.0144301
805.139	0.0143962
805.217	0.0144653
805.295	0.0144006
805.373	0.0143154
805.451	0.0143617
805.530	0.0145134
805.608	0.0142402
805.686	0.0143884
805.764	0.0145371
805.842	0.0144506
805.920	0.0142229
805.998	0.0143457
806.076	0.0143137
806.155	0.0143721
806.233	0.0142760
806.311	0.0142784
806.389	0.0141817
806.467	0.0143620
806.545	0.0142244
806.623	0.0139799
806.701	0.0140748
806.780	0.0141054
806.858	0.0140629
806.936	0.0140855
807.014	0.0141759
807.092	0.0141229
807.170	0.0140093
807.248	0.0141286
807.326	0.0139124
807.405	0.0139688
807.483	0.0139211
807.561	0.0139846
807.639	0.0140125
807.717	0.0139393
807.795	0.0140253
807.873	0.0140703
807.951	0.0140094
808.030	0.0141005
808.108	0.0139870
808.186	0.0140071
808.264	0.0140382
808.342	0.0140785
808.420	0.0139127
808.498	0.0139925
808.576	0.0142964
808.655	0.0139787
808.733	0.0139810
808.811	0.0142953
808.889	0.0142352
808.967	0.0142340
809.045	0.0142564
809.123	0.0141805
809.201	0.0142081
809.280	0.0143279
809.358	0.0141666
809.436	0.0142686
809.514	0.0141944
809.592	0.0142876
809.670	0.0143736
809.748	0.0143536
809.826	0.0143777
809.905	0.0143443
809.983	0.0142890
810.061	0.0142041
810.139	0.0143297
810.217	0.0143359
810.295	0.0142867
810.373	0.0141448
810.451	0.0143683
810.530	0.0142744
810.608	0.0143420
810.686	0.0141456
810.764	0.0141353
810.842	0.0143169
810.920	0.0142281
810.998	0.0141382
811.076	0.0140910
811.155	0.0141713
811.233	0.0142476
811.311	0.0141249
811.389	0.0140621
811.467	0.0141548
811.545	0.0143036
811.623	0.0142757
811.701	0.0141420
811.780	0.0142810
811.858	0.0142007
811.936	0.0143197
812.014	0.0144193
812.092	0.0143130
812.170	0.0144186
812.248	0.0143934
812.326	0.0145384
812.405	0.0143479
812.483	0.0143500
812.561	0.0144062
812.639	0.0144100
812.717	0.0145293
812.795	0.0144402
812.873	0.0144564
812.951	0.0144504
813.030	0.0145498
813.108	0.0145902
813.186	0.0144108
813.264	0.0145049
813.342	0.0144830
813.420	0.0144504
813.498	0.0143932
813.576	0.0144900
813.655	0.0144143
813.733	0.0145120
813.811	0.0143931
813.889	0.0143462
813.967	0.0144145
814.045	0.0144650
814.123	0.0143159
814.201	0.0144173
814.280	0.0143502
814.358	0.0142904
814.436	0.0143015
814.514	0.0144077
814.592	0.0144946
814.670	0.0143874
814.748	0.0142831
814.826	0.0143142
814.905	0.0143851
814.983	0.0143066
815.061	0.0141900
815.139	0.0142282
815.217	0.0143607
815.295	0.0143858
815.373	0.0143128
815.451	0.0142855
815.530	0.0141973
815.608	0.0141491
815.686	0.0143517
815.764	0.0143157
815.842	0.0142707
815.920	0.0143296
815.998	0.0143896
816.076	0.0144395
816.155	0.0143317
816.233	0.0143390
816.311	0.0143953
816.389	0.0144065
816.467	0.0144397
816.545	0.0144183
816.623	0.0145158
816.701	0.0145211
816.780	0.0144836
816.858	0.0143239
816.936	0.0144537
817.014	0.0146214
817.092	0.0146019
817.170	0.0144960
817.248	0.0145886
817.326	0.0146284
817.405	0.0143802
817.483	0.0144971
817.561	0.0145550
817.639	0.0144958
817.717	0.0145191
817.795	0.0144104
817.873	0.0144510
817.951	0.0143576
818.030	0.0144164
818.108	0.0143598
818.186	0.0143478
818.264	0.0143388
818.342	0.0142599
818.420	0.0143199
818.498	0.0142635
818.576	0.0142396
818.655	0.0143643
818.733	0.0142291
818.811	0.0142415
818.889	0.0141296
818.967	0.0142363
819.045	0.0143573
819.123	0.0142882
819.201	0.0142306
819.280	0.0141944
819.358	0.0142353
819.436	0.0142806
819.514	0.0142950
819.592	0.0141782
819.670	0.0142383
819.748	0.0141762
819.826	0.0140761
819.905	0.0140260
819.983	0.0143543
820.061	0.0141445
820.139	0.0141788
820.217	0.0143065
820.295	0.0142416
820.373	0.0140392
820.451	0.0141084
820.530	0.0141705
820.608	0.0141895
820.686	0.0142889
820.764	0.0142053
820.842	0.0141174
820.920	0.0141911
820.998	0.0141854
821.076	0.0141890
821.155	0.0142506
821.233	0.0142107
821.311	0.0140961
821.389	0.0143088
821.467	0.0142126
821.545	0.0142935
821.623	0.0142616
821.701	0.0141345
821.780	0.0140949
821.858	0.0140373
821.936	0.0142532
822.014	0.0142596
822.092	0.0141882
822.170	0.0140367
822.248	0.0140602
822.326	0.0142419
822.405	0.0142151
822.483	0.0143066
822.561	0.0142754
822.639	0.0142955
822.717	0.0143066
822.795	0.0143475
822.873	0.0143370
822.951	0.0142543
823.030	0.0142270
823.108	0.0143695
823.186	0.0143906
823.264	0.0142308
823.342	0.0144205
823.420	0.0142347
823.498	0.0142352
823.576	0.0142419
823.655	0.0144207
823.733	0.0144024
823.811	0.0142557
823.889	0.0144126
823.967	0.0143241
824.045	0.0141772
824.123	0.0143010
824.201	0.0143658
824.280	0.0142615
824.358	0.0142215
824.436	0.0144769
824.514	0.0143068
824.592	0.0142529
824.670	0.0143568
824.748	0.0142877
824.826	0.0142931
824.905	0.0144961
824.983	0.0143523
825.061	0.0142352
825.139	0.0143898
825.217	0.0144171
825.295	0.0143768
825.373	0.0144616
825.451	0.0145680
825.530	0.0145363
825.608	0.0144918
825.686	0.0145045
825.764	0.0144518
825.842	0.0144424
825.920	0.0144675
825.998	0.0145063
826.076	0.0143708
826.155	0.0144405
826.233	0.0143749
826.311	0.0143854
826.389	0.0144250
826.467	0.0145403
826.545	0.0143161
826.623	0.0143720
826.701	0.0143842
826.780	0.0144213
826.858	0.0144992
826.936	0.0144063
827.014	0.0144312
827.092	0.0145077
827.170	0.0143838
827.248	0.0141608
827.326	0.0142467
827.405	0.0144157
827.483	0.0143491
827.561	0.0143017
827.639	0.0143507
827.717	0.0140821
827.795	0.0143309
827.873	0.0142883
827.951	0.0141163
828.030	0.0141727
828.108	0.0141080
828.186	0.0140429
828.264	0.0140841
828.342	0.0141531
828.420	0.0141016
828.498	0.0140885
828.576	0.0140427
828.655	0.0140359
828.733	0.0139913
828.811	0.0140257
828.889	0.0140144
828.967	0.0139374
829.045	0.0138881
829.123	0.0140200
829.201	0.0140375
829.280	0.0141351
829.358	0.0140197
829.436	0.0141582
829.514	0.0142207
829.592	0.0140250
829.670	0.0142638
829.748	0.0141602
829.826	0.0142374
829.905	0.0142200
829.983	0.0141453
830.061	0.0141327
830.139	0.0142547
830.217	0.0142713
830.295	0.0140930
830.373	0.0143233
830.451	0.0142451
830.530	0.0141634
830.608	0.0141609
830.686	0.0141981
830.764	0.0143089
830.842	0.0142031
830.920	0.0143125
830.998	0.0142207
831.076	0.0143793
831.155	0.0142697
831.233	0.0142687
831.311	0.0141428
831.389	0.0141929
831.467	0.0141588
831.545	0.0141282
831.623	0.0142879
831.701	0.0143221
831.780	0.0141867
831.858	0.0141966
831.936	0.0142847
832.014	0.0142522
832.092	0.0141467
832.170	0.0140547
832.248	0.0141338
832.326	0.0142787
832.405	0.0142428
832.483	0.0142493
832.561	0.0142941
832.639	0.0142728
832.717	0.0143542
832.795	0.0143156
832.873	0.0141814
832.951	0.0143350
833.030	0.0143848
833.108	0.0143722
833.186	0.0142602
833.264	0.0143219
833.342	0.0142526
833.420	0.0143473
833.498	0.0143755
833.576	0.0144400
833.655	0.0144410
833.733	0.0143074
833.811	0.0142999
833.889	0.0142724
833.967	0.0143415
834.045	0.0144411
834.123	0.0143361
834.201	0.0142179
834.280	0.0142731
834.358	0.0142339
834.436	0.0143726
834.514	0.0142184
834.592	0.0141589
834.670	0.0142686
834.748	0.0143437
834.826	0.0142526
834.905	0.0142612
834.983	0.0143644
835.061	0.0142444
835.139	0.0141160
835.217	0.0141805
835.295	0.0142242
835.373	0.0143601
835.451	0.0143043
835.530	0.0142010
835.608	0.0141487
835.686	0.0141362
835.764	0.0143610
835.842	0.0141838
835.920	0.0141886
835.998	0.0142344
836.076	0.0142825
836.155	0.0142892
836.233	0.0143271
836.311	0.0143842
836.389	0.0143604
836.467	0.0142179
836.545	0.0142698
836.623	0.0144162
836.701	0.0143226
836.780	0.0143307
836.858	0.0144736
836.936	0.0144104
837.014	0.0145301
837.092	0.0145831
837.170	0.0145240
837.248	0.0143819
837.326	0.0144394
837.405	0.0144595
837.483	0.0144586
837.561	0.0143519
837.639	0.0143783
837.717	0.0145261
837.795	0.0143552
837.873	0.0143156
837.951	0.0145302
838.030	0.0145309
838.108	0.0142989
838.186	0.0142860
838.264	0.0144071
838.342	0.0143430
838.420	0.0144698
838.498	0.0143926
838.576	0.0143715
838.655	0.0144336
838.733	0.0143626
838.811	0.0144595
838.889	0.0143921
838.967	0.0144032
839.045	0.0144855
839.123	0.0143880
839.201	0.0143195
839.280	0.0144102
839.358	0.0143217
839.436	0.0145296
839.514	0.0144324
839.592	0.0145164
839.670	0.0143163
839.748	0.0141857
839.826	0.0144405
839.905	0.0143533
839.983	0.0144955
840.061	0.0143269
840.139	0.0144387
840.217	0.0143967
840.295	0.0143388
840.373	0.0144126
840.451	0.0143724
840.530	0.0142573
840.608	0.0143850
840.686	0.0142726
840.764	0.0143800
840.842	0.0142812
840.920	0.0142652
840.998	0.0142776
841.076	0.0142971
841.155	0.0142570
841.233	0.0141862
841.311	0.0142730
841.389	0.0142970
841.467	0.0141534
841.545	0.0142011
841.623	0.0143597
841.701	0.0142530
841.780	0.0140861
841.858	0.0143149
841.936	0.0142188
842.014	0.0141708
842.092	0.0142422
842.170	0.0142884
842.248	0.0143255
842.326	0.0142995
842.405	0.0142797
842.483	0.0143349
842.561	0.0142938
842.639	0.0142409
842.717	0.0143380
842.795	0.0143262
842.873	0.0142229
842.951	0.0143780
843.030	0.0143160
843.108	0.0143607
843.186	0.0144012
843.264	0.0143104
843.342	0.0142770
843.420	0.0143461
843.498	0.0140945
843.576	0.0142380
843.655	0.0141486
843.733	0.0143379
843.811	0.0143834
843.889	0.0142646
843.967	0.0142863
844.045	0.0142410
844.123	0.0142968
844.201	0.0141113
844.280	0.0142958
844.358	0.0142052
844.436	0.0141686
844.514	0.0142934
844.592	0.0143177
844.670	0.0142091
844.748	0.0143126
844.826	0.0142434
844.905	0.0142465
844.983	0.0143444
845.061	0.0143512
845.139	0.0144324
845.217	0.0142735
845.295	0.0143353
845.373	0.0143880
845.451	0.0143567
845.530	0.0144436
845.608	0.0144119
845.686	0.0143650
845.764	0.0143434
845.842	0.0145086
845.920	0.0144690
845.998	0.0143689
846.076	0.0143318
846.155	0.0144366
846.233	0.0143023
846.311	0.0145368
846.389	0.0145738
846.467	0.0144069
846.545	0.0145599
846.623	0.0144608
846.701	0.0145074
846.780	0.0146061
846.858	0.0143580
846.936	0.0144022
847.014	0.0144277
847.092	0.0143591
847.170	0.0144674
847.248	0.0144152
847.326	0.0145151
847.405	0.0143902
847.483	0.0143699
847.561	0.0143708
847.639	0.0142239
847.717	0.0142971
847.795	0.0143569
847.873	0.0143759
847.951	0.0142113
848.030	0.0143516
848.108	0.0142147
848.186	0.0143942
848.264	0.0144434
848.342	0.0144382
848.420	0.0143996
848.498	0.0143398
848.576	0.0143826
848.655	0.0143979
848.733	0.0143674
848.811	0.0144449
848.889	0.0142977
848.967	0.0142943
849.045	0.0143153
849.123	0.0144228
849.201	0.0144028
849.280	0.0143044
849.358	0.0142997
849.436	0.0143549
849.514	0.0142375
849.592	0.0143454
849.670	0.0142264
849.748	0.0141615
849.826	0.0143002
849.905	0.0142670
849.983	0.0142875
850.061	0.0142097
850.139	0.0142027
850.217	0.0142661
850.295	0.0142915
850.373	0.0143240
850.451	0.0142580
850.530	0.0141599
850.608	0.0141772
850.686	0.0141456
850.764	0.0141274
850.842	0.0142196
850.920	0.0142207
850.998	0.0141443
851.076	0.0140105
851.155	0.0142043
851.233	0.0140395
851.311	0.0141757
851.389	0.0143150
851.467	0.0140346
851.545	0.0140215
851.623	0.0140472
851.701	0.0140106
851.780	0.0140932
851.858	0.0140263
851.936	0.0138863
852.014	0.0139763
852.092	0.0139321
852.170	0.0139835
852.248	0.0139441
852.326	0.0140781
852.405	0.0139786
852.483	0.0138377
852.561	0.0141053
852.639	0.0141139
852.717	0.0140732
852.795	0.0140067
852.873	0.0141489
852.951	0.0140578
853.030	0.0139650
853.108	0.0139851
853.186	0.0139850
853.264	0.0139806
853.342	0.0140463
853.420	0.0140292
853.498	0.0139933
853.576	0.0139845
853.655	0.0139335
853.733	0.0140298
853.811	0.0141264
853.889	0.0141181
853.967	0.0142200
854.045	0.0141401
854.123	0.0140719
854.201	0.0140200
854.280	0.0140786
854.358	0.0142242
854.436	0.0141071
854.514	0.0142999
854.592	0.0142032
854.670	0.0141111
854.748	0.0142496
854.826	0.0142454
854.905	0.0142683
854.983	0.0142197
855.061	0.0142304
855.139	0.0143283
855.217	0.0143122
855.295	0.0142282
855.373	0.0143399
855.451	0.0143534
855.530	0.0143610
855.608	0.0142490
855.686	0.0142696
855.764	0.0142574
855.842	0.0142135
855.920	0.0143149
855.998	0.0142027
856.076	0.0142836
856.155	0.0142764
856.233	0.0142121
856.311	0.0141917
856.389	0.0143532
856.467	0.0143816
856.545	0.0143140
856.623	0.0142678
856.701	0.0143242
856.780	0.0143580
856.858	0.0143398
856.936	0.0142435
857.014	0.0143909
857.092	0.0144276
857.170	0.0143884
857.248	0.0142398
857.326	0.0144382
857.405	0.0145104
857.483	0.0143046
857.561	0.0144263
857.639	0.0143417
857.717	0.0143938
857.795	0.0143867
857.873	0.0143483
857.951	0.0144010
858.030	0.0142967
858.108	0.0142458
858.186	0.0142373
858.264	0.0144012
858.342	0.0142777
858.420	0.0143362
858.498	0.0142621
858.576	0.0145123
858.655	0.0145164
858.733	0.0143801
858.811	0.0143344
858.889	0.0143741
858.967	0.0144043
859.045	0.0144379
859.123	0.0143686
859.201	0.0145513
859.280	0.0143999
859.358	0.0143620
859.436	0.0145309
859.514	0.0146649
859.592	0.0144902
859.670	0.0146096
859.748	0.0146768
859.826	0.0145445
859.905	0.0146558
859.983	0.0145412
860.061	0.0143885
860.139	0.0144827
860.217	0.0144859
860.295	0.0145614
860.373	0.0144956
860.451	0.0144993
860.530	0.0144082
860.608	0.0144131
860.686	0.0144981
860.764	0.0143568
860.842	0.0144006
860.920	0.0143911
860.998	0.0142568
861.076	0.0143195
861.155	0.0143298
861.233	0.0143515
861.311	0.0142673
861.389	0.0142146
861.467	0.0143979
861.545	0.0143943
861.623	0.0141828
861.701	0.0143974
861.780	0.0142722
861.858	0.0143074
861.936	0.0143053
862.014	0.0143240
862.092	0.0143362
862.170	0.0143411
862.248	0.0143098
862.326	0.0142139
862.405	0.0141581
862.483	0.0142479
862.561	0.0141853
862.639	0.0142789
862.717	0.0141080
862.795	0.0142172
862.873	0.0141848
862.951	0.0141478
863.030	0.0143501
863.108	0.0141908
863.186	0.0143459
863.264	0.0143031
863.342	0.0142858
863.420	0.0142152
863.498	0.0143883
863.576	0.0143441
863.655	0.0142252
863.733	0.0142211
863.811	0.0142223
863.889	0.0143539
863.967	0.0142664
864.045	0.0142317
864.123	0.0141875
864.201	0.0143211
864.280	0.0142143
864.358	0.0141931
864.436	0.0142532
864.514	0.0142046
864.592	0.0142081
864.670	0.0143659
864.748	0.0142208
864.826	0.0142425
864.905	0.0141875
864.983	0.0142603
865.061	0.0140840
865.139	0.0142673
865.217	0.0142995
865.295	0.0142425
865.373	0.0142563
865.451	0.0141443
865.530	0.0142603
865.608	0.0142789
865.686	0.0143860
865.764	0.0142915
865.842	0.0142004
865.920	0.0141423
865.998	0.0144711
866.076	0.0142619
866.155	0.0143065
866.233	0.0142946
866.311	0.0142696
866.389	0.0141893
866.467	0.0144225
866.545	0.0143237
866.623	0.0143107
866.701	0.0142587
866.780	0.0142544
866.858	0.0142531
866.936	0.0143127
867.014	0.0142757
867.092	0.0143658
867.170	0.0143002
867.248	0.0142397
867.326	0.0142721
867.405	0.0143478
867.483	0.0143785
867.561	0.0143027
867.639	0.0143423
867.717	0.0144391
867.795	0.0143034
867.873	0.0142861
867.951	0.0144577
868.030	0.0143243
868.108	0.0142773
868.186	0.0142045
868.264	0.0141872
868.342	0.0142014
868.420	0.0142234
868.498	0.0142740
868.576	0.0143176
868.655	0.0142985
868.733	0.0142624
868.811	0.0143214
868.889	0.0143471
868.967	0.0142970
869.045	0.0142885
869.123	0.0142625
869.201	0.0142822
869.280	0.0141869
869.358	0.0143006
869.436	0.0141723
869.514	0.0142918
869.592	0.0142274
869.670	0.0141705
869.748	0.0143095
869.826	0.0142049
869.905	0.0141810
869.983	0.0142768
870.061	0.0142814
870.139	0.0142910
870.217	0.0143380
870.295	0.0141840
870.373	0.0142381
870.451	0.0142311
870.530	0.0141351
870.608	0.0142797
870.686	0.0143729
870.764	0.0142690
870.842	0.0142773
870.920	0.0142651
870.998	0.0141251
871.076	0.0142688
871.155	0.0141833
871.233	0.0142797
871.311	0.0143136
871.389	0.0142552
871.467	0.0144446
871.545	0.0143358
871.623	0.0144299
871.701	0.0143206
871.780	0.0143491
871.858	0.0143387
871.936	0.0144681
872.014	0.0144350
872.092	0.0145467
872.170	0.0144360
872.248	0.0143960
872.326	0.0143713
872.405	0.0144097
872.483	0.0145039
872.561	0.0144125
872.639	0.0143333
872.717	0.0143195
872.795	0.0144786
872.873	0.0144955
872.951	0.0143713
873.030	0.0144315
873.108	0.0143765
873.186	0.0142238
873.264	0.0142250
873.342	0.0143066
873.420	0.0141814
873.498	0.0141567
873.576	0.0143040
873.655	0.0142477
873.733	0.0142450
873.811	0.0141790
873.889	0.0141830
873.967	0.0142628
874.045	0.0142056
874.123	0.0142730
874.201	0.0140501
874.280	0.0141833
874.358	0.0142781
874.436	0.0143285
874.514	0.0142034
874.592	0.0142398
874.670	0.0142316
874.748	0.0143910
874.826	0.0141796
874.905	0.0142062
874.983	0.0141621
875.061	0.0142155
875.139	0.0143034
875.217	0.0142990
875.295	0.0143972
875.373	0.0142829
875.451	0.0141759
875.530	0.0141817
875.608	0.0143381
875.686	0.0144215
875.764	0.0145113
875.842	0.0142162
875.920	0.0143893
875.998	0.0142993
876.076	0.0142099
876.155	0.0143741
876.233	0.0142805
876.311	0.0144195
876.389	0.0142423
876.467	0.0142732
876.545	0.0144170
876.623	0.0143132
876.701	0.0143605
876.780	0.0144146
876.858	0.0144614
876.936	0.0143649
877.014	0.0144127
877.092	0.0143768
877.170	0.0141425
877.248	0.0145001
877.326	0.0143299
877.405	0.0142622
877.483	0.0141553
877.561	0.0142702
877.639	0.0142775
877.717	0.0143198
877.795	0.0141687
877.873	0.0142333
877.951	0.0142536
878.030	0.0141810
878.108	0.0142587
878.186	0.0143644
878.264	0.0143307
878.342	0.0143931
878.420	0.0142097
878.498	0.0143235
878.576	0.0142921
878.655	0.0142388
878.733	0.0143457
878.811	0.0144101
878.889	0.0143608
878.967	0.0143065
879.045	0.0143922
879.123	0.0143145
879.201	0.0142788
879.280	0.0142905
879.358	0.0143169
879.436	0.0143560
879.514	0.0144374
879.592	0.0143596
879.670	0.0143314
879.748	0.0142082
879.826	0.0142716
879.905	0.0143485
879.983	0.0144595
880.061	0.0142992
880.139	0.0142720
880.217	0.0141978
880.295	0.0142671
880.373	0.0142252
880.451	0.0142322
880.530	0.0142345
880.608	0.0142365
880.686	0.0143245
880.764	0.0143484
880.842	0.0142432
880.920	0.0140356
880.998	0.0141650
881.076	0.0142020
881.155	0.0141927
881.233	0.0143101
881.311	0.0140845
881.389	0.0140500
881.467	0.0140861
881.545	0.0141226
881.623	0.0141536
881.701	0.0141090
881.780	0.0140678
881.858	0.0141463
881.936	0.0140569
882.014	0.0141057
882.092	0.0142994
882.170	0.0141178
882.248	0.0140999
882.326	0.0141122
882.405	0.0143736
882.483	0.0142644
882.561	0.0141777
882.639	0.0142754
882.717	0.0142654
882.795	0.0142814
882.873	0.0142343
882.951	0.0142587
883.030	0.0143560
883.108	0.0142553
883.186	0.0142064
883.264	0.0142525
883.342	0.0143301
883.420	0.0142390
883.498	0.0142328
883.576	0.0142357
883.655	0.0142814
883.733	0.0142797
883.811	0.0142358
883.889	0.0142361
883.967	0.0142727
884.045	0.0143111
884.123	0.0144196
884.201	0.0143374
884.280	0.0141373
884.358	0.0142676
884.436	0.0141869
884.514	0.0143909
884.592	0.0142632
884.670	0.0143430
884.748	0.0143141
884.826	0.0141651
884.905	0.0142902
884.983	0.0142593
885.061	0.0142743
885.139	0.0142351
885.217	0.0142486
885.295	0.0144301
885.373	0.0141596
885.451	0.0142508
885.530	0.0143164
885.608	0.0144119
885.686	0.0141645
885.764	0.0142551
885.842	0.0143231
885.920	0.0143428
885.998	0.0141926
886.076	0.0142453
886.155	0.0143624
886.233	0.0142379
886.311	0.0141988
886.389	0.0142751
886.467	0.0143951
886.545	0.0143330
886.623	0.0143542
886.701	0.0143110
886.780	0.0142849
886.858	0.0142168
886.936	0.0142663
887.014	0.0144855
887.092	0.0143561
887.170	0.0144234
887.248	0.0142376
887.326	0.0143822
887.405	0.0143791
887.483	0.0142638
887.561	0.0142165
887.639	0.0142654
887.717	0.0144714
887.795	0.0144221
887.873	0.0142699
887.951	0.0143929
888.030	0.0143687
888.108	0.0142475
888.186	0.0143478
888.264	0.0143704
888.342	0.0143232
888.420	0.0143068
888.498	0.0144480
888.576	0.0140947
888.655	0.0141323
888.733	0.0142785
888.811	0.0142465
888.889	0.0143572
888.967	0.0141614
889.045	0.0142559
889.123	0.0142046
889.201	0.0141867
889.280	0.0142764
889.358	0.0141110
889.436	0.0139608
889.514	0.0140788
889.592	0.0140822
889.670	0.0138857
889.748	0.0141033
889.826	0.0141323
889.905	0.0140472
889.983	0.0139689
890.061	0.0140476
890.139	0.0139146
890.217	0.0141011
890.295	0.0141556
890.373	0.0139970
890.451	0.0140421
890.530	0.0141241
890.608	0.0140217
890.686	0.0140494
890.764	0.0142519
890.842	0.0141598
890.920	0.0139617
890.998	0.0142527
891.076	0.0141824
891.155	0.0141087
891.233	0.0141149
891.311	0.0142506
891.389	0.0142029
891.467	0.0141908
891.545	0.0141469
891.623	0.0142397
891.701	0.0141658
891.780	0.0143709
891.858	0.0143130
891.936	0.0142313
892.014	0.0142301
892.092	0.0143358
892.170	0.0142241
892.248	0.0142816
892.326	0.0143018
892.405	0.0142190
892.483	0.0142770
892.561	0.0142886
892.639	0.0141646
892.717	0.0141866
892.795	0.0142342
892.873	0.0143359
892.951	0.0141677
893.030	0.0140911
893.108	0.0142897
893.186	0.0142669
893.264	0.0141783
893.342	0.0143266
893.420	0.0142761
893.498	0.0142277
893.576	0.0142148
893.655	0.0142538
893.733	0.0141678
893.811	0.0141942
893.889	0.0142772
893.967	0.0142899
894.045	0.0143099
894.123	0.0143481
894.201	0.0142432
894.280	0.0141995
894.358	0.0143526
894.436	0.0142693
894.514	0.0142857
894.592	0.0142789
894.670	0.0143463
894.748	0.0142634
894.826	0.0143298
894.905	0.0144695
894.983	0.0142746
895.061	0.0144041
895.139	0.0144176
895.217	0.0145139
895.295	0.0144475
895.373	0.0144470
895.451	0.0144460
895.530	0.0144833
895.608	0.0143945
895.686	0.0142184
895.764	0.0143462
895.842	0.0142921
895.920	0.0144046
895.998	0.0143514
896.076	0.0141315
896.155	0.0142973
896.233	0.0143414
896.311	0.0142396
896.389	0.0141769
896.467	0.0141564
896.545	0.0142109
896.623	0.0140682
896.701	0.0139442
896.780	0.0142181
896.858	0.0140775
896.936	0.0141432
897.014	0.0141057
897.092	0.0139529
897.170	0.0141222
897.248	0.0142934
897.326	0.0141982
897.405	0.0141205
897.483	0.0141383
897.561	0.0141525
897.639	0.0143589
897.717	0.0142577
897.795	0.0141482
897.873	0.0141434
897.951	0.0143064
898.030	0.0143638
898.108	0.0142496
898.186	0.0143192
898.264	0.0143294
898.342	0.0144507
898.420	0.0142773
898.498	0.0143140
898.576	0.0142849
898.655	0.0143860
898.733	0.0144964
898.811	0.0142301
898.889	0.0144287
898.967	0.0142692
899.045	0.0143507
899.123	0.0142397
899.201	0.0143071
899.280	0.0143652
899.358	0.0144341
899.436	0.0144285
899.514	0.0144511
899.592	0.0142974
899.670	0.0144119
899.748	0.0145080
899.826	0.0143491
899.905	0.0144460
899.983	0.0144897
900.061	0.0143909
900.139	0.0143745
900.217	0.0143906
900.295	0.0143345
900.373	0.0144356
900.451	0.0142823
900.530	0.0144030
900.608	0.0144645
900.686	0.0141691
900.764	0.0143098
900.842	0.0144154
900.920	0.0142995
900.998	0.0142318
901.076	0.0142645
901.155	0.0142605
901.233	0.0142183
901.311	0.0143492
901.389	0.0143713
901.467	0.0140988
901.545	0.0142001
901.623	0.0142220
901.701	0.0141843
901.780	0.0141605
901.858	0.0142032
901.936	0.0140186
902.014	0.0141410
902.092	0.0142079
902.170	0.0142698
902.248	0.0142576
902.326	0.0142009
902.405	0.0140472
902.483	0.0143082
902.561	0.0141554
902.639	0.0142342
902.717	0.0142039
902.795	0.0142718
902.873	0.0142876
902.951	0.0141567
903.030	0.0142381
903.108	0.0142228
903.186	0.0142173
903.264	0.0141542
903.342	0.0142860
903.420	0.0142914
903.498	0.0142355
903.576	0.0142652
903.655	0.0144539
903.733	0.0142744
903.811	0.0143344
903.889	0.0143227
903.967	0.0143648
904.045	0.0144218
904.123	0.0143447
904.201	0.0142549
904.280	0.0142890
904.358	0.0144209
904.436	0.0143147
904.514	0.0143188
904.592	0.0143577
904.670	0.0143398
904.748	0.0143391
904.826	0.0143449
904.905	0.0144061
904.983	0.0142979
905.061	0.0142068
905.139	0.0143203
905.217	0.0142989
905.295	0.0144475
905.373	0.0142174
905.451	0.0144199
905.530	0.0143220
905.608	0.0141235
905.686	0.0142970
905.764	0.0143201
905.842	0.0141330
905.920	0.0143120
905.998	0.0142924
906.076	0.0142740
906.155	0.0141096
906.233	0.0141624
906.311	0.0141238
906.389	0.0141561
906.467	0.0142205
906.545	0.0143165
906.623	0.0141628
906.701	0.0141578
906.780	0.0142844
906.858	0.0144331
906.936	0.0143459
907.014	0.0141288
907.092	0.0143441
907.170	0.0143531
907.248	0.0142889
907.326	0.0142401
907.405	0.0143928
907.483	0.0142073
907.561	0.0142862
907.639	0.0142934
907.717	0.0143048
907.795	0.0142813
907.873	0.0142780
907.951	0.0143461
908.030	0.0142865
908.108	0.0142163
908.186	0.0142078
908.264	0.0144104
908.342	0.0143159
908.420	0.0142200
908.498	0.0140835
908.576	0.0142857
908.655	0.0142778
908.733	0.0142809
908.811	0.0141538
908.889	0.0141618
908.967	0.0142039
909.045	0.0141888
909.123	0.0142403
909.201	0.0141508
909.280	0.0142342
909.358	0.0141392
909.436	0.0141626
909.514	0.0142553
909.592	0.0143156
909.670	0.0141002
909.748	0.0142647
909.826	0.0143743
909.905	0.0143808
909.983	0.0143277
910.061	0.0141636
910.139	0.0141916
910.217	0.0140752
910.295	0.0141515
910.373	0.0143597
910.451	0.0142416
910.530	0.0140707
910.608	0.0140967
910.686	0.0141047
910.764	0.0142422
910.842	0.0140584
910.920	0.0139865
910.998	0.0141311
911.076	0.0140525
911.155	0.0140449
911.233	0.0139959
911.311	0.0140914
911.389	0.0139568
911.467	0.0139849
911.545	0.0141083
911.623	0.0140544
911.701	0.0140919
911.780	0.0140357
911.858	0.0140804
911.936	0.0140708
912.014	0.0140520
912.092	0.0140427
912.170	0.0142336
912.248	0.0142777
912.326	0.0141214
912.405	0.0141311
912.483	0.0141215
912.561	0.0141909
912.639	0.0142642
912.717	0.0142146
912.795	0.0143125
912.873	0.0142055
912.951	0.0141945
913.030	0.0141874
913.108	0.0142431
913.186	0.0142867
913.264	0.0142463
913.342	0.0142730
913.420	0.0142045
913.498	0.0142882
913.576	0.0143848
913.655	0.0143735
913.733	0.0142561
913.811	0.0141928
913.889	0.0142295
913.967	0.0140363
914.045	0.0140640
914.123	0.0143034
914.201	0.0142044
914.280	0.0143306
914.358	0.0141616
914.436	0.0141676
914.514	0.0142037
914.592	0.0142828
914.670	0.0141280
914.748	0.0141131
914.826	0.0142398
914.905	0.0141857
914.983	0.0140568
915.061	0.0141679
915.139	0.0140440
915.217	0.0142778
915.295	0.0142008
915.373	0.0140857
915.451	0.0141490
915.530	0.0141864
915.608	0.0140583
915.686	0.0140401
915.764	0.0142520
915.842	0.0141548
915.920	0.0141951
915.998	0.0141641
916.076	0.0142197
916.155	0.0143463
916.233	0.0142616
916.311	0.0144301
916.389	0.0143918
916.467	0.0141502
916.545	0.0143397
916.623	0.0143877
916.701	0.0143678
916.780	0.0144662
916.858	0.0144524
916.936	0.0143810
917.014	0.0144948
917.092	0.0144561
917.170	0.0143793
917.248	0.0144440
917.326	0.0143008
917.405	0.0144097
917.483	0.0144198
917.561	0.0143424
917.639	0.0142516
917.717	0.0143600
917.795	0.0144360
917.873	0.0143832
917.951	0.0143699
918.030	0.0142400
918.108	0.0144614
918.186	0.0143980
918.264	0.0141666
918.342	0.0144504
918.420	0.0143520
918.498	0.0142622
918.576	0.0143018
918.655	0.0142969
918.733	0.0140721
918.811	0.0143140
918.889	0.0144106
918.967	0.0142482
919.045	0.0142289
919.123	0.0142014
919.201	0.0144965
919.280	0.0142997
919.358	0.0143314
919.436	0.0143839
919.514	0.0143661
919.592	0.0144274
919.670	0.0143491
919.748	0.0143362
919.826	0.0144527
919.905	0.0144688
919.983	0.0143806
920.061	0.0143130
920.139	0.0144091
920.217	0.0144537
920.295	0.0143552
920.373	0.0143284
920.451	0.0144092
920.530	0.0144282
920.608	0.0143117
920.686	0.0143829
920.764	0.0143491
920.842	0.0143965
920.920	0.0143253
920.998	0.0144494
921.076	0.0143325
921.155	0.0143856
921.233	0.0143233
921.311	0.0143928
921.389	0.0144286
921.467	0.0142971
921.545	0.0144405
921.623	0.0144344
921.701	0.0143802
921.780	0.0144158
921.858	0.0143128
921.936	0.0144040
922.014	0.0143443
922.092	0.0144021
922.170	0.0144586
922.248	0.0143050
922.326	0.0143050
922.405	0.0144065
922.483	0.0143514
922.561	0.0141880
922.639	0.0141430
922.717	0.0143611
922.795	0.0142192
922.873	0.0142512
922.951	0.0141651
923.030	0.0141532
923.108	0.0140841
923.186	0.0140210
923.264	0.0142075
923.342	0.0142579
923.420	0.0143562
923.498	0.0142028
923.576	0.0142234
923.655	0.0142002
923.733	0.0141932
923.811	0.0142104
923.889	0.0143143
923.967	0.0142233
924.045	0.0142380
924.123	0.0142371
924.201	0.0143754
924.280	0.0143288
924.358	0.0144037
924.436	0.0143610
924.514	0.0143242
924.592	0.0144430
924.670	0.0143817
924.748	0.0144496
924.826	0.0144871
924.905	0.0146547
924.983	0.0144807
925.061	0.0144756
925.139	0.0143877
925.217	0.0146200
925.295	0.0146136
925.373	0.0145994
925.451	0.0145359
925.530	0.0144569
925.608	0.0144267
925.686	0.0145483
925.764	0.0144323
925.842	0.0145890
925.920	0.0146255
925.998	0.0145143
926.076	0.0146211
926.155	0.0145090
926.233	0.0145088
926.311	0.0145200
926.389	0.0143675
926.467	0.0144030
926.545	0.0144030
926.623	0.0145381
926.701	0.0144011
926.780	0.0144383
926.858	0.0145259
926.936	0.0145075
927.014	0.0142954
927.092	0.0144604
927.170	0.0144279
927.248	0.0143134
927.326	0.0142966
927.405	0.0144154
927.483	0.0142762
927.561	0.0145323
927.639	0.0144205
927.717	0.0142921
927.795	0.0144984
927.873	0.0144670
927.951	0.0142735
928.030	0.0143419
928.108	0.0144830
928.186	0.0145229
928.264	0.0144405
928.342	0.0144079
928.420	0.0144270
928.498	0.0144757
928.576	0.0143591
928.655	0.0143420
928.733	0.0144073
928.811	0.0143148
928.889	0.0143316
928.967	0.0143503
929.045	0.0143786
929.123	0.0144076
929.201	0.0142953
929.280	0.0142735
929.358	0.0143460
929.436	0.0143298
929.514	0.0141920
929.592	0.0142961
929.670	0.0141908
929.748	0.0142971
929.826	0.0143409
929.905	0.0142953
929.983	0.0143880
930.061	0.0143790
930.139	0.0144301
930.217	0.0142542
930.295	0.0143208
930.373	0.0142439
930.451	0.0143230
930.530	0.0143520
930.608	0.0143453
930.686	0.0141587
930.764	0.0143198
930.842	0.0143023
930.920	0.0142799
930.998	0.0143154
931.076	0.0142300
931.155	0.0141272
931.233	0.0142298
931.311	0.0142468
931.389	0.0141003
931.467	0.0140682
931.545	0.0142631
931.623	0.0143312
931.701	0.0141318
931.780	0.0141805
931.858	0.0140692
931.936	0.0142007
932.014	0.0140724
932.092	0.0141096
932.170	0.0140359
932.248	0.0142499
932.326	0.0141853
932.405	0.0142999
932.483	0.0143999
932.561	0.0142125
932.639	0.0142963
932.717	0.0142392
932.795	0.0142599
932.873	0.0142923
932.951	0.0142949
933.030	0.0143888
933.108	0.0142947
933.186	0.0144678
933.264	0.0143599
933.342	0.0143704
933.420	0.0145319
933.498	0.0144409
933.576	0.0143875
933.655	0.0145318
933.733	0.0146123
933.811	0.0145039
933.889	0.0143221
933.967	0.0144720
934.045	0.0144034
934.123	0.0144923
934.201	0.0144408
934.280	0.0143539
934.358	0.0144267
934.436	0.0145348
934.514	0.0145966
934.592	0.0142378
934.670	0.0142795
934.748	0.0143573
934.826	0.0145459
934.905	0.0145444
934.983	0.0145805
935.061	0.0144438
935.139	0.0144368
935.217	0.0146054
935.295	0.0143760
935.373	0.0144499
935.451	0.0144839
935.530	0.0142761
935.608	0.0144498
935.686	0.0143237
935.764	0.0143723
935.842	0.0144204
935.920	0.0143031
935.998	0.0144147
936.076	0.0143882
936.155	0.0143115
936.233	0.0143995
936.311	0.0144360
936.389	0.0142664
936.467	0.0142389
936.545	0.0143520
936.623	0.0142997
936.701	0.0142746
936.780	0.0143035
936.858	0.0141405
936.936	0.0142666
937.014	0.0142807
937.092	0.0142605
937.170	0.0142802
937.248	0.0141994
937.326	0.0142573
937.405	0.0142352
937.483	0.0142944
937.561	0.0142845
937.639	0.0142628
937.717	0.0143203
937.795	0.0143569
937.873	0.0143266
937.951	0.0144020
938.030	0.0144176
938.108	0.0142519
938.186	0.0141131
938.264	0.0143448
938.342	0.0143320
938.420	0.0144479
938.498	0.0142992
938.576	0.0144538
938.655	0.0143349
938.733	0.0144111
938.811	0.0143726
938.889	0.0142928
938.967	0.0143074
939.045	0.0141808
939.123	0.0141836
939.201	0.0142724
939.280	0.0141610
939.358	0.0144093
939.436	0.0141826
939.514	0.0142554
939.592	0.0142836
939.670	0.0142947
939.748	0.0142189
939.826	0.0141113
939.905	0.0143343
939.983	0.0142679
940.061	0.0142619
940.139	0.0141418
940.217	0.0142558
940.295	0.0142886
940.373	0.0142331
940.451	0.0141867
940.530	0.0141147
940.608	0.0141206
940.686	0.0142786
940.764	0.0142185
940.842	0.0142637
940.920	0.0141213
940.998	0.0141650
941.076	0.0142779
941.155	0.0141788
941.233	0.0141550
941.311	0.0141418
941.389	0.0143937
941.467	0.0142979
941.545	0.0143217
941.623	0.0142473
941.701	0.0142458
941.780	0.0140591
941.858	0.0140944
941.936	0.0143211
942.014	0.0143701
942.092	0.0141865
942.170	0.0141782
942.248	0.0140743
942.326	0.0143362
942.405	0.0141837
942.483	0.0143096
942.561	0.0141983
942.639	0.0141714
942.717	0.0142535
942.795	0.0142357
942.873	0.0142304
942.951	0.0142329
943.030	0.0143710
943.108	0.0142449
943.186	0.0141219
943.264	0.0140678
943.342	0.0141170
943.420	0.0142440
943.498	0.0143872
943.576	0.0141473
943.655	0.0142323
943.733	0.0144038
943.811	0.0142331
943.889	0.0140684
943.967	0.0142850
944.045	0.0142529
944.123	0.0142368
944.201	0.0143040
944.280	0.0142644
944.358	0.0142670
944.436	0.0141166
944.514	0.0141875
944.592	0.0142064
944.670	0.0141459
944.748	0.0142185
944.826	0.0142080
944.905	0.0143230
944.983	0.0143266
945.061	0.0142562
945.139	0.0143213
945.217	0.0142326
945.295	0.0143313
945.373	0.0143771
945.451	0.0143031
945.530	0.0142876
945.608	0.0142693
945.686	0.0142789
945.764	0.0144119
945.842	0.0144321
945.920	0.0143141
945.998	0.0142532
946.076	0.0144261
946.155	0.0144228
946.233	0.0143765
946.311	0.0143304
946.389	0.0144144
946.467	0.0143790
946.545	0.0146088
946.623	0.0144817
946.701	0.0144781
946.780	0.0144666
946.858	0.0143940
946.936	0.0144579
947.014	0.0144882
947.092	0.0145262
947.170	0.0145181
947.248	0.0144722
947.326	0.0145807
947.405	0.0147008
947.483	0.0145396
947.561	0.0144466
947.639	0.0145889
947.717	0.0145594
947.795	0.0144877
947.873	0.0146027
947.951	0.0144892
948.030	0.0143871
948.108	0.0144478
948.186	0.0145245
948.264	0.0145101
948.342	0.0144325
948.420	0.0144292
948.498	0.0144556
948.576	0.0144455
948.655	0.0143586
948.733	0.0143938
948.811	0.0143631
948.889	0.0144039
948.967	0.0144389
949.045	0.0143436
949.123	0.0141954
949.201	0.0142564
949.280	0.0143539
949.358	0.0143934
949.436	0.0144070
949.514	0.0144057
949.592	0.0144353
949.670	0.0142490
949.748	0.0144385
949.826	0.0143799
949.905	0.0143510
949.983	0.0142708
950.061	0.0144481
950.139	0.0144211
950.217	0.0143771
950.295	0.0143156
950.373	0.0144215
950.451	0.0143657
950.530	0.0145202
950.608	0.0143417
950.686	0.0143218
950.764	0.0142896
950.842	0.0143966
950.920	0.0144608
950.998	0.0143832
951.076	0.0144256
951.155	0.0143726
951.233	0.0143678
951.311	0.0144611
951.389	0.0146287
951.467	0.0144269
951.545	0.0145244
951.623	0.0144120
951.701	0.0144066
951.780	0.0145921
951.858	0.0145016
951.936	0.0143193
952.014	0.0144387
952.092	0.0143958
952.170	0.0143667
952.248	0.0144100
952.326	0.0143878
952.405	0.0142844
952.483	0.0142548
952.561	0.0143512
952.639	0.0143108
952.717	0.0144489
952.795	0.0143307
952.873	0.0142774
952.951	0.0144244
953.030	0.0143198
953.108	0.0143395
953.186	0.0142740
953.264	0.0141812
953.342	0.0142946
953.420	0.0143851
953.498	0.0142414
953.576	0.0142502
953.655	0.0143774
953.733	0.0143200
953.811	0.0143753
953.889	0.0143405
953.967	0.0142740
954.045	0.0143530
954.123	0.0143747
954.201	0.0143496
954.280	0.0142268
954.358	0.0143831
954.436	0.0143600
954.514	0.0142780
954.592	0.0143862
954.670	0.0142799
954.748	0.0142439
954.826	0.0144394
954.905	0.0144441
954.983	0.0143339
955.061	0.0144842
955.139	0.0144244
955.217	0.0142995
955.295	0.0143844
955.373	0.0144672
955.451	0.0143900
955.530	0.0144545
955.608	0.0144761
955.686	0.0144342
955.764	0.0145568
955.842	0.0145128
955.920	0.0144398
955.998	0.0144795
956.076	0.0145010
956.155	0.0143572
956.233	0.0145432
956.311	0.0146384
956.389	0.0146435
956.467	0.0145857
956.545	0.0145425
956.623	0.0145457
956.701	0.0144494
956.780	0.0146065
956.858	0.0145109
956.936	0.0144264
957.014	0.0145857
957.092	0.0146175
957.170	0.0143118
957.248	0.0144495
957.326	0.0144286
957.405	0.0145335
957.483	0.0143358
957.561	0.0142720
957.639	0.0143089
957.717	0.0142920
957.795	0.0143786
957.873	0.0142945
957.951	0.0143878
958.030	0.0143420
958.108	0.0144391
958.186	0.0143414
958.264	0.0143233
958.342	0.0143829
958.420	0.0143264
958.498	0.0142969
958.576	0.0143115
958.655	0.0142995
958.733	0.0143172
958.811	0.0143905
958.889	0.0143076
958.967	0.0141190
959.045	0.0143319
959.123	0.0143056
959.201	0.0141783
959.280	0.0142177
959.358	0.0144599
959.436	0.0143996
959.514	0.0144260
959.592	0.0143599
959.670	0.0144393
959.748	0.0142995
959.826	0.0143851
959.905	0.0143591
