05/20/2022	16:48:18	Ver.	4.1	UNKNOWN
Optical Delay	639.982744	Delta X		0.078125	Sweeps	1	Scan Rate	0/0
Coordinates	Axis 1	NaN	Axis 2	NaN	Axis 3	NaN	Axis 4	NaN	Axis 5	NaN	Axis 6	0.000000
TX Power	0.000000	RX Power	0.000000

639.983	0.0148468
640.061	0.0149113
640.139	0.0148804
640.217	0.0147744
640.295	0.0147376
640.373	0.0148347
640.451	0.0148627
640.530	0.0148895
640.608	0.0147354
640.686	0.0148139
640.764	0.0148888
640.842	0.0148579
640.920	0.0147668
640.998	0.0147048
641.076	0.0148027
641.155	0.0149043
641.233	0.0148474
641.311	0.0147532
641.389	0.0147247
641.467	0.0148135
641.545	0.0146618
641.623	0.0147358
641.701	0.0146471
641.780	0.0148582
641.858	0.0147898
641.936	0.0146262
642.014	0.0147908
642.092	0.0146520
642.170	0.0147425
642.248	0.0147729
642.326	0.0148432
642.405	0.0146859
642.483	0.0146013
642.561	0.0145716
642.639	0.0148546
642.717	0.0147070
642.795	0.0145963
642.873	0.0145511
642.951	0.0145663
643.030	0.0146513
643.108	0.0146322
643.186	0.0146091
643.264	0.0145840
643.342	0.0147592
643.420	0.0146948
643.498	0.0146159
643.576	0.0146722
643.655	0.0146646
643.733	0.0145573
643.811	0.0146265
643.889	0.0145847
643.967	0.0146404
644.045	0.0146960
644.123	0.0145715
644.201	0.0145650
644.280	0.0145698
644.358	0.0145592
644.436	0.0145594
644.514	0.0145996
644.592	0.0147321
644.670	0.0145758
644.748	0.0145495
644.826	0.0145895
644.905	0.0145927
644.983	0.0145642
645.061	0.0145937
645.139	0.0145110
645.217	0.0145200
645.295	0.0145100
645.373	0.0146194
645.451	0.0146621
645.530	0.0145136
645.608	0.0145408
645.686	0.0146671
645.764	0.0146152
645.842	0.0145992
645.920	0.0146161
645.998	0.0145422
646.076	0.0146320
646.155	0.0146891
646.233	0.0146022
646.311	0.0147551
646.389	0.0148548
646.467	0.0147230
646.545	0.0146013
646.623	0.0146703
646.701	0.0148798
646.780	0.0148390
646.858	0.0147742
646.936	0.0148783
647.014	0.0147794
647.092	0.0148622
647.170	0.0147099
647.248	0.0148782
647.326	0.0148237
647.405	0.0149958
647.483	0.0149243
647.561	0.0149474
647.639	0.0148804
647.717	0.0148100
647.795	0.0148899
647.873	0.0147356
647.951	0.0147663
648.030	0.0147831
648.108	0.0147717
648.186	0.0147926
648.264	0.0149356
648.342	0.0148284
648.420	0.0147453
648.498	0.0148352
648.576	0.0146727
648.655	0.0147873
648.733	0.0147584
648.811	0.0148551
648.889	0.0146706
648.967	0.0145376
649.045	0.0145981
649.123	0.0146784
649.201	0.0147813
649.280	0.0147126
649.358	0.0146675
649.436	0.0147156
649.514	0.0147477
649.592	0.0147987
649.670	0.0147070
649.748	0.0147596
649.826	0.0146860
649.905	0.0147437
649.983	0.0146717
650.061	0.0148650
650.139	0.0147997
650.217	0.0147243
650.295	0.0148022
650.373	0.0147100
650.451	0.0148045
650.530	0.0149067
650.608	0.0148640
650.686	0.0149393
650.764	0.0149489
650.842	0.0150567
650.920	0.0151004
650.998	0.0149980
651.076	0.0150684
651.155	0.0150124
651.233	0.0150250
651.311	0.0149097
651.389	0.0150812
651.467	0.0151307
651.545	0.0150244
651.623	0.0149710
651.701	0.0150049
651.780	0.0150754
651.858	0.0148798
651.936	0.0150069
652.014	0.0149191
652.092	0.0150317
652.170	0.0150737
652.248	0.0151325
652.326	0.0152344
652.405	0.0151011
652.483	0.0150906
652.561	0.0150945
652.639	0.0151663
652.717	0.0151201
652.795	0.0151140
652.873	0.0151306
652.951	0.0152393
653.030	0.0151597
653.108	0.0152428
653.186	0.0150201
653.264	0.0151154
653.342	0.0150481
653.420	0.0150188
653.498	0.0149800
653.576	0.0149060
653.655	0.0147605
653.733	0.0148013
653.811	0.0148700
653.889	0.0148197
653.967	0.0148119
654.045	0.0147254
654.123	0.0147210
654.201	0.0147977
654.280	0.0147552
654.358	0.0146568
654.436	0.0147160
654.514	0.0147390
654.592	0.0147229
654.670	0.0147118
654.748	0.0146080
654.826	0.0147015
654.905	0.0147631
654.983	0.0147446
655.061	0.0147237
655.139	0.0147171
655.217	0.0147247
655.295	0.0147700
655.373	0.0147939
655.451	0.0145930
655.530	0.0146970
655.608	0.0146651
655.686	0.0145685
655.764	0.0147347
655.842	0.0147805
655.920	0.0146787
655.998	0.0146307
656.076	0.0146502
656.155	0.0146197
656.233	0.0146947
656.311	0.0147536
656.389	0.0146138
656.467	0.0146594
656.545	0.0146382
656.623	0.0147131
656.701	0.0147024
656.780	0.0146535
656.858	0.0146188
656.936	0.0147428
657.014	0.0146137
657.092	0.0147117
657.170	0.0147558
657.248	0.0146330
657.326	0.0147118
657.405	0.0146024
657.483	0.0147399
657.561	0.0146313
657.639	0.0147311
657.717	0.0148363
657.795	0.0147821
657.873	0.0147581
657.951	0.0147742
658.030	0.0149316
658.108	0.0148296
658.186	0.0150997
658.264	0.0149014
658.342	0.0148889
658.420	0.0148174
658.498	0.0148973
658.576	0.0148444
658.655	0.0147943
658.733	0.0148498
658.811	0.0148526
658.889	0.0148444
658.967	0.0148820
659.045	0.0148239
659.123	0.0149423
659.201	0.0147638
659.280	0.0146741
659.358	0.0147881
659.436	0.0148698
659.514	0.0147688
659.592	0.0147182
659.670	0.0147039
659.748	0.0147359
659.826	0.0148476
659.905	0.0147548
659.983	0.0145493
660.061	0.0145036
660.139	0.0147002
660.217	0.0145545
660.295	0.0146515
660.373	0.0146894
660.451	0.0146718
660.530	0.0146373
660.608	0.0146992
660.686	0.0145412
660.764	0.0146405
660.842	0.0147094
660.920	0.0147043
660.998	0.0145387
661.076	0.0147375
661.155	0.0147250
661.233	0.0146451
661.311	0.0146764
661.389	0.0146521
661.467	0.0146145
661.545	0.0146216
661.623	0.0145647
661.701	0.0145338
661.780	0.0146144
661.858	0.0147805
661.936	0.0147527
662.014	0.0146668
662.092	0.0146126
662.170	0.0147607
662.248	0.0147666
662.326	0.0147433
662.405	0.0147707
662.483	0.0148709
662.561	0.0147943
662.639	0.0147943
662.717	0.0149428
662.795	0.0149358
662.873	0.0148227
662.951	0.0148470
663.030	0.0148060
663.108	0.0148121
663.186	0.0147984
663.264	0.0146823
663.342	0.0147079
663.420	0.0148615
663.498	0.0146719
663.576	0.0145172
663.655	0.0146774
663.733	0.0145718
663.811	0.0146464
663.889	0.0146209
663.967	0.0146796
664.045	0.0146510
664.123	0.0145705
664.201	0.0146181
664.280	0.0146360
664.358	0.0145839
664.436	0.0146712
664.514	0.0146754
664.592	0.0145474
664.670	0.0145287
664.748	0.0145489
664.826	0.0143955
664.905	0.0145718
664.983	0.0145860
665.061	0.0145673
665.139	0.0145425
665.217	0.0145482
665.295	0.0145885
665.373	0.0146360
665.451	0.0147939
665.530	0.0147379
665.608	0.0147363
665.686	0.0148065
665.764	0.0149313
665.842	0.0148745
665.920	0.0148938
665.998	0.0149746
666.076	0.0150604
666.155	0.0150674
666.233	0.0149623
666.311	0.0149850
666.389	0.0152006
666.467	0.0151318
666.545	0.0151516
666.623	0.0151398
666.701	0.0149584
666.780	0.0150570
666.858	0.0151341
666.936	0.0151048
667.014	0.0150048
667.092	0.0150539
667.170	0.0149569
667.248	0.0151206
667.326	0.0150757
667.405	0.0149261
667.483	0.0149562
667.561	0.0148991
667.639	0.0147907
667.717	0.0146523
667.795	0.0146722
667.873	0.0147205
667.951	0.0146171
668.030	0.0142818
668.108	0.0142719
668.186	0.0142599
668.264	0.0143050
668.342	0.0142470
668.420	0.0141061
668.498	0.0140480
668.576	0.0141964
668.655	0.0141997
668.733	0.0141599
668.811	0.0141739
668.889	0.0143061
668.967	0.0144747
669.045	0.0143234
669.123	0.0143886
669.201	0.0145409
669.280	0.0147316
669.358	0.0148169
669.436	0.0148174
669.514	0.0147259
669.592	0.0150040
669.670	0.0151001
669.748	0.0152993
669.826	0.0154829
669.905	0.0155329
669.983	0.0155231
670.061	0.0155171
670.139	0.0155673
670.217	0.0156396
670.295	0.0155714
670.373	0.0157930
670.451	0.0159037
670.530	0.0158527
670.608	0.0157837
670.686	0.0158310
670.764	0.0157351
670.842	0.0155863
670.920	0.0154613
670.998	0.0153978
671.076	0.0153418
671.155	0.0152364
671.233	0.0150250
671.311	0.0148280
671.389	0.0147125
671.467	0.0147030
671.545	0.0143835
671.623	0.0143420
671.701	0.0142657
671.780	0.0140269
671.858	0.0140189
671.936	0.0139602
672.014	0.0139265
672.092	0.0138314
672.170	0.0137998
672.248	0.0137056
672.326	0.0139831
672.405	0.0139762
672.483	0.0140843
672.561	0.0142439
672.639	0.0142820
672.717	0.0144057
672.795	0.0144659
672.873	0.0146226
672.951	0.0146732
673.030	0.0149302
673.108	0.0151158
673.186	0.0153583
673.264	0.0152834
673.342	0.0154434
673.420	0.0157481
673.498	0.0158647
673.576	0.0160072
673.655	0.0161770
673.733	0.0162106
673.811	0.0163187
673.889	0.0165145
673.967	0.0162349
674.045	0.0163544
674.123	0.0162604
674.201	0.0164274
674.280	0.0163617
674.358	0.0162196
674.436	0.0160687
674.514	0.0158891
674.592	0.0158956
674.670	0.0157162
674.748	0.0155651
674.826	0.0153514
674.905	0.0151873
674.983	0.0150378
675.061	0.0147766
675.139	0.0145982
675.217	0.0145086
675.295	0.0143956
675.373	0.0141647
675.451	0.0140800
675.530	0.0140353
675.608	0.0138210
675.686	0.0137493
675.764	0.0137453
675.842	0.0136048
675.920	0.0135484
675.998	0.0135327
676.076	0.0137164
676.155	0.0136156
676.233	0.0136962
676.311	0.0138734
676.389	0.0138253
676.467	0.0138439
676.545	0.0140501
676.623	0.0141270
676.701	0.0143684
676.780	0.0143991
676.858	0.0146254
676.936	0.0147366
677.014	0.0147593
677.092	0.0148051
677.170	0.0149528
677.248	0.0150558
677.326	0.0151077
677.405	0.0152002
677.483	0.0151179
677.561	0.0152573
677.639	0.0152204
677.717	0.0153137
677.795	0.0154479
677.873	0.0154091
677.951	0.0154464
678.030	0.0153957
678.108	0.0153146
678.186	0.0152447
678.264	0.0152926
678.342	0.0153043
678.420	0.0150769
678.498	0.0150620
678.576	0.0150829
678.655	0.0150248
678.733	0.0150109
678.811	0.0150087
678.889	0.0149034
678.967	0.0148445
679.045	0.0148389
679.123	0.0146036
679.201	0.0147800
679.280	0.0146609
679.358	0.0147307
679.436	0.0146525
679.514	0.0146086
679.592	0.0144549
679.670	0.0144975
679.748	0.0145720
679.826	0.0143587
679.905	0.0144293
679.983	0.0144508
680.061	0.0144351
680.139	0.0144334
680.217	0.0144022
680.295	0.0144409
680.373	0.0143465
680.451	0.0143417
680.530	0.0142814
680.608	0.0142986
680.686	0.0144669
680.764	0.0145008
680.842	0.0144269
680.920	0.0143414
680.998	0.0144949
681.076	0.0144754
681.155	0.0144205
681.233	0.0144180
681.311	0.0144360
681.389	0.0145179
681.467	0.0147980
681.545	0.0147967
681.623	0.0149426
681.701	0.0149878
681.780	0.0150875
681.858	0.0153134
681.936	0.0149894
682.014	0.0152625
682.092	0.0153778
682.170	0.0155740
682.248	0.0155733
682.326	0.0155055
682.405	0.0156364
682.483	0.0156595
682.561	0.0155737
682.639	0.0155721
682.717	0.0156937
682.795	0.0154959
682.873	0.0156528
682.951	0.0154051
683.030	0.0154758
683.108	0.0154156
683.186	0.0153192
683.264	0.0153437
683.342	0.0150790
683.420	0.0150244
683.498	0.0148129
683.576	0.0146023
683.655	0.0145367
683.733	0.0144327
683.811	0.0144723
683.889	0.0142970
683.967	0.0143082
684.045	0.0143330
684.123	0.0142100
684.201	0.0142416
684.280	0.0143704
684.358	0.0143188
684.436	0.0143890
684.514	0.0143887
684.592	0.0144289
684.670	0.0144642
684.748	0.0144495
684.826	0.0145764
684.905	0.0145749
684.983	0.0145806
685.061	0.0145854
685.139	0.0145460
685.217	0.0146073
685.295	0.0147035
685.373	0.0147650
685.451	0.0148956
685.530	0.0147346
685.608	0.0147649
685.686	0.0148759
685.764	0.0148377
685.842	0.0149445
685.920	0.0149516
685.998	0.0148971
686.076	0.0149384
686.155	0.0148734
686.233	0.0147649
686.311	0.0147711
686.389	0.0147367
686.467	0.0145458
686.545	0.0146909
686.623	0.0146281
686.701	0.0146355
686.780	0.0148335
686.858	0.0147687
686.936	0.0149040
687.014	0.0149677
687.092	0.0150501
687.170	0.0152621
687.248	0.0153951
687.326	0.0153179
687.405	0.0154012
687.483	0.0156210
687.561	0.0156984
687.639	0.0157079
687.717	0.0157201
687.795	0.0158036
687.873	0.0157111
687.951	0.0156387
688.030	0.0156867
688.108	0.0155025
688.186	0.0156833
688.264	0.0152990
688.342	0.0153053
688.420	0.0151580
688.498	0.0150307
688.576	0.0147530
688.655	0.0144397
688.733	0.0144361
688.811	0.0142404
688.889	0.0140051
688.967	0.0138706
689.045	0.0136835
689.123	0.0135904
689.201	0.0137749
689.280	0.0134912
689.358	0.0134231
689.436	0.0135796
689.514	0.0135330
689.592	0.0135921
689.670	0.0133392
689.748	0.0134083
689.826	0.0134267
689.905	0.0136784
689.983	0.0137914
690.061	0.0140615
690.139	0.0141171
690.217	0.0144038
690.295	0.0145747
690.373	0.0148038
690.451	0.0152167
690.530	0.0154214
690.608	0.0156602
690.686	0.0158437
690.764	0.0161304
690.842	0.0161455
690.920	0.0162562
690.998	0.0163671
691.076	0.0163390
691.155	0.0163586
691.233	0.0162914
691.311	0.0162525
691.389	0.0161419
691.467	0.0159973
691.545	0.0159267
691.623	0.0157432
691.701	0.0155318
691.780	0.0155172
691.858	0.0153346
691.936	0.0149895
692.014	0.0148774
692.092	0.0147456
692.170	0.0145187
692.248	0.0142878
692.326	0.0142274
692.405	0.0141237
692.483	0.0138971
692.561	0.0137207
692.639	0.0138026
692.717	0.0137320
692.795	0.0136784
692.873	0.0136176
692.951	0.0137186
693.030	0.0135582
693.108	0.0138479
693.186	0.0140280
693.264	0.0140337
693.342	0.0141953
693.420	0.0142722
693.498	0.0143252
693.576	0.0146040
693.655	0.0148602
693.733	0.0149592
693.811	0.0150512
693.889	0.0151476
693.967	0.0151693
694.045	0.0152367
694.123	0.0154369
694.201	0.0153597
694.280	0.0154587
694.358	0.0153892
694.436	0.0154320
694.514	0.0154863
694.592	0.0153834
694.670	0.0154687
694.748	0.0152708
694.826	0.0152935
694.905	0.0153156
694.983	0.0151556
695.061	0.0152818
695.139	0.0151578
695.217	0.0150842
695.295	0.0149849
695.373	0.0149660
695.451	0.0148820
695.530	0.0148579
695.608	0.0148322
695.686	0.0148731
695.764	0.0147554
695.842	0.0149403
695.920	0.0147983
695.998	0.0148082
696.076	0.0148479
696.155	0.0147700
696.233	0.0148218
696.311	0.0148423
696.389	0.0149870
696.467	0.0148278
696.545	0.0148481
696.623	0.0148920
696.701	0.0150703
696.780	0.0148031
696.858	0.0146765
696.936	0.0145631
697.014	0.0145886
697.092	0.0145773
697.170	0.0146689
697.248	0.0146191
697.326	0.0144162
697.405	0.0143385
697.483	0.0142702
697.561	0.0143231
697.639	0.0142482
697.717	0.0143260
697.795	0.0141870
697.873	0.0141241
697.951	0.0141071
698.030	0.0140614
698.108	0.0141688
698.186	0.0141876
698.264	0.0142027
698.342	0.0142435
698.420	0.0143074
698.498	0.0144497
698.576	0.0144762
698.655	0.0145295
698.733	0.0147543
698.811	0.0149223
698.889	0.0149714
698.967	0.0150751
699.045	0.0152241
699.123	0.0152492
699.201	0.0153316
699.280	0.0153934
699.358	0.0155172
699.436	0.0155860
699.514	0.0158459
699.592	0.0157004
699.670	0.0159195
699.748	0.0157580
699.826	0.0158362
699.905	0.0158851
699.983	0.0159033
700.061	0.0159705
700.139	0.0158624
700.217	0.0157598
700.295	0.0155011
700.373	0.0153240
700.451	0.0154034
700.530	0.0151740
700.608	0.0150113
700.686	0.0149390
700.764	0.0145712
700.842	0.0143242
700.920	0.0141602
700.998	0.0142215
701.076	0.0139587
701.155	0.0138468
701.233	0.0135968
701.311	0.0135617
701.389	0.0135345
701.467	0.0134200
701.545	0.0134197
701.623	0.0133183
701.701	0.0132322
701.780	0.0132845
701.858	0.0132458
701.936	0.0132914
702.014	0.0134188
702.092	0.0134822
702.170	0.0134719
702.248	0.0136617
702.326	0.0137895
702.405	0.0140689
702.483	0.0141885
702.561	0.0143275
702.639	0.0147066
702.717	0.0148592
702.795	0.0149941
702.873	0.0153043
702.951	0.0156300
703.030	0.0156745
703.108	0.0158842
703.186	0.0161534
703.264	0.0162689
703.342	0.0163892
703.420	0.0164539
703.498	0.0165346
703.576	0.0165858
703.655	0.0166467
703.733	0.0167937
703.811	0.0167159
703.889	0.0167491
703.967	0.0167163
704.045	0.0165637
704.123	0.0164711
704.201	0.0164549
704.280	0.0160952
704.358	0.0160625
704.436	0.0159638
704.514	0.0155884
704.592	0.0153241
704.670	0.0151169
704.748	0.0149590
704.826	0.0147272
704.905	0.0145066
704.983	0.0143433
705.061	0.0143032
705.139	0.0140370
705.217	0.0139088
705.295	0.0137475
705.373	0.0138608
705.451	0.0137888
705.530	0.0138276
705.608	0.0135914
705.686	0.0135369
705.764	0.0136850
705.842	0.0137686
705.920	0.0136224
705.998	0.0136520
706.076	0.0138181
706.155	0.0137804
706.233	0.0139331
706.311	0.0138469
706.389	0.0141477
706.467	0.0141441
706.545	0.0142434
706.623	0.0143120
706.701	0.0144615
706.780	0.0143941
706.858	0.0145595
706.936	0.0146698
707.014	0.0147913
707.092	0.0150046
707.170	0.0150851
707.248	0.0151136
707.326	0.0152074
707.405	0.0152691
707.483	0.0152715
707.561	0.0153342
707.639	0.0153066
707.717	0.0153760
707.795	0.0153909
707.873	0.0155494
707.951	0.0156783
708.030	0.0156921
708.108	0.0157970
708.186	0.0159158
708.264	0.0158902
708.342	0.0158498
708.420	0.0158811
708.498	0.0159740
708.576	0.0160471
708.655	0.0159595
708.733	0.0157433
708.811	0.0158373
708.889	0.0156727
708.967	0.0156323
709.045	0.0154457
709.123	0.0154384
709.201	0.0152487
709.280	0.0150974
709.358	0.0150088
709.436	0.0148109
709.514	0.0148662
709.592	0.0148106
709.670	0.0145271
709.748	0.0145123
709.826	0.0143612
709.905	0.0143329
709.983	0.0142213
710.061	0.0140933
710.139	0.0141280
710.217	0.0141473
710.295	0.0140999
710.373	0.0140575
710.451	0.0140475
710.530	0.0140572
710.608	0.0140567
710.686	0.0142773
710.764	0.0142656
710.842	0.0141750
710.920	0.0142949
710.998	0.0143539
711.076	0.0144333
711.155	0.0145714
711.233	0.0145056
711.311	0.0145712
711.389	0.0147324
711.467	0.0149216
711.545	0.0150014
711.623	0.0149158
711.701	0.0149390
711.780	0.0151739
711.858	0.0152889
711.936	0.0152454
712.014	0.0152258
712.092	0.0152542
712.170	0.0154084
712.248	0.0153984
712.326	0.0153693
712.405	0.0153117
712.483	0.0151590
712.561	0.0152406
712.639	0.0154134
712.717	0.0152133
712.795	0.0150707
712.873	0.0150892
712.951	0.0150938
713.030	0.0148885
713.108	0.0149605
713.186	0.0148930
713.264	0.0148379
713.342	0.0147271
713.420	0.0148038
713.498	0.0147444
713.576	0.0147017
713.655	0.0147617
713.733	0.0146233
713.811	0.0145262
713.889	0.0146387
713.967	0.0143373
714.045	0.0144112
714.123	0.0143130
714.201	0.0142982
714.280	0.0143864
714.358	0.0142989
714.436	0.0142623
714.514	0.0141619
714.592	0.0143015
714.670	0.0144322
714.748	0.0145311
714.826	0.0145585
714.905	0.0147260
714.983	0.0146875
715.061	0.0148045
715.139	0.0149763
715.217	0.0149548
715.295	0.0150150
715.373	0.0149745
715.451	0.0149275
715.530	0.0150653
715.608	0.0150015
715.686	0.0149938
715.764	0.0149260
715.842	0.0149784
715.920	0.0150588
715.998	0.0152433
716.076	0.0151134
716.155	0.0150901
716.233	0.0151017
716.311	0.0153426
716.389	0.0152773
716.467	0.0153085
716.545	0.0154395
716.623	0.0153271
716.701	0.0153467
716.780	0.0154663
716.858	0.0153671
716.936	0.0152907
717.014	0.0153436
717.092	0.0152515
717.170	0.0151920
717.248	0.0150192
717.326	0.0152707
717.405	0.0150643
717.483	0.0149174
717.561	0.0149966
717.639	0.0149353
717.717	0.0149155
717.795	0.0149310
717.873	0.0150520
717.951	0.0147800
718.030	0.0148581
718.108	0.0147388
718.186	0.0146439
718.264	0.0146144
718.342	0.0145511
718.420	0.0143197
718.498	0.0144785
718.576	0.0141827
718.655	0.0140556
718.733	0.0142059
718.811	0.0139252
718.889	0.0140038
718.967	0.0137844
719.045	0.0137124
719.123	0.0137691
719.201	0.0138722
719.280	0.0138954
719.358	0.0138042
719.436	0.0139239
719.514	0.0139816
719.592	0.0140125
719.670	0.0141006
719.748	0.0140678
719.826	0.0141902
719.905	0.0141193
719.983	0.0141132
720.061	0.0144017
720.139	0.0142535
720.217	0.0143345
720.295	0.0143777
720.373	0.0145638
720.451	0.0144427
720.530	0.0144718
720.608	0.0144412
720.686	0.0146444
720.764	0.0146834
720.842	0.0147181
720.920	0.0147421
720.998	0.0146169
721.076	0.0146414
721.155	0.0148604
721.233	0.0148563
721.311	0.0148352
721.389	0.0149142
721.467	0.0148975
721.545	0.0149149
721.623	0.0149972
721.701	0.0149188
721.780	0.0150512
721.858	0.0150979
721.936	0.0151098
722.014	0.0152215
722.092	0.0151647
722.170	0.0152163
722.248	0.0153070
722.326	0.0152943
722.405	0.0152473
722.483	0.0151328
722.561	0.0150867
722.639	0.0152281
722.717	0.0152427
722.795	0.0151544
722.873	0.0151286
722.951	0.0150590
723.030	0.0149316
723.108	0.0149765
723.186	0.0150513
723.264	0.0148957
723.342	0.0148715
723.420	0.0147533
723.498	0.0147451
723.576	0.0146510
723.655	0.0147776
723.733	0.0145666
723.811	0.0145553
723.889	0.0146380
723.967	0.0144665
724.045	0.0144807
724.123	0.0143236
724.201	0.0142734
724.280	0.0143098
724.358	0.0142333
724.436	0.0142715
724.514	0.0140556
724.592	0.0139013
724.670	0.0139555
724.748	0.0139912
724.826	0.0141797
724.905	0.0140957
724.983	0.0140149
725.061	0.0140830
725.139	0.0141487
725.217	0.0143455
725.295	0.0144730
725.373	0.0143588
725.451	0.0144162
725.530	0.0146426
725.608	0.0147094
725.686	0.0146922
725.764	0.0149538
725.842	0.0150768
725.920	0.0152106
725.998	0.0151814
726.076	0.0153419
726.155	0.0155122
726.233	0.0153073
726.311	0.0154978
726.389	0.0154222
726.467	0.0155635
726.545	0.0155720
726.623	0.0154419
726.701	0.0154361
726.780	0.0154974
726.858	0.0155312
726.936	0.0155096
727.014	0.0152984
727.092	0.0153240
727.170	0.0153892
727.248	0.0152741
727.326	0.0151701
727.405	0.0153687
727.483	0.0151473
727.561	0.0151651
727.639	0.0151788
727.717	0.0150975
727.795	0.0149543
727.873	0.0149913
727.951	0.0148099
728.030	0.0147918
728.108	0.0148232
728.186	0.0146953
728.264	0.0146885
728.342	0.0145332
728.420	0.0146001
728.498	0.0146260
728.576	0.0145804
728.655	0.0146262
728.733	0.0145941
728.811	0.0143180
728.889	0.0145239
728.967	0.0145397
729.045	0.0146507
729.123	0.0146021
729.201	0.0146531
729.280	0.0147701
729.358	0.0148248
729.436	0.0149006
729.514	0.0149042
729.592	0.0151033
729.670	0.0151367
729.748	0.0150457
729.826	0.0151486
729.905	0.0153154
729.983	0.0152007
730.061	0.0153853
730.139	0.0154405
730.217	0.0153926
730.295	0.0152682
730.373	0.0155405
730.451	0.0155811
730.530	0.0155643
730.608	0.0155975
730.686	0.0154380
730.764	0.0155240
730.842	0.0155228
730.920	0.0154646
730.998	0.0154095
731.076	0.0153719
731.155	0.0152921
731.233	0.0153445
731.311	0.0152052
731.389	0.0151682
731.467	0.0150780
731.545	0.0150103
731.623	0.0151003
731.701	0.0149080
731.780	0.0149612
731.858	0.0148461
731.936	0.0147086
732.014	0.0147131
732.092	0.0146381
732.170	0.0145317
732.248	0.0144278
732.326	0.0143386
732.405	0.0143425
732.483	0.0140927
732.561	0.0141699
732.639	0.0141384
732.717	0.0141159
732.795	0.0142033
732.873	0.0142634
732.951	0.0142667
733.030	0.0143572
733.108	0.0143580
733.186	0.0144955
733.264	0.0145358
733.342	0.0144969
733.420	0.0146961
733.498	0.0147114
733.576	0.0148651
733.655	0.0148151
733.733	0.0146574
733.811	0.0147826
733.889	0.0147508
733.967	0.0149458
734.045	0.0147953
734.123	0.0147923
734.201	0.0147507
734.280	0.0147617
734.358	0.0147643
734.436	0.0148893
734.514	0.0150245
734.592	0.0146989
734.670	0.0146078
734.748	0.0148448
734.826	0.0146746
734.905	0.0148472
734.983	0.0147113
735.061	0.0148650
735.139	0.0149062
735.217	0.0148900
735.295	0.0149289
735.373	0.0151957
735.451	0.0150381
735.530	0.0151095
735.608	0.0151557
735.686	0.0152858
735.764	0.0151537
735.842	0.0152367
735.920	0.0153368
735.998	0.0153038
736.076	0.0154102
736.155	0.0152399
736.233	0.0154171
736.311	0.0151850
736.389	0.0153170
736.467	0.0152647
736.545	0.0151777
736.623	0.0150500
736.701	0.0150578
736.780	0.0149950
736.858	0.0149345
736.936	0.0148174
737.014	0.0148685
737.092	0.0148520
737.170	0.0147329
737.248	0.0147132
737.326	0.0146999
737.405	0.0146442
737.483	0.0145002
737.561	0.0145606
737.639	0.0146017
737.717	0.0144119
737.795	0.0143634
737.873	0.0144181
737.951	0.0145678
738.030	0.0145971
738.108	0.0144292
738.186	0.0145972
738.264	0.0144515
738.342	0.0145164
738.420	0.0147195
738.498	0.0145597
738.576	0.0146825
738.655	0.0146532
738.733	0.0145493
738.811	0.0145803
738.889	0.0147046
738.967	0.0149097
739.045	0.0148142
739.123	0.0148193
739.201	0.0147475
739.280	0.0149950
739.358	0.0149091
739.436	0.0148933
739.514	0.0150114
739.592	0.0151015
739.670	0.0151283
739.748	0.0147423
739.826	0.0149946
739.905	0.0151868
739.983	0.0148834
740.061	0.0149892
740.139	0.0149455
740.217	0.0148436
740.295	0.0146455
740.373	0.0146696
740.451	0.0148823
740.530	0.0146456
740.608	0.0145364
740.686	0.0147445
740.764	0.0145612
740.842	0.0145763
740.920	0.0145921
740.998	0.0146599
741.076	0.0146118
741.155	0.0145085
741.233	0.0146808
741.311	0.0145544
741.389	0.0144519
741.467	0.0143967
741.545	0.0143574
741.623	0.0144876
741.701	0.0145137
741.780	0.0143991
741.858	0.0144947
741.936	0.0145097
742.014	0.0143687
742.092	0.0144917
742.170	0.0144714
742.248	0.0144748
742.326	0.0145458
742.405	0.0147105
742.483	0.0146060
742.561	0.0146223
742.639	0.0145744
742.717	0.0146751
742.795	0.0148360
742.873	0.0148962
742.951	0.0148738
743.030	0.0148752
743.108	0.0148525
743.186	0.0149084
743.264	0.0148398
743.342	0.0149261
743.420	0.0149053
743.498	0.0149306
743.576	0.0149148
743.655	0.0149314
743.733	0.0148932
743.811	0.0149693
743.889	0.0149390
743.967	0.0149530
744.045	0.0150243
744.123	0.0149028
744.201	0.0148056
744.280	0.0147463
744.358	0.0147567
744.436	0.0147109
744.514	0.0146329
744.592	0.0147413
744.670	0.0146796
744.748	0.0146162
744.826	0.0145224
744.905	0.0146241
744.983	0.0146036
745.061	0.0145292
745.139	0.0145386
745.217	0.0146130
745.295	0.0146817
745.373	0.0146798
745.451	0.0146030
745.530	0.0147853
745.608	0.0147803
745.686	0.0146265
745.764	0.0148582
745.842	0.0147645
745.920	0.0149500
745.998	0.0149577
746.076	0.0148624
746.155	0.0148522
746.233	0.0149403
746.311	0.0149641
746.389	0.0148788
746.467	0.0149201
746.545	0.0149934
746.623	0.0149575
746.701	0.0150298
746.780	0.0149614
746.858	0.0150362
746.936	0.0150420
747.014	0.0148393
747.092	0.0149136
747.170	0.0148544
747.248	0.0147864
747.326	0.0147778
747.405	0.0147101
747.483	0.0147834
747.561	0.0147528
747.639	0.0146799
747.717	0.0145790
747.795	0.0145924
747.873	0.0146100
747.951	0.0147012
748.030	0.0146930
748.108	0.0144949
748.186	0.0147137
748.264	0.0148046
748.342	0.0147448
748.420	0.0147503
748.498	0.0148688
748.576	0.0147192
748.655	0.0149369
748.733	0.0149096
748.811	0.0148367
748.889	0.0150505
748.967	0.0151038
749.045	0.0151012
749.123	0.0152114
749.201	0.0150484
749.280	0.0150957
749.358	0.0150864
749.436	0.0150337
749.514	0.0152147
749.592	0.0151952
749.670	0.0151176
749.748	0.0150331
749.826	0.0148896
749.905	0.0150068
749.983	0.0148926
750.061	0.0148603
750.139	0.0147630
750.217	0.0146347
750.295	0.0146460
750.373	0.0147617
750.451	0.0146427
750.530	0.0147157
750.608	0.0148027
750.686	0.0149169
750.764	0.0148314
750.842	0.0147385
750.920	0.0148041
750.998	0.0149619
751.076	0.0149860
751.155	0.0149508
751.233	0.0149088
751.311	0.0149731
751.389	0.0149792
751.467	0.0150838
751.545	0.0148952
751.623	0.0152254
751.701	0.0151676
751.780	0.0150351
751.858	0.0152244
751.936	0.0152882
752.014	0.0150359
752.092	0.0151307
752.170	0.0151283
752.248	0.0151910
752.326	0.0151456
752.405	0.0150735
752.483	0.0150882
752.561	0.0152658
752.639	0.0150817
752.717	0.0150420
752.795	0.0152340
752.873	0.0153043
752.951	0.0151917
753.030	0.0150048
753.108	0.0151339
753.186	0.0150056
753.264	0.0151422
753.342	0.0150097
753.420	0.0151072
753.498	0.0147047
753.576	0.0148846
753.655	0.0149015
753.733	0.0147368
753.811	0.0147076
753.889	0.0147025
753.967	0.0147811
754.045	0.0147214
754.123	0.0146059
754.201	0.0147668
754.280	0.0146143
754.358	0.0147046
754.436	0.0146929
754.514	0.0146212
754.592	0.0145895
754.670	0.0148360
754.748	0.0146574
754.826	0.0146609
754.905	0.0145131
754.983	0.0144551
755.061	0.0146727
755.139	0.0145660
755.217	0.0145354
755.295	0.0146214
755.373	0.0146781
755.451	0.0144874
755.530	0.0146041
755.608	0.0145113
755.686	0.0147932
755.764	0.0146368
755.842	0.0146945
755.920	0.0147550
755.998	0.0146947
756.076	0.0147143
756.155	0.0146333
756.233	0.0147513
756.311	0.0147112
756.389	0.0148428
756.467	0.0149214
756.545	0.0148885
756.623	0.0149007
756.701	0.0149713
756.780	0.0148828
756.858	0.0149195
756.936	0.0150475
757.014	0.0150091
757.092	0.0149950
757.170	0.0149477
757.248	0.0148801
757.326	0.0148564
757.405	0.0149629
757.483	0.0148788
757.561	0.0148374
757.639	0.0148222
757.717	0.0147536
757.795	0.0146464
757.873	0.0146236
757.951	0.0145423
758.030	0.0143985
758.108	0.0145621
758.186	0.0144711
758.264	0.0143256
758.342	0.0145385
758.420	0.0143659
758.498	0.0143411
758.576	0.0142747
758.655	0.0143681
758.733	0.0145041
758.811	0.0143938
758.889	0.0144277
758.967	0.0144289
759.045	0.0142818
759.123	0.0146065
759.201	0.0147253
759.280	0.0148061
759.358	0.0146623
759.436	0.0147592
759.514	0.0147414
759.592	0.0148361
759.670	0.0148205
759.748	0.0148399
759.826	0.0148058
759.905	0.0147099
759.983	0.0148879
760.061	0.0149199
760.139	0.0148238
760.217	0.0148640
760.295	0.0148920
760.373	0.0148454
760.451	0.0148209
760.530	0.0147481
760.608	0.0148208
760.686	0.0147507
760.764	0.0146966
760.842	0.0149010
760.920	0.0147025
760.998	0.0148149
761.076	0.0146819
761.155	0.0147518
761.233	0.0147796
761.311	0.0148617
761.389	0.0147984
761.467	0.0149406
761.545	0.0149969
761.623	0.0148679
761.701	0.0149976
761.780	0.0149081
761.858	0.0149959
761.936	0.0149373
762.014	0.0148703
762.092	0.0149512
762.170	0.0149516
762.248	0.0150787
762.326	0.0150205
762.405	0.0149529
762.483	0.0150208
762.561	0.0149912
762.639	0.0148672
762.717	0.0149569
762.795	0.0147169
762.873	0.0148074
762.951	0.0148981
763.030	0.0148685
763.108	0.0145907
763.186	0.0145552
763.264	0.0145763
763.342	0.0146835
763.420	0.0146040
763.498	0.0146729
763.576	0.0147446
763.655	0.0147766
763.733	0.0148868
763.811	0.0146519
763.889	0.0146811
763.967	0.0148440
764.045	0.0148438
764.123	0.0147707
764.201	0.0147380
764.280	0.0148452
764.358	0.0148473
764.436	0.0148003
764.514	0.0148592
764.592	0.0149159
764.670	0.0150179
764.748	0.0148678
764.826	0.0149100
764.905	0.0149139
764.983	0.0149658
765.061	0.0149042
765.139	0.0150108
765.217	0.0150113
765.295	0.0148892
765.373	0.0148664
765.451	0.0151418
765.530	0.0150211
765.608	0.0149892
765.686	0.0150332
765.764	0.0150149
765.842	0.0149442
765.920	0.0149995
765.998	0.0147942
766.076	0.0148605
766.155	0.0150504
766.233	0.0149423
766.311	0.0147993
766.389	0.0147158
766.467	0.0148330
766.545	0.0149364
766.623	0.0147690
766.701	0.0148406
766.780	0.0148228
766.858	0.0148541
766.936	0.0149256
767.014	0.0148980
767.092	0.0148672
767.170	0.0149149
767.248	0.0151147
767.326	0.0149702
767.405	0.0149024
767.483	0.0148441
767.561	0.0149106
767.639	0.0150511
767.717	0.0151517
767.795	0.0150350
767.873	0.0149513
767.951	0.0150357
768.030	0.0150375
768.108	0.0148161
768.186	0.0149738
768.264	0.0149214
768.342	0.0147484
768.420	0.0146499
768.498	0.0148311
768.576	0.0148171
768.655	0.0145613
768.733	0.0147105
768.811	0.0145577
768.889	0.0145486
768.967	0.0147135
769.045	0.0147068
769.123	0.0146189
769.201	0.0147750
769.280	0.0146474
769.358	0.0146571
769.436	0.0147229
769.514	0.0147372
769.592	0.0147184
769.670	0.0148184
769.748	0.0147550
769.826	0.0148138
769.905	0.0148040
769.983	0.0146725
770.061	0.0147199
770.139	0.0147377
770.217	0.0147382
770.295	0.0147306
770.373	0.0148804
770.451	0.0146706
770.530	0.0146921
770.608	0.0147472
770.686	0.0146844
770.764	0.0147482
770.842	0.0147742
770.920	0.0147942
770.998	0.0146397
771.076	0.0147893
771.155	0.0147373
771.233	0.0146733
771.311	0.0147534
771.389	0.0148992
771.467	0.0150257
771.545	0.0150044
771.623	0.0149820
771.701	0.0148335
771.780	0.0147969
771.858	0.0149115
771.936	0.0150555
772.014	0.0149355
772.092	0.0148412
772.170	0.0148561
772.248	0.0148773
772.326	0.0148786
772.405	0.0148196
772.483	0.0148522
772.561	0.0148344
772.639	0.0148466
772.717	0.0147864
772.795	0.0148495
772.873	0.0147519
772.951	0.0147514
773.030	0.0148515
773.108	0.0147868
773.186	0.0147559
773.264	0.0149632
773.342	0.0148874
773.420	0.0148235
773.498	0.0148460
773.576	0.0148024
773.655	0.0148544
773.733	0.0147623
773.811	0.0147861
773.889	0.0148955
773.967	0.0149319
774.045	0.0148562
774.123	0.0149979
774.201	0.0149074
774.280	0.0148549
774.358	0.0149952
774.436	0.0149017
774.514	0.0148225
774.592	0.0150924
774.670	0.0149946
774.748	0.0149309
774.826	0.0149290
774.905	0.0149934
774.983	0.0150904
775.061	0.0150406
775.139	0.0150887
775.217	0.0150653
775.295	0.0151438
775.373	0.0152104
775.451	0.0151511
775.530	0.0151273
775.608	0.0151463
775.686	0.0152510
775.764	0.0151765
775.842	0.0152533
775.920	0.0150853
775.998	0.0150106
776.076	0.0149989
776.155	0.0149123
776.233	0.0149659
776.311	0.0147902
776.389	0.0147206
776.467	0.0147944
776.545	0.0147404
776.623	0.0146147
776.701	0.0146998
776.780	0.0144157
776.858	0.0145518
776.936	0.0146023
777.014	0.0143950
777.092	0.0144741
777.170	0.0144652
777.248	0.0145458
777.326	0.0145737
777.405	0.0146849
777.483	0.0145325
777.561	0.0148070
777.639	0.0147379
777.717	0.0146854
777.795	0.0148865
777.873	0.0148809
777.951	0.0148473
778.030	0.0149685
778.108	0.0149086
778.186	0.0148944
778.264	0.0148387
778.342	0.0148013
778.420	0.0149302
778.498	0.0148626
778.576	0.0149038
778.655	0.0149912
778.733	0.0149088
778.811	0.0147834
778.889	0.0148000
778.967	0.0147848
779.045	0.0147980
779.123	0.0149087
779.201	0.0147991
779.280	0.0147044
779.358	0.0146782
779.436	0.0147123
779.514	0.0148123
779.592	0.0147785
779.670	0.0147751
779.748	0.0147272
779.826	0.0147053
779.905	0.0147697
779.983	0.0147302
780.061	0.0145271
780.139	0.0145500
780.217	0.0146313
780.295	0.0146443
780.373	0.0145445
780.451	0.0147452
780.530	0.0146709
780.608	0.0146772
780.686	0.0146302
780.764	0.0147301
780.842	0.0146407
780.920	0.0147279
780.998	0.0146213
781.076	0.0146043
781.155	0.0145174
781.233	0.0146008
781.311	0.0147353
781.389	0.0146776
781.467	0.0146468
781.545	0.0147633
781.623	0.0146661
781.701	0.0145606
781.780	0.0147382
781.858	0.0147803
781.936	0.0147942
782.014	0.0147550
782.092	0.0147498
782.170	0.0147593
782.248	0.0148307
782.326	0.0148856
782.405	0.0148375
782.483	0.0148260
782.561	0.0148396
782.639	0.0148687
782.717	0.0149094
782.795	0.0147823
782.873	0.0147105
782.951	0.0148337
783.030	0.0146980
783.108	0.0147907
783.186	0.0148691
783.264	0.0147563
783.342	0.0145722
783.420	0.0146374
783.498	0.0148348
783.576	0.0146544
783.655	0.0147258
783.733	0.0148147
783.811	0.0147263
783.889	0.0147493
783.967	0.0146462
784.045	0.0147073
784.123	0.0145272
784.201	0.0147295
784.280	0.0145715
784.358	0.0145076
784.436	0.0147219
784.514	0.0144981
784.592	0.0145980
784.670	0.0146478
784.748	0.0147050
784.826	0.0146542
784.905	0.0147765
784.983	0.0146646
785.061	0.0146136
785.139	0.0147104
785.217	0.0147331
785.295	0.0146549
785.373	0.0146906
785.451	0.0147475
785.530	0.0146943
785.608	0.0147641
785.686	0.0148454
785.764	0.0148631
785.842	0.0146924
785.920	0.0147446
785.998	0.0148975
786.076	0.0148793
786.155	0.0148443
786.233	0.0149044
786.311	0.0148544
786.389	0.0147855
786.467	0.0148228
786.545	0.0147253
786.623	0.0148666
786.701	0.0146938
786.780	0.0148368
786.858	0.0147288
786.936	0.0147223
787.014	0.0148994
787.092	0.0148562
787.170	0.0148803
787.248	0.0147635
787.326	0.0149296
787.405	0.0149822
787.483	0.0149567
787.561	0.0148883
787.639	0.0150072
787.717	0.0151456
787.795	0.0151880
787.873	0.0150730
787.951	0.0151271
788.030	0.0151031
788.108	0.0149339
788.186	0.0150697
788.264	0.0151107
788.342	0.0150244
788.420	0.0149028
788.498	0.0149154
788.576	0.0148714
788.655	0.0149409
788.733	0.0149565
788.811	0.0148103
788.889	0.0147263
788.967	0.0147462
789.045	0.0147069
789.123	0.0147242
789.201	0.0146713
789.280	0.0146485
789.358	0.0146804
789.436	0.0146429
789.514	0.0147293
789.592	0.0145406
789.670	0.0146619
789.748	0.0146129
789.826	0.0144057
789.905	0.0147364
789.983	0.0147545
790.061	0.0148256
790.139	0.0147636
790.217	0.0147723
790.295	0.0147840
790.373	0.0149857
790.451	0.0147939
790.530	0.0147189
790.608	0.0148209
790.686	0.0148381
790.764	0.0149001
790.842	0.0149302
790.920	0.0149245
790.998	0.0149609
791.076	0.0148483
791.155	0.0148513
791.233	0.0148747
791.311	0.0148799
791.389	0.0149487
791.467	0.0149553
791.545	0.0148151
791.623	0.0148544
791.701	0.0147729
791.780	0.0149616
791.858	0.0147819
791.936	0.0148640
792.014	0.0148901
792.092	0.0148315
792.170	0.0148841
792.248	0.0148809
792.326	0.0148244
792.405	0.0149509
792.483	0.0149895
792.561	0.0148671
792.639	0.0149145
792.717	0.0149210
792.795	0.0148407
792.873	0.0149210
792.951	0.0148025
793.030	0.0148178
793.108	0.0148342
793.186	0.0149708
793.264	0.0148075
793.342	0.0148104
793.420	0.0148945
793.498	0.0147690
793.576	0.0146796
793.655	0.0148321
793.733	0.0149655
793.811	0.0147969
793.889	0.0150127
793.967	0.0150868
794.045	0.0147859
794.123	0.0147545
794.201	0.0148058
794.280	0.0149513
794.358	0.0148101
794.436	0.0147385
794.514	0.0149557
794.592	0.0149551
794.670	0.0146659
794.748	0.0149083
794.826	0.0149966
794.905	0.0148113
794.983	0.0148729
795.061	0.0148627
795.139	0.0149772
795.217	0.0149187
795.295	0.0149690
795.373	0.0149897
795.451	0.0150098
795.530	0.0150776
795.608	0.0151056
795.686	0.0152436
795.764	0.0151608
795.842	0.0151276
795.920	0.0151516
795.998	0.0151308
796.076	0.0151130
796.155	0.0150854
796.233	0.0152051
796.311	0.0151246
796.389	0.0151279
796.467	0.0151746
796.545	0.0151383
796.623	0.0150758
796.701	0.0151101
796.780	0.0150105
796.858	0.0149171
796.936	0.0150242
797.014	0.0150677
797.092	0.0149361
797.170	0.0148985
797.248	0.0148784
797.326	0.0148653
797.405	0.0146907
797.483	0.0146687
797.561	0.0148895
797.639	0.0147735
797.717	0.0145094
797.795	0.0146235
797.873	0.0146790
797.951	0.0144302
798.030	0.0146674
798.108	0.0146095
798.186	0.0145427
798.264	0.0144447
798.342	0.0145985
798.420	0.0146690
798.498	0.0145232
798.576	0.0144833
798.655	0.0145872
798.733	0.0146806
798.811	0.0146315
798.889	0.0145913
798.967	0.0147566
799.045	0.0147440
799.123	0.0147109
799.201	0.0147720
799.280	0.0147673
799.358	0.0148239
799.436	0.0148470
799.514	0.0146230
799.592	0.0146405
799.670	0.0148558
799.748	0.0147928
799.826	0.0147230
799.905	0.0148037
799.983	0.0147169
800.061	0.0149154
800.139	0.0149344
800.217	0.0149909
800.295	0.0149886
800.373	0.0148967
800.451	0.0148868
800.530	0.0149136
800.608	0.0149679
800.686	0.0148049
800.764	0.0148051
800.842	0.0147295
800.920	0.0147771
800.998	0.0148901
801.076	0.0147670
801.155	0.0147570
801.233	0.0146971
801.311	0.0146555
801.389	0.0146162
801.467	0.0146042
801.545	0.0145949
801.623	0.0145436
801.701	0.0146835
801.780	0.0145335
801.858	0.0144904
801.936	0.0144183
802.014	0.0145558
802.092	0.0146520
802.170	0.0144981
802.248	0.0145283
802.326	0.0145313
802.405	0.0145945
802.483	0.0144582
802.561	0.0146179
802.639	0.0146427
802.717	0.0145728
802.795	0.0146204
802.873	0.0146967
802.951	0.0145535
803.030	0.0147462
803.108	0.0147704
803.186	0.0147197
803.264	0.0147516
803.342	0.0149198
803.420	0.0149224
803.498	0.0148886
803.576	0.0147854
803.655	0.0148754
803.733	0.0148090
803.811	0.0149284
803.889	0.0149579
803.967	0.0149406
804.045	0.0149405
804.123	0.0149826
804.201	0.0149449
804.280	0.0150983
804.358	0.0150034
804.436	0.0150186
804.514	0.0150982
804.592	0.0150305
804.670	0.0151511
804.748	0.0151530
804.826	0.0150846
804.905	0.0150800
804.983	0.0152125
805.061	0.0151023
805.139	0.0149597
805.217	0.0150027
805.295	0.0150027
805.373	0.0150872
805.451	0.0149746
805.530	0.0151878
805.608	0.0149673
805.686	0.0150345
805.764	0.0149501
805.842	0.0150373
805.920	0.0150768
805.998	0.0151292
806.076	0.0149030
806.155	0.0147781
806.233	0.0148980
806.311	0.0149713
806.389	0.0150283
806.467	0.0148948
806.545	0.0148399
806.623	0.0149410
806.701	0.0149194
806.780	0.0148569
806.858	0.0148028
806.936	0.0148931
807.014	0.0150002
807.092	0.0149330
807.170	0.0150404
807.248	0.0147891
807.326	0.0147771
807.405	0.0150504
807.483	0.0149426
807.561	0.0150404
807.639	0.0149058
807.717	0.0149492
807.795	0.0149113
807.873	0.0148149
807.951	0.0149254
808.030	0.0149759
808.108	0.0148301
808.186	0.0148920
808.264	0.0148890
808.342	0.0148985
808.420	0.0150129
808.498	0.0150111
808.576	0.0148845
808.655	0.0149696
808.733	0.0150153
808.811	0.0151011
808.889	0.0151937
808.967	0.0150140
809.045	0.0148993
809.123	0.0150275
809.201	0.0150916
809.280	0.0151485
809.358	0.0149806
809.436	0.0151070
809.514	0.0150632
809.592	0.0151306
809.670	0.0150947
809.748	0.0151148
809.826	0.0149516
809.905	0.0150938
809.983	0.0148879
810.061	0.0148811
810.139	0.0147985
810.217	0.0148997
810.295	0.0148190
810.373	0.0148164
810.451	0.0147607
810.530	0.0147124
810.608	0.0146417
810.686	0.0147409
810.764	0.0146779
810.842	0.0147883
810.920	0.0148267
810.998	0.0147994
811.076	0.0147386
811.155	0.0147739
811.233	0.0147887
811.311	0.0146539
811.389	0.0147021
811.467	0.0147161
811.545	0.0147313
811.623	0.0147378
811.701	0.0146377
811.780	0.0147933
811.858	0.0149303
811.936	0.0147346
812.014	0.0147617
812.092	0.0147544
812.170	0.0148389
812.248	0.0148582
812.326	0.0149145
812.405	0.0149537
812.483	0.0149381
812.561	0.0148427
812.639	0.0149615
812.717	0.0150531
812.795	0.0149877
812.873	0.0150786
812.951	0.0149535
813.030	0.0149778
813.108	0.0150372
813.186	0.0149708
813.264	0.0148867
813.342	0.0149147
813.420	0.0149249
813.498	0.0149132
813.576	0.0149106
813.655	0.0149782
813.733	0.0149279
813.811	0.0149873
813.889	0.0148027
813.967	0.0148879
814.045	0.0148193
814.123	0.0148896
814.201	0.0147978
814.280	0.0146969
814.358	0.0147169
814.436	0.0148904
814.514	0.0148482
814.592	0.0147322
814.670	0.0147392
814.748	0.0148068
814.826	0.0147790
814.905	0.0147274
814.983	0.0147112
815.061	0.0147430
815.139	0.0147231
815.217	0.0147489
815.295	0.0148505
815.373	0.0146995
815.451	0.0146107
815.530	0.0146130
815.608	0.0146220
815.686	0.0147031
815.764	0.0146664
815.842	0.0147269
815.920	0.0145723
815.998	0.0146291
816.076	0.0145938
816.155	0.0145927
816.233	0.0147776
816.311	0.0146693
816.389	0.0148230
816.467	0.0146061
816.545	0.0148045
816.623	0.0147623
816.701	0.0146101
816.780	0.0146841
816.858	0.0148949
816.936	0.0147183
817.014	0.0147001
817.092	0.0148417
817.170	0.0150593
817.248	0.0148815
817.326	0.0148618
817.405	0.0148699
817.483	0.0148772
817.561	0.0149660
817.639	0.0149420
817.717	0.0149432
817.795	0.0150641
817.873	0.0150768
817.951	0.0150513
818.030	0.0149327
818.108	0.0149961
818.186	0.0150191
818.264	0.0150082
818.342	0.0149283
818.420	0.0148262
818.498	0.0148872
818.576	0.0150574
818.655	0.0150063
818.733	0.0148811
818.811	0.0149369
818.889	0.0149091
818.967	0.0148920
819.045	0.0147466
819.123	0.0147663
819.201	0.0149347
819.280	0.0148580
819.358	0.0147660
819.436	0.0147208
819.514	0.0147637
819.592	0.0147912
819.670	0.0148106
819.748	0.0147969
819.826	0.0147396
819.905	0.0147137
819.983	0.0147367
820.061	0.0147668
820.139	0.0149071
820.217	0.0146604
820.295	0.0146343
820.373	0.0145776
820.451	0.0146285
820.530	0.0147213
820.608	0.0149221
820.686	0.0147701
820.764	0.0147482
820.842	0.0146342
820.920	0.0147080
820.998	0.0147945
821.076	0.0146331
821.155	0.0145381
821.233	0.0148184
821.311	0.0147526
821.389	0.0146257
821.467	0.0148071
821.545	0.0146304
821.623	0.0146136
821.701	0.0147643
821.780	0.0148023
821.858	0.0146851
821.936	0.0146691
822.014	0.0147946
822.092	0.0147417
822.170	0.0147229
822.248	0.0146044
822.326	0.0146664
822.405	0.0148454
822.483	0.0148533
822.561	0.0147466
822.639	0.0147334
822.717	0.0147875
822.795	0.0147036
822.873	0.0147351
822.951	0.0147810
823.030	0.0149559
823.108	0.0149075
823.186	0.0147997
823.264	0.0148851
823.342	0.0147615
823.420	0.0148949
823.498	0.0147688
823.576	0.0148341
823.655	0.0148038
823.733	0.0149490
823.811	0.0149431
823.889	0.0149646
823.967	0.0148540
824.045	0.0149453
824.123	0.0148058
824.201	0.0149489
824.280	0.0149138
824.358	0.0147318
824.436	0.0148898
824.514	0.0149562
824.592	0.0147734
824.670	0.0149168
824.748	0.0148419
824.826	0.0149010
824.905	0.0148181
824.983	0.0148388
825.061	0.0148084
825.139	0.0147679
825.217	0.0147311
825.295	0.0148856
825.373	0.0146819
825.451	0.0146765
825.530	0.0148363
825.608	0.0149263
825.686	0.0147054
825.764	0.0147516
825.842	0.0148853
825.920	0.0146523
825.998	0.0148808
826.076	0.0148650
826.155	0.0147558
826.233	0.0147635
826.311	0.0149300
826.389	0.0147984
826.467	0.0149602
826.545	0.0149231
826.623	0.0148652
826.701	0.0149973
826.780	0.0149280
826.858	0.0150105
826.936	0.0148428
827.014	0.0149635
827.092	0.0149277
827.170	0.0149252
827.248	0.0149474
827.326	0.0147589
827.405	0.0148827
827.483	0.0149464
827.561	0.0147823
827.639	0.0149175
827.717	0.0149914
827.795	0.0147881
827.873	0.0147951
827.951	0.0148756
828.030	0.0148550
828.108	0.0148167
828.186	0.0147918
828.264	0.0147957
828.342	0.0147883
828.420	0.0149149
828.498	0.0148484
828.576	0.0148341
828.655	0.0148180
828.733	0.0147433
828.811	0.0148994
828.889	0.0149819
828.967	0.0148954
829.045	0.0147112
829.123	0.0149142
829.201	0.0149462
829.280	0.0148848
829.358	0.0147825
829.436	0.0148948
829.514	0.0150801
829.592	0.0149918
829.670	0.0148729
829.748	0.0148708
829.826	0.0149823
829.905	0.0150158
829.983	0.0148457
830.061	0.0147934
830.139	0.0148312
830.217	0.0149887
830.295	0.0148602
830.373	0.0149696
830.451	0.0148753
830.530	0.0147023
830.608	0.0148645
830.686	0.0148646
830.764	0.0146748
830.842	0.0149382
830.920	0.0149519
830.998	0.0149488
831.076	0.0147099
831.155	0.0148859
831.233	0.0149481
831.311	0.0148083
831.389	0.0148322
831.467	0.0149574
831.545	0.0148920
831.623	0.0150149
831.701	0.0149360
831.780	0.0149312
831.858	0.0149972
831.936	0.0149817
832.014	0.0149415
832.092	0.0151188
832.170	0.0149737
832.248	0.0150172
832.326	0.0150150
832.405	0.0149621
832.483	0.0151003
832.561	0.0150645
832.639	0.0150457
832.717	0.0150162
832.795	0.0150823
832.873	0.0149335
832.951	0.0150301
833.030	0.0150823
833.108	0.0149739
833.186	0.0149451
833.264	0.0149278
833.342	0.0149967
833.420	0.0148144
833.498	0.0148785
833.576	0.0148547
833.655	0.0148720
833.733	0.0149932
833.811	0.0148046
833.889	0.0148069
833.967	0.0148148
834.045	0.0147753
834.123	0.0147603
834.201	0.0147926
834.280	0.0147163
834.358	0.0147641
834.436	0.0147239
834.514	0.0146449
834.592	0.0146738
834.670	0.0147763
834.748	0.0147771
834.826	0.0147433
834.905	0.0146304
834.983	0.0146880
835.061	0.0148080
835.139	0.0147301
835.217	0.0146797
835.295	0.0146284
835.373	0.0146980
835.451	0.0146410
835.530	0.0147720
835.608	0.0147245
835.686	0.0147443
835.764	0.0147977
835.842	0.0148116
835.920	0.0148758
835.998	0.0148010
836.076	0.0147617
836.155	0.0149232
836.233	0.0150456
836.311	0.0148881
836.389	0.0148297
836.467	0.0149222
836.545	0.0149540
836.623	0.0149364
836.701	0.0150165
836.780	0.0148038
836.858	0.0149339
836.936	0.0149339
837.014	0.0148129
837.092	0.0148811
837.170	0.0149901
837.248	0.0149393
837.326	0.0149303
837.405	0.0149395
837.483	0.0149226
837.561	0.0148729
837.639	0.0148449
837.717	0.0147872
837.795	0.0148457
837.873	0.0149101
837.951	0.0148981
838.030	0.0147457
838.108	0.0146967
838.186	0.0147161
838.264	0.0148073
838.342	0.0146219
838.420	0.0146873
838.498	0.0149007
838.576	0.0148307
838.655	0.0146971
838.733	0.0146508
838.811	0.0148259
838.889	0.0148460
838.967	0.0147434
839.045	0.0147071
839.123	0.0146851
839.201	0.0146903
839.280	0.0147767
839.358	0.0147314
839.436	0.0147889
839.514	0.0148736
839.592	0.0149365
839.670	0.0148824
839.748	0.0147324
839.826	0.0147304
839.905	0.0147684
839.983	0.0148456
840.061	0.0148051
840.139	0.0148186
840.217	0.0148518
840.295	0.0147680
840.373	0.0148638
840.451	0.0149026
840.530	0.0149201
840.608	0.0149754
840.686	0.0148400
840.764	0.0147764
840.842	0.0149001
840.920	0.0148740
840.998	0.0149890
841.076	0.0147440
841.155	0.0149467
841.233	0.0149957
841.311	0.0148322
841.389	0.0148003
841.467	0.0148431
841.545	0.0148841
841.623	0.0149160
841.701	0.0149207
841.780	0.0148557
841.858	0.0150050
841.936	0.0149090
842.014	0.0148604
842.092	0.0148972
842.170	0.0149319
842.248	0.0150050
842.326	0.0148262
842.405	0.0148066
842.483	0.0148716
842.561	0.0148920
842.639	0.0148224
842.717	0.0148155
842.795	0.0147760
842.873	0.0148172
842.951	0.0147917
843.030	0.0147518
843.108	0.0146390
843.186	0.0146194
843.264	0.0147977
843.342	0.0145674
843.420	0.0145726
843.498	0.0147201
843.576	0.0147298
843.655	0.0146677
843.733	0.0146693
843.811	0.0147024
843.889	0.0146818
843.967	0.0145450
844.045	0.0146127
844.123	0.0145944
844.201	0.0145131
844.280	0.0146756
844.358	0.0147354
844.436	0.0146243
844.514	0.0144323
844.592	0.0145924
844.670	0.0145490
844.748	0.0146317
844.826	0.0146771
844.905	0.0147002
844.983	0.0146815
845.061	0.0146548
845.139	0.0146487
845.217	0.0146038
845.295	0.0145779
845.373	0.0145973
845.451	0.0147407
845.530	0.0147861
845.608	0.0146336
845.686	0.0146503
845.764	0.0145561
845.842	0.0147828
845.920	0.0147365
845.998	0.0147633
846.076	0.0148334
846.155	0.0145905
846.233	0.0146700
846.311	0.0147226
846.389	0.0148155
846.467	0.0148698
846.545	0.0148988
846.623	0.0146772
846.701	0.0147341
846.780	0.0148914
846.858	0.0148126
846.936	0.0148109
847.014	0.0148800
847.092	0.0148116
847.170	0.0148233
847.248	0.0148101
847.326	0.0148723
847.405	0.0148270
847.483	0.0145693
847.561	0.0146579
847.639	0.0147815
847.717	0.0148954
847.795	0.0148197
847.873	0.0147679
847.951	0.0148260
848.030	0.0147511
848.108	0.0147066
848.186	0.0147813
848.264	0.0147251
848.342	0.0146862
848.420	0.0147881
848.498	0.0147839
848.576	0.0148685
848.655	0.0148071
848.733	0.0147691
848.811	0.0149814
848.889	0.0149236
848.967	0.0149778
849.045	0.0150263
849.123	0.0149623
849.201	0.0150089
849.280	0.0150107
849.358	0.0150000
849.436	0.0150156
849.514	0.0150417
849.592	0.0150340
849.670	0.0149217
849.748	0.0149464
849.826	0.0149538
849.905	0.0149745
849.983	0.0150220
850.061	0.0150262
850.139	0.0149174
850.217	0.0147865
850.295	0.0147823
850.373	0.0149681
850.451	0.0149199
850.530	0.0150568
850.608	0.0149981
850.686	0.0148182
850.764	0.0147793
850.842	0.0150057
850.920	0.0149548
850.998	0.0148711
851.076	0.0149752
851.155	0.0148228
851.233	0.0148895
851.311	0.0148915
851.389	0.0148877
851.467	0.0148315
851.545	0.0150613
851.623	0.0150449
851.701	0.0149443
851.780	0.0148432
851.858	0.0150357
851.936	0.0150344
852.014	0.0149145
852.092	0.0149416
852.170	0.0150544
852.248	0.0150249
852.326	0.0149494
852.405	0.0149249
852.483	0.0150031
852.561	0.0148939
852.639	0.0150160
852.717	0.0149462
852.795	0.0149059
852.873	0.0150943
852.951	0.0148851
853.030	0.0149487
853.108	0.0149873
853.186	0.0150169
853.264	0.0149169
853.342	0.0149216
853.420	0.0149416
853.498	0.0150106
853.576	0.0148955
853.655	0.0149909
853.733	0.0150903
853.811	0.0149939
853.889	0.0149512
853.967	0.0149844
854.045	0.0149960
854.123	0.0149538
854.201	0.0148180
854.280	0.0148218
854.358	0.0149163
854.436	0.0148769
854.514	0.0149605
854.592	0.0148846
854.670	0.0149026
854.748	0.0148116
854.826	0.0148120
854.905	0.0147769
854.983	0.0147448
855.061	0.0147338
855.139	0.0147957
855.217	0.0147552
855.295	0.0147070
855.373	0.0145428
855.451	0.0145898
855.530	0.0147992
855.608	0.0147605
855.686	0.0147016
855.764	0.0146587
855.842	0.0145658
855.920	0.0145950
855.998	0.0146024
856.076	0.0145870
856.155	0.0145291
856.233	0.0146320
856.311	0.0145567
856.389	0.0145742
856.467	0.0146793
856.545	0.0145213
856.623	0.0147472
856.701	0.0146162
856.780	0.0145895
856.858	0.0145855
856.936	0.0145248
857.014	0.0146331
857.092	0.0146302
857.170	0.0145048
857.248	0.0147784
857.326	0.0145109
857.405	0.0147131
857.483	0.0146375
857.561	0.0147520
857.639	0.0146617
857.717	0.0145747
857.795	0.0147533
857.873	0.0147411
857.951	0.0146616
858.030	0.0147939
858.108	0.0147849
858.186	0.0148661
858.264	0.0148598
858.342	0.0148506
858.420	0.0147291
858.498	0.0146713
858.576	0.0148188
858.655	0.0146877
858.733	0.0148125
858.811	0.0148823
858.889	0.0149090
858.967	0.0147322
859.045	0.0148283
859.123	0.0147623
859.201	0.0148067
859.280	0.0147614
859.358	0.0147557
859.436	0.0147252
859.514	0.0147736
859.592	0.0147200
859.670	0.0148465
859.748	0.0148196
859.826	0.0147277
859.905	0.0147726
859.983	0.0147911
860.061	0.0148697
860.139	0.0146641
860.217	0.0147520
860.295	0.0148300
860.373	0.0147701
860.451	0.0147536
860.530	0.0148072
860.608	0.0148937
860.686	0.0148702
860.764	0.0147543
860.842	0.0148978
860.920	0.0148632
860.998	0.0148034
861.076	0.0149078
861.155	0.0148412
861.233	0.0148585
861.311	0.0148814
861.389	0.0147794
861.467	0.0148057
861.545	0.0148486
861.623	0.0148616
861.701	0.0147964
861.780	0.0148299
861.858	0.0149145
861.936	0.0148181
862.014	0.0148841
862.092	0.0147511
862.170	0.0147931
862.248	0.0149752
862.326	0.0150151
862.405	0.0149454
862.483	0.0149938
862.561	0.0148539
862.639	0.0148916
862.717	0.0148830
862.795	0.0149805
862.873	0.0149116
862.951	0.0150039
863.030	0.0148948
863.108	0.0148589
863.186	0.0148507
863.264	0.0149528
863.342	0.0149300
863.420	0.0149319
863.498	0.0149648
863.576	0.0149889
863.655	0.0148753
863.733	0.0150304
863.811	0.0148702
863.889	0.0148082
863.967	0.0148402
864.045	0.0148785
864.123	0.0148090
864.201	0.0149728
864.280	0.0150033
864.358	0.0149596
864.436	0.0148108
864.514	0.0149170
864.592	0.0148650
864.670	0.0147398
864.748	0.0147913
864.826	0.0147485
864.905	0.0148398
864.983	0.0147927
865.061	0.0149542
865.139	0.0148248
865.217	0.0147506
865.295	0.0150227
865.373	0.0149764
865.451	0.0148286
865.530	0.0148098
865.608	0.0148258
865.686	0.0148649
865.764	0.0147964
865.842	0.0148096
865.920	0.0149007
865.998	0.0148933
866.076	0.0148557
866.155	0.0148679
866.233	0.0147467
866.311	0.0146473
866.389	0.0147450
866.467	0.0147603
866.545	0.0147540
866.623	0.0147684
866.701	0.0147189
866.780	0.0147980
866.858	0.0148347
866.936	0.0147184
867.014	0.0147686
867.092	0.0146775
867.170	0.0147997
867.248	0.0146932
867.326	0.0146647
867.405	0.0147783
867.483	0.0147709
867.561	0.0147698
867.639	0.0146992
867.717	0.0146685
867.795	0.0147662
867.873	0.0149278
867.951	0.0146597
868.030	0.0147134
868.108	0.0148170
868.186	0.0148882
868.264	0.0148629
868.342	0.0150298
868.420	0.0150865
868.498	0.0149668
868.576	0.0150444
868.655	0.0150031
868.733	0.0150224
868.811	0.0150229
868.889	0.0150404
868.967	0.0151076
869.045	0.0150612
869.123	0.0149279
869.201	0.0149194
869.280	0.0148854
869.358	0.0149792
869.436	0.0150440
869.514	0.0149933
869.592	0.0148225
869.670	0.0149866
869.748	0.0150631
869.826	0.0150651
869.905	0.0148499
869.983	0.0148379
870.061	0.0148421
870.139	0.0148809
870.217	0.0150138
870.295	0.0150043
870.373	0.0149550
870.451	0.0149560
870.530	0.0149892
870.608	0.0150214
870.686	0.0149559
870.764	0.0150397
870.842	0.0150393
870.920	0.0150135
870.998	0.0151006
871.076	0.0149606
871.155	0.0149521
871.233	0.0150018
871.311	0.0149389
871.389	0.0147588
871.467	0.0148526
871.545	0.0150588
871.623	0.0148643
871.701	0.0149392
871.780	0.0147865
871.858	0.0149554
871.936	0.0150219
872.014	0.0149905
872.092	0.0148183
872.170	0.0148254
872.248	0.0148605
872.326	0.0148808
872.405	0.0148421
872.483	0.0150155
872.561	0.0149016
872.639	0.0148684
872.717	0.0147978
872.795	0.0146016
872.873	0.0147455
872.951	0.0147367
873.030	0.0147813
873.108	0.0146346
873.186	0.0147794
873.264	0.0145248
873.342	0.0145890
873.420	0.0146556
873.498	0.0149393
873.576	0.0148072
873.655	0.0147069
873.733	0.0146881
873.811	0.0147294
873.889	0.0148145
873.967	0.0146691
874.045	0.0146880
874.123	0.0148335
874.201	0.0148337
874.280	0.0147920
874.358	0.0147444
874.436	0.0148458
874.514	0.0147782
874.592	0.0147716
874.670	0.0147095
874.748	0.0148508
874.826	0.0149411
874.905	0.0147949
874.983	0.0148514
875.061	0.0148435
875.139	0.0147851
875.217	0.0148410
875.295	0.0148230
875.373	0.0147643
875.451	0.0147929
875.530	0.0147059
875.608	0.0148376
875.686	0.0146369
875.764	0.0146464
875.842	0.0148045
875.920	0.0147337
875.998	0.0145647
876.076	0.0147188
876.155	0.0146722
876.233	0.0147144
876.311	0.0147529
876.389	0.0147034
876.467	0.0146472
876.545	0.0144851
876.623	0.0146972
876.701	0.0146936
876.780	0.0146869
876.858	0.0146139
876.936	0.0146729
877.014	0.0149156
877.092	0.0148023
877.170	0.0147523
877.248	0.0147781
877.326	0.0146604
877.405	0.0148957
877.483	0.0149556
877.561	0.0147769
877.639	0.0148904
877.717	0.0149305
877.795	0.0149156
877.873	0.0147966
877.951	0.0147984
878.030	0.0149104
878.108	0.0149567
878.186	0.0147361
878.264	0.0148936
878.342	0.0147580
878.420	0.0148210
878.498	0.0148931
878.576	0.0147570
878.655	0.0148929
878.733	0.0147911
878.811	0.0148866
878.889	0.0149190
878.967	0.0149265
879.045	0.0149960
879.123	0.0149320
879.201	0.0148541
879.280	0.0149346
879.358	0.0149560
879.436	0.0148392
879.514	0.0147457
879.592	0.0150112
879.670	0.0149950
879.748	0.0148055
879.826	0.0149189
879.905	0.0149132
879.983	0.0149088
880.061	0.0148430
880.139	0.0146935
880.217	0.0147849
880.295	0.0148277
880.373	0.0147559
880.451	0.0146918
880.530	0.0146936
880.608	0.0146889
880.686	0.0147830
880.764	0.0146184
880.842	0.0147044
880.920	0.0147596
880.998	0.0145536
881.076	0.0146027
881.155	0.0145892
881.233	0.0147181
881.311	0.0146905
881.389	0.0146773
881.467	0.0145549
881.545	0.0147268
881.623	0.0145799
881.701	0.0145908
881.780	0.0146243
881.858	0.0145991
881.936	0.0148742
882.014	0.0148212
882.092	0.0147192
882.170	0.0147191
882.248	0.0148804
882.326	0.0148129
882.405	0.0147999
882.483	0.0148271
882.561	0.0149122
882.639	0.0148205
882.717	0.0148732
882.795	0.0148235
882.873	0.0147592
882.951	0.0147195
883.030	0.0148882
883.108	0.0148116
883.186	0.0146288
883.264	0.0147426
883.342	0.0148160
883.420	0.0147420
883.498	0.0147969
883.576	0.0147205
883.655	0.0146154
883.733	0.0148193
883.811	0.0147862
883.889	0.0148502
883.967	0.0147777
884.045	0.0146568
884.123	0.0148203
884.201	0.0148406
884.280	0.0146619
884.358	0.0147125
884.436	0.0147424
884.514	0.0148515
884.592	0.0148763
884.670	0.0148613
884.748	0.0147856
884.826	0.0148454
884.905	0.0148281
884.983	0.0146630
885.061	0.0148556
885.139	0.0149642
885.217	0.0148758
885.295	0.0148952
885.373	0.0148698
885.451	0.0149255
885.530	0.0148512
885.608	0.0148959
885.686	0.0149563
885.764	0.0147904
885.842	0.0149103
885.920	0.0150470
885.998	0.0148256
886.076	0.0149229
886.155	0.0148901
886.233	0.0148731
886.311	0.0148779
886.389	0.0149295
886.467	0.0149913
886.545	0.0148504
886.623	0.0148815
886.701	0.0146764
886.780	0.0148426
886.858	0.0147205
886.936	0.0149805
887.014	0.0149605
887.092	0.0149418
887.170	0.0148992
887.248	0.0149084
887.326	0.0148776
887.405	0.0148268
887.483	0.0148214
887.561	0.0149368
887.639	0.0148526
887.717	0.0147498
887.795	0.0148296
887.873	0.0148911
887.951	0.0148235
888.030	0.0148096
888.108	0.0147839
888.186	0.0148705
888.264	0.0148553
888.342	0.0147115
888.420	0.0147408
888.498	0.0147374
888.576	0.0147557
888.655	0.0147811
888.733	0.0147179
888.811	0.0148075
888.889	0.0146952
888.967	0.0146572
889.045	0.0148161
889.123	0.0149228
889.201	0.0147168
889.280	0.0147243
889.358	0.0146552
889.436	0.0148425
889.514	0.0146341
889.592	0.0147950
889.670	0.0147599
889.748	0.0147836
889.826	0.0148093
889.905	0.0147846
889.983	0.0146411
890.061	0.0146550
890.139	0.0147554
890.217	0.0146586
890.295	0.0147355
890.373	0.0148120
890.451	0.0147577
890.530	0.0147552
890.608	0.0149453
890.686	0.0148425
890.764	0.0149715
890.842	0.0147786
890.920	0.0148189
890.998	0.0148602
891.076	0.0148225
891.155	0.0148010
891.233	0.0149732
891.311	0.0149628
891.389	0.0149773
891.467	0.0149371
891.545	0.0148967
891.623	0.0148753
891.701	0.0149328
891.780	0.0149645
891.858	0.0150635
891.936	0.0147995
892.014	0.0148610
892.092	0.0148957
892.170	0.0149314
892.248	0.0149643
892.326	0.0149429
892.405	0.0148566
892.483	0.0147399
892.561	0.0147832
892.639	0.0148391
892.717	0.0148624
892.795	0.0147176
892.873	0.0147459
892.951	0.0148469
893.030	0.0148825
893.108	0.0146889
893.186	0.0146776
893.264	0.0146737
893.342	0.0148165
893.420	0.0148470
893.498	0.0148112
893.576	0.0146995
893.655	0.0146846
893.733	0.0146603
893.811	0.0146413
893.889	0.0147202
893.967	0.0147566
894.045	0.0148116
894.123	0.0148075
894.201	0.0148125
894.280	0.0147322
894.358	0.0148701
894.436	0.0149873
894.514	0.0149977
894.592	0.0150569
894.670	0.0150941
894.748	0.0151074
894.826	0.0150154
894.905	0.0150806
894.983	0.0149406
895.061	0.0151044
895.139	0.0150304
895.217	0.0150960
895.295	0.0149083
895.373	0.0149979
895.451	0.0149680
895.530	0.0149831
895.608	0.0149015
895.686	0.0148454
895.764	0.0147670
895.842	0.0149342
895.920	0.0146786
895.998	0.0146905
896.076	0.0148463
896.155	0.0147259
896.233	0.0145607
896.311	0.0147211
896.389	0.0147835
896.467	0.0146264
896.545	0.0146906
896.623	0.0147449
896.701	0.0145887
896.780	0.0146114
896.858	0.0147341
896.936	0.0147128
897.014	0.0146015
897.092	0.0148004
897.170	0.0146734
897.248	0.0148367
897.326	0.0148825
897.405	0.0146649
897.483	0.0146871
897.561	0.0146814
897.639	0.0146939
897.717	0.0147677
897.795	0.0148448
897.873	0.0147545
897.951	0.0147232
898.030	0.0149090
898.108	0.0147864
898.186	0.0147536
898.264	0.0148177
898.342	0.0147747
898.420	0.0149091
898.498	0.0147651
898.576	0.0149481
898.655	0.0147611
898.733	0.0148627
898.811	0.0148554
898.889	0.0149779
898.967	0.0148904
899.045	0.0145800
899.123	0.0148843
899.201	0.0147575
899.280	0.0147218
899.358	0.0146970
899.436	0.0148031
899.514	0.0146786
899.592	0.0147152
899.670	0.0147572
899.748	0.0147383
899.826	0.0147073
899.905	0.0147279
899.983	0.0148400
900.061	0.0148038
900.139	0.0148418
900.217	0.0148299
900.295	0.0148387
900.373	0.0147321
900.451	0.0146909
900.530	0.0148161
900.608	0.0147071
900.686	0.0149059
900.764	0.0149274
900.842	0.0147787
900.920	0.0146954
900.998	0.0149427
901.076	0.0147879
901.155	0.0148160
901.233	0.0146554
901.311	0.0145982
901.389	0.0146996
901.467	0.0147492
901.545	0.0147363
901.623	0.0146456
901.701	0.0146722
901.780	0.0147559
901.858	0.0145811
901.936	0.0147153
902.014	0.0148735
902.092	0.0146858
902.170	0.0146839
902.248	0.0147953
902.326	0.0148251
902.405	0.0147825
902.483	0.0147471
902.561	0.0147433
902.639	0.0147394
902.717	0.0147984
902.795	0.0148022
902.873	0.0146644
902.951	0.0146819
903.030	0.0147263
903.108	0.0148367
903.186	0.0147346
903.264	0.0148299
903.342	0.0148360
903.420	0.0146647
903.498	0.0147871
903.576	0.0148847
903.655	0.0148400
903.733	0.0146843
903.811	0.0147619
903.889	0.0147779
903.967	0.0147578
904.045	0.0145978
904.123	0.0147141
904.201	0.0147652
904.280	0.0145312
904.358	0.0147073
904.436	0.0146748
904.514	0.0146059
904.592	0.0147507
904.670	0.0146249
904.748	0.0146289
904.826	0.0145985
904.905	0.0146032
904.983	0.0146570
905.061	0.0145391
905.139	0.0145705
905.217	0.0145370
905.295	0.0146227
905.373	0.0147207
905.451	0.0145335
905.530	0.0145123
905.608	0.0146902
905.686	0.0146433
905.764	0.0146886
905.842	0.0146730
905.920	0.0146674
905.998	0.0146143
906.076	0.0146809
906.155	0.0146504
906.233	0.0146599
906.311	0.0145643
906.389	0.0147456
906.467	0.0147052
906.545	0.0148322
906.623	0.0146416
906.701	0.0148004
906.780	0.0147499
906.858	0.0148101
906.936	0.0148482
907.014	0.0147530
907.092	0.0147597
907.170	0.0148211
907.248	0.0147485
907.326	0.0148703
907.405	0.0149757
907.483	0.0147056
907.561	0.0148974
907.639	0.0147637
907.717	0.0147970
907.795	0.0147531
907.873	0.0146634
907.951	0.0147817
908.030	0.0148193
908.108	0.0147128
908.186	0.0147804
908.264	0.0147740
908.342	0.0149233
908.420	0.0147717
908.498	0.0146561
908.576	0.0147188
908.655	0.0147502
908.733	0.0148125
908.811	0.0147934
908.889	0.0147693
908.967	0.0147399
909.045	0.0148076
909.123	0.0147498
909.201	0.0147922
909.280	0.0147962
909.358	0.0148500
909.436	0.0148045
909.514	0.0147643
909.592	0.0149273
909.670	0.0148376
909.748	0.0147884
909.826	0.0147880
909.905	0.0147156
909.983	0.0147874
910.061	0.0148083
910.139	0.0147188
910.217	0.0147516
910.295	0.0148219
910.373	0.0147446
910.451	0.0146877
910.530	0.0147356
910.608	0.0147485
910.686	0.0148228
910.764	0.0147960
910.842	0.0148159
910.920	0.0147923
910.998	0.0146926
911.076	0.0146424
911.155	0.0148031
911.233	0.0148014
911.311	0.0148054
911.389	0.0147372
911.467	0.0148544
911.545	0.0148287
911.623	0.0148495
911.701	0.0147451
911.780	0.0147396
911.858	0.0149146
911.936	0.0148401
912.014	0.0148132
912.092	0.0148638
912.170	0.0148817
912.248	0.0148882
912.326	0.0148429
912.405	0.0148748
912.483	0.0148993
912.561	0.0148216
912.639	0.0148112
912.717	0.0149490
912.795	0.0149381
912.873	0.0148931
912.951	0.0148903
913.030	0.0147686
913.108	0.0148827
913.186	0.0149707
913.264	0.0149263
913.342	0.0150523
913.420	0.0149783
913.498	0.0149284
913.576	0.0149157
913.655	0.0149027
913.733	0.0148092
913.811	0.0148980
913.889	0.0147684
913.967	0.0148649
914.045	0.0149067
914.123	0.0147790
914.201	0.0148003
914.280	0.0148406
914.358	0.0148550
914.436	0.0146690
914.514	0.0149072
914.592	0.0148139
914.670	0.0147167
914.748	0.0147879
914.826	0.0148898
914.905	0.0148471
914.983	0.0148255
915.061	0.0147478
915.139	0.0148666
915.217	0.0148611
915.295	0.0147798
915.373	0.0148750
915.451	0.0150747
915.530	0.0150259
915.608	0.0148641
915.686	0.0151194
915.764	0.0149865
915.842	0.0148779
915.920	0.0149931
915.998	0.0148665
916.076	0.0150380
916.155	0.0150031
916.233	0.0150102
916.311	0.0150402
916.389	0.0149431
916.467	0.0149965
916.545	0.0150864
916.623	0.0148261
916.701	0.0150585
916.780	0.0150436
916.858	0.0149440
916.936	0.0148933
917.014	0.0151274
917.092	0.0150423
917.170	0.0149204
917.248	0.0150838
917.326	0.0150261
917.405	0.0149551
917.483	0.0151582
917.561	0.0149701
917.639	0.0149141
917.717	0.0148801
917.795	0.0149245
917.873	0.0149801
917.951	0.0149746
918.030	0.0148065
918.108	0.0149327
918.186	0.0149651
918.264	0.0148875
918.342	0.0149242
918.420	0.0149931
918.498	0.0148601
918.576	0.0147124
918.655	0.0148277
918.733	0.0148868
918.811	0.0149002
918.889	0.0148952
918.967	0.0149812
919.045	0.0149042
919.123	0.0148054
919.201	0.0148891
919.280	0.0149269
919.358	0.0148027
919.436	0.0149516
919.514	0.0149519
919.592	0.0148230
919.670	0.0150009
919.748	0.0148467
919.826	0.0149706
919.905	0.0148901
919.983	0.0149878
920.061	0.0149562
920.139	0.0149744
920.217	0.0151118
920.295	0.0150829
920.373	0.0150562
920.451	0.0149971
920.530	0.0150280
920.608	0.0149664
920.686	0.0148906
920.764	0.0149728
920.842	0.0150149
920.920	0.0151011
920.998	0.0149921
921.076	0.0149692
921.155	0.0150099
921.233	0.0149323
921.311	0.0149377
921.389	0.0149892
921.467	0.0149074
921.545	0.0148526
921.623	0.0148460
921.701	0.0147883
921.780	0.0148991
921.858	0.0149958
921.936	0.0149276
922.014	0.0147903
922.092	0.0149950
922.170	0.0148194
922.248	0.0146965
922.326	0.0148355
922.405	0.0148795
922.483	0.0148204
922.561	0.0147309
922.639	0.0148311
922.717	0.0147717
922.795	0.0147382
922.873	0.0146323
922.951	0.0148110
923.030	0.0147535
923.108	0.0146827
923.186	0.0146616
923.264	0.0147668
923.342	0.0149144
923.420	0.0147684
923.498	0.0146742
923.576	0.0148994
923.655	0.0149326
923.733	0.0147234
923.811	0.0148276
923.889	0.0148424
923.967	0.0148367
924.045	0.0148167
924.123	0.0148483
924.201	0.0148404
924.280	0.0149368
924.358	0.0151195
924.436	0.0147242
924.514	0.0148006
924.592	0.0148651
924.670	0.0147324
924.748	0.0149973
924.826	0.0148280
924.905	0.0147653
924.983	0.0148268
925.061	0.0148739
925.139	0.0148166
925.217	0.0148454
925.295	0.0148548
925.373	0.0147352
925.451	0.0147918
925.530	0.0147454
925.608	0.0147894
925.686	0.0147873
925.764	0.0147841
925.842	0.0147133
925.920	0.0148724
925.998	0.0149929
926.076	0.0147061
926.155	0.0147323
926.233	0.0147536
926.311	0.0147969
926.389	0.0148745
926.467	0.0148420
926.545	0.0148534
926.623	0.0147469
926.701	0.0148328
926.780	0.0149663
926.858	0.0148301
926.936	0.0148341
927.014	0.0147833
927.092	0.0148447
927.170	0.0149017
927.248	0.0148006
927.326	0.0148264
927.405	0.0148296
927.483	0.0148834
927.561	0.0148723
927.639	0.0147591
927.717	0.0147317
927.795	0.0148244
927.873	0.0148391
927.951	0.0148092
928.030	0.0148699
928.108	0.0147772
928.186	0.0148506
928.264	0.0148322
928.342	0.0147615
928.420	0.0148476
928.498	0.0148276
928.576	0.0147957
928.655	0.0148658
928.733	0.0147987
928.811	0.0148584
928.889	0.0148034
928.967	0.0148844
929.045	0.0147699
929.123	0.0147761
929.201	0.0147534
929.280	0.0148617
929.358	0.0147953
929.436	0.0147964
929.514	0.0148547
929.592	0.0149585
929.670	0.0148196
929.748	0.0148567
929.826	0.0148431
929.905	0.0148301
929.983	0.0148225
930.061	0.0148833
930.139	0.0149357
930.217	0.0148417
930.295	0.0148555
930.373	0.0149423
930.451	0.0147008
930.530	0.0146670
930.608	0.0148388
930.686	0.0147951
930.764	0.0146973
930.842	0.0147210
930.920	0.0148181
930.998	0.0147160
931.076	0.0148248
931.155	0.0148698
931.233	0.0147709
931.311	0.0146597
931.389	0.0145874
931.467	0.0147163
931.545	0.0147556
931.623	0.0147765
931.701	0.0147266
931.780	0.0148048
931.858	0.0147678
931.936	0.0147435
932.014	0.0147011
932.092	0.0145586
932.170	0.0147813
932.248	0.0147460
932.326	0.0147567
932.405	0.0147884
932.483	0.0148273
932.561	0.0147214
932.639	0.0147066
932.717	0.0147203
932.795	0.0148172
932.873	0.0148225
932.951	0.0148582
933.030	0.0148235
933.108	0.0147314
933.186	0.0147348
933.264	0.0148035
933.342	0.0147388
933.420	0.0147633
933.498	0.0148717
933.576	0.0148019
933.655	0.0148038
933.733	0.0147152
933.811	0.0148714
933.889	0.0148827
933.967	0.0147511
934.045	0.0147868
934.123	0.0148409
934.201	0.0148041
934.280	0.0147428
934.358	0.0148395
934.436	0.0147431
934.514	0.0147874
934.592	0.0148229
934.670	0.0148027
934.748	0.0148464
934.826	0.0148139
934.905	0.0148267
934.983	0.0147969
935.061	0.0146758
935.139	0.0146762
935.217	0.0148419
935.295	0.0149249
935.373	0.0147694
935.451	0.0147102
935.530	0.0147240
935.608	0.0147572
935.686	0.0147056
935.764	0.0147385
935.842	0.0147845
935.920	0.0147993
935.998	0.0147069
936.076	0.0147276
936.155	0.0146720
936.233	0.0148597
936.311	0.0147378
936.389	0.0147194
936.467	0.0147499
936.545	0.0148574
936.623	0.0148003
936.701	0.0149212
936.780	0.0148265
936.858	0.0148473
936.936	0.0148256
937.014	0.0148906
937.092	0.0147764
937.170	0.0149109
937.248	0.0148593
937.326	0.0148428
937.405	0.0149328
937.483	0.0149456
937.561	0.0149554
937.639	0.0149082
937.717	0.0148500
937.795	0.0149955
937.873	0.0148044
937.951	0.0148980
938.030	0.0149678
938.108	0.0149447
938.186	0.0149860
938.264	0.0149306
938.342	0.0149464
938.420	0.0149428
938.498	0.0150539
938.576	0.0148235
938.655	0.0148988
938.733	0.0148592
938.811	0.0149155
938.889	0.0148627
938.967	0.0148885
939.045	0.0151467
939.123	0.0149332
939.201	0.0150287
939.280	0.0149087
939.358	0.0148990
939.436	0.0148759
939.514	0.0150214
939.592	0.0148965
939.670	0.0149285
939.748	0.0149702
939.826	0.0148110
939.905	0.0150567
939.983	0.0149340
940.061	0.0150874
940.139	0.0150230
940.217	0.0150928
940.295	0.0149431
940.373	0.0150241
940.451	0.0150970
940.530	0.0150379
940.608	0.0150372
940.686	0.0148306
940.764	0.0151320
940.842	0.0149600
940.920	0.0150085
940.998	0.0150684
941.076	0.0151083
941.155	0.0150765
941.233	0.0149402
941.311	0.0148968
941.389	0.0150140
941.467	0.0148965
941.545	0.0149486
941.623	0.0150484
941.701	0.0149312
941.780	0.0149895
941.858	0.0149332
941.936	0.0148374
942.014	0.0151144
942.092	0.0149693
942.170	0.0149503
942.248	0.0148168
942.326	0.0150025
942.405	0.0149194
942.483	0.0150035
942.561	0.0148613
942.639	0.0150269
942.717	0.0148975
942.795	0.0149892
942.873	0.0150783
942.951	0.0148557
943.030	0.0149274
943.108	0.0150814
943.186	0.0149660
943.264	0.0149778
943.342	0.0149557
943.420	0.0148368
943.498	0.0149989
943.576	0.0149696
943.655	0.0150485
943.733	0.0150177
943.811	0.0150063
943.889	0.0149577
943.967	0.0150277
944.045	0.0150804
944.123	0.0150977
944.201	0.0150414
944.280	0.0148383
944.358	0.0150031
944.436	0.0150074
944.514	0.0149203
944.592	0.0148907
944.670	0.0148959
944.748	0.0148035
944.826	0.0147504
944.905	0.0147114
944.983	0.0148993
945.061	0.0147407
945.139	0.0147838
945.217	0.0146835
945.295	0.0146741
945.373	0.0148235
945.451	0.0146891
945.530	0.0148178
945.608	0.0147366
945.686	0.0147765
945.764	0.0148585
945.842	0.0149288
945.920	0.0146851
945.998	0.0146375
946.076	0.0147530
946.155	0.0147264
946.233	0.0149260
946.311	0.0148824
946.389	0.0150582
946.467	0.0149436
946.545	0.0148233
946.623	0.0148207
946.701	0.0148214
946.780	0.0148875
946.858	0.0149883
946.936	0.0148258
947.014	0.0149048
947.092	0.0151031
947.170	0.0148789
947.248	0.0149052
947.326	0.0149564
947.405	0.0149151
947.483	0.0148026
947.561	0.0148772
947.639	0.0148592
947.717	0.0148421
947.795	0.0148064
947.873	0.0150146
947.951	0.0149541
948.030	0.0147842
948.108	0.0149011
948.186	0.0150375
948.264	0.0149316
948.342	0.0149227
948.420	0.0149454
948.498	0.0149144
948.576	0.0147464
948.655	0.0148380
948.733	0.0150394
948.811	0.0148373
948.889	0.0147669
948.967	0.0148361
949.045	0.0149603
949.123	0.0149804
949.201	0.0148268
949.280	0.0149284
949.358	0.0148955
949.436	0.0147874
949.514	0.0149781
949.592	0.0148551
949.670	0.0149129
949.748	0.0149434
949.826	0.0149609
949.905	0.0146864
949.983	0.0149252
950.061	0.0148264
950.139	0.0147855
950.217	0.0149042
950.295	0.0147939
950.373	0.0147090
950.451	0.0148875
950.530	0.0147977
950.608	0.0149701
950.686	0.0148267
950.764	0.0149240
950.842	0.0148121
950.920	0.0149615
950.998	0.0147719
951.076	0.0147275
951.155	0.0149150
951.233	0.0148360
951.311	0.0147771
951.389	0.0148543
951.467	0.0147576
951.545	0.0147816
951.623	0.0148646
951.701	0.0147716
951.780	0.0147431
951.858	0.0147454
951.936	0.0148651
952.014	0.0148715
952.092	0.0148129
952.170	0.0147894
952.248	0.0148635
952.326	0.0149251
952.405	0.0148109
952.483	0.0148399
952.561	0.0148932
952.639	0.0149989
952.717	0.0148374
952.795	0.0147144
952.873	0.0148115
952.951	0.0149129
953.030	0.0147501
953.108	0.0148602
953.186	0.0146885
953.264	0.0148625
953.342	0.0147482
953.420	0.0146568
953.498	0.0146905
953.576	0.0146815
953.655	0.0147818
953.733	0.0147911
953.811	0.0146863
953.889	0.0146621
953.967	0.0147746
954.045	0.0147100
954.123	0.0147223
954.201	0.0146557
954.280	0.0146430
954.358	0.0146834
954.436	0.0147572
954.514	0.0146964
954.592	0.0147106
954.670	0.0147060
954.748	0.0146062
954.826	0.0146411
954.905	0.0147224
954.983	0.0146212
955.061	0.0147548
955.139	0.0146528
955.217	0.0147089
955.295	0.0147713
955.373	0.0147050
955.451	0.0148598
955.530	0.0147440
955.608	0.0148112
955.686	0.0147348
955.764	0.0147595
955.842	0.0148388
955.920	0.0148540
955.998	0.0147807
956.076	0.0147672
956.155	0.0148855
956.233	0.0150642
956.311	0.0150471
956.389	0.0149941
956.467	0.0149799
956.545	0.0149323
956.623	0.0147520
956.701	0.0148622
956.780	0.0149648
956.858	0.0149324
956.936	0.0147316
957.014	0.0147929
957.092	0.0148547
957.170	0.0145783
957.248	0.0147848
957.326	0.0147534
957.405	0.0148116
957.483	0.0146306
957.561	0.0145868
957.639	0.0146720
957.717	0.0147656
957.795	0.0147482
957.873	0.0146938
957.951	0.0146104
958.030	0.0146794
958.108	0.0147890
958.186	0.0146628
958.264	0.0146613
958.342	0.0146753
958.420	0.0146355
958.498	0.0146555
958.576	0.0145787
958.655	0.0146241
958.733	0.0145350
958.811	0.0147392
958.889	0.0146928
958.967	0.0146586
959.045	0.0144529
959.123	0.0146323
959.201	0.0146207
959.280	0.0145766
959.358	0.0145563
959.436	0.0146890
959.514	0.0146989
959.592	0.0147054
959.670	0.0146818
959.748	0.0146321
959.826	0.0147421
959.905	0.0145708
