05/20/2022	16:49:23	Ver.	4.1	UNKNOWN
Optical Delay	639.982744	Delta X		0.078125	Sweeps	1	Scan Rate	0/0
Coordinates	Axis 1	NaN	Axis 2	NaN	Axis 3	NaN	Axis 4	NaN	Axis 5	NaN	Axis 6	0.000000
TX Power	0.000000	RX Power	0.000000

639.983	0.0147369
640.061	0.0148721
640.139	0.0150114
640.217	0.0151123
640.295	0.0149509
640.373	0.0149303
640.451	0.0150266
640.530	0.0151016
640.608	0.0150323
640.686	0.0151286
640.764	0.0151149
640.842	0.0149987
640.920	0.0150738
640.998	0.0150713
641.076	0.0151159
641.155	0.0150730
641.233	0.0150887
641.311	0.0150828
641.389	0.0151377
641.467	0.0151522
641.545	0.0151590
641.623	0.0151752
641.701	0.0151703
641.780	0.0149924
641.858	0.0150951
641.936	0.0151378
642.014	0.0151117
642.092	0.0151688
642.170	0.0151087
642.248	0.0151184
642.326	0.0150927
642.405	0.0151011
642.483	0.0151425
642.561	0.0149126
642.639	0.0150391
642.717	0.0151067
642.795	0.0149194
642.873	0.0149422
642.951	0.0148203
643.030	0.0147370
643.108	0.0148094
643.186	0.0147649
643.264	0.0148239
643.342	0.0147576
643.420	0.0147518
643.498	0.0145147
643.576	0.0145924
643.655	0.0145901
643.733	0.0144875
643.811	0.0146357
643.889	0.0146247
643.967	0.0145689
644.045	0.0146044
644.123	0.0146691
644.201	0.0145473
644.280	0.0145566
644.358	0.0145334
644.436	0.0146350
644.514	0.0146434
644.592	0.0144532
644.670	0.0144458
644.748	0.0144811
644.826	0.0145284
644.905	0.0146682
644.983	0.0145644
645.061	0.0144258
645.139	0.0145953
645.217	0.0143510
645.295	0.0146758
645.373	0.0145925
645.451	0.0144933
645.530	0.0144825
645.608	0.0145507
645.686	0.0143906
645.764	0.0145277
645.842	0.0146024
645.920	0.0145033
645.998	0.0145271
646.076	0.0143987
646.155	0.0145300
646.233	0.0146297
646.311	0.0144410
646.389	0.0145888
646.467	0.0146759
646.545	0.0145592
646.623	0.0145164
646.701	0.0145547
646.780	0.0146364
646.858	0.0145155
646.936	0.0146546
647.014	0.0146087
647.092	0.0145170
647.170	0.0147424
647.248	0.0147396
647.326	0.0148709
647.405	0.0148039
647.483	0.0147204
647.561	0.0147687
647.639	0.0148908
647.717	0.0148344
647.795	0.0146587
647.873	0.0146972
647.951	0.0148106
648.030	0.0148026
648.108	0.0147679
648.186	0.0148239
648.264	0.0147057
648.342	0.0147534
648.420	0.0147768
648.498	0.0146013
648.576	0.0146149
648.655	0.0147743
648.733	0.0148116
648.811	0.0146416
648.889	0.0147067
648.967	0.0146486
649.045	0.0147068
649.123	0.0145798
649.201	0.0146670
649.280	0.0146487
649.358	0.0145806
649.436	0.0145798
649.514	0.0146608
649.592	0.0145478
649.670	0.0144958
649.748	0.0146474
649.826	0.0146780
649.905	0.0143235
649.983	0.0144768
650.061	0.0146068
650.139	0.0146707
650.217	0.0145900
650.295	0.0145984
650.373	0.0145522
650.451	0.0145860
650.530	0.0145961
650.608	0.0147191
650.686	0.0144991
650.764	0.0145573
650.842	0.0147000
650.920	0.0146951
650.998	0.0146286
651.076	0.0146664
651.155	0.0145767
651.233	0.0145426
651.311	0.0147681
651.389	0.0147103
651.467	0.0146755
651.545	0.0145821
651.623	0.0147649
651.701	0.0147060
651.780	0.0146296
651.858	0.0148374
651.936	0.0148295
652.014	0.0146529
652.092	0.0145847
652.170	0.0147401
652.248	0.0146687
652.326	0.0147446
652.405	0.0147830
652.483	0.0148093
652.561	0.0147727
652.639	0.0146844
652.717	0.0146859
652.795	0.0147001
652.873	0.0146817
652.951	0.0148476
653.030	0.0148782
653.108	0.0147208
653.186	0.0147129
653.264	0.0149036
653.342	0.0148125
653.420	0.0146360
653.498	0.0147959
653.576	0.0147462
653.655	0.0147350
653.733	0.0149033
653.811	0.0147437
653.889	0.0146337
653.967	0.0146289
654.045	0.0146704
654.123	0.0146326
654.201	0.0146745
654.280	0.0146252
654.358	0.0146632
654.436	0.0145989
654.514	0.0145858
654.592	0.0146973
654.670	0.0146815
654.748	0.0145277
654.826	0.0144955
654.905	0.0146449
654.983	0.0147234
655.061	0.0146722
655.139	0.0146169
655.217	0.0145994
655.295	0.0146091
655.373	0.0146330
655.451	0.0147165
655.530	0.0147487
655.608	0.0147025
655.686	0.0147312
655.764	0.0147490
655.842	0.0147443
655.920	0.0147203
655.998	0.0148000
656.076	0.0145875
656.155	0.0148139
656.233	0.0148078
656.311	0.0147581
656.389	0.0147598
656.467	0.0146824
656.545	0.0147227
656.623	0.0148345
656.701	0.0146786
656.780	0.0148342
656.858	0.0148056
656.936	0.0147425
657.014	0.0147187
657.092	0.0147401
657.170	0.0147714
657.248	0.0146890
657.326	0.0146162
657.405	0.0146515
657.483	0.0146201
657.561	0.0147919
657.639	0.0145530
657.717	0.0145123
657.795	0.0146529
657.873	0.0147675
657.951	0.0146027
658.030	0.0146687
658.108	0.0147956
658.186	0.0146989
658.264	0.0146487
658.342	0.0145565
658.420	0.0146970
658.498	0.0148254
658.576	0.0146523
658.655	0.0147109
658.733	0.0147560
658.811	0.0146687
658.889	0.0148110
658.967	0.0148481
659.045	0.0148171
659.123	0.0148319
659.201	0.0147816
659.280	0.0149012
659.358	0.0147629
659.436	0.0147437
659.514	0.0149285
659.592	0.0149497
659.670	0.0148057
659.748	0.0146571
659.826	0.0148736
659.905	0.0148957
659.983	0.0148386
660.061	0.0148732
660.139	0.0148193
660.217	0.0148821
660.295	0.0147787
660.373	0.0148545
660.451	0.0149545
660.530	0.0148370
660.608	0.0149449
660.686	0.0149500
660.764	0.0148821
660.842	0.0150120
660.920	0.0149783
660.998	0.0148603
661.076	0.0150686
661.155	0.0149301
661.233	0.0149467
661.311	0.0149665
661.389	0.0149237
661.467	0.0149133
661.545	0.0149480
661.623	0.0149651
661.701	0.0148302
661.780	0.0147279
661.858	0.0148148
661.936	0.0147839
662.014	0.0148606
662.092	0.0148322
662.170	0.0147651
662.248	0.0147292
662.326	0.0148393
662.405	0.0148427
662.483	0.0148969
662.561	0.0149215
662.639	0.0149063
662.717	0.0148780
662.795	0.0149242
662.873	0.0148721
662.951	0.0148717
663.030	0.0148854
663.108	0.0148231
663.186	0.0149380
663.264	0.0148958
663.342	0.0149020
663.420	0.0149483
663.498	0.0149067
663.576	0.0148744
663.655	0.0149529
663.733	0.0149660
663.811	0.0149341
663.889	0.0150129
663.967	0.0150809
664.045	0.0150928
664.123	0.0151003
664.201	0.0151405
664.280	0.0151369
664.358	0.0150053
664.436	0.0151245
664.514	0.0150579
664.592	0.0150027
664.670	0.0150835
664.748	0.0150848
664.826	0.0149192
664.905	0.0150800
664.983	0.0151265
665.061	0.0150155
665.139	0.0150132
665.217	0.0150634
665.295	0.0147981
665.373	0.0149027
665.451	0.0148440
665.530	0.0147561
665.608	0.0146683
665.686	0.0145749
665.764	0.0146893
665.842	0.0145929
665.920	0.0144025
665.998	0.0145468
666.076	0.0145140
666.155	0.0144693
666.233	0.0143154
666.311	0.0141195
666.389	0.0142214
666.467	0.0141902
666.545	0.0142554
666.623	0.0141044
666.701	0.0141962
666.780	0.0142153
666.858	0.0142035
666.936	0.0141234
667.014	0.0140623
667.092	0.0144156
667.170	0.0142969
667.248	0.0142582
667.326	0.0144235
667.405	0.0145594
667.483	0.0144758
667.561	0.0145582
667.639	0.0145589
667.717	0.0147461
667.795	0.0148531
667.873	0.0149617
667.951	0.0150629
668.030	0.0150991
668.108	0.0151116
668.186	0.0150404
668.264	0.0152814
668.342	0.0153410
668.420	0.0153674
668.498	0.0153638
668.576	0.0154082
668.655	0.0153394
668.733	0.0155230
668.811	0.0154811
668.889	0.0155410
668.967	0.0156031
669.045	0.0155329
669.123	0.0154614
669.201	0.0153540
669.280	0.0154583
669.358	0.0153810
669.436	0.0152634
669.514	0.0151254
669.592	0.0151362
669.670	0.0149093
669.748	0.0147871
669.826	0.0147308
669.905	0.0145512
669.983	0.0143437
670.061	0.0141206
670.139	0.0138319
670.217	0.0138854
670.295	0.0138311
670.373	0.0137199
670.451	0.0136150
670.530	0.0135265
670.608	0.0135982
670.686	0.0136115
670.764	0.0136969
670.842	0.0137647
670.920	0.0139114
670.998	0.0139525
671.076	0.0141990
671.155	0.0141126
671.233	0.0142439
671.311	0.0144312
671.389	0.0144308
671.467	0.0146412
671.545	0.0148233
671.623	0.0148552
671.701	0.0150367
671.780	0.0151275
671.858	0.0152821
671.936	0.0153462
672.014	0.0156541
672.092	0.0156941
672.170	0.0156347
672.248	0.0157607
672.326	0.0158028
672.405	0.0159622
672.483	0.0161883
672.561	0.0160122
672.639	0.0160049
672.717	0.0159028
672.795	0.0159673
672.873	0.0158463
672.951	0.0157222
673.030	0.0156701
673.108	0.0155821
673.186	0.0153838
673.264	0.0152831
673.342	0.0151016
673.420	0.0149703
673.498	0.0148296
673.576	0.0146290
673.655	0.0144149
673.733	0.0143546
673.811	0.0142214
673.889	0.0139236
673.967	0.0139342
674.045	0.0139196
674.123	0.0136821
674.201	0.0136598
674.280	0.0136540
674.358	0.0137678
674.436	0.0135531
674.514	0.0135825
674.592	0.0136393
674.670	0.0135787
674.748	0.0136734
674.826	0.0138165
674.905	0.0138409
674.983	0.0140437
675.061	0.0140368
675.139	0.0143077
675.217	0.0144469
675.295	0.0145610
675.373	0.0145571
675.451	0.0148320
675.530	0.0150035
675.608	0.0151562
675.686	0.0154018
675.764	0.0154223
675.842	0.0154626
675.920	0.0157057
675.998	0.0156380
676.076	0.0155640
676.155	0.0158003
676.233	0.0158253
676.311	0.0158324
676.389	0.0159179
676.467	0.0156128
676.545	0.0157578
676.623	0.0158276
676.701	0.0155077
676.780	0.0153715
676.858	0.0153351
676.936	0.0152805
677.014	0.0150043
677.092	0.0149835
677.170	0.0148100
677.248	0.0147479
677.326	0.0147258
677.405	0.0146220
677.483	0.0144343
677.561	0.0143929
677.639	0.0142979
677.717	0.0141269
677.795	0.0141364
677.873	0.0141814
677.951	0.0140983
678.030	0.0140253
678.108	0.0142037
678.186	0.0140917
678.264	0.0138847
678.342	0.0140480
678.420	0.0141611
678.498	0.0141724
678.576	0.0141416
678.655	0.0141337
678.733	0.0141013
678.811	0.0141600
678.889	0.0143804
678.967	0.0142797
679.045	0.0142553
679.123	0.0143671
679.201	0.0145582
679.280	0.0144930
679.358	0.0145774
679.436	0.0145750
679.514	0.0146460
679.592	0.0145474
679.670	0.0147152
679.748	0.0147910
679.826	0.0146954
679.905	0.0146049
679.983	0.0147735
680.061	0.0144566
680.139	0.0145702
680.217	0.0147071
680.295	0.0147411
680.373	0.0146970
680.451	0.0148537
680.530	0.0148101
680.608	0.0149827
680.686	0.0149954
680.764	0.0148927
680.842	0.0150631
680.920	0.0153045
680.998	0.0152703
681.076	0.0153113
681.155	0.0153177
681.233	0.0154022
681.311	0.0153680
681.389	0.0152713
681.467	0.0151819
681.545	0.0151324
681.623	0.0151862
681.701	0.0152862
681.780	0.0151167
681.858	0.0150169
681.936	0.0149242
682.014	0.0150431
682.092	0.0150014
682.170	0.0148994
682.248	0.0149184
682.326	0.0146146
682.405	0.0147824
682.483	0.0146036
682.561	0.0146538
682.639	0.0145377
682.717	0.0145798
682.795	0.0144563
682.873	0.0145118
682.951	0.0144781
683.030	0.0143258
683.108	0.0144834
683.186	0.0144695
683.264	0.0145836
683.342	0.0145458
683.420	0.0145703
683.498	0.0146199
683.576	0.0146812
683.655	0.0147072
683.733	0.0147944
683.811	0.0146512
683.889	0.0145268
683.967	0.0146887
684.045	0.0147346
684.123	0.0145372
684.201	0.0146408
684.280	0.0145313
684.358	0.0146696
684.436	0.0146940
684.514	0.0145796
684.592	0.0147214
684.670	0.0145167
684.748	0.0145490
684.826	0.0145331
684.905	0.0144557
684.983	0.0145429
685.061	0.0145374
685.139	0.0144792
685.217	0.0142725
685.295	0.0143240
685.373	0.0142272
685.451	0.0141034
685.530	0.0143000
685.608	0.0144422
685.686	0.0143410
685.764	0.0142872
685.842	0.0144221
685.920	0.0146040
685.998	0.0146413
686.076	0.0147511
686.155	0.0148463
686.233	0.0148940
686.311	0.0151387
686.389	0.0151270
686.467	0.0152379
686.545	0.0155700
686.623	0.0154460
686.701	0.0155923
686.780	0.0156063
686.858	0.0156103
686.936	0.0155803
687.014	0.0156649
687.092	0.0154483
687.170	0.0155346
687.248	0.0152486
687.326	0.0152415
687.405	0.0151649
687.483	0.0151069
687.561	0.0148258
687.639	0.0146903
687.717	0.0146209
687.795	0.0144796
687.873	0.0143116
687.951	0.0141840
688.030	0.0139500
688.108	0.0139525
688.186	0.0138103
688.264	0.0135990
688.342	0.0135961
688.420	0.0134834
688.498	0.0136391
688.576	0.0136476
688.655	0.0135021
688.733	0.0135597
688.811	0.0135310
688.889	0.0138200
688.967	0.0138105
689.045	0.0140020
689.123	0.0140840
689.201	0.0141879
689.280	0.0144187
689.358	0.0145606
689.436	0.0146701
689.514	0.0149079
689.592	0.0151108
689.670	0.0153986
689.748	0.0155171
689.826	0.0156523
689.905	0.0157112
689.983	0.0157780
690.061	0.0158936
690.139	0.0159988
690.217	0.0159235
690.295	0.0158900
690.373	0.0158883
690.451	0.0156879
690.530	0.0156158
690.608	0.0154649
690.686	0.0153865
690.764	0.0151693
690.842	0.0148776
690.920	0.0149067
690.998	0.0147700
691.076	0.0145959
691.155	0.0144854
691.233	0.0145531
691.311	0.0143852
691.389	0.0143816
691.467	0.0141582
691.545	0.0140371
691.623	0.0139818
691.701	0.0139727
691.780	0.0139066
691.858	0.0138776
691.936	0.0138223
692.014	0.0140340
692.092	0.0140786
692.170	0.0140110
692.248	0.0142124
692.326	0.0143204
692.405	0.0144828
692.483	0.0145469
692.561	0.0146519
692.639	0.0147898
692.717	0.0149935
692.795	0.0149565
692.873	0.0150330
692.951	0.0152382
693.030	0.0151885
693.108	0.0153103
693.186	0.0153118
693.264	0.0151960
693.342	0.0153040
693.420	0.0154250
693.498	0.0153458
693.576	0.0153082
693.655	0.0153265
693.733	0.0153015
693.811	0.0155460
693.889	0.0154814
693.967	0.0154556
694.045	0.0153967
694.123	0.0153494
694.201	0.0154025
694.280	0.0153926
694.358	0.0154125
694.436	0.0152345
694.514	0.0151623
694.592	0.0151315
694.670	0.0149721
694.748	0.0148412
694.826	0.0147424
694.905	0.0146895
694.983	0.0147599
695.061	0.0147250
695.139	0.0146219
695.217	0.0147578
695.295	0.0147397
695.373	0.0147585
695.451	0.0147354
695.530	0.0147536
695.608	0.0146548
695.686	0.0147381
695.764	0.0147527
695.842	0.0147063
695.920	0.0147368
695.998	0.0146582
696.076	0.0146453
696.155	0.0145498
696.233	0.0145070
696.311	0.0142732
696.389	0.0142982
696.467	0.0143008
696.545	0.0143718
696.623	0.0142313
696.701	0.0143440
696.780	0.0143951
696.858	0.0142394
696.936	0.0143500
697.014	0.0143882
697.092	0.0143214
697.170	0.0143180
697.248	0.0144853
697.326	0.0146919
697.405	0.0146360
697.483	0.0145692
697.561	0.0146886
697.639	0.0148383
697.717	0.0149057
697.795	0.0148763
697.873	0.0152116
697.951	0.0152761
698.030	0.0153350
698.108	0.0154638
698.186	0.0155824
698.264	0.0157048
698.342	0.0157410
698.420	0.0158182
698.498	0.0158010
698.576	0.0157224
698.655	0.0156219
698.733	0.0156889
698.811	0.0156818
698.889	0.0156247
698.967	0.0155643
699.045	0.0154350
699.123	0.0153042
699.201	0.0153104
699.280	0.0151888
699.358	0.0149930
699.436	0.0148135
699.514	0.0146843
699.592	0.0147937
699.670	0.0147289
699.748	0.0145830
699.826	0.0144710
699.905	0.0141271
699.983	0.0141158
700.061	0.0140433
700.139	0.0140694
700.217	0.0140410
700.295	0.0138961
700.373	0.0137558
700.451	0.0135976
700.530	0.0136395
700.608	0.0138203
700.686	0.0138126
700.764	0.0138138
700.842	0.0139102
700.920	0.0136636
700.998	0.0138802
701.076	0.0139996
701.155	0.0140689
701.233	0.0139783
701.311	0.0141096
701.389	0.0142703
701.467	0.0142204
701.545	0.0142773
701.623	0.0145160
701.701	0.0146013
701.780	0.0146661
701.858	0.0146400
701.936	0.0145757
702.014	0.0148161
702.092	0.0149565
702.170	0.0150127
702.248	0.0151856
702.326	0.0151274
702.405	0.0152489
702.483	0.0153413
702.561	0.0154701
702.639	0.0156046
702.717	0.0155991
702.795	0.0156284
702.873	0.0156853
702.951	0.0158066
703.030	0.0157777
703.108	0.0156421
703.186	0.0158345
703.264	0.0157825
703.342	0.0157187
703.420	0.0158335
703.498	0.0159248
703.576	0.0156590
703.655	0.0155677
703.733	0.0155325
703.811	0.0154615
703.889	0.0154825
703.967	0.0152742
704.045	0.0151103
704.123	0.0149886
704.201	0.0148468
704.280	0.0147633
704.358	0.0146873
704.436	0.0143396
704.514	0.0141219
704.592	0.0140776
704.670	0.0140424
704.748	0.0139845
704.826	0.0137651
704.905	0.0136370
704.983	0.0136107
705.061	0.0134779
705.139	0.0133683
705.217	0.0134576
705.295	0.0134387
705.373	0.0133365
705.451	0.0132875
705.530	0.0134192
705.608	0.0134261
705.686	0.0133758
705.764	0.0134106
705.842	0.0136617
705.920	0.0137729
705.998	0.0139510
706.076	0.0140051
706.155	0.0141430
706.233	0.0143358
706.311	0.0144424
706.389	0.0146242
706.467	0.0146498
706.545	0.0148478
706.623	0.0149161
706.701	0.0149670
706.780	0.0149638
706.858	0.0148996
706.936	0.0152097
707.014	0.0152686
707.092	0.0151279
707.170	0.0153056
707.248	0.0152766
707.326	0.0154884
707.405	0.0156590
707.483	0.0156862
707.561	0.0155865
707.639	0.0157600
707.717	0.0157969
707.795	0.0158540
707.873	0.0157973
707.951	0.0157059
708.030	0.0158849
708.108	0.0158250
708.186	0.0157653
708.264	0.0157526
708.342	0.0157040
708.420	0.0155616
708.498	0.0154041
708.576	0.0154329
708.655	0.0152022
708.733	0.0149112
708.811	0.0148707
708.889	0.0148092
708.967	0.0147125
709.045	0.0144917
709.123	0.0144207
709.201	0.0141427
709.280	0.0140018
709.358	0.0139809
709.436	0.0138393
709.514	0.0137170
709.592	0.0135093
709.670	0.0133042
709.748	0.0132824
709.826	0.0132246
709.905	0.0131458
709.983	0.0130052
710.061	0.0129390
710.139	0.0129890
710.217	0.0131133
710.295	0.0132254
710.373	0.0134026
710.451	0.0133233
710.530	0.0136710
710.608	0.0137714
710.686	0.0137724
710.764	0.0140992
710.842	0.0143871
710.920	0.0144986
710.998	0.0146434
711.076	0.0148566
711.155	0.0149615
711.233	0.0151069
711.311	0.0151990
711.389	0.0152799
711.467	0.0154017
711.545	0.0153708
711.623	0.0152602
711.701	0.0154591
711.780	0.0156013
711.858	0.0153244
711.936	0.0153674
712.014	0.0154462
712.092	0.0153264
712.170	0.0153066
712.248	0.0152855
712.326	0.0150571
712.405	0.0149172
712.483	0.0148077
712.561	0.0146709
712.639	0.0146815
712.717	0.0145826
712.795	0.0144805
712.873	0.0143221
712.951	0.0142277
713.030	0.0141726
713.108	0.0140864
713.186	0.0140097
713.264	0.0138978
713.342	0.0138271
713.420	0.0138896
713.498	0.0139249
713.576	0.0139360
713.655	0.0138982
713.733	0.0140212
713.811	0.0140250
713.889	0.0142061
713.967	0.0143056
714.045	0.0143009
714.123	0.0143713
714.201	0.0145383
714.280	0.0146140
714.358	0.0147240
714.436	0.0147379
714.514	0.0147007
714.592	0.0147025
714.670	0.0146957
714.748	0.0149033
714.826	0.0148032
714.905	0.0148665
714.983	0.0149041
715.061	0.0148328
715.139	0.0149771
715.217	0.0150339
715.295	0.0149059
715.373	0.0150311
715.451	0.0152045
715.530	0.0151012
715.608	0.0152274
715.686	0.0151926
715.764	0.0152485
715.842	0.0152779
715.920	0.0153816
715.998	0.0154714
716.076	0.0154311
716.155	0.0153909
716.233	0.0153944
716.311	0.0154755
716.389	0.0154947
716.467	0.0154342
716.545	0.0155015
716.623	0.0154360
716.701	0.0154625
716.780	0.0155000
716.858	0.0155821
716.936	0.0154695
717.014	0.0153896
717.092	0.0154765
717.170	0.0151995
717.248	0.0151172
717.326	0.0150312
717.405	0.0151666
717.483	0.0148687
717.561	0.0148039
717.639	0.0147655
717.717	0.0147344
717.795	0.0146290
717.873	0.0144077
717.951	0.0143440
718.030	0.0144285
718.108	0.0143396
718.186	0.0142895
718.264	0.0143127
718.342	0.0142510
718.420	0.0142066
718.498	0.0142746
718.576	0.0141161
718.655	0.0142535
718.733	0.0143375
718.811	0.0142790
718.889	0.0142909
718.967	0.0144846
719.045	0.0144398
719.123	0.0145609
719.201	0.0146195
719.280	0.0145651
719.358	0.0149333
719.436	0.0149848
719.514	0.0150116
719.592	0.0149953
719.670	0.0150791
719.748	0.0151112
719.826	0.0151783
719.905	0.0150556
719.983	0.0151543
720.061	0.0149991
720.139	0.0150936
720.217	0.0150758
720.295	0.0150738
720.373	0.0151199
720.451	0.0151257
720.530	0.0151480
720.608	0.0151955
720.686	0.0150604
720.764	0.0151769
720.842	0.0151913
720.920	0.0150154
720.998	0.0150278
721.076	0.0149980
721.155	0.0150375
721.233	0.0148797
721.311	0.0148911
721.389	0.0146986
721.467	0.0146118
721.545	0.0145333
721.623	0.0146307
721.701	0.0146534
721.780	0.0147969
721.858	0.0145684
721.936	0.0147975
722.014	0.0148322
722.092	0.0148978
722.170	0.0149980
722.248	0.0150677
722.326	0.0150384
722.405	0.0152145
722.483	0.0151902
722.561	0.0152358
722.639	0.0150364
722.717	0.0151387
722.795	0.0153371
722.873	0.0151772
722.951	0.0152020
723.030	0.0151476
723.108	0.0153035
723.186	0.0150871
723.264	0.0149813
723.342	0.0150727
723.420	0.0150961
723.498	0.0150468
723.576	0.0148048
723.655	0.0147227
723.733	0.0146349
723.811	0.0145264
723.889	0.0142918
723.967	0.0143122
724.045	0.0141885
724.123	0.0138750
724.201	0.0136804
724.280	0.0136353
724.358	0.0134267
724.436	0.0133736
724.514	0.0133105
724.592	0.0133578
724.670	0.0133453
724.748	0.0133602
724.826	0.0134078
724.905	0.0136140
724.983	0.0137933
725.061	0.0139051
725.139	0.0140603
725.217	0.0143140
725.295	0.0145363
725.373	0.0145245
725.451	0.0146606
725.530	0.0148557
725.608	0.0150609
725.686	0.0151905
725.764	0.0153616
725.842	0.0154723
725.920	0.0155742
725.998	0.0155541
726.076	0.0157490
726.155	0.0159061
726.233	0.0156754
726.311	0.0157304
726.389	0.0156805
726.467	0.0158035
726.545	0.0157848
726.623	0.0156393
726.701	0.0154486
726.780	0.0155357
726.858	0.0154481
726.936	0.0153946
727.014	0.0151389
727.092	0.0150235
727.170	0.0150366
727.248	0.0149725
727.326	0.0148070
727.405	0.0144914
727.483	0.0145743
727.561	0.0144669
727.639	0.0143939
727.717	0.0142367
727.795	0.0143275
727.873	0.0142757
727.951	0.0142445
728.030	0.0141676
728.108	0.0143917
728.186	0.0141013
728.264	0.0140897
728.342	0.0142649
728.420	0.0143223
728.498	0.0143310
728.576	0.0142276
728.655	0.0142730
728.733	0.0143621
728.811	0.0142468
728.889	0.0141966
728.967	0.0142632
729.045	0.0144152
729.123	0.0143473
729.201	0.0143282
729.280	0.0143133
729.358	0.0144831
729.436	0.0145490
729.514	0.0145181
729.592	0.0146364
729.670	0.0146803
729.748	0.0147012
729.826	0.0147485
729.905	0.0148146
729.983	0.0148354
730.061	0.0148727
730.139	0.0148951
730.217	0.0148453
730.295	0.0147616
730.373	0.0146722
730.451	0.0146999
730.530	0.0146967
730.608	0.0145820
730.686	0.0147231
730.764	0.0145525
730.842	0.0145805
730.920	0.0146333
730.998	0.0145580
731.076	0.0145816
731.155	0.0145459
731.233	0.0146950
731.311	0.0144154
731.389	0.0145365
731.467	0.0145408
731.545	0.0146296
731.623	0.0145501
731.701	0.0145988
731.780	0.0144796
731.858	0.0144738
731.936	0.0144651
732.014	0.0143708
732.092	0.0142886
732.170	0.0142545
732.248	0.0143191
732.326	0.0144032
732.405	0.0142922
732.483	0.0142806
732.561	0.0142794
732.639	0.0142231
732.717	0.0141912
732.795	0.0141756
732.873	0.0141556
732.951	0.0142173
733.030	0.0144460
733.108	0.0142670
733.186	0.0142300
733.264	0.0141808
733.342	0.0140979
733.420	0.0141632
733.498	0.0142529
733.576	0.0144167
733.655	0.0142709
733.733	0.0143418
733.811	0.0144561
733.889	0.0144457
733.967	0.0145075
734.045	0.0145781
734.123	0.0146694
734.201	0.0147259
734.280	0.0148378
734.358	0.0148975
734.436	0.0149090
734.514	0.0149066
734.592	0.0150150
734.670	0.0151243
734.748	0.0152528
734.826	0.0152123
734.905	0.0153294
734.983	0.0153909
735.061	0.0155836
735.139	0.0155557
735.217	0.0154280
735.295	0.0154692
735.373	0.0155010
735.451	0.0153983
735.530	0.0153492
735.608	0.0152144
735.686	0.0154319
735.764	0.0152715
735.842	0.0151382
735.920	0.0149622
735.998	0.0149753
736.076	0.0148349
736.155	0.0148257
736.233	0.0146780
736.311	0.0147399
736.389	0.0146680
736.467	0.0146158
736.545	0.0144833
736.623	0.0142608
736.701	0.0142803
736.780	0.0142218
736.858	0.0142017
736.936	0.0142063
737.014	0.0142447
737.092	0.0141064
737.170	0.0141124
737.248	0.0141622
737.326	0.0141857
737.405	0.0142376
737.483	0.0140749
737.561	0.0142085
737.639	0.0143889
737.717	0.0144685
737.795	0.0145686
737.873	0.0145615
737.951	0.0146762
738.030	0.0149258
738.108	0.0149078
738.186	0.0150245
738.264	0.0149835
738.342	0.0150777
738.420	0.0150375
738.498	0.0150715
738.576	0.0150157
738.655	0.0151123
738.733	0.0151093
738.811	0.0150322
738.889	0.0150485
738.967	0.0148640
739.045	0.0148975
739.123	0.0149620
739.201	0.0148319
739.280	0.0147720
739.358	0.0148829
739.436	0.0149470
739.514	0.0148666
739.592	0.0147477
739.670	0.0147423
739.748	0.0147732
739.826	0.0146887
739.905	0.0148402
739.983	0.0147920
740.061	0.0147688
740.139	0.0148026
740.217	0.0148277
740.295	0.0145632
740.373	0.0146671
740.451	0.0147479
740.530	0.0145523
740.608	0.0146766
740.686	0.0144881
740.764	0.0146671
740.842	0.0145514
740.920	0.0146478
740.998	0.0146640
741.076	0.0147187
741.155	0.0146809
741.233	0.0147151
741.311	0.0145878
741.389	0.0148596
741.467	0.0149906
741.545	0.0148299
741.623	0.0148299
741.701	0.0148285
741.780	0.0148656
741.858	0.0148392
741.936	0.0148377
742.014	0.0148780
742.092	0.0148578
742.170	0.0148819
742.248	0.0148646
742.326	0.0149757
742.405	0.0148589
742.483	0.0149534
742.561	0.0148243
742.639	0.0148406
742.717	0.0147913
742.795	0.0147172
742.873	0.0146908
742.951	0.0147491
743.030	0.0146861
743.108	0.0145100
743.186	0.0144883
743.264	0.0145466
743.342	0.0145967
743.420	0.0143764
743.498	0.0144786
743.576	0.0144634
743.655	0.0144027
743.733	0.0146162
743.811	0.0145390
743.889	0.0146292
743.967	0.0146169
744.045	0.0147462
744.123	0.0147700
744.201	0.0148160
744.280	0.0147602
744.358	0.0150005
744.436	0.0149942
744.514	0.0149476
744.592	0.0150475
744.670	0.0151257
744.748	0.0150887
744.826	0.0150591
744.905	0.0150166
744.983	0.0150962
745.061	0.0151413
745.139	0.0150230
745.217	0.0150806
745.295	0.0151266
745.373	0.0151101
745.451	0.0149924
745.530	0.0151661
745.608	0.0149915
745.686	0.0149620
745.764	0.0148402
745.842	0.0148106
745.920	0.0145492
745.998	0.0146494
746.076	0.0145571
746.155	0.0143148
746.233	0.0142655
746.311	0.0142860
746.389	0.0141302
746.467	0.0141089
746.545	0.0142122
746.623	0.0140848
746.701	0.0139781
746.780	0.0142969
746.858	0.0141383
746.936	0.0140517
747.014	0.0142705
747.092	0.0141815
747.170	0.0142316
747.248	0.0142730
747.326	0.0141599
747.405	0.0143830
747.483	0.0142963
747.561	0.0143542
747.639	0.0142834
747.717	0.0144072
747.795	0.0145071
747.873	0.0144833
747.951	0.0144929
748.030	0.0144680
748.108	0.0146210
748.186	0.0147313
748.264	0.0146016
748.342	0.0146633
748.420	0.0146845
748.498	0.0148376
748.576	0.0148180
748.655	0.0149162
748.733	0.0148318
748.811	0.0149743
748.889	0.0148308
748.967	0.0149119
749.045	0.0149547
749.123	0.0150430
749.201	0.0150834
749.280	0.0150882
749.358	0.0149709
749.436	0.0151273
749.514	0.0150317
749.592	0.0151426
749.670	0.0150140
749.748	0.0149841
749.826	0.0149284
749.905	0.0150103
749.983	0.0148685
750.061	0.0148595
750.139	0.0147351
750.217	0.0146013
750.295	0.0146596
750.373	0.0147564
750.451	0.0145615
750.530	0.0145943
750.608	0.0145253
750.686	0.0145523
750.764	0.0145472
750.842	0.0144152
750.920	0.0144940
750.998	0.0144110
751.076	0.0143095
751.155	0.0143479
751.233	0.0144526
751.311	0.0142397
751.389	0.0143805
751.467	0.0144109
751.545	0.0144147
751.623	0.0144017
751.701	0.0143526
751.780	0.0143588
751.858	0.0144241
751.936	0.0144539
752.014	0.0145161
752.092	0.0146652
752.170	0.0146433
752.248	0.0146208
752.326	0.0147250
752.405	0.0148048
752.483	0.0148429
752.561	0.0148073
752.639	0.0149316
752.717	0.0149182
752.795	0.0149532
752.873	0.0150113
752.951	0.0150134
753.030	0.0149215
753.108	0.0148885
753.186	0.0149529
753.264	0.0149574
753.342	0.0148275
753.420	0.0147576
753.498	0.0146822
753.576	0.0146718
753.655	0.0147700
753.733	0.0146068
753.811	0.0145652
753.889	0.0146593
753.967	0.0146152
754.045	0.0146049
754.123	0.0144179
754.201	0.0145493
754.280	0.0146018
754.358	0.0144984
754.436	0.0145229
754.514	0.0146414
754.592	0.0146535
754.670	0.0146838
754.748	0.0146943
754.826	0.0145278
754.905	0.0147292
754.983	0.0147488
755.061	0.0148245
755.139	0.0148871
755.217	0.0148578
755.295	0.0148656
755.373	0.0148220
755.451	0.0149071
755.530	0.0148540
755.608	0.0149687
755.686	0.0149411
755.764	0.0148838
755.842	0.0147528
755.920	0.0147734
755.998	0.0149017
756.076	0.0147109
756.155	0.0146493
756.233	0.0146381
756.311	0.0145662
756.389	0.0144815
756.467	0.0145791
756.545	0.0144960
756.623	0.0144966
756.701	0.0143889
756.780	0.0143684
756.858	0.0144341
756.936	0.0144170
757.014	0.0144970
757.092	0.0144601
757.170	0.0144834
757.248	0.0146079
757.326	0.0146864
757.405	0.0147143
757.483	0.0147736
757.561	0.0146897
757.639	0.0146930
757.717	0.0148495
757.795	0.0149439
757.873	0.0151397
757.951	0.0150433
758.030	0.0148627
758.108	0.0151484
758.186	0.0151277
758.264	0.0150485
758.342	0.0149663
758.420	0.0150191
758.498	0.0149687
758.576	0.0148586
758.655	0.0149207
758.733	0.0149690
758.811	0.0148602
758.889	0.0149426
758.967	0.0148970
759.045	0.0147773
759.123	0.0147015
759.201	0.0147034
759.280	0.0147928
759.358	0.0147724
759.436	0.0146423
759.514	0.0145185
759.592	0.0145144
759.670	0.0146828
759.748	0.0145931
759.826	0.0144865
759.905	0.0143890
759.983	0.0143713
760.061	0.0143530
760.139	0.0144881
760.217	0.0145114
760.295	0.0145908
760.373	0.0145810
760.451	0.0145731
760.530	0.0145711
760.608	0.0145498
760.686	0.0146178
760.764	0.0145127
760.842	0.0145267
760.920	0.0146564
760.998	0.0147225
761.076	0.0146278
761.155	0.0146620
761.233	0.0147234
761.311	0.0146637
761.389	0.0146922
761.467	0.0147427
761.545	0.0148860
761.623	0.0147395
761.701	0.0147062
761.780	0.0147616
761.858	0.0148541
761.936	0.0147099
762.014	0.0148321
762.092	0.0148164
762.170	0.0148017
762.248	0.0146977
762.326	0.0147471
762.405	0.0147201
762.483	0.0147234
762.561	0.0147573
762.639	0.0148322
762.717	0.0147349
762.795	0.0148388
762.873	0.0147207
762.951	0.0146728
763.030	0.0148104
763.108	0.0145900
763.186	0.0146256
763.264	0.0147346
763.342	0.0146003
763.420	0.0147783
763.498	0.0148981
763.576	0.0146813
763.655	0.0145470
763.733	0.0146220
763.811	0.0146957
763.889	0.0146595
763.967	0.0147363
764.045	0.0148391
764.123	0.0149854
764.201	0.0147076
764.280	0.0148273
764.358	0.0149516
764.436	0.0148480
764.514	0.0150502
764.592	0.0149092
764.670	0.0148401
764.748	0.0147632
764.826	0.0147949
764.905	0.0147050
764.983	0.0146751
765.061	0.0147218
765.139	0.0147337
765.217	0.0147315
765.295	0.0149008
765.373	0.0147375
765.451	0.0148062
765.530	0.0148695
765.608	0.0148215
765.686	0.0148058
765.764	0.0148866
765.842	0.0148241
765.920	0.0148029
765.998	0.0148737
766.076	0.0148452
766.155	0.0148795
766.233	0.0147916
766.311	0.0148017
766.389	0.0148686
766.467	0.0146638
766.545	0.0146717
766.623	0.0146665
766.701	0.0146494
766.780	0.0145138
766.858	0.0145950
766.936	0.0146186
767.014	0.0144853
767.092	0.0144375
767.170	0.0143401
767.248	0.0144494
767.326	0.0145647
767.405	0.0145902
767.483	0.0145740
767.561	0.0146336
767.639	0.0145837
767.717	0.0144907
767.795	0.0145651
767.873	0.0147788
767.951	0.0148205
768.030	0.0146200
768.108	0.0148895
768.186	0.0149014
768.264	0.0148726
768.342	0.0150094
768.420	0.0148779
768.498	0.0149778
768.576	0.0150766
768.655	0.0150251
768.733	0.0150332
768.811	0.0150922
768.889	0.0152478
768.967	0.0149899
769.045	0.0150754
769.123	0.0149870
769.201	0.0150037
769.280	0.0150272
769.358	0.0151337
769.436	0.0149476
769.514	0.0148222
769.592	0.0149744
769.670	0.0147523
769.748	0.0147173
769.826	0.0147710
769.905	0.0146569
769.983	0.0146514
770.061	0.0146735
770.139	0.0144950
770.217	0.0145204
770.295	0.0144498
770.373	0.0144525
770.451	0.0144183
770.530	0.0144830
770.608	0.0144651
770.686	0.0144538
770.764	0.0146201
770.842	0.0145906
770.920	0.0145152
770.998	0.0144829
771.076	0.0145321
771.155	0.0145314
771.233	0.0145824
771.311	0.0146774
771.389	0.0146539
771.467	0.0147408
771.545	0.0147710
771.623	0.0148933
771.701	0.0148708
771.780	0.0149288
771.858	0.0147837
771.936	0.0148756
772.014	0.0149953
772.092	0.0149423
772.170	0.0148593
772.248	0.0148225
772.326	0.0148085
772.405	0.0148379
772.483	0.0148347
772.561	0.0148093
772.639	0.0147582
772.717	0.0146571
772.795	0.0148021
772.873	0.0147642
772.951	0.0147937
773.030	0.0147676
773.108	0.0146034
773.186	0.0146393
773.264	0.0145746
773.342	0.0145486
773.420	0.0146966
773.498	0.0145554
773.576	0.0146180
773.655	0.0146310
773.733	0.0145840
773.811	0.0146772
773.889	0.0145535
773.967	0.0144520
774.045	0.0145911
774.123	0.0145673
774.201	0.0145602
774.280	0.0145152
774.358	0.0145652
774.436	0.0144273
774.514	0.0147225
774.592	0.0145643
774.670	0.0144509
774.748	0.0144355
774.826	0.0147759
774.905	0.0146606
774.983	0.0146899
775.061	0.0147395
775.139	0.0147802
775.217	0.0146383
775.295	0.0145521
775.373	0.0146509
775.451	0.0150119
775.530	0.0148251
775.608	0.0147121
775.686	0.0146819
775.764	0.0147929
775.842	0.0148145
775.920	0.0147460
775.998	0.0149023
776.076	0.0148042
776.155	0.0149055
776.233	0.0150210
776.311	0.0148706
776.389	0.0148319
776.467	0.0148324
776.545	0.0147940
776.623	0.0148241
776.701	0.0147234
776.780	0.0147946
776.858	0.0148240
776.936	0.0147182
777.014	0.0147063
777.092	0.0146936
777.170	0.0147886
777.248	0.0148143
777.326	0.0146478
777.405	0.0148798
777.483	0.0147176
777.561	0.0148762
777.639	0.0147311
777.717	0.0147408
777.795	0.0147804
777.873	0.0148138
777.951	0.0148344
778.030	0.0146879
778.108	0.0147532
778.186	0.0148784
778.264	0.0148463
778.342	0.0146019
778.420	0.0147264
778.498	0.0149229
778.576	0.0146296
778.655	0.0148291
778.733	0.0147170
778.811	0.0146787
778.889	0.0148132
778.967	0.0148917
779.045	0.0150684
779.123	0.0148193
779.201	0.0146616
779.280	0.0148658
779.358	0.0148166
779.436	0.0147669
779.514	0.0148455
779.592	0.0146632
779.670	0.0146841
779.748	0.0144915
779.826	0.0144911
779.905	0.0146378
779.983	0.0143730
780.061	0.0143139
780.139	0.0144536
780.217	0.0144497
780.295	0.0144355
780.373	0.0145023
780.451	0.0144189
780.530	0.0143606
780.608	0.0143787
780.686	0.0143918
780.764	0.0142546
780.842	0.0144060
780.920	0.0143456
780.998	0.0143497
781.076	0.0145638
781.155	0.0145731
781.233	0.0144513
781.311	0.0144353
781.389	0.0145288
781.467	0.0146086
781.545	0.0146184
781.623	0.0145734
781.701	0.0146520
781.780	0.0146551
781.858	0.0148276
781.936	0.0147143
782.014	0.0148348
782.092	0.0149886
782.170	0.0150146
782.248	0.0149737
782.326	0.0148299
782.405	0.0149623
782.483	0.0149816
782.561	0.0150831
782.639	0.0149580
782.717	0.0150698
782.795	0.0150726
782.873	0.0151207
782.951	0.0150757
783.030	0.0149723
783.108	0.0149432
783.186	0.0151628
783.264	0.0149994
783.342	0.0149593
783.420	0.0148870
783.498	0.0149098
783.576	0.0149642
783.655	0.0147395
783.733	0.0149188
783.811	0.0149184
783.889	0.0148083
783.967	0.0147923
784.045	0.0148719
784.123	0.0147047
784.201	0.0148595
784.280	0.0148701
784.358	0.0147900
784.436	0.0147314
784.514	0.0147031
784.592	0.0147326
784.670	0.0147412
784.748	0.0147308
784.826	0.0147741
784.905	0.0147508
784.983	0.0145844
785.061	0.0147007
785.139	0.0149499
785.217	0.0147647
785.295	0.0147540
785.373	0.0146512
785.451	0.0148180
785.530	0.0147617
785.608	0.0146938
785.686	0.0146949
785.764	0.0147010
785.842	0.0148104
785.920	0.0147255
785.998	0.0147722
786.076	0.0147591
786.155	0.0146854
786.233	0.0148062
786.311	0.0148017
786.389	0.0147009
786.467	0.0146412
786.545	0.0147301
786.623	0.0148557
786.701	0.0146571
786.780	0.0147052
786.858	0.0146565
786.936	0.0148573
787.014	0.0148122
787.092	0.0148685
787.170	0.0147701
787.248	0.0147807
787.326	0.0147257
787.405	0.0147843
787.483	0.0147319
787.561	0.0147033
787.639	0.0146978
787.717	0.0146716
787.795	0.0146976
787.873	0.0146432
787.951	0.0145644
788.030	0.0145909
788.108	0.0145275
788.186	0.0145367
788.264	0.0145581
788.342	0.0145628
788.420	0.0146510
788.498	0.0144886
788.576	0.0144784
788.655	0.0145517
788.733	0.0146987
788.811	0.0145812
788.889	0.0144853
788.967	0.0146439
789.045	0.0147077
789.123	0.0146632
789.201	0.0146932
789.280	0.0147090
789.358	0.0148289
789.436	0.0146904
789.514	0.0147433
789.592	0.0148510
789.670	0.0146742
789.748	0.0148610
789.826	0.0146470
789.905	0.0147225
789.983	0.0149593
790.061	0.0148284
790.139	0.0147272
790.217	0.0148233
790.295	0.0148254
790.373	0.0149380
790.451	0.0149004
790.530	0.0148440
790.608	0.0146706
790.686	0.0147131
790.764	0.0148896
790.842	0.0147687
790.920	0.0146700
790.998	0.0146401
791.076	0.0146267
791.155	0.0146360
791.233	0.0144315
791.311	0.0145349
791.389	0.0145525
791.467	0.0144684
791.545	0.0145229
791.623	0.0143161
791.701	0.0144274
791.780	0.0144354
791.858	0.0146680
791.936	0.0144217
792.014	0.0143983
792.092	0.0142879
792.170	0.0145592
792.248	0.0146038
792.326	0.0144660
792.405	0.0145180
792.483	0.0146538
792.561	0.0147517
792.639	0.0145517
792.717	0.0145638
792.795	0.0146725
792.873	0.0145491
792.951	0.0147104
793.030	0.0146842
793.108	0.0147200
793.186	0.0147375
793.264	0.0147431
793.342	0.0146593
793.420	0.0148205
793.498	0.0149265
793.576	0.0146477
793.655	0.0147605
793.733	0.0146305
793.811	0.0146021
793.889	0.0147971
793.967	0.0148145
794.045	0.0148183
794.123	0.0147269
794.201	0.0148119
794.280	0.0147949
794.358	0.0147359
794.436	0.0148566
794.514	0.0148805
794.592	0.0149418
794.670	0.0148349
794.748	0.0149337
794.826	0.0148553
794.905	0.0149391
794.983	0.0148357
795.061	0.0147552
795.139	0.0149588
795.217	0.0149599
795.295	0.0148797
795.373	0.0150798
795.451	0.0150169
795.530	0.0149687
795.608	0.0149432
795.686	0.0147423
795.764	0.0148015
795.842	0.0148838
795.920	0.0149020
795.998	0.0148827
796.076	0.0148373
796.155	0.0147024
796.233	0.0147055
796.311	0.0146891
796.389	0.0148222
796.467	0.0148830
796.545	0.0148510
796.623	0.0149108
796.701	0.0147238
796.780	0.0148692
796.858	0.0146893
796.936	0.0147227
797.014	0.0148555
797.092	0.0147950
797.170	0.0147598
797.248	0.0147015
797.326	0.0146305
797.405	0.0148464
797.483	0.0147868
797.561	0.0147533
797.639	0.0146609
797.717	0.0147422
797.795	0.0147687
797.873	0.0146078
797.951	0.0145921
798.030	0.0147939
798.108	0.0147469
798.186	0.0149432
798.264	0.0148619
798.342	0.0148737
798.420	0.0148291
798.498	0.0148227
798.576	0.0149100
798.655	0.0149492
798.733	0.0148063
798.811	0.0147005
798.889	0.0147776
798.967	0.0148461
799.045	0.0149947
799.123	0.0147235
799.201	0.0147472
799.280	0.0149538
799.358	0.0149106
799.436	0.0147695
799.514	0.0149264
799.592	0.0149664
799.670	0.0149706
799.748	0.0150377
799.826	0.0147916
799.905	0.0148870
799.983	0.0147986
800.061	0.0148553
800.139	0.0147968
800.217	0.0148985
800.295	0.0149609
800.373	0.0147238
800.451	0.0147406
800.530	0.0147604
800.608	0.0146743
800.686	0.0147200
800.764	0.0147362
800.842	0.0146042
800.920	0.0144261
800.998	0.0145786
801.076	0.0144662
801.155	0.0145415
801.233	0.0145807
801.311	0.0143192
801.389	0.0143317
801.467	0.0144160
801.545	0.0142809
801.623	0.0145035
801.701	0.0143115
801.780	0.0145033
801.858	0.0143259
801.936	0.0142628
802.014	0.0143274
802.092	0.0143902
802.170	0.0143732
802.248	0.0146027
802.326	0.0146181
802.405	0.0145199
802.483	0.0144250
802.561	0.0146200
802.639	0.0146831
802.717	0.0146529
802.795	0.0148198
802.873	0.0146469
802.951	0.0148139
803.030	0.0149218
803.108	0.0147456
803.186	0.0147990
803.264	0.0149184
803.342	0.0147949
803.420	0.0148241
803.498	0.0148495
803.576	0.0149259
803.655	0.0148086
803.733	0.0148526
803.811	0.0149213
803.889	0.0148579
803.967	0.0149272
804.045	0.0148499
804.123	0.0147970
804.201	0.0149013
804.280	0.0148316
804.358	0.0147189
804.436	0.0148856
804.514	0.0148686
804.592	0.0147997
804.670	0.0148299
804.748	0.0148325
804.826	0.0149046
804.905	0.0149419
804.983	0.0149759
805.061	0.0150304
805.139	0.0149293
805.217	0.0149561
805.295	0.0149688
805.373	0.0149326
805.451	0.0148425
805.530	0.0147643
805.608	0.0149772
805.686	0.0149616
805.764	0.0147757
805.842	0.0148743
805.920	0.0149066
805.998	0.0149303
806.076	0.0148113
806.155	0.0146337
806.233	0.0147073
806.311	0.0148081
806.389	0.0147901
806.467	0.0148064
806.545	0.0146606
806.623	0.0145833
806.701	0.0147434
806.780	0.0147034
806.858	0.0146342
806.936	0.0146443
807.014	0.0147603
807.092	0.0147667
807.170	0.0146159
807.248	0.0147089
807.326	0.0146431
807.405	0.0147664
807.483	0.0146802
807.561	0.0147968
807.639	0.0147363
807.717	0.0148662
807.795	0.0149099
807.873	0.0148785
807.951	0.0148374
808.030	0.0149016
808.108	0.0149247
808.186	0.0149843
808.264	0.0149618
808.342	0.0148615
808.420	0.0148762
808.498	0.0148550
808.576	0.0150222
808.655	0.0149010
808.733	0.0148469
808.811	0.0147894
808.889	0.0147481
808.967	0.0148335
809.045	0.0149344
809.123	0.0147860
809.201	0.0147836
809.280	0.0147970
809.358	0.0148639
809.436	0.0144499
809.514	0.0147037
809.592	0.0147363
809.670	0.0147281
809.748	0.0146671
809.826	0.0147118
809.905	0.0146066
809.983	0.0146739
810.061	0.0145962
810.139	0.0146159
810.217	0.0146504
810.295	0.0145177
810.373	0.0146512
810.451	0.0147859
810.530	0.0146741
810.608	0.0145662
810.686	0.0146623
810.764	0.0146658
810.842	0.0147025
810.920	0.0147758
810.998	0.0147282
811.076	0.0147379
811.155	0.0146724
811.233	0.0146719
811.311	0.0148277
811.389	0.0147479
811.467	0.0147015
811.545	0.0147586
811.623	0.0148565
811.701	0.0148535
811.780	0.0148324
811.858	0.0147723
811.936	0.0148209
812.014	0.0146719
812.092	0.0147219
812.170	0.0147858
812.248	0.0146464
812.326	0.0146413
812.405	0.0147926
812.483	0.0146478
812.561	0.0146261
812.639	0.0147134
812.717	0.0146262
812.795	0.0146297
812.873	0.0144317
812.951	0.0146217
813.030	0.0146672
813.108	0.0146175
813.186	0.0146716
813.264	0.0147381
813.342	0.0146073
813.420	0.0146328
813.498	0.0145753
813.576	0.0146543
813.655	0.0148219
813.733	0.0146707
813.811	0.0145982
813.889	0.0147793
813.967	0.0146236
814.045	0.0146541
814.123	0.0146431
814.201	0.0147112
814.280	0.0145690
814.358	0.0145985
814.436	0.0145967
814.514	0.0146050
814.592	0.0146172
814.670	0.0146465
814.748	0.0146307
814.826	0.0145201
814.905	0.0145004
814.983	0.0145204
815.061	0.0146149
815.139	0.0146249
815.217	0.0144949
815.295	0.0146581
815.373	0.0145285
815.451	0.0144452
815.530	0.0146025
815.608	0.0145029
815.686	0.0145520
815.764	0.0144835
815.842	0.0145943
815.920	0.0146484
815.998	0.0145767
816.076	0.0145942
816.155	0.0145794
816.233	0.0145632
816.311	0.0147009
816.389	0.0147181
816.467	0.0147694
816.545	0.0146819
816.623	0.0147270
816.701	0.0147612
816.780	0.0147873
816.858	0.0147440
816.936	0.0146230
817.014	0.0147276
817.092	0.0146961
817.170	0.0146920
817.248	0.0146396
817.326	0.0146665
817.405	0.0146993
817.483	0.0146055
817.561	0.0147068
817.639	0.0145539
817.717	0.0146676
817.795	0.0146958
817.873	0.0147983
817.951	0.0145863
818.030	0.0146612
818.108	0.0146037
818.186	0.0147029
818.264	0.0147942
818.342	0.0146548
818.420	0.0147775
818.498	0.0146046
818.576	0.0147288
818.655	0.0147652
818.733	0.0146568
818.811	0.0145901
818.889	0.0146758
818.967	0.0147941
819.045	0.0147895
819.123	0.0148135
819.201	0.0147157
819.280	0.0147243
819.358	0.0147025
819.436	0.0146861
819.514	0.0147141
819.592	0.0147472
819.670	0.0147314
819.748	0.0147229
819.826	0.0147478
819.905	0.0148676
819.983	0.0148925
820.061	0.0147314
820.139	0.0147719
820.217	0.0147249
820.295	0.0147021
820.373	0.0147005
820.451	0.0146189
820.530	0.0146701
820.608	0.0146872
820.686	0.0146555
820.764	0.0146474
820.842	0.0147549
820.920	0.0146410
820.998	0.0146719
821.076	0.0146576
821.155	0.0147010
821.233	0.0144685
821.311	0.0146452
821.389	0.0146187
821.467	0.0147685
821.545	0.0146731
821.623	0.0146474
821.701	0.0147586
821.780	0.0147678
821.858	0.0148709
821.936	0.0148814
822.014	0.0147647
822.092	0.0147828
822.170	0.0148463
822.248	0.0149452
822.326	0.0149260
822.405	0.0149440
822.483	0.0150199
822.561	0.0150170
822.639	0.0149341
822.717	0.0149390
822.795	0.0150554
822.873	0.0149445
822.951	0.0148845
823.030	0.0149517
823.108	0.0149268
823.186	0.0150416
823.264	0.0149760
823.342	0.0148534
823.420	0.0148710
823.498	0.0150127
823.576	0.0148424
823.655	0.0149553
823.733	0.0149132
823.811	0.0148118
823.889	0.0147701
823.967	0.0148235
824.045	0.0148904
824.123	0.0148237
824.201	0.0147656
824.280	0.0149248
824.358	0.0150558
824.436	0.0147582
824.514	0.0147170
824.592	0.0148170
824.670	0.0148856
824.748	0.0146665
824.826	0.0147852
824.905	0.0148391
824.983	0.0147662
825.061	0.0147616
825.139	0.0147552
825.217	0.0147146
825.295	0.0146892
825.373	0.0145502
825.451	0.0146825
825.530	0.0146329
825.608	0.0145112
825.686	0.0146550
825.764	0.0145376
825.842	0.0146151
825.920	0.0146058
825.998	0.0145010
826.076	0.0145329
826.155	0.0144907
826.233	0.0143883
826.311	0.0147067
826.389	0.0145352
826.467	0.0145721
826.545	0.0145074
826.623	0.0147295
826.701	0.0148500
826.780	0.0147685
826.858	0.0148180
826.936	0.0148290
827.014	0.0148283
827.092	0.0146947
827.170	0.0147241
827.248	0.0149416
827.326	0.0148503
827.405	0.0148406
827.483	0.0147726
827.561	0.0148626
827.639	0.0148681
827.717	0.0148122
827.795	0.0148715
827.873	0.0149508
827.951	0.0147289
828.030	0.0148132
828.108	0.0147189
828.186	0.0147810
828.264	0.0148048
828.342	0.0147733
828.420	0.0147321
828.498	0.0147183
828.576	0.0147402
828.655	0.0148174
828.733	0.0147267
828.811	0.0148379
828.889	0.0146813
828.967	0.0146684
829.045	0.0147404
829.123	0.0146711
829.201	0.0148402
829.280	0.0148302
829.358	0.0147162
829.436	0.0148729
829.514	0.0147034
829.592	0.0148076
829.670	0.0147518
829.748	0.0147438
829.826	0.0148376
829.905	0.0148526
829.983	0.0147027
830.061	0.0147898
830.139	0.0146324
830.217	0.0146444
830.295	0.0148955
830.373	0.0147597
830.451	0.0146959
830.530	0.0147283
830.608	0.0147063
830.686	0.0148773
830.764	0.0148520
830.842	0.0148902
830.920	0.0147805
830.998	0.0146334
831.076	0.0148407
831.155	0.0147714
831.233	0.0145834
831.311	0.0148297
831.389	0.0147220
831.467	0.0146532
831.545	0.0147003
831.623	0.0147980
831.701	0.0147332
831.780	0.0145502
831.858	0.0146999
831.936	0.0145441
832.014	0.0145412
832.092	0.0145615
832.170	0.0145753
832.248	0.0146203
832.326	0.0146866
832.405	0.0146170
832.483	0.0145901
832.561	0.0147514
832.639	0.0146390
832.717	0.0145921
832.795	0.0148054
832.873	0.0147198
832.951	0.0147272
833.030	0.0145690
833.108	0.0146455
833.186	0.0145434
833.264	0.0145983
833.342	0.0145242
833.420	0.0146321
833.498	0.0145774
833.576	0.0145782
833.655	0.0146024
833.733	0.0144019
833.811	0.0145058
833.889	0.0143283
833.967	0.0145047
834.045	0.0145516
834.123	0.0146427
834.201	0.0145431
834.280	0.0143677
834.358	0.0142470
834.436	0.0144576
834.514	0.0143654
834.592	0.0143771
834.670	0.0144719
834.748	0.0144917
834.826	0.0144848
834.905	0.0145228
834.983	0.0143797
835.061	0.0145209
835.139	0.0147998
835.217	0.0146095
835.295	0.0145992
835.373	0.0146411
835.451	0.0146699
835.530	0.0147942
835.608	0.0146820
835.686	0.0147247
835.764	0.0147903
835.842	0.0147096
835.920	0.0147124
835.998	0.0147491
836.076	0.0148592
836.155	0.0146921
836.233	0.0147209
836.311	0.0146253
836.389	0.0147373
836.467	0.0145703
836.545	0.0147475
836.623	0.0147955
836.701	0.0147318
836.780	0.0144830
836.858	0.0146451
836.936	0.0146342
837.014	0.0145795
837.092	0.0147619
837.170	0.0147321
837.248	0.0145786
837.326	0.0146164
837.405	0.0146999
837.483	0.0148268
837.561	0.0147318
837.639	0.0147215
837.717	0.0146052
837.795	0.0147729
837.873	0.0146945
837.951	0.0146779
838.030	0.0145760
838.108	0.0147044
838.186	0.0148559
838.264	0.0148952
838.342	0.0148045
838.420	0.0147133
838.498	0.0147995
838.576	0.0147644
838.655	0.0147045
838.733	0.0148069
838.811	0.0148092
838.889	0.0148051
838.967	0.0148702
839.045	0.0148605
839.123	0.0147045
839.201	0.0148587
839.280	0.0146854
839.358	0.0146561
839.436	0.0147651
839.514	0.0148177
839.592	0.0147865
839.670	0.0147690
839.748	0.0147241
839.826	0.0148128
839.905	0.0148174
839.983	0.0147242
840.061	0.0148623
840.139	0.0148327
840.217	0.0147937
840.295	0.0147179
840.373	0.0148349
840.451	0.0148013
840.530	0.0147041
840.608	0.0146404
840.686	0.0147461
840.764	0.0147044
840.842	0.0147936
840.920	0.0149282
840.998	0.0148110
841.076	0.0147990
841.155	0.0147961
841.233	0.0148097
841.311	0.0147867
841.389	0.0148063
841.467	0.0148133
841.545	0.0149145
841.623	0.0148614
841.701	0.0148318
841.780	0.0148318
841.858	0.0148696
841.936	0.0148687
842.014	0.0147954
842.092	0.0148391
842.170	0.0147234
842.248	0.0146828
842.326	0.0148390
842.405	0.0148872
842.483	0.0146651
842.561	0.0145796
842.639	0.0147104
842.717	0.0147972
842.795	0.0147492
842.873	0.0146199
842.951	0.0148087
843.030	0.0147272
843.108	0.0146107
843.186	0.0146629
843.264	0.0146736
843.342	0.0146839
843.420	0.0147478
843.498	0.0147330
843.576	0.0146664
843.655	0.0146355
843.733	0.0147054
843.811	0.0147643
843.889	0.0146916
843.967	0.0146792
844.045	0.0146951
844.123	0.0147244
844.201	0.0146770
844.280	0.0146485
844.358	0.0145998
844.436	0.0148448
844.514	0.0146237
844.592	0.0145967
844.670	0.0146324
844.748	0.0147091
844.826	0.0146198
844.905	0.0147643
844.983	0.0148745
845.061	0.0147173
845.139	0.0147088
845.217	0.0147072
845.295	0.0146760
845.373	0.0146320
845.451	0.0147727
845.530	0.0147413
845.608	0.0147147
845.686	0.0148120
845.764	0.0146761
845.842	0.0147576
845.920	0.0148040
845.998	0.0147527
846.076	0.0148145
846.155	0.0147535
846.233	0.0147830
846.311	0.0147772
846.389	0.0147610
846.467	0.0146494
846.545	0.0147340
846.623	0.0146379
846.701	0.0146160
846.780	0.0146264
846.858	0.0147417
846.936	0.0146262
847.014	0.0146443
847.092	0.0146511
847.170	0.0144418
847.248	0.0145273
847.326	0.0145970
847.405	0.0147033
847.483	0.0145783
847.561	0.0147313
847.639	0.0145409
847.717	0.0143696
847.795	0.0146053
847.873	0.0145699
847.951	0.0145786
848.030	0.0145939
848.108	0.0146140
848.186	0.0145409
848.264	0.0146961
848.342	0.0146275
848.420	0.0146275
848.498	0.0147144
848.576	0.0145983
848.655	0.0145681
848.733	0.0146732
848.811	0.0145531
848.889	0.0146424
848.967	0.0146527
849.045	0.0146152
849.123	0.0146885
849.201	0.0148097
849.280	0.0146313
849.358	0.0148025
849.436	0.0146857
849.514	0.0146807
849.592	0.0146999
849.670	0.0146510
849.748	0.0147563
849.826	0.0147008
849.905	0.0146307
849.983	0.0146847
850.061	0.0147151
850.139	0.0147400
850.217	0.0147186
850.295	0.0148470
850.373	0.0147081
850.451	0.0148318
850.530	0.0148341
850.608	0.0146297
850.686	0.0147598
850.764	0.0147436
850.842	0.0148019
850.920	0.0147106
850.998	0.0148679
851.076	0.0147708
851.155	0.0148273
851.233	0.0147633
851.311	0.0146636
851.389	0.0149009
851.467	0.0147166
851.545	0.0147941
851.623	0.0148589
851.701	0.0148806
851.780	0.0149208
851.858	0.0146952
851.936	0.0147085
852.014	0.0148181
852.092	0.0147943
852.170	0.0147459
852.248	0.0147072
852.326	0.0148405
852.405	0.0148321
852.483	0.0147808
852.561	0.0147655
852.639	0.0146523
852.717	0.0147756
852.795	0.0148975
852.873	0.0148009
852.951	0.0147343
853.030	0.0147338
853.108	0.0146770
853.186	0.0146626
853.264	0.0148164
853.342	0.0148946
853.420	0.0147434
853.498	0.0147152
853.576	0.0147663
853.655	0.0147800
853.733	0.0147603
853.811	0.0149109
853.889	0.0147868
853.967	0.0147620
854.045	0.0147445
854.123	0.0147062
854.201	0.0149059
854.280	0.0147563
854.358	0.0147119
854.436	0.0147026
854.514	0.0146447
854.592	0.0147430
854.670	0.0147210
854.748	0.0145493
854.826	0.0146111
854.905	0.0146239
854.983	0.0145543
855.061	0.0145991
855.139	0.0145483
855.217	0.0144344
855.295	0.0145026
855.373	0.0145273
855.451	0.0145831
855.530	0.0144498
855.608	0.0144972
855.686	0.0145364
855.764	0.0144553
855.842	0.0145385
855.920	0.0144636
855.998	0.0144981
856.076	0.0146163
856.155	0.0145042
856.233	0.0144507
856.311	0.0145216
856.389	0.0144778
856.467	0.0145614
856.545	0.0146136
856.623	0.0145098
856.701	0.0146259
856.780	0.0147015
856.858	0.0145158
856.936	0.0147181
857.014	0.0147114
857.092	0.0148461
857.170	0.0147069
857.248	0.0146519
857.326	0.0147705
857.405	0.0148579
857.483	0.0148310
857.561	0.0147361
857.639	0.0147022
857.717	0.0147124
857.795	0.0147887
857.873	0.0147926
857.951	0.0148025
858.030	0.0147629
858.108	0.0147472
858.186	0.0147622
858.264	0.0146416
858.342	0.0147949
858.420	0.0147518
858.498	0.0147858
858.576	0.0147803
858.655	0.0147408
858.733	0.0147887
858.811	0.0148246
858.889	0.0148471
858.967	0.0148963
859.045	0.0148401
859.123	0.0147655
859.201	0.0148150
859.280	0.0149501
859.358	0.0148642
859.436	0.0148848
859.514	0.0149358
859.592	0.0148070
859.670	0.0147588
859.748	0.0149113
859.826	0.0147987
859.905	0.0147531
859.983	0.0148347
860.061	0.0149010
860.139	0.0147131
860.217	0.0148381
860.295	0.0147784
860.373	0.0146766
860.451	0.0147918
860.530	0.0147617
860.608	0.0146770
860.686	0.0147887
860.764	0.0146526
860.842	0.0148538
860.920	0.0148367
860.998	0.0148875
861.076	0.0148109
861.155	0.0147478
861.233	0.0148090
861.311	0.0148105
861.389	0.0148280
861.467	0.0148279
861.545	0.0147075
861.623	0.0148787
861.701	0.0148023
861.780	0.0148333
861.858	0.0146465
861.936	0.0146554
862.014	0.0147993
862.092	0.0147745
862.170	0.0147141
862.248	0.0146223
862.326	0.0147550
862.405	0.0146111
862.483	0.0146275
862.561	0.0145284
862.639	0.0146604
862.717	0.0146387
862.795	0.0146487
862.873	0.0146319
862.951	0.0146800
863.030	0.0146600
863.108	0.0145344
863.186	0.0145931
863.264	0.0146286
863.342	0.0146209
863.420	0.0146607
863.498	0.0145827
863.576	0.0145283
863.655	0.0145046
863.733	0.0145985
863.811	0.0145137
863.889	0.0147726
863.967	0.0146895
864.045	0.0147225
864.123	0.0145807
864.201	0.0146857
864.280	0.0146278
864.358	0.0147364
864.436	0.0146215
864.514	0.0147162
864.592	0.0146864
864.670	0.0146461
864.748	0.0145892
864.826	0.0146828
864.905	0.0148380
864.983	0.0146882
865.061	0.0147262
865.139	0.0147020
865.217	0.0147109
865.295	0.0146653
865.373	0.0145912
865.451	0.0146893
865.530	0.0145740
865.608	0.0148141
865.686	0.0147819
865.764	0.0147493
865.842	0.0145840
865.920	0.0147374
865.998	0.0147052
866.076	0.0146916
866.155	0.0145450
866.233	0.0146593
866.311	0.0146819
866.389	0.0145952
866.467	0.0146683
866.545	0.0145673
866.623	0.0145751
866.701	0.0146680
866.780	0.0146163
866.858	0.0145947
866.936	0.0147682
867.014	0.0146424
867.092	0.0145922
867.170	0.0146410
867.248	0.0147014
867.326	0.0146654
867.405	0.0147614
867.483	0.0148412
867.561	0.0147304
867.639	0.0146155
867.717	0.0148301
867.795	0.0147789
867.873	0.0147820
867.951	0.0149751
868.030	0.0147514
868.108	0.0147142
868.186	0.0147935
868.264	0.0147311
868.342	0.0149467
868.420	0.0147636
868.498	0.0146977
868.576	0.0148189
868.655	0.0147523
868.733	0.0148150
868.811	0.0147493
868.889	0.0147146
868.967	0.0147417
869.045	0.0146827
869.123	0.0147729
869.201	0.0146677
869.280	0.0147308
869.358	0.0145745
869.436	0.0146339
869.514	0.0148665
869.592	0.0146925
869.670	0.0147484
869.748	0.0147675
869.826	0.0146744
869.905	0.0146304
869.983	0.0147583
870.061	0.0147158
870.139	0.0147641
870.217	0.0147086
870.295	0.0146600
870.373	0.0146915
870.451	0.0146339
870.530	0.0145935
870.608	0.0144723
870.686	0.0144996
870.764	0.0147149
870.842	0.0147071
870.920	0.0146019
870.998	0.0146254
871.076	0.0145991
871.155	0.0146144
871.233	0.0146384
871.311	0.0146230
871.389	0.0146481
871.467	0.0145090
871.545	0.0146032
871.623	0.0146763
871.701	0.0146174
871.780	0.0144665
871.858	0.0145467
871.936	0.0145845
872.014	0.0147205
872.092	0.0145719
872.170	0.0146807
872.248	0.0148416
872.326	0.0147064
872.405	0.0147097
872.483	0.0146039
872.561	0.0146475
872.639	0.0147888
872.717	0.0147858
872.795	0.0147965
872.873	0.0147754
872.951	0.0147507
873.030	0.0148711
873.108	0.0147030
873.186	0.0148504
873.264	0.0148368
873.342	0.0147823
873.420	0.0148946
873.498	0.0148448
873.576	0.0148792
873.655	0.0148960
873.733	0.0148071
873.811	0.0146718
873.889	0.0148358
873.967	0.0148042
874.045	0.0146531
874.123	0.0145604
874.201	0.0146437
874.280	0.0147482
874.358	0.0145774
874.436	0.0146772
874.514	0.0146364
874.592	0.0147470
874.670	0.0146502
874.748	0.0146929
874.826	0.0147958
874.905	0.0145602
874.983	0.0146870
875.061	0.0147203
875.139	0.0147063
875.217	0.0148082
875.295	0.0147160
875.373	0.0147531
875.451	0.0147588
875.530	0.0148116
875.608	0.0148001
875.686	0.0146570
875.764	0.0148176
875.842	0.0146935
875.920	0.0147456
875.998	0.0147047
876.076	0.0148561
876.155	0.0147150
876.233	0.0147231
876.311	0.0146889
876.389	0.0145829
876.467	0.0146431
876.545	0.0147025
876.623	0.0145740
876.701	0.0145849
876.780	0.0145529
876.858	0.0146678
876.936	0.0146930
877.014	0.0146505
877.092	0.0146273
877.170	0.0145831
877.248	0.0145709
877.326	0.0146072
877.405	0.0146019
877.483	0.0146801
877.561	0.0146468
877.639	0.0145700
877.717	0.0146589
877.795	0.0146545
877.873	0.0146503
877.951	0.0146546
878.030	0.0146507
878.108	0.0147668
878.186	0.0147788
878.264	0.0146432
878.342	0.0147813
878.420	0.0147278
878.498	0.0147665
878.576	0.0146388
878.655	0.0148066
878.733	0.0147551
878.811	0.0147623
878.889	0.0148253
878.967	0.0148318
879.045	0.0147388
879.123	0.0148148
879.201	0.0147787
879.280	0.0147272
879.358	0.0147197
879.436	0.0146145
879.514	0.0145715
879.592	0.0147154
879.670	0.0146935
879.748	0.0146249
879.826	0.0147120
879.905	0.0146876
879.983	0.0146162
880.061	0.0146960
880.139	0.0148495
880.217	0.0147179
880.295	0.0146095
880.373	0.0146979
880.451	0.0147250
880.530	0.0148079
880.608	0.0146997
880.686	0.0146011
880.764	0.0145820
880.842	0.0146385
880.920	0.0146626
880.998	0.0148846
881.076	0.0146267
881.155	0.0147678
881.233	0.0148009
881.311	0.0147923
881.389	0.0147619
881.467	0.0146947
881.545	0.0148360
881.623	0.0148898
881.701	0.0148615
881.780	0.0148900
881.858	0.0147970
881.936	0.0146951
882.014	0.0148937
882.092	0.0148495
882.170	0.0149192
882.248	0.0146421
882.326	0.0147295
882.405	0.0146741
882.483	0.0148524
882.561	0.0147675
882.639	0.0146992
882.717	0.0148395
882.795	0.0147453
882.873	0.0147393
882.951	0.0146105
883.030	0.0145612
883.108	0.0147771
883.186	0.0147806
883.264	0.0147084
883.342	0.0147764
883.420	0.0146351
883.498	0.0146584
883.576	0.0146842
883.655	0.0147821
883.733	0.0148124
883.811	0.0146826
883.889	0.0147372
883.967	0.0148309
884.045	0.0147567
884.123	0.0147443
884.201	0.0148129
884.280	0.0150272
884.358	0.0149263
884.436	0.0149217
884.514	0.0149039
884.592	0.0147556
884.670	0.0147878
884.748	0.0149140
884.826	0.0148701
884.905	0.0148746
884.983	0.0148172
885.061	0.0148443
885.139	0.0148695
885.217	0.0149109
885.295	0.0148785
885.373	0.0149299
885.451	0.0147194
885.530	0.0147919
885.608	0.0149947
885.686	0.0146976
885.764	0.0148022
885.842	0.0146935
885.920	0.0147720
885.998	0.0146310
886.076	0.0146947
886.155	0.0146573
886.233	0.0146969
886.311	0.0146583
886.389	0.0146864
886.467	0.0147208
886.545	0.0146754
886.623	0.0146265
886.701	0.0146760
886.780	0.0146184
886.858	0.0146712
886.936	0.0146655
887.014	0.0146907
887.092	0.0148000
887.170	0.0147540
887.248	0.0147575
887.326	0.0147654
887.405	0.0147376
887.483	0.0145083
887.561	0.0147874
887.639	0.0147190
887.717	0.0147922
887.795	0.0147310
887.873	0.0146197
887.951	0.0146988
888.030	0.0146110
888.108	0.0146290
888.186	0.0145922
888.264	0.0146629
888.342	0.0145399
888.420	0.0145390
888.498	0.0147084
888.576	0.0147389
888.655	0.0146886
888.733	0.0147510
888.811	0.0146020
888.889	0.0146607
888.967	0.0146390
889.045	0.0147349
889.123	0.0146787
889.201	0.0146942
889.280	0.0146368
889.358	0.0145693
889.436	0.0147018
889.514	0.0145837
889.592	0.0146665
889.670	0.0147934
889.748	0.0147550
889.826	0.0146885
889.905	0.0147980
889.983	0.0147225
890.061	0.0147595
890.139	0.0147701
890.217	0.0148617
890.295	0.0148976
890.373	0.0147974
890.451	0.0147645
890.530	0.0148328
890.608	0.0146477
890.686	0.0148061
890.764	0.0147681
890.842	0.0149154
890.920	0.0147601
890.998	0.0147759
891.076	0.0148625
891.155	0.0148573
891.233	0.0147202
891.311	0.0146323
891.389	0.0146881
891.467	0.0146394
891.545	0.0146637
891.623	0.0148032
891.701	0.0146740
891.780	0.0147301
891.858	0.0147128
891.936	0.0146502
892.014	0.0146796
892.092	0.0145407
892.170	0.0145373
892.248	0.0146365
892.326	0.0145087
892.405	0.0144571
892.483	0.0145975
892.561	0.0145574
892.639	0.0145611
892.717	0.0146449
892.795	0.0146151
892.873	0.0145930
892.951	0.0146609
893.030	0.0145811
893.108	0.0146449
893.186	0.0146954
893.264	0.0144807
893.342	0.0146352
893.420	0.0146447
893.498	0.0146175
893.576	0.0147989
893.655	0.0147618
893.733	0.0146510
893.811	0.0146338
893.889	0.0148743
893.967	0.0146819
894.045	0.0147327
894.123	0.0149001
894.201	0.0148144
894.280	0.0148750
894.358	0.0148595
894.436	0.0147911
894.514	0.0147237
894.592	0.0146329
894.670	0.0146381
894.748	0.0146803
894.826	0.0145213
894.905	0.0147018
894.983	0.0147414
895.061	0.0146763
895.139	0.0145866
895.217	0.0146841
895.295	0.0146303
895.373	0.0146787
895.451	0.0145646
895.530	0.0145940
895.608	0.0144987
895.686	0.0146125
895.764	0.0146112
895.842	0.0146137
895.920	0.0146225
895.998	0.0145818
896.076	0.0146155
896.155	0.0146262
896.233	0.0144302
896.311	0.0145706
896.389	0.0146254
896.467	0.0145959
896.545	0.0146068
896.623	0.0146681
896.701	0.0145510
896.780	0.0145493
896.858	0.0147194
896.936	0.0146034
897.014	0.0146630
897.092	0.0146587
897.170	0.0145225
897.248	0.0146635
897.326	0.0147254
897.405	0.0145049
897.483	0.0146387
897.561	0.0147996
897.639	0.0146777
897.717	0.0144576
897.795	0.0146879
897.873	0.0148743
897.951	0.0147925
898.030	0.0146742
898.108	0.0146579
898.186	0.0147365
898.264	0.0147585
898.342	0.0146863
898.420	0.0146751
898.498	0.0146796
898.576	0.0146977
898.655	0.0146450
898.733	0.0146668
898.811	0.0145957
898.889	0.0147247
898.967	0.0146829
899.045	0.0145745
899.123	0.0147150
899.201	0.0147292
899.280	0.0146985
899.358	0.0147098
899.436	0.0146175
899.514	0.0147633
899.592	0.0146141
899.670	0.0147179
899.748	0.0147769
899.826	0.0146840
899.905	0.0147029
899.983	0.0146090
900.061	0.0145067
900.139	0.0144345
900.217	0.0146019
900.295	0.0145828
900.373	0.0145897
900.451	0.0144461
900.530	0.0144497
900.608	0.0146445
900.686	0.0145505
900.764	0.0146348
900.842	0.0145442
900.920	0.0145506
900.998	0.0145641
901.076	0.0145814
901.155	0.0146276
901.233	0.0146100
901.311	0.0146062
901.389	0.0146838
901.467	0.0146677
901.545	0.0146812
901.623	0.0147724
901.701	0.0146582
901.780	0.0147675
901.858	0.0146999
901.936	0.0146772
902.014	0.0148035
902.092	0.0148264
902.170	0.0147234
902.248	0.0148316
902.326	0.0149216
902.405	0.0149290
902.483	0.0148259
902.561	0.0148032
902.639	0.0149310
902.717	0.0149393
902.795	0.0148432
902.873	0.0151057
902.951	0.0149371
903.030	0.0149066
903.108	0.0148846
903.186	0.0147775
903.264	0.0148364
903.342	0.0148732
903.420	0.0148029
903.498	0.0148038
903.576	0.0147707
903.655	0.0147097
903.733	0.0147093
903.811	0.0147089
903.889	0.0148087
903.967	0.0146509
904.045	0.0146918
904.123	0.0145895
904.201	0.0146929
904.280	0.0147568
904.358	0.0148241
904.436	0.0146694
904.514	0.0147491
904.592	0.0148095
904.670	0.0145792
904.748	0.0146587
904.826	0.0147970
904.905	0.0147742
904.983	0.0147199
905.061	0.0148215
905.139	0.0147617
905.217	0.0149117
905.295	0.0149268
905.373	0.0148267
905.451	0.0148553
905.530	0.0149592
905.608	0.0148822
905.686	0.0149406
905.764	0.0148593
905.842	0.0148922
905.920	0.0149272
905.998	0.0149846
906.076	0.0149462
906.155	0.0149331
906.233	0.0150790
906.311	0.0149314
906.389	0.0149155
906.467	0.0149054
906.545	0.0150008
906.623	0.0150703
906.701	0.0148991
906.780	0.0150921
906.858	0.0151311
906.936	0.0150229
907.014	0.0148825
907.092	0.0149889
907.170	0.0149117
907.248	0.0150725
907.326	0.0149522
907.405	0.0149060
907.483	0.0150256
907.561	0.0148954
907.639	0.0149538
907.717	0.0150191
907.795	0.0149259
907.873	0.0150179
907.951	0.0149123
908.030	0.0148841
908.108	0.0148943
908.186	0.0149840
908.264	0.0148972
908.342	0.0149225
908.420	0.0147205
908.498	0.0147706
908.576	0.0149024
908.655	0.0148265
908.733	0.0148913
908.811	0.0148561
908.889	0.0146706
908.967	0.0147865
909.045	0.0147490
909.123	0.0146619
909.201	0.0147044
909.280	0.0148289
909.358	0.0148743
909.436	0.0147291
909.514	0.0147287
909.592	0.0145946
909.670	0.0145755
909.748	0.0147944
909.826	0.0145647
909.905	0.0146651
909.983	0.0146959
910.061	0.0147384
910.139	0.0145875
910.217	0.0146201
910.295	0.0147154
910.373	0.0147552
910.451	0.0145956
910.530	0.0147580
910.608	0.0147418
910.686	0.0147243
910.764	0.0148762
910.842	0.0146653
910.920	0.0147421
910.998	0.0146673
911.076	0.0146408
911.155	0.0145965
911.233	0.0148011
911.311	0.0148277
911.389	0.0147120
911.467	0.0147411
911.545	0.0146345
911.623	0.0147400
911.701	0.0147249
911.780	0.0146752
911.858	0.0145145
911.936	0.0146086
912.014	0.0146223
912.092	0.0145416
912.170	0.0146358
912.248	0.0145030
912.326	0.0146228
912.405	0.0146931
912.483	0.0146916
912.561	0.0145264
912.639	0.0145303
912.717	0.0145805
912.795	0.0146274
912.873	0.0145174
912.951	0.0145667
913.030	0.0146533
913.108	0.0144839
913.186	0.0145419
913.264	0.0146067
913.342	0.0145897
913.420	0.0146658
913.498	0.0145600
913.576	0.0144578
913.655	0.0146237
913.733	0.0146853
913.811	0.0145578
913.889	0.0146942
913.967	0.0147281
914.045	0.0145687
914.123	0.0146854
914.201	0.0147923
914.280	0.0147548
914.358	0.0147457
914.436	0.0146809
914.514	0.0146133
914.592	0.0147660
914.670	0.0146722
914.748	0.0147091
914.826	0.0148235
914.905	0.0147487
914.983	0.0147269
915.061	0.0147185
915.139	0.0147350
915.217	0.0147204
915.295	0.0148023
915.373	0.0149113
915.451	0.0149187
915.530	0.0147610
915.608	0.0148068
915.686	0.0147893
915.764	0.0148640
915.842	0.0147178
915.920	0.0147184
915.998	0.0147975
916.076	0.0147656
916.155	0.0148225
916.233	0.0146231
916.311	0.0147524
916.389	0.0146996
916.467	0.0147384
916.545	0.0146597
916.623	0.0146864
916.701	0.0148076
916.780	0.0148350
916.858	0.0147796
916.936	0.0147115
917.014	0.0146500
917.092	0.0146653
917.170	0.0147086
917.248	0.0146370
917.326	0.0146727
917.405	0.0146840
917.483	0.0146711
917.561	0.0147505
917.639	0.0146554
917.717	0.0147604
917.795	0.0146865
917.873	0.0147105
917.951	0.0147308
918.030	0.0148580
918.108	0.0147507
918.186	0.0147164
918.264	0.0146773
918.342	0.0146036
918.420	0.0149058
918.498	0.0146961
918.576	0.0147641
918.655	0.0147245
918.733	0.0147138
918.811	0.0147301
918.889	0.0147160
918.967	0.0146511
919.045	0.0146698
919.123	0.0147260
919.201	0.0146507
919.280	0.0147150
919.358	0.0148038
919.436	0.0147793
919.514	0.0149236
919.592	0.0147898
919.670	0.0147858
919.748	0.0146720
919.826	0.0146223
919.905	0.0148036
919.983	0.0148128
920.061	0.0147018
920.139	0.0149113
920.217	0.0147112
920.295	0.0147166
920.373	0.0147715
920.451	0.0146610
920.530	0.0147717
920.608	0.0147533
920.686	0.0146670
920.764	0.0147977
920.842	0.0147865
920.920	0.0147034
920.998	0.0147449
921.076	0.0147618
921.155	0.0147076
921.233	0.0147512
921.311	0.0147006
921.389	0.0147034
921.467	0.0146889
921.545	0.0148029
921.623	0.0146413
921.701	0.0145083
921.780	0.0145912
921.858	0.0146548
921.936	0.0147398
922.014	0.0147455
922.092	0.0147553
922.170	0.0146776
922.248	0.0147425
922.326	0.0145367
922.405	0.0147048
922.483	0.0146400
922.561	0.0146748
922.639	0.0146326
922.717	0.0146616
922.795	0.0146615
922.873	0.0148360
922.951	0.0147756
923.030	0.0145860
923.108	0.0147015
923.186	0.0147148
923.264	0.0146378
923.342	0.0146890
923.420	0.0147482
923.498	0.0147076
923.576	0.0145609
923.655	0.0146362
923.733	0.0146931
923.811	0.0145964
923.889	0.0146394
923.967	0.0146983
924.045	0.0147453
924.123	0.0147059
924.201	0.0146074
924.280	0.0147055
924.358	0.0147034
924.436	0.0146192
924.514	0.0146816
924.592	0.0146893
924.670	0.0147558
924.748	0.0146518
924.826	0.0146929
924.905	0.0146864
924.983	0.0148309
925.061	0.0147890
925.139	0.0147488
925.217	0.0148438
925.295	0.0148319
925.373	0.0148755
925.451	0.0147836
925.530	0.0146049
925.608	0.0148291
925.686	0.0147907
925.764	0.0147565
925.842	0.0148352
925.920	0.0145873
925.998	0.0148001
926.076	0.0148118
926.155	0.0148200
926.233	0.0149032
926.311	0.0147006
926.389	0.0147593
926.467	0.0147682
926.545	0.0147978
926.623	0.0147987
926.701	0.0148148
926.780	0.0148421
926.858	0.0149657
926.936	0.0149152
927.014	0.0147987
927.092	0.0147707
927.170	0.0149191
927.248	0.0148879
927.326	0.0148232
927.405	0.0149628
927.483	0.0148493
927.561	0.0147074
927.639	0.0147673
927.717	0.0147328
927.795	0.0148103
927.873	0.0149511
927.951	0.0147527
928.030	0.0147677
928.108	0.0147708
928.186	0.0147468
928.264	0.0146648
928.342	0.0147308
928.420	0.0148552
928.498	0.0146861
928.576	0.0147500
928.655	0.0146239
928.733	0.0148000
928.811	0.0148132
928.889	0.0147075
928.967	0.0147339
929.045	0.0147427
929.123	0.0147598
929.201	0.0148808
929.280	0.0147496
929.358	0.0147652
929.436	0.0147742
929.514	0.0148254
929.592	0.0147920
929.670	0.0147746
929.748	0.0149093
929.826	0.0147562
929.905	0.0147131
929.983	0.0148180
930.061	0.0148584
930.139	0.0149090
930.217	0.0148281
930.295	0.0147997
930.373	0.0149087
930.451	0.0149153
930.530	0.0149005
930.608	0.0148025
930.686	0.0147301
930.764	0.0147685
930.842	0.0147626
930.920	0.0148526
930.998	0.0146300
931.076	0.0146310
931.155	0.0147502
931.233	0.0149062
931.311	0.0147667
931.389	0.0147430
931.467	0.0148179
931.545	0.0147609
931.623	0.0148019
931.701	0.0147387
931.780	0.0147557
931.858	0.0149078
931.936	0.0148376
932.014	0.0146253
932.092	0.0147523
932.170	0.0148298
932.248	0.0147710
932.326	0.0148235
932.405	0.0147153
932.483	0.0146997
932.561	0.0148298
932.639	0.0149020
932.717	0.0148877
932.795	0.0148471
932.873	0.0149083
932.951	0.0148962
933.030	0.0149004
933.108	0.0150129
933.186	0.0148678
933.264	0.0149324
933.342	0.0149685
933.420	0.0149426
933.498	0.0147757
933.576	0.0148215
933.655	0.0147232
933.733	0.0148370
933.811	0.0148251
933.889	0.0148085
933.967	0.0147227
934.045	0.0147810
934.123	0.0148218
934.201	0.0148065
934.280	0.0147594
934.358	0.0148476
934.436	0.0147634
934.514	0.0148212
934.592	0.0147791
934.670	0.0147327
934.748	0.0147755
934.826	0.0148029
934.905	0.0147886
934.983	0.0147186
935.061	0.0146902
935.139	0.0146796
935.217	0.0146775
935.295	0.0145827
935.373	0.0146325
935.451	0.0147540
935.530	0.0147103
935.608	0.0146702
935.686	0.0147581
935.764	0.0146598
935.842	0.0147275
935.920	0.0148104
935.998	0.0147805
936.076	0.0147581
936.155	0.0147288
936.233	0.0147781
936.311	0.0148615
936.389	0.0148855
936.467	0.0147990
936.545	0.0149530
936.623	0.0148664
936.701	0.0147508
936.780	0.0148402
936.858	0.0149025
936.936	0.0148245
937.014	0.0148048
937.092	0.0149168
937.170	0.0149489
937.248	0.0148362
937.326	0.0147324
937.405	0.0148643
937.483	0.0149143
937.561	0.0148284
937.639	0.0147469
937.717	0.0148531
937.795	0.0148127
937.873	0.0146758
937.951	0.0146933
938.030	0.0147092
938.108	0.0147507
938.186	0.0148459
938.264	0.0147368
938.342	0.0147308
938.420	0.0146621
938.498	0.0147076
938.576	0.0146582
938.655	0.0145637
938.733	0.0145584
938.811	0.0145938
938.889	0.0146474
938.967	0.0146955
939.045	0.0145895
939.123	0.0145353
939.201	0.0145896
939.280	0.0146658
939.358	0.0146078
939.436	0.0146092
939.514	0.0146445
939.592	0.0146553
939.670	0.0147418
939.748	0.0145888
939.826	0.0146355
939.905	0.0147266
939.983	0.0147839
940.061	0.0145919
940.139	0.0146202
940.217	0.0145815
940.295	0.0147245
940.373	0.0148495
940.451	0.0146886
940.530	0.0148006
940.608	0.0147858
940.686	0.0145665
940.764	0.0147166
940.842	0.0147769
940.920	0.0147680
940.998	0.0147498
941.076	0.0146955
941.155	0.0147605
941.233	0.0147621
941.311	0.0146024
941.389	0.0147528
941.467	0.0146411
941.545	0.0146167
941.623	0.0146512
941.701	0.0146689
941.780	0.0147076
941.858	0.0147514
941.936	0.0146809
942.014	0.0146820
942.092	0.0146770
942.170	0.0147295
942.248	0.0145878
942.326	0.0147075
942.405	0.0147371
942.483	0.0146227
942.561	0.0147507
942.639	0.0147954
942.717	0.0146819
942.795	0.0147514
942.873	0.0146881
942.951	0.0145930
943.030	0.0147782
943.108	0.0147339
943.186	0.0146097
943.264	0.0147434
943.342	0.0146096
943.420	0.0147151
943.498	0.0148177
943.576	0.0147572
943.655	0.0146813
943.733	0.0147134
943.811	0.0146197
943.889	0.0146468
943.967	0.0145834
944.045	0.0147384
944.123	0.0146799
944.201	0.0146514
944.280	0.0146845
944.358	0.0145210
944.436	0.0146518
944.514	0.0147025
944.592	0.0145433
944.670	0.0145547
944.748	0.0145987
944.826	0.0145607
944.905	0.0147594
944.983	0.0146876
945.061	0.0146817
945.139	0.0146275
945.217	0.0146870
945.295	0.0146568
945.373	0.0148111
945.451	0.0148727
945.530	0.0145624
945.608	0.0146238
945.686	0.0147888
945.764	0.0146962
945.842	0.0146816
945.920	0.0146529
945.998	0.0147456
946.076	0.0146394
946.155	0.0147137
946.233	0.0147927
946.311	0.0147529
946.389	0.0147781
946.467	0.0147227
946.545	0.0147942
946.623	0.0148436
946.701	0.0147849
946.780	0.0148000
946.858	0.0147091
946.936	0.0149457
947.014	0.0148608
947.092	0.0147925
947.170	0.0147948
947.248	0.0148677
947.326	0.0148340
947.405	0.0148590
947.483	0.0148083
947.561	0.0148153
947.639	0.0148691
947.717	0.0147944
947.795	0.0147036
947.873	0.0148632
947.951	0.0149567
948.030	0.0147723
948.108	0.0147700
948.186	0.0148232
948.264	0.0148353
948.342	0.0148335
948.420	0.0148101
948.498	0.0147021
948.576	0.0148033
948.655	0.0147168
948.733	0.0146953
948.811	0.0148054
948.889	0.0148119
948.967	0.0147099
949.045	0.0145724
949.123	0.0146739
949.201	0.0146235
949.280	0.0145668
949.358	0.0147009
949.436	0.0146109
949.514	0.0146303
949.592	0.0146964
949.670	0.0147658
949.748	0.0146347
949.826	0.0146201
949.905	0.0146935
949.983	0.0146279
950.061	0.0146697
950.139	0.0145690
950.217	0.0144793
950.295	0.0146678
950.373	0.0146527
950.451	0.0147462
950.530	0.0147134
950.608	0.0147122
950.686	0.0147242
950.764	0.0146923
950.842	0.0147568
950.920	0.0147742
950.998	0.0147065
951.076	0.0147205
951.155	0.0147032
951.233	0.0148385
951.311	0.0147554
951.389	0.0148427
951.467	0.0147748
951.545	0.0147643
951.623	0.0147713
951.701	0.0147220
951.780	0.0147280
951.858	0.0149052
951.936	0.0148649
952.014	0.0147610
952.092	0.0147402
952.170	0.0148597
952.248	0.0147511
952.326	0.0147942
952.405	0.0146958
952.483	0.0147626
952.561	0.0146801
952.639	0.0147831
952.717	0.0146841
952.795	0.0147616
952.873	0.0148438
952.951	0.0147403
953.030	0.0146414
953.108	0.0146429
953.186	0.0148147
953.264	0.0147731
953.342	0.0148201
953.420	0.0147934
953.498	0.0147638
953.576	0.0147398
953.655	0.0148112
953.733	0.0146606
953.811	0.0146030
953.889	0.0147664
953.967	0.0148156
954.045	0.0148099
954.123	0.0147672
954.201	0.0146854
954.280	0.0146223
954.358	0.0147298
954.436	0.0147749
954.514	0.0147147
954.592	0.0147968
954.670	0.0147807
954.748	0.0146474
954.826	0.0147749
954.905	0.0148421
954.983	0.0147150
955.061	0.0147005
955.139	0.0147417
955.217	0.0146906
955.295	0.0146323
955.373	0.0146790
955.451	0.0148150
955.530	0.0146737
955.608	0.0147369
955.686	0.0147326
955.764	0.0147257
955.842	0.0146030
955.920	0.0145432
955.998	0.0146406
956.076	0.0147254
956.155	0.0147561
956.233	0.0146994
956.311	0.0147387
956.389	0.0145720
956.467	0.0147984
956.545	0.0147841
956.623	0.0146580
956.701	0.0146819
956.780	0.0146769
956.858	0.0148331
956.936	0.0147956
957.014	0.0147471
957.092	0.0147994
957.170	0.0146918
957.248	0.0146609
957.326	0.0147951
957.405	0.0146837
957.483	0.0147252
957.561	0.0147234
957.639	0.0146835
957.717	0.0148079
957.795	0.0147025
957.873	0.0146592
957.951	0.0147382
958.030	0.0145712
958.108	0.0146894
958.186	0.0147562
958.264	0.0145206
958.342	0.0145209
958.420	0.0145113
958.498	0.0144843
958.576	0.0145685
958.655	0.0146864
958.733	0.0145645
958.811	0.0145242
958.889	0.0146445
958.967	0.0145786
959.045	0.0145947
959.123	0.0145947
959.201	0.0144796
959.280	0.0144164
959.358	0.0145309
959.436	0.0145424
959.514	0.0146399
959.592	0.0145138
959.670	0.0145281
959.748	0.0146126
959.826	0.0145660
959.905	0.0144691
