05/20/2022	17:14:29	Ver.	4.1	UNKNOWN
Optical Delay	639.982744	Delta X		0.078125	Sweeps	1	Scan Rate	0/0
Coordinates	Axis 1	NaN	Axis 2	NaN	Axis 3	NaN	Axis 4	NaN	Axis 5	NaN	Axis 6	0.000000
TX Power	0.000000	RX Power	0.000000

639.983	0.0145009
640.061	0.0143856
640.139	0.0146268
640.217	0.0145600
640.295	0.0144476
640.373	0.0145465
640.451	0.0146615
640.530	0.0145257
640.608	0.0144645
640.686	0.0144561
640.764	0.0146194
640.842	0.0146794
640.920	0.0144791
640.998	0.0144637
641.076	0.0145097
641.155	0.0146674
641.233	0.0146095
641.311	0.0146558
641.389	0.0145439
641.467	0.0145986
641.545	0.0145077
641.623	0.0144151
641.701	0.0144418
641.780	0.0145659
641.858	0.0145902
641.936	0.0145474
642.014	0.0144840
642.092	0.0145907
642.170	0.0145933
642.248	0.0147356
642.326	0.0146545
642.405	0.0145347
642.483	0.0146111
642.561	0.0145749
642.639	0.0145183
642.717	0.0145480
642.795	0.0146611
642.873	0.0145096
642.951	0.0145060
643.030	0.0144997
643.108	0.0145661
643.186	0.0144323
643.264	0.0144786
643.342	0.0144489
643.420	0.0144751
643.498	0.0144685
643.576	0.0144659
643.655	0.0145451
643.733	0.0143568
643.811	0.0143502
643.889	0.0143879
643.967	0.0144852
644.045	0.0144955
644.123	0.0145372
644.201	0.0144703
644.280	0.0144923
644.358	0.0144375
644.436	0.0144872
644.514	0.0145760
644.592	0.0144478
644.670	0.0145961
644.748	0.0143736
644.826	0.0145222
644.905	0.0145048
644.983	0.0146794
645.061	0.0145156
645.139	0.0145126
645.217	0.0145238
645.295	0.0145598
645.373	0.0144138
645.451	0.0143230
645.530	0.0144411
645.608	0.0144315
645.686	0.0143604
645.764	0.0145159
645.842	0.0144842
645.920	0.0144997
645.998	0.0146140
646.076	0.0146641
646.155	0.0145081
646.233	0.0144577
646.311	0.0144155
646.389	0.0145612
646.467	0.0145464
646.545	0.0145477
646.623	0.0146226
646.701	0.0144875
646.780	0.0145604
646.858	0.0146083
646.936	0.0145290
647.014	0.0145799
647.092	0.0146729
647.170	0.0144763
647.248	0.0145702
647.326	0.0146075
647.405	0.0145619
647.483	0.0146861
647.561	0.0145428
647.639	0.0145706
647.717	0.0145326
647.795	0.0144491
647.873	0.0145702
647.951	0.0144164
648.030	0.0143764
648.108	0.0145506
648.186	0.0145114
648.264	0.0143625
648.342	0.0145326
648.420	0.0144534
648.498	0.0144386
648.576	0.0144807
648.655	0.0144345
648.733	0.0144008
648.811	0.0143880
648.889	0.0144531
648.967	0.0143581
649.045	0.0144099
649.123	0.0143233
649.201	0.0144248
649.280	0.0146452
649.358	0.0144462
649.436	0.0143900
649.514	0.0144273
649.592	0.0146247
649.670	0.0145540
649.748	0.0146774
649.826	0.0145678
649.905	0.0146867
649.983	0.0146294
650.061	0.0147085
650.139	0.0146062
650.217	0.0146013
650.295	0.0146444
650.373	0.0146152
650.451	0.0145962
650.530	0.0144885
650.608	0.0146043
650.686	0.0144275
650.764	0.0143942
650.842	0.0144816
650.920	0.0144879
650.998	0.0145006
651.076	0.0144445
651.155	0.0144894
651.233	0.0144772
651.311	0.0144969
651.389	0.0144001
651.467	0.0145427
651.545	0.0145670
651.623	0.0143900
651.701	0.0143531
651.780	0.0144281
651.858	0.0145263
651.936	0.0144585
652.014	0.0144567
652.092	0.0144357
652.170	0.0144520
652.248	0.0144700
652.326	0.0145744
652.405	0.0146622
652.483	0.0145419
652.561	0.0145176
652.639	0.0147273
652.717	0.0146922
652.795	0.0147551
652.873	0.0147171
652.951	0.0148300
653.030	0.0147945
653.108	0.0146497
653.186	0.0147765
653.264	0.0148143
653.342	0.0146674
653.420	0.0147720
653.498	0.0146523
653.576	0.0146505
653.655	0.0147116
653.733	0.0145150
653.811	0.0144578
653.889	0.0145183
653.967	0.0145401
654.045	0.0145313
654.123	0.0144873
654.201	0.0143256
654.280	0.0145120
654.358	0.0142889
654.436	0.0144354
654.514	0.0144968
654.592	0.0143510
654.670	0.0144901
654.748	0.0145200
654.826	0.0145999
654.905	0.0146465
654.983	0.0145248
655.061	0.0145785
655.139	0.0148594
655.217	0.0147675
655.295	0.0146836
655.373	0.0145171
655.451	0.0146978
655.530	0.0146859
655.608	0.0146643
655.686	0.0146024
655.764	0.0146255
655.842	0.0144865
655.920	0.0145455
655.998	0.0146286
656.076	0.0145022
656.155	0.0146263
656.233	0.0145246
656.311	0.0144196
656.389	0.0144112
656.467	0.0143652
656.545	0.0144534
656.623	0.0144260
656.701	0.0144823
656.780	0.0143240
656.858	0.0144225
656.936	0.0145807
657.014	0.0144392
657.092	0.0143634
657.170	0.0144138
657.248	0.0144592
657.326	0.0145767
657.405	0.0146518
657.483	0.0146703
657.561	0.0146372
657.639	0.0146652
657.717	0.0147391
657.795	0.0147409
657.873	0.0146689
657.951	0.0145876
658.030	0.0145319
658.108	0.0146277
658.186	0.0146225
658.264	0.0145623
658.342	0.0146468
658.420	0.0145650
658.498	0.0144562
658.576	0.0143972
658.655	0.0143542
658.733	0.0144350
658.811	0.0143337
658.889	0.0143666
658.967	0.0142879
659.045	0.0142945
659.123	0.0143678
659.201	0.0144347
659.280	0.0144386
659.358	0.0144122
659.436	0.0144162
659.514	0.0144022
659.592	0.0143248
659.670	0.0144658
659.748	0.0144733
659.826	0.0145009
659.905	0.0145613
659.983	0.0144881
660.061	0.0145625
660.139	0.0143717
660.217	0.0144594
660.295	0.0145097
660.373	0.0144686
660.451	0.0145978
660.530	0.0144099
660.608	0.0145335
660.686	0.0144581
660.764	0.0144958
660.842	0.0144676
660.920	0.0145337
660.998	0.0144465
661.076	0.0143075
661.155	0.0141477
661.233	0.0142863
661.311	0.0142213
661.389	0.0140870
661.467	0.0142256
661.545	0.0142188
661.623	0.0142530
661.701	0.0142800
661.780	0.0141779
661.858	0.0141779
661.936	0.0141678
662.014	0.0142037
662.092	0.0141815
662.170	0.0142682
662.248	0.0143772
662.326	0.0142294
662.405	0.0143217
662.483	0.0142606
662.561	0.0142657
662.639	0.0143475
662.717	0.0142953
662.795	0.0143369
662.873	0.0144366
662.951	0.0145102
663.030	0.0145328
663.108	0.0145612
663.186	0.0145483
663.264	0.0146266
663.342	0.0146408
663.420	0.0146808
663.498	0.0146519
663.576	0.0145967
663.655	0.0145107
663.733	0.0146810
663.811	0.0146938
663.889	0.0146624
663.967	0.0147343
664.045	0.0147043
664.123	0.0148188
664.201	0.0148077
664.280	0.0149771
664.358	0.0149673
664.436	0.0149761
664.514	0.0150208
664.592	0.0149295
664.670	0.0150546
664.748	0.0151035
664.826	0.0151291
664.905	0.0150599
664.983	0.0152505
665.061	0.0151894
665.139	0.0151176
665.217	0.0150716
665.295	0.0149380
665.373	0.0148820
665.451	0.0151366
665.530	0.0149841
665.608	0.0148209
665.686	0.0148917
665.764	0.0148006
665.842	0.0146944
665.920	0.0145231
665.998	0.0146276
666.076	0.0144844
666.155	0.0145531
666.233	0.0144107
666.311	0.0141525
666.389	0.0140775
666.467	0.0140079
666.545	0.0140166
666.623	0.0139696
666.701	0.0138237
666.780	0.0139767
666.858	0.0138867
666.936	0.0136936
667.014	0.0137831
667.092	0.0139608
667.170	0.0139337
667.248	0.0138729
667.326	0.0139697
667.405	0.0140261
667.483	0.0140773
667.561	0.0141276
667.639	0.0141857
667.717	0.0143113
667.795	0.0142969
667.873	0.0144141
667.951	0.0146524
668.030	0.0148163
668.108	0.0149837
668.186	0.0150179
668.264	0.0150283
668.342	0.0151089
668.420	0.0151014
668.498	0.0152940
668.576	0.0153490
668.655	0.0153004
668.733	0.0153748
668.811	0.0153615
668.889	0.0153662
668.967	0.0152106
669.045	0.0151926
669.123	0.0152464
669.201	0.0152517
669.280	0.0152145
669.358	0.0150845
669.436	0.0150935
669.514	0.0150898
669.592	0.0152319
669.670	0.0151553
669.748	0.0150446
669.826	0.0150525
669.905	0.0150559
669.983	0.0148144
670.061	0.0148205
670.139	0.0147915
670.217	0.0145579
670.295	0.0144582
670.373	0.0144423
670.451	0.0144792
670.530	0.0143731
670.608	0.0142209
670.686	0.0140908
670.764	0.0140539
670.842	0.0142307
670.920	0.0140359
670.998	0.0140577
671.076	0.0139957
671.155	0.0140266
671.233	0.0139792
671.311	0.0138756
671.389	0.0138704
671.467	0.0136810
671.545	0.0138116
671.623	0.0138574
671.701	0.0138133
671.780	0.0136844
671.858	0.0136330
671.936	0.0137589
672.014	0.0137195
672.092	0.0137235
672.170	0.0138358
672.248	0.0138868
672.326	0.0139212
672.405	0.0140086
672.483	0.0141247
672.561	0.0141333
672.639	0.0142072
672.717	0.0142876
672.795	0.0143546
672.873	0.0144244
672.951	0.0147076
673.030	0.0148066
673.108	0.0150318
673.186	0.0147961
673.264	0.0148873
673.342	0.0151904
673.420	0.0151429
673.498	0.0152924
673.576	0.0153468
673.655	0.0154123
673.733	0.0155431
673.811	0.0155516
673.889	0.0156454
673.967	0.0157970
674.045	0.0158688
674.123	0.0158634
674.201	0.0158109
674.280	0.0157090
674.358	0.0156561
674.436	0.0155771
674.514	0.0158241
674.592	0.0158162
674.670	0.0156532
674.748	0.0154468
674.826	0.0154716
674.905	0.0151914
674.983	0.0149972
675.061	0.0149403
675.139	0.0148254
675.217	0.0147048
675.295	0.0147728
675.373	0.0146059
675.451	0.0142954
675.530	0.0141663
675.608	0.0138532
675.686	0.0138528
675.764	0.0138126
675.842	0.0136208
675.920	0.0135423
675.998	0.0132731
676.076	0.0133524
676.155	0.0132018
676.233	0.0131354
676.311	0.0132624
676.389	0.0131770
676.467	0.0131362
676.545	0.0131152
676.623	0.0131756
676.701	0.0132621
676.780	0.0133624
676.858	0.0135411
676.936	0.0136182
677.014	0.0136727
677.092	0.0139896
677.170	0.0139275
677.248	0.0142126
677.326	0.0144562
677.405	0.0144520
677.483	0.0146840
677.561	0.0147174
677.639	0.0150497
677.717	0.0150190
677.795	0.0150742
677.873	0.0152766
677.951	0.0152459
678.030	0.0152098
678.108	0.0150905
678.186	0.0153094
678.264	0.0153373
678.342	0.0153147
678.420	0.0152188
678.498	0.0152400
678.576	0.0153161
678.655	0.0151252
678.733	0.0150227
678.811	0.0151398
678.889	0.0150095
678.967	0.0150183
679.045	0.0151067
679.123	0.0149232
679.201	0.0149890
679.280	0.0148183
679.358	0.0148569
679.436	0.0147449
679.514	0.0145547
679.592	0.0144467
679.670	0.0144518
679.748	0.0143848
679.826	0.0142178
679.905	0.0141990
679.983	0.0143623
680.061	0.0143047
680.139	0.0141664
680.217	0.0142957
680.295	0.0142553
680.373	0.0142677
680.451	0.0141406
680.530	0.0143132
680.608	0.0143084
680.686	0.0143344
680.764	0.0144983
680.842	0.0143681
680.920	0.0145053
680.998	0.0145237
681.076	0.0145406
681.155	0.0145973
681.233	0.0144466
681.311	0.0146983
681.389	0.0145566
681.467	0.0145718
681.545	0.0146190
681.623	0.0144491
681.701	0.0144506
681.780	0.0146283
681.858	0.0144563
681.936	0.0143374
682.014	0.0143623
682.092	0.0143736
682.170	0.0143134
682.248	0.0142889
682.326	0.0143404
682.405	0.0142828
682.483	0.0142808
682.561	0.0142207
682.639	0.0141801
682.717	0.0141750
682.795	0.0142905
682.873	0.0141771
682.951	0.0142313
683.030	0.0142422
683.108	0.0141801
683.186	0.0141926
683.264	0.0141646
683.342	0.0142924
683.420	0.0143700
683.498	0.0145547
683.576	0.0144570
683.655	0.0143463
683.733	0.0145814
683.811	0.0145773
683.889	0.0145848
683.967	0.0146588
684.045	0.0146046
684.123	0.0146568
684.201	0.0148210
684.280	0.0148232
684.358	0.0149747
684.436	0.0148639
684.514	0.0148154
684.592	0.0147903
684.670	0.0149756
684.748	0.0149992
684.826	0.0149405
684.905	0.0150526
684.983	0.0149963
685.061	0.0150923
685.139	0.0150595
685.217	0.0150820
685.295	0.0150737
685.373	0.0151833
685.451	0.0152898
685.530	0.0151569
685.608	0.0151982
685.686	0.0151596
685.764	0.0148987
685.842	0.0149395
685.920	0.0149837
685.998	0.0148075
686.076	0.0147425
686.155	0.0147613
686.233	0.0147522
686.311	0.0146452
686.389	0.0145815
686.467	0.0146324
686.545	0.0145123
686.623	0.0143678
686.701	0.0143524
686.780	0.0142423
686.858	0.0141707
686.936	0.0141742
687.014	0.0140086
687.092	0.0138964
687.170	0.0140424
687.248	0.0139018
687.326	0.0140952
687.405	0.0140102
687.483	0.0140418
687.561	0.0140926
687.639	0.0141114
687.717	0.0143330
687.795	0.0143339
687.873	0.0142936
687.951	0.0143918
688.030	0.0144650
688.108	0.0144225
688.186	0.0144154
688.264	0.0144794
688.342	0.0145202
688.420	0.0144349
688.498	0.0145515
688.576	0.0146147
688.655	0.0145701
688.733	0.0146128
688.811	0.0145547
688.889	0.0146835
688.967	0.0145267
689.045	0.0145412
689.123	0.0145652
689.201	0.0145897
689.280	0.0146237
689.358	0.0144995
689.436	0.0144732
689.514	0.0142723
689.592	0.0143745
689.670	0.0144011
689.748	0.0141847
689.826	0.0142107
689.905	0.0141285
689.983	0.0141736
690.061	0.0142683
690.139	0.0140449
690.217	0.0141654
690.295	0.0141341
690.373	0.0142547
690.451	0.0142010
690.530	0.0142989
690.608	0.0143078
690.686	0.0144211
690.764	0.0144081
690.842	0.0144968
690.920	0.0145472
690.998	0.0146196
691.076	0.0147206
691.155	0.0148749
691.233	0.0150970
691.311	0.0150318
691.389	0.0151795
691.467	0.0151842
691.545	0.0153799
691.623	0.0153563
691.701	0.0152706
691.780	0.0154764
691.858	0.0153452
691.936	0.0154665
692.014	0.0153930
692.092	0.0154988
692.170	0.0153914
692.248	0.0153295
692.326	0.0153770
692.405	0.0152573
692.483	0.0152399
692.561	0.0154469
692.639	0.0152950
692.717	0.0151531
692.795	0.0150205
692.873	0.0148004
692.951	0.0149008
693.030	0.0146015
693.108	0.0144814
693.186	0.0144141
693.264	0.0143996
693.342	0.0141344
693.420	0.0140688
693.498	0.0139522
693.576	0.0140022
693.655	0.0138922
693.733	0.0138724
693.811	0.0138293
693.889	0.0137074
693.967	0.0137151
694.045	0.0137333
694.123	0.0135995
694.201	0.0137670
694.280	0.0138298
694.358	0.0137514
694.436	0.0137099
694.514	0.0137985
694.592	0.0137408
694.670	0.0139137
694.748	0.0138543
694.826	0.0139701
694.905	0.0139083
694.983	0.0138901
695.061	0.0139910
695.139	0.0140205
695.217	0.0139165
695.295	0.0141442
695.373	0.0141812
695.451	0.0142088
695.530	0.0142480
695.608	0.0143053
695.686	0.0146235
695.764	0.0147041
695.842	0.0147765
695.920	0.0148159
695.998	0.0148351
696.076	0.0149857
696.155	0.0149210
696.233	0.0150311
696.311	0.0150879
696.389	0.0149219
696.467	0.0152270
696.545	0.0151962
696.623	0.0150999
696.701	0.0151665
696.780	0.0151588
696.858	0.0152596
696.936	0.0151782
697.014	0.0153552
697.092	0.0153179
697.170	0.0152927
697.248	0.0154237
697.326	0.0155175
697.405	0.0154092
697.483	0.0153777
697.561	0.0153193
697.639	0.0154552
697.717	0.0155901
697.795	0.0153997
697.873	0.0153896
697.951	0.0152216
698.030	0.0152646
698.108	0.0152354
698.186	0.0151916
698.264	0.0149831
698.342	0.0149168
698.420	0.0148254
698.498	0.0146230
698.576	0.0145173
698.655	0.0145888
698.733	0.0143710
698.811	0.0141221
698.889	0.0140971
698.967	0.0138895
699.045	0.0137730
699.123	0.0137438
699.201	0.0136129
699.280	0.0137057
699.358	0.0137629
699.436	0.0137818
699.514	0.0136775
699.592	0.0136942
699.670	0.0138551
699.748	0.0139604
699.826	0.0139512
699.905	0.0139366
699.983	0.0140142
700.061	0.0141698
700.139	0.0141447
700.217	0.0142883
700.295	0.0145635
700.373	0.0143491
700.451	0.0144592
700.530	0.0144230
700.608	0.0143672
700.686	0.0144196
700.764	0.0143700
700.842	0.0146534
700.920	0.0144647
700.998	0.0144414
701.076	0.0145219
701.155	0.0145503
701.233	0.0144617
701.311	0.0144791
701.389	0.0144427
701.467	0.0145216
701.545	0.0145138
701.623	0.0144781
701.701	0.0145278
701.780	0.0147077
701.858	0.0146581
701.936	0.0146757
702.014	0.0146645
702.092	0.0148513
702.170	0.0148433
702.248	0.0149220
702.326	0.0148983
702.405	0.0149352
702.483	0.0150298
702.561	0.0150414
702.639	0.0149749
702.717	0.0151783
702.795	0.0152312
702.873	0.0151538
702.951	0.0149822
703.030	0.0151649
703.108	0.0152351
703.186	0.0151835
703.264	0.0151546
703.342	0.0150386
703.420	0.0149536
703.498	0.0149972
703.576	0.0148492
703.655	0.0146635
703.733	0.0147012
703.811	0.0146400
703.889	0.0143221
703.967	0.0142519
704.045	0.0140623
704.123	0.0141134
704.201	0.0140833
704.280	0.0139637
704.358	0.0138958
704.436	0.0139482
704.514	0.0138284
704.592	0.0138866
704.670	0.0137676
704.748	0.0138373
704.826	0.0138869
704.905	0.0139886
704.983	0.0138112
705.061	0.0138123
705.139	0.0140033
705.217	0.0139812
705.295	0.0141267
705.373	0.0141576
705.451	0.0141601
705.530	0.0141902
705.608	0.0142235
705.686	0.0145742
705.764	0.0144717
705.842	0.0145336
705.920	0.0145547
705.998	0.0145650
706.076	0.0147363
706.155	0.0146869
706.233	0.0147298
706.311	0.0147578
706.389	0.0147602
706.467	0.0148267
706.545	0.0149075
706.623	0.0148505
706.701	0.0147221
706.780	0.0147844
706.858	0.0148421
706.936	0.0146736
707.014	0.0147897
707.092	0.0148136
707.170	0.0145705
707.248	0.0145785
707.326	0.0147336
707.405	0.0146710
707.483	0.0145693
707.561	0.0145717
707.639	0.0146742
707.717	0.0146422
707.795	0.0147215
707.873	0.0146590
707.951	0.0146568
708.030	0.0147197
708.108	0.0148141
708.186	0.0147687
708.264	0.0147624
708.342	0.0148977
708.420	0.0147874
708.498	0.0150497
708.576	0.0149712
708.655	0.0148512
708.733	0.0149193
708.811	0.0151311
708.889	0.0149262
708.967	0.0150176
709.045	0.0148650
709.123	0.0150372
709.201	0.0149583
709.280	0.0149551
709.358	0.0149056
709.436	0.0149096
709.514	0.0149340
709.592	0.0150816
709.670	0.0148845
709.748	0.0147569
709.826	0.0148310
709.905	0.0147687
709.983	0.0146260
710.061	0.0147070
710.139	0.0145715
710.217	0.0145289
710.295	0.0145561
710.373	0.0143673
710.451	0.0142610
710.530	0.0143124
710.608	0.0142477
710.686	0.0140800
710.764	0.0140571
710.842	0.0141624
710.920	0.0139691
710.998	0.0140667
711.076	0.0139922
711.155	0.0140080
711.233	0.0139757
711.311	0.0139536
711.389	0.0141318
711.467	0.0139439
711.545	0.0140230
711.623	0.0139566
711.701	0.0139142
711.780	0.0140014
711.858	0.0140339
711.936	0.0141529
712.014	0.0140131
712.092	0.0141513
712.170	0.0143041
712.248	0.0143893
712.326	0.0144413
712.405	0.0144600
712.483	0.0144160
712.561	0.0145898
712.639	0.0146638
712.717	0.0145866
712.795	0.0147202
712.873	0.0146497
712.951	0.0148603
713.030	0.0149786
713.108	0.0148075
713.186	0.0150671
713.264	0.0150635
713.342	0.0151910
713.420	0.0152191
713.498	0.0152203
713.576	0.0152543
713.655	0.0152263
713.733	0.0152122
713.811	0.0150726
713.889	0.0151927
713.967	0.0151108
714.045	0.0150674
714.123	0.0150022
714.201	0.0148054
714.280	0.0148814
714.358	0.0147203
714.436	0.0145951
714.514	0.0146289
714.592	0.0144889
714.670	0.0143764
714.748	0.0144740
714.826	0.0145435
714.905	0.0143359
714.983	0.0142821
715.061	0.0143698
715.139	0.0143421
715.217	0.0143238
715.295	0.0143909
715.373	0.0143421
715.451	0.0142668
715.530	0.0142616
715.608	0.0141864
715.686	0.0141050
715.764	0.0142015
715.842	0.0141956
715.920	0.0142047
715.998	0.0141497
716.076	0.0141689
716.155	0.0142271
716.233	0.0141452
716.311	0.0141475
716.389	0.0142384
716.467	0.0143697
716.545	0.0143225
716.623	0.0143233
716.701	0.0143533
716.780	0.0141967
716.858	0.0141865
716.936	0.0144189
717.014	0.0143308
717.092	0.0140871
717.170	0.0143082
717.248	0.0143150
717.326	0.0143246
717.405	0.0144315
717.483	0.0143645
717.561	0.0143027
717.639	0.0143295
717.717	0.0143865
717.795	0.0145111
717.873	0.0144987
717.951	0.0143969
718.030	0.0146199
718.108	0.0146490
718.186	0.0145512
718.264	0.0146655
718.342	0.0147295
718.420	0.0148229
718.498	0.0148627
718.576	0.0146628
718.655	0.0147919
718.733	0.0148267
718.811	0.0147361
718.889	0.0148587
718.967	0.0149177
719.045	0.0148232
719.123	0.0149242
719.201	0.0152203
719.280	0.0151855
719.358	0.0151172
719.436	0.0152669
719.514	0.0152516
719.592	0.0151688
719.670	0.0153159
719.748	0.0153169
719.826	0.0153471
719.905	0.0151706
719.983	0.0150734
720.061	0.0149062
720.139	0.0149366
720.217	0.0149178
720.295	0.0147910
720.373	0.0147037
720.451	0.0146296
720.530	0.0144472
720.608	0.0142767
720.686	0.0142817
720.764	0.0141077
720.842	0.0140709
720.920	0.0140182
720.998	0.0138895
721.076	0.0137157
721.155	0.0136760
721.233	0.0135516
721.311	0.0135422
721.389	0.0136274
721.467	0.0136189
721.545	0.0134861
721.623	0.0134437
721.701	0.0135423
721.780	0.0134318
721.858	0.0135601
721.936	0.0136259
722.014	0.0135768
722.092	0.0137329
722.170	0.0138818
722.248	0.0139278
722.326	0.0140451
722.405	0.0142013
722.483	0.0143046
722.561	0.0144964
722.639	0.0145193
722.717	0.0146428
722.795	0.0147987
722.873	0.0149233
722.951	0.0149869
723.030	0.0151634
723.108	0.0151329
723.186	0.0152313
723.264	0.0151817
723.342	0.0153490
723.420	0.0154398
723.498	0.0155106
723.576	0.0153171
723.655	0.0154706
723.733	0.0154599
723.811	0.0154121
723.889	0.0153650
723.967	0.0153652
724.045	0.0152848
724.123	0.0151679
724.201	0.0150495
724.280	0.0150227
724.358	0.0148782
724.436	0.0149166
724.514	0.0148112
724.592	0.0145647
724.670	0.0144868
724.748	0.0145324
724.826	0.0144249
724.905	0.0143597
724.983	0.0143493
725.061	0.0142123
725.139	0.0144225
725.217	0.0140797
725.295	0.0141409
725.373	0.0141841
725.451	0.0143099
725.530	0.0141940
725.608	0.0143504
725.686	0.0146680
725.764	0.0145969
725.842	0.0146907
725.920	0.0146519
725.998	0.0149303
726.076	0.0148934
726.155	0.0149995
726.233	0.0149446
726.311	0.0150375
726.389	0.0150446
726.467	0.0150655
726.545	0.0150060
726.623	0.0149707
726.701	0.0148764
726.780	0.0148779
726.858	0.0147321
726.936	0.0146169
727.014	0.0147392
727.092	0.0146842
727.170	0.0146155
727.248	0.0145116
727.326	0.0144300
727.405	0.0144967
727.483	0.0144816
727.561	0.0144319
727.639	0.0143156
727.717	0.0142889
727.795	0.0143773
727.873	0.0143063
727.951	0.0142334
728.030	0.0142167
728.108	0.0143664
728.186	0.0143586
728.264	0.0142391
728.342	0.0141243
728.420	0.0141380
728.498	0.0143047
728.576	0.0143268
728.655	0.0142918
728.733	0.0143010
728.811	0.0144125
728.889	0.0144015
728.967	0.0143557
729.045	0.0143707
729.123	0.0145965
729.201	0.0145900
729.280	0.0145747
729.358	0.0144672
729.436	0.0148964
729.514	0.0148622
729.592	0.0148037
729.670	0.0150230
729.748	0.0151650
729.826	0.0151278
729.905	0.0150072
729.983	0.0151593
730.061	0.0151183
730.139	0.0150468
730.217	0.0152283
730.295	0.0151247
730.373	0.0150116
730.451	0.0150354
730.530	0.0149756
730.608	0.0149918
730.686	0.0148866
730.764	0.0146643
730.842	0.0145808
730.920	0.0146232
730.998	0.0144726
731.076	0.0143495
731.155	0.0143964
731.233	0.0143929
731.311	0.0141786
731.389	0.0141061
731.467	0.0141756
731.545	0.0141235
731.623	0.0141776
731.701	0.0142071
731.780	0.0142068
731.858	0.0141742
731.936	0.0142107
732.014	0.0141720
732.092	0.0141682
732.170	0.0142971
732.248	0.0143807
732.326	0.0142683
732.405	0.0143096
732.483	0.0142896
732.561	0.0142735
732.639	0.0142004
732.717	0.0142365
732.795	0.0143508
732.873	0.0143584
732.951	0.0142944
733.030	0.0141377
733.108	0.0142254
733.186	0.0143163
733.264	0.0142081
733.342	0.0144204
733.420	0.0143990
733.498	0.0143228
733.576	0.0143236
733.655	0.0144649
733.733	0.0145348
733.811	0.0145342
733.889	0.0144328
733.967	0.0145676
734.045	0.0145306
734.123	0.0146059
734.201	0.0146351
734.280	0.0146599
734.358	0.0147034
734.436	0.0146401
734.514	0.0147242
734.592	0.0147163
734.670	0.0146643
734.748	0.0147405
734.826	0.0147129
734.905	0.0145892
734.983	0.0146793
735.061	0.0145230
735.139	0.0146133
735.217	0.0145271
735.295	0.0144979
735.373	0.0145232
735.451	0.0145489
735.530	0.0145988
735.608	0.0146045
735.686	0.0144559
735.764	0.0144800
735.842	0.0147070
735.920	0.0145840
735.998	0.0146738
736.076	0.0146741
736.155	0.0147219
736.233	0.0146343
736.311	0.0146368
736.389	0.0147511
736.467	0.0147600
736.545	0.0147103
736.623	0.0146408
736.701	0.0146719
736.780	0.0146391
736.858	0.0146769
736.936	0.0146384
737.014	0.0146223
737.092	0.0145206
737.170	0.0144670
737.248	0.0145411
737.326	0.0146436
737.405	0.0144897
737.483	0.0145128
737.561	0.0147151
737.639	0.0146382
737.717	0.0147161
737.795	0.0147828
737.873	0.0147840
737.951	0.0147833
738.030	0.0148320
738.108	0.0148716
738.186	0.0147492
738.264	0.0148292
738.342	0.0148747
738.420	0.0148807
738.498	0.0147786
738.576	0.0146835
738.655	0.0147055
738.733	0.0147434
738.811	0.0146145
738.889	0.0144882
738.967	0.0145483
739.045	0.0143797
739.123	0.0143546
739.201	0.0142783
739.280	0.0141711
739.358	0.0142154
739.436	0.0143681
739.514	0.0142445
739.592	0.0141524
739.670	0.0140935
739.748	0.0141318
739.826	0.0142565
739.905	0.0142511
739.983	0.0140911
740.061	0.0140335
740.139	0.0140482
740.217	0.0141581
740.295	0.0142883
740.373	0.0140945
740.451	0.0141226
740.530	0.0140896
740.608	0.0142391
740.686	0.0140571
740.764	0.0141686
740.842	0.0141732
740.920	0.0142168
740.998	0.0142512
741.076	0.0144136
741.155	0.0143445
741.233	0.0143642
741.311	0.0145414
741.389	0.0144865
741.467	0.0145647
741.545	0.0147220
741.623	0.0145701
741.701	0.0146967
741.780	0.0146938
741.858	0.0147604
741.936	0.0149368
742.014	0.0148347
742.092	0.0149302
742.170	0.0150009
742.248	0.0149285
742.326	0.0149236
742.405	0.0148960
742.483	0.0149429
742.561	0.0149599
742.639	0.0149825
742.717	0.0148944
742.795	0.0147823
742.873	0.0148643
742.951	0.0147460
743.030	0.0146688
743.108	0.0145852
743.186	0.0145650
743.264	0.0145571
743.342	0.0144139
743.420	0.0143896
743.498	0.0142807
743.576	0.0142736
743.655	0.0142532
743.733	0.0141967
743.811	0.0141370
743.889	0.0142787
743.967	0.0142480
744.045	0.0141802
744.123	0.0141690
744.201	0.0140868
744.280	0.0140844
744.358	0.0141474
744.436	0.0140524
744.514	0.0140907
744.592	0.0140916
744.670	0.0141174
744.748	0.0141261
744.826	0.0141976
744.905	0.0144366
744.983	0.0143107
745.061	0.0142422
745.139	0.0143790
745.217	0.0145254
745.295	0.0145927
745.373	0.0145819
745.451	0.0147174
745.530	0.0145309
745.608	0.0145583
745.686	0.0147599
745.764	0.0147881
745.842	0.0147815
745.920	0.0146682
745.998	0.0148104
746.076	0.0147742
746.155	0.0147361
746.233	0.0147141
746.311	0.0147716
746.389	0.0147725
746.467	0.0144759
746.545	0.0143484
746.623	0.0144089
746.701	0.0144418
746.780	0.0143900
746.858	0.0142685
746.936	0.0142351
747.014	0.0142957
747.092	0.0143145
747.170	0.0141047
747.248	0.0142107
747.326	0.0144208
747.405	0.0144088
747.483	0.0143801
747.561	0.0144128
747.639	0.0144801
747.717	0.0145753
747.795	0.0145709
747.873	0.0144810
747.951	0.0146899
748.030	0.0146299
748.108	0.0146005
748.186	0.0147990
748.264	0.0147632
748.342	0.0148348
748.420	0.0146275
748.498	0.0147852
748.576	0.0147976
748.655	0.0148611
748.733	0.0148151
748.811	0.0148466
748.889	0.0148083
748.967	0.0149529
749.045	0.0149889
749.123	0.0148900
749.201	0.0148171
749.280	0.0148905
749.358	0.0148200
749.436	0.0148621
749.514	0.0149146
749.592	0.0149632
749.670	0.0148504
749.748	0.0149133
749.826	0.0148432
749.905	0.0148741
749.983	0.0147729
750.061	0.0147680
750.139	0.0147398
750.217	0.0145716
750.295	0.0145364
750.373	0.0144659
750.451	0.0145726
750.530	0.0145639
750.608	0.0145621
750.686	0.0146539
750.764	0.0144334
750.842	0.0144739
750.920	0.0146115
750.998	0.0145486
751.076	0.0145242
751.155	0.0145548
751.233	0.0145032
751.311	0.0145502
751.389	0.0146033
751.467	0.0144460
751.545	0.0143732
751.623	0.0144465
751.701	0.0145158
751.780	0.0143395
751.858	0.0142470
751.936	0.0143332
752.014	0.0141919
752.092	0.0141193
752.170	0.0142475
752.248	0.0142354
752.326	0.0142361
752.405	0.0142072
752.483	0.0143810
752.561	0.0143121
752.639	0.0142829
752.717	0.0142963
752.795	0.0143919
752.873	0.0143522
752.951	0.0145499
753.030	0.0146507
753.108	0.0144930
753.186	0.0146702
753.264	0.0148331
753.342	0.0149660
753.420	0.0150188
753.498	0.0150222
753.576	0.0149857
753.655	0.0150668
753.733	0.0149825
753.811	0.0151933
753.889	0.0151277
753.967	0.0150277
754.045	0.0150139
754.123	0.0150279
754.201	0.0149202
754.280	0.0148410
754.358	0.0146997
754.436	0.0146060
754.514	0.0145910
754.592	0.0146792
754.670	0.0144723
754.748	0.0142621
754.826	0.0141895
754.905	0.0143722
754.983	0.0142519
755.061	0.0142823
755.139	0.0142374
755.217	0.0142059
755.295	0.0142027
755.373	0.0143197
755.451	0.0142831
755.530	0.0143703
755.608	0.0142068
755.686	0.0144523
755.764	0.0144581
755.842	0.0145306
755.920	0.0144947
755.998	0.0145722
756.076	0.0145225
756.155	0.0146291
756.233	0.0145375
756.311	0.0146224
756.389	0.0145284
756.467	0.0145174
756.545	0.0145682
756.623	0.0147308
756.701	0.0146006
756.780	0.0145859
756.858	0.0145664
756.936	0.0144819
757.014	0.0144307
757.092	0.0145756
757.170	0.0146378
757.248	0.0146183
757.326	0.0145921
757.405	0.0145438
757.483	0.0145229
757.561	0.0144212
757.639	0.0144822
757.717	0.0143423
757.795	0.0145669
757.873	0.0144585
757.951	0.0145532
758.030	0.0143105
758.108	0.0143456
758.186	0.0144639
758.264	0.0143994
758.342	0.0144621
758.420	0.0144549
758.498	0.0145969
758.576	0.0144678
758.655	0.0144278
758.733	0.0145026
758.811	0.0144508
758.889	0.0145284
758.967	0.0146064
759.045	0.0145847
759.123	0.0145957
759.201	0.0145947
759.280	0.0146317
759.358	0.0146550
759.436	0.0145770
759.514	0.0145713
759.592	0.0147331
759.670	0.0145648
759.748	0.0144794
759.826	0.0146740
759.905	0.0146183
759.983	0.0145733
760.061	0.0145692
760.139	0.0145389
760.217	0.0144733
760.295	0.0146522
760.373	0.0146234
760.451	0.0146614
760.530	0.0147649
760.608	0.0147246
760.686	0.0147272
760.764	0.0146752
760.842	0.0146137
760.920	0.0146280
760.998	0.0147568
761.076	0.0147975
761.155	0.0146904
761.233	0.0147982
761.311	0.0148135
761.389	0.0147044
761.467	0.0145427
761.545	0.0146175
761.623	0.0146339
761.701	0.0145274
761.780	0.0146632
761.858	0.0145309
761.936	0.0145725
762.014	0.0145511
762.092	0.0144857
762.170	0.0144189
762.248	0.0145549
762.326	0.0145101
762.405	0.0144505
762.483	0.0144878
762.561	0.0145405
762.639	0.0143337
762.717	0.0143928
762.795	0.0144958
762.873	0.0144037
762.951	0.0143739
763.030	0.0144925
763.108	0.0143596
763.186	0.0143832
763.264	0.0145164
763.342	0.0145173
763.420	0.0144989
763.498	0.0145816
763.576	0.0144649
763.655	0.0144247
763.733	0.0144503
763.811	0.0143867
763.889	0.0145468
763.967	0.0144697
764.045	0.0143927
764.123	0.0143980
764.201	0.0144395
764.280	0.0144131
764.358	0.0144524
764.436	0.0143590
764.514	0.0142381
764.592	0.0143500
764.670	0.0144237
764.748	0.0143287
764.826	0.0142520
764.905	0.0143153
764.983	0.0143060
765.061	0.0142640
765.139	0.0142887
765.217	0.0143790
765.295	0.0142702
765.373	0.0143046
765.451	0.0143385
765.530	0.0142800
765.608	0.0143477
765.686	0.0143870
765.764	0.0145318
765.842	0.0143979
765.920	0.0143806
765.998	0.0146274
766.076	0.0145988
766.155	0.0146353
766.233	0.0146313
766.311	0.0148402
766.389	0.0147543
766.467	0.0147541
766.545	0.0147730
766.623	0.0149492
766.701	0.0147141
766.780	0.0147585
766.858	0.0147478
766.936	0.0146989
767.014	0.0147668
767.092	0.0147681
767.170	0.0146761
767.248	0.0146056
767.326	0.0145145
767.405	0.0144640
767.483	0.0145560
767.561	0.0145486
767.639	0.0145766
767.717	0.0144782
767.795	0.0144234
767.873	0.0145480
767.951	0.0144593
768.030	0.0144524
768.108	0.0144585
768.186	0.0145778
768.264	0.0145911
768.342	0.0145758
768.420	0.0145770
768.498	0.0147414
768.576	0.0147209
768.655	0.0145692
768.733	0.0147985
768.811	0.0146959
768.889	0.0146704
768.967	0.0147766
769.045	0.0146622
769.123	0.0146180
769.201	0.0146770
769.280	0.0146865
769.358	0.0146420
769.436	0.0146454
769.514	0.0147520
769.592	0.0148055
769.670	0.0147454
769.748	0.0147352
769.826	0.0146411
769.905	0.0145961
769.983	0.0147656
770.061	0.0146774
770.139	0.0145456
770.217	0.0146638
770.295	0.0146225
770.373	0.0144793
770.451	0.0145982
770.530	0.0144926
770.608	0.0144484
770.686	0.0144557
770.764	0.0143948
770.842	0.0142981
770.920	0.0141825
770.998	0.0142942
771.076	0.0143087
771.155	0.0143776
771.233	0.0143369
771.311	0.0143629
771.389	0.0143394
771.467	0.0142650
771.545	0.0143847
771.623	0.0143369
771.701	0.0143508
771.780	0.0142979
771.858	0.0142842
771.936	0.0142786
772.014	0.0142841
772.092	0.0143399
772.170	0.0143621
772.248	0.0144195
772.326	0.0144320
772.405	0.0143750
772.483	0.0144687
772.561	0.0144587
772.639	0.0144942
772.717	0.0143724
772.795	0.0143564
772.873	0.0144907
772.951	0.0144017
773.030	0.0144987
773.108	0.0144330
773.186	0.0142685
773.264	0.0143624
773.342	0.0143790
773.420	0.0143022
773.498	0.0144238
773.576	0.0142972
773.655	0.0142506
773.733	0.0144872
773.811	0.0143871
773.889	0.0145206
773.967	0.0144354
774.045	0.0145340
774.123	0.0145075
774.201	0.0145515
774.280	0.0144171
774.358	0.0145754
774.436	0.0145162
774.514	0.0145779
774.592	0.0147401
774.670	0.0145651
774.748	0.0145899
774.826	0.0147599
774.905	0.0145744
774.983	0.0146334
775.061	0.0145253
775.139	0.0144647
775.217	0.0145670
775.295	0.0145532
775.373	0.0146139
775.451	0.0145762
775.530	0.0143944
775.608	0.0147134
775.686	0.0145942
775.764	0.0145464
775.842	0.0145917
775.920	0.0146033
775.998	0.0144626
776.076	0.0146657
776.155	0.0147478
776.233	0.0146922
776.311	0.0144460
776.389	0.0146432
776.467	0.0148289
776.545	0.0146654
776.623	0.0146284
776.701	0.0146878
776.780	0.0147070
776.858	0.0147621
776.936	0.0147798
777.014	0.0148328
777.092	0.0146546
777.170	0.0145863
777.248	0.0147483
777.326	0.0147977
777.405	0.0147116
777.483	0.0146564
777.561	0.0147967
777.639	0.0147753
777.717	0.0145990
777.795	0.0147644
777.873	0.0146606
777.951	0.0146618
778.030	0.0147923
778.108	0.0147208
778.186	0.0145633
778.264	0.0147289
778.342	0.0146255
778.420	0.0146626
778.498	0.0146561
778.576	0.0146769
778.655	0.0147167
778.733	0.0146932
778.811	0.0145989
778.889	0.0146295
778.967	0.0146806
779.045	0.0145963
779.123	0.0147744
779.201	0.0146175
779.280	0.0146598
779.358	0.0146292
779.436	0.0147828
779.514	0.0147444
779.592	0.0147367
779.670	0.0146340
779.748	0.0147105
779.826	0.0146365
779.905	0.0145971
779.983	0.0146198
780.061	0.0147327
780.139	0.0146264
780.217	0.0145582
780.295	0.0146400
780.373	0.0148151
780.451	0.0145928
780.530	0.0146275
780.608	0.0146306
780.686	0.0147707
780.764	0.0147408
780.842	0.0146802
780.920	0.0147507
780.998	0.0147838
781.076	0.0148552
781.155	0.0147665
781.233	0.0146792
781.311	0.0148391
781.389	0.0146641
781.467	0.0147900
781.545	0.0147513
781.623	0.0147709
781.701	0.0149146
781.780	0.0146169
781.858	0.0146595
781.936	0.0146084
782.014	0.0147001
782.092	0.0145769
782.170	0.0145242
782.248	0.0145918
782.326	0.0144160
782.405	0.0145120
782.483	0.0145963
782.561	0.0145136
782.639	0.0144422
782.717	0.0144553
782.795	0.0143501
782.873	0.0144653
782.951	0.0143433
783.030	0.0143680
783.108	0.0144051
783.186	0.0143565
783.264	0.0142377
783.342	0.0142953
783.420	0.0141257
783.498	0.0142411
783.576	0.0141683
783.655	0.0141834
783.733	0.0143698
783.811	0.0142374
783.889	0.0140799
783.967	0.0142888
784.045	0.0141491
784.123	0.0141637
784.201	0.0141431
784.280	0.0143069
784.358	0.0144427
784.436	0.0143700
784.514	0.0143002
784.592	0.0144121
784.670	0.0143351
784.748	0.0144964
784.826	0.0145388
784.905	0.0145570
784.983	0.0143931
785.061	0.0144443
785.139	0.0146591
785.217	0.0145172
785.295	0.0144337
785.373	0.0146649
785.451	0.0145390
785.530	0.0145808
785.608	0.0146661
785.686	0.0145614
785.764	0.0144953
785.842	0.0146420
785.920	0.0145174
785.998	0.0145414
786.076	0.0146492
786.155	0.0146540
786.233	0.0145114
786.311	0.0146136
786.389	0.0145631
786.467	0.0146733
786.545	0.0146854
786.623	0.0146976
786.701	0.0146622
786.780	0.0147208
786.858	0.0145341
786.936	0.0146664
787.014	0.0146992
787.092	0.0146359
787.170	0.0147051
787.248	0.0146910
787.326	0.0146826
787.405	0.0145753
787.483	0.0146912
787.561	0.0147997
787.639	0.0147131
787.717	0.0147675
787.795	0.0147453
787.873	0.0149075
787.951	0.0148071
788.030	0.0148679
788.108	0.0148378
788.186	0.0147860
788.264	0.0147842
788.342	0.0148480
788.420	0.0147629
788.498	0.0149497
788.576	0.0148624
788.655	0.0148903
788.733	0.0147582
788.811	0.0147265
788.889	0.0148651
788.967	0.0147036
789.045	0.0147211
789.123	0.0146947
789.201	0.0147651
789.280	0.0148074
789.358	0.0147327
789.436	0.0146391
789.514	0.0147654
789.592	0.0146596
789.670	0.0145553
789.748	0.0146709
789.826	0.0146809
789.905	0.0145407
789.983	0.0145193
790.061	0.0144102
790.139	0.0144193
790.217	0.0144023
790.295	0.0144404
790.373	0.0144525
790.451	0.0142992
790.530	0.0143573
790.608	0.0144584
790.686	0.0144100
790.764	0.0142988
790.842	0.0143362
790.920	0.0142670
790.998	0.0142411
791.076	0.0143065
791.155	0.0142719
791.233	0.0143343
791.311	0.0142942
791.389	0.0143789
791.467	0.0144326
791.545	0.0143633
791.623	0.0143034
791.701	0.0142775
791.780	0.0143546
791.858	0.0144276
791.936	0.0143125
792.014	0.0143749
792.092	0.0144924
792.170	0.0143905
792.248	0.0143377
792.326	0.0143945
792.405	0.0145693
792.483	0.0145243
792.561	0.0144302
792.639	0.0144646
792.717	0.0145056
792.795	0.0145474
792.873	0.0144993
792.951	0.0145097
793.030	0.0145214
793.108	0.0145929
793.186	0.0145384
793.264	0.0145118
793.342	0.0144527
793.420	0.0144698
793.498	0.0145619
793.576	0.0145141
793.655	0.0145250
793.733	0.0146206
793.811	0.0144743
793.889	0.0145043
793.967	0.0146561
794.045	0.0146402
794.123	0.0146912
794.201	0.0145581
794.280	0.0144969
794.358	0.0145657
794.436	0.0146458
794.514	0.0148092
794.592	0.0145517
794.670	0.0145583
794.748	0.0145285
794.826	0.0146587
794.905	0.0145737
794.983	0.0145532
795.061	0.0145124
795.139	0.0144756
795.217	0.0145875
795.295	0.0147021
795.373	0.0145200
795.451	0.0144690
795.530	0.0143611
795.608	0.0144519
795.686	0.0146018
795.764	0.0144626
795.842	0.0142647
795.920	0.0144218
795.998	0.0144408
796.076	0.0144426
796.155	0.0145098
796.233	0.0143430
796.311	0.0144872
796.389	0.0145485
796.467	0.0143805
796.545	0.0144590
796.623	0.0145742
796.701	0.0145101
796.780	0.0144002
796.858	0.0146404
796.936	0.0145741
797.014	0.0143949
797.092	0.0148093
797.170	0.0148386
797.248	0.0146966
797.326	0.0149116
797.405	0.0148198
797.483	0.0148009
797.561	0.0147353
797.639	0.0148417
797.717	0.0148043
797.795	0.0149770
797.873	0.0147507
797.951	0.0148221
798.030	0.0149470
798.108	0.0148677
798.186	0.0148887
798.264	0.0147279
798.342	0.0146856
798.420	0.0147888
798.498	0.0148836
798.576	0.0147419
798.655	0.0147576
798.733	0.0148900
798.811	0.0147566
798.889	0.0148616
798.967	0.0148053
799.045	0.0147909
799.123	0.0148200
799.201	0.0148054
799.280	0.0147141
799.358	0.0146983
799.436	0.0147869
799.514	0.0148035
799.592	0.0146282
799.670	0.0146282
799.748	0.0146169
799.826	0.0146339
799.905	0.0146444
799.983	0.0144755
800.061	0.0145234
800.139	0.0145876
800.217	0.0145157
800.295	0.0144043
800.373	0.0144308
800.451	0.0143278
800.530	0.0143912
800.608	0.0143518
800.686	0.0143932
800.764	0.0143736
800.842	0.0142308
800.920	0.0143746
800.998	0.0143021
801.076	0.0142201
801.155	0.0142844
801.233	0.0141978
801.311	0.0142177
801.389	0.0142127
801.467	0.0142332
801.545	0.0142786
801.623	0.0141623
801.701	0.0140854
801.780	0.0141359
801.858	0.0141783
801.936	0.0142456
802.014	0.0143063
802.092	0.0143497
802.170	0.0142201
802.248	0.0143163
802.326	0.0143021
802.405	0.0142176
802.483	0.0143404
802.561	0.0145217
802.639	0.0143187
802.717	0.0142948
802.795	0.0142990
802.873	0.0143761
802.951	0.0145515
803.030	0.0144117
803.108	0.0144078
803.186	0.0144626
803.264	0.0145425
803.342	0.0144084
803.420	0.0144845
803.498	0.0145669
803.576	0.0144969
803.655	0.0145710
803.733	0.0145555
803.811	0.0144114
803.889	0.0144259
803.967	0.0146606
804.045	0.0144546
804.123	0.0146105
804.201	0.0146558
804.280	0.0146701
804.358	0.0146676
804.436	0.0145287
804.514	0.0145757
804.592	0.0146590
804.670	0.0146259
804.748	0.0145989
804.826	0.0146930
804.905	0.0147115
804.983	0.0145782
805.061	0.0146497
805.139	0.0146291
805.217	0.0146255
805.295	0.0146317
805.373	0.0146332
805.451	0.0145978
805.530	0.0147253
805.608	0.0145980
805.686	0.0146931
805.764	0.0146577
805.842	0.0146097
805.920	0.0146423
805.998	0.0145919
806.076	0.0145441
806.155	0.0147020
806.233	0.0147337
806.311	0.0147259
806.389	0.0146206
806.467	0.0147147
806.545	0.0146609
806.623	0.0146037
806.701	0.0147112
806.780	0.0147984
806.858	0.0147118
806.936	0.0146290
807.014	0.0147089
807.092	0.0146424
807.170	0.0145202
807.248	0.0146375
807.326	0.0146244
807.405	0.0146622
807.483	0.0145219
807.561	0.0146741
807.639	0.0146190
807.717	0.0145468
807.795	0.0145325
807.873	0.0145914
807.951	0.0146162
808.030	0.0147188
808.108	0.0145427
808.186	0.0144797
808.264	0.0144530
808.342	0.0145642
808.420	0.0144627
808.498	0.0144991
808.576	0.0144986
808.655	0.0146387
808.733	0.0145612
808.811	0.0145413
808.889	0.0145544
808.967	0.0146525
809.045	0.0146548
809.123	0.0145641
809.201	0.0144222
809.280	0.0146545
809.358	0.0147389
809.436	0.0146454
809.514	0.0145248
809.592	0.0146123
809.670	0.0146345
809.748	0.0145672
809.826	0.0145808
809.905	0.0147259
809.983	0.0146663
810.061	0.0144880
810.139	0.0144956
810.217	0.0145672
810.295	0.0144640
810.373	0.0144618
810.451	0.0145255
810.530	0.0145787
810.608	0.0144690
810.686	0.0144563
810.764	0.0143955
810.842	0.0144173
810.920	0.0143888
810.998	0.0145843
811.076	0.0144165
811.155	0.0144727
811.233	0.0144841
811.311	0.0143912
811.389	0.0144105
811.467	0.0144873
811.545	0.0143804
811.623	0.0145860
811.701	0.0145468
811.780	0.0145455
811.858	0.0145625
811.936	0.0145026
812.014	0.0145980
812.092	0.0145907
812.170	0.0145081
812.248	0.0144717
812.326	0.0146397
812.405	0.0144644
812.483	0.0145811
812.561	0.0145533
812.639	0.0146013
812.717	0.0144336
812.795	0.0145132
812.873	0.0144432
812.951	0.0145273
813.030	0.0146103
813.108	0.0144862
813.186	0.0144325
813.264	0.0143857
813.342	0.0144268
813.420	0.0143399
813.498	0.0143651
813.576	0.0145054
813.655	0.0145129
813.733	0.0144868
813.811	0.0144017
813.889	0.0143890
813.967	0.0145191
814.045	0.0143873
814.123	0.0144048
814.201	0.0144320
814.280	0.0144193
814.358	0.0144452
814.436	0.0144727
814.514	0.0143469
814.592	0.0143857
814.670	0.0145795
814.748	0.0144490
814.826	0.0144570
814.905	0.0145381
814.983	0.0144724
815.061	0.0144643
815.139	0.0145727
815.217	0.0146095
815.295	0.0146130
815.373	0.0144902
815.451	0.0145872
815.530	0.0145300
815.608	0.0144393
815.686	0.0145760
815.764	0.0146811
815.842	0.0147222
815.920	0.0144980
815.998	0.0146822
816.076	0.0146180
816.155	0.0146314
816.233	0.0147046
816.311	0.0145985
816.389	0.0147202
816.467	0.0146575
816.545	0.0145844
816.623	0.0145325
816.701	0.0145187
816.780	0.0146611
816.858	0.0146490
816.936	0.0146568
817.014	0.0146442
817.092	0.0146084
817.170	0.0144033
817.248	0.0145599
817.326	0.0145387
817.405	0.0144445
817.483	0.0144573
817.561	0.0144963
817.639	0.0144503
817.717	0.0143987
817.795	0.0144745
817.873	0.0144048
817.951	0.0143134
818.030	0.0143327
818.108	0.0143823
818.186	0.0144541
818.264	0.0145406
818.342	0.0142977
818.420	0.0143696
818.498	0.0143449
818.576	0.0143804
818.655	0.0144560
818.733	0.0144196
818.811	0.0143053
818.889	0.0143042
818.967	0.0144401
819.045	0.0143780
819.123	0.0144407
819.201	0.0143803
819.280	0.0144318
819.358	0.0143521
819.436	0.0144842
819.514	0.0144284
819.592	0.0144894
819.670	0.0144305
819.748	0.0145144
819.826	0.0145420
819.905	0.0145392
819.983	0.0145541
820.061	0.0145005
820.139	0.0146382
820.217	0.0145127
820.295	0.0145466
820.373	0.0146236
820.451	0.0143668
820.530	0.0144165
820.608	0.0145917
820.686	0.0145412
820.764	0.0143784
820.842	0.0145402
820.920	0.0145585
820.998	0.0145091
821.076	0.0144205
821.155	0.0144511
821.233	0.0144675
821.311	0.0145454
821.389	0.0146189
821.467	0.0144929
821.545	0.0144668
821.623	0.0144440
821.701	0.0146382
821.780	0.0145499
821.858	0.0144348
821.936	0.0146099
822.014	0.0144759
822.092	0.0144084
822.170	0.0144436
822.248	0.0145339
822.326	0.0145568
822.405	0.0143982
822.483	0.0146096
822.561	0.0145862
822.639	0.0145966
822.717	0.0146684
822.795	0.0145834
822.873	0.0144826
822.951	0.0145438
823.030	0.0145633
823.108	0.0146773
823.186	0.0146278
823.264	0.0146010
823.342	0.0146764
823.420	0.0146501
823.498	0.0146453
823.576	0.0145684
823.655	0.0146859
823.733	0.0146947
823.811	0.0145602
823.889	0.0145762
823.967	0.0144382
824.045	0.0145155
824.123	0.0146420
824.201	0.0146056
824.280	0.0146591
824.358	0.0145380
824.436	0.0145296
824.514	0.0145719
824.592	0.0145577
824.670	0.0145506
824.748	0.0145550
824.826	0.0146165
824.905	0.0144793
824.983	0.0144138
825.061	0.0146861
825.139	0.0145593
825.217	0.0146646
825.295	0.0146439
825.373	0.0145766
825.451	0.0146907
825.530	0.0145235
825.608	0.0144584
825.686	0.0145626
825.764	0.0145049
825.842	0.0147285
825.920	0.0145992
825.998	0.0144228
826.076	0.0143915
826.155	0.0145258
826.233	0.0144457
826.311	0.0143851
826.389	0.0145477
826.467	0.0144896
826.545	0.0145430
826.623	0.0144564
826.701	0.0146106
826.780	0.0144518
826.858	0.0145541
826.936	0.0144621
827.014	0.0143761
827.092	0.0144886
827.170	0.0144088
827.248	0.0142987
827.326	0.0143759
827.405	0.0144041
827.483	0.0145354
827.561	0.0143716
827.639	0.0144329
827.717	0.0145131
827.795	0.0143688
827.873	0.0144353
827.951	0.0144525
828.030	0.0142712
828.108	0.0144517
828.186	0.0144740
828.264	0.0143559
828.342	0.0143794
828.420	0.0144144
828.498	0.0145071
828.576	0.0145013
828.655	0.0143193
828.733	0.0144910
828.811	0.0143495
828.889	0.0144411
828.967	0.0145689
829.045	0.0145017
829.123	0.0145120
829.201	0.0144598
829.280	0.0145119
829.358	0.0144337
829.436	0.0146389
829.514	0.0144124
829.592	0.0145998
829.670	0.0145370
829.748	0.0145602
829.826	0.0145087
829.905	0.0146362
829.983	0.0146480
830.061	0.0146508
830.139	0.0145853
830.217	0.0146499
830.295	0.0144983
830.373	0.0147383
830.451	0.0148347
830.530	0.0147031
830.608	0.0145801
830.686	0.0145317
830.764	0.0146304
830.842	0.0146512
830.920	0.0145552
830.998	0.0146034
831.076	0.0145393
831.155	0.0144482
831.233	0.0146272
831.311	0.0146166
831.389	0.0145542
831.467	0.0145712
831.545	0.0144311
831.623	0.0143766
831.701	0.0143521
831.780	0.0145190
831.858	0.0144162
831.936	0.0144244
832.014	0.0143616
832.092	0.0144318
832.170	0.0144048
832.248	0.0144267
832.326	0.0145526
832.405	0.0145436
832.483	0.0144028
832.561	0.0144377
832.639	0.0144471
832.717	0.0144439
832.795	0.0145438
832.873	0.0145119
832.951	0.0144834
833.030	0.0144089
833.108	0.0143435
833.186	0.0143501
833.264	0.0144716
833.342	0.0144481
833.420	0.0144550
833.498	0.0144328
833.576	0.0142747
833.655	0.0144153
833.733	0.0144371
833.811	0.0143642
833.889	0.0144716
833.967	0.0145353
834.045	0.0144608
834.123	0.0145207
834.201	0.0144329
834.280	0.0143567
834.358	0.0144640
834.436	0.0144349
834.514	0.0144560
834.592	0.0145750
834.670	0.0145078
834.748	0.0144599
834.826	0.0145086
834.905	0.0145131
834.983	0.0145656
835.061	0.0145464
835.139	0.0145500
835.217	0.0146468
835.295	0.0144710
835.373	0.0146152
835.451	0.0146063
835.530	0.0145583
835.608	0.0145280
835.686	0.0144028
835.764	0.0145963
835.842	0.0147459
835.920	0.0145185
835.998	0.0145319
836.076	0.0146178
836.155	0.0145795
836.233	0.0146606
836.311	0.0146380
836.389	0.0147078
836.467	0.0144967
836.545	0.0145951
836.623	0.0146436
836.701	0.0146731
836.780	0.0145599
836.858	0.0144817
836.936	0.0146741
837.014	0.0145865
837.092	0.0144509
837.170	0.0144662
837.248	0.0145136
837.326	0.0144242
837.405	0.0144823
837.483	0.0146094
837.561	0.0144996
837.639	0.0146577
837.717	0.0146151
837.795	0.0145478
837.873	0.0145441
837.951	0.0144657
838.030	0.0145844
838.108	0.0145202
838.186	0.0147043
838.264	0.0145869
838.342	0.0144781
838.420	0.0148764
838.498	0.0147575
838.576	0.0146219
838.655	0.0146151
838.733	0.0145634
838.811	0.0146791
838.889	0.0146185
838.967	0.0146178
839.045	0.0147662
839.123	0.0146214
839.201	0.0146079
839.280	0.0146567
839.358	0.0146623
839.436	0.0146040
839.514	0.0147096
839.592	0.0144705
839.670	0.0145067
839.748	0.0146240
839.826	0.0146622
839.905	0.0145033
839.983	0.0145907
840.061	0.0144981
840.139	0.0144888
840.217	0.0144955
840.295	0.0144570
840.373	0.0145742
840.451	0.0144348
840.530	0.0144270
840.608	0.0144823
840.686	0.0144871
840.764	0.0144203
840.842	0.0144874
840.920	0.0143140
840.998	0.0144062
841.076	0.0145861
841.155	0.0144714
841.233	0.0143742
841.311	0.0144168
841.389	0.0145215
841.467	0.0143192
841.545	0.0143626
841.623	0.0144035
841.701	0.0145025
841.780	0.0143850
841.858	0.0142599
841.936	0.0145622
842.014	0.0145089
842.092	0.0143081
842.170	0.0144827
842.248	0.0143541
842.326	0.0144642
842.405	0.0143568
842.483	0.0143880
842.561	0.0143501
842.639	0.0143184
842.717	0.0143713
842.795	0.0144722
842.873	0.0143049
842.951	0.0143806
843.030	0.0143910
843.108	0.0143125
843.186	0.0143903
843.264	0.0143653
843.342	0.0144123
843.420	0.0144742
843.498	0.0144881
843.576	0.0142995
843.655	0.0143717
843.733	0.0143329
843.811	0.0143950
843.889	0.0145292
843.967	0.0144463
844.045	0.0143496
844.123	0.0144982
844.201	0.0145101
844.280	0.0144362
844.358	0.0145896
844.436	0.0143197
844.514	0.0144472
844.592	0.0145327
844.670	0.0144007
844.748	0.0144573
844.826	0.0145296
844.905	0.0144592
844.983	0.0145550
845.061	0.0144801
845.139	0.0145569
845.217	0.0144891
845.295	0.0145491
845.373	0.0145850
845.451	0.0145001
845.530	0.0146479
845.608	0.0146777
845.686	0.0147141
845.764	0.0146868
845.842	0.0146407
845.920	0.0145770
845.998	0.0146005
846.076	0.0146095
846.155	0.0146781
846.233	0.0145689
846.311	0.0145668
846.389	0.0144647
846.467	0.0145798
846.545	0.0145966
846.623	0.0145640
846.701	0.0146579
846.780	0.0145767
846.858	0.0146042
846.936	0.0145211
847.014	0.0144965
847.092	0.0144969
847.170	0.0145134
847.248	0.0146268
847.326	0.0145384
847.405	0.0144791
847.483	0.0143979
847.561	0.0144563
847.639	0.0144442
847.717	0.0144493
847.795	0.0143731
847.873	0.0144401
847.951	0.0144569
848.030	0.0143250
848.108	0.0144296
848.186	0.0144104
848.264	0.0143316
848.342	0.0144114
848.420	0.0143930
848.498	0.0143896
848.576	0.0145522
848.655	0.0145135
848.733	0.0144628
848.811	0.0144470
848.889	0.0144759
848.967	0.0146486
849.045	0.0143646
849.123	0.0145664
849.201	0.0147332
849.280	0.0145065
849.358	0.0144273
849.436	0.0146336
849.514	0.0145403
849.592	0.0146400
849.670	0.0145400
849.748	0.0145355
849.826	0.0146680
849.905	0.0145802
849.983	0.0146535
850.061	0.0144830
850.139	0.0146189
850.217	0.0146373
850.295	0.0145028
850.373	0.0146996
850.451	0.0146667
850.530	0.0145872
850.608	0.0146296
850.686	0.0146663
850.764	0.0144848
850.842	0.0147088
850.920	0.0146091
850.998	0.0146147
851.076	0.0146255
851.155	0.0146367
851.233	0.0145457
851.311	0.0146085
851.389	0.0146882
851.467	0.0146343
851.545	0.0147120
851.623	0.0146134
851.701	0.0146022
851.780	0.0145739
851.858	0.0146027
851.936	0.0145713
852.014	0.0144740
852.092	0.0147440
852.170	0.0146159
852.248	0.0144434
852.326	0.0143441
852.405	0.0145257
852.483	0.0146825
852.561	0.0145617
852.639	0.0145873
852.717	0.0145000
852.795	0.0145969
852.873	0.0144936
852.951	0.0145653
853.030	0.0145128
853.108	0.0146210
853.186	0.0144459
853.264	0.0144635
853.342	0.0145154
853.420	0.0144749
853.498	0.0144697
853.576	0.0145554
853.655	0.0143685
853.733	0.0144540
853.811	0.0144260
853.889	0.0143424
853.967	0.0145187
854.045	0.0145249
854.123	0.0144797
854.201	0.0143617
854.280	0.0144437
854.358	0.0146428
854.436	0.0145094
854.514	0.0146380
854.592	0.0145113
854.670	0.0146005
854.748	0.0146082
854.826	0.0144422
854.905	0.0144702
854.983	0.0146629
855.061	0.0146111
855.139	0.0145143
855.217	0.0144425
855.295	0.0145275
855.373	0.0145510
855.451	0.0147902
855.530	0.0146851
855.608	0.0146703
855.686	0.0145655
855.764	0.0147610
855.842	0.0146791
855.920	0.0146623
855.998	0.0145914
856.076	0.0147259
856.155	0.0147209
856.233	0.0145811
856.311	0.0147582
856.389	0.0147739
856.467	0.0146735
856.545	0.0146034
856.623	0.0145885
856.701	0.0145892
856.780	0.0147488
856.858	0.0146610
856.936	0.0146288
857.014	0.0145432
857.092	0.0147191
857.170	0.0145216
857.248	0.0146032
857.326	0.0145467
857.405	0.0144742
857.483	0.0144916
857.561	0.0145126
857.639	0.0144598
857.717	0.0143545
857.795	0.0144711
857.873	0.0145393
857.951	0.0144855
858.030	0.0143457
858.108	0.0144219
858.186	0.0143427
858.264	0.0144211
858.342	0.0143726
858.420	0.0143240
858.498	0.0142677
858.576	0.0143609
858.655	0.0145042
858.733	0.0144195
858.811	0.0144270
858.889	0.0143663
858.967	0.0143809
859.045	0.0145052
859.123	0.0143816
859.201	0.0143980
859.280	0.0143856
859.358	0.0144561
859.436	0.0144817
859.514	0.0144923
859.592	0.0144746
859.670	0.0144237
859.748	0.0144777
859.826	0.0145088
859.905	0.0145915
859.983	0.0145667
860.061	0.0144957
860.139	0.0145136
860.217	0.0144511
860.295	0.0144816
860.373	0.0144655
860.451	0.0146367
860.530	0.0145709
860.608	0.0144669
860.686	0.0143842
860.764	0.0145028
860.842	0.0146012
860.920	0.0146448
860.998	0.0145979
861.076	0.0145446
861.155	0.0145387
861.233	0.0144898
861.311	0.0146150
861.389	0.0146767
861.467	0.0145045
861.545	0.0145081
861.623	0.0146696
861.701	0.0147154
861.780	0.0145436
861.858	0.0145065
861.936	0.0145847
862.014	0.0146162
862.092	0.0144714
862.170	0.0145912
862.248	0.0146781
862.326	0.0145605
862.405	0.0144009
862.483	0.0145011
862.561	0.0147311
862.639	0.0146056
862.717	0.0146240
862.795	0.0145387
862.873	0.0147465
862.951	0.0145880
863.030	0.0145878
863.108	0.0145357
863.186	0.0145574
863.264	0.0146588
863.342	0.0146685
863.420	0.0147663
863.498	0.0145358
863.576	0.0144992
863.655	0.0145562
863.733	0.0146268
863.811	0.0145988
863.889	0.0146155
863.967	0.0146124
864.045	0.0145773
864.123	0.0147353
864.201	0.0146779
864.280	0.0145445
864.358	0.0146388
864.436	0.0147835
864.514	0.0146458
864.592	0.0147201
864.670	0.0146442
864.748	0.0146963
864.826	0.0147381
864.905	0.0146484
864.983	0.0146043
865.061	0.0147399
865.139	0.0146446
865.217	0.0147772
865.295	0.0144078
865.373	0.0146084
865.451	0.0145659
865.530	0.0146140
865.608	0.0145747
865.686	0.0147676
865.764	0.0145415
865.842	0.0144499
865.920	0.0145202
865.998	0.0146503
866.076	0.0146043
866.155	0.0145863
866.233	0.0146102
866.311	0.0143829
866.389	0.0143773
866.467	0.0144608
866.545	0.0145776
866.623	0.0144069
866.701	0.0144110
866.780	0.0144233
866.858	0.0144440
866.936	0.0144289
867.014	0.0142861
867.092	0.0143561
867.170	0.0144946
867.248	0.0143374
867.326	0.0143398
867.405	0.0144617
867.483	0.0143618
867.561	0.0145487
867.639	0.0144452
867.717	0.0144512
867.795	0.0144309
867.873	0.0145813
867.951	0.0145824
868.030	0.0144950
868.108	0.0143993
868.186	0.0146774
868.264	0.0147052
868.342	0.0145688
868.420	0.0146423
868.498	0.0145144
868.576	0.0145483
868.655	0.0146895
868.733	0.0145235
868.811	0.0145345
868.889	0.0145259
868.967	0.0146255
869.045	0.0146629
869.123	0.0144731
869.201	0.0145772
869.280	0.0145405
869.358	0.0147343
869.436	0.0146438
869.514	0.0145810
869.592	0.0145715
869.670	0.0145998
869.748	0.0145292
869.826	0.0146133
869.905	0.0144578
869.983	0.0145791
870.061	0.0145328
870.139	0.0146566
870.217	0.0145160
870.295	0.0144331
870.373	0.0145798
870.451	0.0144350
870.530	0.0145341
870.608	0.0145275
870.686	0.0144476
870.764	0.0144901
870.842	0.0144438
870.920	0.0145524
870.998	0.0146742
871.076	0.0145547
871.155	0.0144664
871.233	0.0145161
871.311	0.0143823
871.389	0.0145241
871.467	0.0146431
871.545	0.0145944
871.623	0.0145382
871.701	0.0145246
871.780	0.0146267
871.858	0.0147951
871.936	0.0145267
872.014	0.0145231
872.092	0.0146151
872.170	0.0147164
872.248	0.0146658
872.326	0.0146893
872.405	0.0145975
872.483	0.0146607
872.561	0.0147598
872.639	0.0146806
872.717	0.0147641
872.795	0.0146060
872.873	0.0148582
872.951	0.0146975
873.030	0.0147579
873.108	0.0146861
873.186	0.0145728
873.264	0.0146872
873.342	0.0148055
873.420	0.0147179
873.498	0.0147479
873.576	0.0146630
873.655	0.0147498
873.733	0.0147588
873.811	0.0147353
873.889	0.0146792
873.967	0.0145793
874.045	0.0146248
874.123	0.0147298
874.201	0.0146993
874.280	0.0145985
874.358	0.0145656
874.436	0.0147063
874.514	0.0145959
874.592	0.0145650
874.670	0.0145444
874.748	0.0144922
874.826	0.0143889
874.905	0.0144383
874.983	0.0143573
875.061	0.0144376
875.139	0.0143385
875.217	0.0142403
875.295	0.0145382
875.373	0.0144048
875.451	0.0143629
875.530	0.0143595
875.608	0.0144247
875.686	0.0143420
875.764	0.0144901
875.842	0.0144041
875.920	0.0144673
875.998	0.0142994
876.076	0.0143166
876.155	0.0143068
876.233	0.0143397
876.311	0.0143248
876.389	0.0141594
876.467	0.0143832
876.545	0.0144121
876.623	0.0144226
876.701	0.0144326
876.780	0.0145145
876.858	0.0143491
876.936	0.0143986
877.014	0.0143468
877.092	0.0143721
877.170	0.0143742
877.248	0.0144932
877.326	0.0144738
877.405	0.0145479
877.483	0.0145103
877.561	0.0144855
877.639	0.0146738
877.717	0.0145522
877.795	0.0144894
877.873	0.0146301
877.951	0.0145614
878.030	0.0145848
878.108	0.0147462
878.186	0.0147187
878.264	0.0144633
878.342	0.0147706
878.420	0.0147459
878.498	0.0146167
878.576	0.0145985
878.655	0.0146504
878.733	0.0145318
878.811	0.0147137
878.889	0.0147183
878.967	0.0146378
879.045	0.0146764
879.123	0.0147641
879.201	0.0147679
879.280	0.0145934
879.358	0.0147356
879.436	0.0148244
879.514	0.0145178
879.592	0.0145491
879.670	0.0146767
879.748	0.0146864
879.826	0.0145417
879.905	0.0145080
879.983	0.0145261
880.061	0.0145029
880.139	0.0144449
880.217	0.0144617
880.295	0.0143993
880.373	0.0143926
880.451	0.0145168
880.530	0.0143597
880.608	0.0143885
880.686	0.0143345
880.764	0.0142792
880.842	0.0144115
880.920	0.0142232
880.998	0.0142339
881.076	0.0143906
881.155	0.0142308
881.233	0.0143069
881.311	0.0143326
881.389	0.0143156
881.467	0.0143314
881.545	0.0143427
881.623	0.0142030
881.701	0.0142407
881.780	0.0144453
881.858	0.0143603
881.936	0.0145126
882.014	0.0143587
882.092	0.0143734
882.170	0.0144034
882.248	0.0145015
882.326	0.0145686
882.405	0.0144486
882.483	0.0145087
882.561	0.0145361
882.639	0.0144927
882.717	0.0145369
882.795	0.0145506
882.873	0.0146216
882.951	0.0146442
883.030	0.0143964
883.108	0.0145293
883.186	0.0146873
883.264	0.0145333
883.342	0.0145091
883.420	0.0146312
883.498	0.0146954
883.576	0.0147012
883.655	0.0146937
883.733	0.0146190
883.811	0.0146622
883.889	0.0146132
883.967	0.0146844
884.045	0.0147286
884.123	0.0144739
884.201	0.0145821
884.280	0.0146259
884.358	0.0145787
884.436	0.0146063
884.514	0.0146166
884.592	0.0145704
884.670	0.0144666
884.748	0.0145250
884.826	0.0145167
884.905	0.0145454
884.983	0.0146024
885.061	0.0144870
885.139	0.0145702
885.217	0.0145839
885.295	0.0145148
885.373	0.0145734
885.451	0.0145671
885.530	0.0145789
885.608	0.0145006
885.686	0.0146007
885.764	0.0145972
885.842	0.0145798
885.920	0.0146300
885.998	0.0145705
886.076	0.0146661
886.155	0.0146910
886.233	0.0146383
886.311	0.0146496
886.389	0.0147453
886.467	0.0147466
886.545	0.0146886
886.623	0.0147736
886.701	0.0146526
886.780	0.0146481
886.858	0.0147382
886.936	0.0146790
887.014	0.0145844
887.092	0.0147101
887.170	0.0147024
887.248	0.0146212
887.326	0.0144563
887.405	0.0145943
887.483	0.0145853
887.561	0.0144332
887.639	0.0145103
887.717	0.0145439
887.795	0.0144269
887.873	0.0144212
887.951	0.0145466
888.030	0.0144418
888.108	0.0144511
888.186	0.0143661
888.264	0.0145216
888.342	0.0144958
888.420	0.0144762
888.498	0.0143083
888.576	0.0144148
888.655	0.0144042
888.733	0.0143584
888.811	0.0144480
888.889	0.0143946
888.967	0.0144981
889.045	0.0144923
889.123	0.0145665
889.201	0.0144468
889.280	0.0145076
889.358	0.0144634
889.436	0.0144128
889.514	0.0145379
889.592	0.0145597
889.670	0.0145256
889.748	0.0145657
889.826	0.0146201
889.905	0.0145211
889.983	0.0146564
890.061	0.0144367
890.139	0.0145552
890.217	0.0146323
890.295	0.0145081
890.373	0.0143806
890.451	0.0144719
890.530	0.0145638
890.608	0.0146889
890.686	0.0144477
890.764	0.0145161
890.842	0.0144920
890.920	0.0146048
890.998	0.0145556
891.076	0.0146892
891.155	0.0146977
891.233	0.0145033
891.311	0.0146688
891.389	0.0145475
891.467	0.0146396
891.545	0.0145927
891.623	0.0145852
891.701	0.0146854
891.780	0.0148370
891.858	0.0146806
891.936	0.0146110
892.014	0.0144992
892.092	0.0144899
892.170	0.0147871
892.248	0.0147691
892.326	0.0147318
892.405	0.0145288
892.483	0.0146079
892.561	0.0146803
892.639	0.0146269
892.717	0.0146371
892.795	0.0146985
892.873	0.0145818
892.951	0.0146082
893.030	0.0146532
893.108	0.0145882
893.186	0.0145956
893.264	0.0146484
893.342	0.0145861
893.420	0.0146089
893.498	0.0145814
893.576	0.0145936
893.655	0.0147539
893.733	0.0147443
893.811	0.0147034
893.889	0.0145407
893.967	0.0147829
894.045	0.0147097
894.123	0.0146883
894.201	0.0146517
894.280	0.0146071
894.358	0.0146937
894.436	0.0146873
894.514	0.0147929
894.592	0.0146519
894.670	0.0147333
894.748	0.0147794
894.826	0.0146564
894.905	0.0146346
894.983	0.0146604
895.061	0.0147208
895.139	0.0146719
895.217	0.0145820
895.295	0.0146745
895.373	0.0145494
895.451	0.0146320
895.530	0.0145837
895.608	0.0144120
895.686	0.0144974
895.764	0.0144006
895.842	0.0144780
895.920	0.0144878
895.998	0.0143677
896.076	0.0144133
896.155	0.0144962
896.233	0.0145192
896.311	0.0143157
896.389	0.0143546
896.467	0.0143861
896.545	0.0145199
896.623	0.0145818
896.701	0.0144227
896.780	0.0144165
896.858	0.0144321
896.936	0.0145228
897.014	0.0145444
897.092	0.0145138
897.170	0.0145054
897.248	0.0146802
897.326	0.0145807
897.405	0.0144789
897.483	0.0144038
897.561	0.0145520
897.639	0.0146349
897.717	0.0145769
897.795	0.0144470
897.873	0.0146901
897.951	0.0145019
898.030	0.0146454
898.108	0.0145518
898.186	0.0145801
898.264	0.0145818
898.342	0.0145790
898.420	0.0145216
898.498	0.0146448
898.576	0.0146933
898.655	0.0145897
898.733	0.0145956
898.811	0.0144994
898.889	0.0145694
898.967	0.0146658
899.045	0.0146853
899.123	0.0146212
899.201	0.0146927
899.280	0.0146531
899.358	0.0146035
899.436	0.0145606
899.514	0.0147272
899.592	0.0146856
899.670	0.0145924
899.748	0.0146352
899.826	0.0145760
899.905	0.0145143
899.983	0.0144690
900.061	0.0145921
900.139	0.0145792
900.217	0.0145538
900.295	0.0144293
900.373	0.0144713
900.451	0.0144692
900.530	0.0145414
900.608	0.0144279
900.686	0.0143216
900.764	0.0143413
900.842	0.0144188
900.920	0.0142220
900.998	0.0142102
901.076	0.0143343
901.155	0.0142587
901.233	0.0143789
901.311	0.0142796
901.389	0.0142959
901.467	0.0142152
901.545	0.0142909
901.623	0.0142104
901.701	0.0143192
901.780	0.0143623
901.858	0.0142867
901.936	0.0142622
902.014	0.0144125
902.092	0.0142899
902.170	0.0143432
902.248	0.0142591
902.326	0.0144373
902.405	0.0144153
902.483	0.0142991
902.561	0.0144624
902.639	0.0143604
902.717	0.0144628
902.795	0.0145106
902.873	0.0144643
902.951	0.0145555
903.030	0.0145237
903.108	0.0145574
903.186	0.0144699
903.264	0.0145359
903.342	0.0146100
903.420	0.0146001
903.498	0.0146089
903.576	0.0146064
903.655	0.0145229
903.733	0.0145255
903.811	0.0146764
903.889	0.0146533
903.967	0.0147068
904.045	0.0145167
904.123	0.0144028
904.201	0.0147579
904.280	0.0144933
904.358	0.0145703
904.436	0.0145789
904.514	0.0146844
904.592	0.0145532
904.670	0.0146164
904.748	0.0145484
904.826	0.0146281
904.905	0.0145946
904.983	0.0145921
905.061	0.0146020
905.139	0.0146856
905.217	0.0145789
905.295	0.0145447
905.373	0.0145127
905.451	0.0146328
905.530	0.0146522
905.608	0.0144431
905.686	0.0145145
905.764	0.0146113
905.842	0.0144193
905.920	0.0144445
905.998	0.0144672
906.076	0.0144149
906.155	0.0143619
906.233	0.0145203
906.311	0.0143436
906.389	0.0144746
906.467	0.0144611
906.545	0.0143765
906.623	0.0143927
906.701	0.0144288
906.780	0.0143802
906.858	0.0143853
906.936	0.0144911
907.014	0.0144121
907.092	0.0144565
907.170	0.0144337
907.248	0.0144891
907.326	0.0143350
907.405	0.0145920
907.483	0.0145251
907.561	0.0145195
907.639	0.0144892
907.717	0.0144543
907.795	0.0144520
907.873	0.0145587
907.951	0.0143761
908.030	0.0144761
908.108	0.0146428
908.186	0.0144979
908.264	0.0145240
908.342	0.0143972
908.420	0.0144131
908.498	0.0144276
908.576	0.0145043
908.655	0.0145077
908.733	0.0143591
908.811	0.0144801
908.889	0.0143188
908.967	0.0144736
909.045	0.0144022
909.123	0.0142730
909.201	0.0144021
909.280	0.0144889
909.358	0.0144080
909.436	0.0143448
909.514	0.0144421
909.592	0.0145736
909.670	0.0144247
909.748	0.0142996
909.826	0.0143913
909.905	0.0145056
909.983	0.0144864
910.061	0.0145464
910.139	0.0143530
910.217	0.0146044
910.295	0.0145464
910.373	0.0145084
910.451	0.0145041
910.530	0.0146249
910.608	0.0146101
910.686	0.0144726
910.764	0.0146626
910.842	0.0145541
910.920	0.0145069
910.998	0.0146502
911.076	0.0146767
911.155	0.0146095
911.233	0.0146677
911.311	0.0146629
911.389	0.0146826
911.467	0.0145955
911.545	0.0145905
911.623	0.0148086
911.701	0.0144892
911.780	0.0146921
911.858	0.0147186
911.936	0.0147121
912.014	0.0146630
912.092	0.0145485
912.170	0.0144670
912.248	0.0146458
912.326	0.0146166
912.405	0.0144968
912.483	0.0145075
912.561	0.0146844
912.639	0.0146790
912.717	0.0147401
912.795	0.0147196
912.873	0.0145372
912.951	0.0147732
913.030	0.0147752
913.108	0.0146316
913.186	0.0146473
913.264	0.0147203
913.342	0.0147132
913.420	0.0147077
913.498	0.0146217
913.576	0.0146478
913.655	0.0146716
913.733	0.0146862
913.811	0.0147137
913.889	0.0147098
913.967	0.0147569
914.045	0.0148168
914.123	0.0145947
914.201	0.0146158
914.280	0.0145335
914.358	0.0146230
914.436	0.0145969
914.514	0.0147038
914.592	0.0146490
914.670	0.0145354
914.748	0.0144014
914.826	0.0144354
914.905	0.0145380
914.983	0.0144727
915.061	0.0145384
915.139	0.0144649
915.217	0.0144206
915.295	0.0144675
915.373	0.0144007
915.451	0.0145060
915.530	0.0144135
915.608	0.0145101
915.686	0.0143089
915.764	0.0144595
915.842	0.0144312
915.920	0.0144632
915.998	0.0145353
916.076	0.0142921
916.155	0.0144132
916.233	0.0143684
916.311	0.0145131
916.389	0.0143732
916.467	0.0144290
916.545	0.0142864
916.623	0.0144226
916.701	0.0144649
916.780	0.0144263
916.858	0.0143212
916.936	0.0142871
917.014	0.0143494
917.092	0.0144560
917.170	0.0144468
917.248	0.0144845
917.326	0.0143672
917.405	0.0144923
917.483	0.0146097
917.561	0.0145280
917.639	0.0146147
917.717	0.0145933
917.795	0.0145245
917.873	0.0145814
917.951	0.0146754
918.030	0.0146474
918.108	0.0145121
918.186	0.0145600
918.264	0.0144904
918.342	0.0144525
918.420	0.0144978
918.498	0.0145314
918.576	0.0144621
918.655	0.0145089
918.733	0.0144660
918.811	0.0145626
918.889	0.0145279
918.967	0.0144676
919.045	0.0145749
919.123	0.0145193
919.201	0.0145490
919.280	0.0145667
919.358	0.0143531
919.436	0.0145107
919.514	0.0144555
919.592	0.0146291
919.670	0.0144568
919.748	0.0144795
919.826	0.0145107
919.905	0.0144325
919.983	0.0145334
920.061	0.0145244
920.139	0.0146748
920.217	0.0145452
920.295	0.0144440
920.373	0.0143127
920.451	0.0145197
920.530	0.0146472
920.608	0.0144113
920.686	0.0144227
920.764	0.0145106
920.842	0.0144720
920.920	0.0145840
920.998	0.0145189
921.076	0.0145303
921.155	0.0145203
921.233	0.0145645
921.311	0.0144770
921.389	0.0144785
921.467	0.0144872
921.545	0.0143788
921.623	0.0145387
921.701	0.0146277
921.780	0.0145424
921.858	0.0144868
921.936	0.0144762
922.014	0.0143648
922.092	0.0144493
922.170	0.0146796
922.248	0.0145520
922.326	0.0146062
922.405	0.0143832
922.483	0.0145049
922.561	0.0145503
922.639	0.0145385
922.717	0.0146358
922.795	0.0145160
922.873	0.0145612
922.951	0.0147157
923.030	0.0145816
923.108	0.0146410
923.186	0.0146613
923.264	0.0148097
923.342	0.0146986
923.420	0.0147236
923.498	0.0145963
923.576	0.0148029
923.655	0.0148230
923.733	0.0147581
923.811	0.0146776
923.889	0.0146535
923.967	0.0147385
924.045	0.0147536
924.123	0.0148260
924.201	0.0147130
924.280	0.0146191
924.358	0.0146550
924.436	0.0148389
924.514	0.0148443
924.592	0.0146204
924.670	0.0147295
924.748	0.0148669
924.826	0.0145916
924.905	0.0147691
924.983	0.0145724
925.061	0.0147289
925.139	0.0146355
925.217	0.0145801
925.295	0.0145287
925.373	0.0146665
925.451	0.0146500
925.530	0.0144566
925.608	0.0145559
925.686	0.0146725
925.764	0.0146343
925.842	0.0146436
925.920	0.0145430
925.998	0.0145494
926.076	0.0145648
926.155	0.0145468
926.233	0.0146089
926.311	0.0144997
926.389	0.0146263
926.467	0.0146191
926.545	0.0145697
926.623	0.0143528
926.701	0.0145045
926.780	0.0144505
926.858	0.0145317
926.936	0.0145762
927.014	0.0143832
927.092	0.0145054
927.170	0.0144557
927.248	0.0145076
927.326	0.0145505
927.405	0.0144207
927.483	0.0145771
927.561	0.0145201
927.639	0.0144659
927.717	0.0144966
927.795	0.0144855
927.873	0.0145487
927.951	0.0144768
928.030	0.0145325
928.108	0.0145270
928.186	0.0144048
928.264	0.0144813
928.342	0.0143904
928.420	0.0145037
928.498	0.0143951
928.576	0.0144918
928.655	0.0143494
928.733	0.0145163
928.811	0.0144285
928.889	0.0144539
928.967	0.0143239
929.045	0.0144478
929.123	0.0145011
929.201	0.0143549
929.280	0.0144827
929.358	0.0144279
929.436	0.0144781
929.514	0.0143526
929.592	0.0143836
929.670	0.0144562
929.748	0.0145335
929.826	0.0144361
929.905	0.0144007
929.983	0.0145758
930.061	0.0144846
930.139	0.0145259
930.217	0.0143098
930.295	0.0145257
930.373	0.0146820
930.451	0.0145864
930.530	0.0145138
930.608	0.0144744
930.686	0.0144707
930.764	0.0145686
930.842	0.0145377
930.920	0.0146050
930.998	0.0145992
931.076	0.0146289
931.155	0.0146342
931.233	0.0144227
931.311	0.0146031
931.389	0.0146622
931.467	0.0145782
931.545	0.0146188
931.623	0.0145429
931.701	0.0146561
931.780	0.0145745
931.858	0.0146835
931.936	0.0145457
932.014	0.0147053
932.092	0.0145422
932.170	0.0146128
932.248	0.0146080
932.326	0.0145626
932.405	0.0145489
932.483	0.0146812
932.561	0.0146376
932.639	0.0146420
932.717	0.0146568
932.795	0.0147632
932.873	0.0146132
932.951	0.0145261
933.030	0.0146764
933.108	0.0146040
933.186	0.0145200
933.264	0.0145609
933.342	0.0146029
933.420	0.0146575
933.498	0.0144381
933.576	0.0146215
933.655	0.0144986
933.733	0.0144693
933.811	0.0145618
933.889	0.0144520
933.967	0.0146545
934.045	0.0146217
934.123	0.0145423
934.201	0.0145340
934.280	0.0144525
934.358	0.0144760
934.436	0.0145002
934.514	0.0146559
934.592	0.0145336
934.670	0.0144379
934.748	0.0146328
934.826	0.0145783
934.905	0.0145454
934.983	0.0145066
935.061	0.0146971
935.139	0.0146408
935.217	0.0145185
935.295	0.0144998
935.373	0.0147253
935.451	0.0146032
935.530	0.0145664
935.608	0.0146549
935.686	0.0147039
935.764	0.0146126
935.842	0.0147031
935.920	0.0147543
935.998	0.0146918
936.076	0.0146070
936.155	0.0146262
936.233	0.0147511
936.311	0.0146310
936.389	0.0146491
936.467	0.0147298
936.545	0.0148070
936.623	0.0145817
936.701	0.0146732
936.780	0.0146788
936.858	0.0146265
936.936	0.0146835
937.014	0.0144871
937.092	0.0144910
937.170	0.0145344
937.248	0.0146622
937.326	0.0145041
937.405	0.0144072
937.483	0.0144669
937.561	0.0145441
937.639	0.0143553
937.717	0.0143472
937.795	0.0144425
937.873	0.0143355
937.951	0.0143694
938.030	0.0143466
938.108	0.0143349
938.186	0.0143468
938.264	0.0142926
938.342	0.0142852
938.420	0.0143737
938.498	0.0144080
938.576	0.0144170
938.655	0.0145934
938.733	0.0145031
938.811	0.0143011
938.889	0.0143443
938.967	0.0143870
939.045	0.0143616
939.123	0.0143538
939.201	0.0143732
939.280	0.0143763
939.358	0.0144833
939.436	0.0146127
939.514	0.0144767
939.592	0.0145042
939.670	0.0145161
939.748	0.0144631
939.826	0.0144620
939.905	0.0146359
939.983	0.0146132
940.061	0.0145644
940.139	0.0145178
940.217	0.0144809
940.295	0.0145522
940.373	0.0144560
940.451	0.0145454
940.530	0.0146354
940.608	0.0145142
940.686	0.0145159
940.764	0.0145975
940.842	0.0144454
940.920	0.0145586
940.998	0.0145788
941.076	0.0146188
941.155	0.0144415
941.233	0.0146494
941.311	0.0145049
941.389	0.0145489
941.467	0.0147191
941.545	0.0145869
941.623	0.0145364
941.701	0.0146568
941.780	0.0146927
941.858	0.0147260
941.936	0.0146768
942.014	0.0145441
942.092	0.0147157
942.170	0.0146641
942.248	0.0146278
942.326	0.0145719
942.405	0.0144939
942.483	0.0147586
942.561	0.0147249
942.639	0.0145909
942.717	0.0146997
942.795	0.0146373
942.873	0.0148179
942.951	0.0146441
943.030	0.0147253
943.108	0.0147501
943.186	0.0146337
943.264	0.0146636
943.342	0.0146998
943.420	0.0146024
943.498	0.0146651
943.576	0.0145942
943.655	0.0145896
943.733	0.0145582
943.811	0.0145786
943.889	0.0145140
943.967	0.0146177
944.045	0.0146412
944.123	0.0145534
944.201	0.0144658
944.280	0.0145477
944.358	0.0145204
944.436	0.0146210
944.514	0.0145146
944.592	0.0145329
944.670	0.0144743
944.748	0.0144683
944.826	0.0145667
944.905	0.0144759
944.983	0.0144573
945.061	0.0143690
945.139	0.0143987
945.217	0.0144246
945.295	0.0144140
945.373	0.0143021
945.451	0.0145386
945.530	0.0143232
945.608	0.0144241
945.686	0.0143396
945.764	0.0143942
945.842	0.0143810
945.920	0.0143253
945.998	0.0144042
946.076	0.0143283
946.155	0.0143720
946.233	0.0143505
946.311	0.0143591
946.389	0.0143126
946.467	0.0143271
946.545	0.0144250
946.623	0.0143759
946.701	0.0144691
946.780	0.0143396
946.858	0.0144471
946.936	0.0142825
947.014	0.0144023
947.092	0.0145480
947.170	0.0145467
947.248	0.0145536
947.326	0.0145886
947.405	0.0145638
947.483	0.0146127
947.561	0.0145862
947.639	0.0145265
947.717	0.0145367
947.795	0.0145821
947.873	0.0148011
947.951	0.0145148
948.030	0.0145918
948.108	0.0146835
948.186	0.0146176
948.264	0.0145493
948.342	0.0146848
948.420	0.0147621
948.498	0.0146314
948.576	0.0146252
948.655	0.0146458
948.733	0.0145811
948.811	0.0145895
948.889	0.0146154
948.967	0.0145697
949.045	0.0145353
949.123	0.0145393
949.201	0.0147474
949.280	0.0145786
949.358	0.0143631
949.436	0.0145329
949.514	0.0145945
949.592	0.0146112
949.670	0.0145090
949.748	0.0146817
949.826	0.0145273
949.905	0.0145029
949.983	0.0146426
950.061	0.0146188
950.139	0.0145309
950.217	0.0146724
950.295	0.0146570
950.373	0.0144371
950.451	0.0146315
950.530	0.0145074
950.608	0.0145477
950.686	0.0146400
950.764	0.0145609
950.842	0.0145764
950.920	0.0144616
950.998	0.0146355
951.076	0.0145723
951.155	0.0144311
951.233	0.0145838
951.311	0.0145667
951.389	0.0145649
951.467	0.0147150
951.545	0.0145683
951.623	0.0145281
951.701	0.0146242
951.780	0.0146620
951.858	0.0146456
951.936	0.0145925
952.014	0.0146896
952.092	0.0147143
952.170	0.0146692
952.248	0.0145144
952.326	0.0146500
952.405	0.0147723
952.483	0.0146125
952.561	0.0145866
952.639	0.0147123
952.717	0.0147536
952.795	0.0147464
952.873	0.0147015
952.951	0.0145521
953.030	0.0146523
953.108	0.0147224
953.186	0.0146986
953.264	0.0146920
953.342	0.0148131
953.420	0.0146928
953.498	0.0147330
953.576	0.0146049
953.655	0.0145629
953.733	0.0146931
953.811	0.0145876
953.889	0.0146654
953.967	0.0147208
954.045	0.0145786
954.123	0.0145690
954.201	0.0145661
954.280	0.0146270
954.358	0.0144693
954.436	0.0145798
954.514	0.0145451
954.592	0.0145224
954.670	0.0145490
954.748	0.0145461
954.826	0.0144313
954.905	0.0145053
954.983	0.0144609
955.061	0.0145348
955.139	0.0145564
955.217	0.0144237
955.295	0.0144280
955.373	0.0144712
955.451	0.0143581
955.530	0.0145502
955.608	0.0145065
955.686	0.0144981
955.764	0.0144590
955.842	0.0144038
955.920	0.0143147
955.998	0.0143177
956.076	0.0145821
956.155	0.0144720
956.233	0.0144597
956.311	0.0144369
956.389	0.0143848
956.467	0.0144115
956.545	0.0143329
956.623	0.0143014
956.701	0.0142905
956.780	0.0145461
956.858	0.0144657
956.936	0.0143581
957.014	0.0144813
957.092	0.0144755
957.170	0.0143301
957.248	0.0143342
957.326	0.0144823
957.405	0.0143968
957.483	0.0144368
957.561	0.0144054
957.639	0.0144219
957.717	0.0143613
957.795	0.0143897
957.873	0.0143925
957.951	0.0144140
958.030	0.0145018
958.108	0.0145123
958.186	0.0144283
958.264	0.0144907
958.342	0.0144174
958.420	0.0145120
958.498	0.0144559
958.576	0.0145729
958.655	0.0145091
958.733	0.0145434
958.811	0.0142083
958.889	0.0142992
958.967	0.0144975
959.045	0.0144714
959.123	0.0143995
959.201	0.0145206
959.280	0.0144769
959.358	0.0144200
959.436	0.0144112
959.514	0.0144373
959.592	0.0144508
959.670	0.0145467
959.748	0.0144048
959.826	0.0146254
959.905	0.0145464
