05/20/2022	16:10:06	Ver.	4.1	UNKNOWN
Optical Delay	639.982744	Delta X		0.078125	Sweeps	1	Scan Rate	0/0
Coordinates	Axis 1	NaN	Axis 2	NaN	Axis 3	NaN	Axis 4	NaN	Axis 5	NaN	Axis 6	0.000000
TX Power	0.000000	RX Power	0.000000

639.983	0.0148829
640.061	0.0149698
640.139	0.0148593
640.217	0.0148212
640.295	0.0148021
640.373	0.0147805
640.451	0.0148456
640.530	0.0148211
640.608	0.0149070
640.686	0.0148330
640.764	0.0149717
640.842	0.0148126
640.920	0.0148248
640.998	0.0149287
641.076	0.0148788
641.155	0.0149452
641.233	0.0148515
641.311	0.0148927
641.389	0.0149986
641.467	0.0150426
641.545	0.0148957
641.623	0.0148194
641.701	0.0149111
641.780	0.0148404
641.858	0.0148486
641.936	0.0149198
642.014	0.0149094
642.092	0.0148830
642.170	0.0149368
642.248	0.0149012
642.326	0.0149097
642.405	0.0149105
642.483	0.0148794
642.561	0.0149909
642.639	0.0148252
642.717	0.0148903
642.795	0.0148348
642.873	0.0149533
642.951	0.0148037
643.030	0.0148571
643.108	0.0149268
643.186	0.0149110
643.264	0.0149801
643.342	0.0148866
643.420	0.0149717
643.498	0.0148507
643.576	0.0147601
643.655	0.0148084
643.733	0.0148832
643.811	0.0147765
643.889	0.0148676
643.967	0.0148496
644.045	0.0148254
644.123	0.0148907
644.201	0.0149218
644.280	0.0148891
644.358	0.0148751
644.436	0.0148667
644.514	0.0147873
644.592	0.0148508
644.670	0.0149075
644.748	0.0148489
644.826	0.0148899
644.905	0.0147861
644.983	0.0147614
645.061	0.0148486
645.139	0.0148721
645.217	0.0148077
645.295	0.0149966
645.373	0.0147547
645.451	0.0148702
645.530	0.0148454
645.608	0.0147119
645.686	0.0148572
645.764	0.0148952
645.842	0.0148710
645.920	0.0147461
645.998	0.0146996
646.076	0.0148290
646.155	0.0148302
646.233	0.0148253
646.311	0.0148254
646.389	0.0148577
646.467	0.0148499
646.545	0.0149299
646.623	0.0149646
646.701	0.0149219
646.780	0.0148270
646.858	0.0147704
646.936	0.0148513
647.014	0.0147884
647.092	0.0148773
647.170	0.0148399
647.248	0.0147535
647.326	0.0148680
647.405	0.0149271
647.483	0.0149018
647.561	0.0149767
647.639	0.0148331
647.717	0.0149187
647.795	0.0150002
647.873	0.0148980
647.951	0.0148584
648.030	0.0149104
648.108	0.0148220
648.186	0.0149423
648.264	0.0149678
648.342	0.0150307
648.420	0.0148559
648.498	0.0148194
648.576	0.0147658
648.655	0.0148872
648.733	0.0149656
648.811	0.0150388
648.889	0.0147792
648.967	0.0149504
649.045	0.0148825
649.123	0.0148748
649.201	0.0147679
649.280	0.0149076
649.358	0.0150330
649.436	0.0147968
649.514	0.0148804
649.592	0.0149860
649.670	0.0148288
649.748	0.0148660
649.826	0.0147758
649.905	0.0148056
649.983	0.0149607
650.061	0.0149006
650.139	0.0149168
650.217	0.0148173
650.295	0.0149774
650.373	0.0150045
650.451	0.0148913
650.530	0.0149512
650.608	0.0149395
650.686	0.0149992
650.764	0.0149723
650.842	0.0149276
650.920	0.0149950
650.998	0.0148898
651.076	0.0148479
651.155	0.0149453
651.233	0.0150005
651.311	0.0148856
651.389	0.0149840
651.467	0.0148186
651.545	0.0148743
651.623	0.0149690
651.701	0.0149149
651.780	0.0147960
651.858	0.0148885
651.936	0.0149065
652.014	0.0148919
652.092	0.0150775
652.170	0.0149559
652.248	0.0149695
652.326	0.0149023
652.405	0.0149084
652.483	0.0149648
652.561	0.0148892
652.639	0.0148449
652.717	0.0150187
652.795	0.0149305
652.873	0.0148701
652.951	0.0148853
653.030	0.0148409
653.108	0.0149182
653.186	0.0148310
653.264	0.0149877
653.342	0.0149348
653.420	0.0149040
653.498	0.0149411
653.576	0.0148956
653.655	0.0148795
653.733	0.0147932
653.811	0.0149580
653.889	0.0148919
653.967	0.0148956
654.045	0.0148068
654.123	0.0149724
654.201	0.0148958
654.280	0.0148589
654.358	0.0148921
654.436	0.0149961
654.514	0.0149374
654.592	0.0148929
654.670	0.0148718
654.748	0.0149133
654.826	0.0148640
654.905	0.0149061
654.983	0.0148726
655.061	0.0149624
655.139	0.0149097
655.217	0.0148438
655.295	0.0148893
655.373	0.0149806
655.451	0.0148917
655.530	0.0149960
655.608	0.0148554
655.686	0.0148778
655.764	0.0149992
655.842	0.0148007
655.920	0.0147997
655.998	0.0149716
656.076	0.0148618
656.155	0.0150399
656.233	0.0149709
656.311	0.0150095
656.389	0.0149029
656.467	0.0149075
656.545	0.0148931
656.623	0.0148842
656.701	0.0149059
656.780	0.0149349
656.858	0.0149564
656.936	0.0147736
657.014	0.0148169
657.092	0.0148696
657.170	0.0150243
657.248	0.0149680
657.326	0.0148779
657.405	0.0148786
657.483	0.0148613
657.561	0.0148900
657.639	0.0148394
657.717	0.0148125
657.795	0.0149374
657.873	0.0147797
657.951	0.0148204
658.030	0.0149210
658.108	0.0148742
658.186	0.0148737
658.264	0.0149205
658.342	0.0149024
658.420	0.0147237
658.498	0.0149152
658.576	0.0148867
658.655	0.0147343
658.733	0.0147999
658.811	0.0149738
658.889	0.0148370
658.967	0.0148512
659.045	0.0147478
659.123	0.0148825
659.201	0.0148138
659.280	0.0147515
659.358	0.0148120
659.436	0.0147764
659.514	0.0149017
659.592	0.0148739
659.670	0.0149338
659.748	0.0148413
659.826	0.0147509
659.905	0.0149317
659.983	0.0148386
660.061	0.0148379
660.139	0.0148809
660.217	0.0148826
660.295	0.0148029
660.373	0.0149705
660.451	0.0150288
660.530	0.0148812
660.608	0.0147712
660.686	0.0148271
660.764	0.0150011
660.842	0.0148781
660.920	0.0147791
660.998	0.0148706
661.076	0.0148949
661.155	0.0147916
661.233	0.0148227
661.311	0.0147716
661.389	0.0148606
661.467	0.0149001
661.545	0.0148168
661.623	0.0148129
661.701	0.0148539
661.780	0.0148296
661.858	0.0148434
661.936	0.0148965
662.014	0.0150244
662.092	0.0148391
662.170	0.0147312
662.248	0.0148986
662.326	0.0147297
662.405	0.0148469
662.483	0.0147993
662.561	0.0148257
662.639	0.0149710
662.717	0.0149048
662.795	0.0146851
662.873	0.0149654
662.951	0.0147508
663.030	0.0148420
663.108	0.0148972
663.186	0.0148704
663.264	0.0148309
663.342	0.0148183
663.420	0.0148086
663.498	0.0148678
663.576	0.0149252
663.655	0.0147997
663.733	0.0148295
663.811	0.0149522
663.889	0.0146583
663.967	0.0147182
664.045	0.0150249
664.123	0.0149203
664.201	0.0148264
664.280	0.0148171
664.358	0.0148774
664.436	0.0148000
664.514	0.0148658
664.592	0.0149265
664.670	0.0149014
664.748	0.0148130
664.826	0.0148327
664.905	0.0148991
664.983	0.0148111
665.061	0.0148821
665.139	0.0147810
665.217	0.0147856
665.295	0.0148855
665.373	0.0149973
665.451	0.0148816
665.530	0.0148860
665.608	0.0148674
665.686	0.0148392
665.764	0.0147903
665.842	0.0148828
665.920	0.0149353
665.998	0.0148576
666.076	0.0148225
666.155	0.0148620
666.233	0.0147908
666.311	0.0148103
666.389	0.0148389
666.467	0.0148453
666.545	0.0149117
666.623	0.0148027
666.701	0.0148425
666.780	0.0149162
666.858	0.0147454
666.936	0.0149010
667.014	0.0149001
667.092	0.0148696
667.170	0.0149032
667.248	0.0148702
667.326	0.0148710
667.405	0.0149021
667.483	0.0149459
667.561	0.0148312
667.639	0.0147803
667.717	0.0148193
667.795	0.0148212
667.873	0.0149953
667.951	0.0148856
668.030	0.0148211
668.108	0.0146993
668.186	0.0148895
668.264	0.0150394
668.342	0.0148265
668.420	0.0148509
668.498	0.0149206
668.576	0.0148747
668.655	0.0148272
668.733	0.0148330
668.811	0.0148076
668.889	0.0148836
668.967	0.0148608
669.045	0.0149315
669.123	0.0149885
669.201	0.0148904
669.280	0.0149532
669.358	0.0149113
669.436	0.0148921
669.514	0.0147586
669.592	0.0148748
669.670	0.0148624
669.748	0.0149850
669.826	0.0150155
669.905	0.0150282
669.983	0.0149196
670.061	0.0149550
670.139	0.0149364
670.217	0.0149343
670.295	0.0149466
670.373	0.0147505
670.451	0.0148289
670.530	0.0148488
670.608	0.0148453
670.686	0.0149811
670.764	0.0149894
670.842	0.0149804
670.920	0.0149901
670.998	0.0148584
671.076	0.0149386
671.155	0.0148014
671.233	0.0147729
671.311	0.0147432
671.389	0.0149098
671.467	0.0148601
671.545	0.0148684
671.623	0.0148927
671.701	0.0149603
671.780	0.0149364
671.858	0.0149953
671.936	0.0147888
672.014	0.0146873
672.092	0.0148389
672.170	0.0149221
672.248	0.0149557
672.326	0.0147749
672.405	0.0148382
672.483	0.0149278
672.561	0.0149142
672.639	0.0147380
672.717	0.0148983
672.795	0.0148772
672.873	0.0149850
672.951	0.0149213
673.030	0.0149155
673.108	0.0149419
673.186	0.0148846
673.264	0.0149686
673.342	0.0150087
673.420	0.0149115
673.498	0.0149522
673.576	0.0147848
673.655	0.0148645
673.733	0.0148434
673.811	0.0148959
673.889	0.0148577
673.967	0.0148791
674.045	0.0148980
674.123	0.0149248
674.201	0.0148090
674.280	0.0147568
674.358	0.0148508
674.436	0.0149279
674.514	0.0149248
674.592	0.0148156
674.670	0.0149342
674.748	0.0148083
674.826	0.0147462
674.905	0.0147799
674.983	0.0147128
675.061	0.0149125
675.139	0.0150291
675.217	0.0149802
675.295	0.0149349
675.373	0.0149762
675.451	0.0148332
675.530	0.0148339
675.608	0.0149260
675.686	0.0150761
675.764	0.0149281
675.842	0.0148201
675.920	0.0148662
675.998	0.0147797
676.076	0.0147648
676.155	0.0148178
676.233	0.0148071
676.311	0.0149760
676.389	0.0148598
676.467	0.0148544
676.545	0.0149050
676.623	0.0149190
676.701	0.0148659
676.780	0.0149681
676.858	0.0149461
676.936	0.0149268
677.014	0.0148595
677.092	0.0147300
677.170	0.0147850
677.248	0.0148338
677.326	0.0149703
677.405	0.0148248
677.483	0.0149269
677.561	0.0148972
677.639	0.0148389
677.717	0.0148258
677.795	0.0148845
677.873	0.0149505
677.951	0.0147787
678.030	0.0148441
678.108	0.0149867
678.186	0.0149115
678.264	0.0147372
678.342	0.0149831
678.420	0.0149129
678.498	0.0147524
678.576	0.0148942
678.655	0.0149027
678.733	0.0148817
678.811	0.0149609
678.889	0.0148047
678.967	0.0147011
679.045	0.0148251
679.123	0.0147897
679.201	0.0148605
679.280	0.0148428
679.358	0.0149880
679.436	0.0148900
679.514	0.0147536
679.592	0.0149275
679.670	0.0147975
679.748	0.0147449
679.826	0.0147234
679.905	0.0148446
679.983	0.0148195
680.061	0.0148119
680.139	0.0148163
680.217	0.0148957
680.295	0.0148643
680.373	0.0148047
680.451	0.0149172
680.530	0.0148229
680.608	0.0148945
680.686	0.0149218
680.764	0.0148550
680.842	0.0148905
680.920	0.0148801
680.998	0.0147827
681.076	0.0148478
681.155	0.0148052
681.233	0.0149062
681.311	0.0148767
681.389	0.0148640
681.467	0.0148717
681.545	0.0147982
681.623	0.0148553
681.701	0.0149411
681.780	0.0148587
681.858	0.0149713
681.936	0.0148324
682.014	0.0149045
682.092	0.0148419
682.170	0.0148576
682.248	0.0149006
682.326	0.0148527
682.405	0.0148314
682.483	0.0149110
682.561	0.0148412
682.639	0.0148849
682.717	0.0148343
682.795	0.0149516
682.873	0.0147831
682.951	0.0146765
683.030	0.0148078
683.108	0.0150401
683.186	0.0148151
683.264	0.0147993
683.342	0.0148354
683.420	0.0149565
683.498	0.0148112
683.576	0.0149581
683.655	0.0147882
683.733	0.0148006
683.811	0.0149147
683.889	0.0149213
683.967	0.0149572
684.045	0.0148299
684.123	0.0149862
684.201	0.0149005
684.280	0.0148132
684.358	0.0149538
684.436	0.0148271
684.514	0.0147633
684.592	0.0148514
684.670	0.0148669
684.748	0.0148659
684.826	0.0148574
684.905	0.0149367
684.983	0.0149700
685.061	0.0148408
685.139	0.0148389
685.217	0.0149358
685.295	0.0149065
685.373	0.0149255
685.451	0.0148711
685.530	0.0147435
685.608	0.0146812
685.686	0.0148540
685.764	0.0150881
685.842	0.0150129
685.920	0.0148223
685.998	0.0147922
686.076	0.0148085
686.155	0.0146819
686.233	0.0147495
686.311	0.0149385
686.389	0.0148323
686.467	0.0147656
686.545	0.0149158
686.623	0.0147592
686.701	0.0147731
686.780	0.0147917
686.858	0.0147108
686.936	0.0146998
687.014	0.0148212
687.092	0.0148987
687.170	0.0147895
687.248	0.0147637
687.326	0.0147609
687.405	0.0148779
687.483	0.0149334
687.561	0.0149956
687.639	0.0150056
687.717	0.0151220
687.795	0.0151711
687.873	0.0151547
687.951	0.0153920
688.030	0.0154095
688.108	0.0153568
688.186	0.0153300
688.264	0.0152264
688.342	0.0153297
688.420	0.0151982
688.498	0.0150790
688.576	0.0149236
688.655	0.0146368
688.733	0.0143607
688.811	0.0143980
688.889	0.0141194
688.967	0.0138714
689.045	0.0137305
689.123	0.0135289
689.201	0.0133395
689.280	0.0134761
689.358	0.0134022
689.436	0.0137260
689.514	0.0139513
689.592	0.0143813
689.670	0.0146156
689.748	0.0152713
689.826	0.0158030
689.905	0.0161337
689.983	0.0167593
690.061	0.0171272
690.139	0.0175283
690.217	0.0178551
690.295	0.0179979
690.373	0.0178830
690.451	0.0176961
690.530	0.0173518
690.608	0.0169535
690.686	0.0163870
690.764	0.0157305
690.842	0.0151464
690.920	0.0146101
690.998	0.0139577
691.076	0.0133559
691.155	0.0129638
691.233	0.0125686
691.311	0.0123073
691.389	0.0118147
691.467	0.0116846
691.545	0.0115709
691.623	0.0113412
691.701	0.0112482
691.780	0.0114098
691.858	0.0112473
691.936	0.0114825
692.014	0.0117150
692.092	0.0119424
692.170	0.0122219
692.248	0.0128142
692.326	0.0134676
692.405	0.0142822
692.483	0.0153170
692.561	0.0162810
692.639	0.0173855
692.717	0.0183166
692.795	0.0194653
692.873	0.0202850
692.951	0.0211939
693.030	0.0217429
693.108	0.0220224
693.186	0.0221459
693.264	0.0220079
693.342	0.0214208
693.420	0.0208973
693.498	0.0201360
693.576	0.0191365
693.655	0.0180460
693.733	0.0167898
693.811	0.0157250
693.889	0.0146722
693.967	0.0134081
694.045	0.0124358
694.123	0.0113750
694.201	0.0105500
694.280	0.00973343
694.358	0.00911011
694.436	0.00846939
694.514	0.00784309
694.592	0.00766624
694.670	0.00749153
694.748	0.00746582
694.826	0.00746300
694.905	0.00773140
694.983	0.00803284
695.061	0.00856270
695.139	0.00927856
695.217	0.00999550
695.295	0.0108877
695.373	0.0117213
695.451	0.0126540
695.530	0.0136787
695.608	0.0149406
695.686	0.0160941
695.764	0.0172328
695.842	0.0183308
695.920	0.0194386
695.998	0.0204114
696.076	0.0214931
696.155	0.0222622
696.233	0.0232089
696.311	0.0238754
696.389	0.0244933
696.467	0.0251622
696.545	0.0252541
696.623	0.0252081
696.701	0.0248797
696.780	0.0245683
696.858	0.0237331
696.936	0.0225523
697.014	0.0211816
697.092	0.0196757
697.170	0.0179646
697.248	0.0160022
697.326	0.0143029
697.405	0.0127401
697.483	0.0109001
697.561	0.00944626
697.639	0.00843033
697.717	0.00724373
697.795	0.00663689
697.873	0.00624985
697.951	0.00598404
698.030	0.00608711
698.108	0.00628281
698.186	0.00655273
698.264	0.00699089
698.342	0.00730888
698.420	0.00772018
698.498	0.00779366
698.576	0.00825790
698.655	0.00852707
698.733	0.00864647
698.811	0.00900368
698.889	0.00934250
698.967	0.00991302
699.045	0.0107302
699.123	0.0114055
699.201	0.0122101
699.280	0.0132619
699.358	0.0146197
699.436	0.0158321
699.514	0.0170439
699.592	0.0184335
699.670	0.0197977
699.748	0.0209309
699.826	0.0219929
699.905	0.0228588
699.983	0.0235892
700.061	0.0244257
700.139	0.0247633
700.217	0.0251891
700.295	0.0253624
700.373	0.0253192
700.451	0.0254597
700.530	0.0252378
700.608	0.0251637
700.686	0.0244595
700.764	0.0238825
700.842	0.0229181
700.920	0.0217654
700.998	0.0205264
701.076	0.0191213
701.155	0.0175903
701.233	0.0156499
701.311	0.0138582
701.389	0.0120973
701.467	0.0103860
701.545	0.00864510
701.623	0.00716003
701.701	0.00596046
701.780	0.00506790
701.858	0.00438499
701.936	0.00398148
702.014	0.00379143
702.092	0.00393974
702.170	0.00437302
702.248	0.00499313
702.326	0.00566422
702.405	0.00629807
702.483	0.00725159
702.561	0.00817787
702.639	0.00887085
702.717	0.00962860
702.795	0.0103068
702.873	0.0109358
702.951	0.0115987
703.030	0.0120676
703.108	0.0125352
703.186	0.0131331
703.264	0.0136055
703.342	0.0141724
703.420	0.0149402
703.498	0.0159081
703.576	0.0169304
703.655	0.0176955
703.733	0.0187055
703.811	0.0199551
703.889	0.0210886
703.967	0.0219344
704.045	0.0227284
704.123	0.0235002
704.201	0.0239974
704.280	0.0242822
704.358	0.0244176
704.436	0.0245925
704.514	0.0245376
704.592	0.0240598
704.670	0.0236366
704.748	0.0232019
704.826	0.0226833
704.905	0.0220074
704.983	0.0212127
705.061	0.0203690
705.139	0.0194204
705.217	0.0182462
705.295	0.0171095
705.373	0.0157073
705.451	0.0143194
705.530	0.0129944
705.608	0.0115253
705.686	0.0101234
705.764	0.00875320
705.842	0.00763100
705.920	0.00660393
705.998	0.00588554
706.076	0.00529572
706.155	0.00491295
706.233	0.00499855
706.311	0.00509315
706.389	0.00551819
706.467	0.00600266
706.545	0.00675896
706.623	0.00774216
706.701	0.00868423
706.780	0.00969421
706.858	0.0106893
706.936	0.0115958
707.014	0.0126756
707.092	0.0136297
707.170	0.0143682
707.248	0.0148178
707.326	0.0153970
707.405	0.0158339
707.483	0.0162685
707.561	0.0165078
707.639	0.0166310
707.717	0.0170230
707.795	0.0173440
707.873	0.0176077
707.951	0.0179084
708.030	0.0182653
708.108	0.0186632
708.186	0.0188718
708.264	0.0191553
708.342	0.0195791
708.420	0.0197486
708.498	0.0198679
708.576	0.0199821
708.655	0.0199405
708.733	0.0197131
708.811	0.0197253
708.889	0.0195113
708.967	0.0191490
709.045	0.0189046
709.123	0.0185116
709.201	0.0179308
709.280	0.0174276
709.358	0.0169739
709.436	0.0162864
709.514	0.0155358
709.592	0.0147849
709.670	0.0142386
709.748	0.0137065
709.826	0.0129299
709.905	0.0122736
709.983	0.0117484
710.061	0.0112461
710.139	0.0107900
710.217	0.0104334
710.295	0.0103488
710.373	0.0103654
710.451	0.0103751
710.530	0.0105809
710.608	0.0108762
710.686	0.0112331
710.764	0.0116057
710.842	0.0120014
710.920	0.0127802
710.998	0.0130672
711.076	0.0134273
711.155	0.0140712
711.233	0.0143518
711.311	0.0147153
711.389	0.0151266
711.467	0.0153310
711.545	0.0156403
711.623	0.0158630
711.701	0.0159724
711.780	0.0160696
711.858	0.0162160
711.936	0.0160984
712.014	0.0161354
712.092	0.0159254
712.170	0.0158497
712.248	0.0159116
712.326	0.0158847
712.405	0.0157648
712.483	0.0158066
712.561	0.0158447
712.639	0.0156684
712.717	0.0157884
712.795	0.0157763
712.873	0.0160406
712.951	0.0160603
713.030	0.0161528
713.108	0.0161537
713.186	0.0160634
713.264	0.0158482
713.342	0.0158043
713.420	0.0156448
713.498	0.0154598
713.576	0.0151427
713.655	0.0149548
713.733	0.0146210
713.811	0.0142993
713.889	0.0140121
713.967	0.0136646
714.045	0.0133745
714.123	0.0131921
714.201	0.0132057
714.280	0.0132481
714.358	0.0131403
714.436	0.0131982
714.514	0.0133324
714.592	0.0135529
714.670	0.0137643
714.748	0.0139507
714.826	0.0142011
714.905	0.0143880
714.983	0.0146018
715.061	0.0146862
715.139	0.0150491
715.217	0.0151270
715.295	0.0150249
715.373	0.0152113
715.451	0.0154758
715.530	0.0155900
715.608	0.0156089
715.686	0.0156006
715.764	0.0158285
715.842	0.0158401
715.920	0.0157645
715.998	0.0158804
716.076	0.0160677
716.155	0.0159872
716.233	0.0157185
716.311	0.0157278
716.389	0.0155037
716.467	0.0153064
716.545	0.0151020
716.623	0.0148122
716.701	0.0145437
716.780	0.0146017
716.858	0.0144056
716.936	0.0143433
717.014	0.0141860
717.092	0.0143604
717.170	0.0143882
717.248	0.0145782
717.326	0.0148116
717.405	0.0150767
717.483	0.0151011
717.561	0.0152736
717.639	0.0153468
717.717	0.0155075
717.795	0.0152640
717.873	0.0152759
717.951	0.0153524
718.030	0.0150932
718.108	0.0149687
718.186	0.0148956
718.264	0.0148842
718.342	0.0146766
718.420	0.0146566
718.498	0.0145546
718.576	0.0145213
718.655	0.0145435
718.733	0.0144959
718.811	0.0146200
718.889	0.0144523
718.967	0.0146261
719.045	0.0147262
719.123	0.0145756
719.201	0.0146269
719.280	0.0145524
719.358	0.0144691
719.436	0.0143167
719.514	0.0143712
719.592	0.0143032
719.670	0.0143597
719.748	0.0142034
719.826	0.0141668
719.905	0.0142948
719.983	0.0141197
720.061	0.0143519
720.139	0.0144579
720.217	0.0144388
720.295	0.0145199
720.373	0.0149106
720.451	0.0150052
720.530	0.0150972
720.608	0.0152852
720.686	0.0152863
720.764	0.0153638
720.842	0.0152879
720.920	0.0152729
720.998	0.0153526
721.076	0.0151608
721.155	0.0150930
721.233	0.0150632
721.311	0.0150481
721.389	0.0150835
721.467	0.0150447
721.545	0.0149653
721.623	0.0151817
721.701	0.0153368
721.780	0.0153184
721.858	0.0153809
721.936	0.0155012
722.014	0.0157156
722.092	0.0157628
722.170	0.0158619
722.248	0.0157912
722.326	0.0157903
722.405	0.0157477
722.483	0.0156743
722.561	0.0155663
722.639	0.0154123
722.717	0.0153016
722.795	0.0151414
722.873	0.0149130
722.951	0.0147670
723.030	0.0146991
723.108	0.0143644
723.186	0.0141908
723.264	0.0141557
723.342	0.0140572
723.420	0.0140059
723.498	0.0138638
723.576	0.0139307
723.655	0.0141130
723.733	0.0139854
723.811	0.0141086
723.889	0.0141381
723.967	0.0142263
724.045	0.0143928
724.123	0.0144070
724.201	0.0146076
724.280	0.0146115
724.358	0.0146883
724.436	0.0148294
724.514	0.0149105
724.592	0.0148895
724.670	0.0149241
724.748	0.0149864
724.826	0.0147427
724.905	0.0148557
724.983	0.0149708
725.061	0.0150468
725.139	0.0150317
725.217	0.0149524
725.295	0.0148702
725.373	0.0149677
725.451	0.0147602
725.530	0.0147345
725.608	0.0147377
725.686	0.0149065
725.764	0.0148654
725.842	0.0148389
725.920	0.0147932
725.998	0.0150114
726.076	0.0149968
726.155	0.0149225
726.233	0.0149156
726.311	0.0151140
726.389	0.0150430
726.467	0.0149281
726.545	0.0149216
726.623	0.0149164
726.701	0.0149706
726.780	0.0147926
726.858	0.0149921
726.936	0.0146811
727.014	0.0148179
727.092	0.0147701
727.170	0.0147674
727.248	0.0147823
727.326	0.0147499
727.405	0.0149269
727.483	0.0149001
727.561	0.0149819
727.639	0.0150679
727.717	0.0152741
727.795	0.0154403
727.873	0.0154980
727.951	0.0156626
728.030	0.0156966
728.108	0.0158459
728.186	0.0159064
728.264	0.0158510
728.342	0.0159682
728.420	0.0159981
728.498	0.0158633
728.576	0.0156732
728.655	0.0156142
728.733	0.0154361
728.811	0.0152298
728.889	0.0149883
728.967	0.0146604
729.045	0.0144783
729.123	0.0143767
729.201	0.0140585
729.280	0.0140240
729.358	0.0138990
729.436	0.0137841
729.514	0.0138950
729.592	0.0140858
729.670	0.0140705
729.748	0.0138703
729.826	0.0142265
729.905	0.0142542
729.983	0.0144197
730.061	0.0144624
730.139	0.0144440
730.217	0.0145525
730.295	0.0146008
730.373	0.0143672
730.451	0.0145246
730.530	0.0145930
730.608	0.0143826
730.686	0.0146368
730.764	0.0147562
730.842	0.0146780
730.920	0.0146927
730.998	0.0147811
731.076	0.0149203
731.155	0.0149763
731.233	0.0150983
731.311	0.0152200
731.389	0.0153159
731.467	0.0152519
731.545	0.0154146
731.623	0.0154050
731.701	0.0154033
731.780	0.0156281
731.858	0.0157581
731.936	0.0156947
732.014	0.0157728
732.092	0.0156767
732.170	0.0157088
732.248	0.0156034
732.326	0.0155138
732.405	0.0154964
732.483	0.0153741
732.561	0.0151748
732.639	0.0148844
732.717	0.0149423
732.795	0.0148494
732.873	0.0147212
732.951	0.0146996
733.030	0.0144202
733.108	0.0143800
733.186	0.0142979
733.264	0.0142756
733.342	0.0141848
733.420	0.0141483
733.498	0.0145090
733.576	0.0144374
733.655	0.0145718
733.733	0.0146809
733.811	0.0146718
733.889	0.0147458
733.967	0.0148973
734.045	0.0150577
734.123	0.0151366
734.201	0.0150974
734.280	0.0151521
734.358	0.0150735
734.436	0.0150712
734.514	0.0150181
734.592	0.0150224
734.670	0.0149850
734.748	0.0149917
734.826	0.0148672
734.905	0.0147856
734.983	0.0148785
735.061	0.0146837
735.139	0.0146995
735.217	0.0147793
735.295	0.0146745
735.373	0.0145961
735.451	0.0148286
735.530	0.0146931
735.608	0.0148895
735.686	0.0145648
735.764	0.0146705
735.842	0.0148214
735.920	0.0147921
735.998	0.0147511
736.076	0.0148368
736.155	0.0148637
736.233	0.0147319
736.311	0.0147324
736.389	0.0148370
736.467	0.0148316
736.545	0.0147295
736.623	0.0148775
736.701	0.0148312
736.780	0.0148280
736.858	0.0149674
736.936	0.0149192
737.014	0.0149118
737.092	0.0149094
737.170	0.0148358
737.248	0.0149776
737.326	0.0150760
737.405	0.0148566
737.483	0.0149106
737.561	0.0149533
737.639	0.0149473
737.717	0.0150079
737.795	0.0150233
737.873	0.0150749
737.951	0.0150184
738.030	0.0149039
738.108	0.0150429
738.186	0.0150261
738.264	0.0150035
738.342	0.0149081
738.420	0.0147762
738.498	0.0147452
738.576	0.0147306
738.655	0.0147646
738.733	0.0146259
738.811	0.0148186
738.889	0.0148507
738.967	0.0145968
739.045	0.0146786
739.123	0.0145179
739.201	0.0145463
739.280	0.0146201
739.358	0.0143861
739.436	0.0144121
739.514	0.0144486
739.592	0.0144315
739.670	0.0146465
739.748	0.0146175
739.826	0.0146590
739.905	0.0145722
739.983	0.0148357
740.061	0.0148988
740.139	0.0149402
740.217	0.0150326
740.295	0.0151765
740.373	0.0153036
740.451	0.0152747
740.530	0.0151785
740.608	0.0152781
740.686	0.0151376
740.764	0.0152139
740.842	0.0151221
740.920	0.0152216
740.998	0.0150446
741.076	0.0150035
741.155	0.0149685
741.233	0.0149657
741.311	0.0147977
741.389	0.0150137
741.467	0.0149068
741.545	0.0147886
741.623	0.0147947
741.701	0.0148998
741.780	0.0149523
741.858	0.0149823
741.936	0.0150288
742.014	0.0150236
742.092	0.0149109
742.170	0.0148631
742.248	0.0147186
742.326	0.0147913
742.405	0.0147890
742.483	0.0147136
742.561	0.0146352
742.639	0.0146015
742.717	0.0146831
742.795	0.0145698
742.873	0.0146047
742.951	0.0146214
743.030	0.0146468
743.108	0.0145193
743.186	0.0144607
743.264	0.0145812
743.342	0.0147054
743.420	0.0146034
743.498	0.0145927
743.576	0.0146097
743.655	0.0147640
743.733	0.0147443
743.811	0.0147851
743.889	0.0147495
743.967	0.0149279
744.045	0.0150613
744.123	0.0151594
744.201	0.0151463
744.280	0.0151341
744.358	0.0151859
744.436	0.0152730
744.514	0.0151899
744.592	0.0151940
744.670	0.0153286
744.748	0.0152945
744.826	0.0151639
744.905	0.0151532
744.983	0.0151862
745.061	0.0151775
745.139	0.0149752
745.217	0.0150951
745.295	0.0150703
745.373	0.0149059
745.451	0.0148138
745.530	0.0148482
745.608	0.0148449
745.686	0.0148186
745.764	0.0146899
745.842	0.0147489
745.920	0.0147385
745.998	0.0146461
746.076	0.0146838
746.155	0.0147386
746.233	0.0146486
746.311	0.0145820
746.389	0.0144979
746.467	0.0145200
746.545	0.0144920
746.623	0.0145057
746.701	0.0144533
746.780	0.0145654
746.858	0.0144965
746.936	0.0143999
747.014	0.0145892
747.092	0.0147253
747.170	0.0147194
747.248	0.0146432
747.326	0.0148188
747.405	0.0147424
747.483	0.0147549
747.561	0.0148509
747.639	0.0149769
747.717	0.0149870
747.795	0.0149099
747.873	0.0150314
747.951	0.0151516
748.030	0.0152477
748.108	0.0151015
748.186	0.0152621
748.264	0.0151976
748.342	0.0150662
748.420	0.0151731
748.498	0.0152657
748.576	0.0151483
748.655	0.0151513
748.733	0.0151737
748.811	0.0151220
748.889	0.0150261
748.967	0.0151726
749.045	0.0153693
749.123	0.0152881
749.201	0.0150453
749.280	0.0151498
749.358	0.0151074
749.436	0.0151598
749.514	0.0151317
749.592	0.0150341
749.670	0.0150681
749.748	0.0149819
749.826	0.0150056
749.905	0.0150019
749.983	0.0149127
750.061	0.0149388
750.139	0.0150140
750.217	0.0149951
750.295	0.0148248
750.373	0.0148032
750.451	0.0148058
750.530	0.0148091
750.608	0.0146051
750.686	0.0146359
750.764	0.0146861
750.842	0.0146760
750.920	0.0147299
750.998	0.0146776
751.076	0.0146313
751.155	0.0146462
751.233	0.0146030
751.311	0.0147794
751.389	0.0146515
751.467	0.0145812
751.545	0.0146868
751.623	0.0147633
751.701	0.0146143
751.780	0.0146513
751.858	0.0147722
751.936	0.0148889
752.014	0.0147180
752.092	0.0147298
752.170	0.0148961
752.248	0.0148336
752.326	0.0148422
752.405	0.0149771
752.483	0.0149314
752.561	0.0150181
752.639	0.0148280
752.717	0.0149049
752.795	0.0150275
752.873	0.0151450
752.951	0.0151325
753.030	0.0151863
753.108	0.0151453
753.186	0.0151401
753.264	0.0152329
753.342	0.0151631
753.420	0.0152025
753.498	0.0152611
753.576	0.0154234
753.655	0.0151354
753.733	0.0150856
753.811	0.0152047
753.889	0.0150787
753.967	0.0151312
754.045	0.0150060
754.123	0.0149319
754.201	0.0148751
754.280	0.0147520
754.358	0.0149706
754.436	0.0148121
754.514	0.0149760
754.592	0.0149194
754.670	0.0148052
754.748	0.0147212
754.826	0.0146573
754.905	0.0148367
754.983	0.0148061
755.061	0.0147900
755.139	0.0147758
755.217	0.0147236
755.295	0.0148705
755.373	0.0148453
755.451	0.0147465
755.530	0.0147494
755.608	0.0148318
755.686	0.0147571
755.764	0.0146877
755.842	0.0148280
755.920	0.0147717
755.998	0.0147187
756.076	0.0147980
756.155	0.0148195
756.233	0.0147395
756.311	0.0147558
756.389	0.0148615
756.467	0.0148895
756.545	0.0148167
756.623	0.0149446
756.701	0.0149243
756.780	0.0148851
756.858	0.0148713
756.936	0.0149922
757.014	0.0150312
757.092	0.0150360
757.170	0.0150186
757.248	0.0149881
757.326	0.0150135
757.405	0.0150331
757.483	0.0149426
757.561	0.0149744
757.639	0.0149248
757.717	0.0148067
757.795	0.0147861
757.873	0.0147889
757.951	0.0147590
758.030	0.0148396
758.108	0.0147311
758.186	0.0148648
758.264	0.0147987
758.342	0.0148043
758.420	0.0147163
758.498	0.0147189
758.576	0.0147063
758.655	0.0146461
758.733	0.0148345
758.811	0.0147567
758.889	0.0146750
758.967	0.0148247
759.045	0.0147598
759.123	0.0147941
759.201	0.0147322
759.280	0.0146753
759.358	0.0148540
759.436	0.0148773
759.514	0.0147716
759.592	0.0148609
759.670	0.0148853
759.748	0.0148471
759.826	0.0148152
759.905	0.0149843
759.983	0.0150317
760.061	0.0150220
760.139	0.0151028
760.217	0.0150612
760.295	0.0150769
760.373	0.0151646
760.451	0.0150755
760.530	0.0150744
760.608	0.0151146
760.686	0.0151648
760.764	0.0149986
760.842	0.0150346
760.920	0.0150800
760.998	0.0150330
761.076	0.0148833
761.155	0.0148267
761.233	0.0149512
761.311	0.0149397
761.389	0.0149094
761.467	0.0147993
761.545	0.0149580
761.623	0.0147960
761.701	0.0148817
761.780	0.0149290
761.858	0.0148462
761.936	0.0147672
762.014	0.0148019
762.092	0.0146757
762.170	0.0146733
762.248	0.0146854
762.326	0.0146371
762.405	0.0145431
762.483	0.0145704
762.561	0.0145821
762.639	0.0144849
762.717	0.0146606
762.795	0.0145435
762.873	0.0145023
762.951	0.0146645
763.030	0.0146243
763.108	0.0145383
763.186	0.0147063
763.264	0.0144970
763.342	0.0146468
763.420	0.0147345
763.498	0.0147980
763.576	0.0148266
763.655	0.0148330
763.733	0.0147517
763.811	0.0148695
763.889	0.0149255
763.967	0.0148528
764.045	0.0149710
764.123	0.0151170
764.201	0.0151249
764.280	0.0150280
764.358	0.0151447
764.436	0.0151165
764.514	0.0152002
764.592	0.0151408
764.670	0.0150629
764.748	0.0152330
764.826	0.0150958
764.905	0.0151070
764.983	0.0150463
765.061	0.0151034
765.139	0.0151431
765.217	0.0149004
765.295	0.0151735
765.373	0.0148648
765.451	0.0150713
765.530	0.0150267
765.608	0.0149501
765.686	0.0150523
765.764	0.0149590
765.842	0.0149620
765.920	0.0149013
765.998	0.0149353
766.076	0.0147026
766.155	0.0147389
766.233	0.0147892
766.311	0.0147343
766.389	0.0147025
766.467	0.0146635
766.545	0.0145883
766.623	0.0146555
766.701	0.0146349
766.780	0.0146931
766.858	0.0146616
766.936	0.0146291
767.014	0.0146227
767.092	0.0147321
767.170	0.0148276
767.248	0.0147179
767.326	0.0146976
767.405	0.0147057
767.483	0.0148159
767.561	0.0148855
767.639	0.0148700
767.717	0.0148531
767.795	0.0148568
767.873	0.0148269
767.951	0.0148050
768.030	0.0147263
768.108	0.0149472
768.186	0.0147884
768.264	0.0147685
768.342	0.0148114
768.420	0.0147989
768.498	0.0147174
768.576	0.0147630
768.655	0.0147586
768.733	0.0149427
768.811	0.0147673
768.889	0.0148188
768.967	0.0148271
769.045	0.0149315
769.123	0.0150658
769.201	0.0150140
769.280	0.0150132
769.358	0.0150109
769.436	0.0150706
769.514	0.0150555
769.592	0.0149458
769.670	0.0151833
769.748	0.0150904
769.826	0.0151422
769.905	0.0150681
769.983	0.0149488
770.061	0.0148335
770.139	0.0149683
770.217	0.0148818
770.295	0.0148247
770.373	0.0147099
770.451	0.0146556
770.530	0.0146010
770.608	0.0146996
770.686	0.0146619
770.764	0.0146268
770.842	0.0147043
770.920	0.0145299
770.998	0.0147623
771.076	0.0145966
771.155	0.0146338
771.233	0.0146426
771.311	0.0148284
771.389	0.0148674
771.467	0.0147094
771.545	0.0147013
771.623	0.0149030
771.701	0.0148958
771.780	0.0148977
771.858	0.0149869
771.936	0.0149417
772.014	0.0149342
772.092	0.0149355
772.170	0.0151268
772.248	0.0151551
772.326	0.0150820
772.405	0.0151507
772.483	0.0151370
772.561	0.0150996
772.639	0.0151043
772.717	0.0151374
772.795	0.0151019
772.873	0.0151247
772.951	0.0150515
773.030	0.0150130
773.108	0.0149863
773.186	0.0150085
773.264	0.0149451
773.342	0.0149252
773.420	0.0149623
773.498	0.0148203
773.576	0.0149146
773.655	0.0148616
773.733	0.0147723
773.811	0.0148111
773.889	0.0146217
773.967	0.0145791
774.045	0.0146826
774.123	0.0146422
774.201	0.0146740
774.280	0.0145477
774.358	0.0146101
774.436	0.0146523
774.514	0.0145969
774.592	0.0146736
774.670	0.0146352
774.748	0.0146553
774.826	0.0147707
774.905	0.0146880
774.983	0.0146782
775.061	0.0147161
775.139	0.0146757
775.217	0.0149493
775.295	0.0148010
775.373	0.0147598
775.451	0.0146530
775.530	0.0147867
775.608	0.0148886
775.686	0.0147911
775.764	0.0148225
775.842	0.0147680
775.920	0.0150081
775.998	0.0150609
776.076	0.0149890
776.155	0.0148766
776.233	0.0148706
776.311	0.0150823
776.389	0.0149586
776.467	0.0149125
776.545	0.0147946
776.623	0.0148566
776.701	0.0148348
776.780	0.0149304
776.858	0.0149571
776.936	0.0150018
777.014	0.0149234
777.092	0.0150277
777.170	0.0150577
777.248	0.0150358
777.326	0.0150580
777.405	0.0151662
777.483	0.0151083
777.561	0.0150421
777.639	0.0150587
777.717	0.0149644
777.795	0.0150046
777.873	0.0149556
777.951	0.0148193
778.030	0.0148454
778.108	0.0149749
778.186	0.0148951
778.264	0.0147246
778.342	0.0147481
778.420	0.0146690
778.498	0.0147621
778.576	0.0148656
778.655	0.0147389
778.733	0.0148914
778.811	0.0149501
778.889	0.0148064
778.967	0.0148185
779.045	0.0148028
779.123	0.0148210
779.201	0.0148875
779.280	0.0147258
779.358	0.0146377
779.436	0.0148294
779.514	0.0147946
779.592	0.0148425
779.670	0.0147469
779.748	0.0148122
779.826	0.0147993
779.905	0.0148698
779.983	0.0147466
780.061	0.0147684
780.139	0.0148444
780.217	0.0148870
780.295	0.0148881
780.373	0.0150033
780.451	0.0151400
780.530	0.0149646
780.608	0.0149809
780.686	0.0151080
780.764	0.0150034
780.842	0.0150111
780.920	0.0149776
780.998	0.0150314
781.076	0.0148988
781.155	0.0148959
781.233	0.0148395
781.311	0.0149220
781.389	0.0149557
781.467	0.0148882
781.545	0.0148788
781.623	0.0148788
781.701	0.0147076
781.780	0.0147799
781.858	0.0148208
781.936	0.0149155
782.014	0.0148694
782.092	0.0149091
782.170	0.0149115
782.248	0.0148280
782.326	0.0147775
782.405	0.0147788
782.483	0.0148759
782.561	0.0147523
782.639	0.0148454
782.717	0.0148540
782.795	0.0147827
782.873	0.0148064
782.951	0.0148405
783.030	0.0148338
783.108	0.0148713
783.186	0.0148383
783.264	0.0149145
783.342	0.0148950
783.420	0.0148288
783.498	0.0147964
783.576	0.0148384
783.655	0.0149528
783.733	0.0149017
783.811	0.0149840
783.889	0.0149288
783.967	0.0147897
784.045	0.0148015
784.123	0.0150294
784.201	0.0149474
784.280	0.0149221
784.358	0.0149056
784.436	0.0147884
784.514	0.0148454
784.592	0.0148345
784.670	0.0149504
784.748	0.0148426
784.826	0.0147691
784.905	0.0148120
784.983	0.0147785
785.061	0.0147026
785.139	0.0148238
785.217	0.0149036
785.295	0.0147139
785.373	0.0146439
785.451	0.0148721
785.530	0.0147773
785.608	0.0147739
785.686	0.0148722
785.764	0.0148418
785.842	0.0147014
785.920	0.0148086
785.998	0.0148209
786.076	0.0149087
786.155	0.0149107
786.233	0.0148036
786.311	0.0148755
786.389	0.0150089
786.467	0.0150335
786.545	0.0150594
786.623	0.0148984
786.701	0.0149228
786.780	0.0150717
786.858	0.0151721
786.936	0.0151757
787.014	0.0151250
787.092	0.0151456
787.170	0.0149725
787.248	0.0149530
787.326	0.0150356
787.405	0.0148974
787.483	0.0149368
787.561	0.0148872
787.639	0.0148798
787.717	0.0146886
787.795	0.0147406
787.873	0.0146007
787.951	0.0145945
788.030	0.0143843
788.108	0.0146040
788.186	0.0143694
788.264	0.0144184
788.342	0.0143477
788.420	0.0144095
788.498	0.0144917
788.576	0.0144930
788.655	0.0144826
788.733	0.0147711
788.811	0.0147197
788.889	0.0147128
788.967	0.0148998
789.045	0.0148672
789.123	0.0150094
789.201	0.0151247
789.280	0.0151942
789.358	0.0151780
789.436	0.0153062
789.514	0.0153142
789.592	0.0152629
789.670	0.0153859
789.748	0.0153822
789.826	0.0152888
789.905	0.0151318
789.983	0.0151929
790.061	0.0151108
790.139	0.0150458
790.217	0.0150263
790.295	0.0147266
790.373	0.0148112
790.451	0.0147446
790.530	0.0146004
790.608	0.0145052
790.686	0.0145221
790.764	0.0142916
790.842	0.0142493
790.920	0.0142355
790.998	0.0142604
791.076	0.0142108
791.155	0.0140958
791.233	0.0141272
791.311	0.0141168
791.389	0.0141882
791.467	0.0141542
791.545	0.0141693
791.623	0.0142374
791.701	0.0145019
791.780	0.0143983
791.858	0.0144200
791.936	0.0145592
792.014	0.0147592
792.092	0.0148334
792.170	0.0148782
792.248	0.0150243
792.326	0.0150496
792.405	0.0151128
792.483	0.0153677
792.561	0.0155858
792.639	0.0155296
792.717	0.0155280
792.795	0.0157498
792.873	0.0159434
792.951	0.0158818
793.030	0.0159667
793.108	0.0161080
793.186	0.0160068
793.264	0.0159858
793.342	0.0158826
793.420	0.0158882
793.498	0.0157365
793.576	0.0156126
793.655	0.0156234
793.733	0.0153862
793.811	0.0152670
793.889	0.0149327
793.967	0.0146290
794.045	0.0146465
794.123	0.0143948
794.201	0.0143311
794.280	0.0140620
794.358	0.0139458
794.436	0.0137762
794.514	0.0136523
794.592	0.0135130
794.670	0.0136195
794.748	0.0135928
794.826	0.0134124
794.905	0.0133755
794.983	0.0135477
795.061	0.0135165
795.139	0.0134836
795.217	0.0137267
795.295	0.0139497
795.373	0.0142562
795.451	0.0141910
795.530	0.0143594
795.608	0.0144780
795.686	0.0147250
795.764	0.0149548
795.842	0.0150605
795.920	0.0152009
795.998	0.0155172
796.076	0.0155505
796.155	0.0156232
796.233	0.0158234
796.311	0.0159023
796.389	0.0160019
796.467	0.0159120
796.545	0.0162129
796.623	0.0161482
796.701	0.0162710
796.780	0.0161674
796.858	0.0163467
796.936	0.0162954
797.014	0.0162080
797.092	0.0162121
797.170	0.0159948
797.248	0.0158849
797.326	0.0157475
797.405	0.0157400
797.483	0.0155811
797.561	0.0153367
797.639	0.0149455
797.717	0.0149712
797.795	0.0146873
797.873	0.0146082
797.951	0.0143409
798.030	0.0141795
798.108	0.0139837
798.186	0.0138531
798.264	0.0137399
798.342	0.0138135
798.420	0.0137052
798.498	0.0135391
798.576	0.0135089
798.655	0.0136301
798.733	0.0136711
798.811	0.0136876
798.889	0.0135828
798.967	0.0136921
799.045	0.0136791
799.123	0.0139514
799.201	0.0139205
799.280	0.0140787
799.358	0.0142385
799.436	0.0142941
799.514	0.0144273
799.592	0.0145753
799.670	0.0147463
799.748	0.0148632
799.826	0.0149915
799.905	0.0150040
799.983	0.0152705
800.061	0.0154287
800.139	0.0156085
800.217	0.0155808
800.295	0.0156750
800.373	0.0158598
800.451	0.0158017
800.530	0.0157657
800.608	0.0160545
800.686	0.0158732
800.764	0.0158176
800.842	0.0159814
800.920	0.0158169
800.998	0.0158447
801.076	0.0159023
801.155	0.0157571
801.233	0.0159126
801.311	0.0158305
801.389	0.0157014
801.467	0.0155290
801.545	0.0154243
801.623	0.0154800
801.701	0.0154044
801.780	0.0151393
801.858	0.0150163
801.936	0.0148277
802.014	0.0147507
802.092	0.0146352
802.170	0.0145490
802.248	0.0144289
802.326	0.0140878
802.405	0.0139408
802.483	0.0139236
802.561	0.0139551
802.639	0.0137376
802.717	0.0136998
802.795	0.0136259
802.873	0.0138235
802.951	0.0136749
803.030	0.0137113
803.108	0.0138662
803.186	0.0140376
803.264	0.0142391
803.342	0.0142818
803.420	0.0141898
803.498	0.0144617
803.576	0.0145473
803.655	0.0144967
803.733	0.0146722
803.811	0.0148132
803.889	0.0147654
803.967	0.0149338
804.045	0.0149734
804.123	0.0149704
804.201	0.0150813
804.280	0.0151014
804.358	0.0151006
804.436	0.0150089
804.514	0.0151261
804.592	0.0151437
804.670	0.0151190
804.748	0.0151910
804.826	0.0152917
804.905	0.0152074
804.983	0.0152670
805.061	0.0154260
805.139	0.0154101
805.217	0.0152597
805.295	0.0155014
805.373	0.0154347
805.451	0.0155031
805.530	0.0154063
805.608	0.0155786
805.686	0.0156049
805.764	0.0153751
805.842	0.0152211
805.920	0.0152739
805.998	0.0151952
806.076	0.0151800
806.155	0.0150789
806.233	0.0148590
806.311	0.0147908
806.389	0.0148090
806.467	0.0147151
806.545	0.0145554
806.623	0.0145737
806.701	0.0145786
806.780	0.0146164
806.858	0.0145218
806.936	0.0143443
807.014	0.0143157
807.092	0.0144240
807.170	0.0144494
807.248	0.0143667
807.326	0.0144929
807.405	0.0145768
807.483	0.0143616
807.561	0.0144731
807.639	0.0144390
807.717	0.0145563
807.795	0.0145443
807.873	0.0146143
807.951	0.0148199
808.030	0.0146517
808.108	0.0145790
808.186	0.0147816
808.264	0.0148672
808.342	0.0149325
808.420	0.0150307
808.498	0.0150088
808.576	0.0150550
808.655	0.0151243
808.733	0.0150603
808.811	0.0151574
808.889	0.0151323
808.967	0.0150790
809.045	0.0152185
809.123	0.0151509
809.201	0.0150680
809.280	0.0150924
809.358	0.0148896
809.436	0.0150091
809.514	0.0151495
809.592	0.0149456
809.670	0.0149907
809.748	0.0148930
809.826	0.0149643
809.905	0.0149059
809.983	0.0147041
810.061	0.0149267
810.139	0.0147559
810.217	0.0147114
810.295	0.0147176
810.373	0.0146599
810.451	0.0147564
810.530	0.0148006
810.608	0.0147469
810.686	0.0145792
810.764	0.0145879
810.842	0.0146325
810.920	0.0147925
810.998	0.0147218
811.076	0.0147378
811.155	0.0147295
811.233	0.0146888
811.311	0.0149660
811.389	0.0148330
811.467	0.0149094
811.545	0.0149298
811.623	0.0149613
811.701	0.0150472
811.780	0.0150289
811.858	0.0149945
811.936	0.0152032
812.014	0.0150281
812.092	0.0151395
812.170	0.0152079
812.248	0.0152275
812.326	0.0151367
812.405	0.0152013
812.483	0.0151153
812.561	0.0150512
812.639	0.0150783
812.717	0.0149995
812.795	0.0149729
812.873	0.0150071
812.951	0.0148956
813.030	0.0148808
813.108	0.0149419
813.186	0.0148671
813.264	0.0148023
813.342	0.0148923
813.420	0.0149554
813.498	0.0149518
813.576	0.0148487
813.655	0.0148790
813.733	0.0147913
813.811	0.0148360
813.889	0.0149001
813.967	0.0148968
814.045	0.0147738
814.123	0.0145710
814.201	0.0146686
814.280	0.0146547
814.358	0.0145836
814.436	0.0145966
814.514	0.0144844
814.592	0.0146169
814.670	0.0146541
814.748	0.0146453
814.826	0.0146616
814.905	0.0147240
814.983	0.0146074
815.061	0.0144816
815.139	0.0146377
815.217	0.0146389
815.295	0.0145945
815.373	0.0147011
815.451	0.0148705
815.530	0.0146567
815.608	0.0147678
815.686	0.0148286
815.764	0.0148774
815.842	0.0147746
815.920	0.0147241
815.998	0.0147713
816.076	0.0148403
816.155	0.0148738
816.233	0.0148530
816.311	0.0148637
816.389	0.0148613
816.467	0.0148728
816.545	0.0149277
816.623	0.0150221
816.701	0.0150768
816.780	0.0149821
816.858	0.0150725
816.936	0.0151906
817.014	0.0152350
817.092	0.0150036
817.170	0.0152090
817.248	0.0152241
817.326	0.0152607
817.405	0.0150974
817.483	0.0149795
817.561	0.0149736
817.639	0.0151459
817.717	0.0149905
817.795	0.0149332
817.873	0.0150001
817.951	0.0148222
818.030	0.0149150
818.108	0.0149255
818.186	0.0148759
818.264	0.0148002
818.342	0.0148989
818.420	0.0147207
818.498	0.0147374
818.576	0.0148785
818.655	0.0147445
818.733	0.0147913
818.811	0.0148598
818.889	0.0147855
818.967	0.0148463
819.045	0.0147567
819.123	0.0148943
819.201	0.0147379
819.280	0.0148763
819.358	0.0147835
819.436	0.0147227
819.514	0.0147324
819.592	0.0146339
819.670	0.0148618
819.748	0.0148390
819.826	0.0147849
819.905	0.0148199
819.983	0.0149089
820.061	0.0147887
820.139	0.0147138
820.217	0.0147974
820.295	0.0149120
820.373	0.0148089
820.451	0.0148760
820.530	0.0149570
820.608	0.0148901
820.686	0.0148789
820.764	0.0148064
820.842	0.0148521
820.920	0.0148695
820.998	0.0149030
821.076	0.0148875
821.155	0.0147973
821.233	0.0148452
821.311	0.0148768
821.389	0.0148469
821.467	0.0148445
821.545	0.0147175
821.623	0.0148610
821.701	0.0148486
821.780	0.0148196
821.858	0.0148201
821.936	0.0149152
822.014	0.0148740
822.092	0.0149104
822.170	0.0148004
822.248	0.0147806
822.326	0.0149106
822.405	0.0149094
822.483	0.0149041
822.561	0.0150474
822.639	0.0148434
822.717	0.0149902
822.795	0.0149860
822.873	0.0149204
822.951	0.0149025
823.030	0.0150047
823.108	0.0150486
823.186	0.0148835
823.264	0.0150208
823.342	0.0149506
823.420	0.0149634
823.498	0.0152049
823.576	0.0149683
823.655	0.0150182
823.733	0.0151255
823.811	0.0150184
823.889	0.0150545
823.967	0.0151876
824.045	0.0150812
824.123	0.0150275
824.201	0.0149521
824.280	0.0149731
824.358	0.0148843
824.436	0.0149708
824.514	0.0149391
824.592	0.0148478
824.670	0.0147794
824.748	0.0148328
824.826	0.0148698
824.905	0.0148949
824.983	0.0148743
825.061	0.0147912
825.139	0.0148061
825.217	0.0146847
825.295	0.0148096
825.373	0.0147828
825.451	0.0149284
825.530	0.0149263
825.608	0.0147430
825.686	0.0147283
825.764	0.0148158
825.842	0.0149102
825.920	0.0147647
825.998	0.0148173
826.076	0.0148717
826.155	0.0149245
826.233	0.0148793
826.311	0.0149091
826.389	0.0147567
826.467	0.0146964
826.545	0.0149163
826.623	0.0149335
826.701	0.0148461
826.780	0.0149188
826.858	0.0149657
826.936	0.0147684
827.014	0.0149015
827.092	0.0148326
827.170	0.0150226
827.248	0.0149265
827.326	0.0149016
827.405	0.0148372
827.483	0.0149639
827.561	0.0149409
827.639	0.0148738
827.717	0.0148752
827.795	0.0147986
827.873	0.0147369
827.951	0.0147879
828.030	0.0148670
828.108	0.0147569
828.186	0.0147448
828.264	0.0148875
828.342	0.0149140
828.420	0.0149133
828.498	0.0150639
828.576	0.0149735
828.655	0.0150043
828.733	0.0149667
828.811	0.0150932
828.889	0.0151228
828.967	0.0150288
829.045	0.0150280
829.123	0.0149305
829.201	0.0150472
829.280	0.0148978
829.358	0.0150376
829.436	0.0150683
829.514	0.0148834
829.592	0.0148866
829.670	0.0148500
829.748	0.0149297
829.826	0.0149793
829.905	0.0148483
829.983	0.0148586
830.061	0.0149503
830.139	0.0149328
830.217	0.0148181
830.295	0.0148385
830.373	0.0148135
830.451	0.0149017
830.530	0.0148022
830.608	0.0149622
830.686	0.0147978
830.764	0.0151068
830.842	0.0149476
830.920	0.0148523
830.998	0.0147925
831.076	0.0148344
831.155	0.0150004
831.233	0.0149159
831.311	0.0147903
831.389	0.0147483
831.467	0.0147446
831.545	0.0147818
831.623	0.0148207
831.701	0.0147050
831.780	0.0148764
831.858	0.0148019
831.936	0.0147022
832.014	0.0147404
832.092	0.0147535
832.170	0.0148122
832.248	0.0148251
832.326	0.0149917
832.405	0.0148540
832.483	0.0149492
832.561	0.0148533
832.639	0.0148853
832.717	0.0148866
832.795	0.0148795
832.873	0.0149769
832.951	0.0149028
833.030	0.0148762
833.108	0.0149444
833.186	0.0148589
833.264	0.0148725
833.342	0.0150533
833.420	0.0148994
833.498	0.0150379
833.576	0.0151066
833.655	0.0148434
833.733	0.0149845
833.811	0.0150950
833.889	0.0151327
833.967	0.0151299
834.045	0.0152856
834.123	0.0151768
834.201	0.0150690
834.280	0.0151237
834.358	0.0150036
834.436	0.0149789
834.514	0.0150404
834.592	0.0149018
834.670	0.0149496
834.748	0.0148425
834.826	0.0148244
834.905	0.0147514
834.983	0.0148408
835.061	0.0147297
835.139	0.0145523
835.217	0.0147716
835.295	0.0148070
835.373	0.0147569
835.451	0.0146296
835.530	0.0147735
835.608	0.0147115
835.686	0.0146666
835.764	0.0146446
835.842	0.0146928
835.920	0.0147643
835.998	0.0146009
836.076	0.0146308
836.155	0.0146743
836.233	0.0147112
836.311	0.0148211
836.389	0.0146076
836.467	0.0146485
836.545	0.0146678
836.623	0.0147481
836.701	0.0147742
836.780	0.0148522
836.858	0.0148481
836.936	0.0148802
837.014	0.0149979
837.092	0.0150346
837.170	0.0150855
837.248	0.0150304
837.326	0.0150195
837.405	0.0150676
837.483	0.0150757
837.561	0.0149408
837.639	0.0150031
837.717	0.0150410
837.795	0.0149284
837.873	0.0149606
837.951	0.0149592
838.030	0.0148358
838.108	0.0149655
838.186	0.0149963
838.264	0.0150329
838.342	0.0148751
838.420	0.0150969
838.498	0.0150638
838.576	0.0149802
838.655	0.0149012
838.733	0.0150584
838.811	0.0148608
838.889	0.0149197
838.967	0.0148723
839.045	0.0148581
839.123	0.0147813
839.201	0.0147662
839.280	0.0147438
839.358	0.0148013
839.436	0.0147565
839.514	0.0145151
839.592	0.0145905
839.670	0.0148740
839.748	0.0145847
839.826	0.0146420
839.905	0.0146521
839.983	0.0147787
840.061	0.0145856
840.139	0.0147273
840.217	0.0147406
840.295	0.0145658
840.373	0.0146796
840.451	0.0146391
840.530	0.0147180
840.608	0.0148033
840.686	0.0148136
840.764	0.0148115
840.842	0.0147910
840.920	0.0147415
840.998	0.0148928
841.076	0.0148743
841.155	0.0148003
841.233	0.0148583
841.311	0.0148318
841.389	0.0150665
841.467	0.0149757
841.545	0.0149857
841.623	0.0149905
841.701	0.0150671
841.780	0.0151566
841.858	0.0150625
841.936	0.0150393
842.014	0.0151556
842.092	0.0152769
842.170	0.0151672
842.248	0.0151297
842.326	0.0151127
842.405	0.0151466
842.483	0.0151961
842.561	0.0150874
842.639	0.0149727
842.717	0.0149718
842.795	0.0150249
842.873	0.0149850
842.951	0.0148849
843.030	0.0147034
843.108	0.0146311
843.186	0.0148347
843.264	0.0147780
843.342	0.0148399
843.420	0.0146537
843.498	0.0147234
843.576	0.0147801
843.655	0.0144531
843.733	0.0145438
843.811	0.0146925
843.889	0.0147271
843.967	0.0145982
844.045	0.0148167
844.123	0.0146985
844.201	0.0145296
844.280	0.0145299
844.358	0.0144857
844.436	0.0146152
844.514	0.0146713
844.592	0.0145311
844.670	0.0145669
844.748	0.0143867
844.826	0.0147743
844.905	0.0146989
844.983	0.0145292
845.061	0.0145840
845.139	0.0147773
845.217	0.0147028
845.295	0.0147446
845.373	0.0148492
845.451	0.0148740
845.530	0.0148045
845.608	0.0150496
845.686	0.0150146
845.764	0.0150039
845.842	0.0150311
845.920	0.0151653
845.998	0.0151323
846.076	0.0151970
846.155	0.0152865
846.233	0.0151835
846.311	0.0153986
846.389	0.0153304
846.467	0.0152601
846.545	0.0152936
846.623	0.0153848
846.701	0.0154603
846.780	0.0153316
846.858	0.0153288
846.936	0.0152599
847.014	0.0151999
847.092	0.0151828
847.170	0.0151978
847.248	0.0152722
847.326	0.0150850
847.405	0.0150874
847.483	0.0150346
847.561	0.0150113
847.639	0.0148904
847.717	0.0148489
847.795	0.0148566
847.873	0.0147979
847.951	0.0147976
848.030	0.0147119
848.108	0.0146971
848.186	0.0147142
848.264	0.0145654
848.342	0.0144360
848.420	0.0145225
848.498	0.0145340
848.576	0.0144849
848.655	0.0143314
848.733	0.0143600
848.811	0.0143615
848.889	0.0143945
848.967	0.0144051
849.045	0.0143501
849.123	0.0143362
849.201	0.0145622
849.280	0.0145660
849.358	0.0146319
849.436	0.0146002
849.514	0.0145835
849.592	0.0147336
849.670	0.0147408
849.748	0.0147743
849.826	0.0149320
849.905	0.0148211
849.983	0.0147794
850.061	0.0150092
850.139	0.0150520
850.217	0.0150657
850.295	0.0152013
850.373	0.0149855
850.451	0.0150651
850.530	0.0149902
850.608	0.0152834
850.686	0.0150314
850.764	0.0149309
850.842	0.0151186
850.920	0.0151100
850.998	0.0151012
851.076	0.0151437
851.155	0.0151227
851.233	0.0151080
851.311	0.0151123
851.389	0.0150645
851.467	0.0151514
851.545	0.0149911
851.623	0.0151286
851.701	0.0148770
851.780	0.0150248
851.858	0.0149909
851.936	0.0150083
852.014	0.0148518
852.092	0.0148797
852.170	0.0150186
852.248	0.0150562
852.326	0.0149235
852.405	0.0149342
852.483	0.0150346
852.561	0.0149378
852.639	0.0149273
852.717	0.0148084
852.795	0.0148563
852.873	0.0147693
852.951	0.0147176
853.030	0.0148897
853.108	0.0148149
853.186	0.0147284
853.264	0.0148280
853.342	0.0148360
853.420	0.0147910
853.498	0.0147884
853.576	0.0147665
853.655	0.0147494
853.733	0.0149542
853.811	0.0148241
853.889	0.0148993
853.967	0.0149401
854.045	0.0149532
854.123	0.0149931
854.201	0.0150351
854.280	0.0150011
854.358	0.0149935
854.436	0.0150384
854.514	0.0149698
854.592	0.0150883
854.670	0.0149629
854.748	0.0149702
854.826	0.0147884
854.905	0.0149508
854.983	0.0148651
855.061	0.0148887
855.139	0.0147406
855.217	0.0147741
855.295	0.0147178
855.373	0.0146533
855.451	0.0147199
855.530	0.0146297
855.608	0.0146361
855.686	0.0147343
855.764	0.0147256
855.842	0.0147810
855.920	0.0146727
855.998	0.0147034
856.076	0.0148974
856.155	0.0148156
856.233	0.0147303
856.311	0.0147602
856.389	0.0148751
856.467	0.0147618
856.545	0.0147295
856.623	0.0148230
856.701	0.0147161
856.780	0.0148583
856.858	0.0149207
856.936	0.0148668
857.014	0.0147498
857.092	0.0148646
857.170	0.0148794
857.248	0.0148734
857.326	0.0147815
857.405	0.0148368
857.483	0.0147954
857.561	0.0149404
857.639	0.0149514
857.717	0.0149180
857.795	0.0149294
857.873	0.0148560
857.951	0.0147878
858.030	0.0146717
858.108	0.0149083
858.186	0.0148600
858.264	0.0148611
858.342	0.0150135
858.420	0.0149356
858.498	0.0150685
858.576	0.0148140
858.655	0.0149715
858.733	0.0148969
858.811	0.0149657
858.889	0.0150889
858.967	0.0148855
859.045	0.0148980
859.123	0.0150141
859.201	0.0150429
859.280	0.0150658
859.358	0.0149655
859.436	0.0149978
859.514	0.0149760
859.592	0.0149735
859.670	0.0149352
859.748	0.0148113
859.826	0.0149956
859.905	0.0148434
859.983	0.0148724
860.061	0.0148765
860.139	0.0150715
860.217	0.0150011
860.295	0.0148433
860.373	0.0148077
860.451	0.0149626
860.530	0.0147597
860.608	0.0147647
860.686	0.0148257
860.764	0.0148228
860.842	0.0148379
860.920	0.0148146
860.998	0.0148744
861.076	0.0147675
861.155	0.0148001
861.233	0.0147965
861.311	0.0147406
861.389	0.0147350
861.467	0.0147755
861.545	0.0147194
861.623	0.0148259
861.701	0.0148636
861.780	0.0147462
861.858	0.0146268
861.936	0.0147387
862.014	0.0147266
862.092	0.0147162
862.170	0.0147556
862.248	0.0147095
862.326	0.0147284
862.405	0.0147137
862.483	0.0146410
862.561	0.0147377
862.639	0.0147288
862.717	0.0147176
862.795	0.0146738
862.873	0.0147926
862.951	0.0147614
863.030	0.0148306
863.108	0.0147682
863.186	0.0147866
863.264	0.0149064
863.342	0.0150339
863.420	0.0148791
863.498	0.0148962
863.576	0.0149937
863.655	0.0150081
863.733	0.0149807
863.811	0.0149308
863.889	0.0149572
863.967	0.0150996
864.045	0.0149397
864.123	0.0149739
864.201	0.0148584
864.280	0.0149753
864.358	0.0148273
864.436	0.0148973
864.514	0.0148486
864.592	0.0148290
864.670	0.0149958
864.748	0.0148405
864.826	0.0147252
864.905	0.0148560
864.983	0.0147234
865.061	0.0146482
865.139	0.0149215
865.217	0.0149368
865.295	0.0147738
865.373	0.0146928
865.451	0.0148202
865.530	0.0147078
865.608	0.0148048
865.686	0.0147575
865.764	0.0148389
865.842	0.0148866
865.920	0.0147916
865.998	0.0148435
866.076	0.0148643
866.155	0.0147749
866.233	0.0147813
866.311	0.0148762
866.389	0.0148852
866.467	0.0149191
866.545	0.0149437
866.623	0.0149455
866.701	0.0149754
866.780	0.0149826
866.858	0.0149953
866.936	0.0149563
867.014	0.0150433
867.092	0.0149680
867.170	0.0150194
867.248	0.0146998
867.326	0.0149589
867.405	0.0150202
867.483	0.0149186
867.561	0.0148975
867.639	0.0148083
867.717	0.0148013
867.795	0.0146966
867.873	0.0146286
867.951	0.0146002
868.030	0.0147424
868.108	0.0145362
868.186	0.0147987
868.264	0.0146910
868.342	0.0146269
868.420	0.0147704
868.498	0.0147003
868.576	0.0146114
868.655	0.0147520
868.733	0.0147507
868.811	0.0146872
868.889	0.0147623
868.967	0.0148077
869.045	0.0146545
869.123	0.0147340
869.201	0.0148612
869.280	0.0147298
869.358	0.0149677
869.436	0.0147008
869.514	0.0148300
869.592	0.0146892
869.670	0.0147816
869.748	0.0148630
869.826	0.0148082
869.905	0.0148146
869.983	0.0148857
870.061	0.0148309
870.139	0.0149677
870.217	0.0149945
870.295	0.0147688
870.373	0.0150011
870.451	0.0148907
870.530	0.0149031
870.608	0.0150595
870.686	0.0150521
870.764	0.0150123
870.842	0.0150340
870.920	0.0150504
870.998	0.0149602
871.076	0.0149212
871.155	0.0148547
871.233	0.0151302
871.311	0.0151715
871.389	0.0151133
871.467	0.0151418
871.545	0.0151058
871.623	0.0151120
871.701	0.0151317
871.780	0.0150126
871.858	0.0150797
871.936	0.0149516
872.014	0.0148708
872.092	0.0148550
872.170	0.0147639
872.248	0.0149106
872.326	0.0148484
872.405	0.0149512
872.483	0.0148785
872.561	0.0147644
872.639	0.0148016
872.717	0.0148704
872.795	0.0147741
872.873	0.0148588
872.951	0.0149061
873.030	0.0148208
873.108	0.0147715
873.186	0.0146861
873.264	0.0147231
873.342	0.0147524
873.420	0.0147733
873.498	0.0147556
873.576	0.0145947
873.655	0.0146887
873.733	0.0147061
873.811	0.0145554
873.889	0.0145658
873.967	0.0145232
874.045	0.0145189
874.123	0.0146364
874.201	0.0146944
874.280	0.0145736
874.358	0.0148061
874.436	0.0147337
874.514	0.0147328
874.592	0.0148418
874.670	0.0148644
874.748	0.0149229
874.826	0.0150059
874.905	0.0151744
874.983	0.0152531
875.061	0.0149956
875.139	0.0152342
875.217	0.0151927
875.295	0.0151986
875.373	0.0152608
875.451	0.0151704
875.530	0.0151008
875.608	0.0151283
875.686	0.0150674
875.764	0.0150934
875.842	0.0148571
875.920	0.0151121
875.998	0.0150828
876.076	0.0150643
876.155	0.0149819
876.233	0.0148907
876.311	0.0148940
876.389	0.0149663
876.467	0.0149652
876.545	0.0148832
876.623	0.0147230
876.701	0.0148485
876.780	0.0149221
876.858	0.0146664
876.936	0.0148161
877.014	0.0147489
877.092	0.0148505
877.170	0.0147106
877.248	0.0147683
877.326	0.0148838
877.405	0.0148327
877.483	0.0147970
877.561	0.0148039
877.639	0.0148315
877.717	0.0148933
877.795	0.0147930
877.873	0.0148148
877.951	0.0147578
878.030	0.0148533
878.108	0.0147226
878.186	0.0148734
878.264	0.0146938
878.342	0.0146364
878.420	0.0146342
878.498	0.0147886
878.576	0.0146046
878.655	0.0146587
878.733	0.0147326
878.811	0.0146098
878.889	0.0148382
878.967	0.0147890
879.045	0.0147295
879.123	0.0147852
879.201	0.0148878
879.280	0.0149269
879.358	0.0148854
879.436	0.0149543
879.514	0.0148553
879.592	0.0149875
879.670	0.0149924
879.748	0.0149491
879.826	0.0150506
879.905	0.0148727
879.983	0.0149859
880.061	0.0150765
880.139	0.0148413
880.217	0.0148505
880.295	0.0147416
880.373	0.0147894
880.451	0.0147700
880.530	0.0146489
880.608	0.0145710
880.686	0.0147164
880.764	0.0145910
880.842	0.0146124
880.920	0.0145826
880.998	0.0145747
881.076	0.0147478
881.155	0.0147628
881.233	0.0147391
881.311	0.0146864
881.389	0.0147785
881.467	0.0148014
881.545	0.0149617
881.623	0.0149744
881.701	0.0150900
881.780	0.0150670
881.858	0.0151149
881.936	0.0149987
882.014	0.0151328
882.092	0.0151112
882.170	0.0150275
882.248	0.0150211
882.326	0.0149642
882.405	0.0149591
882.483	0.0149230
882.561	0.0148126
882.639	0.0145853
882.717	0.0146643
882.795	0.0148592
882.873	0.0146851
882.951	0.0146758
883.030	0.0147632
883.108	0.0148812
883.186	0.0146743
883.264	0.0146063
883.342	0.0149094
883.420	0.0148979
883.498	0.0148423
883.576	0.0148770
883.655	0.0147578
883.733	0.0148563
883.811	0.0148888
883.889	0.0149306
883.967	0.0149735
884.045	0.0148500
884.123	0.0148978
884.201	0.0151240
884.280	0.0150922
884.358	0.0152146
884.436	0.0151377
884.514	0.0150767
884.592	0.0151929
884.670	0.0152792
884.748	0.0152229
884.826	0.0151468
884.905	0.0151343
884.983	0.0150932
885.061	0.0149033
885.139	0.0149184
885.217	0.0147475
885.295	0.0146558
885.373	0.0145525
885.451	0.0144525
885.530	0.0144650
885.608	0.0144277
885.686	0.0143494
885.764	0.0144620
885.842	0.0143044
885.920	0.0143787
885.998	0.0143756
886.076	0.0144056
886.155	0.0144546
886.233	0.0144917
886.311	0.0145210
886.389	0.0145849
886.467	0.0144921
886.545	0.0147101
886.623	0.0148133
886.701	0.0147888
886.780	0.0149446
886.858	0.0150021
886.936	0.0150410
887.014	0.0150769
887.092	0.0151830
887.170	0.0152641
887.248	0.0153019
887.326	0.0154276
887.405	0.0152859
887.483	0.0152478
887.561	0.0152318
887.639	0.0151842
887.717	0.0153500
887.795	0.0154198
887.873	0.0152100
887.951	0.0152041
888.030	0.0154048
888.108	0.0152364
888.186	0.0151579
888.264	0.0151285
888.342	0.0150387
888.420	0.0149626
888.498	0.0150298
888.576	0.0149422
888.655	0.0146791
888.733	0.0146582
888.811	0.0145139
888.889	0.0145201
888.967	0.0144654
889.045	0.0141553
889.123	0.0141682
889.201	0.0141806
889.280	0.0140244
889.358	0.0140671
889.436	0.0141413
889.514	0.0140515
889.592	0.0141626
889.670	0.0143317
889.748	0.0144091
889.826	0.0146391
889.905	0.0147760
889.983	0.0148298
890.061	0.0148420
890.139	0.0149295
890.217	0.0149329
890.295	0.0150512
890.373	0.0150606
890.451	0.0151145
890.530	0.0151407
890.608	0.0150008
890.686	0.0149353
890.764	0.0149691
890.842	0.0149774
890.920	0.0150649
890.998	0.0149323
891.076	0.0151670
891.155	0.0150401
891.233	0.0152161
891.311	0.0152190
891.389	0.0151186
891.467	0.0151183
891.545	0.0153063
891.623	0.0152656
891.701	0.0152053
891.780	0.0150971
891.858	0.0151251
891.936	0.0149892
892.014	0.0150857
892.092	0.0149825
892.170	0.0149695
892.248	0.0148511
892.326	0.0148576
892.405	0.0148540
892.483	0.0148081
892.561	0.0148349
892.639	0.0146726
892.717	0.0145848
892.795	0.0146782
892.873	0.0146478
892.951	0.0144544
893.030	0.0144277
893.108	0.0143793
893.186	0.0142104
893.264	0.0140859
893.342	0.0141401
893.420	0.0142051
893.498	0.0142120
893.576	0.0143513
893.655	0.0143656
893.733	0.0145018
893.811	0.0147685
893.889	0.0148073
893.967	0.0147728
894.045	0.0151230
894.123	0.0151817
894.201	0.0152628
894.280	0.0152272
894.358	0.0154240
894.436	0.0153426
894.514	0.0155042
894.592	0.0151929
894.670	0.0152253
894.748	0.0153288
894.826	0.0152541
894.905	0.0150553
894.983	0.0150747
895.061	0.0150700
895.139	0.0149487
895.217	0.0148376
895.295	0.0148260
895.373	0.0148251
895.451	0.0148252
895.530	0.0148183
895.608	0.0148179
895.686	0.0148846
895.764	0.0147774
895.842	0.0149310
895.920	0.0149786
895.998	0.0148500
896.076	0.0149724
896.155	0.0149356
896.233	0.0148391
896.311	0.0147842
896.389	0.0149030
896.467	0.0149294
896.545	0.0148545
896.623	0.0148796
896.701	0.0147922
896.780	0.0148257
896.858	0.0149290
896.936	0.0148490
897.014	0.0147622
897.092	0.0148170
897.170	0.0147539
897.248	0.0146402
897.326	0.0146041
897.405	0.0145973
897.483	0.0146629
897.561	0.0147275
897.639	0.0146642
897.717	0.0145044
897.795	0.0144707
897.873	0.0146037
897.951	0.0146423
898.030	0.0147118
898.108	0.0148510
898.186	0.0148496
898.264	0.0149041
898.342	0.0148872
898.420	0.0150759
898.498	0.0151551
898.576	0.0152402
898.655	0.0152419
898.733	0.0151846
898.811	0.0151645
898.889	0.0150896
898.967	0.0149538
899.045	0.0151365
899.123	0.0151117
899.201	0.0149919
899.280	0.0149423
899.358	0.0148943
899.436	0.0149057
899.514	0.0150029
899.592	0.0149553
899.670	0.0147858
899.748	0.0149316
899.826	0.0149302
899.905	0.0149183
899.983	0.0149881
900.061	0.0151115
900.139	0.0149104
900.217	0.0149623
900.295	0.0151342
900.373	0.0153162
900.451	0.0151985
900.530	0.0149783
900.608	0.0152160
900.686	0.0151582
900.764	0.0150596
900.842	0.0150684
900.920	0.0149455
900.998	0.0148878
901.076	0.0148272
901.155	0.0146862
901.233	0.0147836
901.311	0.0148042
901.389	0.0147068
901.467	0.0146044
901.545	0.0145666
901.623	0.0145265
901.701	0.0145142
901.780	0.0144022
901.858	0.0144396
901.936	0.0143128
902.014	0.0143399
902.092	0.0143812
902.170	0.0144501
902.248	0.0146572
902.326	0.0146275
902.405	0.0145528
902.483	0.0148439
902.561	0.0148167
902.639	0.0147806
902.717	0.0149001
902.795	0.0151109
902.873	0.0150080
902.951	0.0150681
903.030	0.0150681
903.108	0.0151443
903.186	0.0152439
903.264	0.0151682
903.342	0.0151442
903.420	0.0149953
903.498	0.0150101
903.576	0.0151518
903.655	0.0150905
903.733	0.0150421
903.811	0.0150719
903.889	0.0150581
903.967	0.0150787
904.045	0.0150033
904.123	0.0149167
904.201	0.0149578
904.280	0.0150222
904.358	0.0150321
904.436	0.0149730
904.514	0.0150345
904.592	0.0149029
904.670	0.0148637
904.748	0.0148091
904.826	0.0148719
904.905	0.0149506
904.983	0.0147974
905.061	0.0148048
905.139	0.0148470
905.217	0.0148940
905.295	0.0149034
905.373	0.0149383
905.451	0.0148579
905.530	0.0147669
905.608	0.0148409
905.686	0.0148629
905.764	0.0147887
905.842	0.0148029
905.920	0.0148356
905.998	0.0147634
906.076	0.0146751
906.155	0.0147556
906.233	0.0147905
906.311	0.0148398
906.389	0.0146980
906.467	0.0147028
906.545	0.0148216
906.623	0.0148124
906.701	0.0148096
906.780	0.0146665
906.858	0.0148003
906.936	0.0147733
907.014	0.0147274
907.092	0.0148175
907.170	0.0148777
907.248	0.0148531
907.326	0.0148309
907.405	0.0149703
907.483	0.0149980
907.561	0.0149039
907.639	0.0148935
907.717	0.0149485
907.795	0.0149593
907.873	0.0150344
907.951	0.0152593
908.030	0.0151508
908.108	0.0150669
908.186	0.0150838
908.264	0.0151643
908.342	0.0150362
908.420	0.0150818
908.498	0.0151241
908.576	0.0151228
908.655	0.0152193
908.733	0.0150978
908.811	0.0149767
908.889	0.0150197
908.967	0.0150310
909.045	0.0151028
909.123	0.0149517
909.201	0.0149744
909.280	0.0150076
909.358	0.0149645
909.436	0.0147687
909.514	0.0147009
909.592	0.0147755
909.670	0.0148416
909.748	0.0146921
909.826	0.0147044
909.905	0.0146917
909.983	0.0144773
910.061	0.0146204
910.139	0.0146217
910.217	0.0146084
910.295	0.0145415
910.373	0.0146839
910.451	0.0147163
910.530	0.0146667
910.608	0.0147399
910.686	0.0147232
910.764	0.0147460
910.842	0.0148011
910.920	0.0148219
910.998	0.0149007
911.076	0.0149195
911.155	0.0149423
911.233	0.0149142
911.311	0.0148991
911.389	0.0149940
911.467	0.0150526
911.545	0.0149607
911.623	0.0149166
911.701	0.0149898
911.780	0.0148835
911.858	0.0148937
911.936	0.0150740
912.014	0.0151009
912.092	0.0151966
912.170	0.0150923
912.248	0.0149178
912.326	0.0148333
912.405	0.0150336
912.483	0.0150114
912.561	0.0149301
912.639	0.0149292
912.717	0.0149406
912.795	0.0150002
912.873	0.0148312
912.951	0.0147316
913.030	0.0147253
913.108	0.0147615
913.186	0.0149208
913.264	0.0148517
913.342	0.0148502
913.420	0.0148311
913.498	0.0148631
913.576	0.0148620
913.655	0.0148920
913.733	0.0148044
913.811	0.0148580
913.889	0.0149222
913.967	0.0148397
914.045	0.0147489
914.123	0.0148415
914.201	0.0148001
914.280	0.0148384
914.358	0.0148631
914.436	0.0148877
914.514	0.0148684
914.592	0.0147735
914.670	0.0146115
914.748	0.0147120
914.826	0.0147734
914.905	0.0148164
914.983	0.0147359
915.061	0.0148842
915.139	0.0148722
915.217	0.0147571
915.295	0.0149419
915.373	0.0148837
915.451	0.0149755
915.530	0.0148385
915.608	0.0150101
915.686	0.0149533
915.764	0.0149910
915.842	0.0149820
915.920	0.0149995
915.998	0.0149525
916.076	0.0149812
916.155	0.0149708
916.233	0.0149551
916.311	0.0150646
916.389	0.0150946
916.467	0.0150291
916.545	0.0150162
916.623	0.0149763
916.701	0.0150491
916.780	0.0149642
916.858	0.0148453
916.936	0.0149038
917.014	0.0148476
917.092	0.0148225
917.170	0.0148109
917.248	0.0149327
917.326	0.0148413
917.405	0.0149530
917.483	0.0148508
917.561	0.0149153
917.639	0.0148518
917.717	0.0148662
917.795	0.0148617
917.873	0.0148183
917.951	0.0148755
918.030	0.0148402
918.108	0.0148871
918.186	0.0149229
918.264	0.0147907
918.342	0.0146709
918.420	0.0147714
918.498	0.0147947
918.576	0.0147739
918.655	0.0148068
918.733	0.0147877
918.811	0.0148241
918.889	0.0147752
918.967	0.0147794
919.045	0.0147311
919.123	0.0146835
919.201	0.0146912
919.280	0.0147009
919.358	0.0148290
919.436	0.0148339
919.514	0.0147378
919.592	0.0148021
919.670	0.0149042
919.748	0.0149543
919.826	0.0149921
919.905	0.0149706
919.983	0.0150443
920.061	0.0150541
920.139	0.0150997
920.217	0.0150005
920.295	0.0148852
920.373	0.0150897
920.451	0.0149593
920.530	0.0149796
920.608	0.0150485
920.686	0.0149918
920.764	0.0149511
920.842	0.0149284
920.920	0.0148405
920.998	0.0149648
921.076	0.0151304
921.155	0.0150617
921.233	0.0149596
921.311	0.0150340
921.389	0.0149086
921.467	0.0150441
921.545	0.0150469
921.623	0.0151077
921.701	0.0152027
921.780	0.0150064
921.858	0.0150593
921.936	0.0150517
922.014	0.0150233
922.092	0.0148962
922.170	0.0148572
922.248	0.0149082
922.326	0.0148009
922.405	0.0149142
922.483	0.0149407
922.561	0.0148136
922.639	0.0149403
922.717	0.0147842
922.795	0.0148984
922.873	0.0148396
922.951	0.0149334
923.030	0.0148154
923.108	0.0149113
923.186	0.0148328
923.264	0.0148343
923.342	0.0148012
923.420	0.0147013
923.498	0.0147453
923.576	0.0147644
923.655	0.0147958
923.733	0.0147516
923.811	0.0147482
923.889	0.0148306
923.967	0.0146755
924.045	0.0146830
924.123	0.0147646
924.201	0.0147656
924.280	0.0148396
924.358	0.0146439
924.436	0.0148931
924.514	0.0148529
924.592	0.0147923
924.670	0.0149969
924.748	0.0149099
924.826	0.0148750
924.905	0.0149116
924.983	0.0149265
925.061	0.0150877
925.139	0.0150548
925.217	0.0150774
925.295	0.0151352
925.373	0.0152501
925.451	0.0151814
925.530	0.0151534
925.608	0.0151361
925.686	0.0152701
925.764	0.0151738
925.842	0.0151437
925.920	0.0152191
925.998	0.0151761
926.076	0.0152755
926.155	0.0150450
926.233	0.0150083
926.311	0.0151494
926.389	0.0149680
926.467	0.0151131
926.545	0.0148958
926.623	0.0148978
926.701	0.0149966
926.780	0.0150340
926.858	0.0148814
926.936	0.0147653
927.014	0.0147655
927.092	0.0147234
927.170	0.0147065
927.248	0.0147905
927.326	0.0148071
927.405	0.0145490
927.483	0.0145938
927.561	0.0145891
927.639	0.0145956
927.717	0.0148002
927.795	0.0146069
927.873	0.0145800
927.951	0.0148495
928.030	0.0147530
928.108	0.0148622
928.186	0.0148058
928.264	0.0147346
928.342	0.0148255
928.420	0.0148559
928.498	0.0149352
928.576	0.0149301
928.655	0.0149500
928.733	0.0149281
928.811	0.0149783
928.889	0.0149223
928.967	0.0150379
929.045	0.0151436
929.123	0.0151071
929.201	0.0151639
929.280	0.0151510
929.358	0.0152637
929.436	0.0153200
929.514	0.0152465
929.592	0.0151984
929.670	0.0152812
929.748	0.0152242
929.826	0.0152233
929.905	0.0151703
929.983	0.0150813
930.061	0.0151448
930.139	0.0150447
930.217	0.0151038
930.295	0.0150703
930.373	0.0150187
930.451	0.0150584
930.530	0.0149501
930.608	0.0149127
930.686	0.0149006
930.764	0.0147736
930.842	0.0148183
930.920	0.0148157
930.998	0.0148595
931.076	0.0147733
931.155	0.0147908
931.233	0.0147868
931.311	0.0147572
931.389	0.0146453
931.467	0.0146603
931.545	0.0146711
931.623	0.0147089
931.701	0.0146819
931.780	0.0146241
931.858	0.0147270
931.936	0.0147369
932.014	0.0147290
932.092	0.0147857
932.170	0.0146506
932.248	0.0147621
932.326	0.0147983
932.405	0.0146104
932.483	0.0147421
932.561	0.0148897
932.639	0.0148373
932.717	0.0147936
932.795	0.0148281
932.873	0.0149085
932.951	0.0148794
933.030	0.0149203
933.108	0.0149009
933.186	0.0149571
933.264	0.0148672
933.342	0.0150358
933.420	0.0149239
933.498	0.0150235
933.576	0.0149596
933.655	0.0149244
933.733	0.0150497
933.811	0.0149495
933.889	0.0150050
933.967	0.0149925
934.045	0.0150066
934.123	0.0150833
934.201	0.0150846
934.280	0.0148349
934.358	0.0150926
934.436	0.0150506
934.514	0.0150661
934.592	0.0150655
934.670	0.0150379
934.748	0.0151456
934.826	0.0149932
934.905	0.0149821
934.983	0.0151222
935.061	0.0148904
935.139	0.0150468
935.217	0.0150146
935.295	0.0148981
935.373	0.0148618
935.451	0.0147814
935.530	0.0146619
935.608	0.0146896
935.686	0.0146908
935.764	0.0148265
935.842	0.0147807
935.920	0.0146269
935.998	0.0147466
936.076	0.0146097
936.155	0.0147588
936.233	0.0145937
936.311	0.0146166
936.389	0.0146078
936.467	0.0146202
936.545	0.0147208
936.623	0.0146470
936.701	0.0148206
936.780	0.0147708
936.858	0.0147617
936.936	0.0148294
937.014	0.0148494
937.092	0.0147640
937.170	0.0148251
937.248	0.0148897
937.326	0.0147763
937.405	0.0149228
937.483	0.0149280
937.561	0.0149274
937.639	0.0149323
937.717	0.0148653
937.795	0.0148997
937.873	0.0149091
937.951	0.0147849
938.030	0.0148472
938.108	0.0149857
938.186	0.0150419
938.264	0.0149318
938.342	0.0147021
938.420	0.0148967
938.498	0.0151184
938.576	0.0149635
938.655	0.0149882
938.733	0.0149744
938.811	0.0149539
938.889	0.0149290
938.967	0.0149702
939.045	0.0150136
939.123	0.0151381
939.201	0.0151204
939.280	0.0151249
939.358	0.0150593
939.436	0.0151530
939.514	0.0151635
939.592	0.0149773
939.670	0.0150410
939.748	0.0151596
939.826	0.0151327
939.905	0.0149910
939.983	0.0149780
940.061	0.0148971
940.139	0.0149565
940.217	0.0148367
940.295	0.0149753
940.373	0.0149293
940.451	0.0148277
940.530	0.0149087
940.608	0.0148341
940.686	0.0148589
940.764	0.0147988
940.842	0.0147576
940.920	0.0147613
940.998	0.0149026
941.076	0.0146658
941.155	0.0145909
941.233	0.0146268
941.311	0.0146496
941.389	0.0146887
941.467	0.0146995
941.545	0.0147482
941.623	0.0147078
941.701	0.0147874
941.780	0.0146719
941.858	0.0146603
941.936	0.0148160
942.014	0.0147684
942.092	0.0148286
942.170	0.0148096
942.248	0.0148866
942.326	0.0148254
942.405	0.0148189
942.483	0.0149792
942.561	0.0150388
942.639	0.0150854
942.717	0.0150053
942.795	0.0151231
942.873	0.0152841
942.951	0.0153387
943.030	0.0153149
943.108	0.0154098
943.186	0.0153431
943.264	0.0153214
943.342	0.0152759
943.420	0.0152399
943.498	0.0152235
943.576	0.0152785
943.655	0.0152634
943.733	0.0151316
943.811	0.0151634
943.889	0.0151470
943.967	0.0150912
944.045	0.0151963
944.123	0.0149136
944.201	0.0149228
944.280	0.0150204
944.358	0.0148636
944.436	0.0148270
944.514	0.0147738
944.592	0.0147533
944.670	0.0147639
944.748	0.0147496
944.826	0.0148219
944.905	0.0146222
944.983	0.0145572
945.061	0.0146178
945.139	0.0146660
945.217	0.0145721
945.295	0.0147057
945.373	0.0146815
945.451	0.0146674
945.530	0.0146383
945.608	0.0146410
945.686	0.0146233
945.764	0.0146423
945.842	0.0148717
945.920	0.0146467
945.998	0.0147244
946.076	0.0149439
946.155	0.0148589
946.233	0.0147684
946.311	0.0148254
946.389	0.0148097
946.467	0.0147836
946.545	0.0149794
946.623	0.0150240
946.701	0.0150006
946.780	0.0150583
946.858	0.0151087
946.936	0.0150581
947.014	0.0149318
947.092	0.0150735
947.170	0.0151218
947.248	0.0150643
947.326	0.0150904
947.405	0.0149854
947.483	0.0151888
947.561	0.0150745
947.639	0.0149390
947.717	0.0150916
947.795	0.0149343
947.873	0.0148872
947.951	0.0148767
948.030	0.0149412
948.108	0.0148815
948.186	0.0149728
948.264	0.0149292
948.342	0.0149659
948.420	0.0150127
948.498	0.0149863
948.576	0.0147935
948.655	0.0150156
948.733	0.0149969
948.811	0.0149934
948.889	0.0149383
948.967	0.0148160
949.045	0.0149473
949.123	0.0149061
949.201	0.0150038
949.280	0.0148682
949.358	0.0147200
949.436	0.0147101
949.514	0.0148561
949.592	0.0147746
949.670	0.0148463
949.748	0.0149284
949.826	0.0148062
949.905	0.0148890
949.983	0.0148978
950.061	0.0148974
950.139	0.0148889
950.217	0.0148347
950.295	0.0147908
950.373	0.0148026
950.451	0.0148843
950.530	0.0149098
950.608	0.0148927
950.686	0.0148449
950.764	0.0148099
950.842	0.0147483
950.920	0.0148222
950.998	0.0148475
951.076	0.0148065
951.155	0.0148212
951.233	0.0148492
951.311	0.0147890
951.389	0.0147397
951.467	0.0149404
951.545	0.0150196
951.623	0.0148919
951.701	0.0149268
951.780	0.0148203
951.858	0.0148940
951.936	0.0150464
952.014	0.0150793
952.092	0.0149911
952.170	0.0149033
952.248	0.0150191
952.326	0.0150797
952.405	0.0150016
952.483	0.0149181
952.561	0.0149214
952.639	0.0149200
952.717	0.0149220
952.795	0.0148971
952.873	0.0148370
952.951	0.0148630
953.030	0.0149932
953.108	0.0150210
953.186	0.0147410
953.264	0.0147012
953.342	0.0146807
953.420	0.0148407
953.498	0.0148449
953.576	0.0147663
953.655	0.0148662
953.733	0.0147640
953.811	0.0147480
953.889	0.0146923
953.967	0.0147678
954.045	0.0149180
954.123	0.0148917
954.201	0.0147913
954.280	0.0147053
954.358	0.0149130
954.436	0.0149058
954.514	0.0147953
954.592	0.0148125
954.670	0.0148538
954.748	0.0148560
954.826	0.0148486
954.905	0.0147341
954.983	0.0148896
955.061	0.0147330
955.139	0.0147157
955.217	0.0149275
955.295	0.0147300
955.373	0.0148807
955.451	0.0148040
955.530	0.0145823
955.608	0.0148914
955.686	0.0148042
955.764	0.0148130
955.842	0.0148964
955.920	0.0147709
955.998	0.0147593
956.076	0.0149585
956.155	0.0149151
956.233	0.0148515
956.311	0.0149741
956.389	0.0151955
956.467	0.0150884
956.545	0.0149529
956.623	0.0150404
956.701	0.0149282
956.780	0.0148963
956.858	0.0150995
956.936	0.0149928
957.014	0.0150022
957.092	0.0149490
957.170	0.0148924
957.248	0.0149345
957.326	0.0150044
957.405	0.0149848
957.483	0.0149938
957.561	0.0149208
957.639	0.0148113
957.717	0.0147184
957.795	0.0148714
957.873	0.0149355
957.951	0.0149168
958.030	0.0148964
958.108	0.0149597
958.186	0.0150088
958.264	0.0148227
958.342	0.0148283
958.420	0.0148627
958.498	0.0149387
958.576	0.0148964
958.655	0.0149881
958.733	0.0149039
958.811	0.0148900
958.889	0.0148861
958.967	0.0148270
959.045	0.0148161
959.123	0.0148499
959.201	0.0149587
959.280	0.0149034
959.358	0.0148564
959.436	0.0148347
959.514	0.0149010
959.592	0.0148411
959.670	0.0148393
959.748	0.0149332
959.826	0.0148237
959.905	0.0147614
