05/20/2022	16:15:56	Ver.	4.1	UNKNOWN
Optical Delay	639.982744	Delta X		0.078125	Sweeps	1	Scan Rate	0/0
Coordinates	Axis 1	NaN	Axis 2	NaN	Axis 3	NaN	Axis 4	NaN	Axis 5	NaN	Axis 6	0.000000
TX Power	0.000000	RX Power	0.000000

639.983	0.0140409
640.061	0.0140677
640.139	0.0139588
640.217	0.0140366
640.295	0.0140495
640.373	0.0140823
640.451	0.0140864
640.530	0.0139435
640.608	0.0139532
640.686	0.0140543
640.764	0.0141412
640.842	0.0140154
640.920	0.0140833
640.998	0.0140022
641.076	0.0140330
641.155	0.0140437
641.233	0.0140559
641.311	0.0140170
641.389	0.0141095
641.467	0.0139837
641.545	0.0141086
641.623	0.0140195
641.701	0.0140403
641.780	0.0139931
641.858	0.0139825
641.936	0.0141761
642.014	0.0140983
642.092	0.0140800
642.170	0.0140704
642.248	0.0139767
642.326	0.0139445
642.405	0.0139074
642.483	0.0139678
642.561	0.0139864
642.639	0.0140209
642.717	0.0139368
642.795	0.0139556
642.873	0.0140114
642.951	0.0139634
643.030	0.0139890
643.108	0.0140913
643.186	0.0140942
643.264	0.0140285
643.342	0.0138160
643.420	0.0140411
643.498	0.0138721
643.576	0.0139309
643.655	0.0141048
643.733	0.0140385
643.811	0.0140591
643.889	0.0139937
643.967	0.0139204
644.045	0.0141663
644.123	0.0140253
644.201	0.0140039
644.280	0.0140442
644.358	0.0140098
644.436	0.0141147
644.514	0.0141151
644.592	0.0141769
644.670	0.0140282
644.748	0.0141193
644.826	0.0140103
644.905	0.0140013
644.983	0.0139481
645.061	0.0141386
645.139	0.0140038
645.217	0.0140374
645.295	0.0140445
645.373	0.0141348
645.451	0.0140052
645.530	0.0140938
645.608	0.0139752
645.686	0.0138601
645.764	0.0141828
645.842	0.0140719
645.920	0.0140028
645.998	0.0140952
646.076	0.0140440
646.155	0.0139494
646.233	0.0141538
646.311	0.0141656
646.389	0.0139281
646.467	0.0141254
646.545	0.0140369
646.623	0.0139944
646.701	0.0141011
646.780	0.0140602
646.858	0.0140632
646.936	0.0140417
647.014	0.0141622
647.092	0.0141145
647.170	0.0139964
647.248	0.0142380
647.326	0.0140841
647.405	0.0140639
647.483	0.0140870
647.561	0.0141037
647.639	0.0141151
647.717	0.0139790
647.795	0.0141151
647.873	0.0139592
647.951	0.0140807
648.030	0.0141404
648.108	0.0140150
648.186	0.0139948
648.264	0.0139076
648.342	0.0140135
648.420	0.0140859
648.498	0.0140562
648.576	0.0138796
648.655	0.0139375
648.733	0.0139821
648.811	0.0139506
648.889	0.0140622
648.967	0.0139938
649.045	0.0141139
649.123	0.0139565
649.201	0.0140077
649.280	0.0140860
649.358	0.0139783
649.436	0.0139546
649.514	0.0140845
649.592	0.0139342
649.670	0.0139784
649.748	0.0139057
649.826	0.0140347
649.905	0.0141248
649.983	0.0141146
650.061	0.0140416
650.139	0.0138677
650.217	0.0139017
650.295	0.0139962
650.373	0.0138871
650.451	0.0141681
650.530	0.0139846
650.608	0.0140401
650.686	0.0140082
650.764	0.0139330
650.842	0.0139948
650.920	0.0139949
650.998	0.0140285
651.076	0.0140079
651.155	0.0140333
651.233	0.0140310
651.311	0.0139797
651.389	0.0139872
651.467	0.0139646
651.545	0.0139980
651.623	0.0139601
651.701	0.0141914
651.780	0.0141505
651.858	0.0139310
651.936	0.0140728
652.014	0.0141791
652.092	0.0140527
652.170	0.0140289
652.248	0.0139002
652.326	0.0139947
652.405	0.0140774
652.483	0.0140656
652.561	0.0141919
652.639	0.0140985
652.717	0.0140729
652.795	0.0140672
652.873	0.0141516
652.951	0.0140884
653.030	0.0140311
653.108	0.0139541
653.186	0.0141113
653.264	0.0140144
653.342	0.0140115
653.420	0.0140491
653.498	0.0140433
653.576	0.0140556
653.655	0.0140261
653.733	0.0139650
653.811	0.0141513
653.889	0.0139281
653.967	0.0139801
654.045	0.0140108
654.123	0.0139427
654.201	0.0140489
654.280	0.0140755
654.358	0.0139472
654.436	0.0140727
654.514	0.0142674
654.592	0.0140918
654.670	0.0140536
654.748	0.0140346
654.826	0.0140189
654.905	0.0140723
654.983	0.0140040
655.061	0.0139510
655.139	0.0140815
655.217	0.0139742
655.295	0.0140448
655.373	0.0139063
655.451	0.0138911
655.530	0.0140484
655.608	0.0139644
655.686	0.0139901
655.764	0.0140522
655.842	0.0140797
655.920	0.0139606
655.998	0.0140157
656.076	0.0141951
656.155	0.0141158
656.233	0.0139169
656.311	0.0140034
656.389	0.0140780
656.467	0.0142184
656.545	0.0139638
656.623	0.0139516
656.701	0.0141299
656.780	0.0139794
656.858	0.0140318
656.936	0.0141322
657.014	0.0140469
657.092	0.0139182
657.170	0.0140647
657.248	0.0141667
657.326	0.0138567
657.405	0.0140782
657.483	0.0141438
657.561	0.0139315
657.639	0.0139633
657.717	0.0139698
657.795	0.0140004
657.873	0.0141070
657.951	0.0141834
658.030	0.0140519
658.108	0.0139816
658.186	0.0140594
658.264	0.0140370
658.342	0.0140533
658.420	0.0139854
658.498	0.0140697
658.576	0.0141084
658.655	0.0141103
658.733	0.0139825
658.811	0.0140167
658.889	0.0140682
658.967	0.0140694
659.045	0.0139867
659.123	0.0139227
659.201	0.0140120
659.280	0.0138968
659.358	0.0140750
659.436	0.0139564
659.514	0.0142318
659.592	0.0140536
659.670	0.0139879
659.748	0.0139993
659.826	0.0140786
659.905	0.0139184
659.983	0.0140605
660.061	0.0140675
660.139	0.0139365
660.217	0.0140807
660.295	0.0140858
660.373	0.0141621
660.451	0.0139996
660.530	0.0140204
660.608	0.0140082
660.686	0.0141619
660.764	0.0140545
660.842	0.0140167
660.920	0.0140039
660.998	0.0140575
661.076	0.0140003
661.155	0.0140695
661.233	0.0140503
661.311	0.0138567
661.389	0.0140018
661.467	0.0140175
661.545	0.0140353
661.623	0.0140590
661.701	0.0139388
661.780	0.0141270
661.858	0.0141258
661.936	0.0138670
662.014	0.0139748
662.092	0.0140681
662.170	0.0140883
662.248	0.0139419
662.326	0.0139885
662.405	0.0141077
662.483	0.0140409
662.561	0.0139939
662.639	0.0139206
662.717	0.0140289
662.795	0.0140664
662.873	0.0139291
662.951	0.0140416
663.030	0.0141098
663.108	0.0140350
663.186	0.0138693
663.264	0.0140736
663.342	0.0140599
663.420	0.0140768
663.498	0.0139770
663.576	0.0141264
663.655	0.0139466
663.733	0.0140505
663.811	0.0139858
663.889	0.0140505
663.967	0.0140244
664.045	0.0140375
664.123	0.0140913
664.201	0.0140694
664.280	0.0139003
664.358	0.0139632
664.436	0.0141017
664.514	0.0140522
664.592	0.0140025
664.670	0.0139838
664.748	0.0140997
664.826	0.0141983
664.905	0.0141416
664.983	0.0140718
665.061	0.0141039
665.139	0.0140644
665.217	0.0138652
665.295	0.0140520
665.373	0.0140373
665.451	0.0140434
665.530	0.0140965
665.608	0.0140505
665.686	0.0141409
665.764	0.0139700
665.842	0.0140664
665.920	0.0139613
665.998	0.0137285
666.076	0.0140556
666.155	0.0140360
666.233	0.0141678
666.311	0.0139808
666.389	0.0141449
666.467	0.0140268
666.545	0.0139304
666.623	0.0139314
666.701	0.0141206
666.780	0.0142697
666.858	0.0140653
666.936	0.0140076
667.014	0.0140987
667.092	0.0140701
667.170	0.0140334
667.248	0.0140040
667.326	0.0140182
667.405	0.0139607
667.483	0.0140318
667.561	0.0140965
667.639	0.0140730
667.717	0.0140090
667.795	0.0140676
667.873	0.0141629
667.951	0.0139909
668.030	0.0139301
668.108	0.0140490
668.186	0.0140941
668.264	0.0140679
668.342	0.0139606
668.420	0.0140720
668.498	0.0140292
668.576	0.0140982
668.655	0.0139948
668.733	0.0141246
668.811	0.0140259
668.889	0.0140125
668.967	0.0141916
669.045	0.0140718
669.123	0.0139642
669.201	0.0140691
669.280	0.0140616
669.358	0.0139491
669.436	0.0140203
669.514	0.0141380
669.592	0.0140257
669.670	0.0139469
669.748	0.0140803
669.826	0.0141678
669.905	0.0141451
669.983	0.0139700
670.061	0.0140400
670.139	0.0139622
670.217	0.0139908
670.295	0.0141592
670.373	0.0138435
670.451	0.0139345
670.530	0.0139648
670.608	0.0140651
670.686	0.0140105
670.764	0.0139986
670.842	0.0140913
670.920	0.0140823
670.998	0.0139966
671.076	0.0140219
671.155	0.0140572
671.233	0.0140952
671.311	0.0140009
671.389	0.0140601
671.467	0.0139878
671.545	0.0139581
671.623	0.0139216
671.701	0.0140627
671.780	0.0139449
671.858	0.0140381
671.936	0.0139138
672.014	0.0139993
672.092	0.0140028
672.170	0.0140545
672.248	0.0140974
672.326	0.0141286
672.405	0.0139310
672.483	0.0140759
672.561	0.0141121
672.639	0.0141669
672.717	0.0140699
672.795	0.0139658
672.873	0.0140074
672.951	0.0140255
673.030	0.0140420
673.108	0.0142009
673.186	0.0139742
673.264	0.0140199
673.342	0.0139619
673.420	0.0139321
673.498	0.0140751
673.576	0.0139310
673.655	0.0139882
673.733	0.0141010
673.811	0.0140823
673.889	0.0141034
673.967	0.0140106
674.045	0.0140051
674.123	0.0139458
674.201	0.0140951
674.280	0.0140591
674.358	0.0140433
674.436	0.0140869
674.514	0.0141410
674.592	0.0141957
674.670	0.0140050
674.748	0.0139690
674.826	0.0140026
674.905	0.0141818
674.983	0.0141438
675.061	0.0140870
675.139	0.0139225
675.217	0.0140365
675.295	0.0140010
675.373	0.0140212
675.451	0.0142836
675.530	0.0141145
675.608	0.0142106
675.686	0.0141119
675.764	0.0140842
675.842	0.0141741
675.920	0.0141132
675.998	0.0141888
676.076	0.0140587
676.155	0.0141519
676.233	0.0141732
676.311	0.0140162
676.389	0.0140025
676.467	0.0142744
676.545	0.0142326
676.623	0.0141491
676.701	0.0141834
676.780	0.0141164
676.858	0.0141737
676.936	0.0140887
677.014	0.0139497
677.092	0.0140962
677.170	0.0141680
677.248	0.0140345
677.326	0.0140588
677.405	0.0139705
677.483	0.0140080
677.561	0.0140607
677.639	0.0140911
677.717	0.0139771
677.795	0.0141866
677.873	0.0141016
677.951	0.0140517
678.030	0.0141090
678.108	0.0140755
678.186	0.0140368
678.264	0.0142608
678.342	0.0140631
678.420	0.0141823
678.498	0.0140702
678.576	0.0140690
678.655	0.0140406
678.733	0.0140207
678.811	0.0141180
678.889	0.0140271
678.967	0.0141494
679.045	0.0141271
679.123	0.0141544
679.201	0.0141897
679.280	0.0142032
679.358	0.0139673
679.436	0.0140396
679.514	0.0141025
679.592	0.0140845
679.670	0.0140593
679.748	0.0141139
679.826	0.0140201
679.905	0.0140138
679.983	0.0139865
680.061	0.0139948
680.139	0.0138295
680.217	0.0139922
680.295	0.0138553
680.373	0.0139271
680.451	0.0139283
680.530	0.0138879
680.608	0.0141575
680.686	0.0141078
680.764	0.0141028
680.842	0.0139816
680.920	0.0141814
680.998	0.0142948
681.076	0.0141025
681.155	0.0142140
681.233	0.0142120
681.311	0.0142461
681.389	0.0141317
681.467	0.0141433
681.545	0.0140622
681.623	0.0139796
681.701	0.0139600
681.780	0.0140263
681.858	0.0141238
681.936	0.0139378
682.014	0.0139725
682.092	0.0138625
682.170	0.0138344
682.248	0.0138836
682.326	0.0138789
682.405	0.0139399
682.483	0.0139852
682.561	0.0140395
682.639	0.0140752
682.717	0.0139867
682.795	0.0137965
682.873	0.0141705
682.951	0.0141608
683.030	0.0141180
683.108	0.0141492
683.186	0.0142413
683.264	0.0140799
683.342	0.0141091
683.420	0.0142415
683.498	0.0141773
683.576	0.0140975
683.655	0.0141880
683.733	0.0141267
683.811	0.0140282
683.889	0.0140685
683.967	0.0140874
684.045	0.0140012
684.123	0.0140288
684.201	0.0139314
684.280	0.0141016
684.358	0.0139964
684.436	0.0138962
684.514	0.0140072
684.592	0.0138771
684.670	0.0138795
684.748	0.0138078
684.826	0.0139116
684.905	0.0139747
684.983	0.0140296
685.061	0.0142039
685.139	0.0141412
685.217	0.0142427
685.295	0.0143099
685.373	0.0142142
685.451	0.0141344
685.530	0.0144266
685.608	0.0142078
685.686	0.0141695
685.764	0.0142535
685.842	0.0140717
685.920	0.0138539
685.998	0.0138264
686.076	0.0137598
686.155	0.0136335
686.233	0.0136221
686.311	0.0136723
686.389	0.0135862
686.467	0.0138093
686.545	0.0138853
686.623	0.0139983
686.701	0.0139463
686.780	0.0140258
686.858	0.0141782
686.936	0.0141253
687.014	0.0141263
687.092	0.0141409
687.170	0.0140884
687.248	0.0141282
687.326	0.0139791
687.405	0.0140124
687.483	0.0139339
687.561	0.0138484
687.639	0.0137893
687.717	0.0137352
687.795	0.0137767
687.873	0.0136950
687.951	0.0139390
688.030	0.0138528
688.108	0.0138197
688.186	0.0137727
688.264	0.0140913
688.342	0.0140705
688.420	0.0141329
688.498	0.0141239
688.576	0.0141112
688.655	0.0140777
688.733	0.0141131
688.811	0.0141187
688.889	0.0140990
688.967	0.0140663
689.045	0.0141777
689.123	0.0141441
689.201	0.0143455
689.280	0.0144199
689.358	0.0143565
689.436	0.0144021
689.514	0.0144643
689.592	0.0144372
689.670	0.0144727
689.748	0.0143399
689.826	0.0140994
689.905	0.0139824
689.983	0.0138614
690.061	0.0137944
690.139	0.0136505
690.217	0.0135124
690.295	0.0134962
690.373	0.0135279
690.451	0.0133871
690.530	0.0135082
690.608	0.0135822
690.686	0.0136776
690.764	0.0135948
690.842	0.0136528
690.920	0.0136665
690.998	0.0134866
691.076	0.0134565
691.155	0.0134702
691.233	0.0134054
691.311	0.0134725
691.389	0.0134282
691.467	0.0134367
691.545	0.0134454
691.623	0.0135693
691.701	0.0138549
691.780	0.0138814
691.858	0.0141335
691.936	0.0141429
692.014	0.0141598
692.092	0.0143883
692.170	0.0145717
692.248	0.0146738
692.326	0.0147060
692.405	0.0146357
692.483	0.0148719
692.561	0.0146899
692.639	0.0146056
692.717	0.0147070
692.795	0.0147080
692.873	0.0144920
692.951	0.0144249
693.030	0.0143287
693.108	0.0142451
693.186	0.0142488
693.264	0.0142588
693.342	0.0142350
693.420	0.0140940
693.498	0.0142226
693.576	0.0141726
693.655	0.0141795
693.733	0.0143331
693.811	0.0144717
693.889	0.0144055
693.967	0.0145078
694.045	0.0143362
694.123	0.0143056
694.201	0.0142281
694.280	0.0139738
694.358	0.0136758
694.436	0.0135345
694.514	0.0133173
694.592	0.0131574
694.670	0.0130372
694.748	0.0129375
694.826	0.0130540
694.905	0.0131992
694.983	0.0132697
695.061	0.0135263
695.139	0.0136710
695.217	0.0138824
695.295	0.0138600
695.373	0.0142024
695.451	0.0143356
695.530	0.0144260
695.608	0.0143785
695.686	0.0144521
695.764	0.0145091
695.842	0.0143152
695.920	0.0141658
695.998	0.0140748
696.076	0.0139981
696.155	0.0138898
696.233	0.0136617
696.311	0.0134796
696.389	0.0132503
696.467	0.0131119
696.545	0.0128543
696.623	0.0128829
696.701	0.0126949
696.780	0.0128014
696.858	0.0129319
696.936	0.0132082
697.014	0.0133513
697.092	0.0135432
697.170	0.0138071
697.248	0.0141214
697.326	0.0144411
697.405	0.0147527
697.483	0.0148154
697.561	0.0150469
697.639	0.0152105
697.717	0.0152331
697.795	0.0151674
697.873	0.0153900
697.951	0.0154093
698.030	0.0154546
698.108	0.0155289
698.186	0.0155935
698.264	0.0155666
698.342	0.0155625
698.420	0.0156089
698.498	0.0157117
698.576	0.0157514
698.655	0.0157835
698.733	0.0158248
698.811	0.0158590
698.889	0.0159108
698.967	0.0159117
699.045	0.0157914
699.123	0.0156269
699.201	0.0154264
699.280	0.0150609
699.358	0.0146330
699.436	0.0145198
699.514	0.0141134
699.592	0.0136816
699.670	0.0131944
699.748	0.0128658
699.826	0.0125923
699.905	0.0121547
699.983	0.0118993
700.061	0.0116454
700.139	0.0115456
700.217	0.0113541
700.295	0.0112563
700.373	0.0110352
700.451	0.0108717
700.530	0.0109698
700.608	0.0107469
700.686	0.0106647
700.764	0.0106195
700.842	0.0105777
700.920	0.0105585
700.998	0.0106101
701.076	0.0108299
701.155	0.0110786
701.233	0.0115051
701.311	0.0117949
701.389	0.0123857
701.467	0.0131439
701.545	0.0135914
701.623	0.0142770
701.701	0.0149060
701.780	0.0157228
701.858	0.0163036
701.936	0.0166318
702.014	0.0170951
702.092	0.0175839
702.170	0.0179958
702.248	0.0181757
702.326	0.0183182
702.405	0.0184034
702.483	0.0184086
702.561	0.0183556
702.639	0.0183036
702.717	0.0181863
702.795	0.0179986
702.873	0.0179000
702.951	0.0175959
703.030	0.0175198
703.108	0.0174502
703.186	0.0172821
703.264	0.0169633
703.342	0.0165528
703.420	0.0161646
703.498	0.0158025
703.576	0.0153147
703.655	0.0148267
703.733	0.0142595
703.811	0.0135760
703.889	0.0132905
703.967	0.0128143
704.045	0.0120702
704.123	0.0116221
704.201	0.0110809
704.280	0.0107307
704.358	0.0105578
704.436	0.0101820
704.514	0.00996658
704.592	0.00984200
704.670	0.0101044
704.748	0.00999176
704.826	0.00994583
704.905	0.0103353
704.983	0.0107333
705.061	0.0109933
705.139	0.0113182
705.217	0.0117358
705.295	0.0120081
705.373	0.0123377
705.451	0.0127941
705.530	0.0129765
705.608	0.0132584
705.686	0.0134254
705.764	0.0137305
705.842	0.0139643
705.920	0.0138876
705.998	0.0139542
706.076	0.0140398
706.155	0.0142018
706.233	0.0142042
706.311	0.0141385
706.389	0.0140711
706.467	0.0138890
706.545	0.0139085
706.623	0.0138873
706.701	0.0139727
706.780	0.0140847
706.858	0.0139141
706.936	0.0140167
707.014	0.0141782
707.092	0.0144582
707.170	0.0144635
707.248	0.0147070
707.326	0.0151791
707.405	0.0155692
707.483	0.0158900
707.561	0.0162360
707.639	0.0166938
707.717	0.0169382
707.795	0.0171744
707.873	0.0176147
707.951	0.0177305
708.030	0.0176818
708.108	0.0177295
708.186	0.0177074
708.264	0.0173816
708.342	0.0170598
708.420	0.0169196
708.498	0.0164415
708.576	0.0160592
708.655	0.0154360
708.733	0.0150602
708.811	0.0149006
708.889	0.0145277
708.967	0.0142379
709.045	0.0140878
709.123	0.0138778
709.201	0.0137527
709.280	0.0136137
709.358	0.0134448
709.436	0.0133794
709.514	0.0130177
709.592	0.0128442
709.670	0.0126325
709.748	0.0121745
709.826	0.0118360
709.905	0.0114173
709.983	0.0112177
710.061	0.0107420
710.139	0.0106738
710.217	0.0105090
710.295	0.0102982
710.373	0.0103810
710.451	0.0104197
710.530	0.0103632
710.608	0.0104166
710.686	0.0106165
710.764	0.0111006
710.842	0.0115752
710.920	0.0118819
710.998	0.0123638
711.076	0.0128039
711.155	0.0131492
711.233	0.0138378
711.311	0.0142197
711.389	0.0143974
711.467	0.0148772
711.545	0.0151696
711.623	0.0153553
711.701	0.0152863
711.780	0.0154164
711.858	0.0152088
711.936	0.0149763
712.014	0.0146571
712.092	0.0143684
712.170	0.0140056
712.248	0.0136596
712.326	0.0132626
712.405	0.0129318
712.483	0.0127602
712.561	0.0123922
712.639	0.0124189
712.717	0.0123637
712.795	0.0124792
712.873	0.0126500
712.951	0.0130080
713.030	0.0134176
713.108	0.0138499
713.186	0.0143106
713.264	0.0151208
713.342	0.0156902
713.420	0.0162371
713.498	0.0167242
713.576	0.0173276
713.655	0.0179034
713.733	0.0182519
713.811	0.0184818
713.889	0.0187731
713.967	0.0188238
714.045	0.0186380
714.123	0.0186081
714.201	0.0184131
714.280	0.0180303
714.358	0.0175822
714.436	0.0172079
714.514	0.0166181
714.592	0.0161854
714.670	0.0155550
714.748	0.0149620
714.826	0.0147407
714.905	0.0143255
714.983	0.0138708
715.061	0.0135816
715.139	0.0133105
715.217	0.0130782
715.295	0.0128260
715.373	0.0126016
715.451	0.0124220
715.530	0.0122459
715.608	0.0119829
715.686	0.0116492
715.764	0.0113817
715.842	0.0111942
715.920	0.0109360
715.998	0.0105173
716.076	0.0103756
716.155	0.0101241
716.233	0.0100423
716.311	0.00995613
716.389	0.00984848
716.467	0.00998924
716.545	0.0102353
716.623	0.0103773
716.701	0.0106312
716.780	0.0111385
716.858	0.0112748
716.936	0.0117542
717.014	0.0120596
717.092	0.0124570
717.170	0.0129122
717.248	0.0133231
717.326	0.0137060
717.405	0.0138932
717.483	0.0145044
717.561	0.0148064
717.639	0.0154171
717.717	0.0155688
717.795	0.0159554
717.873	0.0162371
717.951	0.0164204
718.030	0.0163405
718.108	0.0164577
718.186	0.0162390
718.264	0.0158797
718.342	0.0156163
718.420	0.0151220
718.498	0.0146088
718.576	0.0142252
718.655	0.0139265
718.733	0.0136278
718.811	0.0133508
718.889	0.0133435
718.967	0.0133601
719.045	0.0136523
719.123	0.0138122
719.201	0.0141696
719.280	0.0144041
719.358	0.0149350
719.436	0.0152334
719.514	0.0155117
719.592	0.0160296
719.670	0.0164375
719.748	0.0166345
719.826	0.0170831
719.905	0.0170829
719.983	0.0173119
720.061	0.0174269
720.139	0.0174605
720.217	0.0173921
720.295	0.0173180
720.373	0.0172269
720.451	0.0172424
720.530	0.0168216
720.608	0.0164655
720.686	0.0162746
720.764	0.0159180
720.842	0.0155586
720.920	0.0152045
720.998	0.0147118
721.076	0.0143614
721.155	0.0141379
721.233	0.0137103
721.311	0.0133607
721.389	0.0130582
721.467	0.0127252
721.545	0.0125603
721.623	0.0121415
721.701	0.0121137
721.780	0.0119826
721.858	0.0116654
721.936	0.0113312
722.014	0.0112511
722.092	0.0108885
722.170	0.0106371
722.248	0.0103845
722.326	0.0101977
722.405	0.0101500
722.483	0.00986992
722.561	0.00991150
722.639	0.0100125
722.717	0.0103439
722.795	0.0105862
722.873	0.0106727
722.951	0.0112021
723.030	0.0115044
723.108	0.0118601
723.186	0.0122855
723.264	0.0127759
723.342	0.0132280
723.420	0.0136884
723.498	0.0139679
723.576	0.0145303
723.655	0.0149853
723.733	0.0151910
723.811	0.0155064
723.889	0.0158132
723.967	0.0160165
724.045	0.0161749
724.123	0.0163376
724.201	0.0163850
724.280	0.0163743
724.358	0.0164172
724.436	0.0162864
724.514	0.0162638
724.592	0.0158685
724.670	0.0156437
724.748	0.0153876
724.826	0.0148952
724.905	0.0147763
724.983	0.0144212
725.061	0.0141005
725.139	0.0138515
725.217	0.0136381
725.295	0.0134793
725.373	0.0135945
725.451	0.0135202
725.530	0.0136200
725.608	0.0139043
725.686	0.0141267
725.764	0.0145094
725.842	0.0149081
725.920	0.0151169
725.998	0.0156983
726.076	0.0162363
726.155	0.0163065
726.233	0.0165891
726.311	0.0168419
726.389	0.0169951
726.467	0.0169005
726.545	0.0167527
726.623	0.0167162
726.701	0.0165239
726.780	0.0162637
726.858	0.0158842
726.936	0.0155984
727.014	0.0151431
727.092	0.0146803
727.170	0.0143584
727.248	0.0140220
727.326	0.0137218
727.405	0.0135256
727.483	0.0132822
727.561	0.0131674
727.639	0.0130856
727.717	0.0130126
727.795	0.0130338
727.873	0.0129160
727.951	0.0128982
728.030	0.0127543
728.108	0.0127932
728.186	0.0126880
728.264	0.0123632
728.342	0.0121751
728.420	0.0120523
728.498	0.0118575
728.576	0.0115789
728.655	0.0112173
728.733	0.0111313
728.811	0.0110799
728.889	0.0107133
728.967	0.0105054
729.045	0.0104125
729.123	0.0103661
729.201	0.0105219
729.280	0.0105730
729.358	0.0108082
729.436	0.0111510
729.514	0.0115611
729.592	0.0120414
729.670	0.0124203
729.748	0.0131847
729.826	0.0139112
729.905	0.0143700
729.983	0.0150014
730.061	0.0154601
730.139	0.0160378
730.217	0.0164789
730.295	0.0168666
730.373	0.0171410
730.451	0.0170955
730.530	0.0171453
730.608	0.0171471
730.686	0.0169486
730.764	0.0168314
730.842	0.0166314
730.920	0.0161894
730.998	0.0158969
731.076	0.0154323
731.155	0.0150097
731.233	0.0146635
731.311	0.0142046
731.389	0.0137605
731.467	0.0134418
731.545	0.0132336
731.623	0.0130855
731.701	0.0128681
731.780	0.0126639
731.858	0.0126549
731.936	0.0128799
732.014	0.0130379
732.092	0.0134044
732.170	0.0135827
732.248	0.0139498
732.326	0.0145003
732.405	0.0146924
732.483	0.0150269
732.561	0.0154154
732.639	0.0156483
732.717	0.0159897
732.795	0.0160721
732.873	0.0161343
732.951	0.0160149
733.030	0.0159470
733.108	0.0156744
733.186	0.0156997
733.264	0.0154058
733.342	0.0151725
733.420	0.0150673
733.498	0.0147546
733.576	0.0143984
733.655	0.0143465
733.733	0.0141274
733.811	0.0138073
733.889	0.0135181
733.967	0.0133604
734.045	0.0132786
734.123	0.0131049
734.201	0.0129426
734.280	0.0128959
734.358	0.0129440
734.436	0.0129533
734.514	0.0128830
734.592	0.0129200
734.670	0.0128772
734.748	0.0129098
734.826	0.0130475
734.905	0.0130614
734.983	0.0130522
735.061	0.0128979
735.139	0.0126582
735.217	0.0126693
735.295	0.0124410
735.373	0.0121894
735.451	0.0119483
735.530	0.0118482
735.608	0.0117763
735.686	0.0117496
735.764	0.0116512
735.842	0.0118367
735.920	0.0120741
735.998	0.0123025
736.076	0.0126190
736.155	0.0130518
736.233	0.0135009
736.311	0.0137960
736.389	0.0141415
736.467	0.0145454
736.545	0.0147491
736.623	0.0150981
736.701	0.0153892
736.780	0.0154021
736.858	0.0156882
736.936	0.0159031
737.014	0.0158898
737.092	0.0157928
737.170	0.0157031
737.248	0.0156995
737.326	0.0155519
737.405	0.0154720
737.483	0.0153554
737.561	0.0150980
737.639	0.0147216
737.717	0.0144680
737.795	0.0141901
737.873	0.0141077
737.951	0.0138003
738.030	0.0134766
738.108	0.0134554
738.186	0.0133210
738.264	0.0131371
738.342	0.0130053
738.420	0.0129736
738.498	0.0131367
738.576	0.0132990
738.655	0.0131937
738.733	0.0134897
738.811	0.0135788
738.889	0.0137566
738.967	0.0140580
739.045	0.0142189
739.123	0.0144833
739.201	0.0147591
739.280	0.0148591
739.358	0.0149738
739.436	0.0152058
739.514	0.0152786
739.592	0.0152674
739.670	0.0154394
739.748	0.0152224
739.826	0.0153008
739.905	0.0152072
739.983	0.0150852
740.061	0.0149722
740.139	0.0149265
740.217	0.0146210
740.295	0.0145176
740.373	0.0142187
740.451	0.0140471
740.530	0.0138730
740.608	0.0135918
740.686	0.0134164
740.764	0.0133247
740.842	0.0132543
740.920	0.0131553
740.998	0.0131145
741.076	0.0133574
741.155	0.0132577
741.233	0.0133674
741.311	0.0134646
741.389	0.0135910
741.467	0.0135492
741.545	0.0134889
741.623	0.0139011
741.701	0.0136684
741.780	0.0134503
741.858	0.0133984
741.936	0.0133446
742.014	0.0132501
742.092	0.0130959
742.170	0.0129552
742.248	0.0127849
742.326	0.0127155
742.405	0.0125741
742.483	0.0125094
742.561	0.0125067
742.639	0.0125723
742.717	0.0126772
742.795	0.0127273
742.873	0.0129922
742.951	0.0132831
743.030	0.0135247
743.108	0.0139311
743.186	0.0140724
743.264	0.0143392
743.342	0.0147076
743.420	0.0149986
743.498	0.0151843
743.576	0.0154350
743.655	0.0154812
743.733	0.0157495
743.811	0.0156550
743.889	0.0156072
743.967	0.0156505
744.045	0.0154693
744.123	0.0153487
744.201	0.0150880
744.280	0.0148242
744.358	0.0145434
744.436	0.0142048
744.514	0.0138676
744.592	0.0135916
744.670	0.0134098
744.748	0.0132481
744.826	0.0130379
744.905	0.0131136
744.983	0.0129506
745.061	0.0130740
745.139	0.0130647
745.217	0.0131938
745.295	0.0132895
745.373	0.0133649
745.451	0.0135915
745.530	0.0136712
745.608	0.0140016
745.686	0.0141257
745.764	0.0144489
745.842	0.0145516
745.920	0.0145914
745.998	0.0147987
746.076	0.0149046
746.155	0.0148806
746.233	0.0150303
746.311	0.0149360
746.389	0.0150723
746.467	0.0150470
746.545	0.0150510
746.623	0.0153116
746.701	0.0151072
746.780	0.0148765
746.858	0.0147643
746.936	0.0147238
747.014	0.0146292
747.092	0.0143808
747.170	0.0143695
747.248	0.0141590
747.326	0.0139204
747.405	0.0136348
747.483	0.0136127
747.561	0.0134892
747.639	0.0133818
747.717	0.0132864
747.795	0.0135567
747.873	0.0134498
747.951	0.0135822
748.030	0.0137673
748.108	0.0137198
748.186	0.0138639
748.264	0.0140172
748.342	0.0139147
748.420	0.0140543
748.498	0.0139926
748.576	0.0139747
748.655	0.0138627
748.733	0.0137502
748.811	0.0137347
748.889	0.0135379
748.967	0.0133456
749.045	0.0133645
749.123	0.0132868
749.201	0.0132812
749.280	0.0131587
749.358	0.0131966
749.436	0.0132048
749.514	0.0134335
749.592	0.0134064
749.670	0.0136028
749.748	0.0139077
749.826	0.0139722
749.905	0.0140263
749.983	0.0140916
750.061	0.0143389
750.139	0.0144708
750.217	0.0146447
750.295	0.0147732
750.373	0.0147695
750.451	0.0148132
750.530	0.0149406
750.608	0.0147897
750.686	0.0149101
750.764	0.0148229
750.842	0.0146291
750.920	0.0147283
750.998	0.0146030
751.076	0.0142587
751.155	0.0141600
751.233	0.0141272
751.311	0.0141235
751.389	0.0139022
751.467	0.0136076
751.545	0.0137345
751.623	0.0136257
751.701	0.0135366
751.780	0.0136108
751.858	0.0136252
751.936	0.0136517
752.014	0.0136616
752.092	0.0137355
752.170	0.0137807
752.248	0.0139481
752.326	0.0139585
752.405	0.0140221
752.483	0.0140380
752.561	0.0142046
752.639	0.0140456
752.717	0.0140494
752.795	0.0141492
752.873	0.0141935
752.951	0.0141913
753.030	0.0144202
753.108	0.0144037
753.186	0.0142905
753.264	0.0144830
753.342	0.0144169
753.420	0.0144932
753.498	0.0144466
753.576	0.0145512
753.655	0.0145352
753.733	0.0145185
753.811	0.0143553
753.889	0.0141919
753.967	0.0142116
754.045	0.0141776
754.123	0.0141811
754.201	0.0141136
754.280	0.0140427
754.358	0.0140296
754.436	0.0139559
754.514	0.0139710
754.592	0.0139574
754.670	0.0140252
754.748	0.0139309
754.826	0.0139355
754.905	0.0140063
754.983	0.0138699
755.061	0.0140026
755.139	0.0140295
755.217	0.0140469
755.295	0.0140710
755.373	0.0140820
755.451	0.0141575
755.530	0.0139752
755.608	0.0140412
755.686	0.0138925
755.764	0.0139092
755.842	0.0138437
755.920	0.0138535
755.998	0.0137881
756.076	0.0136758
756.155	0.0136980
756.233	0.0136723
756.311	0.0136460
756.389	0.0137600
756.467	0.0137655
756.545	0.0137489
756.623	0.0137453
756.701	0.0137771
756.780	0.0139278
756.858	0.0140054
756.936	0.0140692
757.014	0.0141679
757.092	0.0143115
757.170	0.0142287
757.248	0.0143365
757.326	0.0143046
757.405	0.0142016
757.483	0.0143601
757.561	0.0143104
757.639	0.0142612
757.717	0.0141964
757.795	0.0140699
757.873	0.0139829
757.951	0.0138004
758.030	0.0138929
758.108	0.0137392
758.186	0.0136327
758.264	0.0136887
758.342	0.0137000
758.420	0.0135043
758.498	0.0136080
758.576	0.0137325
758.655	0.0136940
758.733	0.0136363
758.811	0.0136952
758.889	0.0137196
758.967	0.0136892
759.045	0.0138032
759.123	0.0138248
759.201	0.0138448
759.280	0.0139738
759.358	0.0140639
759.436	0.0140350
759.514	0.0141853
759.592	0.0140565
759.670	0.0141473
759.748	0.0142636
759.826	0.0141616
759.905	0.0141671
759.983	0.0142063
760.061	0.0143145
760.139	0.0141772
760.217	0.0141188
760.295	0.0139825
760.373	0.0140330
760.451	0.0139478
760.530	0.0138374
760.608	0.0140895
760.686	0.0139240
760.764	0.0139168
760.842	0.0139008
760.920	0.0137733
760.998	0.0138514
761.076	0.0137412
761.155	0.0139288
761.233	0.0138577
761.311	0.0137523
761.389	0.0138104
761.467	0.0138958
761.545	0.0140544
761.623	0.0138950
761.701	0.0139099
761.780	0.0140585
761.858	0.0140082
761.936	0.0140086
762.014	0.0141176
762.092	0.0142897
762.170	0.0143974
762.248	0.0143814
762.326	0.0144720
762.405	0.0145177
762.483	0.0144360
762.561	0.0143916
762.639	0.0143291
762.717	0.0142090
762.795	0.0140762
762.873	0.0141543
762.951	0.0140080
763.030	0.0138760
763.108	0.0137260
763.186	0.0136305
763.264	0.0136149
763.342	0.0137128
763.420	0.0136547
763.498	0.0137711
763.576	0.0138445
763.655	0.0138505
763.733	0.0138834
763.811	0.0139610
763.889	0.0139853
763.967	0.0140168
764.045	0.0140114
764.123	0.0140671
764.201	0.0141354
764.280	0.0142400
764.358	0.0140392
764.436	0.0141693
764.514	0.0141636
764.592	0.0140033
764.670	0.0139418
764.748	0.0138239
764.826	0.0138582
764.905	0.0140089
764.983	0.0138212
765.061	0.0138212
765.139	0.0136951
765.217	0.0136909
765.295	0.0136742
765.373	0.0137126
765.451	0.0136478
765.530	0.0135161
765.608	0.0136257
765.686	0.0136504
765.764	0.0137769
765.842	0.0138370
765.920	0.0137701
765.998	0.0139172
766.076	0.0141365
766.155	0.0141174
766.233	0.0140847
766.311	0.0141004
766.389	0.0143471
766.467	0.0143787
766.545	0.0143545
766.623	0.0145615
766.701	0.0144202
766.780	0.0141608
766.858	0.0142635
766.936	0.0143291
767.014	0.0142539
767.092	0.0142106
767.170	0.0140086
767.248	0.0140517
767.326	0.0139922
767.405	0.0140202
767.483	0.0139697
767.561	0.0138105
767.639	0.0138688
767.717	0.0138750
767.795	0.0139182
767.873	0.0139479
767.951	0.0138096
768.030	0.0138844
768.108	0.0138464
768.186	0.0137026
768.264	0.0139393
768.342	0.0140079
768.420	0.0138896
768.498	0.0139627
768.576	0.0138202
768.655	0.0139436
768.733	0.0138943
768.811	0.0141138
768.889	0.0142181
768.967	0.0141414
769.045	0.0141691
769.123	0.0142490
769.201	0.0142030
769.280	0.0141904
769.358	0.0142182
769.436	0.0143388
769.514	0.0142207
769.592	0.0143533
769.670	0.0143275
769.748	0.0141644
769.826	0.0143496
769.905	0.0142626
769.983	0.0141658
770.061	0.0141907
770.139	0.0142536
770.217	0.0142023
770.295	0.0142496
770.373	0.0142083
770.451	0.0141280
770.530	0.0140718
770.608	0.0142310
770.686	0.0142765
770.764	0.0139944
770.842	0.0140571
770.920	0.0140460
770.998	0.0138216
771.076	0.0138496
771.155	0.0137951
771.233	0.0139773
771.311	0.0139497
771.389	0.0139725
771.467	0.0139146
771.545	0.0139119
771.623	0.0140246
771.701	0.0139654
771.780	0.0139664
771.858	0.0141195
771.936	0.0140075
772.014	0.0140538
772.092	0.0139767
772.170	0.0139500
772.248	0.0138844
772.326	0.0138479
772.405	0.0138581
772.483	0.0139268
772.561	0.0137196
772.639	0.0136726
772.717	0.0138538
772.795	0.0139391
772.873	0.0138310
772.951	0.0139240
773.030	0.0139099
773.108	0.0139231
773.186	0.0139333
773.264	0.0140817
773.342	0.0139769
773.420	0.0140825
773.498	0.0139773
773.576	0.0140364
773.655	0.0140994
773.733	0.0142470
773.811	0.0141763
773.889	0.0142855
773.967	0.0142230
774.045	0.0142348
774.123	0.0141287
774.201	0.0142142
774.280	0.0141381
774.358	0.0142930
774.436	0.0142339
774.514	0.0142244
774.592	0.0140270
774.670	0.0139790
774.748	0.0141396
774.826	0.0141203
774.905	0.0139881
774.983	0.0138872
775.061	0.0140659
775.139	0.0139741
775.217	0.0138693
775.295	0.0138818
775.373	0.0139403
775.451	0.0138747
775.530	0.0140960
775.608	0.0141650
775.686	0.0140476
775.764	0.0141428
775.842	0.0142334
775.920	0.0141106
775.998	0.0142249
776.076	0.0142568
776.155	0.0142627
776.233	0.0143227
776.311	0.0142689
776.389	0.0142839
776.467	0.0143861
776.545	0.0142615
776.623	0.0141134
776.701	0.0142440
776.780	0.0142553
776.858	0.0141576
776.936	0.0141571
777.014	0.0142115
777.092	0.0144085
777.170	0.0142590
777.248	0.0141524
777.326	0.0141270
777.405	0.0139519
777.483	0.0140708
777.561	0.0139583
777.639	0.0140952
777.717	0.0140739
777.795	0.0139411
777.873	0.0139452
777.951	0.0137708
778.030	0.0140157
778.108	0.0138974
778.186	0.0139158
778.264	0.0139737
778.342	0.0138683
778.420	0.0140739
778.498	0.0138752
778.576	0.0139781
778.655	0.0138715
778.733	0.0138957
778.811	0.0140520
778.889	0.0139497
778.967	0.0139255
779.045	0.0139220
779.123	0.0141191
779.201	0.0140379
779.280	0.0140569
779.358	0.0140331
779.436	0.0141724
779.514	0.0142133
779.592	0.0141629
779.670	0.0142016
779.748	0.0142957
779.826	0.0142271
779.905	0.0142997
779.983	0.0142039
780.061	0.0141284
780.139	0.0141666
780.217	0.0141356
780.295	0.0140266
780.373	0.0139128
780.451	0.0138253
780.530	0.0138655
780.608	0.0138404
780.686	0.0138306
780.764	0.0139252
780.842	0.0140792
780.920	0.0139708
780.998	0.0139073
781.076	0.0138773
781.155	0.0139854
781.233	0.0139857
781.311	0.0140139
781.389	0.0140598
781.467	0.0140408
781.545	0.0141138
781.623	0.0139304
781.701	0.0139417
781.780	0.0139874
781.858	0.0139055
781.936	0.0141397
782.014	0.0139723
782.092	0.0140809
782.170	0.0140200
782.248	0.0140063
782.326	0.0138844
782.405	0.0139088
782.483	0.0140820
782.561	0.0140589
782.639	0.0138634
782.717	0.0139020
782.795	0.0139297
782.873	0.0138621
782.951	0.0139236
783.030	0.0139170
783.108	0.0139384
783.186	0.0139085
783.264	0.0138972
783.342	0.0139021
783.420	0.0140017
783.498	0.0139834
783.576	0.0139372
783.655	0.0139502
783.733	0.0138940
783.811	0.0140707
783.889	0.0140862
783.967	0.0140320
784.045	0.0139588
784.123	0.0140884
784.201	0.0140649
784.280	0.0142735
784.358	0.0142506
784.436	0.0143215
784.514	0.0142566
784.592	0.0141940
784.670	0.0142014
784.748	0.0141549
784.826	0.0141554
784.905	0.0141141
784.983	0.0139277
785.061	0.0141373
785.139	0.0140708
785.217	0.0141641
785.295	0.0138103
785.373	0.0139783
785.451	0.0139679
785.530	0.0139658
785.608	0.0139420
785.686	0.0139870
785.764	0.0139071
785.842	0.0139688
785.920	0.0139005
785.998	0.0140572
786.076	0.0140838
786.155	0.0140216
786.233	0.0142025
786.311	0.0141301
786.389	0.0141094
786.467	0.0141549
786.545	0.0141270
786.623	0.0141845
786.701	0.0141457
786.780	0.0140340
786.858	0.0140840
786.936	0.0141705
787.014	0.0140894
787.092	0.0140716
787.170	0.0138865
787.248	0.0138882
787.326	0.0137577
787.405	0.0137742
787.483	0.0138708
787.561	0.0138377
787.639	0.0138898
787.717	0.0137798
787.795	0.0137725
787.873	0.0138124
787.951	0.0138568
788.030	0.0138590
788.108	0.0137188
788.186	0.0139225
788.264	0.0139349
788.342	0.0137875
788.420	0.0137936
788.498	0.0139223
788.576	0.0140166
788.655	0.0138665
788.733	0.0138627
788.811	0.0140339
788.889	0.0139863
788.967	0.0139795
789.045	0.0141033
789.123	0.0140849
789.201	0.0140477
789.280	0.0141395
789.358	0.0140831
789.436	0.0140993
789.514	0.0141902
789.592	0.0140578
789.670	0.0142623
789.748	0.0141154
789.826	0.0141302
789.905	0.0140894
789.983	0.0140936
790.061	0.0140646
790.139	0.0140388
790.217	0.0140977
790.295	0.0139458
790.373	0.0139565
790.451	0.0140143
790.530	0.0140637
790.608	0.0139512
790.686	0.0138809
790.764	0.0140108
790.842	0.0139920
790.920	0.0139216
790.998	0.0139290
791.076	0.0139563
791.155	0.0140003
791.233	0.0138071
791.311	0.0139045
791.389	0.0139288
791.467	0.0138314
791.545	0.0139989
791.623	0.0138634
791.701	0.0137936
791.780	0.0139232
791.858	0.0141017
791.936	0.0140097
792.014	0.0141242
792.092	0.0141015
792.170	0.0141676
792.248	0.0141828
792.326	0.0141769
792.405	0.0142960
792.483	0.0143317
792.561	0.0143043
792.639	0.0142314
792.717	0.0143893
792.795	0.0143298
792.873	0.0141608
792.951	0.0140083
793.030	0.0140482
793.108	0.0141470
793.186	0.0141218
793.264	0.0141379
793.342	0.0141177
793.420	0.0139290
793.498	0.0139792
793.576	0.0140282
793.655	0.0139690
793.733	0.0141874
793.811	0.0139995
793.889	0.0138990
793.967	0.0140302
794.045	0.0141381
794.123	0.0140100
794.201	0.0141679
794.280	0.0141013
794.358	0.0140077
794.436	0.0141326
794.514	0.0139713
794.592	0.0140228
794.670	0.0141398
794.748	0.0141849
794.826	0.0141884
794.905	0.0141238
794.983	0.0142068
795.061	0.0140540
795.139	0.0142375
795.217	0.0143562
795.295	0.0142282
795.373	0.0142530
795.451	0.0141290
795.530	0.0140752
795.608	0.0141328
795.686	0.0142992
795.764	0.0142488
795.842	0.0141127
795.920	0.0140903
795.998	0.0139937
796.076	0.0139451
796.155	0.0138191
796.233	0.0138599
796.311	0.0137423
796.389	0.0138592
796.467	0.0138376
796.545	0.0136420
796.623	0.0136122
796.701	0.0136551
796.780	0.0134743
796.858	0.0134856
796.936	0.0136653
797.014	0.0136012
797.092	0.0136663
797.170	0.0135257
797.248	0.0136089
797.326	0.0138226
797.405	0.0137006
797.483	0.0136153
797.561	0.0139674
797.639	0.0138744
797.717	0.0139613
797.795	0.0140891
797.873	0.0140630
797.951	0.0141222
798.030	0.0139892
798.108	0.0140969
798.186	0.0140790
798.264	0.0142233
798.342	0.0142001
798.420	0.0142375
798.498	0.0141656
798.576	0.0142580
798.655	0.0142724
798.733	0.0142467
798.811	0.0144356
798.889	0.0143695
798.967	0.0143176
799.045	0.0145290
799.123	0.0146838
799.201	0.0146912
799.280	0.0146541
799.358	0.0146338
799.436	0.0147876
799.514	0.0147730
799.592	0.0146326
799.670	0.0146671
799.748	0.0146564
799.826	0.0145813
799.905	0.0145676
799.983	0.0145455
800.061	0.0144950
800.139	0.0143212
800.217	0.0143665
800.295	0.0142435
800.373	0.0141862
800.451	0.0141914
800.530	0.0140464
800.608	0.0141250
800.686	0.0138659
800.764	0.0138589
800.842	0.0136420
800.920	0.0137681
800.998	0.0137097
801.076	0.0136061
801.155	0.0134158
801.233	0.0134118
801.311	0.0133683
801.389	0.0134045
801.467	0.0133092
801.545	0.0136197
801.623	0.0134756
801.701	0.0133269
801.780	0.0135049
801.858	0.0135561
801.936	0.0137099
802.014	0.0138428
802.092	0.0138422
802.170	0.0139436
802.248	0.0140338
802.326	0.0141074
802.405	0.0141550
802.483	0.0142374
802.561	0.0141588
802.639	0.0141499
802.717	0.0140041
802.795	0.0141495
802.873	0.0141379
802.951	0.0140598
803.030	0.0140986
803.108	0.0141431
803.186	0.0141284
803.264	0.0142393
803.342	0.0141804
803.420	0.0140495
803.498	0.0141766
803.576	0.0142867
803.655	0.0142466
803.733	0.0141426
803.811	0.0142356
803.889	0.0142496
803.967	0.0142606
804.045	0.0144659
804.123	0.0141860
804.201	0.0142565
804.280	0.0143404
804.358	0.0144982
804.436	0.0145486
804.514	0.0142570
804.592	0.0144153
804.670	0.0143736
804.748	0.0142970
804.826	0.0143375
804.905	0.0143186
804.983	0.0143448
805.061	0.0143111
805.139	0.0142533
805.217	0.0141405
805.295	0.0141086
805.373	0.0141844
805.451	0.0142954
805.530	0.0141862
805.608	0.0141698
805.686	0.0141530
805.764	0.0141409
805.842	0.0141765
805.920	0.0141041
805.998	0.0139513
806.076	0.0140498
806.155	0.0140035
806.233	0.0138583
806.311	0.0138111
806.389	0.0135695
806.467	0.0136686
806.545	0.0134751
806.623	0.0134226
806.701	0.0134145
806.780	0.0133951
806.858	0.0134134
806.936	0.0133199
807.014	0.0133725
807.092	0.0134274
807.170	0.0134451
807.248	0.0134881
807.326	0.0135838
807.405	0.0136382
807.483	0.0137242
807.561	0.0138218
807.639	0.0138319
807.717	0.0137888
807.795	0.0139327
807.873	0.0139698
807.951	0.0140286
808.030	0.0141376
808.108	0.0140974
808.186	0.0142103
808.264	0.0141342
808.342	0.0141651
808.420	0.0141361
808.498	0.0141511
808.576	0.0141742
808.655	0.0139968
808.733	0.0141549
808.811	0.0142363
808.889	0.0142225
808.967	0.0141528
809.045	0.0141255
809.123	0.0140573
809.201	0.0139758
809.280	0.0141751
809.358	0.0139954
809.436	0.0140307
809.514	0.0141085
809.592	0.0141007
809.670	0.0140287
809.748	0.0142706
809.826	0.0141018
809.905	0.0142999
809.983	0.0143992
810.061	0.0143210
810.139	0.0143594
810.217	0.0143214
810.295	0.0144999
810.373	0.0145473
810.451	0.0146427
810.530	0.0148103
810.608	0.0146712
810.686	0.0146320
810.764	0.0145744
810.842	0.0145926
810.920	0.0145921
810.998	0.0145719
811.076	0.0143907
811.155	0.0143135
811.233	0.0143646
811.311	0.0143737
811.389	0.0140098
811.467	0.0141628
811.545	0.0140276
811.623	0.0139375
811.701	0.0137612
811.780	0.0136993
811.858	0.0138651
811.936	0.0136732
812.014	0.0136530
812.092	0.0135051
812.170	0.0135069
812.248	0.0134297
812.326	0.0134357
812.405	0.0133932
812.483	0.0134155
812.561	0.0134129
812.639	0.0134832
812.717	0.0133962
812.795	0.0132565
812.873	0.0133673
812.951	0.0132666
813.030	0.0133485
813.108	0.0134086
813.186	0.0135142
813.264	0.0132636
813.342	0.0134373
813.420	0.0134338
813.498	0.0135326
813.576	0.0135708
813.655	0.0135501
813.733	0.0135391
813.811	0.0136961
813.889	0.0138519
813.967	0.0139053
814.045	0.0140141
814.123	0.0141690
814.201	0.0141026
814.280	0.0144102
814.358	0.0142723
814.436	0.0142623
814.514	0.0142165
814.592	0.0143748
814.670	0.0144199
814.748	0.0144746
814.826	0.0144053
814.905	0.0144910
814.983	0.0143266
815.061	0.0141883
815.139	0.0142236
815.217	0.0143177
815.295	0.0144818
815.373	0.0142892
815.451	0.0143414
815.530	0.0143665
815.608	0.0143530
815.686	0.0143446
815.764	0.0142860
815.842	0.0144179
815.920	0.0143066
815.998	0.0144132
816.076	0.0143648
816.155	0.0143685
816.233	0.0144630
816.311	0.0144642
816.389	0.0142857
816.467	0.0144690
816.545	0.0144250
816.623	0.0143507
816.701	0.0144127
816.780	0.0143888
816.858	0.0143948
816.936	0.0142159
817.014	0.0142140
817.092	0.0142258
817.170	0.0141263
817.248	0.0141775
817.326	0.0141393
817.405	0.0140278
817.483	0.0140587
817.561	0.0138901
817.639	0.0138469
817.717	0.0137721
817.795	0.0138041
817.873	0.0136816
817.951	0.0135867
818.030	0.0136902
818.108	0.0136136
818.186	0.0133492
818.264	0.0134985
818.342	0.0133996
818.420	0.0132932
818.498	0.0133375
818.576	0.0133182
818.655	0.0132784
818.733	0.0132517
818.811	0.0133957
818.889	0.0132951
818.967	0.0132623
819.045	0.0132679
819.123	0.0133353
819.201	0.0135104
819.280	0.0135193
819.358	0.0134518
819.436	0.0135133
819.514	0.0136756
819.592	0.0137085
819.670	0.0137622
819.748	0.0137985
819.826	0.0139019
819.905	0.0140440
819.983	0.0139721
820.061	0.0140952
820.139	0.0143669
820.217	0.0143355
820.295	0.0142154
820.373	0.0143040
820.451	0.0142982
820.530	0.0143940
820.608	0.0144878
820.686	0.0145251
820.764	0.0145985
820.842	0.0144743
820.920	0.0144397
820.998	0.0145727
821.076	0.0145622
821.155	0.0144193
821.233	0.0143732
821.311	0.0142329
821.389	0.0142561
821.467	0.0142176
821.545	0.0141142
821.623	0.0140936
821.701	0.0140824
821.780	0.0140715
821.858	0.0141712
821.936	0.0139876
822.014	0.0140150
822.092	0.0139684
822.170	0.0138282
822.248	0.0140617
822.326	0.0140466
822.405	0.0140225
822.483	0.0139964
822.561	0.0140167
822.639	0.0141069
822.717	0.0142445
822.795	0.0142121
822.873	0.0140892
822.951	0.0141005
823.030	0.0142251
823.108	0.0142548
823.186	0.0142886
823.264	0.0142060
823.342	0.0143621
823.420	0.0142021
823.498	0.0140772
823.576	0.0142485
823.655	0.0142104
823.733	0.0141245
823.811	0.0139817
823.889	0.0142077
823.967	0.0141061
824.045	0.0140806
824.123	0.0141097
824.201	0.0140063
824.280	0.0139251
824.358	0.0139365
824.436	0.0138508
824.514	0.0138607
824.592	0.0137198
824.670	0.0135809
824.748	0.0135897
824.826	0.0136754
824.905	0.0136005
824.983	0.0134002
825.061	0.0135384
825.139	0.0135454
825.217	0.0133888
825.295	0.0133585
825.373	0.0134143
825.451	0.0134544
825.530	0.0133285
825.608	0.0134863
825.686	0.0135630
825.764	0.0137106
825.842	0.0137199
825.920	0.0137865
825.998	0.0138890
826.076	0.0139397
826.155	0.0140376
826.233	0.0141328
826.311	0.0142126
826.389	0.0142760
826.467	0.0142561
826.545	0.0143850
826.623	0.0145068
826.701	0.0144920
826.780	0.0144479
826.858	0.0144468
826.936	0.0146190
827.014	0.0144983
827.092	0.0144979
827.170	0.0144800
827.248	0.0144212
827.326	0.0145515
827.405	0.0144805
827.483	0.0143961
827.561	0.0144278
827.639	0.0142966
827.717	0.0142416
827.795	0.0142552
827.873	0.0140291
827.951	0.0142152
828.030	0.0140662
828.108	0.0140729
828.186	0.0141203
828.264	0.0140331
828.342	0.0139941
828.420	0.0139647
828.498	0.0138980
828.576	0.0138737
828.655	0.0139326
828.733	0.0140855
828.811	0.0140305
828.889	0.0139629
828.967	0.0138953
829.045	0.0141831
829.123	0.0140691
829.201	0.0140663
829.280	0.0140224
829.358	0.0140872
829.436	0.0139590
829.514	0.0140505
829.592	0.0139790
829.670	0.0141135
829.748	0.0140401
829.826	0.0140370
829.905	0.0140595
829.983	0.0140541
830.061	0.0139195
830.139	0.0138311
830.217	0.0139034
830.295	0.0139107
830.373	0.0138848
830.451	0.0137564
830.530	0.0136785
830.608	0.0135698
830.686	0.0137419
830.764	0.0138048
830.842	0.0136796
830.920	0.0138479
830.998	0.0139359
831.076	0.0137934
831.155	0.0137647
831.233	0.0138519
831.311	0.0138913
831.389	0.0137023
831.467	0.0136893
831.545	0.0138614
831.623	0.0138526
831.701	0.0138071
831.780	0.0137811
831.858	0.0138387
831.936	0.0137415
832.014	0.0136282
832.092	0.0138200
832.170	0.0139001
832.248	0.0138512
832.326	0.0139980
832.405	0.0140991
832.483	0.0139447
832.561	0.0138932
832.639	0.0139627
832.717	0.0141755
832.795	0.0142097
832.873	0.0141476
832.951	0.0139663
833.030	0.0141470
833.108	0.0143227
833.186	0.0141452
833.264	0.0142517
833.342	0.0141843
833.420	0.0142963
833.498	0.0142667
833.576	0.0142931
833.655	0.0145658
833.733	0.0141720
833.811	0.0143291
833.889	0.0144578
833.967	0.0142772
834.045	0.0143404
834.123	0.0143697
834.201	0.0142418
834.280	0.0141583
834.358	0.0142307
834.436	0.0141640
834.514	0.0140951
834.592	0.0139603
834.670	0.0140057
834.748	0.0138801
834.826	0.0137668
834.905	0.0138463
834.983	0.0139157
835.061	0.0138860
835.139	0.0138223
835.217	0.0138000
835.295	0.0138212
835.373	0.0137257
835.451	0.0138264
835.530	0.0138410
835.608	0.0138834
835.686	0.0138393
835.764	0.0138303
835.842	0.0139780
835.920	0.0140032
835.998	0.0139503
836.076	0.0140605
836.155	0.0140612
836.233	0.0140977
836.311	0.0139786
836.389	0.0141592
836.467	0.0140228
836.545	0.0141187
836.623	0.0140830
836.701	0.0139692
836.780	0.0139992
836.858	0.0140663
836.936	0.0140311
837.014	0.0140455
837.092	0.0140081
837.170	0.0140479
837.248	0.0138763
837.326	0.0140262
837.405	0.0138595
837.483	0.0137281
837.561	0.0137955
837.639	0.0138515
837.717	0.0138589
837.795	0.0138516
837.873	0.0138263
837.951	0.0138940
838.030	0.0137228
838.108	0.0139266
838.186	0.0138740
838.264	0.0138671
838.342	0.0138761
838.420	0.0137132
838.498	0.0139602
838.576	0.0138248
838.655	0.0139274
838.733	0.0138976
838.811	0.0138272
838.889	0.0138742
838.967	0.0140247
839.045	0.0141173
839.123	0.0140363
839.201	0.0141250
839.280	0.0141590
839.358	0.0141344
839.436	0.0140771
839.514	0.0141122
839.592	0.0142435
839.670	0.0143463
839.748	0.0142450
839.826	0.0142077
839.905	0.0141692
839.983	0.0144322
840.061	0.0141990
840.139	0.0143076
840.217	0.0143651
840.295	0.0142496
840.373	0.0142990
840.451	0.0142164
840.530	0.0142137
840.608	0.0141583
840.686	0.0142526
840.764	0.0142120
840.842	0.0141660
840.920	0.0141396
840.998	0.0140347
841.076	0.0140131
841.155	0.0142580
841.233	0.0140828
841.311	0.0139639
841.389	0.0139816
841.467	0.0138935
841.545	0.0138345
841.623	0.0138821
841.701	0.0138824
841.780	0.0139388
841.858	0.0139413
841.936	0.0138125
842.014	0.0138409
842.092	0.0138171
842.170	0.0139020
842.248	0.0139468
842.326	0.0138328
842.405	0.0137440
842.483	0.0139113
842.561	0.0139281
842.639	0.0138756
842.717	0.0139841
842.795	0.0140877
842.873	0.0140249
842.951	0.0141125
843.030	0.0140982
843.108	0.0140292
843.186	0.0142106
843.264	0.0142165
843.342	0.0142274
843.420	0.0141176
843.498	0.0139229
843.576	0.0141241
843.655	0.0140510
843.733	0.0139295
843.811	0.0139413
843.889	0.0140619
843.967	0.0140493
844.045	0.0141021
844.123	0.0141934
844.201	0.0140377
844.280	0.0140111
844.358	0.0142146
844.436	0.0140885
844.514	0.0139922
844.592	0.0140868
844.670	0.0142881
844.748	0.0141228
844.826	0.0142069
844.905	0.0141292
844.983	0.0141319
845.061	0.0142422
845.139	0.0142258
845.217	0.0141270
845.295	0.0141720
845.373	0.0141196
845.451	0.0141177
845.530	0.0141297
845.608	0.0140999
845.686	0.0142541
845.764	0.0141540
845.842	0.0139553
845.920	0.0140655
845.998	0.0139875
846.076	0.0140392
846.155	0.0140664
846.233	0.0140910
846.311	0.0140370
846.389	0.0141625
846.467	0.0141412
846.545	0.0140553
846.623	0.0141502
846.701	0.0141502
846.780	0.0141539
846.858	0.0140807
846.936	0.0142307
847.014	0.0141992
847.092	0.0141795
847.170	0.0141044
847.248	0.0139816
847.326	0.0140749
847.405	0.0140937
847.483	0.0139965
847.561	0.0139670
847.639	0.0140340
847.717	0.0140723
847.795	0.0139361
847.873	0.0139938
847.951	0.0139503
848.030	0.0139925
848.108	0.0140118
848.186	0.0140173
848.264	0.0140426
848.342	0.0139297
848.420	0.0139326
848.498	0.0139803
848.576	0.0140111
848.655	0.0139602
848.733	0.0139666
848.811	0.0139571
848.889	0.0140316
848.967	0.0138962
849.045	0.0139112
849.123	0.0140138
849.201	0.0139503
849.280	0.0140079
849.358	0.0140299
849.436	0.0139992
849.514	0.0140435
849.592	0.0139809
849.670	0.0141550
849.748	0.0141505
849.826	0.0140585
849.905	0.0141394
849.983	0.0142912
850.061	0.0142094
850.139	0.0142299
850.217	0.0141244
850.295	0.0141388
850.373	0.0141832
850.451	0.0143266
850.530	0.0142024
850.608	0.0141853
850.686	0.0142202
850.764	0.0141422
850.842	0.0141856
850.920	0.0142252
850.998	0.0142305
851.076	0.0141058
851.155	0.0140856
851.233	0.0142371
851.311	0.0141234
851.389	0.0140913
851.467	0.0139918
851.545	0.0140405
851.623	0.0142229
851.701	0.0140884
851.780	0.0140746
851.858	0.0141073
851.936	0.0139995
852.014	0.0140828
852.092	0.0141185
852.170	0.0141237
852.248	0.0139489
852.326	0.0140535
852.405	0.0140691
852.483	0.0139809
852.561	0.0140104
852.639	0.0140068
852.717	0.0140833
852.795	0.0139823
852.873	0.0139457
852.951	0.0141381
853.030	0.0140722
853.108	0.0140194
853.186	0.0141138
853.264	0.0141043
853.342	0.0140562
853.420	0.0140340
853.498	0.0138651
853.576	0.0140939
853.655	0.0140015
853.733	0.0139784
853.811	0.0139651
853.889	0.0138834
853.967	0.0139979
854.045	0.0140101
854.123	0.0139275
854.201	0.0138915
854.280	0.0137860
854.358	0.0139936
854.436	0.0138805
854.514	0.0137994
854.592	0.0138244
854.670	0.0138773
854.748	0.0138398
854.826	0.0137554
854.905	0.0139213
854.983	0.0140243
855.061	0.0138413
855.139	0.0138869
855.217	0.0138260
855.295	0.0138988
855.373	0.0139191
855.451	0.0139934
855.530	0.0138545
855.608	0.0140170
855.686	0.0139568
855.764	0.0139064
855.842	0.0140031
855.920	0.0140627
855.998	0.0141068
856.076	0.0139758
856.155	0.0141904
856.233	0.0141061
856.311	0.0141921
856.389	0.0142178
856.467	0.0141644
856.545	0.0141556
856.623	0.0142353
856.701	0.0142605
856.780	0.0142886
856.858	0.0143075
856.936	0.0143997
857.014	0.0141726
857.092	0.0141699
857.170	0.0142388
857.248	0.0141674
857.326	0.0141153
857.405	0.0142133
857.483	0.0141195
857.561	0.0141624
857.639	0.0140221
857.717	0.0141048
857.795	0.0141898
857.873	0.0139720
857.951	0.0139999
858.030	0.0140420
858.108	0.0140177
858.186	0.0141468
858.264	0.0140315
858.342	0.0140279
858.420	0.0141240
858.498	0.0140083
858.576	0.0139374
858.655	0.0140627
858.733	0.0139404
858.811	0.0139142
858.889	0.0139396
858.967	0.0138753
859.045	0.0137631
859.123	0.0137887
859.201	0.0138501
859.280	0.0138490
859.358	0.0138468
859.436	0.0139803
859.514	0.0139310
859.592	0.0139111
859.670	0.0138480
859.748	0.0139054
859.826	0.0138457
859.905	0.0138358
859.983	0.0138013
860.061	0.0140735
860.139	0.0139359
860.217	0.0139263
860.295	0.0139123
860.373	0.0139533
860.451	0.0139404
860.530	0.0139329
860.608	0.0138610
860.686	0.0140199
860.764	0.0139294
860.842	0.0137845
860.920	0.0138539
860.998	0.0139638
861.076	0.0138797
861.155	0.0138489
861.233	0.0139417
861.311	0.0138124
861.389	0.0139397
861.467	0.0140619
861.545	0.0138083
861.623	0.0139429
861.701	0.0139255
861.780	0.0139428
861.858	0.0139647
861.936	0.0140086
862.014	0.0140015
862.092	0.0139168
862.170	0.0141071
862.248	0.0141287
862.326	0.0141320
862.405	0.0142318
862.483	0.0141997
862.561	0.0141538
862.639	0.0142699
862.717	0.0142051
862.795	0.0142354
862.873	0.0142146
862.951	0.0141725
863.030	0.0142477
863.108	0.0141408
863.186	0.0143035
863.264	0.0141371
863.342	0.0143150
863.420	0.0143118
863.498	0.0143183
863.576	0.0143101
863.655	0.0141833
863.733	0.0142709
863.811	0.0140864
863.889	0.0140541
863.967	0.0141797
864.045	0.0141375
864.123	0.0140714
864.201	0.0140974
864.280	0.0141573
864.358	0.0140932
864.436	0.0140105
864.514	0.0139625
864.592	0.0140876
864.670	0.0141203
864.748	0.0139639
864.826	0.0140686
864.905	0.0140983
864.983	0.0139188
865.061	0.0140340
865.139	0.0139408
865.217	0.0140704
865.295	0.0140546
865.373	0.0138714
865.451	0.0139523
865.530	0.0140143
865.608	0.0139782
865.686	0.0138840
865.764	0.0139283
865.842	0.0139978
865.920	0.0138425
865.998	0.0140131
866.076	0.0139397
866.155	0.0139381
866.233	0.0139160
866.311	0.0139842
866.389	0.0139426
866.467	0.0140047
866.545	0.0137960
866.623	0.0139232
866.701	0.0139580
866.780	0.0140022
866.858	0.0138696
866.936	0.0138879
867.014	0.0141268
867.092	0.0139431
867.170	0.0140176
867.248	0.0139971
867.326	0.0140462
867.405	0.0139091
867.483	0.0139405
867.561	0.0139117
867.639	0.0140501
867.717	0.0139957
867.795	0.0140179
867.873	0.0139557
867.951	0.0140170
868.030	0.0140206
868.108	0.0140657
868.186	0.0140611
868.264	0.0139688
868.342	0.0140658
868.420	0.0140365
868.498	0.0142255
868.576	0.0143330
868.655	0.0142631
868.733	0.0143042
868.811	0.0142943
868.889	0.0143574
868.967	0.0142932
869.045	0.0143346
869.123	0.0145069
869.201	0.0142216
869.280	0.0141894
869.358	0.0143092
869.436	0.0143503
869.514	0.0144417
869.592	0.0142781
869.670	0.0141840
869.748	0.0141888
869.826	0.0142542
869.905	0.0141969
869.983	0.0141708
870.061	0.0140561
870.139	0.0140658
870.217	0.0140043
870.295	0.0138808
870.373	0.0141124
870.451	0.0140074
870.530	0.0139534
870.608	0.0139541
870.686	0.0139456
870.764	0.0140569
870.842	0.0138996
870.920	0.0140163
870.998	0.0140936
871.076	0.0141182
871.155	0.0140210
871.233	0.0139565
871.311	0.0140620
871.389	0.0139350
871.467	0.0139753
871.545	0.0139989
871.623	0.0139476
871.701	0.0139876
871.780	0.0139363
871.858	0.0139895
871.936	0.0137266
872.014	0.0138759
872.092	0.0139626
872.170	0.0139850
872.248	0.0138677
872.326	0.0138625
872.405	0.0138731
872.483	0.0139629
872.561	0.0140231
872.639	0.0140973
872.717	0.0139913
872.795	0.0139695
872.873	0.0141129
872.951	0.0140399
873.030	0.0141135
873.108	0.0141585
873.186	0.0140797
873.264	0.0141369
873.342	0.0141919
873.420	0.0142625
873.498	0.0139497
873.576	0.0141710
873.655	0.0142279
873.733	0.0141980
873.811	0.0142375
873.889	0.0141852
873.967	0.0142210
874.045	0.0142254
874.123	0.0141732
874.201	0.0140543
874.280	0.0141099
874.358	0.0141399
874.436	0.0141406
874.514	0.0140922
874.592	0.0140746
874.670	0.0140310
874.748	0.0141708
874.826	0.0142092
874.905	0.0141380
874.983	0.0142580
875.061	0.0140296
875.139	0.0141682
875.217	0.0140800
875.295	0.0142012
875.373	0.0142404
875.451	0.0142522
875.530	0.0141590
875.608	0.0140926
875.686	0.0141534
875.764	0.0141928
875.842	0.0141384
875.920	0.0141090
875.998	0.0141089
876.076	0.0140083
876.155	0.0141079
876.233	0.0140091
876.311	0.0139964
876.389	0.0140147
876.467	0.0138903
876.545	0.0140187
876.623	0.0138283
876.701	0.0139473
876.780	0.0139975
876.858	0.0138274
876.936	0.0139236
877.014	0.0140045
877.092	0.0138039
877.170	0.0140072
877.248	0.0139973
877.326	0.0140144
877.405	0.0137740
877.483	0.0139101
877.561	0.0139590
877.639	0.0139310
877.717	0.0138483
877.795	0.0139027
877.873	0.0140804
877.951	0.0139582
878.030	0.0139276
878.108	0.0139438
878.186	0.0141219
878.264	0.0139752
878.342	0.0140668
878.420	0.0141311
878.498	0.0140800
878.576	0.0140316
878.655	0.0141807
878.733	0.0143282
878.811	0.0142165
878.889	0.0140135
878.967	0.0142128
879.045	0.0141356
879.123	0.0141850
879.201	0.0142056
879.280	0.0140731
879.358	0.0139912
879.436	0.0140663
879.514	0.0139682
879.592	0.0141070
879.670	0.0139474
879.748	0.0139828
879.826	0.0141022
879.905	0.0140632
879.983	0.0141389
880.061	0.0141155
880.139	0.0140469
880.217	0.0139201
880.295	0.0139174
880.373	0.0140680
880.451	0.0140193
880.530	0.0139019
880.608	0.0140266
880.686	0.0141148
880.764	0.0141225
880.842	0.0140752
880.920	0.0141309
880.998	0.0141829
881.076	0.0140340
881.155	0.0140402
881.233	0.0140037
881.311	0.0140504
881.389	0.0140297
881.467	0.0141341
881.545	0.0139867
881.623	0.0140115
881.701	0.0141047
881.780	0.0140493
881.858	0.0141511
881.936	0.0140425
882.014	0.0140168
882.092	0.0140395
882.170	0.0139503
882.248	0.0140082
882.326	0.0140956
882.405	0.0140043
882.483	0.0140339
882.561	0.0141238
882.639	0.0140286
882.717	0.0140180
882.795	0.0139576
882.873	0.0139590
882.951	0.0138782
883.030	0.0138473
883.108	0.0139269
883.186	0.0139751
883.264	0.0138634
883.342	0.0137807
883.420	0.0139449
883.498	0.0138261
883.576	0.0138641
883.655	0.0139117
883.733	0.0139491
883.811	0.0142056
883.889	0.0138538
883.967	0.0139786
884.045	0.0142274
884.123	0.0141628
884.201	0.0140784
884.280	0.0141931
884.358	0.0141641
884.436	0.0141617
884.514	0.0141895
884.592	0.0142036
884.670	0.0140527
884.748	0.0140751
884.826	0.0140894
884.905	0.0140892
884.983	0.0141291
885.061	0.0141675
885.139	0.0141340
885.217	0.0140659
885.295	0.0141051
885.373	0.0140429
885.451	0.0140504
885.530	0.0141470
885.608	0.0140318
885.686	0.0141204
885.764	0.0140411
885.842	0.0141938
885.920	0.0141901
885.998	0.0141761
886.076	0.0140937
886.155	0.0140508
886.233	0.0140910
886.311	0.0141506
886.389	0.0138163
886.467	0.0140456
886.545	0.0140809
886.623	0.0141196
886.701	0.0140513
886.780	0.0141087
886.858	0.0141711
886.936	0.0142113
887.014	0.0142216
887.092	0.0142699
887.170	0.0142098
887.248	0.0142117
887.326	0.0142248
887.405	0.0141747
887.483	0.0140746
887.561	0.0140736
887.639	0.0139802
887.717	0.0140119
887.795	0.0139160
887.873	0.0139358
887.951	0.0138647
888.030	0.0137640
888.108	0.0138003
888.186	0.0138361
888.264	0.0137785
888.342	0.0138650
888.420	0.0138766
888.498	0.0139890
888.576	0.0139925
888.655	0.0139647
888.733	0.0138913
888.811	0.0140836
888.889	0.0141636
888.967	0.0141893
889.045	0.0141193
889.123	0.0140964
889.201	0.0142175
889.280	0.0141800
889.358	0.0140275
889.436	0.0141748
889.514	0.0142463
889.592	0.0141348
889.670	0.0141227
889.748	0.0140919
889.826	0.0141736
889.905	0.0140973
889.983	0.0140511
890.061	0.0141784
890.139	0.0142060
890.217	0.0141402
890.295	0.0142033
890.373	0.0141975
890.451	0.0141479
890.530	0.0141667
890.608	0.0140755
890.686	0.0140907
890.764	0.0141758
890.842	0.0142544
890.920	0.0141884
890.998	0.0140244
891.076	0.0140882
891.155	0.0139455
891.233	0.0138642
891.311	0.0138583
891.389	0.0138111
891.467	0.0138334
891.545	0.0138125
891.623	0.0137680
891.701	0.0138717
891.780	0.0137405
891.858	0.0137654
891.936	0.0138155
892.014	0.0138505
892.092	0.0138514
892.170	0.0138493
892.248	0.0139198
892.326	0.0138897
892.405	0.0138011
892.483	0.0138148
892.561	0.0138854
892.639	0.0139827
892.717	0.0137733
892.795	0.0138670
892.873	0.0139359
892.951	0.0140240
893.030	0.0139388
893.108	0.0140070
893.186	0.0140746
893.264	0.0141449
893.342	0.0141014
893.420	0.0141525
893.498	0.0142717
893.576	0.0142059
893.655	0.0143423
893.733	0.0143673
893.811	0.0141542
893.889	0.0141161
893.967	0.0141605
894.045	0.0141953
894.123	0.0140784
894.201	0.0141079
894.280	0.0140945
894.358	0.0140638
894.436	0.0140693
894.514	0.0139900
894.592	0.0139925
894.670	0.0140630
894.748	0.0139310
894.826	0.0139806
894.905	0.0141045
894.983	0.0140478
895.061	0.0140712
895.139	0.0140440
895.217	0.0140799
895.295	0.0139916
895.373	0.0139439
895.451	0.0138847
895.530	0.0140614
895.608	0.0139732
895.686	0.0139429
895.764	0.0140148
895.842	0.0138169
895.920	0.0137952
895.998	0.0139505
896.076	0.0138518
896.155	0.0137446
896.233	0.0138683
896.311	0.0138689
896.389	0.0138468
896.467	0.0138712
896.545	0.0140386
896.623	0.0139877
896.701	0.0140347
896.780	0.0142313
896.858	0.0141784
896.936	0.0141457
897.014	0.0140928
897.092	0.0141003
897.170	0.0141325
897.248	0.0141822
897.326	0.0141573
897.405	0.0141576
897.483	0.0142670
897.561	0.0140825
897.639	0.0139800
897.717	0.0139521
897.795	0.0140530
897.873	0.0139523
897.951	0.0140115
898.030	0.0139640
898.108	0.0138840
898.186	0.0139746
898.264	0.0139915
898.342	0.0139786
898.420	0.0137755
898.498	0.0138567
898.576	0.0139063
898.655	0.0138318
898.733	0.0139075
898.811	0.0140436
898.889	0.0138798
898.967	0.0139314
899.045	0.0140054
899.123	0.0140466
899.201	0.0141261
899.280	0.0139798
899.358	0.0139825
899.436	0.0139755
899.514	0.0140188
899.592	0.0141299
899.670	0.0140532
899.748	0.0140725
899.826	0.0140031
899.905	0.0140215
899.983	0.0141177
900.061	0.0141169
900.139	0.0139047
900.217	0.0139412
900.295	0.0139848
900.373	0.0138733
900.451	0.0138715
900.530	0.0140498
900.608	0.0140044
900.686	0.0139875
900.764	0.0139935
900.842	0.0139832
900.920	0.0140300
900.998	0.0140788
901.076	0.0140453
901.155	0.0141396
901.233	0.0139561
901.311	0.0140700
901.389	0.0140288
901.467	0.0141477
901.545	0.0141132
901.623	0.0140347
901.701	0.0138559
901.780	0.0139546
901.858	0.0139156
901.936	0.0139819
902.014	0.0139022
902.092	0.0139299
902.170	0.0141238
902.248	0.0140276
902.326	0.0140532
902.405	0.0141639
902.483	0.0141026
902.561	0.0141510
902.639	0.0142416
902.717	0.0143858
902.795	0.0142389
902.873	0.0141569
902.951	0.0143494
903.030	0.0142968
903.108	0.0141452
903.186	0.0141914
903.264	0.0141739
903.342	0.0140505
903.420	0.0140285
903.498	0.0140332
903.576	0.0139678
903.655	0.0139830
903.733	0.0138091
903.811	0.0138429
903.889	0.0137323
903.967	0.0136297
904.045	0.0136414
904.123	0.0137112
904.201	0.0137377
904.280	0.0136522
904.358	0.0137408
904.436	0.0136951
904.514	0.0136211
904.592	0.0138221
904.670	0.0137868
904.748	0.0137679
904.826	0.0139045
904.905	0.0139494
904.983	0.0140351
905.061	0.0140648
905.139	0.0141102
905.217	0.0142450
905.295	0.0142191
905.373	0.0143249
905.451	0.0143583
905.530	0.0142483
905.608	0.0144022
905.686	0.0144094
905.764	0.0143718
905.842	0.0142989
905.920	0.0143382
905.998	0.0141396
906.076	0.0142361
906.155	0.0141811
906.233	0.0142659
906.311	0.0142572
906.389	0.0141126
906.467	0.0140801
906.545	0.0140621
906.623	0.0140518
906.701	0.0139339
906.780	0.0140195
906.858	0.0139156
906.936	0.0141274
907.014	0.0139516
907.092	0.0139413
907.170	0.0138503
907.248	0.0138795
907.326	0.0140598
907.405	0.0140968
907.483	0.0138445
907.561	0.0139531
907.639	0.0138675
907.717	0.0139245
907.795	0.0139144
907.873	0.0138511
907.951	0.0139162
908.030	0.0139111
908.108	0.0136903
908.186	0.0139340
908.264	0.0137814
908.342	0.0139522
908.420	0.0139530
908.498	0.0139437
908.576	0.0141161
908.655	0.0140416
908.733	0.0141602
908.811	0.0141656
908.889	0.0141358
908.967	0.0141568
909.045	0.0141876
909.123	0.0140755
909.201	0.0139913
909.280	0.0140959
909.358	0.0140760
909.436	0.0139979
909.514	0.0142515
909.592	0.0140332
909.670	0.0139973
909.748	0.0140982
909.826	0.0139750
909.905	0.0139911
909.983	0.0140528
910.061	0.0139497
910.139	0.0138289
910.217	0.0139358
910.295	0.0137968
910.373	0.0138157
910.451	0.0137735
910.530	0.0139456
910.608	0.0138215
910.686	0.0138918
910.764	0.0139677
910.842	0.0137880
910.920	0.0138100
910.998	0.0138825
911.076	0.0139522
911.155	0.0140643
911.233	0.0140851
911.311	0.0141080
911.389	0.0140381
911.467	0.0143489
911.545	0.0141261
911.623	0.0140802
911.701	0.0144023
911.780	0.0142535
911.858	0.0142550
911.936	0.0140648
912.014	0.0142036
912.092	0.0141213
912.170	0.0143271
912.248	0.0141785
912.326	0.0140268
912.405	0.0140626
912.483	0.0140698
912.561	0.0140200
912.639	0.0139294
912.717	0.0137615
912.795	0.0138603
912.873	0.0138261
912.951	0.0138674
913.030	0.0137449
913.108	0.0138903
913.186	0.0138391
913.264	0.0136830
913.342	0.0138252
913.420	0.0138332
913.498	0.0139332
913.576	0.0139571
913.655	0.0138923
913.733	0.0138799
913.811	0.0139471
913.889	0.0140085
913.967	0.0139852
914.045	0.0139525
914.123	0.0140700
914.201	0.0140820
914.280	0.0141393
914.358	0.0141959
914.436	0.0141085
914.514	0.0141596
914.592	0.0141964
914.670	0.0142239
914.748	0.0141600
914.826	0.0141809
914.905	0.0142705
914.983	0.0143380
915.061	0.0142065
915.139	0.0143053
915.217	0.0142281
915.295	0.0140038
915.373	0.0142390
915.451	0.0141187
915.530	0.0141444
915.608	0.0142116
915.686	0.0140847
915.764	0.0139575
915.842	0.0140509
915.920	0.0138926
915.998	0.0138450
916.076	0.0138167
916.155	0.0138113
916.233	0.0138714
916.311	0.0136678
916.389	0.0137239
916.467	0.0135872
916.545	0.0137084
916.623	0.0136420
916.701	0.0136973
916.780	0.0137791
916.858	0.0135542
916.936	0.0135906
917.014	0.0137112
917.092	0.0137271
917.170	0.0136956
917.248	0.0137550
917.326	0.0137585
917.405	0.0138916
917.483	0.0139384
917.561	0.0140960
917.639	0.0140138
917.717	0.0142203
917.795	0.0142832
917.873	0.0143059
917.951	0.0142844
918.030	0.0142564
918.108	0.0144418
918.186	0.0142502
918.264	0.0143211
918.342	0.0143690
918.420	0.0143301
918.498	0.0141318
918.576	0.0141645
918.655	0.0141774
918.733	0.0140737
918.811	0.0141143
918.889	0.0141476
918.967	0.0140897
919.045	0.0138685
919.123	0.0137632
919.201	0.0139918
919.280	0.0140348
919.358	0.0141579
919.436	0.0139697
919.514	0.0138636
919.592	0.0140324
919.670	0.0140195
919.748	0.0139658
919.826	0.0139163
919.905	0.0138238
919.983	0.0140545
920.061	0.0140675
920.139	0.0140828
920.217	0.0140147
920.295	0.0138964
920.373	0.0139059
920.451	0.0141560
920.530	0.0140003
920.608	0.0139935
920.686	0.0139436
920.764	0.0140105
920.842	0.0140398
920.920	0.0139635
920.998	0.0140153
921.076	0.0140458
921.155	0.0140501
921.233	0.0141165
921.311	0.0140546
921.389	0.0141680
921.467	0.0140752
921.545	0.0141685
921.623	0.0141336
921.701	0.0141784
921.780	0.0142081
921.858	0.0142220
921.936	0.0141243
922.014	0.0140247
922.092	0.0140609
922.170	0.0141245
922.248	0.0140491
922.326	0.0140218
922.405	0.0139517
922.483	0.0139806
922.561	0.0141522
922.639	0.0139669
922.717	0.0137406
922.795	0.0136607
922.873	0.0137022
922.951	0.0137262
923.030	0.0137749
923.108	0.0135860
923.186	0.0137627
923.264	0.0138016
923.342	0.0137057
923.420	0.0137618
923.498	0.0137531
923.576	0.0138011
923.655	0.0138708
923.733	0.0140492
923.811	0.0139670
923.889	0.0142439
923.967	0.0142213
924.045	0.0142027
924.123	0.0142574
924.201	0.0144382
924.280	0.0144897
924.358	0.0144977
924.436	0.0145552
924.514	0.0144856
924.592	0.0146002
924.670	0.0144801
924.748	0.0144123
924.826	0.0144188
924.905	0.0144730
924.983	0.0144407
925.061	0.0142088
925.139	0.0142744
925.217	0.0140529
925.295	0.0140564
925.373	0.0139382
925.451	0.0140432
925.530	0.0139326
925.608	0.0138007
925.686	0.0138331
925.764	0.0138900
925.842	0.0138250
925.920	0.0138123
925.998	0.0139697
926.076	0.0139288
926.155	0.0139037
926.233	0.0138138
926.311	0.0139416
926.389	0.0140110
926.467	0.0138678
926.545	0.0141792
926.623	0.0141218
926.701	0.0140710
926.780	0.0139645
926.858	0.0139156
926.936	0.0141734
927.014	0.0141029
927.092	0.0140822
927.170	0.0139801
927.248	0.0139906
927.326	0.0140881
927.405	0.0141663
927.483	0.0140034
927.561	0.0140118
927.639	0.0141038
927.717	0.0141876
927.795	0.0140205
927.873	0.0142059
927.951	0.0143794
928.030	0.0141868
928.108	0.0141437
928.186	0.0145135
928.264	0.0143876
928.342	0.0142489
928.420	0.0143166
928.498	0.0142066
928.576	0.0141435
928.655	0.0141287
928.733	0.0140685
928.811	0.0141091
928.889	0.0140574
928.967	0.0140759
929.045	0.0138834
929.123	0.0138602
929.201	0.0138339
929.280	0.0138180
929.358	0.0138441
929.436	0.0137427
929.514	0.0136961
929.592	0.0136840
929.670	0.0137350
929.748	0.0138202
929.826	0.0136703
929.905	0.0136929
929.983	0.0138701
930.061	0.0139616
930.139	0.0138399
930.217	0.0140033
930.295	0.0140865
930.373	0.0140769
930.451	0.0139945
930.530	0.0141763
930.608	0.0140952
930.686	0.0140527
930.764	0.0142390
930.842	0.0142400
930.920	0.0141513
930.998	0.0142582
931.076	0.0141658
931.155	0.0142077
931.233	0.0142788
931.311	0.0142123
931.389	0.0141512
931.467	0.0141257
931.545	0.0141765
931.623	0.0140193
931.701	0.0140680
931.780	0.0140713
931.858	0.0139473
931.936	0.0140146
932.014	0.0140122
932.092	0.0138654
932.170	0.0139713
932.248	0.0138457
932.326	0.0139510
932.405	0.0139809
932.483	0.0138210
932.561	0.0138705
932.639	0.0137547
932.717	0.0138747
932.795	0.0138810
932.873	0.0138354
932.951	0.0139691
933.030	0.0139959
933.108	0.0139605
933.186	0.0140094
933.264	0.0140417
933.342	0.0139577
933.420	0.0139807
933.498	0.0137641
933.576	0.0139639
933.655	0.0140056
933.733	0.0141130
933.811	0.0140783
933.889	0.0140297
933.967	0.0140543
934.045	0.0141209
934.123	0.0140188
934.201	0.0140208
934.280	0.0141291
934.358	0.0141529
934.436	0.0140709
934.514	0.0142274
934.592	0.0140539
934.670	0.0141265
934.748	0.0141962
934.826	0.0141454
934.905	0.0142842
934.983	0.0141338
935.061	0.0141331
935.139	0.0142069
935.217	0.0141171
935.295	0.0140961
935.373	0.0141224
935.451	0.0140195
935.530	0.0138809
935.608	0.0138982
935.686	0.0139560
935.764	0.0139101
935.842	0.0137402
935.920	0.0136633
935.998	0.0139111
936.076	0.0139227
936.155	0.0137205
936.233	0.0138371
936.311	0.0138575
936.389	0.0138774
936.467	0.0138284
936.545	0.0138975
936.623	0.0140521
936.701	0.0139264
936.780	0.0138789
936.858	0.0140121
936.936	0.0140110
937.014	0.0139981
937.092	0.0141808
937.170	0.0139925
937.248	0.0140280
937.326	0.0140692
937.405	0.0139885
937.483	0.0141447
937.561	0.0141136
937.639	0.0141502
937.717	0.0139812
937.795	0.0139690
937.873	0.0141463
937.951	0.0141008
938.030	0.0140850
938.108	0.0141129
938.186	0.0141384
938.264	0.0140502
938.342	0.0141172
938.420	0.0140434
938.498	0.0140084
938.576	0.0139223
938.655	0.0139023
938.733	0.0140960
938.811	0.0139986
938.889	0.0139419
938.967	0.0139216
939.045	0.0139236
939.123	0.0139327
939.201	0.0139006
939.280	0.0138835
939.358	0.0138615
939.436	0.0137458
939.514	0.0137807
939.592	0.0137640
939.670	0.0138057
939.748	0.0137797
939.826	0.0137330
939.905	0.0138696
939.983	0.0137325
940.061	0.0138286
940.139	0.0139910
940.217	0.0138810
940.295	0.0138907
940.373	0.0139507
940.451	0.0140461
940.530	0.0141119
940.608	0.0140373
940.686	0.0140431
940.764	0.0140530
940.842	0.0140662
940.920	0.0141151
940.998	0.0141235
941.076	0.0140504
941.155	0.0140369
941.233	0.0142340
941.311	0.0142638
941.389	0.0142330
941.467	0.0141610
941.545	0.0142139
941.623	0.0142577
941.701	0.0141451
941.780	0.0140185
941.858	0.0140867
941.936	0.0141691
942.014	0.0142513
942.092	0.0141597
942.170	0.0141374
942.248	0.0139964
942.326	0.0140236
942.405	0.0139736
942.483	0.0140154
942.561	0.0140757
942.639	0.0138493
942.717	0.0138624
942.795	0.0140688
942.873	0.0140768
942.951	0.0139664
943.030	0.0140038
943.108	0.0140066
943.186	0.0140509
943.264	0.0139020
943.342	0.0138473
943.420	0.0139338
943.498	0.0139078
943.576	0.0140211
943.655	0.0140641
943.733	0.0139703
943.811	0.0139753
943.889	0.0140596
943.967	0.0139661
944.045	0.0139439
944.123	0.0139070
944.201	0.0140357
944.280	0.0140752
944.358	0.0139867
944.436	0.0141180
944.514	0.0140171
944.592	0.0140066
944.670	0.0139834
944.748	0.0140486
944.826	0.0139764
944.905	0.0139606
944.983	0.0140748
945.061	0.0140454
945.139	0.0140170
945.217	0.0141409
945.295	0.0141538
945.373	0.0139566
945.451	0.0139516
945.530	0.0140339
945.608	0.0139195
945.686	0.0139554
945.764	0.0140112
945.842	0.0139931
945.920	0.0137428
945.998	0.0137754
946.076	0.0140779
946.155	0.0139930
946.233	0.0139830
946.311	0.0140682
946.389	0.0141485
946.467	0.0140686
946.545	0.0140334
946.623	0.0141645
946.701	0.0141866
946.780	0.0142683
946.858	0.0143721
946.936	0.0142377
947.014	0.0143816
947.092	0.0143541
947.170	0.0143114
947.248	0.0143977
947.326	0.0142925
947.405	0.0142412
947.483	0.0142865
947.561	0.0142812
947.639	0.0142159
947.717	0.0142624
947.795	0.0143133
947.873	0.0142786
947.951	0.0141798
948.030	0.0141032
948.108	0.0142007
948.186	0.0140702
948.264	0.0142078
948.342	0.0141268
948.420	0.0141516
948.498	0.0141014
948.576	0.0140308
948.655	0.0141247
948.733	0.0140517
948.811	0.0138976
948.889	0.0140301
948.967	0.0140983
949.045	0.0140273
949.123	0.0140637
949.201	0.0138825
949.280	0.0140186
949.358	0.0140828
949.436	0.0138584
949.514	0.0138387
949.592	0.0140042
949.670	0.0140016
949.748	0.0138905
949.826	0.0138886
949.905	0.0138345
949.983	0.0137864
950.061	0.0138385
950.139	0.0138538
950.217	0.0138914
950.295	0.0138184
950.373	0.0138269
950.451	0.0138494
950.530	0.0137723
950.608	0.0139259
950.686	0.0138576
950.764	0.0138461
950.842	0.0138222
950.920	0.0140398
950.998	0.0138430
951.076	0.0138626
951.155	0.0138802
951.233	0.0139307
951.311	0.0138194
951.389	0.0137444
951.467	0.0138581
951.545	0.0140090
951.623	0.0140823
951.701	0.0140653
951.780	0.0140328
951.858	0.0140700
951.936	0.0141100
952.014	0.0141786
952.092	0.0141111
952.170	0.0141320
952.248	0.0142059
952.326	0.0141908
952.405	0.0143195
952.483	0.0140127
952.561	0.0141185
952.639	0.0141821
952.717	0.0142173
952.795	0.0141998
952.873	0.0141589
952.951	0.0140849
953.030	0.0142436
953.108	0.0141010
953.186	0.0140794
953.264	0.0141570
953.342	0.0141068
953.420	0.0143039
953.498	0.0142327
953.576	0.0141676
953.655	0.0141340
953.733	0.0142864
953.811	0.0142809
953.889	0.0143364
953.967	0.0143524
954.045	0.0141519
954.123	0.0142776
954.201	0.0140845
954.280	0.0140885
954.358	0.0141207
954.436	0.0139491
954.514	0.0139668
954.592	0.0139294
954.670	0.0139416
954.748	0.0139634
954.826	0.0137938
954.905	0.0138827
954.983	0.0139182
955.061	0.0140413
955.139	0.0138599
955.217	0.0139594
955.295	0.0138446
955.373	0.0138916
955.451	0.0138744
955.530	0.0138564
955.608	0.0138853
955.686	0.0139272
955.764	0.0137746
955.842	0.0138186
955.920	0.0138213
955.998	0.0139508
956.076	0.0137646
956.155	0.0137823
956.233	0.0137310
956.311	0.0138047
956.389	0.0137160
956.467	0.0137004
956.545	0.0137257
956.623	0.0138211
956.701	0.0137571
956.780	0.0135914
956.858	0.0136925
956.936	0.0137400
957.014	0.0138027
957.092	0.0139088
957.170	0.0139189
957.248	0.0139062
957.326	0.0139737
957.405	0.0139733
957.483	0.0139848
957.561	0.0140467
957.639	0.0140034
957.717	0.0141183
957.795	0.0141194
957.873	0.0140407
957.951	0.0141758
958.030	0.0142188
958.108	0.0141905
958.186	0.0142759
958.264	0.0142041
958.342	0.0142030
958.420	0.0142612
958.498	0.0141101
958.576	0.0140631
958.655	0.0141306
958.733	0.0139793
958.811	0.0141054
958.889	0.0140878
958.967	0.0141178
959.045	0.0141066
959.123	0.0141423
959.201	0.0139421
959.280	0.0140824
959.358	0.0141499
959.436	0.0140880
959.514	0.0140916
959.592	0.0141077
959.670	0.0140806
959.748	0.0140840
959.826	0.0140298
959.905	0.0141015
