05/20/2022	16:25:02	Ver.	4.1	UNKNOWN
Optical Delay	639.982744	Delta X		0.078125	Sweeps	1	Scan Rate	0/0
Coordinates	Axis 1	NaN	Axis 2	NaN	Axis 3	NaN	Axis 4	NaN	Axis 5	NaN	Axis 6	0.000000
TX Power	0.000000	RX Power	0.000000

639.983	0.0146301
640.061	0.0147934
640.139	0.0146257
640.217	0.0147256
640.295	0.0145969
640.373	0.0146828
640.451	0.0146978
640.530	0.0147282
640.608	0.0146520
640.686	0.0147614
640.764	0.0147009
640.842	0.0146366
640.920	0.0146530
640.998	0.0145869
641.076	0.0147079
641.155	0.0145725
641.233	0.0147365
641.311	0.0146513
641.389	0.0145611
641.467	0.0147821
641.545	0.0146921
641.623	0.0146119
641.701	0.0145975
641.780	0.0146677
641.858	0.0146832
641.936	0.0145967
642.014	0.0146766
642.092	0.0146808
642.170	0.0147750
642.248	0.0146622
642.326	0.0146220
642.405	0.0146168
642.483	0.0147786
642.561	0.0146696
642.639	0.0145853
642.717	0.0146165
642.795	0.0146830
642.873	0.0146256
642.951	0.0145722
643.030	0.0145258
643.108	0.0145202
643.186	0.0146279
643.264	0.0145574
643.342	0.0145821
643.420	0.0146054
643.498	0.0147141
643.576	0.0145834
643.655	0.0146086
643.733	0.0145780
643.811	0.0147205
643.889	0.0145745
643.967	0.0146344
644.045	0.0145822
644.123	0.0147012
644.201	0.0146249
644.280	0.0145164
644.358	0.0145036
644.436	0.0146807
644.514	0.0146409
644.592	0.0146451
644.670	0.0146278
644.748	0.0145853
644.826	0.0146364
644.905	0.0145843
644.983	0.0146212
645.061	0.0146382
645.139	0.0147592
645.217	0.0146516
645.295	0.0147080
645.373	0.0146527
645.451	0.0146437
645.530	0.0146656
645.608	0.0145374
645.686	0.0146060
645.764	0.0146121
645.842	0.0147218
645.920	0.0145552
645.998	0.0145876
646.076	0.0146328
646.155	0.0146635
646.233	0.0146001
646.311	0.0145541
646.389	0.0145619
646.467	0.0147202
646.545	0.0145923
646.623	0.0146760
646.701	0.0146363
646.780	0.0145995
646.858	0.0145662
646.936	0.0147530
647.014	0.0146802
647.092	0.0145381
647.170	0.0145829
647.248	0.0145597
647.326	0.0146046
647.405	0.0146452
647.483	0.0145509
647.561	0.0145670
647.639	0.0145698
647.717	0.0147022
647.795	0.0144807
647.873	0.0146274
647.951	0.0146842
648.030	0.0145305
648.108	0.0145904
648.186	0.0145127
648.264	0.0145963
648.342	0.0145898
648.420	0.0144954
648.498	0.0144889
648.576	0.0146167
648.655	0.0145966
648.733	0.0145390
648.811	0.0146049
648.889	0.0144917
648.967	0.0143979
649.045	0.0144646
649.123	0.0144046
649.201	0.0145544
649.280	0.0145396
649.358	0.0144877
649.436	0.0145892
649.514	0.0145799
649.592	0.0144992
649.670	0.0145554
649.748	0.0144453
649.826	0.0145510
649.905	0.0145060
649.983	0.0146318
650.061	0.0144481
650.139	0.0145033
650.217	0.0144826
650.295	0.0145444
650.373	0.0145374
650.451	0.0144808
650.530	0.0145393
650.608	0.0145311
650.686	0.0145432
650.764	0.0144466
650.842	0.0145265
650.920	0.0144968
650.998	0.0145033
651.076	0.0145142
651.155	0.0145506
651.233	0.0146802
651.311	0.0144503
651.389	0.0144737
651.467	0.0145679
651.545	0.0145403
651.623	0.0145645
651.701	0.0145139
651.780	0.0146295
651.858	0.0146752
651.936	0.0146488
652.014	0.0145908
652.092	0.0146482
652.170	0.0144709
652.248	0.0146217
652.326	0.0146870
652.405	0.0146365
652.483	0.0143976
652.561	0.0146265
652.639	0.0145320
652.717	0.0145736
652.795	0.0145382
652.873	0.0147731
652.951	0.0144449
653.030	0.0144867
653.108	0.0145090
653.186	0.0145786
653.264	0.0146404
653.342	0.0145984
653.420	0.0146639
653.498	0.0146130
653.576	0.0146249
653.655	0.0146744
653.733	0.0145717
653.811	0.0147680
653.889	0.0147070
653.967	0.0147520
654.045	0.0147160
654.123	0.0146968
654.201	0.0147405
654.280	0.0147066
654.358	0.0147603
654.436	0.0145219
654.514	0.0146465
654.592	0.0145957
654.670	0.0146667
654.748	0.0147517
654.826	0.0148072
654.905	0.0147945
654.983	0.0147410
655.061	0.0146866
655.139	0.0146435
655.217	0.0148534
655.295	0.0148485
655.373	0.0146647
655.451	0.0145876
655.530	0.0146350
655.608	0.0147421
655.686	0.0146832
655.764	0.0146396
655.842	0.0146745
655.920	0.0146426
655.998	0.0147180
656.076	0.0144855
656.155	0.0145581
656.233	0.0147528
656.311	0.0146224
656.389	0.0146838
656.467	0.0146300
656.545	0.0146085
656.623	0.0145335
656.701	0.0146857
656.780	0.0148363
656.858	0.0146827
656.936	0.0146191
657.014	0.0146935
657.092	0.0145371
657.170	0.0147012
657.248	0.0147651
657.326	0.0145829
657.405	0.0146233
657.483	0.0146184
657.561	0.0146014
657.639	0.0146825
657.717	0.0146153
657.795	0.0145911
657.873	0.0145332
657.951	0.0146547
658.030	0.0148106
658.108	0.0146160
658.186	0.0145863
658.264	0.0145596
658.342	0.0146864
658.420	0.0144970
658.498	0.0146280
658.576	0.0146243
658.655	0.0145081
658.733	0.0144325
658.811	0.0144968
658.889	0.0146790
658.967	0.0146528
659.045	0.0145651
659.123	0.0145119
659.201	0.0145416
659.280	0.0144115
659.358	0.0145608
659.436	0.0145829
659.514	0.0147607
659.592	0.0147145
659.670	0.0146979
659.748	0.0148121
659.826	0.0146226
659.905	0.0146127
659.983	0.0147439
660.061	0.0147256
660.139	0.0148103
660.217	0.0147142
660.295	0.0148008
660.373	0.0146140
660.451	0.0146756
660.530	0.0146734
660.608	0.0147155
660.686	0.0145362
660.764	0.0146072
660.842	0.0145743
660.920	0.0146236
660.998	0.0145617
661.076	0.0144925
661.155	0.0145967
661.233	0.0145596
661.311	0.0145008
661.389	0.0145087
661.467	0.0146694
661.545	0.0145408
661.623	0.0145979
661.701	0.0145273
661.780	0.0146532
661.858	0.0147440
661.936	0.0147572
662.014	0.0147174
662.092	0.0148665
662.170	0.0146246
662.248	0.0147647
662.326	0.0147569
662.405	0.0148569
662.483	0.0148208
662.561	0.0148308
662.639	0.0147881
662.717	0.0146406
662.795	0.0145736
662.873	0.0145589
662.951	0.0144978
663.030	0.0144845
663.108	0.0146100
663.186	0.0144677
663.264	0.0144003
663.342	0.0146721
663.420	0.0144413
663.498	0.0144072
663.576	0.0145313
663.655	0.0144831
663.733	0.0145466
663.811	0.0145315
663.889	0.0143613
663.967	0.0145085
664.045	0.0146790
664.123	0.0145992
664.201	0.0145161
664.280	0.0145721
664.358	0.0145686
664.436	0.0147445
664.514	0.0147088
664.592	0.0147895
664.670	0.0147221
664.748	0.0146513
664.826	0.0146817
664.905	0.0147527
664.983	0.0146567
665.061	0.0147057
665.139	0.0145284
665.217	0.0146996
665.295	0.0146230
665.373	0.0145020
665.451	0.0144884
665.530	0.0145862
665.608	0.0144335
665.686	0.0144029
665.764	0.0144998
665.842	0.0145483
665.920	0.0145376
665.998	0.0144949
666.076	0.0144965
666.155	0.0144323
666.233	0.0145906
666.311	0.0147396
666.389	0.0146767
666.467	0.0146678
666.545	0.0146723
666.623	0.0148177
666.701	0.0147940
666.780	0.0148385
666.858	0.0149184
666.936	0.0147485
667.014	0.0147450
667.092	0.0147320
667.170	0.0145819
667.248	0.0147551
667.326	0.0146982
667.405	0.0146500
667.483	0.0144969
667.561	0.0145738
667.639	0.0145474
667.717	0.0145634
667.795	0.0146236
667.873	0.0146088
667.951	0.0145051
668.030	0.0145558
668.108	0.0146877
668.186	0.0147146
668.264	0.0145733
668.342	0.0145641
668.420	0.0146283
668.498	0.0145486
668.576	0.0145824
668.655	0.0146368
668.733	0.0146015
668.811	0.0145952
668.889	0.0147167
668.967	0.0146569
669.045	0.0146301
669.123	0.0147668
669.201	0.0147445
669.280	0.0147838
669.358	0.0146098
669.436	0.0145901
669.514	0.0147048
669.592	0.0147021
669.670	0.0146093
669.748	0.0147672
669.826	0.0145465
669.905	0.0144297
669.983	0.0145139
670.061	0.0146389
670.139	0.0145344
670.217	0.0146540
670.295	0.0146445
670.373	0.0146191
670.451	0.0146069
670.530	0.0145206
670.608	0.0145444
670.686	0.0145899
670.764	0.0146648
670.842	0.0147511
670.920	0.0147757
670.998	0.0147379
671.076	0.0149034
671.155	0.0147588
671.233	0.0146463
671.311	0.0146880
671.389	0.0146924
671.467	0.0147726
671.545	0.0147686
671.623	0.0147128
671.701	0.0149673
671.780	0.0148449
671.858	0.0147695
671.936	0.0147395
672.014	0.0145858
672.092	0.0147460
672.170	0.0148262
672.248	0.0147204
672.326	0.0147167
672.405	0.0146538
672.483	0.0146068
672.561	0.0144943
672.639	0.0147280
672.717	0.0146827
672.795	0.0146606
672.873	0.0146305
672.951	0.0146355
673.030	0.0146871
673.108	0.0145444
673.186	0.0146077
673.264	0.0147525
673.342	0.0146518
673.420	0.0146837
673.498	0.0146667
673.576	0.0146555
673.655	0.0146333
673.733	0.0145761
673.811	0.0146917
673.889	0.0145560
673.967	0.0145593
674.045	0.0146420
674.123	0.0147292
674.201	0.0147188
674.280	0.0147075
674.358	0.0146022
674.436	0.0145161
674.514	0.0146777
674.592	0.0146825
674.670	0.0147753
674.748	0.0146221
674.826	0.0145506
674.905	0.0145964
674.983	0.0146676
675.061	0.0147021
675.139	0.0147413
675.217	0.0146054
675.295	0.0145367
675.373	0.0147128
675.451	0.0146355
675.530	0.0145818
675.608	0.0144997
675.686	0.0146204
675.764	0.0145087
675.842	0.0145258
675.920	0.0146841
675.998	0.0146553
676.076	0.0147472
676.155	0.0146719
676.233	0.0147441
676.311	0.0147277
676.389	0.0148159
676.467	0.0146889
676.545	0.0147766
676.623	0.0147626
676.701	0.0148151
676.780	0.0147483
676.858	0.0147181
676.936	0.0146922
677.014	0.0146820
677.092	0.0145634
677.170	0.0144730
677.248	0.0143035
677.326	0.0142532
677.405	0.0142892
677.483	0.0142152
677.561	0.0142041
677.639	0.0143088
677.717	0.0145161
677.795	0.0145725
677.873	0.0144798
677.951	0.0145633
678.030	0.0147308
678.108	0.0149229
678.186	0.0150169
678.264	0.0151317
678.342	0.0152767
678.420	0.0152715
678.498	0.0151617
678.576	0.0152995
678.655	0.0153038
678.733	0.0151066
678.811	0.0150224
678.889	0.0147302
678.967	0.0146897
679.045	0.0145576
679.123	0.0143353
679.201	0.0144071
679.280	0.0142193
679.358	0.0141705
679.436	0.0141045
679.514	0.0140901
679.592	0.0141354
679.670	0.0141631
679.748	0.0143197
679.826	0.0143197
679.905	0.0144136
679.983	0.0144642
680.061	0.0145188
680.139	0.0146673
680.217	0.0146741
680.295	0.0148938
680.373	0.0148536
680.451	0.0148588
680.530	0.0148853
680.608	0.0149313
680.686	0.0148459
680.764	0.0149012
680.842	0.0148769
680.920	0.0150460
680.998	0.0148769
681.076	0.0148901
681.155	0.0149493
681.233	0.0149728
681.311	0.0149098
681.389	0.0150874
681.467	0.0150877
681.545	0.0149174
681.623	0.0148534
681.701	0.0148084
681.780	0.0147667
681.858	0.0147910
681.936	0.0146035
682.014	0.0144201
682.092	0.0143401
682.170	0.0143812
682.248	0.0142900
682.326	0.0140063
682.405	0.0141546
682.483	0.0140116
682.561	0.0142416
682.639	0.0143774
682.717	0.0144648
682.795	0.0144858
682.873	0.0145706
682.951	0.0146613
683.030	0.0146680
683.108	0.0147136
683.186	0.0145347
683.264	0.0145551
683.342	0.0144958
683.420	0.0143599
683.498	0.0142859
683.576	0.0140668
683.655	0.0139823
683.733	0.0138192
683.811	0.0138207
683.889	0.0138908
683.967	0.0139395
684.045	0.0139621
684.123	0.0139381
684.201	0.0141546
684.280	0.0142094
684.358	0.0142456
684.436	0.0144971
684.514	0.0146407
684.592	0.0147884
684.670	0.0149087
684.748	0.0148533
684.826	0.0150156
684.905	0.0151954
684.983	0.0151357
685.061	0.0152174
685.139	0.0151450
685.217	0.0151689
685.295	0.0153953
685.373	0.0153761
685.451	0.0155211
685.530	0.0153687
685.608	0.0153528
685.686	0.0153741
685.764	0.0151420
685.842	0.0150431
685.920	0.0150285
685.998	0.0150603
686.076	0.0147683
686.155	0.0147541
686.233	0.0147638
686.311	0.0145866
686.389	0.0142757
686.467	0.0144209
686.545	0.0144161
686.623	0.0141843
686.701	0.0141163
686.780	0.0139117
686.858	0.0138390
686.936	0.0137567
687.014	0.0136252
687.092	0.0134624
687.170	0.0133383
687.248	0.0132771
687.326	0.0130051
687.405	0.0127424
687.483	0.0127029
687.561	0.0126357
687.639	0.0127657
687.717	0.0128152
687.795	0.0129308
687.873	0.0133451
687.951	0.0135320
688.030	0.0139371
688.108	0.0144566
688.186	0.0148825
688.264	0.0154858
688.342	0.0158099
688.420	0.0161262
688.498	0.0165605
688.576	0.0167042
688.655	0.0170481
688.733	0.0169280
688.811	0.0169521
688.889	0.0168480
688.967	0.0167940
689.045	0.0165791
689.123	0.0165019
689.201	0.0160793
689.280	0.0158998
689.358	0.0158665
689.436	0.0155161
689.514	0.0152804
689.592	0.0150369
689.670	0.0147697
689.748	0.0146641
689.826	0.0142800
689.905	0.0141920
689.983	0.0138454
690.061	0.0136523
690.139	0.0133721
690.217	0.0130070
690.295	0.0129868
690.373	0.0127016
690.451	0.0126266
690.530	0.0127425
690.608	0.0127180
690.686	0.0126965
690.764	0.0129244
690.842	0.0130839
690.920	0.0134128
690.998	0.0138023
691.076	0.0140134
691.155	0.0142627
691.233	0.0145541
691.311	0.0148969
691.389	0.0151825
691.467	0.0152761
691.545	0.0153757
691.623	0.0155556
691.701	0.0155621
691.780	0.0156306
691.858	0.0158144
691.936	0.0156001
692.014	0.0153953
692.092	0.0154203
692.170	0.0154804
692.248	0.0153829
692.326	0.0153106
692.405	0.0152962
692.483	0.0150854
692.561	0.0151904
692.639	0.0150660
692.717	0.0149926
692.795	0.0150511
692.873	0.0149982
692.951	0.0150720
693.030	0.0150640
693.108	0.0150008
693.186	0.0150030
693.264	0.0148923
693.342	0.0148798
693.420	0.0148440
693.498	0.0148618
693.576	0.0147163
693.655	0.0145448
693.733	0.0143768
693.811	0.0143648
693.889	0.0139552
693.967	0.0138530
694.045	0.0137320
694.123	0.0135706
694.201	0.0134463
694.280	0.0133159
694.358	0.0134961
694.436	0.0132738
694.514	0.0132903
694.592	0.0133479
694.670	0.0133431
694.748	0.0135455
694.826	0.0135771
694.905	0.0137215
694.983	0.0136923
695.061	0.0137990
695.139	0.0141556
695.217	0.0142496
695.295	0.0145264
695.373	0.0147919
695.451	0.0150335
695.530	0.0152058
695.608	0.0156892
695.686	0.0161051
695.764	0.0160701
695.842	0.0163217
695.920	0.0165144
695.998	0.0165351
696.076	0.0166127
696.155	0.0164867
696.233	0.0163864
696.311	0.0163154
696.389	0.0161159
696.467	0.0160977
696.545	0.0159209
696.623	0.0157233
696.701	0.0154020
696.780	0.0152940
696.858	0.0152537
696.936	0.0150314
697.014	0.0147218
697.092	0.0145300
697.170	0.0144039
697.248	0.0142246
697.326	0.0137595
697.405	0.0136705
697.483	0.0134100
697.561	0.0133078
697.639	0.0130314
697.717	0.0127849
697.795	0.0127050
697.873	0.0127960
697.951	0.0128403
698.030	0.0128320
698.108	0.0131023
698.186	0.0130590
698.264	0.0133460
698.342	0.0135976
698.420	0.0137391
698.498	0.0138035
698.576	0.0138853
698.655	0.0141116
698.733	0.0141321
698.811	0.0141035
698.889	0.0141323
698.967	0.0141933
699.045	0.0142776
699.123	0.0144043
699.201	0.0143507
699.280	0.0145490
699.358	0.0148576
699.436	0.0151628
699.514	0.0151980
699.592	0.0153210
699.670	0.0154884
699.748	0.0158578
699.826	0.0159841
699.905	0.0161254
699.983	0.0163737
700.061	0.0165290
700.139	0.0164741
700.217	0.0164749
700.295	0.0165707
700.373	0.0164979
700.451	0.0163849
700.530	0.0162515
700.608	0.0159537
700.686	0.0156982
700.764	0.0154871
700.842	0.0153157
700.920	0.0149279
700.998	0.0147035
701.076	0.0144684
701.155	0.0142372
701.233	0.0140697
701.311	0.0138272
701.389	0.0137556
701.467	0.0134874
701.545	0.0134866
701.623	0.0132705
701.701	0.0132930
701.780	0.0129388
701.858	0.0130257
701.936	0.0130080
702.014	0.0130039
702.092	0.0131171
702.170	0.0130066
702.248	0.0134286
702.326	0.0135102
702.405	0.0136358
702.483	0.0139583
702.561	0.0141415
702.639	0.0141979
702.717	0.0143545
702.795	0.0145934
702.873	0.0147609
702.951	0.0146307
703.030	0.0146192
703.108	0.0145438
703.186	0.0145405
703.264	0.0144585
703.342	0.0143256
703.420	0.0143716
703.498	0.0144055
703.576	0.0142656
703.655	0.0145608
703.733	0.0147372
703.811	0.0151128
703.889	0.0150374
703.967	0.0152525
704.045	0.0154244
704.123	0.0155005
704.201	0.0157449
704.280	0.0155337
704.358	0.0155473
704.436	0.0155460
704.514	0.0153277
704.592	0.0153500
704.670	0.0152840
704.748	0.0152091
704.826	0.0150051
704.905	0.0148807
704.983	0.0148920
705.061	0.0147823
705.139	0.0146023
705.217	0.0145058
705.295	0.0146363
705.373	0.0146126
705.451	0.0145570
705.530	0.0146365
705.608	0.0145579
705.686	0.0146208
705.764	0.0145339
705.842	0.0146643
705.920	0.0146900
705.998	0.0147595
706.076	0.0146396
706.155	0.0145782
706.233	0.0147524
706.311	0.0145228
706.389	0.0144353
706.467	0.0144110
706.545	0.0142438
706.623	0.0141628
706.701	0.0140271
706.780	0.0138843
706.858	0.0137792
706.936	0.0136534
707.014	0.0135852
707.092	0.0134534
707.170	0.0132741
707.248	0.0134156
707.326	0.0132423
707.405	0.0132980
707.483	0.0133082
707.561	0.0134580
707.639	0.0136842
707.717	0.0137717
707.795	0.0138141
707.873	0.0138744
707.951	0.0140154
708.030	0.0142900
708.108	0.0144186
708.186	0.0145464
708.264	0.0146812
708.342	0.0147308
708.420	0.0149915
708.498	0.0152152
708.576	0.0154905
708.655	0.0154168
708.733	0.0155773
708.811	0.0156422
708.889	0.0157291
708.967	0.0157726
709.045	0.0159148
709.123	0.0158588
709.201	0.0157531
709.280	0.0157869
709.358	0.0154745
709.436	0.0156225
709.514	0.0155058
709.592	0.0154102
709.670	0.0152496
709.748	0.0150750
709.826	0.0148747
709.905	0.0147269
709.983	0.0146273
710.061	0.0146709
710.139	0.0146130
710.217	0.0146475
710.295	0.0145959
710.373	0.0145383
710.451	0.0146573
710.530	0.0146679
710.608	0.0145959
710.686	0.0145319
710.764	0.0144796
710.842	0.0144474
710.920	0.0144309
710.998	0.0142506
711.076	0.0141326
711.155	0.0141789
711.233	0.0140628
711.311	0.0140162
711.389	0.0139635
711.467	0.0138973
711.545	0.0137489
711.623	0.0138538
711.701	0.0138364
711.780	0.0137338
711.858	0.0138338
711.936	0.0138245
712.014	0.0137203
712.092	0.0139030
712.170	0.0139462
712.248	0.0140169
712.326	0.0140107
712.405	0.0141241
712.483	0.0142178
712.561	0.0141569
712.639	0.0143149
712.717	0.0143660
712.795	0.0145017
712.873	0.0145726
712.951	0.0144300
713.030	0.0146853
713.108	0.0149014
713.186	0.0149635
713.264	0.0150951
713.342	0.0151965
713.420	0.0152166
713.498	0.0153511
713.576	0.0153938
713.655	0.0154398
713.733	0.0153671
713.811	0.0152647
713.889	0.0153901
713.967	0.0151939
714.045	0.0151973
714.123	0.0150800
714.201	0.0148888
714.280	0.0149176
714.358	0.0147410
714.436	0.0146381
714.514	0.0145966
714.592	0.0144545
714.670	0.0144556
714.748	0.0145398
714.826	0.0143676
714.905	0.0145165
714.983	0.0145891
715.061	0.0144366
715.139	0.0145354
715.217	0.0147430
715.295	0.0146483
715.373	0.0146566
715.451	0.0146208
715.530	0.0146763
715.608	0.0148629
715.686	0.0147545
715.764	0.0146559
715.842	0.0144930
715.920	0.0145355
715.998	0.0144550
716.076	0.0143322
716.155	0.0143005
716.233	0.0144756
716.311	0.0143618
716.389	0.0143262
716.467	0.0144382
716.545	0.0143069
716.623	0.0144554
716.701	0.0144428
716.780	0.0146336
716.858	0.0145361
716.936	0.0144749
717.014	0.0146568
717.092	0.0146407
717.170	0.0149137
717.248	0.0149142
717.326	0.0150188
717.405	0.0152319
717.483	0.0150861
717.561	0.0151866
717.639	0.0152863
717.717	0.0152898
717.795	0.0149831
717.873	0.0149758
717.951	0.0149570
718.030	0.0148053
718.108	0.0146398
718.186	0.0146527
718.264	0.0142858
718.342	0.0141664
718.420	0.0142476
718.498	0.0141129
718.576	0.0140622
718.655	0.0141135
718.733	0.0141315
718.811	0.0140000
718.889	0.0140762
718.967	0.0141769
719.045	0.0139974
719.123	0.0140875
719.201	0.0143844
719.280	0.0144334
719.358	0.0145399
719.436	0.0146734
719.514	0.0147065
719.592	0.0148756
719.670	0.0148817
719.748	0.0149947
719.826	0.0149995
719.905	0.0149597
719.983	0.0149728
720.061	0.0149263
720.139	0.0149550
720.217	0.0149563
720.295	0.0147698
720.373	0.0147074
720.451	0.0145780
720.530	0.0143270
720.608	0.0145042
720.686	0.0142603
720.764	0.0143421
720.842	0.0143037
720.920	0.0141667
720.998	0.0142634
721.076	0.0142200
721.155	0.0144442
721.233	0.0144071
721.311	0.0145520
721.389	0.0147162
721.467	0.0149726
721.545	0.0150814
721.623	0.0152784
721.701	0.0152897
721.780	0.0155165
721.858	0.0156013
721.936	0.0156792
722.014	0.0156954
722.092	0.0156733
722.170	0.0156250
722.248	0.0156213
722.326	0.0154095
722.405	0.0153678
722.483	0.0152103
722.561	0.0150293
722.639	0.0147424
722.717	0.0147060
722.795	0.0145478
722.873	0.0144828
722.951	0.0143193
723.030	0.0141982
723.108	0.0141799
723.186	0.0141926
723.264	0.0141985
723.342	0.0141592
723.420	0.0139886
723.498	0.0143241
723.576	0.0142448
723.655	0.0141299
723.733	0.0142224
723.811	0.0142679
723.889	0.0142419
723.967	0.0142985
724.045	0.0143523
724.123	0.0144504
724.201	0.0142122
724.280	0.0143214
724.358	0.0145192
724.436	0.0144936
724.514	0.0144136
724.592	0.0145662
724.670	0.0145481
724.748	0.0145711
724.826	0.0146752
724.905	0.0147644
724.983	0.0144515
725.061	0.0145375
725.139	0.0144260
725.217	0.0142965
725.295	0.0141108
725.373	0.0140504
725.451	0.0139564
725.530	0.0138973
725.608	0.0139156
725.686	0.0139301
725.764	0.0137183
725.842	0.0139397
725.920	0.0139914
725.998	0.0140047
726.076	0.0141794
726.155	0.0143020
726.233	0.0143950
726.311	0.0146772
726.389	0.0145502
726.467	0.0146864
726.545	0.0147818
726.623	0.0148222
726.701	0.0148668
726.780	0.0150104
726.858	0.0150081
726.936	0.0150401
727.014	0.0150477
727.092	0.0151492
727.170	0.0149034
727.248	0.0151964
727.326	0.0150294
727.405	0.0149663
727.483	0.0149252
727.561	0.0148718
727.639	0.0148165
727.717	0.0147649
727.795	0.0148559
727.873	0.0145540
727.951	0.0145179
728.030	0.0146024
728.108	0.0146034
728.186	0.0144081
728.264	0.0145152
728.342	0.0146082
728.420	0.0146287
728.498	0.0145530
728.576	0.0146884
728.655	0.0147115
728.733	0.0145697
728.811	0.0147475
728.889	0.0147066
728.967	0.0147359
729.045	0.0147385
729.123	0.0146146
729.201	0.0146175
729.280	0.0143845
729.358	0.0143789
729.436	0.0142363
729.514	0.0141575
729.592	0.0142676
729.670	0.0143133
729.748	0.0142693
729.826	0.0143430
729.905	0.0142533
729.983	0.0143739
730.061	0.0144012
730.139	0.0143729
730.217	0.0145860
730.295	0.0146480
730.373	0.0146179
730.451	0.0143649
730.530	0.0144608
730.608	0.0144166
730.686	0.0143502
730.764	0.0144187
730.842	0.0143749
730.920	0.0144290
730.998	0.0143382
731.076	0.0143913
731.155	0.0143989
731.233	0.0144005
731.311	0.0144196
731.389	0.0145773
731.467	0.0145657
731.545	0.0146579
731.623	0.0148374
731.701	0.0149490
731.780	0.0149238
731.858	0.0150865
731.936	0.0151179
732.014	0.0150739
732.092	0.0150836
732.170	0.0151685
732.248	0.0151134
732.326	0.0149440
732.405	0.0149864
732.483	0.0150123
732.561	0.0149677
732.639	0.0148949
732.717	0.0149563
732.795	0.0146835
732.873	0.0145634
732.951	0.0144664
733.030	0.0144283
733.108	0.0143453
733.186	0.0142039
733.264	0.0142547
733.342	0.0142818
733.420	0.0141592
733.498	0.0142413
733.576	0.0140228
733.655	0.0141808
733.733	0.0141572
733.811	0.0142784
733.889	0.0143658
733.967	0.0144035
734.045	0.0145783
734.123	0.0146929
734.201	0.0147434
734.280	0.0148239
734.358	0.0149091
734.436	0.0149396
734.514	0.0152155
734.592	0.0150702
734.670	0.0150990
734.748	0.0152998
734.826	0.0152163
734.905	0.0149520
734.983	0.0150400
735.061	0.0150495
735.139	0.0149728
735.217	0.0148679
735.295	0.0148682
735.373	0.0146210
735.451	0.0146759
735.530	0.0144830
735.608	0.0144299
735.686	0.0145177
735.764	0.0144326
735.842	0.0144914
735.920	0.0144724
735.998	0.0145214
736.076	0.0146049
736.155	0.0147043
736.233	0.0146890
736.311	0.0148215
736.389	0.0148627
736.467	0.0148615
736.545	0.0150090
736.623	0.0150390
736.701	0.0149931
736.780	0.0148760
736.858	0.0147840
736.936	0.0148162
737.014	0.0148167
737.092	0.0147052
737.170	0.0146150
737.248	0.0147298
737.326	0.0144588
737.405	0.0143556
737.483	0.0142809
737.561	0.0141283
737.639	0.0141771
737.717	0.0142018
737.795	0.0142585
737.873	0.0142144
737.951	0.0142567
738.030	0.0142462
738.108	0.0141966
738.186	0.0143349
738.264	0.0142863
738.342	0.0144892
738.420	0.0146420
738.498	0.0144408
738.576	0.0146888
738.655	0.0146651
738.733	0.0147026
738.811	0.0144901
738.889	0.0145496
738.967	0.0145407
739.045	0.0145177
739.123	0.0145834
739.201	0.0146822
739.280	0.0146168
739.358	0.0146896
739.436	0.0146510
739.514	0.0146860
739.592	0.0146909
739.670	0.0147637
739.748	0.0147417
739.826	0.0149918
739.905	0.0149250
739.983	0.0148846
740.061	0.0149126
740.139	0.0149309
740.217	0.0149476
740.295	0.0149226
740.373	0.0149866
740.451	0.0149887
740.530	0.0150395
740.608	0.0149902
740.686	0.0150700
740.764	0.0150975
740.842	0.0149546
740.920	0.0149915
740.998	0.0151791
741.076	0.0151053
741.155	0.0149924
741.233	0.0148699
741.311	0.0149246
741.389	0.0148598
741.467	0.0147966
741.545	0.0149035
741.623	0.0146332
741.701	0.0145669
741.780	0.0146093
741.858	0.0146304
741.936	0.0145285
742.014	0.0144884
742.092	0.0144454
742.170	0.0143887
742.248	0.0143117
742.326	0.0142963
742.405	0.0143031
742.483	0.0142416
742.561	0.0141685
742.639	0.0141630
742.717	0.0141665
742.795	0.0140652
742.873	0.0140053
742.951	0.0140756
743.030	0.0139732
743.108	0.0140015
743.186	0.0141074
743.264	0.0141673
743.342	0.0140005
743.420	0.0142070
743.498	0.0142810
743.576	0.0144601
743.655	0.0144467
743.733	0.0144542
743.811	0.0146575
743.889	0.0146726
743.967	0.0148095
744.045	0.0147984
744.123	0.0150150
744.201	0.0148409
744.280	0.0149485
744.358	0.0150064
744.436	0.0149946
744.514	0.0150061
744.592	0.0148872
744.670	0.0149396
744.748	0.0148442
744.826	0.0147407
744.905	0.0147314
744.983	0.0146882
745.061	0.0146480
745.139	0.0146070
745.217	0.0145283
745.295	0.0146309
745.373	0.0146003
745.451	0.0145620
745.530	0.0147501
745.608	0.0147205
745.686	0.0147173
745.764	0.0147621
745.842	0.0148537
745.920	0.0149619
745.998	0.0149710
746.076	0.0150321
746.155	0.0149469
746.233	0.0147507
746.311	0.0148238
746.389	0.0147617
746.467	0.0146214
746.545	0.0146502
746.623	0.0145517
746.701	0.0146822
746.780	0.0145547
746.858	0.0144395
746.936	0.0143781
747.014	0.0144491
747.092	0.0144650
747.170	0.0143883
747.248	0.0144303
747.326	0.0143502
747.405	0.0144696
747.483	0.0144710
747.561	0.0144984
747.639	0.0145801
747.717	0.0144652
747.795	0.0144858
747.873	0.0145442
747.951	0.0147133
748.030	0.0146265
748.108	0.0146436
748.186	0.0147185
748.264	0.0146100
748.342	0.0145346
748.420	0.0146050
748.498	0.0144539
748.576	0.0144837
748.655	0.0146012
748.733	0.0144395
748.811	0.0145779
748.889	0.0145272
748.967	0.0146477
749.045	0.0143880
749.123	0.0143833
749.201	0.0144576
749.280	0.0144109
749.358	0.0143256
749.436	0.0144068
749.514	0.0143741
749.592	0.0144479
749.670	0.0144549
749.748	0.0142216
749.826	0.0144559
749.905	0.0143181
749.983	0.0143492
750.061	0.0143707
750.139	0.0145035
750.217	0.0144070
750.295	0.0143588
750.373	0.0145609
750.451	0.0145679
750.530	0.0145395
750.608	0.0145683
750.686	0.0146660
750.764	0.0146446
750.842	0.0147189
750.920	0.0146346
750.998	0.0147598
751.076	0.0146021
751.155	0.0146587
751.233	0.0144848
751.311	0.0145786
751.389	0.0145173
751.467	0.0145160
751.545	0.0146301
751.623	0.0145696
751.701	0.0146370
751.780	0.0147023
751.858	0.0146632
751.936	0.0145577
752.014	0.0146104
752.092	0.0146328
752.170	0.0145180
752.248	0.0145804
752.326	0.0146805
752.405	0.0146101
752.483	0.0147019
752.561	0.0146299
752.639	0.0146221
752.717	0.0146461
752.795	0.0146821
752.873	0.0147048
752.951	0.0147146
753.030	0.0147991
753.108	0.0148178
753.186	0.0149364
753.264	0.0148544
753.342	0.0149585
753.420	0.0151205
753.498	0.0150993
753.576	0.0151665
753.655	0.0153342
753.733	0.0152370
753.811	0.0152182
753.889	0.0152894
753.967	0.0152063
754.045	0.0150880
754.123	0.0150925
754.201	0.0149612
754.280	0.0149384
754.358	0.0149010
754.436	0.0148438
754.514	0.0145133
754.592	0.0146289
754.670	0.0145709
754.748	0.0145021
754.826	0.0145968
754.905	0.0145480
754.983	0.0145486
755.061	0.0144715
755.139	0.0144873
755.217	0.0145744
755.295	0.0145152
755.373	0.0144729
755.451	0.0146023
755.530	0.0147899
755.608	0.0148443
755.686	0.0146293
755.764	0.0146279
755.842	0.0147467
755.920	0.0146265
755.998	0.0146346
756.076	0.0146352
756.155	0.0144355
756.233	0.0145741
756.311	0.0146122
756.389	0.0145451
756.467	0.0144725
756.545	0.0144833
756.623	0.0145780
756.701	0.0144962
756.780	0.0143764
756.858	0.0143571
756.936	0.0144409
757.014	0.0144173
757.092	0.0144936
757.170	0.0143738
757.248	0.0144501
757.326	0.0144837
757.405	0.0144447
757.483	0.0144545
757.561	0.0147561
757.639	0.0147119
757.717	0.0146643
757.795	0.0148362
757.873	0.0147381
757.951	0.0147156
758.030	0.0149640
758.108	0.0147312
758.186	0.0147335
758.264	0.0149402
758.342	0.0149602
758.420	0.0150165
758.498	0.0149042
758.576	0.0148846
758.655	0.0148326
758.733	0.0147084
758.811	0.0148249
758.889	0.0148538
758.967	0.0148644
759.045	0.0146380
759.123	0.0146867
759.201	0.0147968
759.280	0.0147974
759.358	0.0147365
759.436	0.0146314
759.514	0.0148238
759.592	0.0147799
759.670	0.0146463
759.748	0.0146519
759.826	0.0146972
759.905	0.0145850
759.983	0.0144798
760.061	0.0145036
760.139	0.0147664
760.217	0.0146912
760.295	0.0147309
760.373	0.0147287
760.451	0.0146429
760.530	0.0147590
760.608	0.0147657
760.686	0.0147533
760.764	0.0148794
760.842	0.0148767
760.920	0.0148357
760.998	0.0149318
761.076	0.0149745
761.155	0.0149164
761.233	0.0148225
761.311	0.0147445
761.389	0.0147783
761.467	0.0147241
761.545	0.0147722
761.623	0.0147878
761.701	0.0146400
761.780	0.0146086
761.858	0.0145968
761.936	0.0145591
762.014	0.0145811
762.092	0.0144479
762.170	0.0143022
762.248	0.0143104
762.326	0.0144420
762.405	0.0142516
762.483	0.0142307
762.561	0.0142909
762.639	0.0142953
762.717	0.0143039
762.795	0.0141698
762.873	0.0142577
762.951	0.0143079
763.030	0.0142982
763.108	0.0143050
763.186	0.0142911
763.264	0.0143620
763.342	0.0144006
763.420	0.0144936
763.498	0.0143013
763.576	0.0144152
763.655	0.0145537
763.733	0.0145316
763.811	0.0144318
763.889	0.0144859
763.967	0.0145696
764.045	0.0144624
764.123	0.0145840
764.201	0.0144704
764.280	0.0145254
764.358	0.0143830
764.436	0.0144525
764.514	0.0142855
764.592	0.0144844
764.670	0.0144323
764.748	0.0143703
764.826	0.0143504
764.905	0.0143709
764.983	0.0145430
765.061	0.0145731
765.139	0.0144106
765.217	0.0144352
765.295	0.0145439
765.373	0.0144622
765.451	0.0144800
765.530	0.0145024
765.608	0.0145126
765.686	0.0145179
765.764	0.0145358
765.842	0.0145383
765.920	0.0144439
765.998	0.0145560
766.076	0.0145497
766.155	0.0145892
766.233	0.0145669
766.311	0.0145418
766.389	0.0148334
766.467	0.0147343
766.545	0.0147212
766.623	0.0146552
766.701	0.0147330
766.780	0.0146546
766.858	0.0146966
766.936	0.0148199
767.014	0.0147449
767.092	0.0148225
767.170	0.0148195
767.248	0.0147179
767.326	0.0147876
767.405	0.0147845
767.483	0.0148524
767.561	0.0148043
767.639	0.0146867
767.717	0.0145551
767.795	0.0147517
767.873	0.0146976
767.951	0.0146440
768.030	0.0145800
768.108	0.0145986
768.186	0.0145666
768.264	0.0146356
768.342	0.0145251
768.420	0.0146178
768.498	0.0147006
768.576	0.0147694
768.655	0.0147686
768.733	0.0146384
768.811	0.0146998
768.889	0.0146861
768.967	0.0146979
769.045	0.0147917
769.123	0.0147652
769.201	0.0147278
769.280	0.0146611
769.358	0.0146922
769.436	0.0147459
769.514	0.0148287
769.592	0.0147378
769.670	0.0147266
769.748	0.0148832
769.826	0.0146400
769.905	0.0146793
769.983	0.0146124
770.061	0.0146220
770.139	0.0144490
770.217	0.0144657
770.295	0.0144754
770.373	0.0143999
770.451	0.0142415
770.530	0.0142814
770.608	0.0144958
770.686	0.0143361
770.764	0.0142464
770.842	0.0143214
770.920	0.0143898
770.998	0.0143218
771.076	0.0143626
771.155	0.0143691
771.233	0.0143680
771.311	0.0144884
771.389	0.0145170
771.467	0.0144796
771.545	0.0145806
771.623	0.0145981
771.701	0.0145018
771.780	0.0146445
771.858	0.0147629
771.936	0.0146681
772.014	0.0145783
772.092	0.0145357
772.170	0.0146719
772.248	0.0145867
772.326	0.0146629
772.405	0.0146146
772.483	0.0145278
772.561	0.0145721
772.639	0.0146214
772.717	0.0145737
772.795	0.0145392
772.873	0.0145800
772.951	0.0143743
773.030	0.0144862
773.108	0.0144451
773.186	0.0144517
773.264	0.0145141
773.342	0.0145765
773.420	0.0146298
773.498	0.0147050
773.576	0.0146684
773.655	0.0144950
773.733	0.0146582
773.811	0.0146691
773.889	0.0147058
773.967	0.0147273
774.045	0.0146118
774.123	0.0148946
774.201	0.0147025
774.280	0.0148145
774.358	0.0148821
774.436	0.0148933
774.514	0.0148845
774.592	0.0148653
774.670	0.0149522
774.748	0.0150346
774.826	0.0150131
774.905	0.0149107
774.983	0.0147849
775.061	0.0149755
775.139	0.0149018
775.217	0.0148069
775.295	0.0147745
775.373	0.0147291
775.451	0.0146690
775.530	0.0146062
775.608	0.0145953
775.686	0.0144852
775.764	0.0145244
775.842	0.0145023
775.920	0.0143914
775.998	0.0145124
776.076	0.0145716
776.155	0.0144334
776.233	0.0144898
776.311	0.0147587
776.389	0.0146373
776.467	0.0146853
776.545	0.0146566
776.623	0.0147857
776.701	0.0147961
776.780	0.0148671
776.858	0.0149436
776.936	0.0150194
777.014	0.0149846
777.092	0.0150153
777.170	0.0150046
777.248	0.0149472
777.326	0.0150050
777.405	0.0149134
777.483	0.0148853
777.561	0.0147981
777.639	0.0147145
777.717	0.0145921
777.795	0.0146970
777.873	0.0147041
777.951	0.0146525
778.030	0.0146338
778.108	0.0144449
778.186	0.0145135
778.264	0.0144933
778.342	0.0144695
778.420	0.0143925
778.498	0.0142735
778.576	0.0143412
778.655	0.0144722
778.733	0.0144318
778.811	0.0144017
778.889	0.0143365
778.967	0.0144943
779.045	0.0145010
779.123	0.0145327
779.201	0.0146017
779.280	0.0144057
779.358	0.0146496
779.436	0.0146449
779.514	0.0146710
779.592	0.0146207
779.670	0.0148423
779.748	0.0146908
779.826	0.0148334
779.905	0.0149521
779.983	0.0147606
780.061	0.0147351
780.139	0.0146161
780.217	0.0145573
780.295	0.0146654
780.373	0.0145790
780.451	0.0146661
780.530	0.0144743
780.608	0.0144819
780.686	0.0145380
780.764	0.0143604
780.842	0.0143446
780.920	0.0145180
780.998	0.0145264
781.076	0.0144439
781.155	0.0144962
781.233	0.0145401
781.311	0.0145946
781.389	0.0146248
781.467	0.0146481
781.545	0.0146786
781.623	0.0146641
781.701	0.0147736
781.780	0.0147852
781.858	0.0149018
781.936	0.0149491
782.014	0.0149352
782.092	0.0148560
782.170	0.0149515
782.248	0.0149645
782.326	0.0148572
782.405	0.0149186
782.483	0.0149956
782.561	0.0148315
782.639	0.0148786
782.717	0.0149784
782.795	0.0148275
782.873	0.0150375
782.951	0.0148132
783.030	0.0147453
783.108	0.0147447
783.186	0.0146333
783.264	0.0146300
783.342	0.0145885
783.420	0.0144942
783.498	0.0145164
783.576	0.0145263
783.655	0.0145076
783.733	0.0142799
783.811	0.0143509
783.889	0.0142836
783.967	0.0143556
784.045	0.0142609
784.123	0.0142123
784.201	0.0144331
784.280	0.0142532
784.358	0.0143644
784.436	0.0144598
784.514	0.0144066
784.592	0.0145376
784.670	0.0147031
784.748	0.0146104
784.826	0.0147085
784.905	0.0149633
784.983	0.0148750
785.061	0.0146962
785.139	0.0149690
785.217	0.0149239
785.295	0.0147269
785.373	0.0148292
785.451	0.0149265
785.530	0.0146841
785.608	0.0147806
785.686	0.0147800
785.764	0.0145044
785.842	0.0144995
785.920	0.0145697
785.998	0.0146533
786.076	0.0144582
786.155	0.0144009
786.233	0.0143045
786.311	0.0142023
786.389	0.0142855
786.467	0.0143368
786.545	0.0142250
786.623	0.0143407
786.701	0.0141460
786.780	0.0142006
786.858	0.0143433
786.936	0.0141108
787.014	0.0142338
787.092	0.0143607
787.170	0.0143222
787.248	0.0144501
787.326	0.0143880
787.405	0.0144528
787.483	0.0145122
787.561	0.0144678
787.639	0.0146305
787.717	0.0145009
787.795	0.0146124
787.873	0.0147077
787.951	0.0147545
788.030	0.0147424
788.108	0.0147281
788.186	0.0146463
788.264	0.0148051
788.342	0.0149575
788.420	0.0147952
788.498	0.0147095
788.576	0.0147031
788.655	0.0149332
788.733	0.0148214
788.811	0.0149135
788.889	0.0146662
788.967	0.0146470
789.045	0.0147581
789.123	0.0147598
789.201	0.0147432
789.280	0.0147911
789.358	0.0147366
789.436	0.0148595
789.514	0.0149664
789.592	0.0149460
789.670	0.0149321
789.748	0.0150701
789.826	0.0148753
789.905	0.0149560
789.983	0.0148580
790.061	0.0148032
790.139	0.0147703
790.217	0.0148933
790.295	0.0147128
790.373	0.0146305
790.451	0.0147396
790.530	0.0149198
790.608	0.0147920
790.686	0.0147595
790.764	0.0146622
790.842	0.0145308
790.920	0.0146150
790.998	0.0145450
791.076	0.0144980
791.155	0.0145201
791.233	0.0145179
791.311	0.0144972
791.389	0.0145088
791.467	0.0143733
791.545	0.0143485
791.623	0.0144160
791.701	0.0145171
791.780	0.0146507
791.858	0.0145880
791.936	0.0146203
792.014	0.0145837
792.092	0.0145388
792.170	0.0146684
792.248	0.0147952
792.326	0.0148165
792.405	0.0148092
792.483	0.0147397
792.561	0.0147870
792.639	0.0148516
792.717	0.0145939
792.795	0.0146677
792.873	0.0145869
792.951	0.0148027
793.030	0.0147261
793.108	0.0146490
793.186	0.0146540
793.264	0.0147679
793.342	0.0146014
793.420	0.0145818
793.498	0.0146166
793.576	0.0143649
793.655	0.0144254
793.733	0.0143252
793.811	0.0144510
793.889	0.0142717
793.967	0.0142015
794.045	0.0143432
794.123	0.0141161
794.201	0.0141054
794.280	0.0142889
794.358	0.0141798
794.436	0.0141392
794.514	0.0143150
794.592	0.0142619
794.670	0.0141522
794.748	0.0142939
794.826	0.0142642
794.905	0.0142755
794.983	0.0143847
795.061	0.0143200
795.139	0.0143757
795.217	0.0145129
795.295	0.0144465
795.373	0.0144751
795.451	0.0145199
795.530	0.0144587
795.608	0.0144690
795.686	0.0146526
795.764	0.0145740
795.842	0.0147494
795.920	0.0148214
795.998	0.0147591
796.076	0.0146679
796.155	0.0148056
796.233	0.0149236
796.311	0.0149540
796.389	0.0148314
796.467	0.0150356
796.545	0.0148930
796.623	0.0149586
796.701	0.0148626
796.780	0.0148395
796.858	0.0147304
796.936	0.0148111
797.014	0.0147837
797.092	0.0147694
797.170	0.0148145
797.248	0.0149057
797.326	0.0148164
797.405	0.0146954
797.483	0.0147360
797.561	0.0146148
797.639	0.0146224
797.717	0.0147024
797.795	0.0144857
797.873	0.0145267
797.951	0.0147384
798.030	0.0144839
798.108	0.0144547
798.186	0.0144875
798.264	0.0145638
798.342	0.0145343
798.420	0.0143896
798.498	0.0147303
798.576	0.0144976
798.655	0.0145202
798.733	0.0146004
798.811	0.0146273
798.889	0.0146317
798.967	0.0147073
799.045	0.0145729
799.123	0.0145428
799.201	0.0144896
799.280	0.0144998
799.358	0.0146150
799.436	0.0146748
799.514	0.0144567
799.592	0.0145071
799.670	0.0145819
799.748	0.0145753
799.826	0.0145786
799.905	0.0147250
799.983	0.0146186
800.061	0.0147872
800.139	0.0146721
800.217	0.0147971
800.295	0.0148978
800.373	0.0148942
800.451	0.0148055
800.530	0.0148792
800.608	0.0150143
800.686	0.0150315
800.764	0.0149412
800.842	0.0149622
800.920	0.0147829
800.998	0.0148328
801.076	0.0148497
801.155	0.0147388
801.233	0.0147713
801.311	0.0148064
801.389	0.0148124
801.467	0.0146986
801.545	0.0147064
801.623	0.0146332
801.701	0.0146905
801.780	0.0145302
801.858	0.0145212
801.936	0.0144964
802.014	0.0146542
802.092	0.0145934
802.170	0.0145511
802.248	0.0144842
802.326	0.0144374
802.405	0.0145232
802.483	0.0143719
802.561	0.0144863
802.639	0.0144318
802.717	0.0145713
802.795	0.0143575
802.873	0.0143127
802.951	0.0144597
803.030	0.0145867
803.108	0.0143781
803.186	0.0144841
803.264	0.0145425
803.342	0.0143880
803.420	0.0143784
803.498	0.0144465
803.576	0.0144334
803.655	0.0143645
803.733	0.0145011
803.811	0.0145345
803.889	0.0144957
803.967	0.0144489
804.045	0.0144837
804.123	0.0144968
804.201	0.0144997
804.280	0.0143510
804.358	0.0144908
804.436	0.0142946
804.514	0.0145816
804.592	0.0145485
804.670	0.0144724
804.748	0.0144170
804.826	0.0146349
804.905	0.0145905
804.983	0.0146792
805.061	0.0147697
805.139	0.0147153
805.217	0.0147852
805.295	0.0147800
805.373	0.0148820
805.451	0.0149454
805.530	0.0149307
805.608	0.0149789
805.686	0.0149284
805.764	0.0148087
805.842	0.0148780
805.920	0.0149369
805.998	0.0148990
806.076	0.0146926
806.155	0.0146613
806.233	0.0146890
806.311	0.0145794
806.389	0.0146939
806.467	0.0147592
806.545	0.0147017
806.623	0.0146133
806.701	0.0144888
806.780	0.0145289
806.858	0.0144981
806.936	0.0144875
807.014	0.0144281
807.092	0.0144138
807.170	0.0145441
807.248	0.0144984
807.326	0.0144237
807.405	0.0144460
807.483	0.0143603
807.561	0.0144584
807.639	0.0144874
807.717	0.0143423
807.795	0.0142931
807.873	0.0143653
807.951	0.0143797
808.030	0.0143610
808.108	0.0142726
808.186	0.0144047
808.264	0.0145541
808.342	0.0145595
808.420	0.0144924
808.498	0.0144939
808.576	0.0146169
808.655	0.0147691
808.733	0.0146194
808.811	0.0147522
808.889	0.0145943
808.967	0.0147561
809.045	0.0147815
809.123	0.0147482
809.201	0.0147678
809.280	0.0147150
809.358	0.0146424
809.436	0.0147250
809.514	0.0147639
809.592	0.0145895
809.670	0.0146396
809.748	0.0146133
809.826	0.0145945
809.905	0.0146178
809.983	0.0145492
810.061	0.0146867
810.139	0.0147711
810.217	0.0146014
810.295	0.0146987
810.373	0.0147375
810.451	0.0147937
810.530	0.0148067
810.608	0.0146795
810.686	0.0148109
810.764	0.0147876
810.842	0.0147710
810.920	0.0147132
810.998	0.0147847
811.076	0.0147425
811.155	0.0147208
811.233	0.0146948
811.311	0.0146190
811.389	0.0148322
811.467	0.0149183
811.545	0.0147326
811.623	0.0147260
811.701	0.0146582
811.780	0.0146556
811.858	0.0146775
811.936	0.0147494
812.014	0.0145918
812.092	0.0147562
812.170	0.0146702
812.248	0.0148016
812.326	0.0146905
812.405	0.0144747
812.483	0.0146340
812.561	0.0146689
812.639	0.0145649
812.717	0.0145260
812.795	0.0145934
812.873	0.0146114
812.951	0.0145583
813.030	0.0144547
813.108	0.0146349
813.186	0.0146498
813.264	0.0146528
813.342	0.0147541
813.420	0.0147050
813.498	0.0146449
813.576	0.0148695
813.655	0.0148296
813.733	0.0147413
813.811	0.0149490
813.889	0.0149054
813.967	0.0147998
814.045	0.0148247
814.123	0.0148598
814.201	0.0148122
814.280	0.0147798
814.358	0.0148518
814.436	0.0148248
814.514	0.0147205
814.592	0.0146049
814.670	0.0146023
814.748	0.0145931
814.826	0.0146185
814.905	0.0147002
814.983	0.0144398
815.061	0.0146584
815.139	0.0146039
815.217	0.0146431
815.295	0.0146965
815.373	0.0146364
815.451	0.0146479
815.530	0.0147810
815.608	0.0147525
815.686	0.0146886
815.764	0.0146690
815.842	0.0146780
815.920	0.0147289
815.998	0.0146992
816.076	0.0146564
816.155	0.0146552
816.233	0.0147171
816.311	0.0146477
816.389	0.0147670
816.467	0.0148045
816.545	0.0147187
816.623	0.0147080
816.701	0.0147808
816.780	0.0148045
816.858	0.0147803
816.936	0.0148814
817.014	0.0146744
817.092	0.0147874
817.170	0.0147916
817.248	0.0148105
817.326	0.0147018
817.405	0.0146782
817.483	0.0146344
817.561	0.0146046
817.639	0.0147002
817.717	0.0146671
817.795	0.0145473
817.873	0.0145258
817.951	0.0146066
818.030	0.0145090
818.108	0.0145921
818.186	0.0145282
818.264	0.0145659
818.342	0.0145535
818.420	0.0146305
818.498	0.0146587
818.576	0.0145592
818.655	0.0145212
818.733	0.0146256
818.811	0.0146131
818.889	0.0146011
818.967	0.0145536
819.045	0.0146092
819.123	0.0144940
819.201	0.0146659
819.280	0.0146311
819.358	0.0146881
819.436	0.0147420
819.514	0.0145156
819.592	0.0143693
819.670	0.0144798
819.748	0.0145546
819.826	0.0145031
819.905	0.0144438
819.983	0.0144051
820.061	0.0144859
820.139	0.0144552
820.217	0.0143955
820.295	0.0143918
820.373	0.0145198
820.451	0.0144404
820.530	0.0142783
820.608	0.0144302
820.686	0.0144055
820.764	0.0143548
820.842	0.0142991
820.920	0.0144392
820.998	0.0144722
821.076	0.0144711
821.155	0.0144102
821.233	0.0145902
821.311	0.0145281
821.389	0.0143812
821.467	0.0145488
821.545	0.0145520
821.623	0.0147436
821.701	0.0146119
821.780	0.0146860
821.858	0.0146895
821.936	0.0146555
822.014	0.0148188
822.092	0.0145848
822.170	0.0147489
822.248	0.0147382
822.326	0.0146796
822.405	0.0146469
822.483	0.0147059
822.561	0.0147088
822.639	0.0146720
822.717	0.0147170
822.795	0.0146149
822.873	0.0146629
822.951	0.0147005
823.030	0.0146321
823.108	0.0146047
823.186	0.0146381
823.264	0.0145066
823.342	0.0145261
823.420	0.0145435
823.498	0.0144872
823.576	0.0144809
823.655	0.0146454
823.733	0.0146059
823.811	0.0146786
823.889	0.0146951
823.967	0.0146437
824.045	0.0146626
824.123	0.0145863
824.201	0.0146001
824.280	0.0147615
824.358	0.0145264
824.436	0.0146654
824.514	0.0146396
824.592	0.0146718
824.670	0.0146591
824.748	0.0145406
824.826	0.0146064
824.905	0.0145798
824.983	0.0144828
825.061	0.0146029
825.139	0.0142952
825.217	0.0145483
825.295	0.0143959
825.373	0.0144172
825.451	0.0143983
825.530	0.0146361
825.608	0.0144316
825.686	0.0144738
825.764	0.0143484
825.842	0.0145396
825.920	0.0144156
825.998	0.0143227
826.076	0.0143364
826.155	0.0143346
826.233	0.0143922
826.311	0.0143163
826.389	0.0142348
826.467	0.0143263
826.545	0.0144503
826.623	0.0143999
826.701	0.0142309
826.780	0.0143331
826.858	0.0142582
826.936	0.0143800
827.014	0.0144189
827.092	0.0143671
827.170	0.0146117
827.248	0.0145624
827.326	0.0144699
827.405	0.0143264
827.483	0.0144869
827.561	0.0146427
827.639	0.0144475
827.717	0.0145948
827.795	0.0145208
827.873	0.0145458
827.951	0.0144632
828.030	0.0144671
828.108	0.0144154
828.186	0.0145070
828.264	0.0145480
828.342	0.0146175
828.420	0.0145300
828.498	0.0144904
828.576	0.0145241
828.655	0.0145853
828.733	0.0145543
828.811	0.0144654
828.889	0.0145767
828.967	0.0144675
829.045	0.0144764
829.123	0.0145195
829.201	0.0146561
829.280	0.0145803
829.358	0.0145903
829.436	0.0144482
829.514	0.0145795
829.592	0.0145931
829.670	0.0145880
829.748	0.0145592
829.826	0.0146247
829.905	0.0146806
829.983	0.0145953
830.061	0.0146292
830.139	0.0146593
830.217	0.0147128
830.295	0.0146107
830.373	0.0147330
830.451	0.0148734
830.530	0.0147553
830.608	0.0148428
830.686	0.0148165
830.764	0.0148604
830.842	0.0147077
830.920	0.0146733
830.998	0.0147957
831.076	0.0148463
831.155	0.0148116
831.233	0.0147144
831.311	0.0147726
831.389	0.0146306
831.467	0.0145396
831.545	0.0146475
831.623	0.0145819
831.701	0.0145324
831.780	0.0146680
831.858	0.0146840
831.936	0.0147343
832.014	0.0147554
832.092	0.0148327
832.170	0.0146977
832.248	0.0147350
832.326	0.0147897
832.405	0.0148451
832.483	0.0149347
832.561	0.0150085
832.639	0.0149802
832.717	0.0148242
832.795	0.0148095
832.873	0.0149673
832.951	0.0148243
833.030	0.0147222
833.108	0.0148398
833.186	0.0148726
833.264	0.0148885
833.342	0.0147637
833.420	0.0147540
833.498	0.0146458
833.576	0.0146099
833.655	0.0146519
833.733	0.0145065
833.811	0.0145894
833.889	0.0146687
833.967	0.0145873
834.045	0.0147795
834.123	0.0146872
834.201	0.0146460
834.280	0.0146387
834.358	0.0146355
834.436	0.0146079
834.514	0.0145151
834.592	0.0145460
834.670	0.0144738
834.748	0.0146918
834.826	0.0146284
834.905	0.0145080
834.983	0.0144719
835.061	0.0145521
835.139	0.0145213
835.217	0.0144209
835.295	0.0144712
835.373	0.0144254
835.451	0.0145374
835.530	0.0145438
835.608	0.0147427
835.686	0.0145638
835.764	0.0145493
835.842	0.0145654
835.920	0.0145319
835.998	0.0146315
836.076	0.0146264
836.155	0.0145756
836.233	0.0145197
836.311	0.0146100
836.389	0.0145869
836.467	0.0145523
836.545	0.0146209
836.623	0.0145106
836.701	0.0145973
836.780	0.0147060
836.858	0.0144847
836.936	0.0144759
837.014	0.0145920
837.092	0.0146384
837.170	0.0146835
837.248	0.0146889
837.326	0.0147090
837.405	0.0146015
837.483	0.0147190
837.561	0.0146848
837.639	0.0146582
837.717	0.0147428
837.795	0.0149113
837.873	0.0146863
837.951	0.0146577
838.030	0.0145468
838.108	0.0147360
838.186	0.0147392
838.264	0.0146471
838.342	0.0147353
838.420	0.0146942
838.498	0.0145992
838.576	0.0145847
838.655	0.0145396
838.733	0.0146436
838.811	0.0146445
838.889	0.0145471
838.967	0.0145921
839.045	0.0146589
839.123	0.0145170
839.201	0.0145982
839.280	0.0146182
839.358	0.0146342
839.436	0.0145898
839.514	0.0145992
839.592	0.0146078
839.670	0.0145393
839.748	0.0144865
839.826	0.0145285
839.905	0.0145459
839.983	0.0145494
840.061	0.0144261
840.139	0.0145669
840.217	0.0145587
840.295	0.0146674
840.373	0.0147182
840.451	0.0146778
840.530	0.0145240
840.608	0.0147071
840.686	0.0147607
840.764	0.0148112
840.842	0.0146929
840.920	0.0146364
840.998	0.0147362
841.076	0.0147363
841.155	0.0146604
841.233	0.0145945
841.311	0.0146218
841.389	0.0146550
841.467	0.0144179
841.545	0.0144598
841.623	0.0144508
841.701	0.0144854
841.780	0.0144579
841.858	0.0145081
841.936	0.0144452
842.014	0.0144284
842.092	0.0145620
842.170	0.0145661
842.248	0.0144892
842.326	0.0145293
842.405	0.0145836
842.483	0.0144991
842.561	0.0145344
842.639	0.0147287
842.717	0.0145279
842.795	0.0145702
842.873	0.0146881
842.951	0.0146158
843.030	0.0146282
843.108	0.0145229
843.186	0.0145655
843.264	0.0145952
843.342	0.0145316
843.420	0.0144585
843.498	0.0144318
843.576	0.0144980
843.655	0.0144117
843.733	0.0142794
843.811	0.0145015
843.889	0.0143629
843.967	0.0143961
844.045	0.0144950
844.123	0.0143516
844.201	0.0144238
844.280	0.0145292
844.358	0.0145278
844.436	0.0146096
844.514	0.0146022
844.592	0.0145454
844.670	0.0146339
844.748	0.0147465
844.826	0.0147343
844.905	0.0146531
844.983	0.0147401
845.061	0.0148212
845.139	0.0147210
845.217	0.0147604
845.295	0.0146408
845.373	0.0147337
845.451	0.0148138
845.530	0.0147948
845.608	0.0147728
845.686	0.0147426
845.764	0.0149134
845.842	0.0147282
845.920	0.0147341
845.998	0.0147356
846.076	0.0147810
846.155	0.0146500
846.233	0.0145650
846.311	0.0145988
846.389	0.0146324
846.467	0.0146689
846.545	0.0145496
846.623	0.0146359
846.701	0.0146544
846.780	0.0145883
846.858	0.0145490
846.936	0.0145107
847.014	0.0145393
847.092	0.0146593
847.170	0.0145478
847.248	0.0144289
847.326	0.0144327
847.405	0.0146736
847.483	0.0146444
847.561	0.0146696
847.639	0.0144442
847.717	0.0145611
847.795	0.0145724
847.873	0.0145725
847.951	0.0145348
848.030	0.0143989
848.108	0.0145490
848.186	0.0144727
848.264	0.0144264
848.342	0.0144594
848.420	0.0145143
848.498	0.0145023
848.576	0.0144617
848.655	0.0144372
848.733	0.0143787
848.811	0.0144881
848.889	0.0144819
848.967	0.0144900
849.045	0.0143515
849.123	0.0143501
849.201	0.0144444
849.280	0.0144167
849.358	0.0145676
849.436	0.0145546
849.514	0.0146514
849.592	0.0144772
849.670	0.0146606
849.748	0.0144916
849.826	0.0145712
849.905	0.0145289
849.983	0.0144331
850.061	0.0146269
850.139	0.0146085
850.217	0.0146044
850.295	0.0145942
850.373	0.0146553
850.451	0.0146142
850.530	0.0146217
850.608	0.0146021
850.686	0.0146407
850.764	0.0147111
850.842	0.0145378
850.920	0.0146333
850.998	0.0147826
851.076	0.0147345
851.155	0.0146812
851.233	0.0146651
851.311	0.0147642
851.389	0.0147160
851.467	0.0146490
851.545	0.0147320
851.623	0.0147455
851.701	0.0146046
851.780	0.0145288
851.858	0.0146498
851.936	0.0146317
852.014	0.0146804
852.092	0.0146309
852.170	0.0147015
852.248	0.0146178
852.326	0.0146409
852.405	0.0146723
852.483	0.0145469
852.561	0.0146705
852.639	0.0147012
852.717	0.0145948
852.795	0.0146133
852.873	0.0147079
852.951	0.0147406
853.030	0.0146652
853.108	0.0146960
853.186	0.0147368
853.264	0.0148167
853.342	0.0147527
853.420	0.0147044
853.498	0.0146796
853.576	0.0147697
853.655	0.0147533
853.733	0.0146005
853.811	0.0147113
853.889	0.0147910
853.967	0.0147211
854.045	0.0147374
854.123	0.0147285
854.201	0.0147990
854.280	0.0145945
854.358	0.0145860
854.436	0.0147588
854.514	0.0145724
854.592	0.0146796
854.670	0.0145949
854.748	0.0145628
854.826	0.0146723
854.905	0.0146572
854.983	0.0146457
855.061	0.0145210
855.139	0.0143658
855.217	0.0145343
855.295	0.0145765
855.373	0.0146627
855.451	0.0146255
855.530	0.0144397
855.608	0.0147837
855.686	0.0146783
855.764	0.0146245
855.842	0.0145371
855.920	0.0145974
855.998	0.0145560
856.076	0.0146627
856.155	0.0146043
856.233	0.0146747
856.311	0.0148210
856.389	0.0146724
856.467	0.0146951
856.545	0.0145406
856.623	0.0145970
856.701	0.0147085
856.780	0.0146221
856.858	0.0145679
856.936	0.0146118
857.014	0.0145713
857.092	0.0145735
857.170	0.0145788
857.248	0.0145518
857.326	0.0145683
857.405	0.0144454
857.483	0.0146088
857.561	0.0146236
857.639	0.0146518
857.717	0.0143872
857.795	0.0146388
857.873	0.0145280
857.951	0.0145685
858.030	0.0146159
858.108	0.0146902
858.186	0.0147575
858.264	0.0146582
858.342	0.0147041
858.420	0.0147502
858.498	0.0147466
858.576	0.0145882
858.655	0.0146152
858.733	0.0145602
858.811	0.0146143
858.889	0.0145459
858.967	0.0145169
859.045	0.0145828
859.123	0.0145293
859.201	0.0145785
859.280	0.0144671
859.358	0.0145771
859.436	0.0144590
859.514	0.0145491
859.592	0.0145421
859.670	0.0145633
859.748	0.0145936
859.826	0.0146589
859.905	0.0147366
859.983	0.0146500
860.061	0.0145039
860.139	0.0144377
860.217	0.0145981
860.295	0.0145423
860.373	0.0146258
860.451	0.0145006
860.530	0.0143986
860.608	0.0145221
860.686	0.0144838
860.764	0.0144120
860.842	0.0145144
860.920	0.0145599
860.998	0.0144991
861.076	0.0143927
861.155	0.0145088
861.233	0.0145142
861.311	0.0144853
861.389	0.0144362
861.467	0.0145152
861.545	0.0146722
861.623	0.0147272
861.701	0.0146790
861.780	0.0146548
861.858	0.0145518
861.936	0.0146031
862.014	0.0145715
862.092	0.0145743
862.170	0.0145608
862.248	0.0146217
862.326	0.0147508
862.405	0.0147953
862.483	0.0146339
862.561	0.0146049
862.639	0.0145297
862.717	0.0146671
862.795	0.0147728
862.873	0.0146994
862.951	0.0146978
863.030	0.0146507
863.108	0.0145669
863.186	0.0146535
863.264	0.0147288
863.342	0.0146470
863.420	0.0146268
863.498	0.0145904
863.576	0.0147549
863.655	0.0145053
863.733	0.0144918
863.811	0.0146575
863.889	0.0144517
863.967	0.0144034
864.045	0.0145780
864.123	0.0145412
864.201	0.0143882
864.280	0.0145574
864.358	0.0145808
864.436	0.0144032
864.514	0.0145946
864.592	0.0146648
864.670	0.0146196
864.748	0.0145001
864.826	0.0144973
864.905	0.0145035
864.983	0.0144803
865.061	0.0145894
865.139	0.0145367
865.217	0.0144197
865.295	0.0145333
865.373	0.0145911
865.451	0.0145961
865.530	0.0143340
865.608	0.0144308
865.686	0.0144485
865.764	0.0145303
865.842	0.0144179
865.920	0.0143654
865.998	0.0143642
866.076	0.0145064
866.155	0.0146033
866.233	0.0146490
866.311	0.0144838
866.389	0.0144646
866.467	0.0145882
866.545	0.0145826
866.623	0.0146457
866.701	0.0145489
866.780	0.0144798
866.858	0.0145261
866.936	0.0147633
867.014	0.0146278
867.092	0.0147720
867.170	0.0147814
867.248	0.0146873
867.326	0.0146815
867.405	0.0146508
867.483	0.0146569
867.561	0.0147430
867.639	0.0146687
867.717	0.0147201
867.795	0.0146358
867.873	0.0145885
867.951	0.0146110
868.030	0.0146071
868.108	0.0147044
868.186	0.0146432
868.264	0.0146690
868.342	0.0146236
868.420	0.0145235
868.498	0.0145762
868.576	0.0146396
868.655	0.0144449
868.733	0.0144780
868.811	0.0145437
868.889	0.0143620
868.967	0.0144136
869.045	0.0144334
869.123	0.0143266
869.201	0.0143127
869.280	0.0142661
869.358	0.0142522
869.436	0.0143257
869.514	0.0143308
869.592	0.0143020
869.670	0.0144125
869.748	0.0143559
869.826	0.0144133
869.905	0.0144971
869.983	0.0146054
870.061	0.0145087
870.139	0.0146738
870.217	0.0144901
870.295	0.0144406
870.373	0.0145160
870.451	0.0146510
870.530	0.0144716
870.608	0.0144870
870.686	0.0143522
870.764	0.0144509
870.842	0.0146225
870.920	0.0146152
870.998	0.0144048
871.076	0.0146685
871.155	0.0147240
871.233	0.0144598
871.311	0.0147242
871.389	0.0146954
871.467	0.0145096
871.545	0.0146474
871.623	0.0146690
871.701	0.0147440
871.780	0.0146669
871.858	0.0146658
871.936	0.0145892
872.014	0.0146857
872.092	0.0147079
872.170	0.0147314
872.248	0.0147357
872.326	0.0146282
872.405	0.0145451
872.483	0.0145744
872.561	0.0145777
872.639	0.0146843
872.717	0.0146186
872.795	0.0146996
872.873	0.0145706
872.951	0.0146600
873.030	0.0146150
873.108	0.0147410
873.186	0.0147748
873.264	0.0147894
873.342	0.0146046
873.420	0.0146804
873.498	0.0146996
873.576	0.0146449
873.655	0.0145719
873.733	0.0144792
873.811	0.0144836
873.889	0.0144479
873.967	0.0144851
874.045	0.0144765
874.123	0.0145476
874.201	0.0145812
874.280	0.0144981
874.358	0.0145291
874.436	0.0145715
874.514	0.0145506
874.592	0.0147915
874.670	0.0147083
874.748	0.0145992
874.826	0.0147327
874.905	0.0147373
874.983	0.0146492
875.061	0.0147240
875.139	0.0147563
875.217	0.0146964
875.295	0.0145926
875.373	0.0147140
875.451	0.0146973
875.530	0.0146300
875.608	0.0147427
875.686	0.0147392
875.764	0.0145676
875.842	0.0146084
875.920	0.0145999
875.998	0.0145676
876.076	0.0146764
876.155	0.0146579
876.233	0.0147158
876.311	0.0145938
876.389	0.0145866
876.467	0.0146924
876.545	0.0146165
876.623	0.0146304
876.701	0.0147498
876.780	0.0146136
876.858	0.0147002
876.936	0.0147443
877.014	0.0148013
877.092	0.0145596
877.170	0.0146688
877.248	0.0147739
877.326	0.0146920
877.405	0.0148168
877.483	0.0146635
877.561	0.0147550
877.639	0.0146207
877.717	0.0146814
877.795	0.0145953
877.873	0.0146692
877.951	0.0147453
878.030	0.0146708
878.108	0.0145639
878.186	0.0148396
878.264	0.0148254
878.342	0.0146564
878.420	0.0147055
878.498	0.0146190
878.576	0.0147208
878.655	0.0148399
878.733	0.0147073
878.811	0.0146423
878.889	0.0146370
878.967	0.0147401
879.045	0.0146408
879.123	0.0146873
879.201	0.0147546
879.280	0.0147025
879.358	0.0146640
879.436	0.0148489
879.514	0.0147440
879.592	0.0146903
879.670	0.0148369
879.748	0.0148382
879.826	0.0147935
879.905	0.0148780
879.983	0.0149250
880.061	0.0148948
880.139	0.0150957
880.217	0.0149582
880.295	0.0148648
880.373	0.0148875
880.451	0.0148132
880.530	0.0146803
880.608	0.0147044
880.686	0.0146201
880.764	0.0146078
880.842	0.0145658
880.920	0.0145497
880.998	0.0144980
881.076	0.0144692
881.155	0.0145457
881.233	0.0145747
881.311	0.0144622
881.389	0.0145551
881.467	0.0145235
881.545	0.0146043
881.623	0.0144685
881.701	0.0146160
881.780	0.0145697
881.858	0.0145041
881.936	0.0146247
882.014	0.0147033
882.092	0.0145436
882.170	0.0145093
882.248	0.0143449
882.326	0.0144737
882.405	0.0145244
882.483	0.0145733
882.561	0.0144959
882.639	0.0146344
882.717	0.0145501
882.795	0.0147790
882.873	0.0146178
882.951	0.0146588
883.030	0.0145565
883.108	0.0145779
883.186	0.0145496
883.264	0.0146544
883.342	0.0145640
883.420	0.0144608
883.498	0.0145592
883.576	0.0144099
883.655	0.0143144
883.733	0.0143739
883.811	0.0143506
883.889	0.0144482
883.967	0.0144472
884.045	0.0143791
884.123	0.0143818
884.201	0.0143984
884.280	0.0144315
884.358	0.0143410
884.436	0.0144047
884.514	0.0144430
884.592	0.0144093
884.670	0.0143004
884.748	0.0144064
884.826	0.0144917
884.905	0.0144775
884.983	0.0144180
885.061	0.0144455
885.139	0.0145036
885.217	0.0144985
885.295	0.0145119
885.373	0.0146355
885.451	0.0147151
885.530	0.0144419
885.608	0.0144559
885.686	0.0145882
885.764	0.0144760
885.842	0.0144716
885.920	0.0144890
885.998	0.0144428
886.076	0.0145793
886.155	0.0144905
886.233	0.0145130
886.311	0.0145432
886.389	0.0145137
886.467	0.0143358
886.545	0.0143513
886.623	0.0144964
886.701	0.0145186
886.780	0.0145476
886.858	0.0145398
886.936	0.0146106
887.014	0.0145821
887.092	0.0146706
887.170	0.0148369
887.248	0.0147452
887.326	0.0146741
887.405	0.0148553
887.483	0.0148701
887.561	0.0147369
887.639	0.0147454
887.717	0.0145739
887.795	0.0146606
887.873	0.0146582
887.951	0.0146749
888.030	0.0146304
888.108	0.0145749
888.186	0.0146191
888.264	0.0144808
888.342	0.0143354
888.420	0.0145587
888.498	0.0146354
888.576	0.0145040
888.655	0.0145686
888.733	0.0146032
888.811	0.0144448
888.889	0.0143620
888.967	0.0144525
889.045	0.0145530
889.123	0.0144360
889.201	0.0144194
889.280	0.0145883
889.358	0.0145097
889.436	0.0143997
889.514	0.0143112
889.592	0.0145018
889.670	0.0145432
889.748	0.0146315
889.826	0.0145992
889.905	0.0144874
889.983	0.0146378
890.061	0.0145540
890.139	0.0145840
890.217	0.0146099
890.295	0.0146665
890.373	0.0146977
890.451	0.0147153
890.530	0.0146211
890.608	0.0145940
890.686	0.0145621
890.764	0.0145618
890.842	0.0145740
890.920	0.0145117
890.998	0.0143630
891.076	0.0144376
891.155	0.0144754
891.233	0.0145568
891.311	0.0145367
891.389	0.0146271
891.467	0.0146097
891.545	0.0144939
891.623	0.0147070
891.701	0.0145842
891.780	0.0144855
891.858	0.0146988
891.936	0.0144833
892.014	0.0144740
892.092	0.0146191
892.170	0.0146532
892.248	0.0144779
892.326	0.0144611
892.405	0.0145239
892.483	0.0145694
892.561	0.0145956
892.639	0.0146284
892.717	0.0145233
892.795	0.0144919
892.873	0.0144835
892.951	0.0144746
893.030	0.0145444
893.108	0.0145575
893.186	0.0145619
893.264	0.0145319
893.342	0.0145423
893.420	0.0144249
893.498	0.0145599
893.576	0.0143996
893.655	0.0145451
893.733	0.0144394
893.811	0.0146031
893.889	0.0145901
893.967	0.0145742
894.045	0.0145947
894.123	0.0146091
894.201	0.0145945
894.280	0.0146777
894.358	0.0147191
894.436	0.0147263
894.514	0.0145306
894.592	0.0145574
894.670	0.0146794
894.748	0.0146706
894.826	0.0144276
894.905	0.0145633
894.983	0.0144898
895.061	0.0143603
895.139	0.0145759
895.217	0.0145312
895.295	0.0145155
895.373	0.0144992
895.451	0.0144285
895.530	0.0143999
895.608	0.0145791
895.686	0.0145766
895.764	0.0145657
895.842	0.0146735
895.920	0.0147207
895.998	0.0145623
896.076	0.0145318
896.155	0.0145900
896.233	0.0144695
896.311	0.0145835
896.389	0.0145697
896.467	0.0145706
896.545	0.0145484
896.623	0.0144746
896.701	0.0146111
896.780	0.0145286
896.858	0.0145428
896.936	0.0144662
897.014	0.0146682
897.092	0.0145137
897.170	0.0146385
897.248	0.0146991
897.326	0.0147059
897.405	0.0146406
897.483	0.0145913
897.561	0.0145660
897.639	0.0145759
897.717	0.0146996
897.795	0.0147794
897.873	0.0146394
897.951	0.0145867
898.030	0.0146381
898.108	0.0145969
898.186	0.0146931
898.264	0.0144737
898.342	0.0145342
898.420	0.0146432
898.498	0.0144551
898.576	0.0145274
898.655	0.0145834
898.733	0.0145839
898.811	0.0146577
898.889	0.0146544
898.967	0.0145621
899.045	0.0147152
899.123	0.0147471
899.201	0.0146883
899.280	0.0147620
899.358	0.0146693
899.436	0.0145945
899.514	0.0146462
899.592	0.0147041
899.670	0.0145974
899.748	0.0146099
899.826	0.0147208
899.905	0.0147054
899.983	0.0146606
900.061	0.0146513
900.139	0.0146250
900.217	0.0146113
900.295	0.0146692
900.373	0.0146088
900.451	0.0146024
900.530	0.0146426
900.608	0.0146692
900.686	0.0147517
900.764	0.0147778
900.842	0.0147238
900.920	0.0146661
900.998	0.0146846
901.076	0.0147157
901.155	0.0147515
901.233	0.0145939
901.311	0.0146608
901.389	0.0147308
901.467	0.0146065
901.545	0.0145685
901.623	0.0146130
901.701	0.0144868
901.780	0.0146413
901.858	0.0144669
901.936	0.0146741
902.014	0.0145475
902.092	0.0145736
902.170	0.0145569
902.248	0.0146879
902.326	0.0145074
902.405	0.0146386
902.483	0.0146694
902.561	0.0146518
902.639	0.0146796
902.717	0.0145721
902.795	0.0145619
902.873	0.0146082
902.951	0.0146169
903.030	0.0146909
903.108	0.0145629
903.186	0.0146507
903.264	0.0146463
903.342	0.0146426
903.420	0.0146519
903.498	0.0146016
903.576	0.0146482
903.655	0.0147795
903.733	0.0146806
903.811	0.0146263
903.889	0.0147279
903.967	0.0147411
904.045	0.0145150
904.123	0.0146603
904.201	0.0145782
904.280	0.0146569
904.358	0.0145356
904.436	0.0145341
904.514	0.0145988
904.592	0.0146923
904.670	0.0146234
904.748	0.0144035
904.826	0.0144621
904.905	0.0145396
904.983	0.0145930
905.061	0.0144870
905.139	0.0144373
905.217	0.0146914
905.295	0.0144769
905.373	0.0146544
905.451	0.0146010
905.530	0.0145853
905.608	0.0145713
905.686	0.0147089
905.764	0.0146346
905.842	0.0145538
905.920	0.0145300
905.998	0.0145583
906.076	0.0144043
906.155	0.0144847
906.233	0.0145067
906.311	0.0144650
906.389	0.0144219
906.467	0.0146543
906.545	0.0144637
906.623	0.0146128
906.701	0.0146571
906.780	0.0144769
906.858	0.0146522
906.936	0.0145226
907.014	0.0146358
907.092	0.0147269
907.170	0.0146935
907.248	0.0146626
907.326	0.0146433
907.405	0.0145132
907.483	0.0144801
907.561	0.0146471
907.639	0.0146352
907.717	0.0146364
907.795	0.0144198
907.873	0.0146163
907.951	0.0145097
908.030	0.0144264
908.108	0.0146223
908.186	0.0146722
908.264	0.0145404
908.342	0.0146651
908.420	0.0146576
908.498	0.0146445
908.576	0.0146783
908.655	0.0147208
908.733	0.0146971
908.811	0.0147390
908.889	0.0146617
908.967	0.0147776
909.045	0.0147563
909.123	0.0147660
909.201	0.0147166
909.280	0.0145641
909.358	0.0148114
909.436	0.0146950
909.514	0.0146559
909.592	0.0147118
909.670	0.0147536
909.748	0.0146059
909.826	0.0146484
909.905	0.0146285
909.983	0.0147575
910.061	0.0147872
910.139	0.0148016
910.217	0.0147516
910.295	0.0146253
910.373	0.0148139
910.451	0.0148104
910.530	0.0146556
910.608	0.0148132
910.686	0.0147723
910.764	0.0146548
910.842	0.0147428
910.920	0.0147520
910.998	0.0148220
911.076	0.0147433
911.155	0.0148697
911.233	0.0148216
911.311	0.0146319
911.389	0.0149072
911.467	0.0147362
911.545	0.0147501
911.623	0.0148492
911.701	0.0148659
911.780	0.0147983
911.858	0.0147604
911.936	0.0147537
912.014	0.0147025
912.092	0.0147556
912.170	0.0146954
912.248	0.0146887
912.326	0.0148312
912.405	0.0147118
912.483	0.0146810
912.561	0.0145899
912.639	0.0147959
912.717	0.0148206
912.795	0.0148070
912.873	0.0146659
912.951	0.0147585
913.030	0.0147932
913.108	0.0148531
913.186	0.0148529
913.264	0.0149787
913.342	0.0149187
913.420	0.0146947
913.498	0.0147963
913.576	0.0148315
913.655	0.0146198
913.733	0.0147514
913.811	0.0148334
913.889	0.0147665
913.967	0.0146698
914.045	0.0146749
914.123	0.0145670
914.201	0.0145217
914.280	0.0145865
914.358	0.0146214
914.436	0.0146873
914.514	0.0146690
914.592	0.0146515
914.670	0.0145602
914.748	0.0147065
914.826	0.0146398
914.905	0.0146783
914.983	0.0146579
915.061	0.0146731
915.139	0.0146857
915.217	0.0146671
915.295	0.0146228
915.373	0.0146974
915.451	0.0144942
915.530	0.0145921
915.608	0.0147288
915.686	0.0146173
915.764	0.0145824
915.842	0.0144981
915.920	0.0145253
915.998	0.0145898
916.076	0.0146006
916.155	0.0145695
916.233	0.0145288
916.311	0.0144234
916.389	0.0145259
916.467	0.0145989
916.545	0.0146313
916.623	0.0145815
916.701	0.0145267
916.780	0.0145160
916.858	0.0145016
916.936	0.0146210
917.014	0.0146298
917.092	0.0145725
917.170	0.0145634
917.248	0.0145889
917.326	0.0145599
917.405	0.0145062
917.483	0.0145184
917.561	0.0147121
917.639	0.0147049
917.717	0.0146807
917.795	0.0144842
917.873	0.0146019
917.951	0.0145535
918.030	0.0147150
918.108	0.0146825
918.186	0.0146635
918.264	0.0147424
918.342	0.0146428
918.420	0.0146278
918.498	0.0146604
918.576	0.0145902
918.655	0.0147163
918.733	0.0146891
918.811	0.0145399
918.889	0.0147521
918.967	0.0147843
919.045	0.0146305
919.123	0.0145022
919.201	0.0146503
919.280	0.0146786
919.358	0.0145383
919.436	0.0145142
919.514	0.0145554
919.592	0.0146043
919.670	0.0144264
919.748	0.0146258
919.826	0.0145361
919.905	0.0144614
919.983	0.0144716
920.061	0.0145943
920.139	0.0144427
920.217	0.0145480
920.295	0.0147090
920.373	0.0144973
920.451	0.0144635
920.530	0.0145654
920.608	0.0143741
920.686	0.0144611
920.764	0.0144595
920.842	0.0145532
920.920	0.0143699
920.998	0.0145299
921.076	0.0145839
921.155	0.0145393
921.233	0.0143541
921.311	0.0144748
921.389	0.0145053
921.467	0.0144490
921.545	0.0144656
921.623	0.0144993
921.701	0.0144309
921.780	0.0145531
921.858	0.0145323
921.936	0.0146125
922.014	0.0145833
922.092	0.0144877
922.170	0.0145250
922.248	0.0143945
922.326	0.0145518
922.405	0.0145364
922.483	0.0143127
922.561	0.0143714
922.639	0.0144723
922.717	0.0144952
922.795	0.0145245
922.873	0.0144245
922.951	0.0144656
923.030	0.0145588
923.108	0.0145186
923.186	0.0146207
923.264	0.0145019
923.342	0.0144781
923.420	0.0145627
923.498	0.0146101
923.576	0.0145778
923.655	0.0147210
923.733	0.0145362
923.811	0.0146189
923.889	0.0144646
923.967	0.0145935
924.045	0.0145573
924.123	0.0145973
924.201	0.0145273
924.280	0.0146094
924.358	0.0145908
924.436	0.0146256
924.514	0.0145789
924.592	0.0146097
924.670	0.0147219
924.748	0.0146203
924.826	0.0144457
924.905	0.0145540
924.983	0.0146266
925.061	0.0147398
925.139	0.0145313
925.217	0.0145724
925.295	0.0146849
925.373	0.0145444
925.451	0.0146361
925.530	0.0145464
925.608	0.0145126
925.686	0.0145020
925.764	0.0145036
925.842	0.0145045
925.920	0.0145188
925.998	0.0145756
926.076	0.0144816
926.155	0.0145272
926.233	0.0145352
926.311	0.0145745
926.389	0.0144565
926.467	0.0146021
926.545	0.0145557
926.623	0.0145852
926.701	0.0145602
926.780	0.0145889
926.858	0.0145653
926.936	0.0145803
927.014	0.0146172
927.092	0.0146050
927.170	0.0145631
927.248	0.0145178
927.326	0.0145771
927.405	0.0144778
927.483	0.0145264
927.561	0.0146432
927.639	0.0146545
927.717	0.0146236
927.795	0.0146371
927.873	0.0145309
927.951	0.0146380
928.030	0.0146497
928.108	0.0146015
928.186	0.0146081
928.264	0.0147295
928.342	0.0148087
928.420	0.0146058
928.498	0.0146647
928.576	0.0147308
928.655	0.0146357
928.733	0.0146611
928.811	0.0147312
928.889	0.0146013
928.967	0.0145256
929.045	0.0146774
929.123	0.0147770
929.201	0.0146747
929.280	0.0146591
929.358	0.0146443
929.436	0.0146459
929.514	0.0147901
929.592	0.0146200
929.670	0.0147604
929.748	0.0147010
929.826	0.0147995
929.905	0.0147325
929.983	0.0147234
930.061	0.0146942
930.139	0.0147153
930.217	0.0147823
930.295	0.0148920
930.373	0.0147317
930.451	0.0146481
930.530	0.0147449
930.608	0.0147398
930.686	0.0147028
930.764	0.0146597
930.842	0.0145607
930.920	0.0146969
930.998	0.0145882
931.076	0.0147166
931.155	0.0147206
931.233	0.0145908
931.311	0.0147355
931.389	0.0147678
931.467	0.0146297
931.545	0.0146324
931.623	0.0147569
931.701	0.0146910
931.780	0.0145799
931.858	0.0147165
931.936	0.0147060
932.014	0.0146435
932.092	0.0146890
932.170	0.0145746
932.248	0.0146246
932.326	0.0147044
932.405	0.0145934
932.483	0.0146407
932.561	0.0146117
932.639	0.0146952
932.717	0.0147688
932.795	0.0146573
932.873	0.0146141
932.951	0.0148057
933.030	0.0147136
933.108	0.0147790
933.186	0.0146519
933.264	0.0145377
933.342	0.0146989
933.420	0.0147031
933.498	0.0145989
933.576	0.0147095
933.655	0.0145921
933.733	0.0146999
933.811	0.0146336
933.889	0.0145645
933.967	0.0146576
934.045	0.0145346
934.123	0.0146754
934.201	0.0146126
934.280	0.0147382
934.358	0.0147440
934.436	0.0145173
934.514	0.0145871
934.592	0.0148232
934.670	0.0146611
934.748	0.0145885
934.826	0.0147046
934.905	0.0148064
934.983	0.0148052
935.061	0.0147787
935.139	0.0146571
935.217	0.0146985
935.295	0.0149857
935.373	0.0149800
935.451	0.0147324
935.530	0.0147757
935.608	0.0148398
935.686	0.0148773
935.764	0.0149844
935.842	0.0147871
935.920	0.0148312
935.998	0.0148174
936.076	0.0146556
936.155	0.0148325
936.233	0.0147566
936.311	0.0147993
936.389	0.0147303
936.467	0.0147871
936.545	0.0146334
936.623	0.0145630
936.701	0.0146696
936.780	0.0145772
936.858	0.0146318
936.936	0.0145900
937.014	0.0146284
937.092	0.0147118
937.170	0.0146157
937.248	0.0145210
937.326	0.0147559
937.405	0.0146525
937.483	0.0146984
937.561	0.0146135
937.639	0.0146761
937.717	0.0146752
937.795	0.0146134
937.873	0.0145794
937.951	0.0145728
938.030	0.0146205
938.108	0.0146773
938.186	0.0147311
938.264	0.0144625
938.342	0.0144848
938.420	0.0146732
938.498	0.0146773
938.576	0.0145726
938.655	0.0145975
938.733	0.0146398
938.811	0.0146465
938.889	0.0147428
938.967	0.0147971
939.045	0.0147788
939.123	0.0147905
939.201	0.0146690
939.280	0.0147022
939.358	0.0146321
939.436	0.0146921
939.514	0.0145302
939.592	0.0146903
939.670	0.0147441
939.748	0.0146237
939.826	0.0145683
939.905	0.0145727
939.983	0.0146151
940.061	0.0145888
940.139	0.0146307
940.217	0.0147295
940.295	0.0147068
940.373	0.0146416
940.451	0.0147595
940.530	0.0146385
940.608	0.0147101
940.686	0.0146967
940.764	0.0145656
940.842	0.0146495
940.920	0.0145277
940.998	0.0145532
941.076	0.0146057
941.155	0.0146039
941.233	0.0147158
941.311	0.0146186
941.389	0.0145488
941.467	0.0145827
941.545	0.0146937
941.623	0.0147507
941.701	0.0146463
941.780	0.0146014
941.858	0.0145364
941.936	0.0146482
942.014	0.0147140
942.092	0.0147535
942.170	0.0146260
942.248	0.0146870
942.326	0.0146749
942.405	0.0147227
942.483	0.0146499
942.561	0.0147533
942.639	0.0147584
942.717	0.0145020
942.795	0.0146262
942.873	0.0146728
942.951	0.0147208
943.030	0.0146168
943.108	0.0146272
943.186	0.0146453
943.264	0.0145570
943.342	0.0144478
943.420	0.0144450
943.498	0.0147283
943.576	0.0146672
943.655	0.0145904
943.733	0.0144540
943.811	0.0146260
943.889	0.0146328
943.967	0.0146176
944.045	0.0144749
944.123	0.0145569
944.201	0.0146074
944.280	0.0145200
944.358	0.0144622
944.436	0.0145709
944.514	0.0145775
944.592	0.0146392
944.670	0.0145680
944.748	0.0144484
944.826	0.0145602
944.905	0.0146214
944.983	0.0145969
945.061	0.0144626
945.139	0.0145084
945.217	0.0144556
945.295	0.0144265
945.373	0.0145815
945.451	0.0144248
945.530	0.0146339
945.608	0.0146368
945.686	0.0145160
945.764	0.0145307
945.842	0.0144384
945.920	0.0144817
945.998	0.0144719
946.076	0.0146175
946.155	0.0146677
946.233	0.0144814
946.311	0.0146095
946.389	0.0144549
946.467	0.0145818
946.545	0.0145110
946.623	0.0144542
946.701	0.0144714
946.780	0.0145039
946.858	0.0145268
946.936	0.0143974
947.014	0.0143948
947.092	0.0145007
947.170	0.0144769
947.248	0.0144209
947.326	0.0144162
947.405	0.0145055
947.483	0.0145203
947.561	0.0144447
947.639	0.0145156
947.717	0.0146602
947.795	0.0144488
947.873	0.0145880
947.951	0.0143984
948.030	0.0144260
948.108	0.0144244
948.186	0.0144398
948.264	0.0145027
948.342	0.0144583
948.420	0.0145915
948.498	0.0145599
948.576	0.0144307
948.655	0.0144059
948.733	0.0143593
948.811	0.0145192
948.889	0.0144287
948.967	0.0146313
949.045	0.0144569
949.123	0.0143940
949.201	0.0144088
949.280	0.0144963
949.358	0.0144347
949.436	0.0144412
949.514	0.0143616
949.592	0.0144815
949.670	0.0145408
949.748	0.0145172
949.826	0.0144280
949.905	0.0144489
949.983	0.0144448
950.061	0.0144991
950.139	0.0145012
950.217	0.0144054
950.295	0.0146510
950.373	0.0145313
950.451	0.0144676
950.530	0.0144411
950.608	0.0144814
950.686	0.0144460
950.764	0.0143686
950.842	0.0144937
950.920	0.0145181
950.998	0.0146098
951.076	0.0144669
951.155	0.0144499
951.233	0.0144346
951.311	0.0143964
951.389	0.0143487
951.467	0.0143777
951.545	0.0143640
951.623	0.0145044
951.701	0.0145331
951.780	0.0144756
951.858	0.0143957
951.936	0.0144793
952.014	0.0145206
952.092	0.0145069
952.170	0.0145960
952.248	0.0145169
952.326	0.0144415
952.405	0.0145846
952.483	0.0146238
952.561	0.0145654
952.639	0.0145675
952.717	0.0144717
952.795	0.0144807
952.873	0.0145333
952.951	0.0145277
953.030	0.0144986
953.108	0.0145926
953.186	0.0145766
953.264	0.0147144
953.342	0.0146382
953.420	0.0144473
953.498	0.0146264
953.576	0.0145815
953.655	0.0146896
953.733	0.0143410
953.811	0.0146255
953.889	0.0145787
953.967	0.0146223
954.045	0.0144717
954.123	0.0145783
954.201	0.0144624
954.280	0.0145063
954.358	0.0146126
954.436	0.0145897
954.514	0.0145747
954.592	0.0146214
954.670	0.0145938
954.748	0.0147572
954.826	0.0146468
954.905	0.0145683
954.983	0.0145953
955.061	0.0145633
955.139	0.0146833
955.217	0.0146827
955.295	0.0146758
955.373	0.0147181
955.451	0.0146346
955.530	0.0146461
955.608	0.0147910
955.686	0.0147789
955.764	0.0146715
955.842	0.0148107
955.920	0.0147001
955.998	0.0147414
956.076	0.0147081
956.155	0.0147456
956.233	0.0146739
956.311	0.0148093
956.389	0.0147147
956.467	0.0148409
956.545	0.0148296
956.623	0.0147387
956.701	0.0147986
956.780	0.0147518
956.858	0.0146926
956.936	0.0146655
957.014	0.0146063
957.092	0.0146614
957.170	0.0146769
957.248	0.0146142
957.326	0.0146486
957.405	0.0145156
957.483	0.0145442
957.561	0.0146653
957.639	0.0146397
957.717	0.0144669
957.795	0.0146313
957.873	0.0147273
957.951	0.0145813
958.030	0.0147708
958.108	0.0145240
958.186	0.0146297
958.264	0.0146394
958.342	0.0145594
958.420	0.0145759
958.498	0.0146442
958.576	0.0147004
958.655	0.0146015
958.733	0.0145683
958.811	0.0145633
958.889	0.0146016
958.967	0.0147060
959.045	0.0144474
959.123	0.0145931
959.201	0.0146693
959.280	0.0145577
959.358	0.0145530
959.436	0.0145064
959.514	0.0145645
959.592	0.0145401
959.670	0.0146687
959.748	0.0147939
959.826	0.0146880
959.905	0.0145918
