05/20/2022	16:25:17	Ver.	4.1	UNKNOWN
Optical Delay	639.982744	Delta X		0.078125	Sweeps	1	Scan Rate	0/0
Coordinates	Axis 1	NaN	Axis 2	NaN	Axis 3	NaN	Axis 4	NaN	Axis 5	NaN	Axis 6	0.000000
TX Power	0.000000	RX Power	0.000000

639.983	0.0145373
640.061	0.0143880
640.139	0.0145879
640.217	0.0145377
640.295	0.0145370
640.373	0.0145503
640.451	0.0145036
640.530	0.0144197
640.608	0.0145325
640.686	0.0144976
640.764	0.0145412
640.842	0.0144991
640.920	0.0145133
640.998	0.0145148
641.076	0.0144896
641.155	0.0144448
641.233	0.0144499
641.311	0.0146128
641.389	0.0143343
641.467	0.0144792
641.545	0.0145223
641.623	0.0146191
641.701	0.0146001
641.780	0.0143658
641.858	0.0145837
641.936	0.0144888
642.014	0.0145437
642.092	0.0146156
642.170	0.0144461
642.248	0.0145318
642.326	0.0145487
642.405	0.0145533
642.483	0.0145739
642.561	0.0146355
642.639	0.0146316
642.717	0.0145220
642.795	0.0146124
642.873	0.0145432
642.951	0.0146413
643.030	0.0146054
643.108	0.0145247
643.186	0.0146617
643.264	0.0144706
643.342	0.0144669
643.420	0.0144681
643.498	0.0145825
643.576	0.0145335
643.655	0.0144840
643.733	0.0145763
643.811	0.0144375
643.889	0.0144922
643.967	0.0144016
644.045	0.0144395
644.123	0.0143671
644.201	0.0144849
644.280	0.0145903
644.358	0.0144614
644.436	0.0144152
644.514	0.0144487
644.592	0.0144984
644.670	0.0144268
644.748	0.0145435
644.826	0.0144820
644.905	0.0144862
644.983	0.0144673
645.061	0.0143649
645.139	0.0144289
645.217	0.0144321
645.295	0.0144565
645.373	0.0143803
645.451	0.0143484
645.530	0.0145455
645.608	0.0143336
645.686	0.0144978
645.764	0.0143526
645.842	0.0142815
645.920	0.0142686
645.998	0.0145130
646.076	0.0143913
646.155	0.0143900
646.233	0.0144400
646.311	0.0144431
646.389	0.0143749
646.467	0.0143755
646.545	0.0144236
646.623	0.0145472
646.701	0.0145977
646.780	0.0142836
646.858	0.0143614
646.936	0.0145816
647.014	0.0144250
647.092	0.0142775
647.170	0.0144632
647.248	0.0145655
647.326	0.0144468
647.405	0.0143250
647.483	0.0144694
647.561	0.0143758
647.639	0.0144129
647.717	0.0144785
647.795	0.0144030
647.873	0.0145065
647.951	0.0145396
648.030	0.0145269
648.108	0.0145368
648.186	0.0144702
648.264	0.0144706
648.342	0.0144769
648.420	0.0146195
648.498	0.0143886
648.576	0.0145927
648.655	0.0145438
648.733	0.0143832
648.811	0.0144705
648.889	0.0145684
648.967	0.0144337
649.045	0.0145274
649.123	0.0145020
649.201	0.0144047
649.280	0.0146396
649.358	0.0145303
649.436	0.0144527
649.514	0.0144955
649.592	0.0144943
649.670	0.0145812
649.748	0.0145490
649.826	0.0144623
649.905	0.0145628
649.983	0.0145126
650.061	0.0143878
650.139	0.0144837
650.217	0.0144773
650.295	0.0144699
650.373	0.0145670
650.451	0.0144507
650.530	0.0144515
650.608	0.0144675
650.686	0.0145537
650.764	0.0144461
650.842	0.0144092
650.920	0.0145165
650.998	0.0145067
651.076	0.0146181
651.155	0.0144859
651.233	0.0146843
651.311	0.0147021
651.389	0.0145811
651.467	0.0146368
651.545	0.0145435
651.623	0.0145838
651.701	0.0146323
651.780	0.0146277
651.858	0.0146526
651.936	0.0145891
652.014	0.0146588
652.092	0.0145438
652.170	0.0144406
652.248	0.0144865
652.326	0.0145085
652.405	0.0145528
652.483	0.0143922
652.561	0.0144064
652.639	0.0145164
652.717	0.0145358
652.795	0.0144337
652.873	0.0144415
652.951	0.0144780
653.030	0.0146281
653.108	0.0146342
653.186	0.0144447
653.264	0.0145057
653.342	0.0144814
653.420	0.0145321
653.498	0.0145795
653.576	0.0145947
653.655	0.0145152
653.733	0.0144823
653.811	0.0144331
653.889	0.0146078
653.967	0.0144773
654.045	0.0145105
654.123	0.0147305
654.201	0.0144800
654.280	0.0145309
654.358	0.0146008
654.436	0.0145823
654.514	0.0144759
654.592	0.0144890
654.670	0.0144846
654.748	0.0144934
654.826	0.0143951
654.905	0.0143073
654.983	0.0144432
655.061	0.0146249
655.139	0.0144449
655.217	0.0144411
655.295	0.0144737
655.373	0.0144501
655.451	0.0145723
655.530	0.0146608
655.608	0.0144550
655.686	0.0145722
655.764	0.0144449
655.842	0.0144669
655.920	0.0146029
655.998	0.0145232
656.076	0.0145467
656.155	0.0145547
656.233	0.0146204
656.311	0.0145464
656.389	0.0144243
656.467	0.0146245
656.545	0.0145813
656.623	0.0144714
656.701	0.0146017
656.780	0.0145457
656.858	0.0144547
656.936	0.0144530
657.014	0.0144876
657.092	0.0145775
657.170	0.0144430
657.248	0.0144083
657.326	0.0145478
657.405	0.0145784
657.483	0.0145540
657.561	0.0144663
657.639	0.0145471
657.717	0.0145702
657.795	0.0145042
657.873	0.0145113
657.951	0.0144878
658.030	0.0143590
658.108	0.0144941
658.186	0.0145144
658.264	0.0144529
658.342	0.0143255
658.420	0.0144073
658.498	0.0144455
658.576	0.0144488
658.655	0.0143713
658.733	0.0145146
658.811	0.0145242
658.889	0.0145222
658.967	0.0145026
659.045	0.0144724
659.123	0.0145841
659.201	0.0145213
659.280	0.0145883
659.358	0.0146376
659.436	0.0145687
659.514	0.0144248
659.592	0.0146510
659.670	0.0146695
659.748	0.0145011
659.826	0.0144938
659.905	0.0144582
659.983	0.0146095
660.061	0.0144513
660.139	0.0143822
660.217	0.0144190
660.295	0.0144482
660.373	0.0143438
660.451	0.0142846
660.530	0.0142748
660.608	0.0143371
660.686	0.0145082
660.764	0.0143239
660.842	0.0142982
660.920	0.0145126
660.998	0.0145017
661.076	0.0144501
661.155	0.0145631
661.233	0.0145332
661.311	0.0146975
661.389	0.0145125
661.467	0.0146633
661.545	0.0145808
661.623	0.0145625
661.701	0.0146831
661.780	0.0147658
661.858	0.0147076
661.936	0.0145901
662.014	0.0145698
662.092	0.0146809
662.170	0.0146632
662.248	0.0143063
662.326	0.0145305
662.405	0.0145232
662.483	0.0144430
662.561	0.0142462
662.639	0.0144799
662.717	0.0144460
662.795	0.0143156
662.873	0.0143912
662.951	0.0143446
663.030	0.0145253
663.108	0.0145811
663.186	0.0146097
663.264	0.0144477
663.342	0.0145625
663.420	0.0146144
663.498	0.0145621
663.576	0.0145210
663.655	0.0145454
663.733	0.0146758
663.811	0.0146400
663.889	0.0146313
663.967	0.0146954
664.045	0.0146982
664.123	0.0147669
664.201	0.0144529
664.280	0.0145974
664.358	0.0145591
664.436	0.0144492
664.514	0.0145928
664.592	0.0146172
664.670	0.0144330
664.748	0.0143503
664.826	0.0143109
664.905	0.0143323
664.983	0.0143251
665.061	0.0144817
665.139	0.0143488
665.217	0.0143608
665.295	0.0143534
665.373	0.0143256
665.451	0.0144257
665.530	0.0144378
665.608	0.0145418
665.686	0.0145121
665.764	0.0145404
665.842	0.0144623
665.920	0.0145428
665.998	0.0144960
666.076	0.0146358
666.155	0.0145318
666.233	0.0144573
666.311	0.0144942
666.389	0.0147034
666.467	0.0145509
666.545	0.0145054
666.623	0.0146371
666.701	0.0147035
666.780	0.0146463
666.858	0.0145271
666.936	0.0144715
667.014	0.0145100
667.092	0.0144764
667.170	0.0146268
667.248	0.0146114
667.326	0.0144829
667.405	0.0145475
667.483	0.0144926
667.561	0.0145718
667.639	0.0143430
667.717	0.0144350
667.795	0.0145947
667.873	0.0145130
667.951	0.0144765
668.030	0.0144862
668.108	0.0147689
668.186	0.0146650
668.264	0.0145507
668.342	0.0145293
668.420	0.0147148
668.498	0.0147094
668.576	0.0145927
668.655	0.0145554
668.733	0.0146721
668.811	0.0146825
668.889	0.0145891
668.967	0.0144920
669.045	0.0145259
669.123	0.0145221
669.201	0.0145245
669.280	0.0145336
669.358	0.0144224
669.436	0.0146482
669.514	0.0145210
669.592	0.0144868
669.670	0.0146086
669.748	0.0145814
669.826	0.0144302
669.905	0.0144525
669.983	0.0145217
670.061	0.0145304
670.139	0.0144541
670.217	0.0144854
670.295	0.0145916
670.373	0.0145868
670.451	0.0145428
670.530	0.0145758
670.608	0.0145171
670.686	0.0147053
670.764	0.0146690
670.842	0.0145176
670.920	0.0146362
670.998	0.0144455
671.076	0.0145689
671.155	0.0146211
671.233	0.0146464
671.311	0.0146152
671.389	0.0144603
671.467	0.0144678
671.545	0.0145435
671.623	0.0145875
671.701	0.0146502
671.780	0.0145168
671.858	0.0146118
671.936	0.0145283
672.014	0.0144195
672.092	0.0144433
672.170	0.0144163
672.248	0.0146040
672.326	0.0145869
672.405	0.0143789
672.483	0.0145663
672.561	0.0145333
672.639	0.0144420
672.717	0.0145716
672.795	0.0145867
672.873	0.0145492
672.951	0.0145581
673.030	0.0147515
673.108	0.0146613
673.186	0.0146024
673.264	0.0146332
673.342	0.0146210
673.420	0.0145909
673.498	0.0145621
673.576	0.0146119
673.655	0.0146138
673.733	0.0145520
673.811	0.0144964
673.889	0.0145676
673.967	0.0145652
674.045	0.0145193
674.123	0.0146171
674.201	0.0143722
674.280	0.0145273
674.358	0.0144074
674.436	0.0143644
674.514	0.0145561
674.592	0.0145667
674.670	0.0145507
674.748	0.0146908
674.826	0.0145506
674.905	0.0144922
674.983	0.0146115
675.061	0.0145257
675.139	0.0146518
675.217	0.0146848
675.295	0.0146035
675.373	0.0146172
675.451	0.0145811
675.530	0.0146560
675.608	0.0146230
675.686	0.0145000
675.764	0.0145245
675.842	0.0145482
675.920	0.0145217
675.998	0.0145116
676.076	0.0144943
676.155	0.0144350
676.233	0.0143810
676.311	0.0145321
676.389	0.0146246
676.467	0.0144855
676.545	0.0144730
676.623	0.0145322
676.701	0.0146573
676.780	0.0147124
676.858	0.0146854
676.936	0.0147863
677.014	0.0146352
677.092	0.0147964
677.170	0.0145281
677.248	0.0147446
677.326	0.0146287
677.405	0.0143906
677.483	0.0142549
677.561	0.0143318
677.639	0.0142704
677.717	0.0141486
677.795	0.0141342
677.873	0.0141778
677.951	0.0141560
678.030	0.0141628
678.108	0.0142338
678.186	0.0144600
678.264	0.0145710
678.342	0.0145081
678.420	0.0145390
678.498	0.0147325
678.576	0.0148699
678.655	0.0150208
678.733	0.0150364
678.811	0.0149802
678.889	0.0151825
678.967	0.0150633
679.045	0.0148974
679.123	0.0148089
679.201	0.0147256
679.280	0.0143980
679.358	0.0142352
679.436	0.0142261
679.514	0.0140706
679.592	0.0139719
679.670	0.0138927
679.748	0.0137510
679.826	0.0139227
679.905	0.0137816
679.983	0.0137617
680.061	0.0138493
680.139	0.0139894
680.217	0.0142290
680.295	0.0141672
680.373	0.0142750
680.451	0.0144003
680.530	0.0143530
680.608	0.0144497
680.686	0.0145556
680.764	0.0146942
680.842	0.0146101
680.920	0.0145500
680.998	0.0147039
681.076	0.0147958
681.155	0.0147382
681.233	0.0149407
681.311	0.0148986
681.389	0.0148682
681.467	0.0147796
681.545	0.0147587
681.623	0.0148847
681.701	0.0148234
681.780	0.0147514
681.858	0.0145962
681.936	0.0145165
682.014	0.0145501
682.092	0.0144753
682.170	0.0142487
682.248	0.0143406
682.326	0.0142183
682.405	0.0141531
682.483	0.0139840
682.561	0.0139541
682.639	0.0139840
682.717	0.0139059
682.795	0.0139739
682.873	0.0140389
682.951	0.0142670
683.030	0.0144281
683.108	0.0143260
683.186	0.0145453
683.264	0.0145218
683.342	0.0146702
683.420	0.0147099
683.498	0.0147191
683.576	0.0147900
683.655	0.0145705
683.733	0.0145516
683.811	0.0144506
683.889	0.0142551
683.967	0.0142305
684.045	0.0141106
684.123	0.0140688
684.201	0.0141108
684.280	0.0141139
684.358	0.0139756
684.436	0.0141730
684.514	0.0141231
684.592	0.0143018
684.670	0.0144512
684.748	0.0144349
684.826	0.0146439
684.905	0.0146624
684.983	0.0149265
685.061	0.0149725
685.139	0.0150106
685.217	0.0150407
685.295	0.0151345
685.373	0.0151807
685.451	0.0151387
685.530	0.0153333
685.608	0.0152949
685.686	0.0153516
685.764	0.0154266
685.842	0.0154047
685.920	0.0152239
685.998	0.0154313
686.076	0.0153522
686.155	0.0152438
686.233	0.0150223
686.311	0.0150868
686.389	0.0149454
686.467	0.0147749
686.545	0.0146986
686.623	0.0145498
686.701	0.0144544
686.780	0.0143091
686.858	0.0142047
686.936	0.0141000
687.014	0.0138817
687.092	0.0138309
687.170	0.0136952
687.248	0.0135732
687.326	0.0134978
687.405	0.0133174
687.483	0.0131062
687.561	0.0129579
687.639	0.0129472
687.717	0.0128600
687.795	0.0127211
687.873	0.0127704
687.951	0.0128100
688.030	0.0128046
688.108	0.0131148
688.186	0.0131962
688.264	0.0137125
688.342	0.0140284
688.420	0.0143565
688.498	0.0147741
688.576	0.0152697
688.655	0.0157997
688.733	0.0161118
688.811	0.0162686
688.889	0.0165993
688.967	0.0169528
689.045	0.0169447
689.123	0.0170542
689.201	0.0169563
689.280	0.0168156
689.358	0.0167051
689.436	0.0164336
689.514	0.0162434
689.592	0.0159441
689.670	0.0156928
689.748	0.0154645
689.826	0.0152116
689.905	0.0150221
689.983	0.0147604
690.061	0.0145197
690.139	0.0142147
690.217	0.0142131
690.295	0.0138453
690.373	0.0135976
690.451	0.0133225
690.530	0.0130524
690.608	0.0129217
690.686	0.0129810
690.764	0.0127265
690.842	0.0126550
690.920	0.0126193
690.998	0.0126688
691.076	0.0127163
691.155	0.0128206
691.233	0.0130163
691.311	0.0132373
691.389	0.0135921
691.467	0.0137608
691.545	0.0139638
691.623	0.0142413
691.701	0.0144831
691.780	0.0148366
691.858	0.0149895
691.936	0.0150756
692.014	0.0153693
692.092	0.0153693
692.170	0.0154605
692.248	0.0155523
692.326	0.0156416
692.405	0.0155829
692.483	0.0155511
692.561	0.0156197
692.639	0.0154993
692.717	0.0155481
692.795	0.0155274
692.873	0.0153734
692.951	0.0152354
693.030	0.0151833
693.108	0.0151172
693.186	0.0148785
693.264	0.0147710
693.342	0.0148351
693.420	0.0148408
693.498	0.0146711
693.576	0.0145844
693.655	0.0144185
693.733	0.0145150
693.811	0.0145264
693.889	0.0144341
693.967	0.0143336
694.045	0.0145027
694.123	0.0142846
694.201	0.0141988
694.280	0.0142833
694.358	0.0141094
694.436	0.0141038
694.514	0.0139944
694.592	0.0137534
694.670	0.0137896
694.748	0.0135861
694.826	0.0134117
694.905	0.0133104
694.983	0.0133298
695.061	0.0130580
695.139	0.0131599
695.217	0.0131091
695.295	0.0133608
695.373	0.0133302
695.451	0.0134443
695.530	0.0136205
695.608	0.0137254
695.686	0.0141105
695.764	0.0143232
695.842	0.0147489
695.920	0.0150623
695.998	0.0153954
696.076	0.0158507
696.155	0.0159284
696.233	0.0161884
696.311	0.0164252
696.389	0.0165338
696.467	0.0166500
696.545	0.0168667
696.623	0.0164351
696.701	0.0162607
696.780	0.0162552
696.858	0.0160764
696.936	0.0158717
697.014	0.0156336
697.092	0.0153564
697.170	0.0149899
697.248	0.0149293
697.326	0.0147545
697.405	0.0145066
697.483	0.0143151
697.561	0.0139498
697.639	0.0136876
697.717	0.0135368
697.795	0.0134114
697.873	0.0132503
697.951	0.0129684
698.030	0.0127431
698.108	0.0125106
698.186	0.0125429
698.264	0.0123848
698.342	0.0123106
698.420	0.0124276
698.498	0.0123898
698.576	0.0127514
698.655	0.0128036
698.733	0.0130176
698.811	0.0133422
698.889	0.0135356
698.967	0.0138936
699.045	0.0138911
699.123	0.0141920
699.201	0.0144095
699.280	0.0144377
699.358	0.0144017
699.436	0.0145146
699.514	0.0145446
699.592	0.0146349
699.670	0.0148104
699.748	0.0150381
699.826	0.0148987
699.905	0.0150147
699.983	0.0152149
700.061	0.0154038
700.139	0.0155856
700.217	0.0156738
700.295	0.0159076
700.373	0.0160117
700.451	0.0161856
700.530	0.0162421
700.608	0.0164525
700.686	0.0163755
700.764	0.0164088
700.842	0.0163970
700.920	0.0159179
700.998	0.0158237
701.076	0.0155813
701.155	0.0155669
701.233	0.0152090
701.311	0.0148888
701.389	0.0148235
701.467	0.0147434
701.545	0.0143365
701.623	0.0142105
701.701	0.0141100
701.780	0.0139005
701.858	0.0137697
701.936	0.0136335
702.014	0.0134799
702.092	0.0132662
702.170	0.0131811
702.248	0.0129008
702.326	0.0129785
702.405	0.0126172
702.483	0.0125613
702.561	0.0127581
702.639	0.0126309
702.717	0.0127190
702.795	0.0129076
702.873	0.0131181
702.951	0.0132835
703.030	0.0135169
703.108	0.0138461
703.186	0.0140273
703.264	0.0142907
703.342	0.0144935
703.420	0.0144975
703.498	0.0144894
703.576	0.0144738
703.655	0.0144971
703.733	0.0144694
703.811	0.0144177
703.889	0.0144862
703.967	0.0144689
704.045	0.0143812
704.123	0.0144373
704.201	0.0146378
704.280	0.0148681
704.358	0.0149759
704.436	0.0151539
704.514	0.0154243
704.592	0.0154749
704.670	0.0156765
704.748	0.0157339
704.826	0.0155996
704.905	0.0156580
704.983	0.0153317
705.061	0.0153167
705.139	0.0152013
705.217	0.0149294
705.295	0.0148958
705.373	0.0148479
705.451	0.0148077
705.530	0.0145799
705.608	0.0145044
705.686	0.0144111
705.764	0.0142852
705.842	0.0144553
705.920	0.0143309
705.998	0.0144126
706.076	0.0143687
706.155	0.0143322
706.233	0.0143055
706.311	0.0143822
706.389	0.0142258
706.467	0.0142792
706.545	0.0143894
706.623	0.0145738
706.701	0.0143281
706.780	0.0144643
706.858	0.0143642
706.936	0.0142773
707.014	0.0144508
707.092	0.0144485
707.170	0.0142613
707.248	0.0141903
707.326	0.0141995
707.405	0.0141307
707.483	0.0140562
707.561	0.0141225
707.639	0.0140187
707.717	0.0140268
707.795	0.0139004
707.873	0.0139912
707.951	0.0140947
708.030	0.0141660
708.108	0.0140297
708.186	0.0141811
708.264	0.0140630
708.342	0.0140736
708.420	0.0139259
708.498	0.0138861
708.576	0.0138841
708.655	0.0138550
708.733	0.0137252
708.811	0.0138357
708.889	0.0139158
708.967	0.0140014
709.045	0.0144392
709.123	0.0146548
709.201	0.0148915
709.280	0.0152929
709.358	0.0155156
709.436	0.0156544
709.514	0.0159098
709.592	0.0160004
709.670	0.0160033
709.748	0.0159612
709.826	0.0158542
709.905	0.0157468
709.983	0.0155315
710.061	0.0154262
710.139	0.0152095
710.217	0.0151099
710.295	0.0150399
710.373	0.0147743
710.451	0.0148492
710.530	0.0147769
710.608	0.0145605
710.686	0.0144893
710.764	0.0146365
710.842	0.0146082
710.920	0.0145853
710.998	0.0144719
711.076	0.0144633
711.155	0.0142529
711.233	0.0143788
711.311	0.0141080
711.389	0.0140443
711.467	0.0139347
711.545	0.0138470
711.623	0.0138536
711.701	0.0137744
711.780	0.0137273
711.858	0.0138044
711.936	0.0139082
712.014	0.0138471
712.092	0.0139273
712.170	0.0140199
712.248	0.0141299
712.326	0.0141077
712.405	0.0141262
712.483	0.0141842
712.561	0.0141977
712.639	0.0141603
712.717	0.0139371
712.795	0.0138678
712.873	0.0137657
712.951	0.0137510
713.030	0.0136322
713.108	0.0137685
713.186	0.0136644
713.264	0.0137400
713.342	0.0138448
713.420	0.0137903
713.498	0.0138992
713.576	0.0142635
713.655	0.0143821
713.733	0.0144901
713.811	0.0148444
713.889	0.0150356
713.967	0.0152169
714.045	0.0154184
714.123	0.0156726
714.201	0.0155490
714.280	0.0155865
714.358	0.0156306
714.436	0.0154759
714.514	0.0154487
714.592	0.0153976
714.670	0.0152250
714.748	0.0150882
714.826	0.0150785
714.905	0.0150708
714.983	0.0149780
715.061	0.0150131
715.139	0.0149706
715.217	0.0149926
715.295	0.0149244
715.373	0.0148220
715.451	0.0148222
715.530	0.0148506
715.608	0.0148438
715.686	0.0147477
715.764	0.0146146
715.842	0.0144851
715.920	0.0145235
715.998	0.0146835
716.076	0.0144004
716.155	0.0143523
716.233	0.0144155
716.311	0.0144979
716.389	0.0142892
716.467	0.0143076
716.545	0.0143599
716.623	0.0142556
716.701	0.0143359
716.780	0.0144763
716.858	0.0144535
716.936	0.0143732
717.014	0.0143038
717.092	0.0141515
717.170	0.0140693
717.248	0.0142229
717.326	0.0141632
717.405	0.0140407
717.483	0.0140885
717.561	0.0142707
717.639	0.0144402
717.717	0.0142625
717.795	0.0144579
717.873	0.0146355
717.951	0.0148029
718.030	0.0148230
718.108	0.0148580
718.186	0.0148790
718.264	0.0150900
718.342	0.0149951
718.420	0.0148796
718.498	0.0148251
718.576	0.0147493
718.655	0.0144855
718.733	0.0143340
718.811	0.0141875
718.889	0.0140219
718.967	0.0139172
719.045	0.0139208
719.123	0.0139839
719.201	0.0139452
719.280	0.0140707
719.358	0.0141329
719.436	0.0142634
719.514	0.0142330
719.592	0.0143518
719.670	0.0144084
719.748	0.0146039
719.826	0.0147374
719.905	0.0148547
719.983	0.0147905
720.061	0.0148472
720.139	0.0148314
720.217	0.0147893
720.295	0.0146855
720.373	0.0145396
720.451	0.0146494
720.530	0.0143797
720.608	0.0143764
720.686	0.0144046
720.764	0.0141288
720.842	0.0141022
720.920	0.0139780
720.998	0.0139214
721.076	0.0137772
721.155	0.0139670
721.233	0.0140309
721.311	0.0137867
721.389	0.0141920
721.467	0.0142074
721.545	0.0142086
721.623	0.0142599
721.701	0.0142404
721.780	0.0144067
721.858	0.0144739
721.936	0.0145794
722.014	0.0146955
722.092	0.0148421
722.170	0.0147183
722.248	0.0148302
722.326	0.0150877
722.405	0.0151632
722.483	0.0150613
722.561	0.0150902
722.639	0.0151163
722.717	0.0151246
722.795	0.0152709
722.873	0.0150320
722.951	0.0148534
723.030	0.0149058
723.108	0.0149922
723.186	0.0145901
723.264	0.0145566
723.342	0.0145538
723.420	0.0144505
723.498	0.0142223
723.576	0.0143579
723.655	0.0143220
723.733	0.0142694
723.811	0.0142749
723.889	0.0142548
723.967	0.0142263
724.045	0.0141377
724.123	0.0141052
724.201	0.0141801
724.280	0.0142451
724.358	0.0141529
724.436	0.0139880
724.514	0.0141211
724.592	0.0140823
724.670	0.0139088
724.748	0.0140837
724.826	0.0139218
724.905	0.0141840
724.983	0.0141945
725.061	0.0141730
725.139	0.0143700
725.217	0.0143401
725.295	0.0143893
725.373	0.0142747
725.451	0.0144764
725.530	0.0146136
725.608	0.0145273
725.686	0.0143704
725.764	0.0143598
725.842	0.0143667
725.920	0.0142399
725.998	0.0142419
726.076	0.0141115
726.155	0.0141353
726.233	0.0140190
726.311	0.0140020
726.389	0.0139830
726.467	0.0140653
726.545	0.0140575
726.623	0.0140348
726.701	0.0139973
726.780	0.0141733
726.858	0.0142361
726.936	0.0145570
727.014	0.0145233
727.092	0.0144476
727.170	0.0145329
727.248	0.0148457
727.326	0.0150066
727.405	0.0148718
727.483	0.0150330
727.561	0.0152003
727.639	0.0151627
727.717	0.0151384
727.795	0.0152993
727.873	0.0151659
727.951	0.0150674
728.030	0.0151393
728.108	0.0150640
728.186	0.0149507
728.264	0.0149245
728.342	0.0148046
728.420	0.0147037
728.498	0.0146574
728.576	0.0147615
728.655	0.0146040
728.733	0.0145090
728.811	0.0145374
728.889	0.0145628
728.967	0.0145301
729.045	0.0146862
729.123	0.0146739
729.201	0.0146472
729.280	0.0148580
729.358	0.0146828
729.436	0.0146813
729.514	0.0146606
729.592	0.0146649
729.670	0.0144804
729.748	0.0145021
729.826	0.0143327
729.905	0.0142909
729.983	0.0141624
730.061	0.0142001
730.139	0.0142709
730.217	0.0143740
730.295	0.0143521
730.373	0.0143338
730.451	0.0142760
730.530	0.0144116
730.608	0.0144758
730.686	0.0142603
730.764	0.0144938
730.842	0.0146022
730.920	0.0143498
730.998	0.0144080
731.076	0.0142579
731.155	0.0142979
731.233	0.0143700
731.311	0.0144584
731.389	0.0143008
731.467	0.0143665
731.545	0.0143401
731.623	0.0142225
731.701	0.0143215
731.780	0.0143566
731.858	0.0143423
731.936	0.0144440
732.014	0.0146743
732.092	0.0145776
732.170	0.0147334
732.248	0.0147612
732.326	0.0148800
732.405	0.0149157
732.483	0.0150180
732.561	0.0150309
732.639	0.0151816
732.717	0.0150909
732.795	0.0152041
732.873	0.0150902
732.951	0.0150150
733.030	0.0148128
733.108	0.0148326
733.186	0.0146828
733.264	0.0146690
733.342	0.0146445
733.420	0.0146410
733.498	0.0143427
733.576	0.0143387
733.655	0.0142493
733.733	0.0142078
733.811	0.0141327
733.889	0.0140971
733.967	0.0141021
734.045	0.0140825
734.123	0.0141684
734.201	0.0139417
734.280	0.0140622
734.358	0.0140392
734.436	0.0141470
734.514	0.0142347
734.592	0.0141705
734.670	0.0143583
734.748	0.0145563
734.826	0.0145513
734.905	0.0147590
734.983	0.0148311
735.061	0.0150111
735.139	0.0149220
735.217	0.0149999
735.295	0.0150047
735.373	0.0150043
735.451	0.0150185
735.530	0.0148795
735.608	0.0146279
735.686	0.0146166
735.764	0.0146091
735.842	0.0145058
735.920	0.0145023
735.998	0.0143759
736.076	0.0143600
736.155	0.0143725
736.233	0.0143899
736.311	0.0144405
736.389	0.0146626
736.467	0.0145827
736.545	0.0145243
736.623	0.0146659
736.701	0.0148182
736.780	0.0147342
736.858	0.0147918
736.936	0.0149098
737.014	0.0146902
737.092	0.0146755
737.170	0.0148887
737.248	0.0146902
737.326	0.0146884
737.405	0.0148589
737.483	0.0146855
737.561	0.0147057
737.639	0.0146628
737.717	0.0145690
737.795	0.0146365
737.873	0.0146579
737.951	0.0146828
738.030	0.0145351
738.108	0.0143713
738.186	0.0145342
738.264	0.0144606
738.342	0.0141981
738.420	0.0141144
738.498	0.0142328
738.576	0.0141938
738.655	0.0142119
738.733	0.0141607
738.811	0.0142482
738.889	0.0142478
738.967	0.0141891
739.045	0.0141933
739.123	0.0141003
739.201	0.0143813
739.280	0.0142866
739.358	0.0142902
739.436	0.0142412
739.514	0.0143134
739.592	0.0145399
739.670	0.0144546
739.748	0.0144543
739.826	0.0144337
739.905	0.0145776
739.983	0.0144756
740.061	0.0144522
740.139	0.0145007
740.217	0.0144119
740.295	0.0143552
740.373	0.0144904
740.451	0.0144121
740.530	0.0143887
740.608	0.0144482
740.686	0.0146594
740.764	0.0146605
740.842	0.0145968
740.920	0.0146786
740.998	0.0147949
741.076	0.0149191
741.155	0.0149497
741.233	0.0150046
741.311	0.0148251
741.389	0.0149624
741.467	0.0150012
741.545	0.0149132
741.623	0.0149808
741.701	0.0150024
741.780	0.0148980
741.858	0.0147486
741.936	0.0148316
742.014	0.0147036
742.092	0.0146404
742.170	0.0145154
742.248	0.0146619
742.326	0.0143965
742.405	0.0142374
742.483	0.0143449
742.561	0.0142506
742.639	0.0142135
742.717	0.0142708
742.795	0.0141935
742.873	0.0141679
742.951	0.0142542
743.030	0.0142204
743.108	0.0142061
743.186	0.0141582
743.264	0.0142147
743.342	0.0141182
743.420	0.0141700
743.498	0.0140046
743.576	0.0140317
743.655	0.0141024
743.733	0.0142433
743.811	0.0141431
743.889	0.0140785
743.967	0.0140321
744.045	0.0141736
744.123	0.0142105
744.201	0.0143406
744.280	0.0142680
744.358	0.0144051
744.436	0.0143475
744.514	0.0144969
744.592	0.0144086
744.670	0.0145727
744.748	0.0147256
744.826	0.0146716
744.905	0.0147673
744.983	0.0147668
745.061	0.0146754
745.139	0.0147290
745.217	0.0146140
745.295	0.0147098
745.373	0.0144692
745.451	0.0144746
745.530	0.0144770
745.608	0.0145982
745.686	0.0145879
745.764	0.0145159
745.842	0.0146201
745.920	0.0145962
745.998	0.0147231
746.076	0.0148509
746.155	0.0148007
746.233	0.0148623
746.311	0.0147945
746.389	0.0147789
746.467	0.0146476
746.545	0.0148527
746.623	0.0146873
746.701	0.0147705
746.780	0.0146234
746.858	0.0145244
746.936	0.0146474
747.014	0.0145502
747.092	0.0145182
747.170	0.0144961
747.248	0.0144660
747.326	0.0146072
747.405	0.0144383
747.483	0.0144615
747.561	0.0144565
747.639	0.0143391
747.717	0.0142288
747.795	0.0145039
747.873	0.0144929
747.951	0.0143154
748.030	0.0145119
748.108	0.0144516
748.186	0.0144865
748.264	0.0144180
748.342	0.0146288
748.420	0.0145943
748.498	0.0145254
748.576	0.0146254
748.655	0.0147120
748.733	0.0144946
748.811	0.0144568
748.889	0.0145752
748.967	0.0147153
749.045	0.0145882
749.123	0.0145705
749.201	0.0144623
749.280	0.0145181
749.358	0.0146544
749.436	0.0144747
749.514	0.0144867
749.592	0.0143994
749.670	0.0144319
749.748	0.0143790
749.826	0.0143958
749.905	0.0143989
749.983	0.0144122
750.061	0.0145075
750.139	0.0143466
750.217	0.0144803
750.295	0.0145644
750.373	0.0145461
750.451	0.0146960
750.530	0.0145758
750.608	0.0145070
750.686	0.0144590
750.764	0.0145326
750.842	0.0145512
750.920	0.0147779
750.998	0.0148138
751.076	0.0147106
751.155	0.0146117
751.233	0.0147020
751.311	0.0147896
751.389	0.0146424
751.467	0.0147783
751.545	0.0148127
751.623	0.0145636
751.701	0.0146634
751.780	0.0146246
751.858	0.0145561
751.936	0.0144750
752.014	0.0145605
752.092	0.0143974
752.170	0.0144590
752.248	0.0143990
752.326	0.0144061
752.405	0.0144370
752.483	0.0145084
752.561	0.0144336
752.639	0.0144160
752.717	0.0146053
752.795	0.0145650
752.873	0.0146420
752.951	0.0146926
753.030	0.0147968
753.108	0.0147204
753.186	0.0147382
753.264	0.0146008
753.342	0.0146770
753.420	0.0146916
753.498	0.0145491
753.576	0.0145807
753.655	0.0146367
753.733	0.0145854
753.811	0.0147169
753.889	0.0147198
753.967	0.0147419
754.045	0.0148064
754.123	0.0148661
754.201	0.0149030
754.280	0.0148960
754.358	0.0150138
754.436	0.0150664
754.514	0.0149009
754.592	0.0147702
754.670	0.0148561
754.748	0.0147802
754.826	0.0146782
754.905	0.0145835
754.983	0.0145448
755.061	0.0144488
755.139	0.0142784
755.217	0.0142719
755.295	0.0142940
755.373	0.0142648
755.451	0.0143138
755.530	0.0142689
755.608	0.0141978
755.686	0.0142845
755.764	0.0145078
755.842	0.0142838
755.920	0.0144201
755.998	0.0143326
756.076	0.0143645
756.155	0.0143764
756.233	0.0144507
756.311	0.0145602
756.389	0.0144824
756.467	0.0144846
756.545	0.0145167
756.623	0.0144948
756.701	0.0144399
756.780	0.0144770
756.858	0.0143703
756.936	0.0144527
757.014	0.0144417
757.092	0.0143700
757.170	0.0144869
757.248	0.0142986
757.326	0.0142212
757.405	0.0143366
757.483	0.0143322
757.561	0.0143031
757.639	0.0142423
757.717	0.0142500
757.795	0.0142671
757.873	0.0141985
757.951	0.0142923
758.030	0.0142477
758.108	0.0142698
758.186	0.0142941
758.264	0.0144821
758.342	0.0144080
758.420	0.0145276
758.498	0.0147235
758.576	0.0145810
758.655	0.0146037
758.733	0.0146325
758.811	0.0145654
758.889	0.0147391
758.967	0.0145361
759.045	0.0145034
759.123	0.0146620
759.201	0.0145375
759.280	0.0145461
759.358	0.0143024
759.436	0.0143473
759.514	0.0144187
759.592	0.0142528
759.670	0.0143077
759.748	0.0142560
759.826	0.0142456
759.905	0.0142239
759.983	0.0142735
760.061	0.0143494
760.139	0.0143703
760.217	0.0145229
760.295	0.0143703
760.373	0.0144450
760.451	0.0144971
760.530	0.0145384
760.608	0.0145129
760.686	0.0145083
760.764	0.0146536
760.842	0.0146723
760.920	0.0145956
760.998	0.0145630
761.076	0.0146460
761.155	0.0145731
761.233	0.0145119
761.311	0.0145557
761.389	0.0146523
761.467	0.0147562
761.545	0.0145208
761.623	0.0146329
761.701	0.0146389
761.780	0.0145008
761.858	0.0145714
761.936	0.0146340
762.014	0.0146435
762.092	0.0146185
762.170	0.0145290
762.248	0.0143949
762.326	0.0145175
762.405	0.0144627
762.483	0.0143632
762.561	0.0142847
762.639	0.0143199
762.717	0.0143165
762.795	0.0140663
762.873	0.0140544
762.951	0.0141872
763.030	0.0142912
763.108	0.0142529
763.186	0.0140953
763.264	0.0141590
763.342	0.0141997
763.420	0.0142428
763.498	0.0143687
763.576	0.0142583
763.655	0.0144632
763.733	0.0142908
763.811	0.0144075
763.889	0.0144190
763.967	0.0144165
764.045	0.0146219
764.123	0.0146016
764.201	0.0145927
764.280	0.0145460
764.358	0.0144618
764.436	0.0144904
764.514	0.0145226
764.592	0.0145012
764.670	0.0144910
764.748	0.0145577
764.826	0.0143265
764.905	0.0145071
764.983	0.0143844
765.061	0.0144776
765.139	0.0144067
765.217	0.0143652
765.295	0.0144678
765.373	0.0143066
765.451	0.0143413
765.530	0.0143021
765.608	0.0142561
765.686	0.0143866
765.764	0.0142502
765.842	0.0141917
765.920	0.0143043
765.998	0.0143028
766.076	0.0141618
766.155	0.0143556
766.233	0.0144344
766.311	0.0142548
766.389	0.0145008
766.467	0.0144329
766.545	0.0143859
766.623	0.0146393
766.701	0.0144777
766.780	0.0145665
766.858	0.0146063
766.936	0.0147038
767.014	0.0146233
767.092	0.0146074
767.170	0.0146586
767.248	0.0147070
767.326	0.0146243
767.405	0.0145921
767.483	0.0147917
767.561	0.0146721
767.639	0.0145631
767.717	0.0145034
767.795	0.0146011
767.873	0.0146645
767.951	0.0146333
768.030	0.0144513
768.108	0.0145675
768.186	0.0146875
768.264	0.0145008
768.342	0.0145542
768.420	0.0147053
768.498	0.0146077
768.576	0.0143979
768.655	0.0144933
768.733	0.0146481
768.811	0.0145409
768.889	0.0146265
768.967	0.0145717
769.045	0.0144429
769.123	0.0146828
769.201	0.0147060
769.280	0.0148079
769.358	0.0146494
769.436	0.0147375
769.514	0.0147372
769.592	0.0147289
769.670	0.0146521
769.748	0.0145798
769.826	0.0146564
769.905	0.0146755
769.983	0.0144933
770.061	0.0145402
770.139	0.0147100
770.217	0.0146320
770.295	0.0146060
770.373	0.0145570
770.451	0.0142982
770.530	0.0145848
770.608	0.0145722
770.686	0.0143404
770.764	0.0144559
770.842	0.0144934
770.920	0.0143906
770.998	0.0143147
771.076	0.0144057
771.155	0.0142757
771.233	0.0144056
771.311	0.0145048
771.389	0.0144649
771.467	0.0143921
771.545	0.0145887
771.623	0.0144881
771.701	0.0145051
771.780	0.0147211
771.858	0.0145020
771.936	0.0145840
772.014	0.0146561
772.092	0.0146444
772.170	0.0147304
772.248	0.0146494
772.326	0.0145958
772.405	0.0145616
772.483	0.0146793
772.561	0.0146198
772.639	0.0144561
772.717	0.0145415
772.795	0.0145641
772.873	0.0145245
772.951	0.0144948
773.030	0.0143431
773.108	0.0144614
773.186	0.0143344
773.264	0.0145149
773.342	0.0143375
773.420	0.0142993
773.498	0.0144518
773.576	0.0145528
773.655	0.0143901
773.733	0.0143800
773.811	0.0143014
773.889	0.0143811
773.967	0.0144977
774.045	0.0144514
774.123	0.0145606
774.201	0.0146139
774.280	0.0146030
774.358	0.0147704
774.436	0.0145212
774.514	0.0145505
774.592	0.0147025
774.670	0.0145748
774.748	0.0146587
774.826	0.0147476
774.905	0.0147521
774.983	0.0147173
775.061	0.0145969
775.139	0.0145673
775.217	0.0147658
775.295	0.0148140
775.373	0.0147980
775.451	0.0146961
775.530	0.0146128
775.608	0.0146177
775.686	0.0145835
775.764	0.0144961
775.842	0.0144296
775.920	0.0145026
775.998	0.0144544
776.076	0.0144715
776.155	0.0144123
776.233	0.0143517
776.311	0.0143635
776.389	0.0143900
776.467	0.0142709
776.545	0.0144575
776.623	0.0144090
776.701	0.0144634
776.780	0.0144996
776.858	0.0147714
776.936	0.0146503
777.014	0.0147052
777.092	0.0148392
777.170	0.0147974
777.248	0.0148261
777.326	0.0147954
777.405	0.0147728
777.483	0.0150008
777.561	0.0148984
777.639	0.0147560
777.717	0.0147983
777.795	0.0148566
777.873	0.0147514
777.951	0.0146153
778.030	0.0146143
778.108	0.0144678
778.186	0.0145222
778.264	0.0144788
778.342	0.0145517
778.420	0.0142487
778.498	0.0143298
778.576	0.0146806
778.655	0.0141715
778.733	0.0142217
778.811	0.0141856
778.889	0.0142418
778.967	0.0143623
779.045	0.0142874
779.123	0.0143959
779.201	0.0143536
779.280	0.0144037
779.358	0.0144563
779.436	0.0144061
779.514	0.0145089
779.592	0.0143743
779.670	0.0145338
779.748	0.0145268
779.826	0.0146157
779.905	0.0146278
779.983	0.0146307
780.061	0.0145284
780.139	0.0146139
780.217	0.0144360
780.295	0.0144735
780.373	0.0144315
780.451	0.0143755
780.530	0.0143237
780.608	0.0142809
780.686	0.0142118
780.764	0.0142918
780.842	0.0142153
780.920	0.0143578
780.998	0.0143061
781.076	0.0142932
781.155	0.0143071
781.233	0.0141954
781.311	0.0142999
781.389	0.0142950
781.467	0.0142937
781.545	0.0141439
781.623	0.0143766
781.701	0.0145390
781.780	0.0143636
781.858	0.0145557
781.936	0.0144025
782.014	0.0144971
782.092	0.0145169
782.170	0.0146266
782.248	0.0146999
782.326	0.0145034
782.405	0.0145394
782.483	0.0145899
782.561	0.0145595
782.639	0.0145686
782.717	0.0146821
782.795	0.0145684
782.873	0.0145623
782.951	0.0145088
783.030	0.0145229
783.108	0.0145624
783.186	0.0146439
783.264	0.0144943
783.342	0.0145028
783.420	0.0143449
783.498	0.0145668
783.576	0.0145354
783.655	0.0145495
783.733	0.0144376
783.811	0.0143525
783.889	0.0144738
783.967	0.0142841
784.045	0.0142381
784.123	0.0141359
784.201	0.0141104
784.280	0.0142287
784.358	0.0141694
784.436	0.0142076
784.514	0.0143213
784.592	0.0143286
784.670	0.0143302
784.748	0.0144019
784.826	0.0145525
784.905	0.0146233
784.983	0.0147881
785.061	0.0146943
785.139	0.0149123
785.217	0.0149818
785.295	0.0150106
785.373	0.0150282
785.451	0.0149728
785.530	0.0150883
785.608	0.0149916
785.686	0.0150021
785.764	0.0149017
785.842	0.0148669
785.920	0.0149547
785.998	0.0149153
786.076	0.0149050
786.155	0.0147443
786.233	0.0145094
786.311	0.0147094
786.389	0.0146500
786.467	0.0144391
786.545	0.0144908
786.623	0.0144209
786.701	0.0142940
786.780	0.0143894
786.858	0.0142542
786.936	0.0142744
787.014	0.0141307
787.092	0.0143635
787.170	0.0142253
787.248	0.0141772
787.326	0.0142700
787.405	0.0140031
787.483	0.0141341
787.561	0.0141443
787.639	0.0142049
787.717	0.0142638
787.795	0.0142789
787.873	0.0143086
787.951	0.0142373
788.030	0.0143441
788.108	0.0144778
788.186	0.0144423
788.264	0.0144872
788.342	0.0143769
788.420	0.0145731
788.498	0.0142967
788.576	0.0143831
788.655	0.0144263
788.733	0.0143314
788.811	0.0143351
788.889	0.0143353
788.967	0.0144093
789.045	0.0142874
789.123	0.0143376
789.201	0.0143993
789.280	0.0142971
789.358	0.0143122
789.436	0.0143129
789.514	0.0143558
789.592	0.0144545
789.670	0.0144273
789.748	0.0145118
789.826	0.0144458
789.905	0.0145210
789.983	0.0143377
790.061	0.0145316
790.139	0.0145313
790.217	0.0145135
790.295	0.0145999
790.373	0.0145476
790.451	0.0145593
790.530	0.0144036
790.608	0.0144897
790.686	0.0144954
790.764	0.0143540
790.842	0.0143875
790.920	0.0144733
790.998	0.0143886
791.076	0.0144528
791.155	0.0145119
791.233	0.0142429
791.311	0.0143430
791.389	0.0141906
791.467	0.0142393
791.545	0.0142807
791.623	0.0143952
791.701	0.0144400
791.780	0.0143305
791.858	0.0142418
791.936	0.0146180
792.014	0.0144496
792.092	0.0143833
792.170	0.0144090
792.248	0.0144795
792.326	0.0145831
792.405	0.0145302
792.483	0.0145855
792.561	0.0144389
792.639	0.0144621
792.717	0.0145885
792.795	0.0146529
792.873	0.0146225
792.951	0.0147463
793.030	0.0146684
793.108	0.0147348
793.186	0.0147713
793.264	0.0147575
793.342	0.0148279
793.420	0.0149106
793.498	0.0146966
793.576	0.0146198
793.655	0.0147406
793.733	0.0147330
793.811	0.0146149
793.889	0.0145641
793.967	0.0144939
794.045	0.0144360
794.123	0.0144213
794.201	0.0144135
794.280	0.0142121
794.358	0.0141327
794.436	0.0142967
794.514	0.0141499
794.592	0.0141175
794.670	0.0140826
794.748	0.0141179
794.826	0.0140999
794.905	0.0140923
794.983	0.0141380
795.061	0.0143039
795.139	0.0142966
795.217	0.0143627
795.295	0.0142654
795.373	0.0143519
795.451	0.0143435
795.530	0.0144612
795.608	0.0145174
795.686	0.0144044
795.764	0.0144842
795.842	0.0146075
795.920	0.0145700
795.998	0.0145322
796.076	0.0144342
796.155	0.0144340
796.233	0.0145588
796.311	0.0146356
796.389	0.0145419
796.467	0.0147170
796.545	0.0147932
796.623	0.0146502
796.701	0.0145544
796.780	0.0146055
796.858	0.0146690
796.936	0.0146393
797.014	0.0146252
797.092	0.0147484
797.170	0.0147578
797.248	0.0145359
797.326	0.0145994
797.405	0.0144833
797.483	0.0144957
797.561	0.0144211
797.639	0.0146256
797.717	0.0146265
797.795	0.0146042
797.873	0.0144250
797.951	0.0144994
798.030	0.0145219
798.108	0.0146275
798.186	0.0144559
798.264	0.0144034
798.342	0.0143085
798.420	0.0144749
798.498	0.0143584
798.576	0.0143839
798.655	0.0143477
798.733	0.0143021
798.811	0.0141927
798.889	0.0141277
798.967	0.0142109
799.045	0.0142721
799.123	0.0143331
799.201	0.0144077
799.280	0.0141998
799.358	0.0141433
799.436	0.0143256
799.514	0.0145257
799.592	0.0144402
799.670	0.0144905
799.748	0.0144865
799.826	0.0144837
799.905	0.0144925
799.983	0.0145653
800.061	0.0144653
800.139	0.0145110
800.217	0.0146300
800.295	0.0146108
800.373	0.0147234
800.451	0.0145986
800.530	0.0146369
800.608	0.0146171
800.686	0.0145931
800.764	0.0146605
800.842	0.0146956
800.920	0.0146304
800.998	0.0147420
801.076	0.0147647
801.155	0.0146416
801.233	0.0147180
801.311	0.0146655
801.389	0.0148422
801.467	0.0147272
801.545	0.0146974
801.623	0.0145342
801.701	0.0146870
801.780	0.0147392
801.858	0.0147269
801.936	0.0145210
802.014	0.0146381
802.092	0.0144479
802.170	0.0144276
802.248	0.0145649
802.326	0.0144244
802.405	0.0143956
802.483	0.0143104
802.561	0.0141853
802.639	0.0143437
802.717	0.0141663
802.795	0.0141812
802.873	0.0142220
802.951	0.0142339
803.030	0.0142426
803.108	0.0140996
803.186	0.0142669
803.264	0.0142593
803.342	0.0142523
803.420	0.0143140
803.498	0.0143144
803.576	0.0142089
803.655	0.0141717
803.733	0.0143523
803.811	0.0143101
803.889	0.0141564
803.967	0.0143923
804.045	0.0144242
804.123	0.0142126
804.201	0.0141912
804.280	0.0143160
804.358	0.0142567
804.436	0.0143179
804.514	0.0143321
804.592	0.0143351
804.670	0.0143448
804.748	0.0142835
804.826	0.0142682
804.905	0.0142554
804.983	0.0144256
805.061	0.0144342
805.139	0.0143401
805.217	0.0143613
805.295	0.0145293
805.373	0.0144497
805.451	0.0144234
805.530	0.0144185
805.608	0.0145698
805.686	0.0144667
805.764	0.0146946
805.842	0.0146003
805.920	0.0147345
805.998	0.0148671
806.076	0.0148540
806.155	0.0146934
806.233	0.0149342
806.311	0.0148161
806.389	0.0148392
806.467	0.0148820
806.545	0.0149355
806.623	0.0150146
806.701	0.0148695
806.780	0.0148217
806.858	0.0148579
806.936	0.0146411
807.014	0.0147866
807.092	0.0146839
807.170	0.0146765
807.248	0.0147010
807.326	0.0146255
807.405	0.0147639
807.483	0.0147460
807.561	0.0145859
807.639	0.0147081
807.717	0.0145584
807.795	0.0145287
807.873	0.0144773
807.951	0.0145260
808.030	0.0146254
808.108	0.0144381
808.186	0.0144414
808.264	0.0144617
808.342	0.0145479
808.420	0.0144328
808.498	0.0145014
808.576	0.0145052
808.655	0.0145159
808.733	0.0145695
808.811	0.0144569
808.889	0.0145733
808.967	0.0145869
809.045	0.0145495
809.123	0.0143792
809.201	0.0145367
809.280	0.0144739
809.358	0.0145152
809.436	0.0145097
809.514	0.0144444
809.592	0.0144555
809.670	0.0143850
809.748	0.0143672
809.826	0.0144719
809.905	0.0143729
809.983	0.0144980
810.061	0.0144661
810.139	0.0145451
810.217	0.0144164
810.295	0.0142210
810.373	0.0144920
810.451	0.0144305
810.530	0.0144072
810.608	0.0143808
810.686	0.0144923
810.764	0.0144541
810.842	0.0144569
810.920	0.0145093
810.998	0.0145123
811.076	0.0146626
811.155	0.0147140
811.233	0.0146034
811.311	0.0144795
811.389	0.0145795
811.467	0.0146098
811.545	0.0146970
811.623	0.0147548
811.701	0.0144560
811.780	0.0145659
811.858	0.0146620
811.936	0.0145597
812.014	0.0146798
812.092	0.0146269
812.170	0.0145705
812.248	0.0144535
812.326	0.0145512
812.405	0.0145459
812.483	0.0143948
812.561	0.0144078
812.639	0.0144840
812.717	0.0145259
812.795	0.0145374
812.873	0.0145456
812.951	0.0146033
813.030	0.0145370
813.108	0.0146519
813.186	0.0146049
813.264	0.0147157
813.342	0.0144923
813.420	0.0146005
813.498	0.0145483
813.576	0.0145441
813.655	0.0146706
813.733	0.0146527
813.811	0.0146037
813.889	0.0145638
813.967	0.0146483
814.045	0.0146398
814.123	0.0146060
814.201	0.0146584
814.280	0.0146489
814.358	0.0145197
814.436	0.0146397
814.514	0.0145974
814.592	0.0146035
814.670	0.0146208
814.748	0.0145686
814.826	0.0143953
814.905	0.0144838
814.983	0.0146014
815.061	0.0142473
815.139	0.0143575
815.217	0.0144917
815.295	0.0144959
815.373	0.0144378
815.451	0.0144289
815.530	0.0144118
815.608	0.0144328
815.686	0.0144402
815.764	0.0143908
815.842	0.0143645
815.920	0.0146032
815.998	0.0144376
816.076	0.0144031
816.155	0.0143681
816.233	0.0144591
816.311	0.0145152
816.389	0.0145721
816.467	0.0145033
816.545	0.0144732
816.623	0.0144730
816.701	0.0144224
816.780	0.0144573
816.858	0.0145115
816.936	0.0143269
817.014	0.0143851
817.092	0.0146925
817.170	0.0146054
817.248	0.0144501
817.326	0.0145347
817.405	0.0144874
817.483	0.0145106
817.561	0.0145279
817.639	0.0146131
817.717	0.0144990
817.795	0.0143858
817.873	0.0144721
817.951	0.0144703
818.030	0.0144787
818.108	0.0144275
818.186	0.0143410
818.264	0.0142863
818.342	0.0142959
818.420	0.0143658
818.498	0.0144558
818.576	0.0145465
818.655	0.0143124
818.733	0.0143335
818.811	0.0144271
818.889	0.0146970
818.967	0.0146647
819.045	0.0144356
819.123	0.0145767
819.201	0.0145296
819.280	0.0145408
819.358	0.0144695
819.436	0.0147703
819.514	0.0145222
819.592	0.0144665
819.670	0.0145432
819.748	0.0144291
819.826	0.0145245
819.905	0.0144264
819.983	0.0144027
820.061	0.0144560
820.139	0.0145005
820.217	0.0142966
820.295	0.0141508
820.373	0.0143571
820.451	0.0142506
820.530	0.0142620
820.608	0.0143172
820.686	0.0141193
820.764	0.0142917
820.842	0.0143237
820.920	0.0141883
820.998	0.0142258
821.076	0.0142260
821.155	0.0142151
821.233	0.0143451
821.311	0.0142506
821.389	0.0143774
821.467	0.0143964
821.545	0.0144681
821.623	0.0143456
821.701	0.0145199
821.780	0.0145266
821.858	0.0144525
821.936	0.0146603
822.014	0.0146038
822.092	0.0145997
822.170	0.0145095
822.248	0.0146177
822.326	0.0145550
822.405	0.0145824
822.483	0.0145603
822.561	0.0144876
822.639	0.0146256
822.717	0.0146297
822.795	0.0145718
822.873	0.0145420
822.951	0.0145795
823.030	0.0144072
823.108	0.0144109
823.186	0.0145187
823.264	0.0144292
823.342	0.0143588
823.420	0.0144165
823.498	0.0143901
823.576	0.0144191
823.655	0.0144184
823.733	0.0143374
823.811	0.0145606
823.889	0.0145004
823.967	0.0144221
824.045	0.0143828
824.123	0.0143282
824.201	0.0145293
824.280	0.0144733
824.358	0.0145138
824.436	0.0144205
824.514	0.0145300
824.592	0.0144120
824.670	0.0144675
824.748	0.0143461
824.826	0.0146561
824.905	0.0143450
824.983	0.0144537
825.061	0.0144792
825.139	0.0145217
825.217	0.0144301
825.295	0.0143978
825.373	0.0145225
825.451	0.0146183
825.530	0.0143368
825.608	0.0145093
825.686	0.0146008
825.764	0.0145383
825.842	0.0144063
825.920	0.0144492
825.998	0.0143784
826.076	0.0144594
826.155	0.0144954
826.233	0.0145398
826.311	0.0145319
826.389	0.0142786
826.467	0.0143552
826.545	0.0143456
826.623	0.0144460
826.701	0.0142478
826.780	0.0143577
826.858	0.0143228
826.936	0.0143821
827.014	0.0144522
827.092	0.0143980
827.170	0.0144161
827.248	0.0144263
827.326	0.0145573
827.405	0.0145868
827.483	0.0144829
827.561	0.0145668
827.639	0.0146127
827.717	0.0145767
827.795	0.0145377
827.873	0.0146475
827.951	0.0146262
828.030	0.0146181
828.108	0.0146912
828.186	0.0146164
828.264	0.0146337
828.342	0.0146618
828.420	0.0146994
828.498	0.0145773
828.576	0.0145359
828.655	0.0145452
828.733	0.0145143
828.811	0.0147002
828.889	0.0145669
828.967	0.0143859
829.045	0.0145908
829.123	0.0144118
829.201	0.0146223
829.280	0.0145489
829.358	0.0144811
829.436	0.0145726
829.514	0.0144746
829.592	0.0146086
829.670	0.0146179
829.748	0.0145466
829.826	0.0147461
829.905	0.0148080
829.983	0.0147160
830.061	0.0145891
830.139	0.0147423
830.217	0.0146019
830.295	0.0147221
830.373	0.0147797
830.451	0.0146955
830.530	0.0148196
830.608	0.0146808
830.686	0.0147157
830.764	0.0146663
830.842	0.0147807
830.920	0.0146892
830.998	0.0145318
831.076	0.0145082
831.155	0.0146595
831.233	0.0145595
831.311	0.0144596
831.389	0.0144354
831.467	0.0145353
831.545	0.0145961
831.623	0.0144840
831.701	0.0143777
831.780	0.0144975
831.858	0.0145499
831.936	0.0145047
832.014	0.0142891
832.092	0.0144203
832.170	0.0146820
832.248	0.0145676
832.326	0.0144740
832.405	0.0146346
832.483	0.0145943
832.561	0.0145242
832.639	0.0144386
832.717	0.0146522
832.795	0.0145969
832.873	0.0145377
832.951	0.0146066
833.030	0.0145691
833.108	0.0146374
833.186	0.0145270
833.264	0.0145134
833.342	0.0145215
833.420	0.0146307
833.498	0.0143581
833.576	0.0144782
833.655	0.0144131
833.733	0.0143323
833.811	0.0143713
833.889	0.0144582
833.967	0.0143192
834.045	0.0143565
834.123	0.0144017
834.201	0.0144308
834.280	0.0144083
834.358	0.0143331
834.436	0.0144816
834.514	0.0145822
834.592	0.0142737
834.670	0.0143130
834.748	0.0144672
834.826	0.0142872
834.905	0.0143900
834.983	0.0143862
835.061	0.0142936
835.139	0.0144010
835.217	0.0142744
835.295	0.0144003
835.373	0.0143250
835.451	0.0144504
835.530	0.0144601
835.608	0.0143323
835.686	0.0144355
835.764	0.0142850
835.842	0.0143870
835.920	0.0145838
835.998	0.0143858
836.076	0.0144113
836.155	0.0145100
836.233	0.0143924
836.311	0.0144303
836.389	0.0144323
836.467	0.0145962
836.545	0.0145110
836.623	0.0144106
836.701	0.0144255
836.780	0.0143917
836.858	0.0144425
836.936	0.0145185
837.014	0.0145042
837.092	0.0145168
837.170	0.0145696
837.248	0.0146203
837.326	0.0146243
837.405	0.0145194
837.483	0.0145192
837.561	0.0146507
837.639	0.0145892
837.717	0.0145484
837.795	0.0146095
837.873	0.0145818
837.951	0.0145596
838.030	0.0144910
838.108	0.0145454
838.186	0.0145854
838.264	0.0146570
838.342	0.0146177
838.420	0.0146470
838.498	0.0146217
838.576	0.0146129
838.655	0.0145565
838.733	0.0144531
838.811	0.0145262
838.889	0.0146172
838.967	0.0144970
839.045	0.0145106
839.123	0.0145354
839.201	0.0144984
839.280	0.0144527
839.358	0.0145211
839.436	0.0145509
839.514	0.0143486
839.592	0.0145493
839.670	0.0143465
839.748	0.0142506
839.826	0.0146053
839.905	0.0144938
839.983	0.0145235
840.061	0.0144413
840.139	0.0144228
840.217	0.0144781
840.295	0.0144875
840.373	0.0143856
840.451	0.0143392
840.530	0.0144630
840.608	0.0145091
840.686	0.0143748
840.764	0.0145778
840.842	0.0144467
840.920	0.0146293
840.998	0.0145313
841.076	0.0145934
841.155	0.0145617
841.233	0.0146248
841.311	0.0145869
841.389	0.0143880
841.467	0.0145038
841.545	0.0145432
841.623	0.0144416
841.701	0.0145700
841.780	0.0144370
841.858	0.0143217
841.936	0.0145239
842.014	0.0143361
842.092	0.0143102
842.170	0.0144875
842.248	0.0143951
842.326	0.0143948
842.405	0.0141866
842.483	0.0144037
842.561	0.0143776
842.639	0.0143811
842.717	0.0144501
842.795	0.0143520
842.873	0.0144475
842.951	0.0145736
843.030	0.0145007
843.108	0.0144611
843.186	0.0144691
843.264	0.0145267
843.342	0.0144270
843.420	0.0143312
843.498	0.0144752
843.576	0.0144578
843.655	0.0144611
843.733	0.0142982
843.811	0.0143662
843.889	0.0143885
843.967	0.0143555
844.045	0.0143866
844.123	0.0143521
844.201	0.0144033
844.280	0.0143745
844.358	0.0143375
844.436	0.0144054
844.514	0.0143192
844.592	0.0145539
844.670	0.0144632
844.748	0.0142363
844.826	0.0143806
844.905	0.0143484
844.983	0.0142856
845.061	0.0144439
845.139	0.0144849
845.217	0.0144404
845.295	0.0144719
845.373	0.0145248
845.451	0.0145287
845.530	0.0144286
845.608	0.0144849
845.686	0.0143844
845.764	0.0144899
845.842	0.0145137
845.920	0.0143717
845.998	0.0143896
846.076	0.0144926
846.155	0.0144913
846.233	0.0145641
846.311	0.0145848
846.389	0.0144280
846.467	0.0145065
846.545	0.0145383
846.623	0.0146207
846.701	0.0146777
846.780	0.0144208
846.858	0.0145564
846.936	0.0145512
847.014	0.0144626
847.092	0.0146577
847.170	0.0147610
847.248	0.0144914
847.326	0.0146671
847.405	0.0146581
847.483	0.0146904
847.561	0.0145454
847.639	0.0146630
847.717	0.0146713
847.795	0.0146711
847.873	0.0146701
847.951	0.0147067
848.030	0.0145374
848.108	0.0145844
848.186	0.0146206
848.264	0.0146053
848.342	0.0145947
848.420	0.0146098
848.498	0.0146075
848.576	0.0145874
848.655	0.0145093
848.733	0.0145017
848.811	0.0144973
848.889	0.0144662
848.967	0.0144559
849.045	0.0144318
849.123	0.0145489
849.201	0.0144894
849.280	0.0144469
849.358	0.0143745
849.436	0.0144951
849.514	0.0145296
849.592	0.0144912
849.670	0.0144833
849.748	0.0144878
849.826	0.0144151
849.905	0.0144600
849.983	0.0143574
850.061	0.0143430
850.139	0.0144309
850.217	0.0144890
850.295	0.0143491
850.373	0.0143353
850.451	0.0145191
850.530	0.0144270
850.608	0.0143541
850.686	0.0144054
850.764	0.0145147
850.842	0.0143767
850.920	0.0144874
850.998	0.0144910
851.076	0.0145293
851.155	0.0144958
851.233	0.0144783
851.311	0.0144236
851.389	0.0145444
851.467	0.0145145
851.545	0.0144804
851.623	0.0144569
851.701	0.0144255
851.780	0.0145188
851.858	0.0144728
851.936	0.0144337
852.014	0.0144552
852.092	0.0143267
852.170	0.0145885
852.248	0.0144698
852.326	0.0145003
852.405	0.0144836
852.483	0.0144209
852.561	0.0144816
852.639	0.0145055
852.717	0.0144669
852.795	0.0144264
852.873	0.0145285
852.951	0.0145355
853.030	0.0145476
853.108	0.0145219
853.186	0.0144627
853.264	0.0146026
853.342	0.0145908
853.420	0.0145994
853.498	0.0145580
853.576	0.0146886
853.655	0.0145567
853.733	0.0146032
853.811	0.0147139
853.889	0.0146009
853.967	0.0146411
854.045	0.0146516
854.123	0.0146256
854.201	0.0145893
854.280	0.0147551
854.358	0.0145932
854.436	0.0145998
854.514	0.0146324
854.592	0.0145696
854.670	0.0144656
854.748	0.0145689
854.826	0.0147310
854.905	0.0146961
854.983	0.0145583
855.061	0.0144004
855.139	0.0143996
855.217	0.0145137
855.295	0.0144838
855.373	0.0144733
855.451	0.0144017
855.530	0.0144598
855.608	0.0143507
855.686	0.0144881
855.764	0.0145547
855.842	0.0144667
855.920	0.0143752
855.998	0.0144712
856.076	0.0143591
856.155	0.0144149
856.233	0.0143020
856.311	0.0142755
856.389	0.0144010
856.467	0.0143221
856.545	0.0144131
856.623	0.0144062
856.701	0.0143397
856.780	0.0144077
856.858	0.0143875
856.936	0.0143454
857.014	0.0143662
857.092	0.0143401
857.170	0.0143510
857.248	0.0143372
857.326	0.0144318
857.405	0.0144145
857.483	0.0143676
857.561	0.0143489
857.639	0.0142841
857.717	0.0143597
857.795	0.0143953
857.873	0.0144225
857.951	0.0144139
858.030	0.0142368
858.108	0.0143986
858.186	0.0143872
858.264	0.0144740
858.342	0.0143696
858.420	0.0143588
858.498	0.0144404
858.576	0.0143846
858.655	0.0145032
858.733	0.0143494
858.811	0.0145277
858.889	0.0144627
858.967	0.0144302
859.045	0.0145071
859.123	0.0143953
859.201	0.0146595
859.280	0.0145055
859.358	0.0145766
859.436	0.0144090
859.514	0.0144691
859.592	0.0145245
859.670	0.0144795
859.748	0.0146040
859.826	0.0145481
859.905	0.0145579
859.983	0.0146465
860.061	0.0145349
860.139	0.0144390
860.217	0.0144199
860.295	0.0145924
860.373	0.0145739
860.451	0.0142462
860.530	0.0142901
860.608	0.0143314
860.686	0.0144418
860.764	0.0144802
860.842	0.0143842
860.920	0.0141234
860.998	0.0142856
861.076	0.0143312
861.155	0.0142668
861.233	0.0143848
861.311	0.0143969
861.389	0.0143713
861.467	0.0143598
861.545	0.0144416
861.623	0.0143701
861.701	0.0144850
861.780	0.0145773
861.858	0.0145078
861.936	0.0145462
862.014	0.0144941
862.092	0.0144054
862.170	0.0146381
862.248	0.0146368
862.326	0.0144807
862.405	0.0145624
862.483	0.0146712
862.561	0.0145483
862.639	0.0144872
862.717	0.0145428
862.795	0.0145600
862.873	0.0144070
862.951	0.0145956
863.030	0.0144888
863.108	0.0145653
863.186	0.0144131
863.264	0.0146638
863.342	0.0145982
863.420	0.0145666
863.498	0.0145097
863.576	0.0145269
863.655	0.0144490
863.733	0.0145869
863.811	0.0145759
863.889	0.0144865
863.967	0.0143330
864.045	0.0145067
864.123	0.0144797
864.201	0.0144868
864.280	0.0144558
864.358	0.0144775
864.436	0.0144819
864.514	0.0143531
864.592	0.0144538
864.670	0.0143006
864.748	0.0143769
864.826	0.0142913
864.905	0.0143506
864.983	0.0143450
865.061	0.0144680
865.139	0.0143474
865.217	0.0142791
865.295	0.0143958
865.373	0.0141908
865.451	0.0142978
865.530	0.0143105
865.608	0.0143130
865.686	0.0142034
865.764	0.0142174
865.842	0.0141923
865.920	0.0142628
865.998	0.0143378
866.076	0.0142730
866.155	0.0142175
866.233	0.0140285
866.311	0.0141791
866.389	0.0143351
866.467	0.0143172
866.545	0.0142415
866.623	0.0141869
866.701	0.0142798
866.780	0.0144054
866.858	0.0144598
866.936	0.0144690
867.014	0.0143776
867.092	0.0143423
867.170	0.0144270
867.248	0.0145897
867.326	0.0143975
867.405	0.0143745
867.483	0.0145302
867.561	0.0144682
867.639	0.0144553
867.717	0.0145336
867.795	0.0142673
867.873	0.0143832
867.951	0.0143023
868.030	0.0145412
868.108	0.0145535
868.186	0.0146071
868.264	0.0145405
868.342	0.0145933
868.420	0.0144418
868.498	0.0145908
868.576	0.0143990
868.655	0.0144415
868.733	0.0146619
868.811	0.0144930
868.889	0.0147078
868.967	0.0145868
869.045	0.0145506
869.123	0.0145300
869.201	0.0145879
869.280	0.0144601
869.358	0.0144387
869.436	0.0144798
869.514	0.0144347
869.592	0.0144866
869.670	0.0145034
869.748	0.0145394
869.826	0.0145975
869.905	0.0145164
869.983	0.0144962
870.061	0.0144308
870.139	0.0146080
870.217	0.0145607
870.295	0.0145122
870.373	0.0146289
870.451	0.0146320
870.530	0.0146329
870.608	0.0146123
870.686	0.0144675
870.764	0.0144334
870.842	0.0143626
870.920	0.0145296
870.998	0.0145109
871.076	0.0144328
871.155	0.0144487
871.233	0.0145070
871.311	0.0145917
871.389	0.0145780
871.467	0.0146009
871.545	0.0146378
871.623	0.0146368
871.701	0.0146283
871.780	0.0147112
871.858	0.0146105
871.936	0.0144865
872.014	0.0146126
872.092	0.0146796
872.170	0.0145385
872.248	0.0145256
872.326	0.0144841
872.405	0.0145352
872.483	0.0144751
872.561	0.0144363
872.639	0.0145263
872.717	0.0144413
872.795	0.0144460
872.873	0.0144270
872.951	0.0143985
873.030	0.0145821
873.108	0.0146829
873.186	0.0145267
873.264	0.0144662
873.342	0.0147075
873.420	0.0146645
873.498	0.0146839
873.576	0.0147911
873.655	0.0146735
873.733	0.0146084
873.811	0.0147377
873.889	0.0147044
873.967	0.0146397
874.045	0.0145670
874.123	0.0146941
874.201	0.0147446
874.280	0.0145616
874.358	0.0145670
874.436	0.0146562
874.514	0.0144834
874.592	0.0145280
874.670	0.0146758
874.748	0.0146667
874.826	0.0146447
874.905	0.0147246
874.983	0.0147333
875.061	0.0146395
875.139	0.0146530
875.217	0.0148991
875.295	0.0147815
875.373	0.0147881
875.451	0.0146581
875.530	0.0147971
875.608	0.0146517
875.686	0.0147640
875.764	0.0146484
875.842	0.0146494
875.920	0.0146561
875.998	0.0146526
876.076	0.0147654
876.155	0.0147465
876.233	0.0148325
876.311	0.0145599
876.389	0.0147321
876.467	0.0147043
876.545	0.0145494
876.623	0.0147953
876.701	0.0146681
876.780	0.0146547
876.858	0.0145730
876.936	0.0146912
877.014	0.0146613
877.092	0.0144695
877.170	0.0144355
877.248	0.0146616
877.326	0.0146819
877.405	0.0145573
877.483	0.0145541
877.561	0.0146115
877.639	0.0145933
877.717	0.0143764
877.795	0.0145595
877.873	0.0144690
877.951	0.0144718
878.030	0.0146171
878.108	0.0144357
878.186	0.0144646
878.264	0.0144173
878.342	0.0145081
878.420	0.0143494
878.498	0.0143493
878.576	0.0144370
878.655	0.0144424
878.733	0.0143972
878.811	0.0143253
878.889	0.0143520
878.967	0.0145152
879.045	0.0144117
879.123	0.0143010
879.201	0.0143319
879.280	0.0142469
879.358	0.0143416
879.436	0.0141837
879.514	0.0142680
879.592	0.0142296
879.670	0.0142253
879.748	0.0141970
879.826	0.0143055
879.905	0.0143694
879.983	0.0143511
880.061	0.0142775
880.139	0.0144229
880.217	0.0145754
880.295	0.0145351
880.373	0.0144755
880.451	0.0144254
880.530	0.0145253
880.608	0.0145106
880.686	0.0145074
880.764	0.0143811
880.842	0.0142969
880.920	0.0143519
880.998	0.0144723
881.076	0.0144419
881.155	0.0143734
881.233	0.0142785
881.311	0.0141808
881.389	0.0142027
881.467	0.0142157
881.545	0.0142235
881.623	0.0143356
881.701	0.0142974
881.780	0.0143307
881.858	0.0142941
881.936	0.0143217
882.014	0.0143871
882.092	0.0142611
882.170	0.0143211
882.248	0.0142548
882.326	0.0143060
882.405	0.0143984
882.483	0.0143123
882.561	0.0141360
882.639	0.0142250
882.717	0.0143910
882.795	0.0144009
882.873	0.0143597
882.951	0.0143661
883.030	0.0143726
883.108	0.0144491
883.186	0.0145840
883.264	0.0144958
883.342	0.0144638
883.420	0.0146341
883.498	0.0146989
883.576	0.0145483
883.655	0.0145845
883.733	0.0145660
883.811	0.0145931
883.889	0.0146397
883.967	0.0146027
884.045	0.0146450
884.123	0.0145917
884.201	0.0145705
884.280	0.0144526
884.358	0.0146149
884.436	0.0144832
884.514	0.0143987
884.592	0.0144797
884.670	0.0144442
884.748	0.0143625
884.826	0.0143637
884.905	0.0142595
884.983	0.0142989
885.061	0.0142615
885.139	0.0144469
885.217	0.0143848
885.295	0.0144328
885.373	0.0143462
885.451	0.0144320
885.530	0.0144710
885.608	0.0146349
885.686	0.0144634
885.764	0.0145177
885.842	0.0145615
885.920	0.0145376
885.998	0.0144870
886.076	0.0146369
886.155	0.0144613
886.233	0.0146391
886.311	0.0145790
886.389	0.0145001
886.467	0.0144394
886.545	0.0144202
886.623	0.0144482
886.701	0.0144160
886.780	0.0143543
886.858	0.0144322
886.936	0.0144740
887.014	0.0143164
887.092	0.0143813
887.170	0.0143214
887.248	0.0144231
887.326	0.0143497
887.405	0.0142121
887.483	0.0143253
887.561	0.0143562
887.639	0.0145813
887.717	0.0144830
887.795	0.0144344
887.873	0.0144319
887.951	0.0145460
888.030	0.0146346
888.108	0.0145000
888.186	0.0144078
888.264	0.0144657
888.342	0.0145702
888.420	0.0144112
888.498	0.0143513
888.576	0.0143989
888.655	0.0141973
888.733	0.0142360
888.811	0.0143034
888.889	0.0143839
888.967	0.0143246
889.045	0.0143137
889.123	0.0142958
889.201	0.0143494
889.280	0.0142557
889.358	0.0142519
889.436	0.0143643
889.514	0.0144167
889.592	0.0143605
889.670	0.0144908
889.748	0.0144122
889.826	0.0144650
889.905	0.0144595
889.983	0.0142904
890.061	0.0144421
890.139	0.0144917
890.217	0.0143328
890.295	0.0144714
890.373	0.0144552
890.451	0.0145425
890.530	0.0144572
890.608	0.0143738
890.686	0.0146114
890.764	0.0145239
890.842	0.0144106
890.920	0.0144121
890.998	0.0144908
891.076	0.0144939
891.155	0.0144396
891.233	0.0145025
891.311	0.0145181
891.389	0.0142994
891.467	0.0143470
891.545	0.0145031
891.623	0.0144958
891.701	0.0144323
891.780	0.0145017
891.858	0.0142721
891.936	0.0144556
892.014	0.0145233
892.092	0.0145134
892.170	0.0145389
892.248	0.0145591
892.326	0.0143962
892.405	0.0146522
892.483	0.0145715
892.561	0.0145973
892.639	0.0145536
892.717	0.0145018
892.795	0.0146127
892.873	0.0143921
892.951	0.0144150
893.030	0.0145431
893.108	0.0146173
893.186	0.0146166
893.264	0.0145596
893.342	0.0145712
893.420	0.0145710
893.498	0.0142945
893.576	0.0144098
893.655	0.0145884
893.733	0.0144923
893.811	0.0145702
893.889	0.0145199
893.967	0.0145672
894.045	0.0143603
894.123	0.0144965
894.201	0.0145416
894.280	0.0145422
894.358	0.0145071
894.436	0.0144267
894.514	0.0145772
894.592	0.0146593
894.670	0.0145628
894.748	0.0144000
894.826	0.0145232
894.905	0.0145254
894.983	0.0146822
895.061	0.0145208
895.139	0.0146087
895.217	0.0145335
895.295	0.0146069
895.373	0.0145116
895.451	0.0145049
895.530	0.0145198
895.608	0.0144477
895.686	0.0145609
895.764	0.0144715
895.842	0.0144625
895.920	0.0145152
895.998	0.0145267
896.076	0.0146029
896.155	0.0145630
896.233	0.0147026
896.311	0.0146294
896.389	0.0146055
896.467	0.0146160
896.545	0.0145441
896.623	0.0146577
896.701	0.0146290
896.780	0.0145590
896.858	0.0145501
896.936	0.0144202
897.014	0.0144302
897.092	0.0145719
897.170	0.0144990
897.248	0.0145281
897.326	0.0143589
897.405	0.0144653
897.483	0.0146714
897.561	0.0144923
897.639	0.0144568
897.717	0.0144468
897.795	0.0144202
897.873	0.0144898
897.951	0.0146586
898.030	0.0144875
898.108	0.0145390
898.186	0.0145817
898.264	0.0147257
898.342	0.0145042
898.420	0.0143979
898.498	0.0143885
898.576	0.0144665
898.655	0.0145620
898.733	0.0145399
898.811	0.0145274
898.889	0.0145419
898.967	0.0145048
899.045	0.0144404
899.123	0.0145332
899.201	0.0146886
899.280	0.0144946
899.358	0.0144622
899.436	0.0144428
899.514	0.0144855
899.592	0.0144669
899.670	0.0143951
899.748	0.0144923
899.826	0.0144289
899.905	0.0144008
899.983	0.0144211
900.061	0.0145103
900.139	0.0143707
900.217	0.0143510
900.295	0.0142742
900.373	0.0142729
900.451	0.0144609
900.530	0.0145454
900.608	0.0144370
900.686	0.0144049
900.764	0.0145277
900.842	0.0144544
900.920	0.0144105
900.998	0.0145884
901.076	0.0147080
901.155	0.0146765
901.233	0.0146337
901.311	0.0144781
901.389	0.0146465
901.467	0.0146488
901.545	0.0146710
901.623	0.0145262
901.701	0.0143679
901.780	0.0143573
901.858	0.0143681
901.936	0.0143969
902.014	0.0144508
902.092	0.0143521
902.170	0.0142743
902.248	0.0142265
902.326	0.0143051
902.405	0.0143256
902.483	0.0143319
902.561	0.0143150
902.639	0.0143908
902.717	0.0143181
902.795	0.0144147
902.873	0.0144383
902.951	0.0144386
903.030	0.0145068
903.108	0.0143700
903.186	0.0143724
903.264	0.0144636
903.342	0.0144476
903.420	0.0144528
903.498	0.0144187
903.576	0.0143277
903.655	0.0145032
903.733	0.0145301
903.811	0.0143240
903.889	0.0144862
903.967	0.0145053
904.045	0.0144718
904.123	0.0143909
904.201	0.0144279
904.280	0.0144070
904.358	0.0145541
904.436	0.0144537
904.514	0.0144202
904.592	0.0144920
904.670	0.0146232
904.748	0.0144681
904.826	0.0143969
904.905	0.0145009
904.983	0.0144862
905.061	0.0144656
905.139	0.0144756
905.217	0.0145552
905.295	0.0143792
905.373	0.0144160
905.451	0.0143654
905.530	0.0145666
905.608	0.0144981
905.686	0.0145947
905.764	0.0146725
905.842	0.0145558
905.920	0.0146716
905.998	0.0146062
906.076	0.0146551
906.155	0.0145200
906.233	0.0145479
906.311	0.0146590
906.389	0.0146391
906.467	0.0145968
906.545	0.0144685
906.623	0.0145787
906.701	0.0145191
906.780	0.0143739
906.858	0.0145123
906.936	0.0146674
907.014	0.0146307
907.092	0.0146606
907.170	0.0145413
907.248	0.0145126
907.326	0.0146327
907.405	0.0147984
907.483	0.0147780
907.561	0.0146921
907.639	0.0147405
907.717	0.0146816
907.795	0.0147971
907.873	0.0145950
907.951	0.0146747
908.030	0.0147697
908.108	0.0148615
908.186	0.0147298
908.264	0.0148309
908.342	0.0146457
908.420	0.0147205
908.498	0.0148849
908.576	0.0145481
908.655	0.0145702
908.733	0.0145359
908.811	0.0146470
908.889	0.0145535
908.967	0.0146836
909.045	0.0145618
909.123	0.0145217
909.201	0.0144709
909.280	0.0145629
909.358	0.0145540
909.436	0.0146532
909.514	0.0145815
909.592	0.0145020
909.670	0.0145368
909.748	0.0147527
909.826	0.0147937
909.905	0.0147575
909.983	0.0146474
910.061	0.0146740
910.139	0.0146410
910.217	0.0147520
910.295	0.0147033
910.373	0.0146416
910.451	0.0145739
910.530	0.0144900
910.608	0.0144926
910.686	0.0145606
910.764	0.0145237
910.842	0.0145418
910.920	0.0144223
910.998	0.0144523
911.076	0.0145078
911.155	0.0144350
911.233	0.0145229
911.311	0.0145522
911.389	0.0145983
911.467	0.0145129
911.545	0.0144639
911.623	0.0143758
911.701	0.0144176
911.780	0.0144265
911.858	0.0144968
911.936	0.0144494
912.014	0.0145810
912.092	0.0144574
912.170	0.0143989
912.248	0.0144888
912.326	0.0142946
912.405	0.0145177
912.483	0.0143309
912.561	0.0144135
912.639	0.0143285
912.717	0.0144615
912.795	0.0145133
912.873	0.0144137
912.951	0.0143774
913.030	0.0144595
913.108	0.0144331
913.186	0.0144966
913.264	0.0144337
913.342	0.0144682
913.420	0.0143889
913.498	0.0145198
913.576	0.0144218
913.655	0.0144295
913.733	0.0145165
913.811	0.0144978
913.889	0.0145205
913.967	0.0145511
914.045	0.0145084
914.123	0.0145224
914.201	0.0146267
914.280	0.0146146
914.358	0.0145830
914.436	0.0144500
914.514	0.0146054
914.592	0.0147701
914.670	0.0144818
914.748	0.0144006
914.826	0.0144923
914.905	0.0144816
914.983	0.0144895
915.061	0.0144576
915.139	0.0144557
915.217	0.0145172
915.295	0.0146706
915.373	0.0145337
915.451	0.0144918
915.530	0.0145445
915.608	0.0144282
915.686	0.0145561
915.764	0.0144999
915.842	0.0145673
915.920	0.0146140
915.998	0.0144948
916.076	0.0144530
916.155	0.0143969
916.233	0.0144688
916.311	0.0144241
916.389	0.0143960
916.467	0.0143531
916.545	0.0144440
916.623	0.0144132
916.701	0.0144959
916.780	0.0142931
916.858	0.0145319
916.936	0.0144565
917.014	0.0143140
917.092	0.0143623
917.170	0.0142928
917.248	0.0142213
917.326	0.0142725
917.405	0.0144235
917.483	0.0144105
917.561	0.0143858
917.639	0.0142790
917.717	0.0143570
917.795	0.0142661
917.873	0.0142883
917.951	0.0143045
918.030	0.0144273
918.108	0.0144644
918.186	0.0142463
918.264	0.0143480
918.342	0.0143871
918.420	0.0144360
918.498	0.0144297
918.576	0.0142120
918.655	0.0144749
918.733	0.0144595
918.811	0.0144708
918.889	0.0145170
918.967	0.0145206
919.045	0.0144913
919.123	0.0143586
919.201	0.0144473
919.280	0.0144638
919.358	0.0143594
919.436	0.0143704
919.514	0.0143443
919.592	0.0145370
919.670	0.0144637
919.748	0.0145369
919.826	0.0144698
919.905	0.0144290
919.983	0.0142995
920.061	0.0143970
920.139	0.0143353
920.217	0.0144265
920.295	0.0144034
920.373	0.0144488
920.451	0.0144657
920.530	0.0145665
920.608	0.0145016
920.686	0.0145263
920.764	0.0145058
920.842	0.0144379
920.920	0.0143862
920.998	0.0145413
921.076	0.0145703
921.155	0.0144491
921.233	0.0144025
921.311	0.0144045
921.389	0.0145144
921.467	0.0144907
921.545	0.0144304
921.623	0.0144720
921.701	0.0144737
921.780	0.0144607
921.858	0.0145158
921.936	0.0143686
922.014	0.0145803
922.092	0.0145928
922.170	0.0144438
922.248	0.0145596
922.326	0.0145015
922.405	0.0144054
922.483	0.0144809
922.561	0.0144773
922.639	0.0146934
922.717	0.0145545
922.795	0.0144435
922.873	0.0144072
922.951	0.0144788
923.030	0.0143314
923.108	0.0143808
923.186	0.0145184
923.264	0.0143324
923.342	0.0144855
923.420	0.0143851
923.498	0.0144372
923.576	0.0143680
923.655	0.0145233
923.733	0.0144383
923.811	0.0144612
923.889	0.0144131
923.967	0.0145211
924.045	0.0144820
924.123	0.0145435
924.201	0.0145370
924.280	0.0145194
924.358	0.0146522
924.436	0.0146519
924.514	0.0145866
924.592	0.0147668
924.670	0.0145847
924.748	0.0146507
924.826	0.0145908
924.905	0.0145037
924.983	0.0146049
925.061	0.0146246
925.139	0.0145735
925.217	0.0145866
925.295	0.0145490
925.373	0.0144896
925.451	0.0144584
925.530	0.0144922
925.608	0.0144875
925.686	0.0145431
925.764	0.0145200
925.842	0.0143669
925.920	0.0144324
925.998	0.0144438
926.076	0.0143403
926.155	0.0143917
926.233	0.0143515
926.311	0.0145089
926.389	0.0144329
926.467	0.0144798
926.545	0.0144628
926.623	0.0144485
926.701	0.0145219
926.780	0.0145835
926.858	0.0147231
926.936	0.0145798
927.014	0.0144305
927.092	0.0144753
927.170	0.0146118
927.248	0.0145343
927.326	0.0143572
927.405	0.0144209
927.483	0.0143754
927.561	0.0143748
927.639	0.0143783
927.717	0.0144563
927.795	0.0143574
927.873	0.0144249
927.951	0.0143903
928.030	0.0142589
928.108	0.0145036
928.186	0.0144373
928.264	0.0145424
928.342	0.0144697
928.420	0.0144658
928.498	0.0145136
928.576	0.0144974
928.655	0.0146392
928.733	0.0146194
928.811	0.0146729
928.889	0.0146764
928.967	0.0146790
929.045	0.0147218
929.123	0.0146388
929.201	0.0145557
929.280	0.0147150
929.358	0.0147403
929.436	0.0143892
929.514	0.0144343
929.592	0.0145531
929.670	0.0145515
929.748	0.0146014
929.826	0.0144929
929.905	0.0146044
929.983	0.0145872
930.061	0.0145225
930.139	0.0145823
930.217	0.0146589
930.295	0.0147486
930.373	0.0146204
930.451	0.0146513
930.530	0.0148298
930.608	0.0145852
930.686	0.0146494
930.764	0.0148272
930.842	0.0146789
930.920	0.0147167
930.998	0.0146906
931.076	0.0147025
931.155	0.0148494
931.233	0.0147942
931.311	0.0145301
931.389	0.0146135
931.467	0.0145009
931.545	0.0144932
931.623	0.0145273
931.701	0.0147120
931.780	0.0146316
931.858	0.0145576
931.936	0.0143929
932.014	0.0146453
932.092	0.0147241
932.170	0.0146291
932.248	0.0145407
932.326	0.0147379
932.405	0.0147318
932.483	0.0148181
932.561	0.0145944
932.639	0.0147592
932.717	0.0146212
932.795	0.0146235
932.873	0.0145911
932.951	0.0146986
933.030	0.0145740
933.108	0.0146619
933.186	0.0146677
933.264	0.0145352
933.342	0.0147494
933.420	0.0146603
933.498	0.0145600
933.576	0.0145007
933.655	0.0144946
933.733	0.0145992
933.811	0.0145366
933.889	0.0144717
933.967	0.0144157
934.045	0.0145002
934.123	0.0145121
934.201	0.0146517
934.280	0.0144995
934.358	0.0144452
934.436	0.0144559
934.514	0.0144301
934.592	0.0145255
934.670	0.0145494
934.748	0.0144701
934.826	0.0145154
934.905	0.0144827
934.983	0.0145672
935.061	0.0145480
935.139	0.0144962
935.217	0.0144947
935.295	0.0145664
935.373	0.0144926
935.451	0.0144739
935.530	0.0145191
935.608	0.0144360
935.686	0.0144468
935.764	0.0144765
935.842	0.0144908
935.920	0.0144077
935.998	0.0144965
936.076	0.0144163
936.155	0.0143909
936.233	0.0146178
936.311	0.0146599
936.389	0.0145556
936.467	0.0144930
936.545	0.0145354
936.623	0.0143530
936.701	0.0144450
936.780	0.0145229
936.858	0.0146376
936.936	0.0145152
937.014	0.0144397
937.092	0.0145201
937.170	0.0143403
937.248	0.0144394
937.326	0.0145755
937.405	0.0143304
937.483	0.0144957
937.561	0.0145393
937.639	0.0145687
937.717	0.0145328
937.795	0.0144239
937.873	0.0144590
937.951	0.0144305
938.030	0.0144518
938.108	0.0146217
938.186	0.0144479
938.264	0.0143805
938.342	0.0146037
938.420	0.0144575
938.498	0.0145636
938.576	0.0144492
938.655	0.0145964
938.733	0.0146426
938.811	0.0144881
938.889	0.0146325
938.967	0.0145985
939.045	0.0146014
939.123	0.0146805
939.201	0.0146984
939.280	0.0145892
939.358	0.0147495
939.436	0.0147941
939.514	0.0146765
939.592	0.0146223
939.670	0.0145916
939.748	0.0146521
939.826	0.0146379
939.905	0.0145734
939.983	0.0144986
940.061	0.0145581
940.139	0.0143561
940.217	0.0144958
940.295	0.0145106
940.373	0.0145686
940.451	0.0144648
940.530	0.0145048
940.608	0.0144431
940.686	0.0143761
940.764	0.0145763
940.842	0.0144112
940.920	0.0144211
940.998	0.0144707
941.076	0.0143356
941.155	0.0144154
941.233	0.0143777
941.311	0.0145770
941.389	0.0143601
941.467	0.0143414
941.545	0.0142865
941.623	0.0144376
941.701	0.0144078
941.780	0.0143582
941.858	0.0144099
941.936	0.0143330
942.014	0.0143555
942.092	0.0142988
942.170	0.0141615
942.248	0.0141461
942.326	0.0142010
942.405	0.0143019
942.483	0.0142650
942.561	0.0143882
942.639	0.0142232
942.717	0.0142297
942.795	0.0143804
942.873	0.0144112
942.951	0.0142927
943.030	0.0142625
943.108	0.0142612
943.186	0.0142213
943.264	0.0142593
943.342	0.0142908
943.420	0.0143922
943.498	0.0144354
943.576	0.0142573
943.655	0.0144693
943.733	0.0144460
943.811	0.0143194
943.889	0.0143023
943.967	0.0143568
944.045	0.0143574
944.123	0.0145026
944.201	0.0143316
944.280	0.0144187
944.358	0.0143089
944.436	0.0142477
944.514	0.0144022
944.592	0.0144716
944.670	0.0143755
944.748	0.0142973
944.826	0.0142691
944.905	0.0142813
944.983	0.0143179
945.061	0.0142305
945.139	0.0142657
945.217	0.0142265
945.295	0.0143842
945.373	0.0143919
945.451	0.0144110
945.530	0.0143862
945.608	0.0144349
945.686	0.0143541
945.764	0.0144505
945.842	0.0144237
945.920	0.0144357
945.998	0.0144562
946.076	0.0144317
946.155	0.0143205
946.233	0.0142852
946.311	0.0142891
946.389	0.0145424
946.467	0.0143811
946.545	0.0143835
946.623	0.0143729
946.701	0.0143196
946.780	0.0144208
946.858	0.0143273
946.936	0.0143652
947.014	0.0143047
947.092	0.0142536
947.170	0.0143320
947.248	0.0142767
947.326	0.0143075
947.405	0.0142211
947.483	0.0142249
947.561	0.0143348
947.639	0.0144225
947.717	0.0144704
947.795	0.0143400
947.873	0.0144740
947.951	0.0143980
948.030	0.0143098
948.108	0.0143951
948.186	0.0144082
948.264	0.0144289
948.342	0.0143864
948.420	0.0145222
948.498	0.0142713
948.576	0.0142136
948.655	0.0144218
948.733	0.0144572
948.811	0.0145143
948.889	0.0144428
948.967	0.0143411
949.045	0.0142831
949.123	0.0144578
949.201	0.0143452
949.280	0.0143945
949.358	0.0145477
949.436	0.0143862
949.514	0.0145778
949.592	0.0145020
949.670	0.0144913
949.748	0.0144296
949.826	0.0144025
949.905	0.0145063
949.983	0.0145381
950.061	0.0143879
950.139	0.0145219
950.217	0.0146784
950.295	0.0146329
950.373	0.0145285
950.451	0.0143433
950.530	0.0144934
950.608	0.0145129
950.686	0.0144466
950.764	0.0145937
950.842	0.0144797
950.920	0.0144836
950.998	0.0144691
951.076	0.0144282
951.155	0.0144958
951.233	0.0144976
951.311	0.0146502
951.389	0.0145166
951.467	0.0143420
951.545	0.0144611
951.623	0.0144901
951.701	0.0144915
951.780	0.0144894
951.858	0.0145071
951.936	0.0144846
952.014	0.0145654
952.092	0.0145211
952.170	0.0145863
952.248	0.0145038
952.326	0.0145565
952.405	0.0146679
952.483	0.0145811
952.561	0.0146223
952.639	0.0148355
952.717	0.0145723
952.795	0.0145586
952.873	0.0144617
952.951	0.0145441
953.030	0.0145103
953.108	0.0145222
953.186	0.0145773
953.264	0.0145999
953.342	0.0144867
953.420	0.0146489
953.498	0.0144638
953.576	0.0143951
953.655	0.0144138
953.733	0.0145502
953.811	0.0145175
953.889	0.0145510
953.967	0.0145224
954.045	0.0144954
954.123	0.0144367
954.201	0.0145160
954.280	0.0145615
954.358	0.0146048
954.436	0.0146046
954.514	0.0146663
954.592	0.0145909
954.670	0.0145514
954.748	0.0145468
954.826	0.0145374
954.905	0.0145557
954.983	0.0144315
955.061	0.0145177
955.139	0.0145691
955.217	0.0144799
955.295	0.0145036
955.373	0.0144954
955.451	0.0144976
955.530	0.0147620
955.608	0.0144631
955.686	0.0146128
955.764	0.0147177
955.842	0.0146976
955.920	0.0145106
955.998	0.0146022
956.076	0.0147458
956.155	0.0145953
956.233	0.0145895
956.311	0.0147017
956.389	0.0146956
956.467	0.0146284
956.545	0.0146406
956.623	0.0146629
956.701	0.0146059
956.780	0.0146173
956.858	0.0146472
956.936	0.0145091
957.014	0.0147388
957.092	0.0146697
957.170	0.0144182
957.248	0.0145142
957.326	0.0145943
957.405	0.0147922
957.483	0.0146925
957.561	0.0146362
957.639	0.0145358
957.717	0.0146020
957.795	0.0144601
957.873	0.0145721
957.951	0.0145684
958.030	0.0145444
958.108	0.0145391
958.186	0.0145112
958.264	0.0144833
958.342	0.0146188
958.420	0.0145004
958.498	0.0145511
958.576	0.0146047
958.655	0.0145715
958.733	0.0144585
958.811	0.0146352
958.889	0.0144530
958.967	0.0144911
959.045	0.0144728
959.123	0.0145076
959.201	0.0145826
959.280	0.0146151
959.358	0.0145227
959.436	0.0145880
959.514	0.0144939
959.592	0.0145515
959.670	0.0144856
959.748	0.0145335
959.826	0.0144553
959.905	0.0143523
