05/20/2022	16:25:32	Ver.	4.1	UNKNOWN
Optical Delay	639.982744	Delta X		0.078125	Sweeps	1	Scan Rate	0/0
Coordinates	Axis 1	NaN	Axis 2	NaN	Axis 3	NaN	Axis 4	NaN	Axis 5	NaN	Axis 6	0.000000
TX Power	0.000000	RX Power	0.000000

639.983	0.0146931
640.061	0.0146631
640.139	0.0147190
640.217	0.0144349
640.295	0.0145867
640.373	0.0145654
640.451	0.0146975
640.530	0.0146617
640.608	0.0147146
640.686	0.0145803
640.764	0.0145716
640.842	0.0146547
640.920	0.0145647
640.998	0.0146570
641.076	0.0146501
641.155	0.0146703
641.233	0.0146088
641.311	0.0146545
641.389	0.0145747
641.467	0.0147320
641.545	0.0147433
641.623	0.0145831
641.701	0.0145872
641.780	0.0146390
641.858	0.0146523
641.936	0.0145526
642.014	0.0147062
642.092	0.0145399
642.170	0.0145412
642.248	0.0146649
642.326	0.0145858
642.405	0.0146975
642.483	0.0146724
642.561	0.0146826
642.639	0.0145229
642.717	0.0146770
642.795	0.0146887
642.873	0.0146329
642.951	0.0146846
643.030	0.0147020
643.108	0.0147359
643.186	0.0148657
643.264	0.0146333
643.342	0.0145842
643.420	0.0147009
643.498	0.0147129
643.576	0.0147445
643.655	0.0147139
643.733	0.0146960
643.811	0.0147071
643.889	0.0147227
643.967	0.0148077
644.045	0.0148273
644.123	0.0146730
644.201	0.0147874
644.280	0.0147517
644.358	0.0148145
644.436	0.0148126
644.514	0.0146497
644.592	0.0147121
644.670	0.0146696
644.748	0.0148141
644.826	0.0148183
644.905	0.0147758
644.983	0.0147768
645.061	0.0147821
645.139	0.0147987
645.217	0.0147216
645.295	0.0148247
645.373	0.0148132
645.451	0.0148217
645.530	0.0149049
645.608	0.0148645
645.686	0.0147935
645.764	0.0149047
645.842	0.0149425
645.920	0.0148218
645.998	0.0149250
646.076	0.0147980
646.155	0.0147623
646.233	0.0147762
646.311	0.0148489
646.389	0.0146637
646.467	0.0147600
646.545	0.0148615
646.623	0.0147820
646.701	0.0148031
646.780	0.0147580
646.858	0.0148859
646.936	0.0148204
647.014	0.0147019
647.092	0.0148368
647.170	0.0148652
647.248	0.0148421
647.326	0.0148002
647.405	0.0148405
647.483	0.0148048
647.561	0.0146764
647.639	0.0147892
647.717	0.0147453
647.795	0.0147218
647.873	0.0147130
647.951	0.0146698
648.030	0.0145926
648.108	0.0147564
648.186	0.0149349
648.264	0.0148286
648.342	0.0147153
648.420	0.0147089
648.498	0.0146410
648.576	0.0147393
648.655	0.0147302
648.733	0.0146724
648.811	0.0147008
648.889	0.0147598
648.967	0.0146943
649.045	0.0146529
649.123	0.0146302
649.201	0.0147395
649.280	0.0146963
649.358	0.0147296
649.436	0.0147237
649.514	0.0147675
649.592	0.0147005
649.670	0.0148121
649.748	0.0147388
649.826	0.0146988
649.905	0.0149039
649.983	0.0148576
650.061	0.0148789
650.139	0.0146017
650.217	0.0147697
650.295	0.0148531
650.373	0.0148443
650.451	0.0147157
650.530	0.0145807
650.608	0.0147900
650.686	0.0146249
650.764	0.0145844
650.842	0.0145488
650.920	0.0147644
650.998	0.0146190
651.076	0.0146008
651.155	0.0146986
651.233	0.0147104
651.311	0.0145513
651.389	0.0147041
651.467	0.0147618
651.545	0.0146982
651.623	0.0148219
651.701	0.0146557
651.780	0.0146950
651.858	0.0146275
651.936	0.0147223
652.014	0.0146996
652.092	0.0146236
652.170	0.0147077
652.248	0.0146835
652.326	0.0147098
652.405	0.0146619
652.483	0.0147943
652.561	0.0147266
652.639	0.0147704
652.717	0.0147835
652.795	0.0148011
652.873	0.0147374
652.951	0.0147534
653.030	0.0146214
653.108	0.0146973
653.186	0.0147423
653.264	0.0146864
653.342	0.0145753
653.420	0.0146457
653.498	0.0146458
653.576	0.0147164
653.655	0.0146449
653.733	0.0146878
653.811	0.0145837
653.889	0.0147370
653.967	0.0147756
654.045	0.0145746
654.123	0.0144738
654.201	0.0147157
654.280	0.0146252
654.358	0.0145238
654.436	0.0145161
654.514	0.0145152
654.592	0.0146882
654.670	0.0146893
654.748	0.0146619
654.826	0.0147532
654.905	0.0146194
654.983	0.0146807
655.061	0.0145477
655.139	0.0146825
655.217	0.0144878
655.295	0.0146019
655.373	0.0145960
655.451	0.0146383
655.530	0.0146146
655.608	0.0147443
655.686	0.0146203
655.764	0.0146295
655.842	0.0148813
655.920	0.0147321
655.998	0.0148068
656.076	0.0145422
656.155	0.0146272
656.233	0.0147691
656.311	0.0147308
656.389	0.0145647
656.467	0.0146098
656.545	0.0146439
656.623	0.0146950
656.701	0.0148151
656.780	0.0148384
656.858	0.0146597
656.936	0.0145914
657.014	0.0147446
657.092	0.0147542
657.170	0.0147733
657.248	0.0148146
657.326	0.0147881
657.405	0.0147075
657.483	0.0146418
657.561	0.0147799
657.639	0.0147507
657.717	0.0146877
657.795	0.0148139
657.873	0.0148322
657.951	0.0147971
658.030	0.0147961
658.108	0.0148322
658.186	0.0148367
658.264	0.0148082
658.342	0.0147051
658.420	0.0146354
658.498	0.0147347
658.576	0.0147488
658.655	0.0146438
658.733	0.0145831
658.811	0.0146821
658.889	0.0145598
658.967	0.0145229
659.045	0.0143842
659.123	0.0144524
659.201	0.0145006
659.280	0.0145934
659.358	0.0146025
659.436	0.0146564
659.514	0.0145853
659.592	0.0145654
659.670	0.0147215
659.748	0.0148086
659.826	0.0147178
659.905	0.0147309
659.983	0.0148821
660.061	0.0148707
660.139	0.0149377
660.217	0.0149226
660.295	0.0149088
660.373	0.0147479
660.451	0.0147443
660.530	0.0147527
660.608	0.0147620
660.686	0.0145581
660.764	0.0146832
660.842	0.0146690
660.920	0.0146191
660.998	0.0145164
661.076	0.0145689
661.155	0.0146093
661.233	0.0145554
661.311	0.0145791
661.389	0.0145888
661.467	0.0146722
661.545	0.0147255
661.623	0.0147191
661.701	0.0147195
661.780	0.0147125
661.858	0.0146205
661.936	0.0147349
662.014	0.0146670
662.092	0.0147450
662.170	0.0147038
662.248	0.0147143
662.326	0.0147968
662.405	0.0148770
662.483	0.0149100
662.561	0.0148709
662.639	0.0148495
662.717	0.0147986
662.795	0.0147417
662.873	0.0147688
662.951	0.0146983
663.030	0.0147701
663.108	0.0146023
663.186	0.0146828
663.264	0.0146857
663.342	0.0146087
663.420	0.0145006
663.498	0.0146117
663.576	0.0147311
663.655	0.0145971
663.733	0.0144595
663.811	0.0144944
663.889	0.0146655
663.967	0.0146401
664.045	0.0146265
664.123	0.0146202
664.201	0.0146738
664.280	0.0147096
664.358	0.0148003
664.436	0.0147000
664.514	0.0147813
664.592	0.0149274
664.670	0.0147762
664.748	0.0147237
664.826	0.0147785
664.905	0.0146859
664.983	0.0147404
665.061	0.0147386
665.139	0.0148373
665.217	0.0146240
665.295	0.0145850
665.373	0.0145821
665.451	0.0146321
665.530	0.0145790
665.608	0.0145211
665.686	0.0145589
665.764	0.0146601
665.842	0.0146519
665.920	0.0146364
665.998	0.0146288
666.076	0.0146660
666.155	0.0147346
666.233	0.0148031
666.311	0.0147099
666.389	0.0145787
666.467	0.0148706
666.545	0.0147104
666.623	0.0147629
666.701	0.0147609
666.780	0.0147787
666.858	0.0147649
666.936	0.0148212
667.014	0.0148333
667.092	0.0148657
667.170	0.0146700
667.248	0.0146947
667.326	0.0146990
667.405	0.0147689
667.483	0.0146858
667.561	0.0146626
667.639	0.0146950
667.717	0.0146796
667.795	0.0147044
667.873	0.0147179
667.951	0.0147386
668.030	0.0148207
668.108	0.0147343
668.186	0.0145967
668.264	0.0147063
668.342	0.0146333
668.420	0.0147114
668.498	0.0147516
668.576	0.0148151
668.655	0.0146407
668.733	0.0147379
668.811	0.0148632
668.889	0.0148650
668.967	0.0146194
669.045	0.0148699
669.123	0.0147811
669.201	0.0146218
669.280	0.0147943
669.358	0.0146521
669.436	0.0146585
669.514	0.0147812
669.592	0.0145693
669.670	0.0147580
669.748	0.0146429
669.826	0.0147056
669.905	0.0146564
669.983	0.0147211
670.061	0.0148066
670.139	0.0148331
670.217	0.0147331
670.295	0.0146496
670.373	0.0147710
670.451	0.0148205
670.530	0.0147582
670.608	0.0146721
670.686	0.0146380
670.764	0.0147322
670.842	0.0147159
670.920	0.0147191
670.998	0.0147267
671.076	0.0147005
671.155	0.0146880
671.233	0.0147276
671.311	0.0148380
671.389	0.0147864
671.467	0.0148198
671.545	0.0146144
671.623	0.0147292
671.701	0.0148608
671.780	0.0147347
671.858	0.0147228
671.936	0.0147005
672.014	0.0146853
672.092	0.0147327
672.170	0.0147188
672.248	0.0147038
672.326	0.0147212
672.405	0.0147707
672.483	0.0146452
672.561	0.0145118
672.639	0.0145370
672.717	0.0146103
672.795	0.0145715
672.873	0.0146407
672.951	0.0147389
673.030	0.0144638
673.108	0.0145805
673.186	0.0147186
673.264	0.0145431
673.342	0.0145433
673.420	0.0145799
673.498	0.0145106
673.576	0.0146790
673.655	0.0147295
673.733	0.0145828
673.811	0.0146362
673.889	0.0145186
673.967	0.0146805
674.045	0.0147417
674.123	0.0145795
674.201	0.0145620
674.280	0.0146222
674.358	0.0145790
674.436	0.0146133
674.514	0.0146713
674.592	0.0146427
674.670	0.0145643
674.748	0.0146897
674.826	0.0145325
674.905	0.0144026
674.983	0.0145482
675.061	0.0145470
675.139	0.0143713
675.217	0.0143053
675.295	0.0144070
675.373	0.0143353
675.451	0.0143634
675.530	0.0144071
675.608	0.0143813
675.686	0.0146320
675.764	0.0146563
675.842	0.0146758
675.920	0.0145030
675.998	0.0147745
676.076	0.0147271
676.155	0.0145916
676.233	0.0146267
676.311	0.0148123
676.389	0.0148141
676.467	0.0147889
676.545	0.0147981
676.623	0.0147674
676.701	0.0146690
676.780	0.0145721
676.858	0.0144540
676.936	0.0145240
677.014	0.0143491
677.092	0.0142944
677.170	0.0143445
677.248	0.0141970
677.326	0.0141381
677.405	0.0141974
677.483	0.0141769
677.561	0.0142640
677.639	0.0143654
677.717	0.0145718
677.795	0.0144669
677.873	0.0147825
677.951	0.0149360
678.030	0.0150852
678.108	0.0151874
678.186	0.0151809
678.264	0.0153012
678.342	0.0154939
678.420	0.0154356
678.498	0.0152225
678.576	0.0154378
678.655	0.0153262
678.733	0.0148623
678.811	0.0148464
678.889	0.0146493
678.967	0.0146133
679.045	0.0145338
679.123	0.0143894
679.201	0.0140872
679.280	0.0139957
679.358	0.0141050
679.436	0.0140102
679.514	0.0139473
679.592	0.0140910
679.670	0.0140943
679.748	0.0142493
679.826	0.0143723
679.905	0.0144188
679.983	0.0145717
680.061	0.0145892
680.139	0.0147765
680.217	0.0148218
680.295	0.0149862
680.373	0.0150681
680.451	0.0149905
680.530	0.0150472
680.608	0.0152870
680.686	0.0152986
680.764	0.0152813
680.842	0.0152255
680.920	0.0153595
680.998	0.0154063
681.076	0.0153008
681.155	0.0151247
681.233	0.0150637
681.311	0.0150381
681.389	0.0150324
681.467	0.0149412
681.545	0.0148171
681.623	0.0148180
681.701	0.0147872
681.780	0.0145728
681.858	0.0145349
681.936	0.0145097
682.014	0.0143069
682.092	0.0143530
682.170	0.0142654
682.248	0.0142810
682.326	0.0142722
682.405	0.0141938
682.483	0.0143205
682.561	0.0142988
682.639	0.0142824
682.717	0.0145579
682.795	0.0146055
682.873	0.0145680
682.951	0.0147670
683.030	0.0149923
683.108	0.0149393
683.186	0.0147301
683.264	0.0148182
683.342	0.0148553
683.420	0.0147604
683.498	0.0147385
683.576	0.0147285
683.655	0.0145232
683.733	0.0144636
683.811	0.0145159
683.889	0.0144233
683.967	0.0144257
684.045	0.0145006
684.123	0.0143041
684.201	0.0144519
684.280	0.0146539
684.358	0.0145325
684.436	0.0148665
684.514	0.0149995
684.592	0.0149846
684.670	0.0150912
684.748	0.0150298
684.826	0.0151832
684.905	0.0151975
684.983	0.0152524
685.061	0.0152016
685.139	0.0151067
685.217	0.0152280
685.295	0.0153487
685.373	0.0152662
685.451	0.0153456
685.530	0.0153720
685.608	0.0152552
685.686	0.0153684
685.764	0.0152775
685.842	0.0153065
685.920	0.0151318
685.998	0.0152142
686.076	0.0151156
686.155	0.0149583
686.233	0.0148432
686.311	0.0147904
686.389	0.0147436
686.467	0.0146139
686.545	0.0144997
686.623	0.0142673
686.701	0.0140537
686.780	0.0140661
686.858	0.0140189
686.936	0.0138816
687.014	0.0135416
687.092	0.0135030
687.170	0.0133992
687.248	0.0134488
687.326	0.0131824
687.405	0.0130743
687.483	0.0131155
687.561	0.0132731
687.639	0.0130849
687.717	0.0131068
687.795	0.0134299
687.873	0.0136235
687.951	0.0138612
688.030	0.0139793
688.108	0.0143005
688.186	0.0147800
688.264	0.0149519
688.342	0.0154450
688.420	0.0158553
688.498	0.0160770
688.576	0.0163286
688.655	0.0167171
688.733	0.0168221
688.811	0.0170014
688.889	0.0170264
688.967	0.0169248
689.045	0.0169724
689.123	0.0168654
689.201	0.0167322
689.280	0.0165300
689.358	0.0163146
689.436	0.0160261
689.514	0.0158201
689.592	0.0156504
689.670	0.0151841
689.748	0.0150126
689.826	0.0146893
689.905	0.0144558
689.983	0.0143295
690.061	0.0139218
690.139	0.0137605
690.217	0.0134807
690.295	0.0133249
690.373	0.0129708
690.451	0.0129006
690.530	0.0128896
690.608	0.0126637
690.686	0.0126506
690.764	0.0128086
690.842	0.0129220
690.920	0.0126630
690.998	0.0128835
691.076	0.0131579
691.155	0.0133670
691.233	0.0134355
691.311	0.0137553
691.389	0.0139952
691.467	0.0141580
691.545	0.0143275
691.623	0.0145541
691.701	0.0147683
691.780	0.0148598
691.858	0.0150797
691.936	0.0152990
692.014	0.0153963
692.092	0.0157190
692.170	0.0158643
692.248	0.0159209
692.326	0.0160223
692.405	0.0159031
692.483	0.0161564
692.561	0.0160661
692.639	0.0161315
692.717	0.0160902
692.795	0.0160068
692.873	0.0159448
692.951	0.0156892
693.030	0.0154646
693.108	0.0150558
693.186	0.0149800
693.264	0.0147128
693.342	0.0144873
693.420	0.0141383
693.498	0.0140652
693.576	0.0138881
693.655	0.0138581
693.733	0.0139868
693.811	0.0137923
693.889	0.0138946
693.967	0.0139021
694.045	0.0140534
694.123	0.0141002
694.201	0.0141625
694.280	0.0143119
694.358	0.0143990
694.436	0.0144592
694.514	0.0142939
694.592	0.0144641
694.670	0.0143179
694.748	0.0141391
694.826	0.0138295
694.905	0.0138007
694.983	0.0137911
695.061	0.0135716
695.139	0.0135096
695.217	0.0134220
695.295	0.0134257
695.373	0.0134797
695.451	0.0136829
695.530	0.0137611
695.608	0.0140718
695.686	0.0143597
695.764	0.0147058
695.842	0.0150699
695.920	0.0154153
695.998	0.0157800
696.076	0.0161630
696.155	0.0163325
696.233	0.0164327
696.311	0.0165559
696.389	0.0166689
696.467	0.0167069
696.545	0.0165876
696.623	0.0165824
696.701	0.0164141
696.780	0.0161433
696.858	0.0159743
696.936	0.0157020
697.014	0.0154707
697.092	0.0152431
697.170	0.0150014
697.248	0.0145930
697.326	0.0144423
697.405	0.0141919
697.483	0.0138600
697.561	0.0135113
697.639	0.0135635
697.717	0.0134203
697.795	0.0130981
697.873	0.0129437
697.951	0.0128542
698.030	0.0127037
698.108	0.0126287
698.186	0.0125845
698.264	0.0125535
698.342	0.0124306
698.420	0.0127127
698.498	0.0125229
698.576	0.0127203
698.655	0.0129955
698.733	0.0130721
698.811	0.0133903
698.889	0.0135730
698.967	0.0139723
699.045	0.0141949
699.123	0.0145434
699.201	0.0147651
699.280	0.0149590
699.358	0.0152710
699.436	0.0155094
699.514	0.0155687
699.592	0.0157262
699.670	0.0157694
699.748	0.0157929
699.826	0.0159055
699.905	0.0159904
699.983	0.0160863
700.061	0.0160969
700.139	0.0162058
700.217	0.0161835
700.295	0.0162043
700.373	0.0163157
700.451	0.0160841
700.530	0.0160505
700.608	0.0161839
700.686	0.0159420
700.764	0.0159850
700.842	0.0156772
700.920	0.0156121
700.998	0.0154455
701.076	0.0152883
701.155	0.0150174
701.233	0.0148462
701.311	0.0147791
701.389	0.0146267
701.467	0.0145908
701.545	0.0142885
701.623	0.0143132
701.701	0.0140910
701.780	0.0139160
701.858	0.0137681
701.936	0.0136556
702.014	0.0136723
702.092	0.0135102
702.170	0.0133678
702.248	0.0134474
702.326	0.0133494
702.405	0.0133781
702.483	0.0132599
702.561	0.0132876
702.639	0.0133821
702.717	0.0136613
702.795	0.0135554
702.873	0.0136384
702.951	0.0136712
703.030	0.0138805
703.108	0.0139923
703.186	0.0139801
703.264	0.0141816
703.342	0.0143179
703.420	0.0144284
703.498	0.0146671
703.576	0.0146217
703.655	0.0147015
703.733	0.0147773
703.811	0.0148052
703.889	0.0149282
703.967	0.0150328
704.045	0.0151614
704.123	0.0153342
704.201	0.0154073
704.280	0.0153470
704.358	0.0154823
704.436	0.0156556
704.514	0.0158197
704.592	0.0157148
704.670	0.0157075
704.748	0.0159268
704.826	0.0157167
704.905	0.0157352
704.983	0.0158176
705.061	0.0156004
705.139	0.0156419
705.217	0.0155921
705.295	0.0153403
705.373	0.0153513
705.451	0.0152563
705.530	0.0151945
705.608	0.0149451
705.686	0.0148944
705.764	0.0147215
705.842	0.0144444
705.920	0.0142905
705.998	0.0141018
706.076	0.0140959
706.155	0.0139608
706.233	0.0137805
706.311	0.0136643
706.389	0.0137233
706.467	0.0136147
706.545	0.0136046
706.623	0.0135594
706.701	0.0138533
706.780	0.0139748
706.858	0.0140172
706.936	0.0143207
707.014	0.0142142
707.092	0.0143947
707.170	0.0144785
707.248	0.0144772
707.326	0.0147120
707.405	0.0146568
707.483	0.0148302
707.561	0.0148180
707.639	0.0149660
707.717	0.0149812
707.795	0.0151006
707.873	0.0150023
707.951	0.0149745
708.030	0.0150807
708.108	0.0150879
708.186	0.0150096
708.264	0.0148878
708.342	0.0148228
708.420	0.0146656
708.498	0.0144895
708.576	0.0143832
708.655	0.0142008
708.733	0.0139319
708.811	0.0138681
708.889	0.0135735
708.967	0.0137237
709.045	0.0138614
709.123	0.0139019
709.201	0.0139787
709.280	0.0143003
709.358	0.0147198
709.436	0.0150392
709.514	0.0152561
709.592	0.0155324
709.670	0.0157711
709.748	0.0159977
709.826	0.0160796
709.905	0.0160455
709.983	0.0162254
710.061	0.0160793
710.139	0.0159377
710.217	0.0158644
710.295	0.0157387
710.373	0.0157820
710.451	0.0154115
710.530	0.0152428
710.608	0.0153542
710.686	0.0151984
710.764	0.0150883
710.842	0.0148547
710.920	0.0150279
710.998	0.0149722
711.076	0.0147782
711.155	0.0147177
711.233	0.0146497
711.311	0.0145741
711.389	0.0144243
711.467	0.0143647
711.545	0.0140923
711.623	0.0140986
711.701	0.0140098
711.780	0.0138633
711.858	0.0138549
711.936	0.0138116
712.014	0.0139477
712.092	0.0140190
712.170	0.0139293
712.248	0.0141808
712.326	0.0142297
712.405	0.0144705
712.483	0.0145157
712.561	0.0145696
712.639	0.0146396
712.717	0.0147520
712.795	0.0146355
712.873	0.0145846
712.951	0.0146040
713.030	0.0145197
713.108	0.0144118
713.186	0.0142590
713.264	0.0141118
713.342	0.0140666
713.420	0.0141305
713.498	0.0142368
713.576	0.0142132
713.655	0.0143562
713.733	0.0146155
713.811	0.0147446
713.889	0.0148904
713.967	0.0150567
714.045	0.0151688
714.123	0.0151817
714.201	0.0153773
714.280	0.0154095
714.358	0.0152924
714.436	0.0153021
714.514	0.0149500
714.592	0.0150786
714.670	0.0149722
714.748	0.0148712
714.826	0.0149179
714.905	0.0149025
714.983	0.0149409
715.061	0.0151769
715.139	0.0153164
715.217	0.0155225
715.295	0.0153654
715.373	0.0155824
715.451	0.0155247
715.530	0.0155934
715.608	0.0153024
715.686	0.0152248
715.764	0.0152362
715.842	0.0149281
715.920	0.0146429
715.998	0.0146706
716.076	0.0146055
716.155	0.0143708
716.233	0.0141960
716.311	0.0140865
716.389	0.0141081
716.467	0.0140694
716.545	0.0139949
716.623	0.0139324
716.701	0.0139099
716.780	0.0138394
716.858	0.0139201
716.936	0.0139013
717.014	0.0137552
717.092	0.0137445
717.170	0.0139172
717.248	0.0139541
717.326	0.0138818
717.405	0.0139178
717.483	0.0141178
717.561	0.0142049
717.639	0.0142525
717.717	0.0142963
717.795	0.0144611
717.873	0.0145499
717.951	0.0146506
718.030	0.0146774
718.108	0.0147879
718.186	0.0147784
718.264	0.0147907
718.342	0.0148929
718.420	0.0145916
718.498	0.0147204
718.576	0.0144598
718.655	0.0145585
718.733	0.0143919
718.811	0.0143398
718.889	0.0143745
718.967	0.0144479
719.045	0.0144652
719.123	0.0145819
719.201	0.0146579
719.280	0.0145718
719.358	0.0144580
719.436	0.0148002
719.514	0.0148878
719.592	0.0148193
719.670	0.0150066
719.748	0.0149850
719.826	0.0150751
719.905	0.0151777
719.983	0.0151221
720.061	0.0151424
720.139	0.0152696
720.217	0.0152438
720.295	0.0151610
720.373	0.0151016
720.451	0.0149741
720.530	0.0148033
720.608	0.0145223
720.686	0.0145233
720.764	0.0144206
720.842	0.0142467
720.920	0.0141525
720.998	0.0140384
721.076	0.0140327
721.155	0.0139873
721.233	0.0140308
721.311	0.0140850
721.389	0.0141166
721.467	0.0141872
721.545	0.0141627
721.623	0.0144893
721.701	0.0145120
721.780	0.0145728
721.858	0.0148255
721.936	0.0149406
722.014	0.0150407
722.092	0.0149308
722.170	0.0150737
722.248	0.0150491
722.326	0.0149640
722.405	0.0149856
722.483	0.0150312
722.561	0.0148790
722.639	0.0149021
722.717	0.0148672
722.795	0.0148695
722.873	0.0147006
722.951	0.0147144
723.030	0.0147757
723.108	0.0146479
723.186	0.0147366
723.264	0.0148467
723.342	0.0149760
723.420	0.0150672
723.498	0.0151998
723.576	0.0150996
723.655	0.0150875
723.733	0.0151446
723.811	0.0151785
723.889	0.0151682
723.967	0.0150934
724.045	0.0150505
724.123	0.0150372
724.201	0.0149071
724.280	0.0148827
724.358	0.0146606
724.436	0.0144850
724.514	0.0144115
724.592	0.0144535
724.670	0.0144083
724.748	0.0144620
724.826	0.0143370
724.905	0.0143775
724.983	0.0143423
725.061	0.0142482
725.139	0.0143230
725.217	0.0143006
725.295	0.0140685
725.373	0.0142400
725.451	0.0142153
725.530	0.0141992
725.608	0.0142384
725.686	0.0142316
725.764	0.0144678
725.842	0.0146695
725.920	0.0146344
725.998	0.0146973
726.076	0.0147313
726.155	0.0148098
726.233	0.0149499
726.311	0.0150015
726.389	0.0149169
726.467	0.0146930
726.545	0.0146454
726.623	0.0145207
726.701	0.0145063
726.780	0.0145453
726.858	0.0143018
726.936	0.0143073
727.014	0.0143774
727.092	0.0143437
727.170	0.0144078
727.248	0.0145138
727.326	0.0146740
727.405	0.0147198
727.483	0.0148906
727.561	0.0150230
727.639	0.0152275
727.717	0.0153767
727.795	0.0153661
727.873	0.0154560
727.951	0.0154603
728.030	0.0155393
728.108	0.0154716
728.186	0.0153710
728.264	0.0154311
728.342	0.0153816
728.420	0.0153478
728.498	0.0152886
728.576	0.0152500
728.655	0.0151597
728.733	0.0150331
728.811	0.0149200
728.889	0.0149696
728.967	0.0149870
729.045	0.0149167
729.123	0.0148881
729.201	0.0149117
729.280	0.0149792
729.358	0.0148173
729.436	0.0147054
729.514	0.0147112
729.592	0.0145259
729.670	0.0145309
729.748	0.0143883
729.826	0.0144168
729.905	0.0143713
729.983	0.0142227
730.061	0.0141262
730.139	0.0141814
730.217	0.0141148
730.295	0.0141129
730.373	0.0142081
730.451	0.0142019
730.530	0.0142764
730.608	0.0141920
730.686	0.0143888
730.764	0.0144633
730.842	0.0144605
730.920	0.0145705
730.998	0.0144892
731.076	0.0143818
731.155	0.0143980
731.233	0.0144157
731.311	0.0144944
731.389	0.0144440
731.467	0.0144602
731.545	0.0143486
731.623	0.0143363
731.701	0.0144905
731.780	0.0145629
731.858	0.0146716
731.936	0.0146003
732.014	0.0146937
732.092	0.0148379
732.170	0.0147297
732.248	0.0147900
732.326	0.0148007
732.405	0.0150403
732.483	0.0150453
732.561	0.0151141
732.639	0.0152053
732.717	0.0151571
732.795	0.0151319
732.873	0.0153038
732.951	0.0154639
733.030	0.0154060
733.108	0.0154412
733.186	0.0154323
733.264	0.0154259
733.342	0.0152961
733.420	0.0152364
733.498	0.0151869
733.576	0.0151240
733.655	0.0150362
733.733	0.0148926
733.811	0.0146862
733.889	0.0146097
733.967	0.0144012
734.045	0.0143792
734.123	0.0140956
734.201	0.0141669
734.280	0.0142857
734.358	0.0140989
734.436	0.0139633
734.514	0.0141269
734.592	0.0140624
734.670	0.0140800
734.748	0.0142602
734.826	0.0143261
734.905	0.0145152
734.983	0.0145819
735.061	0.0146806
735.139	0.0146458
735.217	0.0147326
735.295	0.0148962
735.373	0.0148818
735.451	0.0149708
735.530	0.0150063
735.608	0.0147690
735.686	0.0146881
735.764	0.0147407
735.842	0.0145053
735.920	0.0145543
735.998	0.0145533
736.076	0.0145698
736.155	0.0144702
736.233	0.0144019
736.311	0.0145447
736.389	0.0145835
736.467	0.0144747
736.545	0.0147208
736.623	0.0147632
736.701	0.0147548
736.780	0.0147944
736.858	0.0149601
736.936	0.0149912
737.014	0.0150444
737.092	0.0150965
737.170	0.0150703
737.248	0.0149900
737.326	0.0150912
737.405	0.0150449
737.483	0.0149533
737.561	0.0148874
737.639	0.0150788
737.717	0.0149515
737.795	0.0149040
737.873	0.0148254
737.951	0.0147902
738.030	0.0149511
738.108	0.0148106
738.186	0.0148786
738.264	0.0148048
738.342	0.0148869
738.420	0.0147013
738.498	0.0147048
738.576	0.0147707
738.655	0.0145245
738.733	0.0144475
738.811	0.0144373
738.889	0.0142194
738.967	0.0141653
739.045	0.0141707
739.123	0.0141210
739.201	0.0140341
739.280	0.0140128
739.358	0.0140105
739.436	0.0140282
739.514	0.0141433
739.592	0.0141072
739.670	0.0141733
739.748	0.0143194
739.826	0.0143806
739.905	0.0144402
739.983	0.0145457
740.061	0.0145557
740.139	0.0146110
740.217	0.0145436
740.295	0.0145791
740.373	0.0146539
740.451	0.0146485
740.530	0.0147643
740.608	0.0148631
740.686	0.0148352
740.764	0.0148827
740.842	0.0147773
740.920	0.0149608
740.998	0.0149426
741.076	0.0149009
741.155	0.0150161
741.233	0.0151557
741.311	0.0152100
741.389	0.0150613
741.467	0.0150275
741.545	0.0151350
741.623	0.0152361
741.701	0.0150658
741.780	0.0150580
741.858	0.0150628
741.936	0.0150943
742.014	0.0149203
742.092	0.0149944
742.170	0.0149351
742.248	0.0149470
742.326	0.0149393
742.405	0.0147807
742.483	0.0147685
742.561	0.0148100
742.639	0.0147067
742.717	0.0146470
742.795	0.0147121
742.873	0.0146384
742.951	0.0146822
743.030	0.0148047
743.108	0.0145310
743.186	0.0146945
743.264	0.0145939
743.342	0.0144007
743.420	0.0145484
743.498	0.0146145
743.576	0.0144424
743.655	0.0144967
743.733	0.0143385
743.811	0.0144495
743.889	0.0144198
743.967	0.0144437
744.045	0.0142474
744.123	0.0145019
744.201	0.0144399
744.280	0.0146669
744.358	0.0146086
744.436	0.0147057
744.514	0.0146257
744.592	0.0147584
744.670	0.0147217
744.748	0.0147367
744.826	0.0149816
744.905	0.0148048
744.983	0.0148135
745.061	0.0147926
745.139	0.0147871
745.217	0.0148280
745.295	0.0148635
745.373	0.0148844
745.451	0.0148556
745.530	0.0148367
745.608	0.0148212
745.686	0.0149104
745.764	0.0148898
745.842	0.0148444
745.920	0.0149100
745.998	0.0150590
746.076	0.0150826
746.155	0.0150257
746.233	0.0149677
746.311	0.0148828
746.389	0.0149812
746.467	0.0149586
746.545	0.0148125
746.623	0.0149848
746.701	0.0148180
746.780	0.0148275
746.858	0.0148524
746.936	0.0147610
747.014	0.0146550
747.092	0.0146468
747.170	0.0145040
747.248	0.0143976
747.326	0.0145028
747.405	0.0145695
747.483	0.0144270
747.561	0.0144379
747.639	0.0145208
747.717	0.0146999
747.795	0.0146359
747.873	0.0146076
747.951	0.0147440
748.030	0.0148373
748.108	0.0147942
748.186	0.0148279
748.264	0.0149396
748.342	0.0150378
748.420	0.0149146
748.498	0.0150288
748.576	0.0148923
748.655	0.0149445
748.733	0.0149436
748.811	0.0148731
748.889	0.0148268
748.967	0.0147894
749.045	0.0147997
749.123	0.0147401
749.201	0.0145877
749.280	0.0145692
749.358	0.0144665
749.436	0.0143648
749.514	0.0143652
749.592	0.0142896
749.670	0.0143169
749.748	0.0142312
749.826	0.0142501
749.905	0.0143236
749.983	0.0143750
750.061	0.0145005
750.139	0.0144287
750.217	0.0145742
750.295	0.0146052
750.373	0.0148528
750.451	0.0149448
750.530	0.0149908
750.608	0.0150420
750.686	0.0150289
750.764	0.0150336
750.842	0.0151588
750.920	0.0150162
750.998	0.0149181
751.076	0.0148847
751.155	0.0148109
751.233	0.0146836
751.311	0.0147031
751.389	0.0147007
751.467	0.0146555
751.545	0.0145132
751.623	0.0145610
751.701	0.0144131
751.780	0.0146172
751.858	0.0145684
751.936	0.0145772
752.014	0.0145735
752.092	0.0146983
752.170	0.0147173
752.248	0.0145725
752.326	0.0146438
752.405	0.0146463
752.483	0.0147366
752.561	0.0148475
752.639	0.0146498
752.717	0.0146658
752.795	0.0146626
752.873	0.0146930
752.951	0.0146962
753.030	0.0146041
753.108	0.0145982
753.186	0.0146690
753.264	0.0146418
753.342	0.0147047
753.420	0.0146791
753.498	0.0147109
753.576	0.0146146
753.655	0.0147078
753.733	0.0147332
753.811	0.0147732
753.889	0.0147235
753.967	0.0146539
754.045	0.0148146
754.123	0.0147061
754.201	0.0147703
754.280	0.0145599
754.358	0.0145921
754.436	0.0146333
754.514	0.0143906
754.592	0.0142583
754.670	0.0143732
754.748	0.0143742
754.826	0.0143195
754.905	0.0142770
754.983	0.0142559
755.061	0.0141365
755.139	0.0142719
755.217	0.0143993
755.295	0.0145337
755.373	0.0144124
755.451	0.0145057
755.530	0.0144590
755.608	0.0145369
755.686	0.0146497
755.764	0.0147022
755.842	0.0146204
755.920	0.0147078
755.998	0.0147313
756.076	0.0146420
756.155	0.0146906
756.233	0.0145394
756.311	0.0146971
756.389	0.0146687
756.467	0.0146220
756.545	0.0144835
756.623	0.0146326
756.701	0.0146586
756.780	0.0146284
756.858	0.0145192
756.936	0.0145764
757.014	0.0146017
757.092	0.0144743
757.170	0.0144152
757.248	0.0144687
757.326	0.0146103
757.405	0.0144706
757.483	0.0146054
757.561	0.0146782
757.639	0.0145079
757.717	0.0145262
757.795	0.0147186
757.873	0.0145251
757.951	0.0144686
758.030	0.0146195
758.108	0.0145236
758.186	0.0146413
758.264	0.0146923
758.342	0.0146722
758.420	0.0147588
758.498	0.0147122
758.576	0.0147820
758.655	0.0148235
758.733	0.0149239
758.811	0.0147830
758.889	0.0149522
758.967	0.0148083
759.045	0.0145866
759.123	0.0147086
759.201	0.0146073
759.280	0.0144709
759.358	0.0146391
759.436	0.0144874
759.514	0.0145039
759.592	0.0143889
759.670	0.0143111
759.748	0.0143131
759.826	0.0143307
759.905	0.0142943
759.983	0.0145400
760.061	0.0144581
760.139	0.0144646
760.217	0.0145235
760.295	0.0146365
760.373	0.0146119
760.451	0.0147516
760.530	0.0147214
760.608	0.0147842
760.686	0.0149084
760.764	0.0148412
760.842	0.0149162
760.920	0.0149600
760.998	0.0149509
761.076	0.0149966
761.155	0.0150033
761.233	0.0150433
761.311	0.0150406
761.389	0.0149490
761.467	0.0150094
761.545	0.0149395
761.623	0.0149789
761.701	0.0147260
761.780	0.0148611
761.858	0.0147839
761.936	0.0147675
762.014	0.0145968
762.092	0.0145621
762.170	0.0144608
762.248	0.0144739
762.326	0.0143859
762.405	0.0144109
762.483	0.0143719
762.561	0.0142885
762.639	0.0142657
762.717	0.0142777
762.795	0.0143604
762.873	0.0143747
762.951	0.0142207
763.030	0.0143829
763.108	0.0144998
763.186	0.0145557
763.264	0.0145422
763.342	0.0145572
763.420	0.0146784
763.498	0.0147572
763.576	0.0146803
763.655	0.0147742
763.733	0.0148072
763.811	0.0147272
763.889	0.0147709
763.967	0.0146986
764.045	0.0146528
764.123	0.0147411
764.201	0.0147430
764.280	0.0148335
764.358	0.0147137
764.436	0.0147305
764.514	0.0146868
764.592	0.0146937
764.670	0.0146555
764.748	0.0147385
764.826	0.0147858
764.905	0.0147462
764.983	0.0148065
765.061	0.0147732
765.139	0.0145336
765.217	0.0146452
765.295	0.0146985
765.373	0.0147695
765.451	0.0146565
765.530	0.0147466
765.608	0.0146932
765.686	0.0147496
765.764	0.0147119
765.842	0.0148090
765.920	0.0147174
765.998	0.0145990
766.076	0.0147285
766.155	0.0147555
766.233	0.0147835
766.311	0.0147817
766.389	0.0148946
766.467	0.0147978
766.545	0.0147749
766.623	0.0148253
766.701	0.0148817
766.780	0.0148030
766.858	0.0147437
766.936	0.0147639
767.014	0.0148905
767.092	0.0148907
767.170	0.0147313
767.248	0.0146786
767.326	0.0147878
767.405	0.0146780
767.483	0.0146203
767.561	0.0146449
767.639	0.0146326
767.717	0.0145991
767.795	0.0146528
767.873	0.0145410
767.951	0.0146612
768.030	0.0146640
768.108	0.0148335
768.186	0.0146918
768.264	0.0148148
768.342	0.0147727
768.420	0.0147604
768.498	0.0147536
768.576	0.0149626
768.655	0.0147978
768.733	0.0148991
768.811	0.0148516
768.889	0.0149142
768.967	0.0149528
769.045	0.0148947
769.123	0.0149387
769.201	0.0149525
769.280	0.0149445
769.358	0.0146829
769.436	0.0146877
769.514	0.0146353
769.592	0.0145249
769.670	0.0145716
769.748	0.0145360
769.826	0.0145525
769.905	0.0144976
769.983	0.0144807
770.061	0.0144530
770.139	0.0144119
770.217	0.0144769
770.295	0.0144905
770.373	0.0144672
770.451	0.0146094
770.530	0.0144847
770.608	0.0146093
770.686	0.0144595
770.764	0.0145302
770.842	0.0145693
770.920	0.0147134
770.998	0.0146740
771.076	0.0147948
771.155	0.0145516
771.233	0.0145686
771.311	0.0148009
771.389	0.0146752
771.467	0.0146649
771.545	0.0147285
771.623	0.0147372
771.701	0.0146709
771.780	0.0148721
771.858	0.0147832
771.936	0.0147329
772.014	0.0148560
772.092	0.0148094
772.170	0.0148064
772.248	0.0149075
772.326	0.0149227
772.405	0.0147404
772.483	0.0148287
772.561	0.0147089
772.639	0.0147824
772.717	0.0148044
772.795	0.0147794
772.873	0.0147923
772.951	0.0147810
773.030	0.0147443
773.108	0.0147624
773.186	0.0146017
773.264	0.0146780
773.342	0.0147448
773.420	0.0146347
773.498	0.0146598
773.576	0.0146771
773.655	0.0146746
773.733	0.0146361
773.811	0.0146748
773.889	0.0147321
773.967	0.0147128
774.045	0.0147894
774.123	0.0146840
774.201	0.0147705
774.280	0.0146130
774.358	0.0148044
774.436	0.0148185
774.514	0.0146922
774.592	0.0146103
774.670	0.0146458
774.748	0.0145992
774.826	0.0146747
774.905	0.0145805
774.983	0.0144871
775.061	0.0145931
775.139	0.0146020
775.217	0.0144801
775.295	0.0144238
775.373	0.0145000
775.451	0.0145557
775.530	0.0144277
775.608	0.0144739
775.686	0.0144534
775.764	0.0144413
775.842	0.0144268
775.920	0.0142717
775.998	0.0146196
776.076	0.0144077
776.155	0.0143386
776.233	0.0145090
776.311	0.0144647
776.389	0.0143902
776.467	0.0146059
776.545	0.0145657
776.623	0.0146881
776.701	0.0146184
776.780	0.0148289
776.858	0.0149364
776.936	0.0146523
777.014	0.0147887
777.092	0.0149432
777.170	0.0149182
777.248	0.0149917
777.326	0.0148545
777.405	0.0147668
777.483	0.0147506
777.561	0.0148004
777.639	0.0146559
777.717	0.0146217
777.795	0.0146109
777.873	0.0146422
777.951	0.0145434
778.030	0.0144601
778.108	0.0144926
778.186	0.0144832
778.264	0.0145150
778.342	0.0145418
778.420	0.0144289
778.498	0.0144691
778.576	0.0144281
778.655	0.0145206
778.733	0.0144240
778.811	0.0144909
778.889	0.0146121
778.967	0.0146068
779.045	0.0146456
779.123	0.0147431
779.201	0.0146834
779.280	0.0147398
779.358	0.0149366
779.436	0.0148376
779.514	0.0147964
779.592	0.0150452
779.670	0.0150359
779.748	0.0150067
779.826	0.0149296
779.905	0.0148634
779.983	0.0149673
780.061	0.0150018
780.139	0.0147427
780.217	0.0148208
780.295	0.0148225
780.373	0.0147993
780.451	0.0146069
780.530	0.0145867
780.608	0.0146786
780.686	0.0145358
780.764	0.0146004
780.842	0.0144895
780.920	0.0145743
780.998	0.0145538
781.076	0.0146653
781.155	0.0146308
781.233	0.0148042
781.311	0.0147047
781.389	0.0146846
781.467	0.0147247
781.545	0.0146849
781.623	0.0147090
781.701	0.0147409
781.780	0.0147075
781.858	0.0147569
781.936	0.0148393
782.014	0.0148084
782.092	0.0145815
782.170	0.0147572
782.248	0.0148508
782.326	0.0148141
782.405	0.0147661
782.483	0.0147751
782.561	0.0148374
782.639	0.0148020
782.717	0.0147452
782.795	0.0146680
782.873	0.0146188
782.951	0.0147630
783.030	0.0146374
783.108	0.0146233
783.186	0.0146195
783.264	0.0145779
783.342	0.0145174
783.420	0.0145208
783.498	0.0144885
783.576	0.0145158
783.655	0.0144194
783.733	0.0143216
783.811	0.0144592
783.889	0.0142678
783.967	0.0143768
784.045	0.0144386
784.123	0.0142641
784.201	0.0143275
784.280	0.0142648
784.358	0.0144350
784.436	0.0145094
784.514	0.0145791
784.592	0.0146985
784.670	0.0146358
784.748	0.0147117
784.826	0.0146138
784.905	0.0146694
784.983	0.0149265
785.061	0.0149335
785.139	0.0148192
785.217	0.0148512
785.295	0.0149763
785.373	0.0148699
785.451	0.0149283
785.530	0.0148206
785.608	0.0148705
785.686	0.0147356
785.764	0.0147012
785.842	0.0148347
785.920	0.0146345
785.998	0.0145181
786.076	0.0146559
786.155	0.0146020
786.233	0.0145409
786.311	0.0144759
786.389	0.0145266
786.467	0.0144925
786.545	0.0144453
786.623	0.0144487
786.701	0.0144714
786.780	0.0143662
786.858	0.0145735
786.936	0.0144156
787.014	0.0144045
787.092	0.0144901
787.170	0.0145120
787.248	0.0144714
787.326	0.0145078
787.405	0.0145819
787.483	0.0145413
787.561	0.0146285
787.639	0.0146424
787.717	0.0146175
787.795	0.0147138
787.873	0.0145757
787.951	0.0146475
788.030	0.0147355
788.108	0.0147144
788.186	0.0147094
788.264	0.0146596
788.342	0.0146620
788.420	0.0146305
788.498	0.0146407
788.576	0.0147401
788.655	0.0149850
788.733	0.0149286
788.811	0.0148080
788.889	0.0149783
788.967	0.0150019
789.045	0.0149213
789.123	0.0149081
789.201	0.0148500
789.280	0.0148617
789.358	0.0148143
789.436	0.0149085
789.514	0.0149874
789.592	0.0148696
789.670	0.0147171
789.748	0.0149770
789.826	0.0149280
789.905	0.0148270
789.983	0.0149272
790.061	0.0149023
790.139	0.0148627
790.217	0.0148576
790.295	0.0147549
790.373	0.0146880
790.451	0.0145921
790.530	0.0146359
790.608	0.0146387
790.686	0.0148347
790.764	0.0146792
790.842	0.0145995
790.920	0.0145158
790.998	0.0146074
791.076	0.0145878
791.155	0.0145589
791.233	0.0145327
791.311	0.0144934
791.389	0.0147425
791.467	0.0146362
791.545	0.0145118
791.623	0.0145535
791.701	0.0146655
791.780	0.0147133
791.858	0.0144787
791.936	0.0144835
792.014	0.0145047
792.092	0.0145083
792.170	0.0144914
792.248	0.0145543
792.326	0.0146939
792.405	0.0146171
792.483	0.0145114
792.561	0.0146781
792.639	0.0147180
792.717	0.0147591
792.795	0.0147734
792.873	0.0148539
792.951	0.0150542
793.030	0.0151028
793.108	0.0149753
793.186	0.0148318
793.264	0.0150321
793.342	0.0149131
793.420	0.0150028
793.498	0.0150925
793.576	0.0148591
793.655	0.0148692
793.733	0.0146397
793.811	0.0146423
793.889	0.0146393
793.967	0.0145689
794.045	0.0145930
794.123	0.0144045
794.201	0.0144287
794.280	0.0144117
794.358	0.0143018
794.436	0.0143201
794.514	0.0143510
794.592	0.0142626
794.670	0.0142442
794.748	0.0143082
794.826	0.0144931
794.905	0.0143978
794.983	0.0143757
795.061	0.0145090
795.139	0.0145522
795.217	0.0144530
795.295	0.0145438
795.373	0.0146466
795.451	0.0146478
795.530	0.0146424
795.608	0.0147394
795.686	0.0145010
795.764	0.0146985
795.842	0.0148143
795.920	0.0147086
795.998	0.0146812
796.076	0.0148138
796.155	0.0147128
796.233	0.0147945
796.311	0.0148366
796.389	0.0147929
796.467	0.0148740
796.545	0.0148092
796.623	0.0148111
796.701	0.0148155
796.780	0.0149725
796.858	0.0149538
796.936	0.0147857
797.014	0.0147700
797.092	0.0148151
797.170	0.0149094
797.248	0.0148087
797.326	0.0147503
797.405	0.0147839
797.483	0.0147575
797.561	0.0147063
797.639	0.0148707
797.717	0.0147957
797.795	0.0148859
797.873	0.0147431
797.951	0.0147112
798.030	0.0146492
798.108	0.0146972
798.186	0.0146447
798.264	0.0146651
798.342	0.0147289
798.420	0.0145606
798.498	0.0145134
798.576	0.0145257
798.655	0.0144241
798.733	0.0144689
798.811	0.0145547
798.889	0.0144735
798.967	0.0144049
799.045	0.0144367
799.123	0.0144907
799.201	0.0144588
799.280	0.0143879
799.358	0.0145008
799.436	0.0145876
799.514	0.0146183
799.592	0.0145847
799.670	0.0146300
799.748	0.0145778
799.826	0.0145988
799.905	0.0146906
799.983	0.0148598
800.061	0.0147955
800.139	0.0147000
800.217	0.0147862
800.295	0.0148624
800.373	0.0148183
800.451	0.0149075
800.530	0.0148371
800.608	0.0147610
800.686	0.0149049
800.764	0.0148133
800.842	0.0149858
800.920	0.0148965
800.998	0.0149812
801.076	0.0151321
801.155	0.0148234
801.233	0.0148067
801.311	0.0150589
801.389	0.0150253
801.467	0.0150128
801.545	0.0149258
801.623	0.0148987
801.701	0.0148890
801.780	0.0149297
801.858	0.0149276
801.936	0.0148208
802.014	0.0147115
802.092	0.0147327
802.170	0.0148723
802.248	0.0147435
802.326	0.0146250
802.405	0.0146510
802.483	0.0148060
802.561	0.0145670
802.639	0.0145258
802.717	0.0146414
802.795	0.0145150
802.873	0.0144979
802.951	0.0146805
803.030	0.0145727
803.108	0.0145472
803.186	0.0146466
803.264	0.0147382
803.342	0.0145856
803.420	0.0146665
803.498	0.0145732
803.576	0.0147723
803.655	0.0146813
803.733	0.0145238
803.811	0.0147045
803.889	0.0146745
803.967	0.0146415
804.045	0.0146599
804.123	0.0147440
804.201	0.0146010
804.280	0.0146300
804.358	0.0145741
804.436	0.0147427
804.514	0.0146458
804.592	0.0146821
804.670	0.0146645
804.748	0.0146613
804.826	0.0147723
804.905	0.0145618
804.983	0.0146104
805.061	0.0146040
805.139	0.0146692
805.217	0.0146997
805.295	0.0147034
805.373	0.0145813
805.451	0.0146038
805.530	0.0146696
805.608	0.0147836
805.686	0.0147940
805.764	0.0146558
805.842	0.0148228
805.920	0.0147952
805.998	0.0147939
806.076	0.0148444
806.155	0.0147825
806.233	0.0150092
806.311	0.0150346
806.389	0.0149692
806.467	0.0150599
806.545	0.0148956
806.623	0.0150171
806.701	0.0150522
806.780	0.0150308
806.858	0.0150504
806.936	0.0150771
807.014	0.0149459
807.092	0.0149298
807.170	0.0148714
807.248	0.0147260
807.326	0.0146779
807.405	0.0147474
807.483	0.0146841
807.561	0.0148279
807.639	0.0146788
807.717	0.0146958
807.795	0.0147237
807.873	0.0146666
807.951	0.0146284
808.030	0.0146898
808.108	0.0146648
808.186	0.0146049
808.264	0.0147849
808.342	0.0146198
808.420	0.0147243
808.498	0.0147462
808.576	0.0146987
808.655	0.0148155
808.733	0.0147588
808.811	0.0145583
808.889	0.0145612
808.967	0.0145965
809.045	0.0146961
809.123	0.0144740
809.201	0.0146500
809.280	0.0146457
809.358	0.0145346
809.436	0.0144105
809.514	0.0146265
809.592	0.0146274
809.670	0.0144898
809.748	0.0144295
809.826	0.0145742
809.905	0.0145991
809.983	0.0145600
810.061	0.0144251
810.139	0.0144795
810.217	0.0145662
810.295	0.0144091
810.373	0.0145305
810.451	0.0147056
810.530	0.0146192
810.608	0.0144984
810.686	0.0146486
810.764	0.0147248
810.842	0.0144874
810.920	0.0145283
810.998	0.0146983
811.076	0.0146759
811.155	0.0148312
811.233	0.0148083
811.311	0.0147448
811.389	0.0148227
811.467	0.0147780
811.545	0.0150123
811.623	0.0148533
811.701	0.0149680
811.780	0.0146927
811.858	0.0148110
811.936	0.0147347
812.014	0.0145781
812.092	0.0146156
812.170	0.0146349
812.248	0.0146624
812.326	0.0145310
812.405	0.0144815
812.483	0.0147903
812.561	0.0145264
812.639	0.0144898
812.717	0.0144801
812.795	0.0145999
812.873	0.0145795
812.951	0.0146722
813.030	0.0146157
813.108	0.0146290
813.186	0.0146126
813.264	0.0147226
813.342	0.0146676
813.420	0.0147530
813.498	0.0145892
813.576	0.0145351
813.655	0.0146344
813.733	0.0145650
813.811	0.0147542
813.889	0.0146072
813.967	0.0147199
814.045	0.0146282
814.123	0.0145753
814.201	0.0146169
814.280	0.0146117
814.358	0.0147772
814.436	0.0147465
814.514	0.0147614
814.592	0.0147283
814.670	0.0148874
814.748	0.0148499
814.826	0.0146946
814.905	0.0146919
814.983	0.0147246
815.061	0.0146423
815.139	0.0146566
815.217	0.0148148
815.295	0.0146647
815.373	0.0145955
815.451	0.0145814
815.530	0.0146368
815.608	0.0146084
815.686	0.0144733
815.764	0.0144997
815.842	0.0145327
815.920	0.0146312
815.998	0.0147569
816.076	0.0146228
816.155	0.0146780
816.233	0.0146143
816.311	0.0146630
816.389	0.0147764
816.467	0.0148235
816.545	0.0147013
816.623	0.0148365
816.701	0.0147157
816.780	0.0147009
816.858	0.0147927
816.936	0.0147489
817.014	0.0147655
817.092	0.0147244
817.170	0.0147393
817.248	0.0146404
817.326	0.0145071
817.405	0.0145766
817.483	0.0146479
817.561	0.0145024
817.639	0.0144061
817.717	0.0145238
817.795	0.0144489
817.873	0.0144559
817.951	0.0145367
818.030	0.0145044
818.108	0.0144096
818.186	0.0144924
818.264	0.0145520
818.342	0.0144521
818.420	0.0144396
818.498	0.0145132
818.576	0.0145152
818.655	0.0144276
818.733	0.0145222
818.811	0.0145190
818.889	0.0145918
818.967	0.0145325
819.045	0.0147947
819.123	0.0146131
819.201	0.0146317
819.280	0.0145683
819.358	0.0146582
819.436	0.0148464
819.514	0.0146978
819.592	0.0145766
819.670	0.0146072
819.748	0.0146986
819.826	0.0146928
819.905	0.0147829
819.983	0.0148438
820.061	0.0146043
820.139	0.0146027
820.217	0.0147025
820.295	0.0146426
820.373	0.0145913
820.451	0.0146326
820.530	0.0145128
820.608	0.0145555
820.686	0.0147344
820.764	0.0146842
820.842	0.0146563
820.920	0.0145793
820.998	0.0147129
821.076	0.0146721
821.155	0.0146416
821.233	0.0147054
821.311	0.0147795
821.389	0.0148883
821.467	0.0148258
821.545	0.0146604
821.623	0.0148417
821.701	0.0148103
821.780	0.0147576
821.858	0.0148775
821.936	0.0149385
822.014	0.0148409
822.092	0.0148297
822.170	0.0149825
822.248	0.0149642
822.326	0.0148686
822.405	0.0148759
822.483	0.0148026
822.561	0.0148711
822.639	0.0149443
822.717	0.0149225
822.795	0.0149680
822.873	0.0149100
822.951	0.0149269
823.030	0.0147739
823.108	0.0149162
823.186	0.0148930
823.264	0.0147958
823.342	0.0147974
823.420	0.0146716
823.498	0.0148858
823.576	0.0147673
823.655	0.0148513
823.733	0.0148304
823.811	0.0148781
823.889	0.0148120
823.967	0.0148320
824.045	0.0148103
824.123	0.0148353
824.201	0.0147462
824.280	0.0148471
824.358	0.0149388
824.436	0.0149172
824.514	0.0147805
824.592	0.0148647
824.670	0.0148134
824.748	0.0148346
824.826	0.0149626
824.905	0.0148225
824.983	0.0149098
825.061	0.0149850
825.139	0.0148467
825.217	0.0147833
825.295	0.0150761
825.373	0.0147662
825.451	0.0147956
825.530	0.0147011
825.608	0.0148136
825.686	0.0147263
825.764	0.0146249
825.842	0.0146539
825.920	0.0146201
825.998	0.0147552
826.076	0.0147075
826.155	0.0146267
826.233	0.0145487
826.311	0.0145377
826.389	0.0145537
826.467	0.0145461
826.545	0.0146528
826.623	0.0145979
826.701	0.0147016
826.780	0.0146179
826.858	0.0146433
826.936	0.0146502
827.014	0.0145293
827.092	0.0144134
827.170	0.0145400
827.248	0.0145828
827.326	0.0146739
827.405	0.0146474
827.483	0.0144359
827.561	0.0145756
827.639	0.0146089
827.717	0.0146960
827.795	0.0144048
827.873	0.0145100
827.951	0.0146639
828.030	0.0145678
828.108	0.0146415
828.186	0.0145621
828.264	0.0145648
828.342	0.0144315
828.420	0.0145658
828.498	0.0146429
828.576	0.0145192
828.655	0.0145615
828.733	0.0146312
828.811	0.0146329
828.889	0.0145610
828.967	0.0146854
829.045	0.0145913
829.123	0.0146755
829.201	0.0146255
829.280	0.0144998
829.358	0.0147160
829.436	0.0149526
829.514	0.0148846
829.592	0.0147417
829.670	0.0147211
829.748	0.0146529
829.826	0.0148351
829.905	0.0148988
829.983	0.0147289
830.061	0.0148108
830.139	0.0148405
830.217	0.0147170
830.295	0.0149268
830.373	0.0147650
830.451	0.0147844
830.530	0.0148753
830.608	0.0147684
830.686	0.0148651
830.764	0.0148359
830.842	0.0147999
830.920	0.0148117
830.998	0.0148146
831.076	0.0147981
831.155	0.0148138
831.233	0.0146443
831.311	0.0146556
831.389	0.0146461
831.467	0.0148002
831.545	0.0147209
831.623	0.0146382
831.701	0.0148195
831.780	0.0146612
831.858	0.0148528
831.936	0.0147236
832.014	0.0147364
832.092	0.0148298
832.170	0.0146712
832.248	0.0145820
832.326	0.0146639
832.405	0.0147946
832.483	0.0147076
832.561	0.0147636
832.639	0.0147911
832.717	0.0146368
832.795	0.0146823
832.873	0.0146677
832.951	0.0147995
833.030	0.0146201
833.108	0.0146224
833.186	0.0146282
833.264	0.0145564
833.342	0.0145943
833.420	0.0144107
833.498	0.0145408
833.576	0.0145908
833.655	0.0144602
833.733	0.0144255
833.811	0.0146973
833.889	0.0146461
833.967	0.0146674
834.045	0.0145010
834.123	0.0146082
834.201	0.0144904
834.280	0.0146220
834.358	0.0146886
834.436	0.0147170
834.514	0.0145732
834.592	0.0146704
834.670	0.0145019
834.748	0.0145436
834.826	0.0146996
834.905	0.0146378
834.983	0.0146727
835.061	0.0146546
835.139	0.0145353
835.217	0.0147031
835.295	0.0145393
835.373	0.0147098
835.451	0.0148368
835.530	0.0147771
835.608	0.0148404
835.686	0.0147199
835.764	0.0146484
835.842	0.0148196
835.920	0.0147466
835.998	0.0145947
836.076	0.0145670
836.155	0.0146937
836.233	0.0147730
836.311	0.0147548
836.389	0.0147363
836.467	0.0146098
836.545	0.0147109
836.623	0.0147109
836.701	0.0147083
836.780	0.0145365
836.858	0.0146043
836.936	0.0147493
837.014	0.0145908
837.092	0.0146289
837.170	0.0145419
837.248	0.0146742
837.326	0.0147260
837.405	0.0146805
837.483	0.0146041
837.561	0.0147379
837.639	0.0148420
837.717	0.0148343
837.795	0.0147613
837.873	0.0148086
837.951	0.0147958
838.030	0.0146770
838.108	0.0147531
838.186	0.0146915
838.264	0.0147086
838.342	0.0147385
838.420	0.0148340
838.498	0.0147089
838.576	0.0147849
838.655	0.0146736
838.733	0.0146564
838.811	0.0147903
838.889	0.0146602
838.967	0.0145773
839.045	0.0145895
839.123	0.0147198
839.201	0.0145436
839.280	0.0145678
839.358	0.0146014
839.436	0.0145433
839.514	0.0146069
839.592	0.0145097
839.670	0.0145126
839.748	0.0146658
839.826	0.0145966
839.905	0.0145743
839.983	0.0146753
840.061	0.0145548
840.139	0.0144869
840.217	0.0146114
840.295	0.0146276
840.373	0.0145792
840.451	0.0146651
840.530	0.0146706
840.608	0.0147581
840.686	0.0146680
840.764	0.0145523
840.842	0.0146205
840.920	0.0145020
840.998	0.0147936
841.076	0.0148333
841.155	0.0147127
841.233	0.0147226
841.311	0.0147012
841.389	0.0146094
841.467	0.0147909
841.545	0.0147098
841.623	0.0145733
841.701	0.0146589
841.780	0.0147298
841.858	0.0147205
841.936	0.0146381
842.014	0.0145816
842.092	0.0146786
842.170	0.0145668
842.248	0.0146632
842.326	0.0146976
842.405	0.0147842
842.483	0.0147010
842.561	0.0146118
842.639	0.0146207
842.717	0.0146232
842.795	0.0147459
842.873	0.0148729
842.951	0.0146163
843.030	0.0148135
843.108	0.0147853
843.186	0.0148145
843.264	0.0146144
843.342	0.0147577
843.420	0.0147696
843.498	0.0148265
843.576	0.0148535
843.655	0.0147487
843.733	0.0147672
843.811	0.0148877
843.889	0.0147133
843.967	0.0148348
844.045	0.0148730
844.123	0.0147743
844.201	0.0145491
844.280	0.0147193
844.358	0.0147639
844.436	0.0147101
844.514	0.0147105
844.592	0.0145631
844.670	0.0146482
844.748	0.0146300
844.826	0.0147370
844.905	0.0147128
844.983	0.0147220
845.061	0.0147086
845.139	0.0147637
845.217	0.0146360
845.295	0.0146881
845.373	0.0146767
845.451	0.0148302
845.530	0.0147892
845.608	0.0148775
845.686	0.0147227
845.764	0.0145678
845.842	0.0147979
845.920	0.0147549
845.998	0.0148140
846.076	0.0147498
846.155	0.0148273
846.233	0.0148071
846.311	0.0148325
846.389	0.0147606
846.467	0.0149692
846.545	0.0147958
846.623	0.0147932
846.701	0.0148119
846.780	0.0147125
846.858	0.0149020
846.936	0.0148637
847.014	0.0148178
847.092	0.0147443
847.170	0.0148362
847.248	0.0147492
847.326	0.0147346
847.405	0.0146770
847.483	0.0147717
847.561	0.0148861
847.639	0.0147775
847.717	0.0147900
847.795	0.0148274
847.873	0.0147979
847.951	0.0145844
848.030	0.0147366
848.108	0.0148289
848.186	0.0147054
848.264	0.0146805
848.342	0.0147643
848.420	0.0147914
848.498	0.0147957
848.576	0.0146067
848.655	0.0147545
848.733	0.0147834
848.811	0.0145923
848.889	0.0147440
848.967	0.0145832
849.045	0.0146457
849.123	0.0148019
849.201	0.0147511
849.280	0.0147623
849.358	0.0145768
849.436	0.0145590
849.514	0.0147103
849.592	0.0146980
849.670	0.0146637
849.748	0.0144617
849.826	0.0145765
849.905	0.0145914
849.983	0.0145053
850.061	0.0146348
850.139	0.0146402
850.217	0.0146413
850.295	0.0146490
850.373	0.0145023
850.451	0.0144868
850.530	0.0144751
850.608	0.0144956
850.686	0.0145081
850.764	0.0145065
850.842	0.0145072
850.920	0.0145268
850.998	0.0146202
851.076	0.0145586
851.155	0.0145438
851.233	0.0144867
851.311	0.0145292
851.389	0.0145758
851.467	0.0145674
851.545	0.0145992
851.623	0.0145976
851.701	0.0144597
851.780	0.0145781
851.858	0.0146258
851.936	0.0145770
852.014	0.0145847
852.092	0.0146713
852.170	0.0146042
852.248	0.0146029
852.326	0.0146469
852.405	0.0144967
852.483	0.0145737
852.561	0.0146128
852.639	0.0147057
852.717	0.0145959
852.795	0.0144846
852.873	0.0145483
852.951	0.0145765
853.030	0.0145729
853.108	0.0146568
853.186	0.0145794
853.264	0.0147594
853.342	0.0148253
853.420	0.0146963
853.498	0.0146976
853.576	0.0147204
853.655	0.0148155
853.733	0.0148216
853.811	0.0148590
853.889	0.0148407
853.967	0.0145960
854.045	0.0147226
854.123	0.0148118
854.201	0.0146591
854.280	0.0148412
854.358	0.0146430
854.436	0.0145895
854.514	0.0146638
854.592	0.0146384
854.670	0.0146391
854.748	0.0146207
854.826	0.0145569
854.905	0.0145108
854.983	0.0146188
855.061	0.0146674
855.139	0.0144804
855.217	0.0145242
855.295	0.0147195
855.373	0.0146348
855.451	0.0145285
855.530	0.0145612
855.608	0.0146333
855.686	0.0145271
855.764	0.0145865
855.842	0.0145885
855.920	0.0145246
855.998	0.0145243
856.076	0.0146262
856.155	0.0146774
856.233	0.0146837
856.311	0.0145250
856.389	0.0145459
856.467	0.0146432
856.545	0.0146625
856.623	0.0146537
856.701	0.0145692
856.780	0.0146517
856.858	0.0146494
856.936	0.0145100
857.014	0.0147092
857.092	0.0146409
857.170	0.0145138
857.248	0.0146748
857.326	0.0145539
857.405	0.0146872
857.483	0.0146961
857.561	0.0145206
857.639	0.0146710
857.717	0.0146809
857.795	0.0146183
857.873	0.0146848
857.951	0.0145405
858.030	0.0147454
858.108	0.0147359
858.186	0.0147026
858.264	0.0148538
858.342	0.0147572
858.420	0.0147008
858.498	0.0145476
858.576	0.0145613
858.655	0.0145923
858.733	0.0145248
858.811	0.0145193
858.889	0.0144657
858.967	0.0145979
859.045	0.0145419
859.123	0.0145482
859.201	0.0146026
859.280	0.0145739
859.358	0.0145617
859.436	0.0147135
859.514	0.0145781
859.592	0.0145769
859.670	0.0145599
859.748	0.0146336
859.826	0.0146548
859.905	0.0145483
859.983	0.0146686
860.061	0.0145385
860.139	0.0144685
860.217	0.0146002
860.295	0.0146548
860.373	0.0145414
860.451	0.0144934
860.530	0.0144647
860.608	0.0144100
860.686	0.0146383
860.764	0.0145496
860.842	0.0144003
860.920	0.0143982
860.998	0.0145192
861.076	0.0144473
861.155	0.0145679
861.233	0.0145998
861.311	0.0146025
861.389	0.0145654
861.467	0.0146088
861.545	0.0147758
861.623	0.0146876
861.701	0.0147287
861.780	0.0147214
861.858	0.0145943
861.936	0.0147051
862.014	0.0146621
862.092	0.0147747
862.170	0.0147955
862.248	0.0147302
862.326	0.0147475
862.405	0.0146994
862.483	0.0146416
862.561	0.0148172
862.639	0.0148092
862.717	0.0146674
862.795	0.0147208
862.873	0.0146381
862.951	0.0146195
863.030	0.0147954
863.108	0.0147676
863.186	0.0147713
863.264	0.0147816
863.342	0.0146833
863.420	0.0148049
863.498	0.0147973
863.576	0.0147775
863.655	0.0147290
863.733	0.0148122
863.811	0.0146731
863.889	0.0146375
863.967	0.0147209
864.045	0.0147799
864.123	0.0147950
864.201	0.0147286
864.280	0.0147589
864.358	0.0146556
864.436	0.0147678
864.514	0.0146040
864.592	0.0147035
864.670	0.0145968
864.748	0.0146216
864.826	0.0147396
864.905	0.0147187
864.983	0.0146463
865.061	0.0146915
865.139	0.0146534
865.217	0.0146658
865.295	0.0147490
865.373	0.0146699
865.451	0.0145839
865.530	0.0147104
865.608	0.0148505
865.686	0.0148618
865.764	0.0146873
865.842	0.0146710
865.920	0.0146843
865.998	0.0147912
866.076	0.0146265
866.155	0.0147443
866.233	0.0147015
866.311	0.0147057
866.389	0.0147374
866.467	0.0147337
866.545	0.0147130
866.623	0.0147273
866.701	0.0146592
866.780	0.0147449
866.858	0.0148778
866.936	0.0147375
867.014	0.0148409
867.092	0.0147682
867.170	0.0147924
867.248	0.0147456
867.326	0.0148421
867.405	0.0148370
867.483	0.0147458
867.561	0.0149217
867.639	0.0149391
867.717	0.0148944
867.795	0.0149409
867.873	0.0148560
867.951	0.0150157
868.030	0.0148659
868.108	0.0149677
868.186	0.0149304
868.264	0.0148866
868.342	0.0149031
868.420	0.0148347
868.498	0.0149673
868.576	0.0148162
868.655	0.0146568
868.733	0.0147476
868.811	0.0148415
868.889	0.0148227
868.967	0.0147388
869.045	0.0147888
869.123	0.0149110
869.201	0.0147706
869.280	0.0146973
869.358	0.0147650
869.436	0.0148335
869.514	0.0148270
869.592	0.0149681
869.670	0.0147888
869.748	0.0148939
869.826	0.0147706
869.905	0.0149751
869.983	0.0150656
870.061	0.0149935
870.139	0.0149232
870.217	0.0149432
870.295	0.0149193
870.373	0.0149695
870.451	0.0149576
870.530	0.0148627
870.608	0.0150301
870.686	0.0149632
870.764	0.0149462
870.842	0.0149461
870.920	0.0148635
870.998	0.0148036
871.076	0.0149087
871.155	0.0147994
871.233	0.0148989
871.311	0.0148650
871.389	0.0148736
871.467	0.0148502
871.545	0.0148857
871.623	0.0148081
871.701	0.0150443
871.780	0.0147398
871.858	0.0148846
871.936	0.0148864
872.014	0.0147704
872.092	0.0146384
872.170	0.0146681
872.248	0.0146932
872.326	0.0147217
872.405	0.0146809
872.483	0.0146381
872.561	0.0145600
872.639	0.0146839
872.717	0.0145541
872.795	0.0145761
872.873	0.0145673
872.951	0.0146988
873.030	0.0146667
873.108	0.0145817
873.186	0.0145793
873.264	0.0145520
873.342	0.0145216
873.420	0.0145898
873.498	0.0145557
873.576	0.0144617
873.655	0.0145632
873.733	0.0146289
873.811	0.0144828
873.889	0.0144782
873.967	0.0144865
874.045	0.0143364
874.123	0.0144511
874.201	0.0144243
874.280	0.0144529
874.358	0.0144633
874.436	0.0145113
874.514	0.0145088
874.592	0.0145473
874.670	0.0143929
874.748	0.0145255
874.826	0.0145220
874.905	0.0143437
874.983	0.0146156
875.061	0.0145867
875.139	0.0146185
875.217	0.0146258
875.295	0.0145992
875.373	0.0147044
875.451	0.0145700
875.530	0.0145948
875.608	0.0144582
875.686	0.0145061
875.764	0.0146639
875.842	0.0146098
875.920	0.0146010
875.998	0.0146192
876.076	0.0145226
876.155	0.0145350
876.233	0.0145609
876.311	0.0145683
876.389	0.0146647
876.467	0.0146824
876.545	0.0145863
876.623	0.0145422
876.701	0.0145704
876.780	0.0145029
876.858	0.0146236
876.936	0.0147762
877.014	0.0146450
877.092	0.0146269
877.170	0.0145659
877.248	0.0145621
877.326	0.0147385
877.405	0.0147711
877.483	0.0145869
877.561	0.0147150
877.639	0.0148015
877.717	0.0147816
877.795	0.0147015
877.873	0.0146642
877.951	0.0146201
878.030	0.0147231
878.108	0.0146073
878.186	0.0147783
878.264	0.0146132
878.342	0.0145482
878.420	0.0147764
878.498	0.0145981
878.576	0.0145676
878.655	0.0146362
878.733	0.0144731
878.811	0.0147090
878.889	0.0145522
878.967	0.0145069
879.045	0.0146741
879.123	0.0147397
879.201	0.0145637
879.280	0.0145817
879.358	0.0146542
879.436	0.0145761
879.514	0.0147031
879.592	0.0147083
879.670	0.0147404
879.748	0.0146964
879.826	0.0147050
879.905	0.0147921
879.983	0.0148249
880.061	0.0149901
880.139	0.0148763
880.217	0.0146933
880.295	0.0148611
880.373	0.0148103
880.451	0.0147231
880.530	0.0146217
880.608	0.0148836
880.686	0.0146688
880.764	0.0146208
880.842	0.0145009
880.920	0.0145991
880.998	0.0146242
881.076	0.0146322
881.155	0.0145865
881.233	0.0145351
881.311	0.0146005
881.389	0.0144654
881.467	0.0145364
881.545	0.0144769
881.623	0.0145752
881.701	0.0146021
881.780	0.0146110
881.858	0.0143759
881.936	0.0145370
882.014	0.0146046
882.092	0.0144003
882.170	0.0146292
882.248	0.0143742
882.326	0.0146413
882.405	0.0145625
882.483	0.0144709
882.561	0.0145012
882.639	0.0145533
882.717	0.0146935
882.795	0.0146000
882.873	0.0147713
882.951	0.0147216
883.030	0.0146642
883.108	0.0147462
883.186	0.0147305
883.264	0.0148121
883.342	0.0146878
883.420	0.0147091
883.498	0.0147941
883.576	0.0147146
883.655	0.0148192
883.733	0.0149437
883.811	0.0147059
883.889	0.0145978
883.967	0.0148702
884.045	0.0147691
884.123	0.0147045
884.201	0.0146455
884.280	0.0147146
884.358	0.0147301
884.436	0.0145044
884.514	0.0146500
884.592	0.0145827
884.670	0.0145087
884.748	0.0143752
884.826	0.0143977
884.905	0.0145609
884.983	0.0144936
885.061	0.0143868
885.139	0.0144847
885.217	0.0144848
885.295	0.0146235
885.373	0.0145510
885.451	0.0145779
885.530	0.0145589
885.608	0.0145570
885.686	0.0145526
885.764	0.0145928
885.842	0.0147649
885.920	0.0148584
885.998	0.0148474
886.076	0.0148090
886.155	0.0147812
886.233	0.0148286
886.311	0.0148487
886.389	0.0147004
886.467	0.0147552
886.545	0.0148979
886.623	0.0145628
886.701	0.0146252
886.780	0.0145329
886.858	0.0145234
886.936	0.0146803
887.014	0.0145094
887.092	0.0144801
887.170	0.0146358
887.248	0.0145608
887.326	0.0145696
887.405	0.0145793
887.483	0.0147402
887.561	0.0146050
887.639	0.0146686
887.717	0.0148116
887.795	0.0147024
887.873	0.0147572
887.951	0.0149980
888.030	0.0148959
888.108	0.0147628
888.186	0.0148270
888.264	0.0148962
888.342	0.0147673
888.420	0.0145938
888.498	0.0146458
888.576	0.0146560
888.655	0.0145609
888.733	0.0145628
888.811	0.0144291
888.889	0.0147239
888.967	0.0146811
889.045	0.0145139
889.123	0.0146579
889.201	0.0145857
889.280	0.0145918
889.358	0.0145228
889.436	0.0148156
889.514	0.0146812
889.592	0.0145103
889.670	0.0146476
889.748	0.0148237
889.826	0.0147319
889.905	0.0146201
889.983	0.0146750
890.061	0.0147537
890.139	0.0147114
890.217	0.0147609
890.295	0.0146284
890.373	0.0147413
890.451	0.0148794
890.530	0.0146661
890.608	0.0149014
890.686	0.0147959
890.764	0.0147939
890.842	0.0148575
890.920	0.0150484
890.998	0.0149759
891.076	0.0148174
891.155	0.0148411
891.233	0.0149161
891.311	0.0148977
891.389	0.0147994
891.467	0.0147205
891.545	0.0148237
891.623	0.0148215
891.701	0.0148222
891.780	0.0147744
891.858	0.0147431
891.936	0.0147096
892.014	0.0146440
892.092	0.0146584
892.170	0.0146889
892.248	0.0147346
892.326	0.0146948
892.405	0.0146810
892.483	0.0147108
892.561	0.0147725
892.639	0.0148040
892.717	0.0148566
892.795	0.0148723
892.873	0.0145790
892.951	0.0148266
893.030	0.0147514
893.108	0.0147368
893.186	0.0147790
893.264	0.0147550
893.342	0.0146933
893.420	0.0146502
893.498	0.0146777
893.576	0.0148286
893.655	0.0147410
893.733	0.0147807
893.811	0.0147137
893.889	0.0147196
893.967	0.0146450
894.045	0.0146832
894.123	0.0147236
894.201	0.0146101
894.280	0.0146336
894.358	0.0146030
894.436	0.0146822
894.514	0.0146476
894.592	0.0146340
894.670	0.0147689
894.748	0.0147491
894.826	0.0146721
894.905	0.0146455
894.983	0.0146809
895.061	0.0146862
895.139	0.0147745
895.217	0.0145788
895.295	0.0146294
895.373	0.0146586
895.451	0.0146176
895.530	0.0147190
895.608	0.0147236
895.686	0.0146774
895.764	0.0145981
895.842	0.0146877
895.920	0.0146565
895.998	0.0146680
896.076	0.0145851
896.155	0.0147095
896.233	0.0146201
896.311	0.0145438
896.389	0.0146709
896.467	0.0145670
896.545	0.0146262
896.623	0.0146722
896.701	0.0145398
896.780	0.0146304
896.858	0.0146520
896.936	0.0146129
897.014	0.0145206
897.092	0.0146027
897.170	0.0147436
897.248	0.0146584
897.326	0.0148441
897.405	0.0146025
897.483	0.0144962
897.561	0.0145114
897.639	0.0147186
897.717	0.0146268
897.795	0.0146281
897.873	0.0145611
897.951	0.0147034
898.030	0.0146037
898.108	0.0144525
898.186	0.0146119
898.264	0.0145252
898.342	0.0145615
898.420	0.0146808
898.498	0.0145779
898.576	0.0146626
898.655	0.0146727
898.733	0.0146598
898.811	0.0146537
898.889	0.0147361
898.967	0.0146881
899.045	0.0146104
899.123	0.0146684
899.201	0.0146219
899.280	0.0145964
899.358	0.0147517
899.436	0.0147314
899.514	0.0146114
899.592	0.0146081
899.670	0.0146738
899.748	0.0146805
899.826	0.0145841
899.905	0.0145990
899.983	0.0145943
900.061	0.0146878
900.139	0.0147604
900.217	0.0146659
900.295	0.0146085
900.373	0.0144790
900.451	0.0146562
900.530	0.0146892
900.608	0.0145882
900.686	0.0148289
900.764	0.0146536
900.842	0.0146913
900.920	0.0148017
900.998	0.0146963
901.076	0.0148236
901.155	0.0149232
901.233	0.0149657
901.311	0.0149663
901.389	0.0149873
901.467	0.0148688
901.545	0.0148874
901.623	0.0147720
901.701	0.0148321
901.780	0.0148954
901.858	0.0146954
901.936	0.0146189
902.014	0.0146728
902.092	0.0148186
902.170	0.0146795
902.248	0.0146921
902.326	0.0146915
902.405	0.0146465
902.483	0.0147128
902.561	0.0148225
902.639	0.0147465
902.717	0.0147328
902.795	0.0147709
902.873	0.0147175
902.951	0.0146668
903.030	0.0147318
903.108	0.0147212
903.186	0.0145817
903.264	0.0147784
903.342	0.0148276
903.420	0.0147661
903.498	0.0145770
903.576	0.0146826
903.655	0.0147479
903.733	0.0147824
903.811	0.0145819
903.889	0.0148251
903.967	0.0147526
904.045	0.0148719
904.123	0.0148134
904.201	0.0148165
904.280	0.0147546
904.358	0.0146509
904.436	0.0147055
904.514	0.0149609
904.592	0.0147558
904.670	0.0148759
904.748	0.0147094
904.826	0.0145923
904.905	0.0146613
904.983	0.0147845
905.061	0.0144833
905.139	0.0145251
905.217	0.0146214
905.295	0.0145824
905.373	0.0145817
905.451	0.0146851
905.530	0.0147175
905.608	0.0147565
905.686	0.0146162
905.764	0.0146594
905.842	0.0147615
905.920	0.0147665
905.998	0.0146204
906.076	0.0147073
906.155	0.0148303
906.233	0.0145953
906.311	0.0145171
906.389	0.0145733
906.467	0.0145929
906.545	0.0145370
906.623	0.0145866
906.701	0.0146054
906.780	0.0147202
906.858	0.0146069
906.936	0.0146091
907.014	0.0147348
907.092	0.0147189
907.170	0.0147123
907.248	0.0146134
907.326	0.0147446
907.405	0.0146857
907.483	0.0146443
907.561	0.0147782
907.639	0.0147272
907.717	0.0146266
907.795	0.0145546
907.873	0.0146841
907.951	0.0148367
908.030	0.0146216
908.108	0.0147449
908.186	0.0146940
908.264	0.0148944
908.342	0.0147960
908.420	0.0149294
908.498	0.0147661
908.576	0.0147783
908.655	0.0148574
908.733	0.0148184
908.811	0.0148900
908.889	0.0147603
908.967	0.0146938
909.045	0.0147425
909.123	0.0146704
909.201	0.0148442
909.280	0.0147724
909.358	0.0148274
909.436	0.0146011
909.514	0.0147575
909.592	0.0147485
909.670	0.0147637
909.748	0.0148117
909.826	0.0147535
909.905	0.0145618
909.983	0.0146187
910.061	0.0146699
910.139	0.0147223
910.217	0.0147192
910.295	0.0146509
910.373	0.0145244
910.451	0.0146466
910.530	0.0146835
910.608	0.0146768
910.686	0.0146629
910.764	0.0146213
910.842	0.0146987
910.920	0.0145119
910.998	0.0144609
911.076	0.0144701
911.155	0.0146023
911.233	0.0145411
911.311	0.0144506
911.389	0.0145914
911.467	0.0145894
911.545	0.0146388
911.623	0.0143877
911.701	0.0143732
911.780	0.0144877
911.858	0.0144197
911.936	0.0145586
912.014	0.0144388
912.092	0.0144646
912.170	0.0144918
912.248	0.0144641
912.326	0.0144986
912.405	0.0144022
912.483	0.0144562
912.561	0.0145038
912.639	0.0144266
912.717	0.0144401
912.795	0.0145250
912.873	0.0143542
912.951	0.0145997
913.030	0.0146284
913.108	0.0144598
913.186	0.0146456
913.264	0.0146113
913.342	0.0146273
913.420	0.0146083
913.498	0.0147663
913.576	0.0146485
913.655	0.0147400
913.733	0.0146749
913.811	0.0147550
913.889	0.0147599
913.967	0.0147840
914.045	0.0146469
914.123	0.0146869
914.201	0.0146838
914.280	0.0146221
914.358	0.0147308
914.436	0.0147259
914.514	0.0147482
914.592	0.0145903
914.670	0.0147654
914.748	0.0146243
914.826	0.0146578
914.905	0.0148525
914.983	0.0146066
915.061	0.0145936
915.139	0.0147064
915.217	0.0146478
915.295	0.0146726
915.373	0.0146344
915.451	0.0146540
915.530	0.0146726
915.608	0.0147669
915.686	0.0147375
915.764	0.0147874
915.842	0.0145411
915.920	0.0146125
915.998	0.0146117
916.076	0.0143820
916.155	0.0146598
916.233	0.0146747
916.311	0.0146207
916.389	0.0145361
916.467	0.0145625
916.545	0.0145762
916.623	0.0147155
916.701	0.0146838
916.780	0.0145410
916.858	0.0147060
916.936	0.0146539
917.014	0.0146878
917.092	0.0145900
917.170	0.0145540
917.248	0.0147157
917.326	0.0146960
917.405	0.0147236
917.483	0.0146377
917.561	0.0147365
917.639	0.0146959
917.717	0.0148054
917.795	0.0145867
917.873	0.0146064
917.951	0.0145898
918.030	0.0148012
918.108	0.0148342
918.186	0.0146226
918.264	0.0147769
918.342	0.0148169
918.420	0.0146726
918.498	0.0146839
918.576	0.0145799
918.655	0.0146889
918.733	0.0147237
918.811	0.0148549
918.889	0.0147388
918.967	0.0147721
919.045	0.0146034
919.123	0.0147272
919.201	0.0146484
919.280	0.0147572
919.358	0.0147630
919.436	0.0147205
919.514	0.0146661
919.592	0.0147076
919.670	0.0147050
919.748	0.0147722
919.826	0.0146162
919.905	0.0146064
919.983	0.0146606
920.061	0.0146165
920.139	0.0144809
920.217	0.0146665
920.295	0.0145923
920.373	0.0146418
920.451	0.0146983
920.530	0.0144437
920.608	0.0146104
920.686	0.0146435
920.764	0.0147494
920.842	0.0147192
920.920	0.0146748
920.998	0.0146442
921.076	0.0147453
921.155	0.0147164
921.233	0.0146828
921.311	0.0146463
921.389	0.0146886
921.467	0.0147853
921.545	0.0147076
921.623	0.0146243
921.701	0.0147067
921.780	0.0147274
921.858	0.0146507
921.936	0.0145855
922.014	0.0147495
922.092	0.0148568
922.170	0.0146535
922.248	0.0146693
922.326	0.0147828
922.405	0.0147488
922.483	0.0146638
922.561	0.0147311
922.639	0.0147518
922.717	0.0147086
922.795	0.0146739
922.873	0.0147058
922.951	0.0147429
923.030	0.0146826
923.108	0.0147529
923.186	0.0147533
923.264	0.0146387
923.342	0.0148165
923.420	0.0146448
923.498	0.0146043
923.576	0.0146392
923.655	0.0147397
923.733	0.0147556
923.811	0.0146812
923.889	0.0146178
923.967	0.0147963
924.045	0.0148260
924.123	0.0148199
924.201	0.0148009
924.280	0.0147128
924.358	0.0148830
924.436	0.0148360
924.514	0.0147858
924.592	0.0147702
924.670	0.0146969
924.748	0.0148973
924.826	0.0148450
924.905	0.0147653
924.983	0.0146893
925.061	0.0147060
925.139	0.0148207
925.217	0.0147199
925.295	0.0148212
925.373	0.0145777
925.451	0.0146775
925.530	0.0147267
925.608	0.0145847
925.686	0.0145535
925.764	0.0146659
925.842	0.0146464
925.920	0.0146744
925.998	0.0145242
926.076	0.0146394
926.155	0.0146143
926.233	0.0147161
926.311	0.0148246
926.389	0.0147683
926.467	0.0148528
926.545	0.0147175
926.623	0.0146976
926.701	0.0148252
926.780	0.0147510
926.858	0.0147548
926.936	0.0148136
927.014	0.0148818
927.092	0.0147931
927.170	0.0148222
927.248	0.0147916
927.326	0.0147458
927.405	0.0146373
927.483	0.0147690
927.561	0.0146753
927.639	0.0147230
927.717	0.0148543
927.795	0.0146835
927.873	0.0147762
927.951	0.0146352
928.030	0.0146670
928.108	0.0146636
928.186	0.0144231
928.264	0.0147995
928.342	0.0149294
928.420	0.0147462
928.498	0.0146814
928.576	0.0145911
928.655	0.0146535
928.733	0.0147240
928.811	0.0147008
928.889	0.0147108
928.967	0.0146884
929.045	0.0147550
929.123	0.0145705
929.201	0.0146518
929.280	0.0147310
929.358	0.0145681
929.436	0.0146640
929.514	0.0145897
929.592	0.0146075
929.670	0.0146593
929.748	0.0145887
929.826	0.0146001
929.905	0.0145489
929.983	0.0148203
930.061	0.0147130
930.139	0.0146378
930.217	0.0145551
930.295	0.0146184
930.373	0.0146498
930.451	0.0146248
930.530	0.0145743
930.608	0.0146345
930.686	0.0146776
930.764	0.0146344
930.842	0.0147035
930.920	0.0147718
930.998	0.0147710
931.076	0.0146062
931.155	0.0146011
931.233	0.0146667
931.311	0.0146516
931.389	0.0147562
931.467	0.0146746
931.545	0.0146394
931.623	0.0147205
931.701	0.0148414
931.780	0.0147367
931.858	0.0146893
931.936	0.0148629
932.014	0.0147192
932.092	0.0145985
932.170	0.0147219
932.248	0.0148132
932.326	0.0147121
932.405	0.0146339
932.483	0.0147463
932.561	0.0147351
932.639	0.0146731
932.717	0.0147044
932.795	0.0147915
932.873	0.0148071
932.951	0.0148012
933.030	0.0148061
933.108	0.0147106
933.186	0.0146291
933.264	0.0147264
933.342	0.0146509
933.420	0.0145502
933.498	0.0148518
933.576	0.0147392
933.655	0.0145834
933.733	0.0146471
933.811	0.0146680
933.889	0.0146511
933.967	0.0147072
934.045	0.0145891
934.123	0.0146978
934.201	0.0146873
934.280	0.0147474
934.358	0.0148031
934.436	0.0146745
934.514	0.0146851
934.592	0.0147281
934.670	0.0146257
934.748	0.0146226
934.826	0.0146845
934.905	0.0146980
934.983	0.0146465
935.061	0.0146056
935.139	0.0146735
935.217	0.0146716
935.295	0.0146690
935.373	0.0146373
935.451	0.0147382
935.530	0.0147028
935.608	0.0146832
935.686	0.0146782
935.764	0.0146860
935.842	0.0146138
935.920	0.0147584
935.998	0.0146649
936.076	0.0146138
936.155	0.0145646
936.233	0.0146323
936.311	0.0145827
936.389	0.0145219
936.467	0.0145604
936.545	0.0144038
936.623	0.0145648
936.701	0.0145131
936.780	0.0145012
936.858	0.0144279
936.936	0.0145084
937.014	0.0143930
937.092	0.0142419
937.170	0.0143526
937.248	0.0143483
937.326	0.0142739
937.405	0.0143763
937.483	0.0143445
937.561	0.0142889
937.639	0.0144739
937.717	0.0142926
937.795	0.0143793
937.873	0.0144781
937.951	0.0143767
938.030	0.0142550
938.108	0.0143909
938.186	0.0145847
938.264	0.0145023
938.342	0.0145247
938.420	0.0143353
938.498	0.0144370
938.576	0.0145863
938.655	0.0146230
938.733	0.0146528
938.811	0.0146665
938.889	0.0146546
938.967	0.0145086
939.045	0.0147065
939.123	0.0146605
939.201	0.0146491
939.280	0.0146973
939.358	0.0145122
939.436	0.0147694
939.514	0.0145944
939.592	0.0145095
939.670	0.0146394
939.748	0.0147019
939.826	0.0146111
939.905	0.0147125
939.983	0.0145744
940.061	0.0145240
940.139	0.0146077
940.217	0.0145813
940.295	0.0145799
940.373	0.0145726
940.451	0.0144807
940.530	0.0144634
940.608	0.0146774
940.686	0.0144080
940.764	0.0144405
940.842	0.0145796
940.920	0.0145484
940.998	0.0145206
941.076	0.0145519
941.155	0.0145326
941.233	0.0145574
941.311	0.0144997
941.389	0.0144128
941.467	0.0144688
941.545	0.0144863
941.623	0.0144862
941.701	0.0147208
941.780	0.0145039
941.858	0.0145315
941.936	0.0144638
942.014	0.0145335
942.092	0.0145663
942.170	0.0145808
942.248	0.0144736
942.326	0.0145714
942.405	0.0146011
942.483	0.0145671
942.561	0.0145103
942.639	0.0143748
942.717	0.0144600
942.795	0.0145344
942.873	0.0145213
942.951	0.0144061
943.030	0.0144561
943.108	0.0144928
943.186	0.0146921
943.264	0.0145464
943.342	0.0145113
943.420	0.0146191
943.498	0.0144292
943.576	0.0145666
943.655	0.0145441
943.733	0.0146373
943.811	0.0147945
943.889	0.0147205
943.967	0.0144875
944.045	0.0146056
944.123	0.0147047
944.201	0.0147156
944.280	0.0146938
944.358	0.0145640
944.436	0.0145428
944.514	0.0147479
944.592	0.0145512
944.670	0.0145708
944.748	0.0146812
944.826	0.0146037
944.905	0.0145923
944.983	0.0147192
945.061	0.0146384
945.139	0.0146040
945.217	0.0146503
945.295	0.0146519
945.373	0.0145497
945.451	0.0145013
945.530	0.0146558
945.608	0.0146859
945.686	0.0147717
945.764	0.0146402
945.842	0.0147865
945.920	0.0147154
945.998	0.0147650
946.076	0.0146439
946.155	0.0146880
946.233	0.0146394
946.311	0.0145933
946.389	0.0146909
946.467	0.0147318
946.545	0.0147058
946.623	0.0147386
946.701	0.0147614
946.780	0.0147739
946.858	0.0148193
946.936	0.0147317
947.014	0.0146190
947.092	0.0146589
947.170	0.0147995
947.248	0.0145969
947.326	0.0148076
947.405	0.0147488
947.483	0.0147059
947.561	0.0147518
947.639	0.0147225
947.717	0.0148132
947.795	0.0146632
947.873	0.0148671
947.951	0.0146986
948.030	0.0146844
948.108	0.0147939
948.186	0.0148727
948.264	0.0146846
948.342	0.0147838
948.420	0.0148298
948.498	0.0147302
948.576	0.0149226
948.655	0.0146617
948.733	0.0146418
948.811	0.0148550
948.889	0.0146050
948.967	0.0147475
949.045	0.0147330
949.123	0.0148215
949.201	0.0145887
949.280	0.0145656
949.358	0.0147322
949.436	0.0145760
949.514	0.0146917
949.592	0.0146394
949.670	0.0147659
949.748	0.0144901
949.826	0.0146108
949.905	0.0148633
949.983	0.0147638
950.061	0.0145343
950.139	0.0147007
950.217	0.0147292
950.295	0.0146729
950.373	0.0146444
950.451	0.0146272
950.530	0.0146925
950.608	0.0148686
950.686	0.0148158
950.764	0.0148350
950.842	0.0146789
950.920	0.0146719
950.998	0.0146783
951.076	0.0147298
951.155	0.0147763
951.233	0.0146439
951.311	0.0145806
951.389	0.0146371
951.467	0.0147359
951.545	0.0146563
951.623	0.0147340
951.701	0.0146716
951.780	0.0147488
951.858	0.0147038
951.936	0.0147298
952.014	0.0147176
952.092	0.0145787
952.170	0.0148240
952.248	0.0148689
952.326	0.0148146
952.405	0.0146300
952.483	0.0147026
952.561	0.0147797
952.639	0.0147894
952.717	0.0147473
952.795	0.0146596
952.873	0.0146287
952.951	0.0146390
953.030	0.0146653
953.108	0.0147292
953.186	0.0145920
953.264	0.0148263
953.342	0.0146825
953.420	0.0147767
953.498	0.0146481
953.576	0.0146076
953.655	0.0147495
953.733	0.0148174
953.811	0.0146400
953.889	0.0147253
953.967	0.0147670
954.045	0.0146812
954.123	0.0147150
954.201	0.0147351
954.280	0.0147609
954.358	0.0147372
954.436	0.0146391
954.514	0.0146555
954.592	0.0146815
954.670	0.0146000
954.748	0.0146591
954.826	0.0145216
954.905	0.0147387
954.983	0.0146953
955.061	0.0145679
955.139	0.0147545
955.217	0.0146307
955.295	0.0146638
955.373	0.0146487
955.451	0.0145572
955.530	0.0146433
955.608	0.0144923
955.686	0.0146565
955.764	0.0146550
955.842	0.0146712
955.920	0.0146549
955.998	0.0145262
956.076	0.0145601
956.155	0.0146674
956.233	0.0146444
956.311	0.0145483
956.389	0.0145211
956.467	0.0147202
956.545	0.0145718
956.623	0.0144693
956.701	0.0144959
956.780	0.0146863
956.858	0.0144801
956.936	0.0145985
957.014	0.0145254
957.092	0.0145366
957.170	0.0144659
957.248	0.0144748
957.326	0.0144815
957.405	0.0145782
957.483	0.0145325
957.561	0.0145387
957.639	0.0146115
957.717	0.0146213
957.795	0.0146724
957.873	0.0144974
957.951	0.0144866
958.030	0.0145883
958.108	0.0146426
958.186	0.0146084
958.264	0.0145667
958.342	0.0145893
958.420	0.0146189
958.498	0.0146740
958.576	0.0146834
958.655	0.0146510
958.733	0.0146170
958.811	0.0145276
958.889	0.0146215
958.967	0.0145369
959.045	0.0145208
959.123	0.0146311
959.201	0.0146060
959.280	0.0145023
959.358	0.0145153
959.436	0.0147594
959.514	0.0145483
959.592	0.0143876
959.670	0.0145232
959.748	0.0144901
959.826	0.0144372
959.905	0.0145727
