05/17/2022	16:41:28	Ver.	4.1	UNKNOWN
Optical Delay	639.982744	Delta X		0.078125	Sweeps	1	Scan Rate	0/0
Coordinates	Axis 1	NaN	Axis 2	NaN	Axis 3	NaN	Axis 4	NaN	Axis 5	NaN	Axis 6	0.000000
TX Power	0.000000	RX Power	0.000000

639.983	0.0159774
640.061	0.0160398
640.139	0.0161282
640.217	0.0160959
640.295	0.0160528
640.373	0.0159938
640.451	0.0159943
640.530	0.0159946
640.608	0.0159939
640.686	0.0158607
640.764	0.0159581
640.842	0.0160262
640.920	0.0158859
640.998	0.0159488
641.076	0.0160408
641.155	0.0161217
641.233	0.0162442
641.311	0.0159971
641.389	0.0160046
641.467	0.0160328
641.545	0.0159199
641.623	0.0160459
641.701	0.0159302
641.780	0.0160343
641.858	0.0159995
641.936	0.0161239
642.014	0.0160973
642.092	0.0160736
642.170	0.0160645
642.248	0.0159392
642.326	0.0160099
642.405	0.0160296
642.483	0.0160094
642.561	0.0158897
642.639	0.0159964
642.717	0.0160332
642.795	0.0160718
642.873	0.0158753
642.951	0.0158958
643.030	0.0160276
643.108	0.0160052
643.186	0.0160108
643.264	0.0160435
643.342	0.0160884
643.420	0.0160957
643.498	0.0160134
643.576	0.0158337
643.655	0.0159335
643.733	0.0160226
643.811	0.0160284
643.889	0.0160339
643.967	0.0159446
644.045	0.0160234
644.123	0.0159971
644.201	0.0161189
644.280	0.0159448
644.358	0.0160163
644.436	0.0159315
644.514	0.0160231
644.592	0.0160188
644.670	0.0160120
644.748	0.0160040
644.826	0.0160839
644.905	0.0159924
644.983	0.0159976
645.061	0.0159988
645.139	0.0159893
645.217	0.0159772
645.295	0.0160072
645.373	0.0159841
645.451	0.0160830
645.530	0.0159657
645.608	0.0160724
645.686	0.0160034
645.764	0.0160178
645.842	0.0159864
645.920	0.0161824
645.998	0.0160381
646.076	0.0159715
646.155	0.0159893
646.233	0.0159186
646.311	0.0160002
646.389	0.0160329
646.467	0.0160197
646.545	0.0159416
646.623	0.0160938
646.701	0.0159196
646.780	0.0159918
646.858	0.0161620
646.936	0.0160228
647.014	0.0160735
647.092	0.0160976
647.170	0.0159775
647.248	0.0159882
647.326	0.0161114
647.405	0.0159620
647.483	0.0159023
647.561	0.0159113
647.639	0.0159303
647.717	0.0160561
647.795	0.0160555
647.873	0.0160461
647.951	0.0160559
648.030	0.0159537
648.108	0.0159838
648.186	0.0160787
648.264	0.0159515
648.342	0.0159245
648.420	0.0159274
648.498	0.0160371
648.576	0.0160445
648.655	0.0159779
648.733	0.0158825
648.811	0.0160616
648.889	0.0159361
648.967	0.0158289
649.045	0.0159814
649.123	0.0159105
649.201	0.0158874
649.280	0.0161558
649.358	0.0159177
649.436	0.0160246
649.514	0.0158983
649.592	0.0159534
649.670	0.0161093
649.748	0.0160078
649.826	0.0160261
649.905	0.0160825
649.983	0.0159851
650.061	0.0160210
650.139	0.0159430
650.217	0.0159950
650.295	0.0160757
650.373	0.0160123
650.451	0.0158945
650.530	0.0158662
650.608	0.0159610
650.686	0.0159429
650.764	0.0160135
650.842	0.0159214
650.920	0.0160165
650.998	0.0160715
651.076	0.0159891
651.155	0.0159416
651.233	0.0160050
651.311	0.0160709
651.389	0.0160092
651.467	0.0159483
651.545	0.0160091
651.623	0.0159931
651.701	0.0160397
651.780	0.0159738
651.858	0.0158334
651.936	0.0159367
652.014	0.0160076
652.092	0.0161024
652.170	0.0159616
652.248	0.0158897
652.326	0.0158875
652.405	0.0159037
652.483	0.0158612
652.561	0.0160474
652.639	0.0159978
652.717	0.0158848
652.795	0.0157621
652.873	0.0158990
652.951	0.0160387
653.030	0.0160439
653.108	0.0159792
653.186	0.0158938
653.264	0.0160429
653.342	0.0159700
653.420	0.0160127
653.498	0.0159186
653.576	0.0158904
653.655	0.0160436
653.733	0.0160174
653.811	0.0159330
653.889	0.0159351
653.967	0.0158379
654.045	0.0160592
654.123	0.0159695
654.201	0.0159143
654.280	0.0160357
654.358	0.0159841
654.436	0.0159611
654.514	0.0159723
654.592	0.0159062
654.670	0.0160420
654.748	0.0159721
654.826	0.0159413
654.905	0.0159928
654.983	0.0160478
655.061	0.0159280
655.139	0.0160744
655.217	0.0161019
655.295	0.0160011
655.373	0.0160056
655.451	0.0160313
655.530	0.0160243
655.608	0.0161275
655.686	0.0160378
655.764	0.0159944
655.842	0.0160359
655.920	0.0158351
655.998	0.0158717
656.076	0.0158806
656.155	0.0159607
656.233	0.0160210
656.311	0.0159263
656.389	0.0160670
656.467	0.0160757
656.545	0.0159573
656.623	0.0159893
656.701	0.0159612
656.780	0.0158793
656.858	0.0159329
656.936	0.0161422
657.014	0.0159927
657.092	0.0160535
657.170	0.0161080
657.248	0.0161248
657.326	0.0160636
657.405	0.0159572
657.483	0.0161459
657.561	0.0160204
657.639	0.0159432
657.717	0.0160210
657.795	0.0160760
657.873	0.0160433
657.951	0.0159155
658.030	0.0160214
658.108	0.0161733
658.186	0.0160443
658.264	0.0159205
658.342	0.0159787
658.420	0.0159115
658.498	0.0160341
658.576	0.0160066
658.655	0.0158299
658.733	0.0159381
658.811	0.0161314
658.889	0.0160631
658.967	0.0160405
659.045	0.0160340
659.123	0.0160460
659.201	0.0159683
659.280	0.0160808
659.358	0.0159898
659.436	0.0158633
659.514	0.0160239
659.592	0.0161256
659.670	0.0160329
659.748	0.0160504
659.826	0.0159204
659.905	0.0159102
659.983	0.0160832
660.061	0.0160290
660.139	0.0159785
660.217	0.0159220
660.295	0.0160156
660.373	0.0159889
660.451	0.0159627
660.530	0.0160710
660.608	0.0160318
660.686	0.0161735
660.764	0.0160062
660.842	0.0160735
660.920	0.0160221
660.998	0.0159322
661.076	0.0160080
661.155	0.0159962
661.233	0.0160727
661.311	0.0159589
661.389	0.0159995
661.467	0.0160505
661.545	0.0159689
661.623	0.0159842
661.701	0.0160287
661.780	0.0160367
661.858	0.0159872
661.936	0.0158571
662.014	0.0158131
662.092	0.0161526
662.170	0.0161861
662.248	0.0160058
662.326	0.0160721
662.405	0.0161075
662.483	0.0160735
662.561	0.0159779
662.639	0.0159045
662.717	0.0160105
662.795	0.0158555
662.873	0.0160575
662.951	0.0160212
663.030	0.0158643
663.108	0.0160150
663.186	0.0160902
663.264	0.0160480
663.342	0.0160749
663.420	0.0158217
663.498	0.0159868
663.576	0.0159761
663.655	0.0159669
663.733	0.0159200
663.811	0.0158910
663.889	0.0159802
663.967	0.0159592
664.045	0.0160873
664.123	0.0160075
664.201	0.0160467
664.280	0.0161891
664.358	0.0159672
664.436	0.0158189
664.514	0.0160493
664.592	0.0160996
664.670	0.0160682
664.748	0.0160032
664.826	0.0160921
664.905	0.0160677
664.983	0.0158849
665.061	0.0159724
665.139	0.0160568
665.217	0.0160180
665.295	0.0159374
665.373	0.0159108
665.451	0.0160036
665.530	0.0161176
665.608	0.0160486
665.686	0.0159927
665.764	0.0160330
665.842	0.0160112
665.920	0.0161047
665.998	0.0159618
666.076	0.0159998
666.155	0.0160535
666.233	0.0159602
666.311	0.0159353
666.389	0.0160977
666.467	0.0159853
666.545	0.0159131
666.623	0.0159068
666.701	0.0159962
666.780	0.0160001
666.858	0.0159527
666.936	0.0160558
667.014	0.0160156
667.092	0.0159901
667.170	0.0158871
667.248	0.0159541
667.326	0.0159911
667.405	0.0160672
667.483	0.0159105
667.561	0.0159123
667.639	0.0159487
667.717	0.0160459
667.795	0.0161014
667.873	0.0159035
667.951	0.0159615
668.030	0.0160861
668.108	0.0160008
668.186	0.0160940
668.264	0.0161887
668.342	0.0159698
668.420	0.0159740
668.498	0.0160790
668.576	0.0161365
668.655	0.0159898
668.733	0.0161790
668.811	0.0160764
668.889	0.0159882
668.967	0.0159962
669.045	0.0160601
669.123	0.0161373
669.201	0.0160357
669.280	0.0161144
669.358	0.0160651
669.436	0.0160133
669.514	0.0160471
669.592	0.0160889
669.670	0.0159609
669.748	0.0160217
669.826	0.0159031
669.905	0.0158928
669.983	0.0160291
670.061	0.0158797
670.139	0.0160123
670.217	0.0158909
670.295	0.0160484
670.373	0.0160396
670.451	0.0159444
670.530	0.0160167
670.608	0.0160773
670.686	0.0159901
670.764	0.0160646
670.842	0.0158309
670.920	0.0160703
670.998	0.0160257
671.076	0.0158968
671.155	0.0159610
671.233	0.0159834
671.311	0.0160620
671.389	0.0159898
671.467	0.0160494
671.545	0.0159817
671.623	0.0159941
671.701	0.0158776
671.780	0.0160273
671.858	0.0160699
671.936	0.0160422
672.014	0.0159625
672.092	0.0159724
672.170	0.0160142
672.248	0.0158931
672.326	0.0160657
672.405	0.0158347
672.483	0.0160785
672.561	0.0160000
672.639	0.0159924
672.717	0.0161124
672.795	0.0159632
672.873	0.0158907
672.951	0.0159634
673.030	0.0160678
673.108	0.0160072
673.186	0.0159367
673.264	0.0159212
673.342	0.0158412
673.420	0.0159209
673.498	0.0159116
673.576	0.0160568
673.655	0.0159354
673.733	0.0158837
673.811	0.0160242
673.889	0.0159814
673.967	0.0160329
674.045	0.0160433
674.123	0.0159570
674.201	0.0159750
674.280	0.0160039
674.358	0.0159221
674.436	0.0158747
674.514	0.0157821
674.592	0.0159776
674.670	0.0158415
674.748	0.0159595
674.826	0.0159992
674.905	0.0157856
674.983	0.0158539
675.061	0.0160200
675.139	0.0159710
675.217	0.0160422
675.295	0.0160883
675.373	0.0159734
675.451	0.0161044
675.530	0.0159851
675.608	0.0158089
675.686	0.0157948
675.764	0.0159652
675.842	0.0159976
675.920	0.0160774
675.998	0.0160247
676.076	0.0159469
676.155	0.0161574
676.233	0.0160547
676.311	0.0160152
676.389	0.0159204
676.467	0.0159939
676.545	0.0159294
676.623	0.0159232
676.701	0.0157681
676.780	0.0158595
676.858	0.0158833
676.936	0.0158286
677.014	0.0159129
677.092	0.0159064
677.170	0.0159560
677.248	0.0159683
677.326	0.0160815
677.405	0.0158501
677.483	0.0159917
677.561	0.0159320
677.639	0.0160592
677.717	0.0161257
677.795	0.0159740
677.873	0.0160039
677.951	0.0160921
678.030	0.0161048
678.108	0.0161291
678.186	0.0162334
678.264	0.0160984
678.342	0.0160637
678.420	0.0161436
678.498	0.0159700
678.576	0.0161240
678.655	0.0159585
678.733	0.0156845
678.811	0.0156939
678.889	0.0157510
678.967	0.0157253
679.045	0.0158784
679.123	0.0158203
679.201	0.0159544
679.280	0.0158319
679.358	0.0158035
679.436	0.0158250
679.514	0.0159288
679.592	0.0158568
679.670	0.0159959
679.748	0.0161160
679.826	0.0160557
679.905	0.0160363
679.983	0.0160654
680.061	0.0162997
680.139	0.0161620
680.217	0.0162849
680.295	0.0163112
680.373	0.0162688
680.451	0.0161263
680.530	0.0161460
680.608	0.0161240
680.686	0.0161605
680.764	0.0161433
680.842	0.0159173
680.920	0.0159489
680.998	0.0158326
681.076	0.0158186
681.155	0.0157023
681.233	0.0156753
681.311	0.0157901
681.389	0.0156853
681.467	0.0157123
681.545	0.0154779
681.623	0.0154838
681.701	0.0155669
681.780	0.0156847
681.858	0.0157481
681.936	0.0158588
682.014	0.0157388
682.092	0.0159452
682.170	0.0159395
682.248	0.0160324
682.326	0.0161597
682.405	0.0162212
682.483	0.0162879
682.561	0.0164108
682.639	0.0164439
682.717	0.0164110
682.795	0.0165661
682.873	0.0164389
682.951	0.0164651
683.030	0.0163861
683.108	0.0164311
683.186	0.0162133
683.264	0.0162410
683.342	0.0162523
683.420	0.0159804
683.498	0.0159328
683.576	0.0156066
683.655	0.0156377
683.733	0.0157635
683.811	0.0156656
683.889	0.0156716
683.967	0.0156158
684.045	0.0154603
684.123	0.0157165
684.201	0.0155386
684.280	0.0156035
684.358	0.0156404
684.436	0.0155975
684.514	0.0157410
684.592	0.0159156
684.670	0.0159776
684.748	0.0159300
684.826	0.0159676
684.905	0.0158940
684.983	0.0160561
685.061	0.0161278
685.139	0.0161816
685.217	0.0160929
685.295	0.0160646
685.373	0.0161390
685.451	0.0161803
685.530	0.0161041
685.608	0.0160188
685.686	0.0160717
685.764	0.0159709
685.842	0.0160636
685.920	0.0161055
685.998	0.0158821
686.076	0.0155735
686.155	0.0157188
686.233	0.0156810
686.311	0.0156921
686.389	0.0157918
686.467	0.0158703
686.545	0.0159278
686.623	0.0159098
686.701	0.0162598
686.780	0.0163094
686.858	0.0165305
686.936	0.0167428
687.014	0.0169772
687.092	0.0171438
687.170	0.0172561
687.248	0.0174644
687.326	0.0174391
687.405	0.0173950
687.483	0.0173980
687.561	0.0172413
687.639	0.0169936
687.717	0.0167865
687.795	0.0167151
687.873	0.0163352
687.951	0.0159715
688.030	0.0157662
688.108	0.0153032
688.186	0.0150481
688.264	0.0148578
688.342	0.0145472
688.420	0.0141642
688.498	0.0140743
688.576	0.0138853
688.655	0.0136469
688.733	0.0135860
688.811	0.0135279
688.889	0.0134190
688.967	0.0133474
689.045	0.0136518
689.123	0.0136633
689.201	0.0141505
689.280	0.0144901
689.358	0.0150596
689.436	0.0156915
689.514	0.0162521
689.592	0.0168068
689.670	0.0173615
689.748	0.0179694
689.826	0.0183371
689.905	0.0189213
689.983	0.0189673
690.061	0.0190046
690.139	0.0193402
690.217	0.0190905
690.295	0.0190411
690.373	0.0189450
690.451	0.0187992
690.530	0.0186773
690.608	0.0184351
690.686	0.0182264
690.764	0.0176436
690.842	0.0175129
690.920	0.0173280
690.998	0.0167064
691.076	0.0163349
691.155	0.0159737
691.233	0.0156490
691.311	0.0152680
691.389	0.0147683
691.467	0.0147135
691.545	0.0145349
691.623	0.0145119
691.701	0.0143567
691.780	0.0146447
691.858	0.0144711
691.936	0.0145195
692.014	0.0145922
692.092	0.0145192
692.170	0.0144959
692.248	0.0143530
692.326	0.0141439
692.405	0.0141580
692.483	0.0139101
692.561	0.0138950
692.639	0.0136871
692.717	0.0137368
692.795	0.0136395
692.873	0.0136967
692.951	0.0138778
693.030	0.0139649
693.108	0.0139466
693.186	0.0141740
693.264	0.0141868
693.342	0.0143900
693.420	0.0146181
693.498	0.0148560
693.576	0.0151131
693.655	0.0154829
693.733	0.0158514
693.811	0.0164653
693.889	0.0168581
693.967	0.0174686
694.045	0.0179121
694.123	0.0185873
694.201	0.0191750
694.280	0.0196962
694.358	0.0201707
694.436	0.0205995
694.514	0.0208856
694.592	0.0211625
694.670	0.0213229
694.748	0.0213585
694.826	0.0212059
694.905	0.0209696
694.983	0.0207967
695.061	0.0203339
695.139	0.0198752
695.217	0.0192821
695.295	0.0184557
695.373	0.0178678
695.451	0.0170681
695.530	0.0161121
695.608	0.0154964
695.686	0.0148316
695.764	0.0141828
695.842	0.0135594
695.920	0.0130105
695.998	0.0127298
696.076	0.0123946
696.155	0.0120093
696.233	0.0120767
696.311	0.0121825
696.389	0.0122451
696.467	0.0122574
696.545	0.0124938
696.623	0.0128058
696.701	0.0129934
696.780	0.0133849
696.858	0.0137153
696.936	0.0139175
697.014	0.0140836
697.092	0.0142631
697.170	0.0144813
697.248	0.0145395
697.326	0.0148009
697.405	0.0148067
697.483	0.0146880
697.561	0.0145909
697.639	0.0143437
697.717	0.0142860
697.795	0.0144151
697.873	0.0141345
697.951	0.0140158
698.030	0.0139266
698.108	0.0139564
698.186	0.0140312
698.264	0.0144943
698.342	0.0148550
698.420	0.0150974
698.498	0.0158041
698.576	0.0166032
698.655	0.0172939
698.733	0.0181765
698.811	0.0188038
698.889	0.0198174
698.967	0.0205506
699.045	0.0212596
699.123	0.0217753
699.201	0.0224637
699.280	0.0228129
699.358	0.0229644
699.436	0.0229457
699.514	0.0228996
699.592	0.0226256
699.670	0.0221516
699.748	0.0215502
699.826	0.0208603
699.905	0.0201208
699.983	0.0190792
700.061	0.0180586
700.139	0.0170953
700.217	0.0160436
700.295	0.0149429
700.373	0.0140470
700.451	0.0132036
700.530	0.0125134
700.608	0.0117466
700.686	0.0113940
700.764	0.0109299
700.842	0.0107861
700.920	0.0104728
700.998	0.0105473
701.076	0.0108459
701.155	0.0110674
701.233	0.0111614
701.311	0.0113133
701.389	0.0117146
701.467	0.0119608
701.545	0.0122977
701.623	0.0126080
701.701	0.0128155
701.780	0.0131071
701.858	0.0132182
701.936	0.0136066
702.014	0.0139472
702.092	0.0143266
702.170	0.0146016
702.248	0.0148289
702.326	0.0152347
702.405	0.0154766
702.483	0.0157092
702.561	0.0159040
702.639	0.0160950
702.717	0.0164074
702.795	0.0164381
702.873	0.0164832
702.951	0.0167104
703.030	0.0169432
703.108	0.0170411
703.186	0.0171933
703.264	0.0176322
703.342	0.0176984
703.420	0.0177408
703.498	0.0180827
703.576	0.0184099
703.655	0.0188277
703.733	0.0191930
703.811	0.0195562
703.889	0.0201082
703.967	0.0205499
704.045	0.0209101
704.123	0.0212263
704.201	0.0217547
704.280	0.0217778
704.358	0.0218307
704.436	0.0217316
704.514	0.0215625
704.592	0.0211352
704.670	0.0205370
704.748	0.0200459
704.826	0.0190427
704.905	0.0180955
704.983	0.0170805
705.061	0.0160973
705.139	0.0150217
705.217	0.0138928
705.295	0.0130019
705.373	0.0120813
705.451	0.0113457
705.530	0.0107639
705.608	0.0102996
705.686	0.0100214
705.764	0.0100184
705.842	0.00997574
705.920	0.0102620
705.998	0.0106821
706.076	0.0111963
706.155	0.0118419
706.233	0.0125655
706.311	0.0131200
706.389	0.0137045
706.467	0.0142712
706.545	0.0147409
706.623	0.0151910
706.701	0.0154612
706.780	0.0158294
706.858	0.0159504
706.936	0.0161732
707.014	0.0160010
707.092	0.0162203
707.170	0.0161978
707.248	0.0161140
707.326	0.0160323
707.405	0.0159486
707.483	0.0157180
707.561	0.0157472
707.639	0.0157239
707.717	0.0155741
707.795	0.0154133
707.873	0.0153658
707.951	0.0155158
708.030	0.0156020
708.108	0.0155893
708.186	0.0157541
708.264	0.0155777
708.342	0.0159112
708.420	0.0163823
708.498	0.0165029
708.576	0.0165599
708.655	0.0170625
708.733	0.0172496
708.811	0.0173985
708.889	0.0179529
708.967	0.0181663
709.045	0.0184393
709.123	0.0186882
709.201	0.0190079
709.280	0.0191829
709.358	0.0192916
709.436	0.0193941
709.514	0.0193893
709.592	0.0195457
709.670	0.0193549
709.748	0.0190216
709.826	0.0187664
709.905	0.0182693
709.983	0.0180511
710.061	0.0177073
710.139	0.0170844
710.217	0.0166135
710.295	0.0161928
710.373	0.0159610
710.451	0.0154364
710.530	0.0152103
710.608	0.0148557
710.686	0.0148393
710.764	0.0146216
710.842	0.0145042
710.920	0.0146307
710.998	0.0146112
711.076	0.0147129
711.155	0.0147593
711.233	0.0147775
711.311	0.0149016
711.389	0.0147144
711.467	0.0148062
711.545	0.0146840
711.623	0.0147320
711.701	0.0146632
711.780	0.0142870
711.858	0.0143190
711.936	0.0142542
712.014	0.0141960
712.092	0.0139584
712.170	0.0138809
712.248	0.0138180
712.326	0.0139563
712.405	0.0140104
712.483	0.0141390
712.561	0.0141916
712.639	0.0143651
712.717	0.0147154
712.795	0.0148159
712.873	0.0148351
712.951	0.0153177
713.030	0.0153699
713.108	0.0155105
713.186	0.0156166
713.264	0.0155527
713.342	0.0158218
713.420	0.0158147
713.498	0.0158849
713.576	0.0158791
713.655	0.0159923
713.733	0.0159543
713.811	0.0159542
713.889	0.0160787
713.967	0.0161778
714.045	0.0162767
714.123	0.0163642
714.201	0.0166542
714.280	0.0169331
714.358	0.0170894
714.436	0.0173476
714.514	0.0177145
714.592	0.0178491
714.670	0.0181641
714.748	0.0183253
714.826	0.0186543
714.905	0.0187332
714.983	0.0188577
715.061	0.0189192
715.139	0.0189932
715.217	0.0189540
715.295	0.0188087
715.373	0.0186034
715.451	0.0183406
715.530	0.0181636
715.608	0.0178282
715.686	0.0174290
715.764	0.0169824
715.842	0.0167020
715.920	0.0163979
715.998	0.0159632
716.076	0.0157030
716.155	0.0153193
716.233	0.0149239
716.311	0.0147972
716.389	0.0144707
716.467	0.0143761
716.545	0.0141209
716.623	0.0139793
716.701	0.0139365
716.780	0.0140057
716.858	0.0138547
716.936	0.0138603
717.014	0.0140044
717.092	0.0141733
717.170	0.0142126
717.248	0.0144702
717.326	0.0146021
717.405	0.0147378
717.483	0.0148993
717.561	0.0150829
717.639	0.0153807
717.717	0.0155746
717.795	0.0156876
717.873	0.0157619
717.951	0.0158247
718.030	0.0157944
718.108	0.0159014
718.186	0.0159168
718.264	0.0157462
718.342	0.0157136
718.420	0.0158913
718.498	0.0157553
718.576	0.0157301
718.655	0.0158010
718.733	0.0158205
718.811	0.0157275
718.889	0.0155885
718.967	0.0156897
719.045	0.0155927
719.123	0.0156596
719.201	0.0158018
719.280	0.0157609
719.358	0.0160367
719.436	0.0162843
719.514	0.0163327
719.592	0.0166254
719.670	0.0169484
719.748	0.0172979
719.826	0.0174940
719.905	0.0176902
719.983	0.0180147
720.061	0.0180927
720.139	0.0180335
720.217	0.0181566
720.295	0.0180695
720.373	0.0182435
720.451	0.0180653
720.530	0.0177780
720.608	0.0176665
720.686	0.0173786
720.764	0.0172711
720.842	0.0169845
720.920	0.0169165
720.998	0.0166680
721.076	0.0164104
721.155	0.0161288
721.233	0.0159676
721.311	0.0157530
721.389	0.0156379
721.467	0.0153900
721.545	0.0151467
721.623	0.0149353
721.701	0.0149019
721.780	0.0147183
721.858	0.0145290
721.936	0.0143565
722.014	0.0142589
722.092	0.0143001
722.170	0.0142706
722.248	0.0142816
722.326	0.0144287
722.405	0.0146040
722.483	0.0147911
722.561	0.0150627
722.639	0.0153018
722.717	0.0155964
722.795	0.0159108
722.873	0.0162253
722.951	0.0165952
723.030	0.0166998
723.108	0.0169226
723.186	0.0171062
723.264	0.0172066
723.342	0.0172581
723.420	0.0171989
723.498	0.0171771
723.576	0.0170728
723.655	0.0168941
723.733	0.0167987
723.811	0.0164848
723.889	0.0162144
723.967	0.0159821
724.045	0.0156392
724.123	0.0154405
724.201	0.0151700
724.280	0.0149937
724.358	0.0148750
724.436	0.0146481
724.514	0.0145345
724.592	0.0145520
724.670	0.0146410
724.748	0.0148319
724.826	0.0149559
724.905	0.0151668
724.983	0.0155376
725.061	0.0160727
725.139	0.0162571
725.217	0.0163577
725.295	0.0168702
725.373	0.0172944
725.451	0.0173928
725.530	0.0176566
725.608	0.0178476
725.686	0.0178596
725.764	0.0176980
725.842	0.0176923
725.920	0.0174760
725.998	0.0173885
726.076	0.0170847
726.155	0.0169433
726.233	0.0164256
726.311	0.0162728
726.389	0.0158710
726.467	0.0156972
726.545	0.0153723
726.623	0.0151611
726.701	0.0149884
726.780	0.0148094
726.858	0.0145760
726.936	0.0144656
727.014	0.0143725
727.092	0.0144373
727.170	0.0144476
727.248	0.0144863
727.326	0.0146939
727.405	0.0148417
727.483	0.0149545
727.561	0.0152158
727.639	0.0156412
727.717	0.0160099
727.795	0.0162600
727.873	0.0166591
727.951	0.0168319
728.030	0.0169085
728.108	0.0171844
728.186	0.0173857
728.264	0.0174989
728.342	0.0174594
728.420	0.0176009
728.498	0.0175521
728.576	0.0173065
728.655	0.0170518
728.733	0.0169229
728.811	0.0165815
728.889	0.0165289
728.967	0.0160578
729.045	0.0157841
729.123	0.0155718
729.201	0.0153423
729.280	0.0152621
729.358	0.0151467
729.436	0.0151090
729.514	0.0148924
729.592	0.0149718
729.670	0.0150245
729.748	0.0153011
729.826	0.0154369
729.905	0.0155072
729.983	0.0157399
730.061	0.0160912
730.139	0.0163493
730.217	0.0163828
730.295	0.0165456
730.373	0.0166486
730.451	0.0166989
730.530	0.0166745
730.608	0.0166814
730.686	0.0166642
730.764	0.0163851
730.842	0.0163314
730.920	0.0163703
730.998	0.0160911
731.076	0.0157700
731.155	0.0156934
731.233	0.0156611
731.311	0.0152467
731.389	0.0151317
731.467	0.0149883
731.545	0.0148044
731.623	0.0147632
731.701	0.0147700
731.780	0.0146357
731.858	0.0146730
731.936	0.0148399
732.014	0.0148763
732.092	0.0150179
732.170	0.0151178
732.248	0.0154053
732.326	0.0153308
732.405	0.0155367
732.483	0.0158166
732.561	0.0160236
732.639	0.0160949
732.717	0.0163002
732.795	0.0165475
732.873	0.0166498
732.951	0.0167484
733.030	0.0169917
733.108	0.0171103
733.186	0.0171606
733.264	0.0171251
733.342	0.0169938
733.420	0.0170844
733.498	0.0172849
733.576	0.0172375
733.655	0.0169593
733.733	0.0169347
733.811	0.0167249
733.889	0.0166072
733.967	0.0166618
734.045	0.0164104
734.123	0.0163207
734.201	0.0160943
734.280	0.0159491
734.358	0.0158075
734.436	0.0157584
734.514	0.0155663
734.592	0.0155827
734.670	0.0154515
734.748	0.0154868
734.826	0.0154159
734.905	0.0154607
734.983	0.0153891
735.061	0.0155112
735.139	0.0154929
735.217	0.0155096
735.295	0.0156184
735.373	0.0155542
735.451	0.0156335
735.530	0.0156811
735.608	0.0155452
735.686	0.0155534
735.764	0.0154984
735.842	0.0155011
735.920	0.0155730
735.998	0.0155038
736.076	0.0156120
736.155	0.0154510
736.233	0.0154646
736.311	0.0155333
736.389	0.0156157
736.467	0.0154919
736.545	0.0155198
736.623	0.0153960
736.701	0.0155494
736.780	0.0155685
736.858	0.0156696
736.936	0.0155141
737.014	0.0156366
737.092	0.0155495
737.170	0.0156346
737.248	0.0155978
737.326	0.0156796
737.405	0.0158036
737.483	0.0159641
737.561	0.0160220
737.639	0.0161983
737.717	0.0163721
737.795	0.0165763
737.873	0.0168350
737.951	0.0168301
738.030	0.0170407
738.108	0.0173772
738.186	0.0172556
738.264	0.0173992
738.342	0.0174230
738.420	0.0172633
738.498	0.0173895
738.576	0.0172557
738.655	0.0171235
738.733	0.0169154
738.811	0.0168157
738.889	0.0168347
738.967	0.0166201
739.045	0.0161483
739.123	0.0160141
739.201	0.0158295
739.280	0.0157536
739.358	0.0154519
739.436	0.0154351
739.514	0.0151763
739.592	0.0150497
739.670	0.0150853
739.748	0.0150694
739.826	0.0150472
739.905	0.0150517
739.983	0.0151391
740.061	0.0152931
740.139	0.0152278
740.217	0.0153133
740.295	0.0154849
740.373	0.0155904
740.451	0.0157468
740.530	0.0158912
740.608	0.0158791
740.686	0.0160112
740.764	0.0161078
740.842	0.0162951
740.920	0.0163053
740.998	0.0163159
741.076	0.0162672
741.155	0.0162134
741.233	0.0162801
741.311	0.0161361
741.389	0.0162064
741.467	0.0159605
741.545	0.0158661
741.623	0.0157193
741.701	0.0156557
741.780	0.0156297
741.858	0.0155085
741.936	0.0155613
742.014	0.0154237
742.092	0.0155704
742.170	0.0156102
742.248	0.0154696
742.326	0.0156223
742.405	0.0157346
742.483	0.0158925
742.561	0.0159181
742.639	0.0160620
742.717	0.0162529
742.795	0.0164070
742.873	0.0163571
742.951	0.0165490
743.030	0.0168736
743.108	0.0168437
743.186	0.0169856
743.264	0.0170183
743.342	0.0169700
743.420	0.0169248
743.498	0.0166908
743.576	0.0167266
743.655	0.0166402
743.733	0.0164359
743.811	0.0164105
743.889	0.0162645
743.967	0.0159237
744.045	0.0160845
744.123	0.0158730
744.201	0.0157546
744.280	0.0156076
744.358	0.0155873
744.436	0.0155174
744.514	0.0153971
744.592	0.0154381
744.670	0.0154263
744.748	0.0153380
744.826	0.0153468
744.905	0.0153249
744.983	0.0153073
745.061	0.0154068
745.139	0.0153143
745.217	0.0154682
745.295	0.0157048
745.373	0.0156227
745.451	0.0157485
745.530	0.0158450
745.608	0.0158163
745.686	0.0161883
745.764	0.0161747
745.842	0.0163186
745.920	0.0163914
745.998	0.0165569
746.076	0.0165586
746.155	0.0165173
746.233	0.0166275
746.311	0.0167256
746.389	0.0165313
746.467	0.0166616
746.545	0.0166269
746.623	0.0164214
746.701	0.0163433
746.780	0.0163595
746.858	0.0162720
746.936	0.0161064
747.014	0.0161135
747.092	0.0160207
747.170	0.0158485
747.248	0.0159282
747.326	0.0159402
747.405	0.0159898
747.483	0.0159444
747.561	0.0159120
747.639	0.0159733
747.717	0.0160643
747.795	0.0160902
747.873	0.0161512
747.951	0.0161790
748.030	0.0161752
748.108	0.0164187
748.186	0.0163510
748.264	0.0163098
748.342	0.0165009
748.420	0.0164960
748.498	0.0163938
748.576	0.0162476
748.655	0.0162691
748.733	0.0161122
748.811	0.0162111
748.889	0.0159036
748.967	0.0158039
749.045	0.0157722
749.123	0.0154453
749.201	0.0153618
749.280	0.0154003
749.358	0.0152306
749.436	0.0151456
749.514	0.0151733
749.592	0.0152478
749.670	0.0151263
749.748	0.0151558
749.826	0.0153587
749.905	0.0153027
749.983	0.0153201
750.061	0.0154241
750.139	0.0155828
750.217	0.0156435
750.295	0.0157067
750.373	0.0158902
750.451	0.0158898
750.530	0.0159590
750.608	0.0160813
750.686	0.0161508
750.764	0.0162731
750.842	0.0163481
750.920	0.0163584
750.998	0.0163754
751.076	0.0165319
751.155	0.0164458
751.233	0.0165707
751.311	0.0167243
751.389	0.0167287
751.467	0.0168154
751.545	0.0167796
751.623	0.0166659
751.701	0.0167782
751.780	0.0167574
751.858	0.0165611
751.936	0.0164666
752.014	0.0164460
752.092	0.0165199
752.170	0.0162180
752.248	0.0161979
752.326	0.0161102
752.405	0.0160426
752.483	0.0159174
752.561	0.0158334
752.639	0.0157343
752.717	0.0157467
752.795	0.0156567
752.873	0.0157199
752.951	0.0157017
753.030	0.0155918
753.108	0.0156786
753.186	0.0156916
753.264	0.0157365
753.342	0.0158882
753.420	0.0157996
753.498	0.0156956
753.576	0.0158895
753.655	0.0158916
753.733	0.0159184
753.811	0.0158438
753.889	0.0158606
753.967	0.0159119
754.045	0.0159677
754.123	0.0157840
754.201	0.0158353
754.280	0.0159155
754.358	0.0158557
754.436	0.0158031
754.514	0.0157957
754.592	0.0158323
754.670	0.0156655
754.748	0.0156379
754.826	0.0157603
754.905	0.0156728
754.983	0.0156110
755.061	0.0155400
755.139	0.0155566
755.217	0.0156189
755.295	0.0156026
755.373	0.0155692
755.451	0.0156496
755.530	0.0156860
755.608	0.0157749
755.686	0.0158867
755.764	0.0158272
755.842	0.0158829
755.920	0.0159599
755.998	0.0161706
756.076	0.0161862
756.155	0.0162184
756.233	0.0162805
756.311	0.0163342
756.389	0.0162961
756.467	0.0162077
756.545	0.0162997
756.623	0.0163202
756.701	0.0164072
756.780	0.0162799
756.858	0.0162441
756.936	0.0160698
757.014	0.0161243
757.092	0.0160274
757.170	0.0160383
757.248	0.0158469
757.326	0.0157538
757.405	0.0157294
757.483	0.0156818
757.561	0.0155820
757.639	0.0155507
757.717	0.0157681
757.795	0.0155920
757.873	0.0154196
757.951	0.0156025
758.030	0.0156609
758.108	0.0157609
758.186	0.0156596
758.264	0.0158115
758.342	0.0160285
758.420	0.0159297
758.498	0.0159446
758.576	0.0161697
758.655	0.0162875
758.733	0.0162382
758.811	0.0163960
758.889	0.0164558
758.967	0.0163660
759.045	0.0164294
759.123	0.0165443
759.201	0.0165080
759.280	0.0164916
759.358	0.0163513
759.436	0.0162634
759.514	0.0161914
759.592	0.0161309
759.670	0.0159097
759.748	0.0157633
759.826	0.0159048
759.905	0.0157951
759.983	0.0155895
760.061	0.0157703
760.139	0.0156132
760.217	0.0155459
760.295	0.0153965
760.373	0.0154631
760.451	0.0155293
760.530	0.0155443
760.608	0.0156701
760.686	0.0155187
760.764	0.0156596
760.842	0.0156110
760.920	0.0157849
760.998	0.0157883
761.076	0.0158449
761.155	0.0159527
761.233	0.0160358
761.311	0.0158785
761.389	0.0160613
761.467	0.0161736
761.545	0.0162239
761.623	0.0162022
761.701	0.0161071
761.780	0.0161583
761.858	0.0161045
761.936	0.0160035
762.014	0.0161667
762.092	0.0160516
762.170	0.0161069
762.248	0.0161832
762.326	0.0161513
762.405	0.0160911
762.483	0.0160110
762.561	0.0160043
762.639	0.0158464
762.717	0.0160403
762.795	0.0158783
762.873	0.0159225
762.951	0.0157638
763.030	0.0159715
763.108	0.0157484
763.186	0.0157146
763.264	0.0157603
763.342	0.0158547
763.420	0.0157957
763.498	0.0157399
763.576	0.0158326
763.655	0.0158047
763.733	0.0158844
763.811	0.0158247
763.889	0.0159946
763.967	0.0160431
764.045	0.0161180
764.123	0.0160624
764.201	0.0161312
764.280	0.0162083
764.358	0.0162058
764.436	0.0162006
764.514	0.0162165
764.592	0.0160954
764.670	0.0162531
764.748	0.0161253
764.826	0.0160706
764.905	0.0160606
764.983	0.0159838
765.061	0.0160005
765.139	0.0159655
765.217	0.0159686
765.295	0.0158570
765.373	0.0157769
765.451	0.0159871
765.530	0.0157593
765.608	0.0158494
765.686	0.0157736
765.764	0.0158837
765.842	0.0158689
765.920	0.0159492
765.998	0.0160262
766.076	0.0159450
766.155	0.0160921
766.233	0.0159963
766.311	0.0161308
766.389	0.0160815
766.467	0.0162318
766.545	0.0161488
766.623	0.0161342
766.701	0.0161826
766.780	0.0162394
766.858	0.0160803
766.936	0.0160239
767.014	0.0161274
767.092	0.0161800
767.170	0.0160770
767.248	0.0160310
767.326	0.0159779
767.405	0.0159997
767.483	0.0158775
767.561	0.0158160
767.639	0.0158229
767.717	0.0158360
767.795	0.0158221
767.873	0.0157146
767.951	0.0157094
768.030	0.0157985
768.108	0.0156239
768.186	0.0157136
768.264	0.0157896
768.342	0.0157478
768.420	0.0156911
768.498	0.0157887
768.576	0.0157936
768.655	0.0158107
768.733	0.0160049
768.811	0.0159280
768.889	0.0158527
768.967	0.0159193
769.045	0.0160589
769.123	0.0160335
769.201	0.0161433
769.280	0.0162595
769.358	0.0160759
769.436	0.0162665
769.514	0.0162777
769.592	0.0163503
769.670	0.0165341
769.748	0.0164339
769.826	0.0163707
769.905	0.0164137
769.983	0.0164904
770.061	0.0163934
770.139	0.0163293
770.217	0.0161652
770.295	0.0161864
770.373	0.0161489
770.451	0.0161498
770.530	0.0160388
770.608	0.0158608
770.686	0.0158764
770.764	0.0158372
770.842	0.0158059
770.920	0.0157256
770.998	0.0157255
771.076	0.0156415
771.155	0.0156445
771.233	0.0155620
771.311	0.0155833
771.389	0.0157594
771.467	0.0157956
771.545	0.0157740
771.623	0.0158936
771.701	0.0157969
771.780	0.0157458
771.858	0.0159072
771.936	0.0160273
772.014	0.0159801
772.092	0.0161147
772.170	0.0159436
772.248	0.0160464
772.326	0.0161779
772.405	0.0161002
772.483	0.0160226
772.561	0.0160484
772.639	0.0159590
772.717	0.0159857
772.795	0.0160337
772.873	0.0160583
772.951	0.0160646
773.030	0.0159106
773.108	0.0158761
773.186	0.0157304
773.264	0.0159521
773.342	0.0159027
773.420	0.0159000
773.498	0.0159231
773.576	0.0160480
773.655	0.0159428
773.733	0.0161443
773.811	0.0160773
773.889	0.0160956
773.967	0.0162360
774.045	0.0163095
774.123	0.0160558
774.201	0.0160038
774.280	0.0162416
774.358	0.0162448
774.436	0.0161443
774.514	0.0161169
774.592	0.0161703
774.670	0.0160343
774.748	0.0162895
774.826	0.0161324
774.905	0.0160909
774.983	0.0161012
775.061	0.0161469
775.139	0.0160524
775.217	0.0160357
775.295	0.0159431
775.373	0.0160038
775.451	0.0159715
775.530	0.0158485
775.608	0.0157491
775.686	0.0157714
775.764	0.0156745
775.842	0.0157006
775.920	0.0155534
775.998	0.0156827
776.076	0.0158100
776.155	0.0156789
776.233	0.0155755
776.311	0.0156316
776.389	0.0157402
776.467	0.0157619
776.545	0.0157552
776.623	0.0158307
776.701	0.0157638
776.780	0.0159528
776.858	0.0159192
776.936	0.0159961
777.014	0.0159360
777.092	0.0160121
777.170	0.0161403
777.248	0.0162730
777.326	0.0161493
777.405	0.0162280
777.483	0.0162794
777.561	0.0163081
777.639	0.0163190
777.717	0.0162934
777.795	0.0163940
777.873	0.0162845
777.951	0.0163238
778.030	0.0161712
778.108	0.0161813
778.186	0.0161217
778.264	0.0160471
778.342	0.0159754
778.420	0.0160962
778.498	0.0160780
778.576	0.0160172
778.655	0.0159721
778.733	0.0159022
778.811	0.0158665
778.889	0.0159620
778.967	0.0157806
779.045	0.0158722
779.123	0.0159797
779.201	0.0158341
779.280	0.0157224
779.358	0.0156950
779.436	0.0158521
779.514	0.0154982
779.592	0.0154585
779.670	0.0155801
779.748	0.0154699
779.826	0.0156824
779.905	0.0155759
779.983	0.0155746
780.061	0.0157893
780.139	0.0158039
780.217	0.0158379
780.295	0.0158759
780.373	0.0159093
780.451	0.0160371
780.530	0.0159811
780.608	0.0159982
780.686	0.0159228
780.764	0.0159500
780.842	0.0158918
780.920	0.0159257
780.998	0.0158131
781.076	0.0159501
781.155	0.0158794
781.233	0.0158063
781.311	0.0158185
781.389	0.0157727
781.467	0.0157304
781.545	0.0157552
781.623	0.0158218
781.701	0.0159945
781.780	0.0158467
781.858	0.0158746
781.936	0.0160581
782.014	0.0160882
782.092	0.0160461
782.170	0.0160990
782.248	0.0161500
782.326	0.0161815
782.405	0.0164325
782.483	0.0164569
782.561	0.0164157
782.639	0.0163060
782.717	0.0163693
782.795	0.0164205
782.873	0.0164515
782.951	0.0164265
783.030	0.0164636
783.108	0.0164435
783.186	0.0162567
783.264	0.0163110
783.342	0.0162907
783.420	0.0160552
783.498	0.0161884
783.576	0.0162045
783.655	0.0160701
783.733	0.0160480
783.811	0.0159557
783.889	0.0159475
783.967	0.0158710
784.045	0.0158522
784.123	0.0158990
784.201	0.0158408
784.280	0.0156998
784.358	0.0157936
784.436	0.0156401
784.514	0.0157298
784.592	0.0157243
784.670	0.0156743
784.748	0.0157082
784.826	0.0157072
784.905	0.0156080
784.983	0.0157183
785.061	0.0158163
785.139	0.0157228
785.217	0.0156875
785.295	0.0157044
785.373	0.0157372
785.451	0.0157052
785.530	0.0156828
785.608	0.0157537
785.686	0.0158546
785.764	0.0157703
785.842	0.0158327
785.920	0.0158021
785.998	0.0158504
786.076	0.0157860
786.155	0.0157546
786.233	0.0158407
786.311	0.0157475
786.389	0.0158286
786.467	0.0158804
786.545	0.0160116
786.623	0.0160876
786.701	0.0161233
786.780	0.0161012
786.858	0.0161932
786.936	0.0160857
787.014	0.0162837
787.092	0.0161326
787.170	0.0162648
787.248	0.0164072
787.326	0.0164275
787.405	0.0164333
787.483	0.0165224
787.561	0.0162827
787.639	0.0163583
787.717	0.0164342
787.795	0.0164944
787.873	0.0164068
787.951	0.0163635
788.030	0.0162984
788.108	0.0162926
788.186	0.0161852
788.264	0.0162711
788.342	0.0161749
788.420	0.0160331
788.498	0.0161434
788.576	0.0160156
788.655	0.0158668
788.733	0.0159251
788.811	0.0158750
788.889	0.0157913
788.967	0.0156451
789.045	0.0154334
789.123	0.0156593
789.201	0.0155942
789.280	0.0155390
789.358	0.0156618
789.436	0.0157130
789.514	0.0155853
789.592	0.0155704
789.670	0.0156989
789.748	0.0157130
789.826	0.0156831
789.905	0.0155783
789.983	0.0157391
790.061	0.0158969
790.139	0.0159086
790.217	0.0159032
790.295	0.0159637
790.373	0.0160146
790.451	0.0161703
790.530	0.0162615
790.608	0.0163032
790.686	0.0164076
790.764	0.0163876
790.842	0.0165707
790.920	0.0167110
790.998	0.0165205
791.076	0.0165706
791.155	0.0166331
791.233	0.0165339
791.311	0.0167915
791.389	0.0167513
791.467	0.0164822
791.545	0.0165819
791.623	0.0165237
791.701	0.0165601
791.780	0.0162577
791.858	0.0162318
791.936	0.0161014
792.014	0.0160477
792.092	0.0160258
792.170	0.0159859
792.248	0.0157874
792.326	0.0156709
792.405	0.0156446
792.483	0.0155179
792.561	0.0154929
792.639	0.0154950
792.717	0.0155602
792.795	0.0155458
792.873	0.0155462
792.951	0.0156471
793.030	0.0156183
793.108	0.0155371
793.186	0.0156089
793.264	0.0156427
793.342	0.0158437
793.420	0.0157546
793.498	0.0158144
793.576	0.0158543
793.655	0.0158392
793.733	0.0158447
793.811	0.0159318
793.889	0.0157653
793.967	0.0158430
794.045	0.0158161
794.123	0.0157336
794.201	0.0158136
794.280	0.0158062
794.358	0.0159537
794.436	0.0158311
794.514	0.0159134
794.592	0.0158519
794.670	0.0159348
794.748	0.0159661
794.826	0.0159874
794.905	0.0160141
794.983	0.0161258
795.061	0.0161987
795.139	0.0162988
795.217	0.0162380
795.295	0.0163056
795.373	0.0162379
795.451	0.0164393
795.530	0.0165704
795.608	0.0167610
795.686	0.0168092
795.764	0.0167700
795.842	0.0168222
795.920	0.0167741
795.998	0.0170631
796.076	0.0170383
796.155	0.0168666
796.233	0.0169411
796.311	0.0169177
796.389	0.0170551
796.467	0.0169788
796.545	0.0167924
796.623	0.0165486
796.701	0.0165134
796.780	0.0164999
796.858	0.0162608
796.936	0.0161451
797.014	0.0159013
797.092	0.0159442
797.170	0.0155442
797.248	0.0154753
797.326	0.0154707
797.405	0.0152577
797.483	0.0151415
797.561	0.0148154
797.639	0.0150069
797.717	0.0150252
797.795	0.0147890
797.873	0.0147472
797.951	0.0149706
798.030	0.0148233
798.108	0.0149364
798.186	0.0150841
798.264	0.0152222
798.342	0.0153265
798.420	0.0154252
798.498	0.0154967
798.576	0.0155106
798.655	0.0158908
798.733	0.0159879
798.811	0.0158894
798.889	0.0160953
798.967	0.0162414
799.045	0.0163370
799.123	0.0162903
799.201	0.0164484
799.280	0.0163149
799.358	0.0164716
799.436	0.0162970
799.514	0.0163411
799.592	0.0163113
799.670	0.0163796
799.748	0.0161806
799.826	0.0161430
799.905	0.0161842
799.983	0.0161105
800.061	0.0161653
800.139	0.0162128
800.217	0.0163712
800.295	0.0163355
800.373	0.0163956
800.451	0.0164564
800.530	0.0166516
800.608	0.0166460
800.686	0.0167310
800.764	0.0166194
800.842	0.0167863
800.920	0.0168897
800.998	0.0169095
801.076	0.0167532
801.155	0.0168800
801.233	0.0167188
801.311	0.0167895
801.389	0.0165732
801.467	0.0166096
801.545	0.0164663
801.623	0.0164333
801.701	0.0160865
801.780	0.0160573
801.858	0.0159254
801.936	0.0157220
802.014	0.0155274
802.092	0.0154419
802.170	0.0152808
802.248	0.0152270
802.326	0.0153129
802.405	0.0152862
802.483	0.0151567
802.561	0.0151244
802.639	0.0151027
802.717	0.0151868
802.795	0.0151303
802.873	0.0151962
802.951	0.0151731
803.030	0.0153123
803.108	0.0153709
803.186	0.0152660
803.264	0.0153759
803.342	0.0154415
803.420	0.0154843
803.498	0.0155662
803.576	0.0156443
803.655	0.0158298
803.733	0.0158527
803.811	0.0158065
803.889	0.0158971
803.967	0.0161042
804.045	0.0159576
804.123	0.0160371
804.201	0.0160442
804.280	0.0159805
804.358	0.0161118
804.436	0.0161492
804.514	0.0160754
804.592	0.0162253
804.670	0.0161854
804.748	0.0160332
804.826	0.0160403
804.905	0.0159752
804.983	0.0161401
805.061	0.0159870
805.139	0.0158978
805.217	0.0157935
805.295	0.0160585
805.373	0.0159906
805.451	0.0159450
805.530	0.0160446
805.608	0.0160670
805.686	0.0160790
805.764	0.0162026
805.842	0.0162445
805.920	0.0163820
805.998	0.0164120
806.076	0.0165391
806.155	0.0165062
806.233	0.0165635
806.311	0.0165213
806.389	0.0165102
806.467	0.0165076
806.545	0.0167524
806.623	0.0166601
806.701	0.0165891
806.780	0.0165164
806.858	0.0165496
806.936	0.0165002
807.014	0.0164074
807.092	0.0162514
807.170	0.0163425
807.248	0.0162270
807.326	0.0160279
807.405	0.0160480
807.483	0.0159593
807.561	0.0159032
807.639	0.0157588
807.717	0.0158202
807.795	0.0156007
807.873	0.0155986
807.951	0.0155442
808.030	0.0155598
808.108	0.0154861
808.186	0.0153777
808.264	0.0153884
808.342	0.0153352
808.420	0.0153810
808.498	0.0154034
808.576	0.0153294
808.655	0.0154366
808.733	0.0153733
808.811	0.0154010
808.889	0.0155591
808.967	0.0154806
809.045	0.0155009
809.123	0.0154966
809.201	0.0154220
809.280	0.0155009
809.358	0.0155674
809.436	0.0156224
809.514	0.0157561
809.592	0.0158415
809.670	0.0155729
809.748	0.0156794
809.826	0.0157564
809.905	0.0157793
809.983	0.0157414
810.061	0.0158120
810.139	0.0160418
810.217	0.0160727
810.295	0.0159933
810.373	0.0160476
810.451	0.0161103
810.530	0.0162078
810.608	0.0162817
810.686	0.0162196
810.764	0.0162238
810.842	0.0162856
810.920	0.0164630
810.998	0.0166394
811.076	0.0164932
811.155	0.0165461
811.233	0.0167075
811.311	0.0166575
811.389	0.0166411
811.467	0.0167219
811.545	0.0165217
811.623	0.0166982
811.701	0.0166219
811.780	0.0166908
811.858	0.0166553
811.936	0.0166213
812.014	0.0166701
812.092	0.0165913
812.170	0.0165244
812.248	0.0163956
812.326	0.0165218
812.405	0.0163560
812.483	0.0162579
812.561	0.0163342
812.639	0.0163176
812.717	0.0161590
812.795	0.0160831
812.873	0.0158988
812.951	0.0159455
813.030	0.0158022
813.108	0.0156504
813.186	0.0155974
813.264	0.0156108
813.342	0.0155370
813.420	0.0152132
813.498	0.0153571
813.576	0.0152734
813.655	0.0151414
813.733	0.0152907
813.811	0.0152036
813.889	0.0152188
813.967	0.0153342
814.045	0.0152341
814.123	0.0151576
814.201	0.0152448
814.280	0.0152899
814.358	0.0154819
814.436	0.0155101
814.514	0.0155058
814.592	0.0156157
814.670	0.0158693
814.748	0.0157173
814.826	0.0157828
814.905	0.0158952
814.983	0.0158869
815.061	0.0161050
815.139	0.0161298
815.217	0.0159220
815.295	0.0161277
815.373	0.0161903
815.451	0.0160132
815.530	0.0163321
815.608	0.0161761
815.686	0.0161082
815.764	0.0161804
815.842	0.0162180
815.920	0.0161598
815.998	0.0162181
816.076	0.0161964
816.155	0.0161842
816.233	0.0161673
816.311	0.0161754
816.389	0.0162447
816.467	0.0163430
816.545	0.0163701
816.623	0.0162297
816.701	0.0162815
816.780	0.0163872
816.858	0.0162373
816.936	0.0163982
817.014	0.0165434
817.092	0.0164517
817.170	0.0164577
817.248	0.0164788
817.326	0.0163558
817.405	0.0165054
817.483	0.0165034
817.561	0.0164888
817.639	0.0165031
817.717	0.0164754
817.795	0.0163702
817.873	0.0164050
817.951	0.0161280
818.030	0.0161596
818.108	0.0160627
818.186	0.0160427
818.264	0.0159872
818.342	0.0157317
818.420	0.0157500
818.498	0.0158252
818.576	0.0156912
818.655	0.0157519
818.733	0.0155302
818.811	0.0155281
818.889	0.0154967
818.967	0.0153823
819.045	0.0153787
819.123	0.0154818
819.201	0.0155608
819.280	0.0154535
819.358	0.0155479
819.436	0.0156691
819.514	0.0156804
819.592	0.0158942
819.670	0.0160110
819.748	0.0159958
819.826	0.0160561
819.905	0.0159869
819.983	0.0160918
820.061	0.0162252
820.139	0.0161277
820.217	0.0160980
820.295	0.0162305
820.373	0.0162945
820.451	0.0161401
820.530	0.0160469
820.608	0.0162550
820.686	0.0160997
820.764	0.0160844
820.842	0.0161507
820.920	0.0160696
820.998	0.0159324
821.076	0.0159451
821.155	0.0159800
821.233	0.0161352
821.311	0.0160787
821.389	0.0160084
821.467	0.0161079
821.545	0.0159988
821.623	0.0160844
821.701	0.0161535
821.780	0.0161931
821.858	0.0163708
821.936	0.0162360
822.014	0.0161795
822.092	0.0162663
822.170	0.0162033
822.248	0.0161931
822.326	0.0163469
822.405	0.0162202
822.483	0.0162467
822.561	0.0162768
822.639	0.0161861
822.717	0.0162569
822.795	0.0161694
822.873	0.0162335
822.951	0.0162164
823.030	0.0159541
823.108	0.0160844
823.186	0.0159689
823.264	0.0160010
823.342	0.0160342
823.420	0.0159230
823.498	0.0158765
823.576	0.0157460
823.655	0.0158102
823.733	0.0157515
823.811	0.0157085
823.889	0.0155784
823.967	0.0157578
824.045	0.0157944
824.123	0.0157636
824.201	0.0157055
824.280	0.0156331
824.358	0.0156390
824.436	0.0156641
824.514	0.0157142
824.592	0.0157391
824.670	0.0155884
824.748	0.0156825
824.826	0.0156529
824.905	0.0157582
824.983	0.0157925
825.061	0.0157328
825.139	0.0157534
825.217	0.0158947
825.295	0.0157890
825.373	0.0159154
825.451	0.0159471
825.530	0.0160381
825.608	0.0159872
825.686	0.0160900
825.764	0.0162740
825.842	0.0161918
825.920	0.0161957
825.998	0.0163509
826.076	0.0162914
826.155	0.0162720
826.233	0.0163865
826.311	0.0164651
826.389	0.0164213
826.467	0.0164259
826.545	0.0163877
826.623	0.0165104
826.701	0.0163300
826.780	0.0162690
826.858	0.0160874
826.936	0.0161102
827.014	0.0162104
827.092	0.0162878
827.170	0.0160614
827.248	0.0159924
827.326	0.0158707
827.405	0.0159882
827.483	0.0157387
827.561	0.0158118
827.639	0.0158622
827.717	0.0158083
827.795	0.0157352
827.873	0.0158396
827.951	0.0158517
828.030	0.0155965
828.108	0.0158163
828.186	0.0158277
828.264	0.0156271
828.342	0.0156502
828.420	0.0157082
828.498	0.0157190
828.576	0.0159337
828.655	0.0157832
828.733	0.0158539
828.811	0.0158653
828.889	0.0157409
828.967	0.0157155
829.045	0.0158068
829.123	0.0157898
829.201	0.0157827
829.280	0.0158392
829.358	0.0157655
829.436	0.0157236
829.514	0.0157005
829.592	0.0157766
829.670	0.0157577
829.748	0.0157993
829.826	0.0157722
829.905	0.0158158
829.983	0.0159451
830.061	0.0158981
830.139	0.0159756
830.217	0.0158772
830.295	0.0159969
830.373	0.0159920
830.451	0.0160489
830.530	0.0161195
830.608	0.0161378
830.686	0.0161225
830.764	0.0162150
830.842	0.0161285
830.920	0.0161491
830.998	0.0162290
831.076	0.0160912
831.155	0.0161594
831.233	0.0162155
831.311	0.0161868
831.389	0.0161146
831.467	0.0161755
831.545	0.0162106
831.623	0.0161064
831.701	0.0159858
831.780	0.0160513
831.858	0.0160385
831.936	0.0159196
832.014	0.0159595
832.092	0.0159044
832.170	0.0158911
832.248	0.0158904
832.326	0.0159332
832.405	0.0158119
832.483	0.0159938
832.561	0.0158045
832.639	0.0157544
832.717	0.0158384
832.795	0.0157394
832.873	0.0157421
832.951	0.0158138
833.030	0.0157516
833.108	0.0157857
833.186	0.0157700
833.264	0.0157777
833.342	0.0158292
833.420	0.0157938
833.498	0.0157458
833.576	0.0157750
833.655	0.0157032
833.733	0.0158187
833.811	0.0156005
833.889	0.0158272
833.967	0.0157280
834.045	0.0156968
834.123	0.0158861
834.201	0.0160479
834.280	0.0158366
834.358	0.0158457
834.436	0.0158638
834.514	0.0158941
834.592	0.0158311
834.670	0.0159795
834.748	0.0158032
834.826	0.0157319
834.905	0.0159092
834.983	0.0159114
835.061	0.0159321
835.139	0.0158512
835.217	0.0158199
835.295	0.0158258
835.373	0.0159286
835.451	0.0160115
835.530	0.0160709
835.608	0.0161838
835.686	0.0161520
835.764	0.0161243
835.842	0.0161201
835.920	0.0160822
835.998	0.0162648
836.076	0.0162647
836.155	0.0161980
836.233	0.0161284
836.311	0.0160812
836.389	0.0162851
836.467	0.0162417
836.545	0.0162819
836.623	0.0162815
836.701	0.0161774
836.780	0.0161219
836.858	0.0161015
836.936	0.0161144
837.014	0.0159431
837.092	0.0161250
837.170	0.0161447
837.248	0.0158973
837.326	0.0159265
837.405	0.0159731
837.483	0.0159400
837.561	0.0159583
837.639	0.0159444
837.717	0.0158064
837.795	0.0157673
837.873	0.0158110
837.951	0.0158241
838.030	0.0157397
838.108	0.0158659
838.186	0.0157816
838.264	0.0158456
838.342	0.0157705
838.420	0.0157293
838.498	0.0155934
838.576	0.0157365
838.655	0.0156983
838.733	0.0156500
838.811	0.0157560
838.889	0.0156599
838.967	0.0156768
839.045	0.0158486
839.123	0.0158677
839.201	0.0156442
839.280	0.0158694
839.358	0.0157844
839.436	0.0158504
839.514	0.0157937
839.592	0.0158778
839.670	0.0158559
839.748	0.0159028
839.826	0.0159020
839.905	0.0160424
839.983	0.0158402
840.061	0.0158942
840.139	0.0159663
840.217	0.0160349
840.295	0.0160560
840.373	0.0160902
840.451	0.0159888
840.530	0.0160616
840.608	0.0161977
840.686	0.0161008
840.764	0.0160575
840.842	0.0160879
840.920	0.0160492
840.998	0.0162138
841.076	0.0161716
841.155	0.0160400
841.233	0.0161478
841.311	0.0162837
841.389	0.0160732
841.467	0.0161366
841.545	0.0161970
841.623	0.0161787
841.701	0.0161578
841.780	0.0160738
841.858	0.0162801
841.936	0.0161581
842.014	0.0160705
842.092	0.0160753
842.170	0.0161884
842.248	0.0161611
842.326	0.0161974
842.405	0.0162602
842.483	0.0161745
842.561	0.0161913
842.639	0.0161604
842.717	0.0162217
842.795	0.0162661
842.873	0.0160313
842.951	0.0161279
843.030	0.0159377
843.108	0.0159701
843.186	0.0161861
843.264	0.0160022
843.342	0.0159175
843.420	0.0158918
843.498	0.0157984
843.576	0.0159240
843.655	0.0159840
843.733	0.0157721
843.811	0.0158421
843.889	0.0157837
843.967	0.0158501
844.045	0.0158131
844.123	0.0159744
844.201	0.0158916
844.280	0.0158345
844.358	0.0159963
844.436	0.0158252
844.514	0.0158310
844.592	0.0158823
844.670	0.0158200
844.748	0.0158485
844.826	0.0158102
844.905	0.0158373
844.983	0.0158228
845.061	0.0158576
845.139	0.0159466
845.217	0.0158126
845.295	0.0158631
845.373	0.0158842
845.451	0.0158462
845.530	0.0157827
845.608	0.0159900
845.686	0.0159606
845.764	0.0158205
845.842	0.0158935
845.920	0.0161620
845.998	0.0160721
846.076	0.0159935
846.155	0.0160570
846.233	0.0160246
846.311	0.0160538
846.389	0.0160943
846.467	0.0162241
846.545	0.0161539
846.623	0.0160963
846.701	0.0161407
846.780	0.0162170
846.858	0.0161716
846.936	0.0161269
847.014	0.0162034
847.092	0.0162316
847.170	0.0161529
847.248	0.0160859
847.326	0.0161894
847.405	0.0163831
847.483	0.0163776
847.561	0.0162549
847.639	0.0162833
847.717	0.0163705
847.795	0.0163183
847.873	0.0164271
847.951	0.0163126
848.030	0.0162965
848.108	0.0163435
848.186	0.0162172
848.264	0.0162511
848.342	0.0161508
848.420	0.0161753
848.498	0.0161145
848.576	0.0161320
848.655	0.0159478
848.733	0.0158995
848.811	0.0159340
848.889	0.0159473
848.967	0.0157915
849.045	0.0159030
849.123	0.0156862
849.201	0.0157789
849.280	0.0158667
849.358	0.0158713
849.436	0.0158141
849.514	0.0157218
849.592	0.0157489
849.670	0.0158724
849.748	0.0157462
849.826	0.0158486
849.905	0.0157310
849.983	0.0158292
850.061	0.0158598
850.139	0.0159722
850.217	0.0159454
850.295	0.0159196
850.373	0.0159532
850.451	0.0158609
850.530	0.0159576
850.608	0.0158410
850.686	0.0159088
850.764	0.0158791
850.842	0.0158490
850.920	0.0159004
850.998	0.0157969
851.076	0.0158516
851.155	0.0159105
851.233	0.0159145
851.311	0.0158535
851.389	0.0157899
851.467	0.0160229
851.545	0.0159364
851.623	0.0158559
851.701	0.0159846
851.780	0.0158334
851.858	0.0159032
851.936	0.0158754
852.014	0.0159712
852.092	0.0160728
852.170	0.0159835
852.248	0.0158308
852.326	0.0160873
852.405	0.0160508
852.483	0.0159084
852.561	0.0159806
852.639	0.0159325
852.717	0.0161197
852.795	0.0161208
852.873	0.0160992
852.951	0.0160578
853.030	0.0161887
853.108	0.0162455
853.186	0.0161986
853.264	0.0162842
853.342	0.0162542
853.420	0.0162280
853.498	0.0160667
853.576	0.0161715
853.655	0.0162526
853.733	0.0161594
853.811	0.0162484
853.889	0.0160492
853.967	0.0160954
854.045	0.0160610
854.123	0.0160358
854.201	0.0159584
854.280	0.0159892
854.358	0.0160591
854.436	0.0160320
854.514	0.0159634
854.592	0.0160446
854.670	0.0159907
854.748	0.0158493
854.826	0.0159535
854.905	0.0158366
854.983	0.0158402
855.061	0.0158773
855.139	0.0159752
855.217	0.0157832
855.295	0.0156963
855.373	0.0157446
855.451	0.0158547
855.530	0.0158129
855.608	0.0157166
855.686	0.0158670
855.764	0.0157835
855.842	0.0157900
855.920	0.0159410
855.998	0.0156973
856.076	0.0158162
856.155	0.0159058
856.233	0.0158335
856.311	0.0159511
856.389	0.0158154
856.467	0.0158641
856.545	0.0157304
856.623	0.0158640
856.701	0.0158268
856.780	0.0159032
856.858	0.0156917
856.936	0.0156693
857.014	0.0157006
857.092	0.0158330
857.170	0.0157784
857.248	0.0157557
857.326	0.0156882
857.405	0.0157196
857.483	0.0156687
857.561	0.0157736
857.639	0.0159690
857.717	0.0159095
857.795	0.0158419
857.873	0.0158992
857.951	0.0159069
858.030	0.0159780
858.108	0.0161067
858.186	0.0160651
858.264	0.0160945
858.342	0.0162008
858.420	0.0161343
858.498	0.0160707
858.576	0.0163435
858.655	0.0162379
858.733	0.0162117
858.811	0.0162087
858.889	0.0161475
858.967	0.0161738
859.045	0.0163537
859.123	0.0162887
859.201	0.0161778
859.280	0.0161228
859.358	0.0160112
859.436	0.0160769
859.514	0.0161372
859.592	0.0160416
859.670	0.0160973
859.748	0.0159554
859.826	0.0159683
859.905	0.0159968
859.983	0.0160260
860.061	0.0159225
860.139	0.0159666
860.217	0.0159669
860.295	0.0159730
860.373	0.0159305
860.451	0.0159106
860.530	0.0158678
860.608	0.0160150
860.686	0.0157940
860.764	0.0158487
860.842	0.0159370
860.920	0.0159353
860.998	0.0158938
861.076	0.0158543
861.155	0.0158274
861.233	0.0160736
861.311	0.0160230
861.389	0.0158515
861.467	0.0158985
861.545	0.0160592
861.623	0.0158525
861.701	0.0159142
861.780	0.0158768
861.858	0.0160110
861.936	0.0158734
862.014	0.0158694
862.092	0.0158925
862.170	0.0158857
862.248	0.0159469
862.326	0.0159963
862.405	0.0160241
862.483	0.0159119
862.561	0.0159575
862.639	0.0160762
862.717	0.0161684
862.795	0.0161176
862.873	0.0161003
862.951	0.0160832
863.030	0.0160329
863.108	0.0161462
863.186	0.0161281
863.264	0.0161317
863.342	0.0160770
863.420	0.0159527
863.498	0.0162311
863.576	0.0160175
863.655	0.0160300
863.733	0.0159592
863.811	0.0160020
863.889	0.0159236
863.967	0.0160676
864.045	0.0159260
864.123	0.0158389
864.201	0.0160649
864.280	0.0159548
864.358	0.0159357
864.436	0.0160368
864.514	0.0159438
864.592	0.0159264
864.670	0.0159331
864.748	0.0160508
864.826	0.0159105
864.905	0.0159241
864.983	0.0159504
865.061	0.0160582
865.139	0.0158902
865.217	0.0159231
865.295	0.0160361
865.373	0.0161285
865.451	0.0159740
865.530	0.0159781
865.608	0.0160297
865.686	0.0159235
865.764	0.0160546
865.842	0.0158644
865.920	0.0159471
865.998	0.0161322
866.076	0.0160365
866.155	0.0160388
866.233	0.0161301
866.311	0.0161068
866.389	0.0160069
866.467	0.0161394
866.545	0.0160179
866.623	0.0161265
866.701	0.0160613
866.780	0.0161938
866.858	0.0160873
866.936	0.0160803
867.014	0.0161459
867.092	0.0160768
867.170	0.0160780
867.248	0.0161507
867.326	0.0161003
867.405	0.0159717
867.483	0.0159070
867.561	0.0159565
867.639	0.0158846
867.717	0.0159061
867.795	0.0160067
867.873	0.0160911
867.951	0.0157770
868.030	0.0158408
868.108	0.0159310
868.186	0.0158716
868.264	0.0158723
868.342	0.0158113
868.420	0.0158322
868.498	0.0156978
868.576	0.0158761
868.655	0.0157570
868.733	0.0159309
868.811	0.0159292
868.889	0.0158777
868.967	0.0158950
869.045	0.0158891
869.123	0.0160978
869.201	0.0160800
869.280	0.0161374
869.358	0.0160329
869.436	0.0161037
869.514	0.0162749
869.592	0.0160522
869.670	0.0161495
869.748	0.0161916
869.826	0.0160463
869.905	0.0160916
869.983	0.0161987
870.061	0.0162075
870.139	0.0161482
870.217	0.0161789
870.295	0.0161971
870.373	0.0162094
870.451	0.0161591
870.530	0.0161430
870.608	0.0160724
870.686	0.0161405
870.764	0.0162983
870.842	0.0160915
870.920	0.0161292
870.998	0.0162283
871.076	0.0162989
871.155	0.0162845
871.233	0.0163200
871.311	0.0161695
871.389	0.0161938
871.467	0.0161591
871.545	0.0161460
871.623	0.0161910
871.701	0.0160610
871.780	0.0161974
871.858	0.0161006
871.936	0.0160517
872.014	0.0160377
872.092	0.0159388
872.170	0.0160390
872.248	0.0158858
872.326	0.0158760
872.405	0.0157394
872.483	0.0157797
872.561	0.0158495
872.639	0.0158864
872.717	0.0157357
872.795	0.0157782
872.873	0.0158364
872.951	0.0158935
873.030	0.0158108
873.108	0.0159448
873.186	0.0158278
873.264	0.0159120
873.342	0.0158302
873.420	0.0160623
873.498	0.0159597
873.576	0.0160595
873.655	0.0161887
873.733	0.0161203
873.811	0.0161866
873.889	0.0160983
873.967	0.0160313
874.045	0.0160156
874.123	0.0161564
874.201	0.0161004
874.280	0.0161384
874.358	0.0160705
874.436	0.0160982
874.514	0.0161543
874.592	0.0160059
874.670	0.0162154
874.748	0.0160801
874.826	0.0159429
874.905	0.0160093
874.983	0.0161571
875.061	0.0160413
875.139	0.0161043
875.217	0.0161320
875.295	0.0161098
875.373	0.0161594
875.451	0.0162476
875.530	0.0159486
875.608	0.0162005
875.686	0.0162766
875.764	0.0160253
875.842	0.0161548
875.920	0.0160387
875.998	0.0160752
876.076	0.0159974
876.155	0.0158620
876.233	0.0160068
876.311	0.0160825
876.389	0.0159767
876.467	0.0158719
876.545	0.0158554
876.623	0.0156764
876.701	0.0160325
876.780	0.0158669
876.858	0.0158372
876.936	0.0158607
877.014	0.0157848
877.092	0.0159750
877.170	0.0159069
877.248	0.0158422
877.326	0.0159896
877.405	0.0159878
877.483	0.0160395
877.561	0.0161543
877.639	0.0159244
877.717	0.0160209
877.795	0.0161723
877.873	0.0162195
877.951	0.0160163
878.030	0.0162515
878.108	0.0161958
878.186	0.0160323
878.264	0.0161150
878.342	0.0163533
878.420	0.0162505
878.498	0.0162500
878.576	0.0162575
878.655	0.0162316
878.733	0.0161904
878.811	0.0162115
878.889	0.0161472
878.967	0.0162790
879.045	0.0161818
879.123	0.0160869
879.201	0.0160931
879.280	0.0159768
879.358	0.0159413
879.436	0.0159637
879.514	0.0159271
879.592	0.0158981
879.670	0.0158752
879.748	0.0158609
879.826	0.0158515
879.905	0.0156522
879.983	0.0157760
880.061	0.0157724
880.139	0.0157384
880.217	0.0157970
880.295	0.0157707
880.373	0.0157526
880.451	0.0157943
880.530	0.0156670
880.608	0.0157864
880.686	0.0158630
880.764	0.0158795
880.842	0.0159100
880.920	0.0158546
880.998	0.0160159
881.076	0.0161051
881.155	0.0161478
881.233	0.0161254
881.311	0.0161292
881.389	0.0162340
881.467	0.0162556
881.545	0.0163398
881.623	0.0163113
881.701	0.0163143
881.780	0.0162801
881.858	0.0161937
881.936	0.0162495
882.014	0.0160693
882.092	0.0161674
882.170	0.0161769
882.248	0.0160254
882.326	0.0161819
882.405	0.0161176
882.483	0.0159837
882.561	0.0160011
882.639	0.0159664
882.717	0.0159631
882.795	0.0159449
882.873	0.0159245
882.951	0.0160290
883.030	0.0159890
883.108	0.0158035
883.186	0.0158019
883.264	0.0160688
883.342	0.0159868
883.420	0.0158893
883.498	0.0159338
883.576	0.0160315
883.655	0.0159238
883.733	0.0159105
883.811	0.0159545
883.889	0.0159630
883.967	0.0158524
884.045	0.0157965
884.123	0.0159524
884.201	0.0158644
884.280	0.0160224
884.358	0.0158108
884.436	0.0160494
884.514	0.0158819
884.592	0.0158625
884.670	0.0159344
884.748	0.0158623
884.826	0.0158836
884.905	0.0159593
884.983	0.0158905
885.061	0.0160649
885.139	0.0159418
885.217	0.0161413
885.295	0.0160762
885.373	0.0160436
885.451	0.0161939
885.530	0.0161157
885.608	0.0160940
885.686	0.0161805
885.764	0.0162827
885.842	0.0162230
885.920	0.0163361
885.998	0.0165324
886.076	0.0165066
886.155	0.0164696
886.233	0.0165115
886.311	0.0164538
886.389	0.0163908
886.467	0.0163747
886.545	0.0164530
886.623	0.0163406
886.701	0.0162199
886.780	0.0160152
886.858	0.0158869
886.936	0.0159551
887.014	0.0156999
887.092	0.0157041
887.170	0.0156081
887.248	0.0156101
887.326	0.0155476
887.405	0.0154594
887.483	0.0155146
887.561	0.0153817
887.639	0.0154896
887.717	0.0155424
887.795	0.0154753
887.873	0.0156786
887.951	0.0157520
888.030	0.0157794
888.108	0.0159042
888.186	0.0158908
888.264	0.0159457
888.342	0.0159995
888.420	0.0161126
888.498	0.0162438
888.576	0.0160963
888.655	0.0162219
888.733	0.0163650
888.811	0.0164389
888.889	0.0163130
888.967	0.0162579
889.045	0.0161533
889.123	0.0161507
889.201	0.0161280
889.280	0.0161465
889.358	0.0161734
889.436	0.0159496
889.514	0.0159002
889.592	0.0159488
889.670	0.0159530
889.748	0.0159146
889.826	0.0159574
889.905	0.0158933
889.983	0.0160152
890.061	0.0159977
890.139	0.0159974
890.217	0.0161600
890.295	0.0160148
890.373	0.0163068
890.451	0.0163055
890.530	0.0163071
890.608	0.0163942
890.686	0.0165017
890.764	0.0163436
890.842	0.0164607
890.920	0.0165152
890.998	0.0165553
891.076	0.0164332
891.155	0.0164567
891.233	0.0163527
891.311	0.0162444
891.389	0.0162099
891.467	0.0161962
891.545	0.0160083
891.623	0.0159753
891.701	0.0158021
891.780	0.0158343
891.858	0.0155694
891.936	0.0156275
892.014	0.0157314
892.092	0.0156220
892.170	0.0154523
892.248	0.0154684
892.326	0.0155943
892.405	0.0155238
892.483	0.0156449
892.561	0.0156926
892.639	0.0157183
892.717	0.0159176
892.795	0.0158923
892.873	0.0159064
892.951	0.0160139
893.030	0.0161865
893.108	0.0161871
893.186	0.0163339
893.264	0.0162544
893.342	0.0162185
893.420	0.0163694
893.498	0.0164434
893.576	0.0162627
893.655	0.0162616
893.733	0.0161087
893.811	0.0161388
893.889	0.0162408
893.967	0.0161964
894.045	0.0161334
894.123	0.0159944
894.201	0.0161234
894.280	0.0160873
894.358	0.0159172
894.436	0.0158740
894.514	0.0159616
894.592	0.0157802
894.670	0.0158936
894.748	0.0157269
894.826	0.0160267
894.905	0.0158018
894.983	0.0158636
895.061	0.0160067
895.139	0.0159854
895.217	0.0159036
895.295	0.0161243
895.373	0.0160854
895.451	0.0160938
895.530	0.0161062
895.608	0.0161142
895.686	0.0161523
895.764	0.0161864
895.842	0.0162434
895.920	0.0161744
895.998	0.0159785
896.076	0.0162486
896.155	0.0161053
896.233	0.0160229
896.311	0.0160516
896.389	0.0160065
896.467	0.0160846
896.545	0.0157900
896.623	0.0158698
896.701	0.0156998
896.780	0.0156330
896.858	0.0156837
896.936	0.0156158
897.014	0.0157227
897.092	0.0157501
897.170	0.0157433
897.248	0.0157381
897.326	0.0156747
897.405	0.0158557
897.483	0.0159805
897.561	0.0161584
897.639	0.0161617
897.717	0.0163113
897.795	0.0164983
897.873	0.0164319
897.951	0.0164691
898.030	0.0166186
898.108	0.0164097
898.186	0.0165701
898.264	0.0166666
898.342	0.0163413
898.420	0.0164513
898.498	0.0162936
898.576	0.0162350
898.655	0.0161700
898.733	0.0160273
898.811	0.0159934
898.889	0.0160226
898.967	0.0158252
899.045	0.0157372
899.123	0.0157375
899.201	0.0156846
899.280	0.0157824
899.358	0.0155134
899.436	0.0155854
899.514	0.0155499
899.592	0.0155992
899.670	0.0155769
899.748	0.0156714
899.826	0.0157412
899.905	0.0157197
899.983	0.0157767
900.061	0.0157720
900.139	0.0157835
900.217	0.0158706
900.295	0.0159509
900.373	0.0160857
900.451	0.0158871
900.530	0.0159553
900.608	0.0159990
900.686	0.0162569
900.764	0.0162048
900.842	0.0161088
900.920	0.0161713
900.998	0.0162032
901.076	0.0162927
901.155	0.0162499
901.233	0.0163998
901.311	0.0164630
901.389	0.0163468
901.467	0.0163202
901.545	0.0162486
901.623	0.0162650
901.701	0.0163743
901.780	0.0163913
901.858	0.0163229
901.936	0.0162222
902.014	0.0161818
902.092	0.0161221
902.170	0.0159893
902.248	0.0160164
902.326	0.0160778
902.405	0.0160204
902.483	0.0160008
902.561	0.0160298
902.639	0.0159807
902.717	0.0161282
902.795	0.0160005
902.873	0.0160242
902.951	0.0159472
903.030	0.0160623
903.108	0.0158725
903.186	0.0160095
903.264	0.0159923
903.342	0.0158874
903.420	0.0158170
903.498	0.0157364
903.576	0.0156097
903.655	0.0154980
903.733	0.0156975
903.811	0.0155830
903.889	0.0156871
903.967	0.0155402
904.045	0.0156306
904.123	0.0156705
904.201	0.0157548
904.280	0.0157851
904.358	0.0157224
904.436	0.0158778
904.514	0.0158588
904.592	0.0160997
904.670	0.0160952
904.748	0.0161851
904.826	0.0161330
904.905	0.0163187
904.983	0.0161044
905.061	0.0162804
905.139	0.0161797
905.217	0.0161998
905.295	0.0161623
905.373	0.0160867
905.451	0.0162547
905.530	0.0162579
905.608	0.0162742
905.686	0.0161967
905.764	0.0160259
905.842	0.0160762
905.920	0.0161958
905.998	0.0161008
906.076	0.0161889
906.155	0.0160585
906.233	0.0159905
906.311	0.0160632
906.389	0.0161650
906.467	0.0161207
906.545	0.0160482
906.623	0.0159657
906.701	0.0159202
906.780	0.0160368
906.858	0.0158781
906.936	0.0158945
907.014	0.0161002
907.092	0.0159075
907.170	0.0157545
907.248	0.0158638
907.326	0.0158057
907.405	0.0156793
907.483	0.0158235
907.561	0.0157183
907.639	0.0157347
907.717	0.0157726
907.795	0.0157395
907.873	0.0158569
907.951	0.0158619
908.030	0.0158180
908.108	0.0157681
908.186	0.0158990
908.264	0.0159252
908.342	0.0158076
908.420	0.0159956
908.498	0.0160865
908.576	0.0159362
908.655	0.0159315
908.733	0.0160441
908.811	0.0160265
908.889	0.0160757
908.967	0.0160201
909.045	0.0160639
909.123	0.0161328
909.201	0.0163062
909.280	0.0162722
909.358	0.0160754
909.436	0.0161823
909.514	0.0161135
909.592	0.0162541
909.670	0.0162320
909.748	0.0161576
909.826	0.0161575
909.905	0.0161945
909.983	0.0161337
910.061	0.0161986
910.139	0.0162453
910.217	0.0161786
910.295	0.0162329
910.373	0.0162489
910.451	0.0162222
910.530	0.0161198
910.608	0.0161366
910.686	0.0161279
910.764	0.0160027
910.842	0.0158745
910.920	0.0160365
910.998	0.0160863
911.076	0.0159734
911.155	0.0159953
911.233	0.0158983
911.311	0.0158566
911.389	0.0161318
911.467	0.0158655
911.545	0.0158213
911.623	0.0159814
911.701	0.0159947
911.780	0.0159839
911.858	0.0160078
911.936	0.0159521
912.014	0.0159933
912.092	0.0159599
912.170	0.0158456
912.248	0.0157819
912.326	0.0157986
912.405	0.0158024
912.483	0.0157313
912.561	0.0156886
912.639	0.0157578
912.717	0.0157470
912.795	0.0157832
912.873	0.0157011
912.951	0.0157345
913.030	0.0157571
913.108	0.0157106
913.186	0.0158006
913.264	0.0157645
913.342	0.0157676
913.420	0.0157648
913.498	0.0159790
913.576	0.0158353
913.655	0.0160166
913.733	0.0160146
913.811	0.0160277
913.889	0.0162064
913.967	0.0161893
914.045	0.0162751
914.123	0.0160973
914.201	0.0162521
914.280	0.0163205
914.358	0.0163192
914.436	0.0163160
914.514	0.0162132
914.592	0.0163908
914.670	0.0162552
914.748	0.0162685
914.826	0.0163194
914.905	0.0161764
914.983	0.0163323
915.061	0.0162389
915.139	0.0162699
915.217	0.0163190
915.295	0.0160892
915.373	0.0159661
915.451	0.0159853
915.530	0.0159642
915.608	0.0159915
915.686	0.0159868
915.764	0.0159335
915.842	0.0158835
915.920	0.0157472
915.998	0.0158001
916.076	0.0159125
916.155	0.0157822
916.233	0.0156911
916.311	0.0156790
916.389	0.0157100
916.467	0.0159365
916.545	0.0157644
916.623	0.0158859
916.701	0.0159528
916.780	0.0159105
916.858	0.0160982
916.936	0.0160433
917.014	0.0159654
917.092	0.0161038
917.170	0.0160242
917.248	0.0161282
917.326	0.0159921
917.405	0.0159319
917.483	0.0159800
917.561	0.0158127
917.639	0.0159365
917.717	0.0159081
917.795	0.0157702
917.873	0.0157719
917.951	0.0158300
918.030	0.0158382
918.108	0.0157185
918.186	0.0159709
918.264	0.0158562
918.342	0.0157418
918.420	0.0158282
918.498	0.0159096
918.576	0.0158573
918.655	0.0159114
918.733	0.0159960
918.811	0.0159463
918.889	0.0160858
918.967	0.0159261
919.045	0.0161169
919.123	0.0161877
919.201	0.0161274
919.280	0.0161459
919.358	0.0161016
919.436	0.0162325
919.514	0.0161903
919.592	0.0161787
919.670	0.0161276
919.748	0.0161478
919.826	0.0160905
919.905	0.0160940
919.983	0.0160265
920.061	0.0161112
920.139	0.0160920
920.217	0.0159417
920.295	0.0159710
920.373	0.0160974
920.451	0.0161139
920.530	0.0157682
920.608	0.0158188
920.686	0.0159898
920.764	0.0159338
920.842	0.0158299
920.920	0.0158117
920.998	0.0158321
921.076	0.0159027
921.155	0.0158621
921.233	0.0159459
921.311	0.0161211
921.389	0.0162964
921.467	0.0160513
921.545	0.0160162
921.623	0.0161386
921.701	0.0161086
921.780	0.0159624
921.858	0.0160447
921.936	0.0160676
922.014	0.0158943
922.092	0.0159834
922.170	0.0161021
922.248	0.0158522
922.326	0.0157556
922.405	0.0157270
922.483	0.0158412
922.561	0.0158424
922.639	0.0157684
922.717	0.0158185
922.795	0.0160036
922.873	0.0158253
922.951	0.0158248
923.030	0.0157826
923.108	0.0159004
923.186	0.0158905
923.264	0.0158841
923.342	0.0158244
923.420	0.0158923
923.498	0.0159049
923.576	0.0159492
923.655	0.0158661
923.733	0.0159953
923.811	0.0160519
923.889	0.0159850
923.967	0.0160550
924.045	0.0160509
924.123	0.0160809
924.201	0.0160983
924.280	0.0160066
924.358	0.0159899
924.436	0.0159756
924.514	0.0159396
924.592	0.0160040
924.670	0.0161320
924.748	0.0160062
924.826	0.0160010
924.905	0.0160503
924.983	0.0160005
925.061	0.0159735
925.139	0.0160616
925.217	0.0161160
925.295	0.0160788
925.373	0.0159029
925.451	0.0158469
925.530	0.0160208
925.608	0.0160396
925.686	0.0158755
925.764	0.0157935
925.842	0.0159342
925.920	0.0157809
925.998	0.0159061
926.076	0.0159013
926.155	0.0158776
926.233	0.0160445
926.311	0.0157746
926.389	0.0158313
926.467	0.0159837
926.545	0.0159917
926.623	0.0160267
926.701	0.0160153
926.780	0.0160017
926.858	0.0160157
926.936	0.0160616
927.014	0.0160017
927.092	0.0159242
927.170	0.0161659
927.248	0.0158592
927.326	0.0158577
927.405	0.0160168
927.483	0.0161356
927.561	0.0159820
927.639	0.0159821
927.717	0.0160233
927.795	0.0159708
927.873	0.0159141
927.951	0.0159738
928.030	0.0158887
928.108	0.0159788
928.186	0.0158845
928.264	0.0160532
928.342	0.0161318
928.420	0.0161594
928.498	0.0160350
928.576	0.0161642
928.655	0.0161806
928.733	0.0159657
928.811	0.0159914
928.889	0.0160415
928.967	0.0161819
929.045	0.0160680
929.123	0.0159901
929.201	0.0158637
929.280	0.0161124
929.358	0.0159365
929.436	0.0158773
929.514	0.0159017
929.592	0.0159302
929.670	0.0158349
929.748	0.0159012
929.826	0.0159747
929.905	0.0158377
929.983	0.0157809
930.061	0.0159067
930.139	0.0160452
930.217	0.0158925
930.295	0.0159126
930.373	0.0158398
930.451	0.0157667
930.530	0.0156914
930.608	0.0158616
930.686	0.0158088
930.764	0.0159315
930.842	0.0158751
930.920	0.0159750
930.998	0.0158190
931.076	0.0157819
931.155	0.0159413
931.233	0.0158761
931.311	0.0159219
931.389	0.0159306
931.467	0.0159860
931.545	0.0159190
931.623	0.0159523
931.701	0.0159168
931.780	0.0160229
931.858	0.0159373
931.936	0.0157828
932.014	0.0159882
932.092	0.0159840
932.170	0.0159720
932.248	0.0161360
932.326	0.0160440
932.405	0.0159991
932.483	0.0159105
932.561	0.0161217
932.639	0.0160094
932.717	0.0159805
932.795	0.0160919
932.873	0.0160504
932.951	0.0161520
933.030	0.0161220
933.108	0.0161050
933.186	0.0161045
933.264	0.0161124
933.342	0.0162031
933.420	0.0162138
933.498	0.0161340
933.576	0.0161195
933.655	0.0159904
933.733	0.0160478
933.811	0.0159998
933.889	0.0159260
933.967	0.0159933
934.045	0.0159852
934.123	0.0159290
934.201	0.0158823
934.280	0.0160696
934.358	0.0158723
934.436	0.0159371
934.514	0.0158728
934.592	0.0159537
934.670	0.0159618
934.748	0.0159135
934.826	0.0158779
934.905	0.0160122
934.983	0.0158503
935.061	0.0159550
935.139	0.0158659
935.217	0.0159756
935.295	0.0160587
935.373	0.0160150
935.451	0.0159406
935.530	0.0158551
935.608	0.0159785
935.686	0.0159666
935.764	0.0159117
935.842	0.0157929
935.920	0.0159346
935.998	0.0158138
936.076	0.0158437
936.155	0.0157140
936.233	0.0157471
936.311	0.0157852
936.389	0.0157787
936.467	0.0157260
936.545	0.0155534
936.623	0.0156592
936.701	0.0156297
936.780	0.0156575
936.858	0.0157644
936.936	0.0157454
937.014	0.0157595
937.092	0.0158037
937.170	0.0158569
937.248	0.0159241
937.326	0.0158733
937.405	0.0160769
937.483	0.0161201
937.561	0.0161128
937.639	0.0161212
937.717	0.0162057
937.795	0.0162167
937.873	0.0161684
937.951	0.0163842
938.030	0.0163213
938.108	0.0162889
938.186	0.0163792
938.264	0.0163126
938.342	0.0163070
938.420	0.0161651
938.498	0.0163072
938.576	0.0161505
938.655	0.0161108
938.733	0.0162424
938.811	0.0160857
938.889	0.0161345
938.967	0.0160130
939.045	0.0161036
939.123	0.0161507
939.201	0.0159470
939.280	0.0159684
939.358	0.0158154
939.436	0.0158791
939.514	0.0159117
939.592	0.0158704
939.670	0.0159274
939.748	0.0159811
939.826	0.0158245
939.905	0.0157974
939.983	0.0158224
940.061	0.0159074
940.139	0.0159871
940.217	0.0157513
940.295	0.0159034
940.373	0.0158369
940.451	0.0157117
940.530	0.0158413
940.608	0.0158155
940.686	0.0157310
940.764	0.0158363
940.842	0.0158098
940.920	0.0158620
940.998	0.0157928
941.076	0.0157429
941.155	0.0157457
941.233	0.0159035
941.311	0.0158055
941.389	0.0158807
941.467	0.0158023
941.545	0.0159564
941.623	0.0160474
941.701	0.0159364
941.780	0.0158658
941.858	0.0159692
941.936	0.0161401
942.014	0.0160395
942.092	0.0160217
942.170	0.0161887
942.248	0.0161129
942.326	0.0162467
942.405	0.0162640
942.483	0.0161334
942.561	0.0162511
942.639	0.0159952
942.717	0.0161332
942.795	0.0161765
942.873	0.0161171
942.951	0.0160853
943.030	0.0160976
943.108	0.0159945
943.186	0.0161644
943.264	0.0160749
943.342	0.0159726
943.420	0.0160685
943.498	0.0160344
943.576	0.0160740
943.655	0.0160938
943.733	0.0158867
943.811	0.0160349
943.889	0.0159962
943.967	0.0158874
944.045	0.0160644
944.123	0.0159998
944.201	0.0160218
944.280	0.0160516
944.358	0.0160368
944.436	0.0161374
944.514	0.0160571
944.592	0.0159866
944.670	0.0160401
944.748	0.0161116
944.826	0.0161205
944.905	0.0163547
944.983	0.0162259
945.061	0.0162324
945.139	0.0161890
945.217	0.0162128
945.295	0.0162247
945.373	0.0163612
945.451	0.0161888
945.530	0.0161742
945.608	0.0161710
945.686	0.0160886
945.764	0.0160689
945.842	0.0159538
945.920	0.0160324
945.998	0.0159164
946.076	0.0160606
946.155	0.0159053
946.233	0.0158739
946.311	0.0158241
946.389	0.0157500
946.467	0.0158572
946.545	0.0158552
946.623	0.0157268
946.701	0.0158624
946.780	0.0160239
946.858	0.0159017
946.936	0.0158586
947.014	0.0158862
947.092	0.0159069
947.170	0.0158341
947.248	0.0159618
947.326	0.0159328
947.405	0.0158649
947.483	0.0159303
947.561	0.0159161
947.639	0.0158891
947.717	0.0156860
947.795	0.0157602
947.873	0.0157684
947.951	0.0157201
948.030	0.0159067
948.108	0.0156992
948.186	0.0158180
948.264	0.0158681
948.342	0.0158489
948.420	0.0159831
948.498	0.0160221
948.576	0.0159749
948.655	0.0160143
948.733	0.0161122
948.811	0.0161443
948.889	0.0162793
948.967	0.0162431
949.045	0.0163091
949.123	0.0164104
949.201	0.0163026
949.280	0.0163274
949.358	0.0162374
949.436	0.0164286
949.514	0.0163861
949.592	0.0162215
949.670	0.0162769
949.748	0.0163792
949.826	0.0163428
949.905	0.0162749
949.983	0.0161350
950.061	0.0160983
950.139	0.0161310
950.217	0.0158934
950.295	0.0159736
950.373	0.0160892
950.451	0.0160467
950.530	0.0159840
950.608	0.0159213
950.686	0.0159122
950.764	0.0159638
950.842	0.0159110
950.920	0.0159053
950.998	0.0159315
951.076	0.0158200
951.155	0.0158566
951.233	0.0158427
951.311	0.0159324
951.389	0.0160959
951.467	0.0159203
951.545	0.0158443
951.623	0.0159376
951.701	0.0159779
951.780	0.0160670
951.858	0.0159984
951.936	0.0158268
952.014	0.0158766
952.092	0.0159470
952.170	0.0158123
952.248	0.0157447
952.326	0.0157173
952.405	0.0158106
952.483	0.0157107
952.561	0.0158096
952.639	0.0157915
952.717	0.0157751
952.795	0.0158104
952.873	0.0158852
952.951	0.0158058
953.030	0.0158219
953.108	0.0158089
953.186	0.0158504
953.264	0.0159718
953.342	0.0159105
953.420	0.0160931
953.498	0.0160128
953.576	0.0159245
953.655	0.0161580
953.733	0.0161818
953.811	0.0161905
953.889	0.0161173
953.967	0.0162894
954.045	0.0162118
954.123	0.0162841
954.201	0.0163552
954.280	0.0162231
954.358	0.0162164
954.436	0.0162729
954.514	0.0163300
954.592	0.0162805
954.670	0.0161671
954.748	0.0162094
954.826	0.0162334
954.905	0.0160609
954.983	0.0161395
955.061	0.0161275
955.139	0.0161367
955.217	0.0160995
955.295	0.0159783
955.373	0.0160062
955.451	0.0160344
955.530	0.0158667
955.608	0.0159469
955.686	0.0159367
955.764	0.0160098
955.842	0.0160300
955.920	0.0158566
955.998	0.0158150
956.076	0.0156806
956.155	0.0158598
956.233	0.0160092
956.311	0.0158847
956.389	0.0158839
956.467	0.0160341
956.545	0.0159267
956.623	0.0160341
956.701	0.0158852
956.780	0.0159702
956.858	0.0160217
956.936	0.0160702
957.014	0.0159806
957.092	0.0160078
957.170	0.0160246
957.248	0.0160335
957.326	0.0158730
957.405	0.0160182
957.483	0.0159018
957.561	0.0160028
957.639	0.0158464
957.717	0.0160628
957.795	0.0158260
957.873	0.0159438
957.951	0.0159048
958.030	0.0159102
958.108	0.0159691
958.186	0.0158276
958.264	0.0159579
958.342	0.0159560
958.420	0.0159429
958.498	0.0158741
958.576	0.0159272
958.655	0.0159482
958.733	0.0161002
958.811	0.0161488
958.889	0.0161160
958.967	0.0161880
959.045	0.0160387
959.123	0.0159177
959.201	0.0161016
959.280	0.0161730
959.358	0.0162109
959.436	0.0160909
959.514	0.0162136
959.592	0.0163110
959.670	0.0162256
959.748	0.0163322
959.826	0.0162128
959.905	0.0161962
