05/17/2022	16:46:13	Ver.	4.1	UNKNOWN
Optical Delay	639.982744	Delta X		0.078125	Sweeps	1	Scan Rate	0/0
Coordinates	Axis 1	NaN	Axis 2	NaN	Axis 3	NaN	Axis 4	NaN	Axis 5	NaN	Axis 6	0.000000
TX Power	0.000000	RX Power	0.000000

639.983	0.0158986
640.061	0.0158858
640.139	0.0158898
640.217	0.0159176
640.295	0.0159375
640.373	0.0160728
640.451	0.0159325
640.530	0.0158035
640.608	0.0159102
640.686	0.0159635
640.764	0.0159801
640.842	0.0158872
640.920	0.0158949
640.998	0.0159611
641.076	0.0159917
641.155	0.0159383
641.233	0.0158677
641.311	0.0158208
641.389	0.0157870
641.467	0.0158508
641.545	0.0159119
641.623	0.0159116
641.701	0.0158112
641.780	0.0159491
641.858	0.0159749
641.936	0.0159018
642.014	0.0159288
642.092	0.0157880
642.170	0.0159294
642.248	0.0158885
642.326	0.0158855
642.405	0.0158811
642.483	0.0159595
642.561	0.0160293
642.639	0.0159381
642.717	0.0159261
642.795	0.0159518
642.873	0.0159316
642.951	0.0160100
643.030	0.0159697
643.108	0.0160403
643.186	0.0159912
643.264	0.0158207
643.342	0.0159357
643.420	0.0160389
643.498	0.0158762
643.576	0.0159338
643.655	0.0160143
643.733	0.0160229
643.811	0.0159623
643.889	0.0158959
643.967	0.0160429
644.045	0.0159947
644.123	0.0159716
644.201	0.0159052
644.280	0.0159478
644.358	0.0159280
644.436	0.0160090
644.514	0.0159208
644.592	0.0158461
644.670	0.0159789
644.748	0.0160127
644.826	0.0158372
644.905	0.0159195
644.983	0.0159163
645.061	0.0159869
645.139	0.0159724
645.217	0.0159454
645.295	0.0159344
645.373	0.0158117
645.451	0.0160576
645.530	0.0159468
645.608	0.0159169
645.686	0.0158385
645.764	0.0159913
645.842	0.0158624
645.920	0.0158916
645.998	0.0159705
646.076	0.0159167
646.155	0.0159148
646.233	0.0158870
646.311	0.0159626
646.389	0.0158476
646.467	0.0159116
646.545	0.0160290
646.623	0.0160242
646.701	0.0159043
646.780	0.0158341
646.858	0.0159668
646.936	0.0160235
647.014	0.0158350
647.092	0.0158447
647.170	0.0159866
647.248	0.0159813
647.326	0.0159727
647.405	0.0159514
647.483	0.0159032
647.561	0.0159357
647.639	0.0157715
647.717	0.0158359
647.795	0.0161321
647.873	0.0159547
647.951	0.0158718
648.030	0.0159139
648.108	0.0159709
648.186	0.0159039
648.264	0.0159035
648.342	0.0159689
648.420	0.0159972
648.498	0.0158494
648.576	0.0159358
648.655	0.0160166
648.733	0.0159628
648.811	0.0159344
648.889	0.0159306
648.967	0.0157490
649.045	0.0160472
649.123	0.0158543
649.201	0.0159092
649.280	0.0158778
649.358	0.0157932
649.436	0.0158160
649.514	0.0160075
649.592	0.0158689
649.670	0.0158917
649.748	0.0157789
649.826	0.0159995
649.905	0.0157993
649.983	0.0158405
650.061	0.0160203
650.139	0.0159608
650.217	0.0158710
650.295	0.0159126
650.373	0.0158299
650.451	0.0159968
650.530	0.0158329
650.608	0.0160112
650.686	0.0159110
650.764	0.0158163
650.842	0.0157941
650.920	0.0158987
650.998	0.0158858
651.076	0.0159382
651.155	0.0160109
651.233	0.0159164
651.311	0.0158479
651.389	0.0159448
651.467	0.0159607
651.545	0.0157876
651.623	0.0158591
651.701	0.0159026
651.780	0.0159072
651.858	0.0158649
651.936	0.0158614
652.014	0.0159734
652.092	0.0158443
652.170	0.0159223
652.248	0.0158952
652.326	0.0160099
652.405	0.0159962
652.483	0.0159398
652.561	0.0158358
652.639	0.0158781
652.717	0.0159418
652.795	0.0158873
652.873	0.0159174
652.951	0.0158696
653.030	0.0159993
653.108	0.0159764
653.186	0.0158976
653.264	0.0159785
653.342	0.0159809
653.420	0.0159170
653.498	0.0159036
653.576	0.0158786
653.655	0.0159175
653.733	0.0157298
653.811	0.0158331
653.889	0.0159859
653.967	0.0159057
654.045	0.0159168
654.123	0.0159212
654.201	0.0158598
654.280	0.0158898
654.358	0.0159118
654.436	0.0159618
654.514	0.0158072
654.592	0.0158466
654.670	0.0159467
654.748	0.0159044
654.826	0.0159306
654.905	0.0159057
654.983	0.0157822
655.061	0.0159951
655.139	0.0159312
655.217	0.0159028
655.295	0.0158791
655.373	0.0159632
655.451	0.0159372
655.530	0.0159055
655.608	0.0158566
655.686	0.0158994
655.764	0.0158485
655.842	0.0158437
655.920	0.0159958
655.998	0.0158134
656.076	0.0160465
656.155	0.0159318
656.233	0.0158541
656.311	0.0158675
656.389	0.0158166
656.467	0.0158587
656.545	0.0158955
656.623	0.0159342
656.701	0.0158816
656.780	0.0159462
656.858	0.0160019
656.936	0.0158839
657.014	0.0159452
657.092	0.0159792
657.170	0.0158838
657.248	0.0159651
657.326	0.0159180
657.405	0.0159979
657.483	0.0158787
657.561	0.0159052
657.639	0.0159541
657.717	0.0159004
657.795	0.0158427
657.873	0.0159013
657.951	0.0159212
658.030	0.0160120
658.108	0.0159093
658.186	0.0159267
658.264	0.0158264
658.342	0.0158871
658.420	0.0158973
658.498	0.0160888
658.576	0.0159326
658.655	0.0157818
658.733	0.0158604
658.811	0.0159438
658.889	0.0158055
658.967	0.0157968
659.045	0.0158572
659.123	0.0158795
659.201	0.0160198
659.280	0.0158312
659.358	0.0158427
659.436	0.0159023
659.514	0.0158243
659.592	0.0158575
659.670	0.0158232
659.748	0.0158313
659.826	0.0158743
659.905	0.0158572
659.983	0.0159203
660.061	0.0160109
660.139	0.0157900
660.217	0.0158359
660.295	0.0158439
660.373	0.0158571
660.451	0.0159541
660.530	0.0158845
660.608	0.0158498
660.686	0.0158697
660.764	0.0159317
660.842	0.0158781
660.920	0.0158743
660.998	0.0158121
661.076	0.0158015
661.155	0.0158828
661.233	0.0158125
661.311	0.0158295
661.389	0.0158361
661.467	0.0159885
661.545	0.0160292
661.623	0.0158154
661.701	0.0159686
661.780	0.0158640
661.858	0.0157623
661.936	0.0158620
662.014	0.0158817
662.092	0.0157206
662.170	0.0158837
662.248	0.0158729
662.326	0.0157819
662.405	0.0159294
662.483	0.0157785
662.561	0.0158469
662.639	0.0158801
662.717	0.0159056
662.795	0.0159282
662.873	0.0158930
662.951	0.0159352
663.030	0.0159063
663.108	0.0159734
663.186	0.0158607
663.264	0.0159037
663.342	0.0158530
663.420	0.0159361
663.498	0.0159884
663.576	0.0158218
663.655	0.0160637
663.733	0.0158359
663.811	0.0159653
663.889	0.0158613
663.967	0.0159708
664.045	0.0158701
664.123	0.0158917
664.201	0.0159244
664.280	0.0159543
664.358	0.0159760
664.436	0.0158234
664.514	0.0157571
664.592	0.0159416
664.670	0.0159538
664.748	0.0160211
664.826	0.0159673
664.905	0.0159582
664.983	0.0159644
665.061	0.0159248
665.139	0.0159741
665.217	0.0160283
665.295	0.0158112
665.373	0.0158611
665.451	0.0158241
665.530	0.0160248
665.608	0.0159278
665.686	0.0159056
665.764	0.0159682
665.842	0.0160451
665.920	0.0159403
665.998	0.0160194
666.076	0.0159843
666.155	0.0158817
666.233	0.0159583
666.311	0.0159582
666.389	0.0158129
666.467	0.0159102
666.545	0.0159734
666.623	0.0159094
666.701	0.0158672
666.780	0.0158564
666.858	0.0159790
666.936	0.0159203
667.014	0.0159442
667.092	0.0158334
667.170	0.0159282
667.248	0.0159871
667.326	0.0159530
667.405	0.0158836
667.483	0.0159262
667.561	0.0159666
667.639	0.0158634
667.717	0.0158607
667.795	0.0158900
667.873	0.0159043
667.951	0.0158836
668.030	0.0159720
668.108	0.0159988
668.186	0.0159294
668.264	0.0160344
668.342	0.0159344
668.420	0.0159018
668.498	0.0160254
668.576	0.0160171
668.655	0.0157458
668.733	0.0158350
668.811	0.0158730
668.889	0.0160308
668.967	0.0159126
669.045	0.0159672
669.123	0.0158897
669.201	0.0157968
669.280	0.0159186
669.358	0.0159433
669.436	0.0157732
669.514	0.0158152
669.592	0.0158908
669.670	0.0159179
669.748	0.0159814
669.826	0.0158956
669.905	0.0158898
669.983	0.0159541
670.061	0.0159500
670.139	0.0158517
670.217	0.0159367
670.295	0.0158577
670.373	0.0158942
670.451	0.0158781
670.530	0.0158936
670.608	0.0159948
670.686	0.0159245
670.764	0.0159102
670.842	0.0158858
670.920	0.0158891
670.998	0.0158257
671.076	0.0157972
671.155	0.0159690
671.233	0.0158463
671.311	0.0159404
671.389	0.0158237
671.467	0.0158298
671.545	0.0158366
671.623	0.0158457
671.701	0.0159171
671.780	0.0159689
671.858	0.0159775
671.936	0.0158541
672.014	0.0157861
672.092	0.0160363
672.170	0.0160750
672.248	0.0159132
672.326	0.0159747
672.405	0.0159826
672.483	0.0160316
672.561	0.0161283
672.639	0.0159855
672.717	0.0159149
672.795	0.0158952
672.873	0.0160783
672.951	0.0161011
673.030	0.0159978
673.108	0.0159920
673.186	0.0160027
673.264	0.0159190
673.342	0.0157855
673.420	0.0158215
673.498	0.0157935
673.576	0.0157043
673.655	0.0158622
673.733	0.0157858
673.811	0.0156926
673.889	0.0158495
673.967	0.0158406
674.045	0.0158821
674.123	0.0160300
674.201	0.0159206
674.280	0.0157887
674.358	0.0159348
674.436	0.0159740
674.514	0.0160027
674.592	0.0160119
674.670	0.0162307
674.748	0.0160876
674.826	0.0161368
674.905	0.0162316
674.983	0.0162531
675.061	0.0162980
675.139	0.0161619
675.217	0.0160152
675.295	0.0161148
675.373	0.0161716
675.451	0.0161198
675.530	0.0158739
675.608	0.0159505
675.686	0.0159192
675.764	0.0156648
675.842	0.0157363
675.920	0.0157415
675.998	0.0156847
676.076	0.0154258
676.155	0.0156492
676.233	0.0156361
676.311	0.0156199
676.389	0.0158032
676.467	0.0157840
676.545	0.0157645
676.623	0.0158595
676.701	0.0159216
676.780	0.0160494
676.858	0.0162238
676.936	0.0161609
677.014	0.0163081
677.092	0.0163030
677.170	0.0163274
677.248	0.0164352
677.326	0.0163941
677.405	0.0163415
677.483	0.0163793
677.561	0.0163358
677.639	0.0161740
677.717	0.0162464
677.795	0.0159738
677.873	0.0159023
677.951	0.0157371
678.030	0.0156681
678.108	0.0156673
678.186	0.0157684
678.264	0.0155130
678.342	0.0155822
678.420	0.0155766
678.498	0.0157013
678.576	0.0154978
678.655	0.0156358
678.733	0.0157576
678.811	0.0158053
678.889	0.0159290
678.967	0.0160120
679.045	0.0159414
679.123	0.0160773
679.201	0.0162051
679.280	0.0161854
679.358	0.0163128
679.436	0.0163174
679.514	0.0161899
679.592	0.0161594
679.670	0.0160941
679.748	0.0162098
679.826	0.0161749
679.905	0.0161526
679.983	0.0162292
680.061	0.0160196
680.139	0.0159441
680.217	0.0160445
680.295	0.0160514
680.373	0.0159126
680.451	0.0159415
680.530	0.0159609
680.608	0.0160358
680.686	0.0159612
680.764	0.0160027
680.842	0.0159371
680.920	0.0158744
680.998	0.0158229
681.076	0.0158243
681.155	0.0159512
681.233	0.0158157
681.311	0.0157955
681.389	0.0159172
681.467	0.0158504
681.545	0.0157604
681.623	0.0156550
681.701	0.0159657
681.780	0.0159949
681.858	0.0159920
681.936	0.0158526
682.014	0.0158810
682.092	0.0158831
682.170	0.0160281
682.248	0.0159081
682.326	0.0159421
682.405	0.0160574
682.483	0.0160134
682.561	0.0160406
682.639	0.0160159
682.717	0.0159933
682.795	0.0160344
682.873	0.0161251
682.951	0.0162168
683.030	0.0160320
683.108	0.0160184
683.186	0.0160375
683.264	0.0161347
683.342	0.0160654
683.420	0.0160727
683.498	0.0158524
683.576	0.0157824
683.655	0.0157346
683.733	0.0156086
683.811	0.0157510
683.889	0.0157485
683.967	0.0156152
684.045	0.0156958
684.123	0.0158228
684.201	0.0160307
684.280	0.0161785
684.358	0.0162164
684.436	0.0163082
684.514	0.0163104
684.592	0.0163495
684.670	0.0164893
684.748	0.0164919
684.826	0.0164587
684.905	0.0165156
684.983	0.0163620
685.061	0.0163067
685.139	0.0163766
685.217	0.0163046
685.295	0.0162912
685.373	0.0161282
685.451	0.0160880
685.530	0.0159190
685.608	0.0157762
685.686	0.0154755
685.764	0.0153391
685.842	0.0150976
685.920	0.0149302
685.998	0.0148258
686.076	0.0147346
686.155	0.0148983
686.233	0.0146542
686.311	0.0149347
686.389	0.0148969
686.467	0.0150198
686.545	0.0149422
686.623	0.0151678
686.701	0.0152337
686.780	0.0155543
686.858	0.0156778
686.936	0.0158333
687.014	0.0160974
687.092	0.0161192
687.170	0.0161855
687.248	0.0164450
687.326	0.0165070
687.405	0.0165744
687.483	0.0167590
687.561	0.0166774
687.639	0.0167307
687.717	0.0167593
687.795	0.0166345
687.873	0.0165044
687.951	0.0165684
688.030	0.0163766
688.108	0.0165135
688.186	0.0162828
688.264	0.0162335
688.342	0.0162120
688.420	0.0159414
688.498	0.0157381
688.576	0.0158524
688.655	0.0157382
688.733	0.0155132
688.811	0.0154951
688.889	0.0154292
688.967	0.0154667
689.045	0.0154916
689.123	0.0154346
689.201	0.0154462
689.280	0.0156981
689.358	0.0157784
689.436	0.0159734
689.514	0.0161206
689.592	0.0161638
689.670	0.0162984
689.748	0.0163567
689.826	0.0164493
689.905	0.0166168
689.983	0.0166423
690.061	0.0164232
690.139	0.0164912
690.217	0.0165303
690.295	0.0162192
690.373	0.0160847
690.451	0.0158917
690.530	0.0156270
690.608	0.0154406
690.686	0.0151749
690.764	0.0149245
690.842	0.0147060
690.920	0.0144435
690.998	0.0141615
691.076	0.0140454
691.155	0.0139288
691.233	0.0140208
691.311	0.0139030
691.389	0.0139532
691.467	0.0140888
691.545	0.0141191
691.623	0.0142510
691.701	0.0145100
691.780	0.0149348
691.858	0.0152697
691.936	0.0156295
692.014	0.0159244
692.092	0.0166228
692.170	0.0170019
692.248	0.0174274
692.326	0.0176834
692.405	0.0178963
692.483	0.0183373
692.561	0.0185905
692.639	0.0186434
692.717	0.0190263
692.795	0.0190969
692.873	0.0190757
692.951	0.0190337
693.030	0.0191822
693.108	0.0190474
693.186	0.0189540
693.264	0.0188714
693.342	0.0185204
693.420	0.0184245
693.498	0.0181143
693.576	0.0176142
693.655	0.0172740
693.733	0.0166856
693.811	0.0162322
693.889	0.0156986
693.967	0.0151890
694.045	0.0148405
694.123	0.0143148
694.201	0.0137619
694.280	0.0135156
694.358	0.0132813
694.436	0.0129372
694.514	0.0127394
694.592	0.0127607
694.670	0.0127473
694.748	0.0127744
694.826	0.0128397
694.905	0.0129048
694.983	0.0130392
695.061	0.0133963
695.139	0.0135168
695.217	0.0138348
695.295	0.0140026
695.373	0.0144585
695.451	0.0146693
695.530	0.0148589
695.608	0.0152927
695.686	0.0155775
695.764	0.0157500
695.842	0.0158906
695.920	0.0160088
695.998	0.0159326
696.076	0.0160143
696.155	0.0157582
696.233	0.0155741
696.311	0.0156154
696.389	0.0154079
696.467	0.0153155
696.545	0.0151984
696.623	0.0150787
696.701	0.0151866
696.780	0.0152768
696.858	0.0153106
696.936	0.0154813
697.014	0.0157957
697.092	0.0159644
697.170	0.0166200
697.248	0.0170274
697.326	0.0174255
697.405	0.0180800
697.483	0.0186310
697.561	0.0190034
697.639	0.0194888
697.717	0.0200123
697.795	0.0202852
697.873	0.0207030
697.951	0.0210681
698.030	0.0210186
698.108	0.0209264
698.186	0.0208273
698.264	0.0206355
698.342	0.0202461
698.420	0.0198367
698.498	0.0192115
698.576	0.0186933
698.655	0.0178760
698.733	0.0172169
698.811	0.0161279
698.889	0.0152960
698.967	0.0145783
699.045	0.0137948
699.123	0.0131189
699.201	0.0125301
699.280	0.0119080
699.358	0.0115213
699.436	0.0113155
699.514	0.0111031
699.592	0.0110445
699.670	0.0112878
699.748	0.0116867
699.826	0.0119800
699.905	0.0124106
699.983	0.0129716
700.061	0.0135746
700.139	0.0140559
700.217	0.0146299
700.295	0.0152167
700.373	0.0155652
700.451	0.0158095
700.530	0.0162057
700.608	0.0163393
700.686	0.0165134
700.764	0.0164848
700.842	0.0163392
700.920	0.0160372
700.998	0.0159931
701.076	0.0158152
701.155	0.0154490
701.233	0.0151460
701.311	0.0149352
701.389	0.0147201
701.467	0.0143513
701.545	0.0143173
701.623	0.0143217
701.701	0.0141676
701.780	0.0142477
701.858	0.0146030
701.936	0.0147826
702.014	0.0150349
702.092	0.0153935
702.170	0.0157318
702.248	0.0162402
702.326	0.0167568
702.405	0.0171098
702.483	0.0175899
702.561	0.0181988
702.639	0.0185080
702.717	0.0190001
702.795	0.0195438
702.873	0.0200591
702.951	0.0205119
703.030	0.0208625
703.108	0.0212379
703.186	0.0216046
703.264	0.0218122
703.342	0.0218671
703.420	0.0218176
703.498	0.0217922
703.576	0.0213724
703.655	0.0210220
703.733	0.0205811
703.811	0.0200130
703.889	0.0192576
703.967	0.0182520
704.045	0.0174063
704.123	0.0165742
704.201	0.0156867
704.280	0.0148171
704.358	0.0139414
704.436	0.0130105
704.514	0.0124240
704.592	0.0115933
704.670	0.0108569
704.748	0.0102839
704.826	0.00980217
704.905	0.00958130
704.983	0.00934494
705.061	0.00924400
705.139	0.00924889
705.217	0.00954147
705.295	0.00977989
705.373	0.0101851
705.451	0.0108118
705.530	0.0112057
705.608	0.0118154
705.686	0.0123459
705.764	0.0129475
705.842	0.0136069
705.920	0.0141900
705.998	0.0146156
706.076	0.0149493
706.155	0.0154404
706.233	0.0159352
706.311	0.0163049
706.389	0.0166630
706.467	0.0167767
706.545	0.0170383
706.623	0.0174005
706.701	0.0175967
706.780	0.0175729
706.858	0.0176294
706.936	0.0175675
707.014	0.0176523
707.092	0.0176926
707.170	0.0175809
707.248	0.0173914
707.326	0.0173409
707.405	0.0171620
707.483	0.0170512
707.561	0.0172002
707.639	0.0173271
707.717	0.0172686
707.795	0.0172810
707.873	0.0175983
707.951	0.0177456
708.030	0.0181240
708.108	0.0184515
708.186	0.0185844
708.264	0.0189052
708.342	0.0192654
708.420	0.0193368
708.498	0.0197250
708.576	0.0200838
708.655	0.0203358
708.733	0.0204865
708.811	0.0206464
708.889	0.0206194
708.967	0.0206682
709.045	0.0204239
709.123	0.0202243
709.201	0.0198373
709.280	0.0194845
709.358	0.0191387
709.436	0.0185667
709.514	0.0178470
709.592	0.0171799
709.670	0.0162980
709.748	0.0155851
709.826	0.0148239
709.905	0.0137569
709.983	0.0128930
710.061	0.0120249
710.139	0.0113100
710.217	0.0105802
710.295	0.0100159
710.373	0.00941711
710.451	0.00896347
710.530	0.00872093
710.608	0.00845657
710.686	0.00838509
710.764	0.00852692
710.842	0.00868484
710.920	0.00913269
710.998	0.00942139
711.076	0.00982788
711.155	0.0105797
711.233	0.0112852
711.311	0.0120739
711.389	0.0126394
711.467	0.0134669
711.545	0.0142957
711.623	0.0148241
711.701	0.0155210
711.780	0.0160235
711.858	0.0166117
711.936	0.0171109
712.014	0.0174338
712.092	0.0178347
712.170	0.0180289
712.248	0.0182754
712.326	0.0182581
712.405	0.0184637
712.483	0.0184808
712.561	0.0186251
712.639	0.0183988
712.717	0.0185053
712.795	0.0184431
712.873	0.0183421
712.951	0.0182061
713.030	0.0182523
713.108	0.0180869
713.186	0.0179525
713.264	0.0179366
713.342	0.0179424
713.420	0.0178629
713.498	0.0177343
713.576	0.0176910
713.655	0.0175696
713.733	0.0175576
713.811	0.0177102
713.889	0.0177598
713.967	0.0179032
714.045	0.0180753
714.123	0.0183784
714.201	0.0185497
714.280	0.0188683
714.358	0.0188985
714.436	0.0192909
714.514	0.0193476
714.592	0.0193630
714.670	0.0194392
714.748	0.0192902
714.826	0.0189161
714.905	0.0186669
714.983	0.0181403
715.061	0.0177882
715.139	0.0173184
715.217	0.0166280
715.295	0.0160423
715.373	0.0152005
715.451	0.0146882
715.530	0.0140189
715.608	0.0135645
715.686	0.0128735
715.764	0.0123872
715.842	0.0120983
715.920	0.0118018
715.998	0.0114577
716.076	0.0112583
716.155	0.0112090
716.233	0.0111120
716.311	0.0111655
716.389	0.0108773
716.467	0.0110626
716.545	0.0112412
716.623	0.0113058
716.701	0.0116295
716.780	0.0119891
716.858	0.0122340
716.936	0.0127671
717.014	0.0131985
717.092	0.0137361
717.170	0.0140602
717.248	0.0147095
717.326	0.0152352
717.405	0.0156172
717.483	0.0161536
717.561	0.0166433
717.639	0.0169449
717.717	0.0171523
717.795	0.0175133
717.873	0.0176401
717.951	0.0177579
718.030	0.0178960
718.108	0.0179503
718.186	0.0180740
718.264	0.0178299
718.342	0.0177277
718.420	0.0177164
718.498	0.0177299
718.576	0.0178179
718.655	0.0175860
718.733	0.0177277
718.811	0.0177634
718.889	0.0178488
718.967	0.0177496
719.045	0.0179680
719.123	0.0180389
719.201	0.0180131
719.280	0.0180740
719.358	0.0180118
719.436	0.0179494
719.514	0.0179315
719.592	0.0178931
719.670	0.0179574
719.748	0.0179665
719.826	0.0179020
719.905	0.0176709
719.983	0.0177033
720.061	0.0175241
720.139	0.0173085
720.217	0.0171873
720.295	0.0169418
720.373	0.0167993
720.451	0.0165736
720.530	0.0162395
720.608	0.0159118
720.686	0.0157162
720.764	0.0155167
720.842	0.0153587
720.920	0.0152519
720.998	0.0149720
721.076	0.0149514
721.155	0.0146277
721.233	0.0145248
721.311	0.0145463
721.389	0.0142708
721.467	0.0143498
721.545	0.0140854
721.623	0.0139324
721.701	0.0140424
721.780	0.0136838
721.858	0.0135593
721.936	0.0135371
722.014	0.0136008
722.092	0.0134470
722.170	0.0135786
722.248	0.0136035
722.326	0.0137299
722.405	0.0137939
722.483	0.0139347
722.561	0.0140630
722.639	0.0141822
722.717	0.0144955
722.795	0.0146847
722.873	0.0149397
722.951	0.0151511
723.030	0.0153468
723.108	0.0154916
723.186	0.0157616
723.264	0.0161053
723.342	0.0163345
723.420	0.0165521
723.498	0.0167901
723.576	0.0168237
723.655	0.0171178
723.733	0.0173885
723.811	0.0175665
723.889	0.0177104
723.967	0.0178286
724.045	0.0178345
724.123	0.0178812
724.201	0.0179318
724.280	0.0175741
724.358	0.0175780
724.436	0.0175977
724.514	0.0173900
724.592	0.0171809
724.670	0.0168529
724.748	0.0168903
724.826	0.0167491
724.905	0.0164535
724.983	0.0163179
725.061	0.0163235
725.139	0.0162025
725.217	0.0160726
725.295	0.0158562
725.373	0.0158125
725.451	0.0158107
725.530	0.0157217
725.608	0.0156259
725.686	0.0156303
725.764	0.0157635
725.842	0.0155215
725.920	0.0155956
725.998	0.0155788
726.076	0.0155961
726.155	0.0157092
726.233	0.0159129
726.311	0.0157483
726.389	0.0159016
726.467	0.0159046
726.545	0.0160785
726.623	0.0160886
726.701	0.0160984
726.780	0.0161690
726.858	0.0161565
726.936	0.0162359
727.014	0.0162460
727.092	0.0163618
727.170	0.0162861
727.248	0.0164439
727.326	0.0164223
727.405	0.0164341
727.483	0.0164671
727.561	0.0163488
727.639	0.0162124
727.717	0.0160563
727.795	0.0158713
727.873	0.0157903
727.951	0.0154833
728.030	0.0152283
728.108	0.0150261
728.186	0.0150008
728.264	0.0147682
728.342	0.0145005
728.420	0.0144669
728.498	0.0145399
728.576	0.0144483
728.655	0.0145338
728.733	0.0145266
728.811	0.0148487
728.889	0.0149067
728.967	0.0150537
729.045	0.0152878
729.123	0.0156149
729.201	0.0158864
729.280	0.0161057
729.358	0.0164230
729.436	0.0165969
729.514	0.0167241
729.592	0.0169041
729.670	0.0168677
729.748	0.0170190
729.826	0.0171003
729.905	0.0170365
729.983	0.0168598
730.061	0.0168330
730.139	0.0168068
730.217	0.0164944
730.295	0.0163107
730.373	0.0160470
730.451	0.0157793
730.530	0.0155180
730.608	0.0153712
730.686	0.0152339
730.764	0.0149854
730.842	0.0149180
730.920	0.0148401
730.998	0.0147887
731.076	0.0147678
731.155	0.0148094
731.233	0.0150316
731.311	0.0150681
731.389	0.0154027
731.467	0.0154649
731.545	0.0156322
731.623	0.0158006
731.701	0.0159540
731.780	0.0163252
731.858	0.0165173
731.936	0.0165993
732.014	0.0168518
732.092	0.0168893
732.170	0.0170172
732.248	0.0169448
732.326	0.0171840
732.405	0.0171267
732.483	0.0168308
732.561	0.0168220
732.639	0.0167982
732.717	0.0164745
732.795	0.0162775
732.873	0.0160807
732.951	0.0157386
733.030	0.0156206
733.108	0.0153436
733.186	0.0151569
733.264	0.0150996
733.342	0.0149298
733.420	0.0150040
733.498	0.0150420
733.576	0.0151910
733.655	0.0152681
733.733	0.0155446
733.811	0.0155421
733.889	0.0156980
733.967	0.0158025
734.045	0.0158517
734.123	0.0159502
734.201	0.0161553
734.280	0.0161199
734.358	0.0161836
734.436	0.0161764
734.514	0.0160636
734.592	0.0161356
734.670	0.0163336
734.748	0.0160214
734.826	0.0159626
734.905	0.0158678
734.983	0.0159853
735.061	0.0158946
735.139	0.0157106
735.217	0.0157455
735.295	0.0156424
735.373	0.0155567
735.451	0.0155666
735.530	0.0154756
735.608	0.0154758
735.686	0.0153181
735.764	0.0154028
735.842	0.0152426
735.920	0.0154197
735.998	0.0154189
736.076	0.0154649
736.155	0.0156623
736.233	0.0158678
736.311	0.0157358
736.389	0.0159067
736.467	0.0160323
736.545	0.0162338
736.623	0.0162386
736.701	0.0163567
736.780	0.0163598
736.858	0.0165229
736.936	0.0164205
737.014	0.0165609
737.092	0.0166266
737.170	0.0163728
737.248	0.0164384
737.326	0.0163213
737.405	0.0163369
737.483	0.0161060
737.561	0.0160305
737.639	0.0160382
737.717	0.0159759
737.795	0.0159116
737.873	0.0159354
737.951	0.0158296
738.030	0.0157771
738.108	0.0157079
738.186	0.0158680
738.264	0.0158043
738.342	0.0157049
738.420	0.0156881
738.498	0.0155736
738.576	0.0155936
738.655	0.0157146
738.733	0.0155525
738.811	0.0156786
738.889	0.0153654
738.967	0.0154720
739.045	0.0155862
739.123	0.0155559
739.201	0.0155309
739.280	0.0156032
739.358	0.0155247
739.436	0.0154053
739.514	0.0154134
739.592	0.0156455
739.670	0.0157302
739.748	0.0157539
739.826	0.0156880
739.905	0.0157706
739.983	0.0159653
740.061	0.0159126
740.139	0.0159505
740.217	0.0162180
740.295	0.0161827
740.373	0.0161846
740.451	0.0163767
740.530	0.0162402
740.608	0.0162302
740.686	0.0162112
740.764	0.0161208
740.842	0.0162228
740.920	0.0161165
740.998	0.0159366
741.076	0.0157368
741.155	0.0158104
741.233	0.0157967
741.311	0.0156779
741.389	0.0157098
741.467	0.0156746
741.545	0.0156371
741.623	0.0155921
741.701	0.0156773
741.780	0.0157557
741.858	0.0158018
741.936	0.0157364
742.014	0.0158499
742.092	0.0158958
742.170	0.0159629
742.248	0.0160939
742.326	0.0160410
742.405	0.0162486
742.483	0.0162399
742.561	0.0161324
742.639	0.0163726
742.717	0.0163714
742.795	0.0162214
742.873	0.0164294
742.951	0.0163234
743.030	0.0164322
743.108	0.0162670
743.186	0.0162460
743.264	0.0163329
743.342	0.0160361
743.420	0.0160662
743.498	0.0158487
743.576	0.0159510
743.655	0.0157280
743.733	0.0156362
743.811	0.0155482
743.889	0.0155242
743.967	0.0153654
744.045	0.0152988
744.123	0.0152187
744.201	0.0152842
744.280	0.0153323
744.358	0.0152531
744.436	0.0154742
744.514	0.0156657
744.592	0.0157050
744.670	0.0157769
744.748	0.0159894
744.826	0.0161112
744.905	0.0161678
744.983	0.0163254
745.061	0.0164132
745.139	0.0164182
745.217	0.0165015
745.295	0.0166155
745.373	0.0166244
745.451	0.0164570
745.530	0.0165060
745.608	0.0164648
745.686	0.0163702
745.764	0.0162775
745.842	0.0162196
745.920	0.0161140
745.998	0.0158771
746.076	0.0156374
746.155	0.0156010
746.233	0.0155431
746.311	0.0153500
746.389	0.0154989
746.467	0.0153792
746.545	0.0154241
746.623	0.0153391
746.701	0.0153998
746.780	0.0154546
746.858	0.0156003
746.936	0.0156078
747.014	0.0157647
747.092	0.0159287
747.170	0.0160038
747.248	0.0162283
747.326	0.0162745
747.405	0.0164221
747.483	0.0164610
747.561	0.0164748
747.639	0.0163743
747.717	0.0163598
747.795	0.0163923
747.873	0.0163223
747.951	0.0163547
748.030	0.0163006
748.108	0.0162653
748.186	0.0163783
748.264	0.0163065
748.342	0.0160632
748.420	0.0161595
748.498	0.0161801
748.576	0.0158673
748.655	0.0159363
748.733	0.0158788
748.811	0.0160300
748.889	0.0159471
748.967	0.0158566
749.045	0.0158089
749.123	0.0158377
749.201	0.0158176
749.280	0.0157456
749.358	0.0157477
749.436	0.0158321
749.514	0.0158117
749.592	0.0157887
749.670	0.0157634
749.748	0.0157652
749.826	0.0157466
749.905	0.0157623
749.983	0.0160224
750.061	0.0158386
750.139	0.0158385
750.217	0.0159316
750.295	0.0159060
750.373	0.0160656
750.451	0.0160163
750.530	0.0161720
750.608	0.0162751
750.686	0.0162921
750.764	0.0163813
750.842	0.0164574
750.920	0.0163927
750.998	0.0163754
751.076	0.0165007
751.155	0.0164100
751.233	0.0163447
751.311	0.0163115
751.389	0.0161311
751.467	0.0161424
751.545	0.0159890
751.623	0.0157657
751.701	0.0156926
751.780	0.0156124
751.858	0.0154198
751.936	0.0152285
752.014	0.0150758
752.092	0.0149704
752.170	0.0151799
752.248	0.0150819
752.326	0.0151582
752.405	0.0152586
752.483	0.0153149
752.561	0.0155315
752.639	0.0157476
752.717	0.0157085
752.795	0.0158718
752.873	0.0160820
752.951	0.0161137
753.030	0.0163120
753.108	0.0163924
753.186	0.0163914
753.264	0.0164335
753.342	0.0163029
753.420	0.0162354
753.498	0.0162234
753.576	0.0158840
753.655	0.0159344
753.733	0.0157936
753.811	0.0155802
753.889	0.0155642
753.967	0.0155573
754.045	0.0154424
754.123	0.0154168
754.201	0.0153242
754.280	0.0151322
754.358	0.0153692
754.436	0.0154868
754.514	0.0156371
754.592	0.0156734
754.670	0.0157756
754.748	0.0158909
754.826	0.0160181
754.905	0.0162541
754.983	0.0160458
755.061	0.0163186
755.139	0.0162270
755.217	0.0163300
755.295	0.0164280
755.373	0.0163956
755.451	0.0164063
755.530	0.0163618
755.608	0.0161983
755.686	0.0161742
755.764	0.0162080
755.842	0.0161235
755.920	0.0161233
755.998	0.0161793
756.076	0.0159884
756.155	0.0159269
756.233	0.0159303
756.311	0.0158297
756.389	0.0159411
756.467	0.0160027
756.545	0.0159779
756.623	0.0158127
756.701	0.0158035
756.780	0.0159733
756.858	0.0159766
756.936	0.0156880
757.014	0.0157490
757.092	0.0156209
757.170	0.0155738
757.248	0.0157389
757.326	0.0156791
757.405	0.0157647
757.483	0.0155448
757.561	0.0156158
757.639	0.0157718
757.717	0.0157830
757.795	0.0156770
757.873	0.0157354
757.951	0.0158206
758.030	0.0157811
758.108	0.0159423
758.186	0.0158449
758.264	0.0157831
758.342	0.0159192
758.420	0.0160355
758.498	0.0160997
758.576	0.0161876
758.655	0.0162019
758.733	0.0160796
758.811	0.0162002
758.889	0.0161371
758.967	0.0162027
759.045	0.0161246
759.123	0.0162279
759.201	0.0160233
759.280	0.0160084
759.358	0.0159043
759.436	0.0159564
759.514	0.0158654
759.592	0.0158306
759.670	0.0158292
759.748	0.0156602
759.826	0.0156231
759.905	0.0156062
759.983	0.0155750
760.061	0.0154916
760.139	0.0155712
760.217	0.0154721
760.295	0.0155439
760.373	0.0156504
760.451	0.0156441
760.530	0.0156238
760.608	0.0157860
760.686	0.0157882
760.764	0.0158079
760.842	0.0157721
760.920	0.0159554
760.998	0.0161060
761.076	0.0161172
761.155	0.0159281
761.233	0.0162390
761.311	0.0161055
761.389	0.0160120
761.467	0.0159789
761.545	0.0160732
761.623	0.0161305
761.701	0.0159438
761.780	0.0160227
761.858	0.0159225
761.936	0.0158170
762.014	0.0158125
762.092	0.0158640
762.170	0.0157321
762.248	0.0157265
762.326	0.0155699
762.405	0.0156289
762.483	0.0157191
762.561	0.0157027
762.639	0.0158157
762.717	0.0158564
762.795	0.0156352
762.873	0.0155249
762.951	0.0158194
763.030	0.0158143
763.108	0.0157433
763.186	0.0157265
763.264	0.0158208
763.342	0.0158036
763.420	0.0158802
763.498	0.0157604
763.576	0.0158340
763.655	0.0160086
763.733	0.0159515
763.811	0.0159941
763.889	0.0160320
763.967	0.0161612
764.045	0.0160989
764.123	0.0160770
764.201	0.0160908
764.280	0.0161217
764.358	0.0160918
764.436	0.0160972
764.514	0.0162701
764.592	0.0160473
764.670	0.0161375
764.748	0.0159103
764.826	0.0159857
764.905	0.0159976
764.983	0.0158364
765.061	0.0157963
765.139	0.0157862
765.217	0.0159214
765.295	0.0157222
765.373	0.0157265
765.451	0.0156731
765.530	0.0156680
765.608	0.0156888
765.686	0.0157599
765.764	0.0156717
765.842	0.0157726
765.920	0.0158630
765.998	0.0160130
766.076	0.0159360
766.155	0.0161044
766.233	0.0160342
766.311	0.0161417
766.389	0.0159588
766.467	0.0160492
766.545	0.0161894
766.623	0.0163940
766.701	0.0161590
766.780	0.0160435
766.858	0.0162614
766.936	0.0162237
767.014	0.0160062
767.092	0.0159739
767.170	0.0159624
767.248	0.0158781
767.326	0.0158484
767.405	0.0157697
767.483	0.0157458
767.561	0.0155247
767.639	0.0155550
767.717	0.0155534
767.795	0.0154481
767.873	0.0154168
767.951	0.0155457
768.030	0.0155018
768.108	0.0154893
768.186	0.0155105
768.264	0.0156061
768.342	0.0156756
768.420	0.0157516
768.498	0.0158424
768.576	0.0159688
768.655	0.0159814
768.733	0.0160311
768.811	0.0161232
768.889	0.0163068
768.967	0.0162032
769.045	0.0163129
769.123	0.0163512
769.201	0.0163325
769.280	0.0163576
769.358	0.0163069
769.436	0.0161963
769.514	0.0161362
769.592	0.0160973
769.670	0.0160447
769.748	0.0159882
769.826	0.0158837
769.905	0.0158558
769.983	0.0158923
770.061	0.0158086
770.139	0.0157491
770.217	0.0156142
770.295	0.0156404
770.373	0.0157536
770.451	0.0157699
770.530	0.0157142
770.608	0.0157770
770.686	0.0158409
770.764	0.0159017
770.842	0.0160041
770.920	0.0159945
770.998	0.0160649
771.076	0.0159969
771.155	0.0159591
771.233	0.0160638
771.311	0.0161713
771.389	0.0160529
771.467	0.0160286
771.545	0.0161224
771.623	0.0161072
771.701	0.0159566
771.780	0.0160076
771.858	0.0159306
771.936	0.0160407
772.014	0.0160155
772.092	0.0160707
772.170	0.0160329
772.248	0.0160361
772.326	0.0160808
772.405	0.0159390
772.483	0.0161794
772.561	0.0161156
772.639	0.0161189
772.717	0.0159754
772.795	0.0159534
772.873	0.0159883
772.951	0.0161005
773.030	0.0159499
773.108	0.0159768
773.186	0.0160699
773.264	0.0160197
773.342	0.0158625
773.420	0.0158730
773.498	0.0157899
773.576	0.0156715
773.655	0.0157809
773.733	0.0158167
773.811	0.0158176
773.889	0.0156379
773.967	0.0158815
774.045	0.0158733
774.123	0.0158903
774.201	0.0160870
774.280	0.0160679
774.358	0.0161634
774.436	0.0159948
774.514	0.0161787
774.592	0.0161609
774.670	0.0162209
774.748	0.0161883
774.826	0.0162381
774.905	0.0162077
774.983	0.0161197
775.061	0.0161356
775.139	0.0159929
775.217	0.0159069
775.295	0.0158910
775.373	0.0157938
775.451	0.0156310
775.530	0.0156712
775.608	0.0154491
775.686	0.0155795
775.764	0.0156003
775.842	0.0154694
775.920	0.0154401
775.998	0.0156396
776.076	0.0156282
776.155	0.0155828
776.233	0.0156563
776.311	0.0158470
776.389	0.0158183
776.467	0.0160986
776.545	0.0160577
776.623	0.0161970
776.701	0.0162379
776.780	0.0162167
776.858	0.0162200
776.936	0.0163849
777.014	0.0165088
777.092	0.0165747
777.170	0.0164181
777.248	0.0163309
777.326	0.0163989
777.405	0.0162399
777.483	0.0162316
777.561	0.0161191
777.639	0.0159864
777.717	0.0159866
777.795	0.0159468
777.873	0.0158984
777.951	0.0158335
778.030	0.0157293
778.108	0.0157568
778.186	0.0155608
778.264	0.0156170
778.342	0.0156996
778.420	0.0155199
778.498	0.0156613
778.576	0.0156780
778.655	0.0157366
778.733	0.0157103
778.811	0.0157235
778.889	0.0157356
778.967	0.0159184
779.045	0.0159639
779.123	0.0158723
779.201	0.0159779
779.280	0.0159732
779.358	0.0159182
779.436	0.0159165
779.514	0.0161307
779.592	0.0158665
779.670	0.0159990
779.748	0.0158408
779.826	0.0158755
779.905	0.0158846
779.983	0.0161190
780.061	0.0161417
780.139	0.0160963
780.217	0.0158498
780.295	0.0159663
780.373	0.0160012
780.451	0.0161404
780.530	0.0161186
780.608	0.0161732
780.686	0.0160403
780.764	0.0160711
780.842	0.0160017
780.920	0.0159038
780.998	0.0160408
781.076	0.0159341
781.155	0.0159772
781.233	0.0159389
781.311	0.0158565
781.389	0.0157827
781.467	0.0159129
781.545	0.0158709
781.623	0.0159226
781.701	0.0160224
781.780	0.0158701
781.858	0.0158599
781.936	0.0159381
782.014	0.0160230
782.092	0.0160778
782.170	0.0160921
782.248	0.0161217
782.326	0.0160083
782.405	0.0161160
782.483	0.0160490
782.561	0.0161190
782.639	0.0162114
782.717	0.0162967
782.795	0.0161537
782.873	0.0161448
782.951	0.0158991
783.030	0.0159132
783.108	0.0158644
783.186	0.0158364
783.264	0.0156999
783.342	0.0156102
783.420	0.0155159
783.498	0.0155955
783.576	0.0152871
783.655	0.0153355
783.733	0.0153813
783.811	0.0153308
783.889	0.0152497
783.967	0.0152877
784.045	0.0152977
784.123	0.0155044
784.201	0.0155202
784.280	0.0154461
784.358	0.0157836
784.436	0.0155540
784.514	0.0156050
784.592	0.0158258
784.670	0.0158573
784.748	0.0159361
784.826	0.0158797
784.905	0.0159673
784.983	0.0160324
785.061	0.0161819
785.139	0.0159971
785.217	0.0160018
785.295	0.0162830
785.373	0.0159280
785.451	0.0160375
785.530	0.0162370
785.608	0.0161551
785.686	0.0161858
785.764	0.0160600
785.842	0.0159418
785.920	0.0159739
785.998	0.0159397
786.076	0.0159673
786.155	0.0158828
786.233	0.0159253
786.311	0.0158823
786.389	0.0159859
786.467	0.0160292
786.545	0.0159080
786.623	0.0159852
786.701	0.0159668
786.780	0.0159797
786.858	0.0160410
786.936	0.0160986
787.014	0.0159996
787.092	0.0161430
787.170	0.0160088
787.248	0.0160093
787.326	0.0161095
787.405	0.0159834
787.483	0.0161116
787.561	0.0160271
787.639	0.0159444
787.717	0.0160988
787.795	0.0159105
787.873	0.0160686
787.951	0.0159634
788.030	0.0160235
788.108	0.0159628
788.186	0.0159687
788.264	0.0159166
788.342	0.0159864
788.420	0.0158609
788.498	0.0157555
788.576	0.0159866
788.655	0.0157483
788.733	0.0157729
788.811	0.0157385
788.889	0.0156937
788.967	0.0157911
789.045	0.0157300
789.123	0.0156971
789.201	0.0157067
789.280	0.0159627
789.358	0.0157533
789.436	0.0158018
789.514	0.0157957
789.592	0.0157998
789.670	0.0158272
789.748	0.0158518
789.826	0.0159167
789.905	0.0158398
789.983	0.0158438
790.061	0.0159188
790.139	0.0159418
790.217	0.0158908
790.295	0.0159865
790.373	0.0159597
790.451	0.0159689
790.530	0.0159023
790.608	0.0159523
790.686	0.0159270
790.764	0.0158022
790.842	0.0158238
790.920	0.0157398
790.998	0.0155337
791.076	0.0157951
791.155	0.0157858
791.233	0.0155159
791.311	0.0155750
791.389	0.0155117
791.467	0.0155367
791.545	0.0156026
791.623	0.0155660
791.701	0.0153989
791.780	0.0154289
791.858	0.0155743
791.936	0.0154925
792.014	0.0156381
792.092	0.0156239
792.170	0.0157700
792.248	0.0157289
792.326	0.0159627
792.405	0.0159604
792.483	0.0158360
792.561	0.0159992
792.639	0.0161112
792.717	0.0161742
792.795	0.0161584
792.873	0.0161964
792.951	0.0163158
793.030	0.0161365
793.108	0.0160342
793.186	0.0162923
793.264	0.0161229
793.342	0.0161936
793.420	0.0162641
793.498	0.0161512
793.576	0.0162189
793.655	0.0161676
793.733	0.0162876
793.811	0.0163612
793.889	0.0162578
793.967	0.0162228
794.045	0.0162273
794.123	0.0163658
794.201	0.0162405
794.280	0.0163765
794.358	0.0163507
794.436	0.0163712
794.514	0.0162685
794.592	0.0163102
794.670	0.0163384
794.748	0.0162032
794.826	0.0161503
794.905	0.0162672
794.983	0.0161066
795.061	0.0160393
795.139	0.0161715
795.217	0.0160971
795.295	0.0160327
795.373	0.0158913
795.451	0.0159112
795.530	0.0158036
795.608	0.0156717
795.686	0.0156805
795.764	0.0156039
795.842	0.0155653
795.920	0.0155273
795.998	0.0155318
796.076	0.0154237
796.155	0.0152960
796.233	0.0154871
796.311	0.0153935
796.389	0.0155060
796.467	0.0154247
796.545	0.0153262
796.623	0.0154591
796.701	0.0154923
796.780	0.0155377
796.858	0.0155302
796.936	0.0153914
797.014	0.0153623
797.092	0.0154980
797.170	0.0155768
797.248	0.0154755
797.326	0.0155228
797.405	0.0156127
797.483	0.0155891
797.561	0.0157922
797.639	0.0157360
797.717	0.0157417
797.795	0.0158642
797.873	0.0158003
797.951	0.0157506
798.030	0.0158507
798.108	0.0161318
798.186	0.0161798
798.264	0.0161134
798.342	0.0161378
798.420	0.0162409
798.498	0.0161986
798.576	0.0161180
798.655	0.0161391
798.733	0.0161951
798.811	0.0163371
798.889	0.0162362
798.967	0.0163464
799.045	0.0163824
799.123	0.0162907
799.201	0.0164563
799.280	0.0164493
799.358	0.0164845
799.436	0.0163970
799.514	0.0166602
799.592	0.0166217
799.670	0.0165459
799.748	0.0167412
799.826	0.0167572
799.905	0.0167781
799.983	0.0167983
800.061	0.0167204
800.139	0.0167451
800.217	0.0166937
800.295	0.0166325
800.373	0.0166405
800.451	0.0164381
800.530	0.0165456
800.608	0.0164754
800.686	0.0161979
800.764	0.0160511
800.842	0.0158659
800.920	0.0157077
800.998	0.0155676
801.076	0.0154827
801.155	0.0152895
801.233	0.0152126
801.311	0.0149565
801.389	0.0148550
801.467	0.0147426
801.545	0.0147123
801.623	0.0145786
801.701	0.0145052
801.780	0.0145484
801.858	0.0144852
801.936	0.0145637
802.014	0.0144804
802.092	0.0146057
802.170	0.0148406
802.248	0.0149760
802.326	0.0150717
802.405	0.0149849
802.483	0.0152873
802.561	0.0152651
802.639	0.0154433
802.717	0.0155777
802.795	0.0156447
802.873	0.0156973
802.951	0.0158045
803.030	0.0158971
803.108	0.0160850
803.186	0.0162356
803.264	0.0163025
803.342	0.0162708
803.420	0.0163413
803.498	0.0163734
803.576	0.0162899
803.655	0.0164868
803.733	0.0163139
803.811	0.0163940
803.889	0.0164769
803.967	0.0165085
804.045	0.0165253
804.123	0.0165952
804.201	0.0165704
804.280	0.0166215
804.358	0.0165524
804.436	0.0165073
804.514	0.0166714
804.592	0.0164989
804.670	0.0164323
804.748	0.0166263
804.826	0.0166207
804.905	0.0165479
804.983	0.0165767
805.061	0.0167064
805.139	0.0167965
805.217	0.0166588
805.295	0.0165765
805.373	0.0166626
805.451	0.0167864
805.530	0.0165807
805.608	0.0167237
805.686	0.0166902
805.764	0.0167125
805.842	0.0164731
805.920	0.0164400
805.998	0.0164131
806.076	0.0160800
806.155	0.0160486
806.233	0.0160204
806.311	0.0158849
806.389	0.0157037
806.467	0.0156182
806.545	0.0154207
806.623	0.0152797
806.701	0.0151623
806.780	0.0150072
806.858	0.0148825
806.936	0.0147625
807.014	0.0144736
807.092	0.0144144
807.170	0.0144093
807.248	0.0145042
807.326	0.0143476
807.405	0.0144198
807.483	0.0143162
807.561	0.0143644
807.639	0.0146042
807.717	0.0145558
807.795	0.0146784
807.873	0.0147581
807.951	0.0148743
808.030	0.0150768
808.108	0.0150707
808.186	0.0151487
808.264	0.0154339
808.342	0.0156104
808.420	0.0156588
808.498	0.0158422
808.576	0.0160041
808.655	0.0159769
808.733	0.0162750
808.811	0.0163194
808.889	0.0163635
808.967	0.0164742
809.045	0.0165463
809.123	0.0164723
809.201	0.0165239
809.280	0.0165265
809.358	0.0164999
809.436	0.0164194
809.514	0.0165021
809.592	0.0165910
809.670	0.0165439
809.748	0.0164544
809.826	0.0164336
809.905	0.0164056
809.983	0.0164522
810.061	0.0165192
810.139	0.0164773
810.217	0.0163844
810.295	0.0164009
810.373	0.0163761
810.451	0.0163946
810.530	0.0163778
810.608	0.0166020
810.686	0.0166226
810.764	0.0165175
810.842	0.0163306
810.920	0.0165168
810.998	0.0163847
811.076	0.0164920
811.155	0.0165264
811.233	0.0164661
811.311	0.0165238
811.389	0.0163358
811.467	0.0162468
811.545	0.0162167
811.623	0.0161282
811.701	0.0159409
811.780	0.0157063
811.858	0.0155223
811.936	0.0155476
812.014	0.0153610
812.092	0.0152604
812.170	0.0152501
812.248	0.0151699
812.326	0.0150240
812.405	0.0148715
812.483	0.0147259
812.561	0.0145773
812.639	0.0146752
812.717	0.0145607
812.795	0.0145418
812.873	0.0146954
812.951	0.0145600
813.030	0.0144327
813.108	0.0144933
813.186	0.0147077
813.264	0.0147855
813.342	0.0147660
813.420	0.0149421
813.498	0.0150677
813.576	0.0149935
813.655	0.0152229
813.733	0.0152033
813.811	0.0154264
813.889	0.0156931
813.967	0.0158199
814.045	0.0157732
814.123	0.0158883
814.201	0.0161137
814.280	0.0161362
814.358	0.0161736
814.436	0.0163017
814.514	0.0163943
814.592	0.0163459
814.670	0.0163747
814.748	0.0164893
814.826	0.0166136
814.905	0.0165588
814.983	0.0164511
815.061	0.0166338
815.139	0.0166390
815.217	0.0164916
815.295	0.0164540
815.373	0.0166776
815.451	0.0165459
815.530	0.0165821
815.608	0.0166846
815.686	0.0165596
815.764	0.0165225
815.842	0.0164419
815.920	0.0164999
815.998	0.0165868
816.076	0.0164669
816.155	0.0162716
816.233	0.0163921
816.311	0.0165389
816.389	0.0164011
816.467	0.0162734
816.545	0.0163211
816.623	0.0161671
816.701	0.0161488
816.780	0.0162405
816.858	0.0159656
816.936	0.0158714
817.014	0.0157870
817.092	0.0157990
817.170	0.0157032
817.248	0.0155597
817.326	0.0155190
817.405	0.0156301
817.483	0.0154542
817.561	0.0153321
817.639	0.0152743
817.717	0.0151488
817.795	0.0150658
817.873	0.0150774
817.951	0.0150562
818.030	0.0149400
818.108	0.0150842
818.186	0.0149696
818.264	0.0149527
818.342	0.0150688
818.420	0.0150585
818.498	0.0149759
818.576	0.0150190
818.655	0.0150537
818.733	0.0151399
818.811	0.0153751
818.889	0.0153967
818.967	0.0154589
819.045	0.0154887
819.123	0.0156355
819.201	0.0157514
819.280	0.0159449
819.358	0.0158327
819.436	0.0160247
819.514	0.0159451
819.592	0.0159801
819.670	0.0161284
819.748	0.0163942
819.826	0.0163710
819.905	0.0162762
819.983	0.0162093
820.061	0.0163093
820.139	0.0163161
820.217	0.0164525
820.295	0.0164307
820.373	0.0163284
820.451	0.0163780
820.530	0.0164952
820.608	0.0164922
820.686	0.0164916
820.764	0.0164547
820.842	0.0163596
820.920	0.0164290
820.998	0.0163924
821.076	0.0162868
821.155	0.0162319
821.233	0.0162422
821.311	0.0162691
821.389	0.0161311
821.467	0.0160943
821.545	0.0161200
821.623	0.0161954
821.701	0.0160838
821.780	0.0160883
821.858	0.0160112
821.936	0.0158918
822.014	0.0159673
822.092	0.0156973
822.170	0.0159322
822.248	0.0158801
822.326	0.0159451
822.405	0.0158347
822.483	0.0157236
822.561	0.0157531
822.639	0.0156284
822.717	0.0156787
822.795	0.0157113
822.873	0.0156618
822.951	0.0155296
823.030	0.0155714
823.108	0.0155374
823.186	0.0156091
823.264	0.0154411
823.342	0.0154887
823.420	0.0155330
823.498	0.0155087
823.576	0.0154158
823.655	0.0154478
823.733	0.0155577
823.811	0.0155653
823.889	0.0154764
823.967	0.0155842
824.045	0.0156299
824.123	0.0157323
824.201	0.0156315
824.280	0.0157246
824.358	0.0157244
824.436	0.0159260
824.514	0.0158762
824.592	0.0160043
824.670	0.0158266
824.748	0.0159404
824.826	0.0159994
824.905	0.0160896
824.983	0.0162967
825.061	0.0160828
825.139	0.0160706
825.217	0.0160157
825.295	0.0161060
825.373	0.0161787
825.451	0.0160707
825.530	0.0159396
825.608	0.0162154
825.686	0.0160077
825.764	0.0161160
825.842	0.0161032
825.920	0.0160087
825.998	0.0159911
826.076	0.0159367
826.155	0.0158884
826.233	0.0157896
826.311	0.0159243
826.389	0.0159547
826.467	0.0160667
826.545	0.0160275
826.623	0.0159785
826.701	0.0159554
826.780	0.0160798
826.858	0.0160452
826.936	0.0160513
827.014	0.0160448
827.092	0.0160349
827.170	0.0159794
827.248	0.0161284
827.326	0.0160541
827.405	0.0160130
827.483	0.0158208
827.561	0.0157957
827.639	0.0159284
827.717	0.0161021
827.795	0.0156773
827.873	0.0157327
827.951	0.0157201
828.030	0.0157716
828.108	0.0157168
828.186	0.0156752
828.264	0.0156737
828.342	0.0157254
828.420	0.0156815
828.498	0.0155592
828.576	0.0156713
828.655	0.0157535
828.733	0.0158083
828.811	0.0157486
828.889	0.0156199
828.967	0.0158893
829.045	0.0157480
829.123	0.0157115
829.201	0.0157301
829.280	0.0157877
829.358	0.0157307
829.436	0.0157928
829.514	0.0158580
829.592	0.0157638
829.670	0.0158524
829.748	0.0158721
829.826	0.0159780
829.905	0.0159203
829.983	0.0160411
830.061	0.0159707
830.139	0.0159698
830.217	0.0159962
830.295	0.0161249
830.373	0.0161620
830.451	0.0159504
830.530	0.0160867
830.608	0.0159727
830.686	0.0160891
830.764	0.0159801
830.842	0.0158844
830.920	0.0159531
830.998	0.0160645
831.076	0.0158930
831.155	0.0159857
831.233	0.0157360
831.311	0.0157534
831.389	0.0158525
831.467	0.0157523
831.545	0.0156271
831.623	0.0156863
831.701	0.0156898
831.780	0.0157269
831.858	0.0157052
831.936	0.0156541
832.014	0.0157223
832.092	0.0157137
832.170	0.0156650
832.248	0.0157232
832.326	0.0156403
832.405	0.0156123
832.483	0.0156286
832.561	0.0157426
832.639	0.0157753
832.717	0.0158080
832.795	0.0157182
832.873	0.0156883
832.951	0.0157308
833.030	0.0156847
833.108	0.0157319
833.186	0.0156274
833.264	0.0156648
833.342	0.0157948
833.420	0.0158390
833.498	0.0158026
833.576	0.0157822
833.655	0.0157876
833.733	0.0158980
833.811	0.0159299
833.889	0.0158153
833.967	0.0157803
834.045	0.0159342
834.123	0.0158789
834.201	0.0158389
834.280	0.0158981
834.358	0.0158891
834.436	0.0160362
834.514	0.0159496
834.592	0.0160088
834.670	0.0160078
834.748	0.0159093
834.826	0.0159559
834.905	0.0159890
834.983	0.0160399
835.061	0.0159499
835.139	0.0159232
835.217	0.0161642
835.295	0.0159599
835.373	0.0160636
835.451	0.0160149
835.530	0.0159322
835.608	0.0161058
835.686	0.0159628
835.764	0.0160084
835.842	0.0159737
835.920	0.0160332
835.998	0.0159133
836.076	0.0159821
836.155	0.0159657
836.233	0.0157862
836.311	0.0160191
836.389	0.0159127
836.467	0.0159247
836.545	0.0156917
836.623	0.0157625
836.701	0.0157820
836.780	0.0156016
836.858	0.0157214
836.936	0.0156686
837.014	0.0156476
837.092	0.0156551
837.170	0.0157097
837.248	0.0154683
837.326	0.0154755
837.405	0.0156099
837.483	0.0155692
837.561	0.0155637
837.639	0.0155642
837.717	0.0156570
837.795	0.0155467
837.873	0.0155525
837.951	0.0155022
838.030	0.0156400
838.108	0.0157841
838.186	0.0157069
838.264	0.0156235
838.342	0.0156960
838.420	0.0156814
838.498	0.0157154
838.576	0.0156419
838.655	0.0155811
838.733	0.0156979
838.811	0.0158305
838.889	0.0157053
838.967	0.0156428
839.045	0.0156837
839.123	0.0157706
839.201	0.0159126
839.280	0.0159336
839.358	0.0159162
839.436	0.0159407
839.514	0.0159039
839.592	0.0161321
839.670	0.0159634
839.748	0.0161085
839.826	0.0161511
839.905	0.0158902
839.983	0.0160337
840.061	0.0159629
840.139	0.0160574
840.217	0.0161971
840.295	0.0161407
840.373	0.0162688
840.451	0.0161947
840.530	0.0162862
840.608	0.0162356
840.686	0.0162267
840.764	0.0164625
840.842	0.0162519
840.920	0.0163577
840.998	0.0161509
841.076	0.0162115
841.155	0.0162140
841.233	0.0162711
841.311	0.0162215
841.389	0.0161064
841.467	0.0161150
841.545	0.0161696
841.623	0.0161875
841.701	0.0160468
841.780	0.0160931
841.858	0.0160619
841.936	0.0159416
842.014	0.0160139
842.092	0.0160350
842.170	0.0159203
842.248	0.0158796
842.326	0.0159288
842.405	0.0159308
842.483	0.0157665
842.561	0.0156952
842.639	0.0156779
842.717	0.0156461
842.795	0.0154831
842.873	0.0156136
842.951	0.0157169
843.030	0.0155180
843.108	0.0155990
843.186	0.0154185
843.264	0.0154695
843.342	0.0154755
843.420	0.0155021
843.498	0.0156530
843.576	0.0155072
843.655	0.0155906
843.733	0.0156821
843.811	0.0155345
843.889	0.0154856
843.967	0.0157573
844.045	0.0157092
844.123	0.0158298
844.201	0.0156803
844.280	0.0157721
844.358	0.0157682
844.436	0.0158871
844.514	0.0159664
844.592	0.0159427
844.670	0.0159770
844.748	0.0158800
844.826	0.0159167
844.905	0.0159191
844.983	0.0160464
845.061	0.0160106
845.139	0.0160634
845.217	0.0160031
845.295	0.0159486
845.373	0.0160790
845.451	0.0160511
845.530	0.0161054
845.608	0.0161119
845.686	0.0161092
845.764	0.0161551
845.842	0.0160954
845.920	0.0161668
845.998	0.0162269
846.076	0.0161692
846.155	0.0160913
846.233	0.0162675
846.311	0.0162963
846.389	0.0162734
846.467	0.0162496
846.545	0.0159650
846.623	0.0162292
846.701	0.0163120
846.780	0.0162084
846.858	0.0161978
846.936	0.0161168
847.014	0.0161496
847.092	0.0161587
847.170	0.0162677
847.248	0.0160951
847.326	0.0160136
847.405	0.0160879
847.483	0.0159981
847.561	0.0160122
847.639	0.0160217
847.717	0.0158667
847.795	0.0158735
847.873	0.0157825
847.951	0.0157528
848.030	0.0156537
848.108	0.0157021
848.186	0.0157040
848.264	0.0155834
848.342	0.0155957
848.420	0.0154630
848.498	0.0155354
848.576	0.0155493
848.655	0.0155352
848.733	0.0156012
848.811	0.0155250
848.889	0.0156369
848.967	0.0154645
849.045	0.0155353
849.123	0.0156765
849.201	0.0156789
849.280	0.0156087
849.358	0.0158799
849.436	0.0156834
849.514	0.0156778
849.592	0.0158353
849.670	0.0157542
849.748	0.0158652
849.826	0.0158601
849.905	0.0157487
849.983	0.0157030
850.061	0.0158488
850.139	0.0159345
850.217	0.0159566
850.295	0.0158250
850.373	0.0158605
850.451	0.0157112
850.530	0.0159614
850.608	0.0160080
850.686	0.0158990
850.764	0.0160097
850.842	0.0160864
850.920	0.0162098
850.998	0.0161143
851.076	0.0161042
851.155	0.0163078
851.233	0.0162299
851.311	0.0161636
851.389	0.0161830
851.467	0.0160812
851.545	0.0162010
851.623	0.0162533
851.701	0.0162698
851.780	0.0162306
851.858	0.0162234
851.936	0.0161198
852.014	0.0162865
852.092	0.0162003
852.170	0.0160876
852.248	0.0162324
852.326	0.0160319
852.405	0.0159467
852.483	0.0160434
852.561	0.0160776
852.639	0.0159996
852.717	0.0158729
852.795	0.0160000
852.873	0.0159500
852.951	0.0158653
853.030	0.0157074
853.108	0.0157346
853.186	0.0156953
853.264	0.0158070
853.342	0.0158538
853.420	0.0157322
853.498	0.0158150
853.576	0.0158075
853.655	0.0156769
853.733	0.0157084
853.811	0.0157326
853.889	0.0158128
853.967	0.0157623
854.045	0.0155877
854.123	0.0155838
854.201	0.0155625
854.280	0.0156335
854.358	0.0156293
854.436	0.0156084
854.514	0.0154471
854.592	0.0155724
854.670	0.0156853
854.748	0.0154825
854.826	0.0154238
854.905	0.0156553
854.983	0.0155019
855.061	0.0154424
855.139	0.0154965
855.217	0.0155243
855.295	0.0156366
855.373	0.0156895
855.451	0.0157619
855.530	0.0156352
855.608	0.0156789
855.686	0.0158747
855.764	0.0158094
855.842	0.0159913
855.920	0.0159238
855.998	0.0160686
856.076	0.0160045
856.155	0.0159944
856.233	0.0161394
856.311	0.0159795
856.389	0.0160262
856.467	0.0160133
856.545	0.0160162
856.623	0.0160607
856.701	0.0161794
856.780	0.0162346
856.858	0.0159711
856.936	0.0161388
857.014	0.0161697
857.092	0.0161746
857.170	0.0161587
857.248	0.0162257
857.326	0.0161131
857.405	0.0160307
857.483	0.0162645
857.561	0.0161459
857.639	0.0161485
857.717	0.0162232
857.795	0.0161243
857.873	0.0162012
857.951	0.0162528
858.030	0.0160667
858.108	0.0160523
858.186	0.0161767
858.264	0.0159985
858.342	0.0160007
858.420	0.0160110
858.498	0.0159906
858.576	0.0159438
858.655	0.0158530
858.733	0.0159519
858.811	0.0157963
858.889	0.0158562
858.967	0.0159867
859.045	0.0158639
859.123	0.0159869
859.201	0.0157408
859.280	0.0157334
859.358	0.0158076
859.436	0.0158089
859.514	0.0157881
859.592	0.0158154
859.670	0.0158366
859.748	0.0158413
859.826	0.0158018
859.905	0.0157404
859.983	0.0157796
860.061	0.0157716
860.139	0.0156994
860.217	0.0158363
860.295	0.0157504
860.373	0.0158118
860.451	0.0157666
860.530	0.0157163
860.608	0.0157328
860.686	0.0156219
860.764	0.0157100
860.842	0.0157511
860.920	0.0156613
860.998	0.0156483
861.076	0.0157131
861.155	0.0159097
861.233	0.0158498
861.311	0.0157798
861.389	0.0158978
861.467	0.0157890
861.545	0.0158688
861.623	0.0158442
861.701	0.0159206
861.780	0.0158685
861.858	0.0158371
861.936	0.0159821
862.014	0.0160917
862.092	0.0160006
862.170	0.0160076
862.248	0.0159270
862.326	0.0160243
862.405	0.0160458
862.483	0.0160879
862.561	0.0159043
862.639	0.0160781
862.717	0.0160100
862.795	0.0162119
862.873	0.0161255
862.951	0.0160636
863.030	0.0160462
863.108	0.0161354
863.186	0.0161765
863.264	0.0160598
863.342	0.0159971
863.420	0.0160643
863.498	0.0161493
863.576	0.0161265
863.655	0.0160929
863.733	0.0161009
863.811	0.0161108
863.889	0.0161170
863.967	0.0161068
864.045	0.0160872
864.123	0.0160039
864.201	0.0159585
864.280	0.0158562
864.358	0.0160261
864.436	0.0160917
864.514	0.0158829
864.592	0.0160259
864.670	0.0159534
864.748	0.0158778
864.826	0.0159139
864.905	0.0159434
864.983	0.0160638
865.061	0.0159012
865.139	0.0158402
865.217	0.0158310
865.295	0.0158195
865.373	0.0158957
865.451	0.0157715
865.530	0.0158934
865.608	0.0157868
865.686	0.0157912
865.764	0.0158760
865.842	0.0159310
865.920	0.0157999
865.998	0.0158803
866.076	0.0158397
866.155	0.0157941
866.233	0.0157524
866.311	0.0158204
866.389	0.0158463
866.467	0.0157768
866.545	0.0158527
866.623	0.0159409
866.701	0.0157520
866.780	0.0157838
866.858	0.0157593
866.936	0.0158320
867.014	0.0157552
867.092	0.0157705
867.170	0.0158319
867.248	0.0157342
867.326	0.0157121
867.405	0.0157671
867.483	0.0158205
867.561	0.0160057
867.639	0.0158447
867.717	0.0158223
867.795	0.0160255
867.873	0.0159368
867.951	0.0160559
868.030	0.0159435
868.108	0.0160689
868.186	0.0160891
868.264	0.0159766
868.342	0.0160294
868.420	0.0159362
868.498	0.0161797
868.576	0.0161880
868.655	0.0160220
868.733	0.0161164
868.811	0.0161882
868.889	0.0160771
868.967	0.0160511
869.045	0.0160774
869.123	0.0160231
869.201	0.0160308
869.280	0.0159935
869.358	0.0160843
869.436	0.0159885
869.514	0.0159815
869.592	0.0162335
869.670	0.0160283
869.748	0.0160294
869.826	0.0160143
869.905	0.0160147
869.983	0.0160026
870.061	0.0160885
870.139	0.0160263
870.217	0.0161810
870.295	0.0160247
870.373	0.0160035
870.451	0.0159801
870.530	0.0160853
870.608	0.0161172
870.686	0.0160483
870.764	0.0158545
870.842	0.0160302
870.920	0.0160372
870.998	0.0158485
871.076	0.0160191
871.155	0.0159113
871.233	0.0159556
871.311	0.0159550
871.389	0.0159077
871.467	0.0157820
871.545	0.0159353
871.623	0.0157570
871.701	0.0158947
871.780	0.0158533
871.858	0.0159146
871.936	0.0158672
872.014	0.0158489
872.092	0.0157858
872.170	0.0158492
872.248	0.0157695
872.326	0.0159857
872.405	0.0159084
872.483	0.0158801
872.561	0.0158971
872.639	0.0159235
872.717	0.0158937
872.795	0.0159352
872.873	0.0159278
872.951	0.0159505
873.030	0.0159713
873.108	0.0158294
873.186	0.0159151
873.264	0.0158447
873.342	0.0158739
873.420	0.0158226
873.498	0.0159763
873.576	0.0159398
873.655	0.0158031
873.733	0.0158207
873.811	0.0158867
873.889	0.0158928
873.967	0.0159399
874.045	0.0158421
874.123	0.0159119
874.201	0.0160216
874.280	0.0158504
874.358	0.0159334
874.436	0.0160439
874.514	0.0160009
874.592	0.0159258
874.670	0.0160145
874.748	0.0159661
874.826	0.0161272
874.905	0.0160638
874.983	0.0160707
875.061	0.0160077
875.139	0.0158747
875.217	0.0160131
875.295	0.0158648
875.373	0.0158765
875.451	0.0157603
875.530	0.0158049
875.608	0.0157821
875.686	0.0158110
875.764	0.0158791
875.842	0.0158279
875.920	0.0158432
875.998	0.0159231
876.076	0.0158871
876.155	0.0158642
876.233	0.0158528
876.311	0.0159258
876.389	0.0159363
876.467	0.0159671
876.545	0.0158906
876.623	0.0159402
876.701	0.0159328
876.780	0.0158766
876.858	0.0160333
876.936	0.0159817
877.014	0.0157784
877.092	0.0158614
877.170	0.0158224
877.248	0.0157496
877.326	0.0158434
877.405	0.0158613
877.483	0.0157140
877.561	0.0157856
877.639	0.0158291
877.717	0.0158981
877.795	0.0157672
877.873	0.0155707
877.951	0.0158380
878.030	0.0158989
878.108	0.0158587
878.186	0.0157500
878.264	0.0158560
878.342	0.0158397
878.420	0.0157207
878.498	0.0159499
878.576	0.0157629
878.655	0.0159057
878.733	0.0159634
878.811	0.0159290
878.889	0.0157579
878.967	0.0158723
879.045	0.0158787
879.123	0.0158555
879.201	0.0158960
879.280	0.0158367
879.358	0.0158429
879.436	0.0159228
879.514	0.0157951
879.592	0.0158749
879.670	0.0158728
879.748	0.0157720
879.826	0.0159279
879.905	0.0159702
879.983	0.0157879
880.061	0.0158901
880.139	0.0158592
880.217	0.0159589
880.295	0.0159374
880.373	0.0159553
880.451	0.0159481
880.530	0.0160413
880.608	0.0160904
880.686	0.0160747
880.764	0.0160439
880.842	0.0160550
880.920	0.0160430
880.998	0.0161751
881.076	0.0160750
881.155	0.0159969
881.233	0.0158973
881.311	0.0160255
881.389	0.0160625
881.467	0.0160902
881.545	0.0160609
881.623	0.0161070
881.701	0.0159677
881.780	0.0158608
881.858	0.0158469
881.936	0.0158562
882.014	0.0158551
882.092	0.0158526
882.170	0.0159175
882.248	0.0158540
882.326	0.0159198
882.405	0.0157524
882.483	0.0157657
882.561	0.0157536
882.639	0.0158799
882.717	0.0157960
882.795	0.0159513
882.873	0.0159132
882.951	0.0158479
883.030	0.0160278
883.108	0.0160023
883.186	0.0158660
883.264	0.0159579
883.342	0.0159386
883.420	0.0158891
883.498	0.0159465
883.576	0.0158797
883.655	0.0159585
883.733	0.0159185
883.811	0.0159657
883.889	0.0160307
883.967	0.0159222
884.045	0.0158276
884.123	0.0160178
884.201	0.0160714
884.280	0.0162150
884.358	0.0160555
884.436	0.0160795
884.514	0.0160946
884.592	0.0161352
884.670	0.0161413
884.748	0.0160168
884.826	0.0159866
884.905	0.0161270
884.983	0.0160956
885.061	0.0162177
885.139	0.0159849
885.217	0.0157934
885.295	0.0158569
885.373	0.0159818
885.451	0.0158368
885.530	0.0157831
885.608	0.0158503
885.686	0.0157421
885.764	0.0156624
885.842	0.0157425
885.920	0.0156348
885.998	0.0157210
886.076	0.0156616
886.155	0.0156762
886.233	0.0157388
886.311	0.0158024
886.389	0.0156615
886.467	0.0156860
886.545	0.0157934
886.623	0.0157359
886.701	0.0157782
886.780	0.0158569
886.858	0.0159524
886.936	0.0158900
887.014	0.0160254
887.092	0.0161083
887.170	0.0161491
887.248	0.0159097
887.326	0.0159777
887.405	0.0160098
887.483	0.0160180
887.561	0.0159888
887.639	0.0160368
887.717	0.0162296
887.795	0.0158747
887.873	0.0158685
887.951	0.0160045
888.030	0.0159737
888.108	0.0159158
888.186	0.0157177
888.264	0.0157909
888.342	0.0157793
888.420	0.0157293
888.498	0.0158796
888.576	0.0159502
888.655	0.0157745
888.733	0.0158878
888.811	0.0160164
888.889	0.0159995
888.967	0.0160613
889.045	0.0160406
889.123	0.0161153
889.201	0.0162072
889.280	0.0162057
889.358	0.0162390
889.436	0.0163247
889.514	0.0162984
889.592	0.0162325
889.670	0.0161318
889.748	0.0160931
889.826	0.0161560
889.905	0.0160635
889.983	0.0159046
890.061	0.0160190
890.139	0.0157787
890.217	0.0157425
890.295	0.0154865
890.373	0.0155891
890.451	0.0154852
890.530	0.0154886
890.608	0.0155575
890.686	0.0156072
890.764	0.0154525
890.842	0.0153919
890.920	0.0155093
890.998	0.0155054
891.076	0.0155685
891.155	0.0156450
891.233	0.0157841
891.311	0.0157371
891.389	0.0159486
891.467	0.0160828
891.545	0.0161814
891.623	0.0162151
891.701	0.0162444
891.780	0.0163053
891.858	0.0161997
891.936	0.0163300
892.014	0.0161536
892.092	0.0163737
892.170	0.0163406
892.248	0.0163592
892.326	0.0163064
892.405	0.0162313
892.483	0.0160512
892.561	0.0159536
892.639	0.0158930
892.717	0.0157718
892.795	0.0156496
892.873	0.0156606
892.951	0.0157303
893.030	0.0155891
893.108	0.0156209
893.186	0.0155740
893.264	0.0155643
893.342	0.0155436
893.420	0.0156892
893.498	0.0156673
893.576	0.0157618
893.655	0.0157088
893.733	0.0158917
893.811	0.0159667
893.889	0.0161057
893.967	0.0159901
894.045	0.0161060
894.123	0.0161396
894.201	0.0161162
894.280	0.0161273
894.358	0.0161749
894.436	0.0161903
894.514	0.0162209
894.592	0.0163225
894.670	0.0163263
894.748	0.0162736
894.826	0.0163303
894.905	0.0161466
894.983	0.0161778
895.061	0.0162470
895.139	0.0162955
895.217	0.0161808
895.295	0.0160022
895.373	0.0160376
895.451	0.0158496
895.530	0.0158385
895.608	0.0158125
895.686	0.0156748
895.764	0.0157157
895.842	0.0157155
895.920	0.0156718
895.998	0.0156293
896.076	0.0155613
896.155	0.0156556
896.233	0.0156737
896.311	0.0155479
896.389	0.0155863
896.467	0.0156657
896.545	0.0156987
896.623	0.0157193
896.701	0.0158230
896.780	0.0159369
896.858	0.0159611
896.936	0.0158515
897.014	0.0159444
897.092	0.0159697
897.170	0.0159579
897.248	0.0159399
897.326	0.0161320
897.405	0.0160793
897.483	0.0162125
897.561	0.0161199
897.639	0.0159101
897.717	0.0159697
897.795	0.0161452
897.873	0.0160370
897.951	0.0159675
898.030	0.0159585
898.108	0.0157666
898.186	0.0157561
898.264	0.0157396
898.342	0.0158111
898.420	0.0157730
898.498	0.0156845
898.576	0.0156262
898.655	0.0157487
898.733	0.0154684
898.811	0.0155737
898.889	0.0155922
898.967	0.0156974
899.045	0.0156678
899.123	0.0158466
899.201	0.0157894
899.280	0.0156955
899.358	0.0158200
899.436	0.0159180
899.514	0.0158572
899.592	0.0158315
899.670	0.0159230
899.748	0.0160451
899.826	0.0161763
899.905	0.0161034
899.983	0.0161775
900.061	0.0162460
900.139	0.0164806
900.217	0.0162344
900.295	0.0163524
900.373	0.0162444
900.451	0.0163535
900.530	0.0163048
900.608	0.0163277
900.686	0.0163612
900.764	0.0162962
900.842	0.0162231
900.920	0.0160071
900.998	0.0160687
901.076	0.0159168
901.155	0.0160027
901.233	0.0157648
901.311	0.0157230
901.389	0.0156565
901.467	0.0155464
901.545	0.0156499
901.623	0.0157108
901.701	0.0154819
901.780	0.0155171
901.858	0.0154832
901.936	0.0153456
902.014	0.0155405
902.092	0.0155710
902.170	0.0154972
902.248	0.0155409
902.326	0.0157695
902.405	0.0157016
902.483	0.0155231
902.561	0.0156962
902.639	0.0157985
902.717	0.0158922
902.795	0.0159462
902.873	0.0160639
902.951	0.0161354
903.030	0.0160471
903.108	0.0161263
903.186	0.0161868
903.264	0.0162233
903.342	0.0161580
903.420	0.0162769
903.498	0.0164044
903.576	0.0161557
903.655	0.0162119
903.733	0.0161559
903.811	0.0160953
903.889	0.0160323
903.967	0.0160071
904.045	0.0161819
904.123	0.0159973
904.201	0.0159157
904.280	0.0159837
904.358	0.0159593
904.436	0.0158680
904.514	0.0159398
904.592	0.0159294
904.670	0.0159006
904.748	0.0160775
904.826	0.0159316
904.905	0.0158613
904.983	0.0159406
905.061	0.0159634
905.139	0.0159677
905.217	0.0159209
905.295	0.0159635
905.373	0.0158009
905.451	0.0158381
905.530	0.0157863
905.608	0.0158305
905.686	0.0158108
905.764	0.0159025
905.842	0.0160218
905.920	0.0158337
905.998	0.0158488
906.076	0.0158627
906.155	0.0160693
906.233	0.0159447
906.311	0.0158584
906.389	0.0158246
906.467	0.0159818
906.545	0.0159299
906.623	0.0157452
906.701	0.0158340
906.780	0.0158975
906.858	0.0156484
906.936	0.0156782
907.014	0.0157090
907.092	0.0157336
907.170	0.0158214
907.248	0.0159000
907.326	0.0157658
907.405	0.0158191
907.483	0.0158309
907.561	0.0157972
907.639	0.0158791
907.717	0.0160076
907.795	0.0158630
907.873	0.0159267
907.951	0.0160318
908.030	0.0160199
908.108	0.0159914
908.186	0.0159937
908.264	0.0160655
908.342	0.0161174
908.420	0.0160918
908.498	0.0161004
908.576	0.0161408
908.655	0.0161286
908.733	0.0161996
908.811	0.0161473
908.889	0.0161848
908.967	0.0162042
909.045	0.0161810
909.123	0.0161938
909.201	0.0161755
909.280	0.0160678
909.358	0.0161393
909.436	0.0161167
909.514	0.0159438
909.592	0.0159698
909.670	0.0158700
909.748	0.0158951
909.826	0.0158095
909.905	0.0159279
909.983	0.0159557
910.061	0.0157339
910.139	0.0157052
910.217	0.0157196
910.295	0.0156435
910.373	0.0158314
910.451	0.0158242
910.530	0.0157388
910.608	0.0157513
910.686	0.0157690
910.764	0.0157342
910.842	0.0156628
910.920	0.0157776
910.998	0.0157375
911.076	0.0158121
911.155	0.0157705
911.233	0.0156828
911.311	0.0158346
911.389	0.0159019
911.467	0.0157854
911.545	0.0158021
911.623	0.0157340
911.701	0.0156876
911.780	0.0158112
911.858	0.0157156
911.936	0.0157796
912.014	0.0158095
912.092	0.0158537
912.170	0.0158805
912.248	0.0157516
912.326	0.0158739
912.405	0.0158932
912.483	0.0159055
912.561	0.0158303
912.639	0.0158722
912.717	0.0161211
912.795	0.0161302
912.873	0.0160244
912.951	0.0160950
913.030	0.0161262
913.108	0.0160917
913.186	0.0161123
913.264	0.0161563
913.342	0.0161402
913.420	0.0161977
913.498	0.0161842
913.576	0.0162117
913.655	0.0161017
913.733	0.0160168
913.811	0.0161565
913.889	0.0160491
913.967	0.0161900
914.045	0.0161268
914.123	0.0160083
914.201	0.0159154
914.280	0.0159321
914.358	0.0159158
914.436	0.0156857
914.514	0.0158085
914.592	0.0158134
914.670	0.0157961
914.748	0.0157285
914.826	0.0158739
914.905	0.0159487
914.983	0.0157290
915.061	0.0157209
915.139	0.0158331
915.217	0.0157900
915.295	0.0158153
915.373	0.0157257
915.451	0.0158443
915.530	0.0158971
915.608	0.0158925
915.686	0.0156861
915.764	0.0158363
915.842	0.0158703
915.920	0.0159280
915.998	0.0157607
916.076	0.0159149
916.155	0.0158864
916.233	0.0159084
916.311	0.0158324
916.389	0.0158865
916.467	0.0158149
916.545	0.0157722
916.623	0.0158643
916.701	0.0158375
916.780	0.0156683
916.858	0.0157770
916.936	0.0158884
917.014	0.0157873
917.092	0.0158388
917.170	0.0156155
917.248	0.0157657
917.326	0.0159446
917.405	0.0158549
917.483	0.0156939
917.561	0.0157305
917.639	0.0157826
917.717	0.0159624
917.795	0.0157256
917.873	0.0158646
917.951	0.0160691
918.030	0.0159516
918.108	0.0159737
918.186	0.0158953
918.264	0.0160660
918.342	0.0159964
918.420	0.0160529
918.498	0.0159818
918.576	0.0159412
918.655	0.0160210
918.733	0.0160706
918.811	0.0161931
918.889	0.0160927
918.967	0.0160169
919.045	0.0160429
919.123	0.0160883
919.201	0.0159932
919.280	0.0159716
919.358	0.0158590
919.436	0.0159998
919.514	0.0160616
919.592	0.0161639
919.670	0.0159848
919.748	0.0158910
919.826	0.0158795
919.905	0.0160032
919.983	0.0160059
920.061	0.0159800
920.139	0.0159414
920.217	0.0159108
920.295	0.0158643
920.373	0.0160640
920.451	0.0159740
920.530	0.0160387
920.608	0.0160616
920.686	0.0159039
920.764	0.0161198
920.842	0.0160828
920.920	0.0159902
920.998	0.0159861
921.076	0.0160538
921.155	0.0160804
921.233	0.0160366
921.311	0.0158831
921.389	0.0160970
921.467	0.0160963
921.545	0.0159403
921.623	0.0159013
921.701	0.0159808
921.780	0.0158989
921.858	0.0158725
921.936	0.0158028
922.014	0.0159303
922.092	0.0157548
922.170	0.0156367
922.248	0.0157311
922.326	0.0156718
922.405	0.0158157
922.483	0.0158089
922.561	0.0157687
922.639	0.0157697
922.717	0.0157273
922.795	0.0159263
922.873	0.0159322
922.951	0.0157651
923.030	0.0157331
923.108	0.0160143
923.186	0.0159839
923.264	0.0159029
923.342	0.0160238
923.420	0.0159698
923.498	0.0159521
923.576	0.0160842
923.655	0.0160873
923.733	0.0159767
923.811	0.0160607
923.889	0.0160054
923.967	0.0158735
924.045	0.0159753
924.123	0.0161478
924.201	0.0159452
924.280	0.0160640
924.358	0.0159497
924.436	0.0158569
924.514	0.0158230
924.592	0.0159493
924.670	0.0158539
924.748	0.0159068
924.826	0.0159106
924.905	0.0157562
924.983	0.0158588
925.061	0.0160450
925.139	0.0159367
925.217	0.0160558
925.295	0.0160384
925.373	0.0161264
925.451	0.0161475
925.530	0.0162510
925.608	0.0161845
925.686	0.0161675
925.764	0.0160918
925.842	0.0160581
925.920	0.0161279
925.998	0.0162666
926.076	0.0162132
926.155	0.0161735
926.233	0.0162008
926.311	0.0161958
926.389	0.0161114
926.467	0.0160538
926.545	0.0161431
926.623	0.0159319
926.701	0.0160844
926.780	0.0162054
926.858	0.0160852
926.936	0.0159709
927.014	0.0159221
927.092	0.0157952
927.170	0.0157680
927.248	0.0159178
927.326	0.0157410
927.405	0.0157747
927.483	0.0157552
927.561	0.0156838
927.639	0.0158102
927.717	0.0157144
927.795	0.0157519
927.873	0.0156105
927.951	0.0157011
928.030	0.0156484
928.108	0.0157553
928.186	0.0157525
928.264	0.0157234
928.342	0.0157744
928.420	0.0158438
928.498	0.0157996
928.576	0.0158123
928.655	0.0159100
928.733	0.0159827
928.811	0.0157692
928.889	0.0159361
928.967	0.0159425
929.045	0.0160466
929.123	0.0160282
929.201	0.0159520
929.280	0.0159773
929.358	0.0160123
929.436	0.0160916
929.514	0.0161751
929.592	0.0160643
929.670	0.0159050
929.748	0.0160630
929.826	0.0159656
929.905	0.0160042
929.983	0.0161430
930.061	0.0159543
930.139	0.0159536
930.217	0.0159309
930.295	0.0159510
930.373	0.0158530
930.451	0.0159725
930.530	0.0158694
930.608	0.0158278
930.686	0.0160636
930.764	0.0159007
930.842	0.0159191
930.920	0.0159099
930.998	0.0160513
931.076	0.0160154
931.155	0.0159752
931.233	0.0160206
931.311	0.0159518
931.389	0.0161935
931.467	0.0161610
931.545	0.0161326
931.623	0.0162160
931.701	0.0162238
931.780	0.0161044
931.858	0.0162373
931.936	0.0161134
932.014	0.0160921
932.092	0.0161225
932.170	0.0162966
932.248	0.0162659
932.326	0.0161548
932.405	0.0160920
932.483	0.0160725
932.561	0.0160200
932.639	0.0159084
932.717	0.0159957
932.795	0.0158495
932.873	0.0158491
932.951	0.0158619
933.030	0.0158430
933.108	0.0157291
933.186	0.0156619
933.264	0.0158300
933.342	0.0157304
933.420	0.0156341
933.498	0.0156673
933.576	0.0157426
933.655	0.0156373
933.733	0.0156931
933.811	0.0156219
933.889	0.0158064
933.967	0.0156302
934.045	0.0155949
934.123	0.0157520
934.201	0.0158405
934.280	0.0157542
934.358	0.0158244
934.436	0.0157649
934.514	0.0156908
934.592	0.0158155
934.670	0.0157529
934.748	0.0157865
934.826	0.0157570
934.905	0.0159347
934.983	0.0159154
935.061	0.0158167
935.139	0.0158205
935.217	0.0157170
935.295	0.0158308
935.373	0.0156845
935.451	0.0157893
935.530	0.0158129
935.608	0.0157508
935.686	0.0158167
935.764	0.0157011
935.842	0.0157616
935.920	0.0157790
935.998	0.0157996
936.076	0.0157716
936.155	0.0156815
936.233	0.0157622
936.311	0.0159872
936.389	0.0159314
936.467	0.0159270
936.545	0.0158109
936.623	0.0161070
936.701	0.0160119
936.780	0.0160783
936.858	0.0162370
936.936	0.0162024
937.014	0.0163152
937.092	0.0161564
937.170	0.0161698
937.248	0.0161903
937.326	0.0163470
937.405	0.0162540
937.483	0.0161683
937.561	0.0162232
937.639	0.0161213
937.717	0.0161089
937.795	0.0159578
937.873	0.0160209
937.951	0.0161883
938.030	0.0160401
938.108	0.0159927
938.186	0.0158184
938.264	0.0158524
938.342	0.0157323
938.420	0.0158199
938.498	0.0157523
938.576	0.0156322
938.655	0.0157757
938.733	0.0157595
938.811	0.0159018
938.889	0.0157268
938.967	0.0157279
939.045	0.0156325
939.123	0.0157624
939.201	0.0157141
939.280	0.0158801
939.358	0.0157843
939.436	0.0157339
939.514	0.0158137
939.592	0.0158762
939.670	0.0157189
939.748	0.0157739
939.826	0.0157275
939.905	0.0158118
939.983	0.0158168
940.061	0.0157979
940.139	0.0159834
940.217	0.0158191
940.295	0.0158421
940.373	0.0159383
940.451	0.0159032
940.530	0.0159061
940.608	0.0160835
940.686	0.0159093
940.764	0.0159303
940.842	0.0159190
940.920	0.0159406
940.998	0.0160155
941.076	0.0158844
941.155	0.0159361
941.233	0.0159557
941.311	0.0157736
941.389	0.0158585
941.467	0.0160572
941.545	0.0159846
941.623	0.0158219
941.701	0.0160609
941.780	0.0159675
941.858	0.0160624
941.936	0.0161281
942.014	0.0160085
942.092	0.0160367
942.170	0.0160574
942.248	0.0160414
942.326	0.0161152
942.405	0.0160507
942.483	0.0161691
942.561	0.0161388
942.639	0.0161692
942.717	0.0161127
942.795	0.0161523
942.873	0.0162323
942.951	0.0161697
943.030	0.0161597
943.108	0.0162326
943.186	0.0160506
943.264	0.0162006
943.342	0.0160704
943.420	0.0160331
943.498	0.0159974
943.576	0.0160020
943.655	0.0159583
943.733	0.0159390
943.811	0.0158650
943.889	0.0158015
943.967	0.0158733
944.045	0.0159668
944.123	0.0157490
944.201	0.0156609
944.280	0.0157611
944.358	0.0157974
944.436	0.0156919
944.514	0.0157823
944.592	0.0157066
944.670	0.0156123
944.748	0.0156676
944.826	0.0157297
944.905	0.0157600
944.983	0.0155878
945.061	0.0156984
945.139	0.0157764
945.217	0.0156976
945.295	0.0158794
945.373	0.0157130
945.451	0.0158466
945.530	0.0157694
945.608	0.0156686
945.686	0.0157034
945.764	0.0159190
945.842	0.0156949
945.920	0.0157718
945.998	0.0159254
946.076	0.0158588
946.155	0.0158159
946.233	0.0157753
946.311	0.0159390
946.389	0.0157870
946.467	0.0158871
946.545	0.0158681
946.623	0.0157727
946.701	0.0158994
946.780	0.0160143
946.858	0.0159594
946.936	0.0159194
947.014	0.0159537
947.092	0.0161411
947.170	0.0160860
947.248	0.0160900
947.326	0.0160745
947.405	0.0160815
947.483	0.0161801
947.561	0.0162560
947.639	0.0162480
947.717	0.0162163
947.795	0.0164362
947.873	0.0164334
947.951	0.0164694
948.030	0.0164114
948.108	0.0164646
948.186	0.0164659
948.264	0.0163679
948.342	0.0164832
948.420	0.0163104
948.498	0.0162804
948.576	0.0161497
948.655	0.0162605
948.733	0.0161443
948.811	0.0161415
948.889	0.0160035
948.967	0.0161516
949.045	0.0160430
949.123	0.0158447
949.201	0.0157190
949.280	0.0158599
949.358	0.0157335
949.436	0.0156818
949.514	0.0157657
949.592	0.0156024
949.670	0.0155819
949.748	0.0155085
949.826	0.0155879
949.905	0.0157293
949.983	0.0156033
950.061	0.0155542
950.139	0.0157225
950.217	0.0156496
950.295	0.0157406
950.373	0.0157632
950.451	0.0157975
950.530	0.0158543
950.608	0.0158707
950.686	0.0158190
950.764	0.0158901
950.842	0.0159396
950.920	0.0159671
950.998	0.0159119
951.076	0.0158665
951.155	0.0159293
951.233	0.0160487
951.311	0.0158501
951.389	0.0158555
951.467	0.0159450
951.545	0.0157449
951.623	0.0159842
951.701	0.0158280
951.780	0.0158165
951.858	0.0158672
951.936	0.0159242
952.014	0.0158395
952.092	0.0158543
952.170	0.0158407
952.248	0.0159145
952.326	0.0160101
952.405	0.0158817
952.483	0.0158947
952.561	0.0160500
952.639	0.0158923
952.717	0.0160224
952.795	0.0160614
952.873	0.0160345
952.951	0.0160165
953.030	0.0161194
953.108	0.0161632
953.186	0.0161493
953.264	0.0163289
953.342	0.0161987
953.420	0.0162495
953.498	0.0161744
953.576	0.0161817
953.655	0.0162385
953.733	0.0162279
953.811	0.0162642
953.889	0.0161771
953.967	0.0161796
954.045	0.0161642
954.123	0.0161452
954.201	0.0161069
954.280	0.0161170
954.358	0.0160616
954.436	0.0161168
954.514	0.0159360
954.592	0.0157751
954.670	0.0158607
954.748	0.0159632
954.826	0.0159055
954.905	0.0158090
954.983	0.0157201
955.061	0.0155672
955.139	0.0157745
955.217	0.0156512
955.295	0.0155981
955.373	0.0156010
955.451	0.0157368
955.530	0.0157738
955.608	0.0156861
955.686	0.0157236
955.764	0.0155495
955.842	0.0156436
955.920	0.0158128
955.998	0.0159055
956.076	0.0158057
956.155	0.0158854
956.233	0.0157397
956.311	0.0157943
956.389	0.0158946
956.467	0.0158826
956.545	0.0158231
956.623	0.0158524
956.701	0.0159573
956.780	0.0158071
956.858	0.0158006
956.936	0.0158920
957.014	0.0158956
957.092	0.0158878
957.170	0.0158026
957.248	0.0159024
957.326	0.0158507
957.405	0.0157516
957.483	0.0158152
957.561	0.0159221
957.639	0.0157889
957.717	0.0157837
957.795	0.0157827
957.873	0.0159346
957.951	0.0158967
958.030	0.0159549
958.108	0.0159985
958.186	0.0158240
958.264	0.0161703
958.342	0.0159756
958.420	0.0160294
958.498	0.0160663
958.576	0.0160742
958.655	0.0160481
958.733	0.0160388
958.811	0.0160540
958.889	0.0160815
958.967	0.0162403
959.045	0.0160743
959.123	0.0161282
959.201	0.0162755
959.280	0.0161386
959.358	0.0159675
959.436	0.0159548
959.514	0.0160760
959.592	0.0161482
959.670	0.0161868
959.748	0.0159638
959.826	0.0160059
959.905	0.0159086
