05/17/2022	16:46:53	Ver.	4.1	UNKNOWN
Optical Delay	639.982744	Delta X		0.078125	Sweeps	1	Scan Rate	0/0
Coordinates	Axis 1	NaN	Axis 2	NaN	Axis 3	NaN	Axis 4	NaN	Axis 5	NaN	Axis 6	0.000000
TX Power	0.000000	RX Power	0.000000

639.983	0.0157029
640.061	0.0157803
640.139	0.0156639
640.217	0.0156876
640.295	0.0155836
640.373	0.0157863
640.451	0.0157195
640.530	0.0156535
640.608	0.0156837
640.686	0.0156402
640.764	0.0157784
640.842	0.0156603
640.920	0.0157137
640.998	0.0156924
641.076	0.0157866
641.155	0.0157984
641.233	0.0156461
641.311	0.0155391
641.389	0.0157688
641.467	0.0157082
641.545	0.0156969
641.623	0.0156637
641.701	0.0158427
641.780	0.0157009
641.858	0.0157036
641.936	0.0157430
642.014	0.0155451
642.092	0.0156561
642.170	0.0155836
642.248	0.0156571
642.326	0.0157155
642.405	0.0156843
642.483	0.0157146
642.561	0.0156315
642.639	0.0156355
642.717	0.0156552
642.795	0.0157653
642.873	0.0156400
642.951	0.0156095
643.030	0.0157613
643.108	0.0155585
643.186	0.0156609
643.264	0.0156355
643.342	0.0156308
643.420	0.0155952
643.498	0.0155248
643.576	0.0156036
643.655	0.0156392
643.733	0.0156914
643.811	0.0157507
643.889	0.0156965
643.967	0.0157172
644.045	0.0156693
644.123	0.0156988
644.201	0.0157103
644.280	0.0157445
644.358	0.0156566
644.436	0.0154556
644.514	0.0156939
644.592	0.0157526
644.670	0.0157253
644.748	0.0155948
644.826	0.0157140
644.905	0.0157586
644.983	0.0156091
645.061	0.0155569
645.139	0.0154892
645.217	0.0157127
645.295	0.0155849
645.373	0.0157111
645.451	0.0156491
645.530	0.0155955
645.608	0.0157582
645.686	0.0156889
645.764	0.0156322
645.842	0.0156750
645.920	0.0156830
645.998	0.0156041
646.076	0.0155801
646.155	0.0157258
646.233	0.0157521
646.311	0.0157159
646.389	0.0156505
646.467	0.0155865
646.545	0.0156367
646.623	0.0156751
646.701	0.0157105
646.780	0.0155953
646.858	0.0155610
646.936	0.0156412
647.014	0.0156294
647.092	0.0156561
647.170	0.0156110
647.248	0.0157226
647.326	0.0157359
647.405	0.0156634
647.483	0.0157074
647.561	0.0156398
647.639	0.0155675
647.717	0.0156810
647.795	0.0156626
647.873	0.0157114
647.951	0.0157998
648.030	0.0156998
648.108	0.0157491
648.186	0.0157485
648.264	0.0156400
648.342	0.0156805
648.420	0.0156867
648.498	0.0157018
648.576	0.0157048
648.655	0.0157405
648.733	0.0156734
648.811	0.0156532
648.889	0.0156998
648.967	0.0157249
649.045	0.0157037
649.123	0.0156602
649.201	0.0156792
649.280	0.0157767
649.358	0.0157269
649.436	0.0157232
649.514	0.0157149
649.592	0.0156960
649.670	0.0156025
649.748	0.0155967
649.826	0.0157246
649.905	0.0156641
649.983	0.0156902
650.061	0.0157336
650.139	0.0157694
650.217	0.0156391
650.295	0.0155370
650.373	0.0156704
650.451	0.0157497
650.530	0.0156768
650.608	0.0157388
650.686	0.0156798
650.764	0.0157235
650.842	0.0156503
650.920	0.0157835
650.998	0.0156674
651.076	0.0156161
651.155	0.0157157
651.233	0.0156445
651.311	0.0156332
651.389	0.0155833
651.467	0.0156368
651.545	0.0157337
651.623	0.0156413
651.701	0.0156484
651.780	0.0156146
651.858	0.0156586
651.936	0.0156914
652.014	0.0156857
652.092	0.0156415
652.170	0.0155857
652.248	0.0157879
652.326	0.0156080
652.405	0.0155600
652.483	0.0157123
652.561	0.0156310
652.639	0.0155632
652.717	0.0158047
652.795	0.0156098
652.873	0.0156450
652.951	0.0155975
653.030	0.0156445
653.108	0.0156409
653.186	0.0157228
653.264	0.0155859
653.342	0.0155680
653.420	0.0156841
653.498	0.0156562
653.576	0.0156523
653.655	0.0158064
653.733	0.0156259
653.811	0.0156286
653.889	0.0155424
653.967	0.0156103
654.045	0.0154833
654.123	0.0155618
654.201	0.0156328
654.280	0.0156480
654.358	0.0156541
654.436	0.0156747
654.514	0.0155724
654.592	0.0154659
654.670	0.0156636
654.748	0.0155677
654.826	0.0157128
654.905	0.0155113
654.983	0.0155169
655.061	0.0156215
655.139	0.0156248
655.217	0.0156248
655.295	0.0156696
655.373	0.0155318
655.451	0.0156626
655.530	0.0157102
655.608	0.0156026
655.686	0.0156578
655.764	0.0155125
655.842	0.0156721
655.920	0.0157259
655.998	0.0156705
656.076	0.0155671
656.155	0.0155414
656.233	0.0155972
656.311	0.0156656
656.389	0.0155173
656.467	0.0156205
656.545	0.0157915
656.623	0.0156275
656.701	0.0155558
656.780	0.0156960
656.858	0.0155376
656.936	0.0155994
657.014	0.0157471
657.092	0.0155784
657.170	0.0156314
657.248	0.0156387
657.326	0.0157412
657.405	0.0157546
657.483	0.0157772
657.561	0.0156990
657.639	0.0156504
657.717	0.0156553
657.795	0.0156648
657.873	0.0157465
657.951	0.0155347
658.030	0.0155839
658.108	0.0155705
658.186	0.0155893
658.264	0.0157390
658.342	0.0156763
658.420	0.0155814
658.498	0.0155696
658.576	0.0156212
658.655	0.0158429
658.733	0.0155349
658.811	0.0155814
658.889	0.0157417
658.967	0.0157159
659.045	0.0158185
659.123	0.0156647
659.201	0.0156110
659.280	0.0155809
659.358	0.0157697
659.436	0.0156133
659.514	0.0156649
659.592	0.0156910
659.670	0.0156696
659.748	0.0156573
659.826	0.0156690
659.905	0.0156683
659.983	0.0155678
660.061	0.0156387
660.139	0.0157913
660.217	0.0156464
660.295	0.0156264
660.373	0.0156588
660.451	0.0156184
660.530	0.0157124
660.608	0.0157630
660.686	0.0155711
660.764	0.0156942
660.842	0.0156757
660.920	0.0157506
660.998	0.0155460
661.076	0.0157330
661.155	0.0156948
661.233	0.0156712
661.311	0.0156394
661.389	0.0156261
661.467	0.0156487
661.545	0.0157047
661.623	0.0156534
661.701	0.0156108
661.780	0.0156152
661.858	0.0156386
661.936	0.0157362
662.014	0.0155975
662.092	0.0156453
662.170	0.0155869
662.248	0.0155746
662.326	0.0155915
662.405	0.0156496
662.483	0.0155483
662.561	0.0156355
662.639	0.0156077
662.717	0.0154858
662.795	0.0156578
662.873	0.0158046
662.951	0.0157653
663.030	0.0157693
663.108	0.0156381
663.186	0.0156368
663.264	0.0156751
663.342	0.0157050
663.420	0.0156404
663.498	0.0155766
663.576	0.0156064
663.655	0.0156758
663.733	0.0156265
663.811	0.0156690
663.889	0.0156516
663.967	0.0157419
664.045	0.0156464
664.123	0.0156685
664.201	0.0155798
664.280	0.0156293
664.358	0.0157229
664.436	0.0157938
664.514	0.0156698
664.592	0.0156314
664.670	0.0156268
664.748	0.0156960
664.826	0.0157637
664.905	0.0156838
664.983	0.0157552
665.061	0.0156624
665.139	0.0157014
665.217	0.0155682
665.295	0.0157067
665.373	0.0156980
665.451	0.0156299
665.530	0.0157893
665.608	0.0156696
665.686	0.0158817
665.764	0.0157698
665.842	0.0158223
665.920	0.0156769
665.998	0.0156026
666.076	0.0156321
666.155	0.0156010
666.233	0.0155912
666.311	0.0156764
666.389	0.0157197
666.467	0.0158112
666.545	0.0157291
666.623	0.0157040
666.701	0.0156693
666.780	0.0156059
666.858	0.0157542
666.936	0.0156617
667.014	0.0156847
667.092	0.0156712
667.170	0.0156107
667.248	0.0156574
667.326	0.0156790
667.405	0.0156387
667.483	0.0157024
667.561	0.0157699
667.639	0.0155576
667.717	0.0156676
667.795	0.0156865
667.873	0.0157763
667.951	0.0157348
668.030	0.0156351
668.108	0.0156404
668.186	0.0156651
668.264	0.0156606
668.342	0.0157286
668.420	0.0160143
668.498	0.0157307
668.576	0.0155946
668.655	0.0157417
668.733	0.0156999
668.811	0.0155908
668.889	0.0156978
668.967	0.0157133
669.045	0.0157930
669.123	0.0156919
669.201	0.0157176
669.280	0.0156609
669.358	0.0156313
669.436	0.0157150
669.514	0.0156802
669.592	0.0157214
669.670	0.0157362
669.748	0.0157083
669.826	0.0157808
669.905	0.0158257
669.983	0.0156857
670.061	0.0158672
670.139	0.0158833
670.217	0.0157935
670.295	0.0159619
670.373	0.0158378
670.451	0.0158263
670.530	0.0158143
670.608	0.0157543
670.686	0.0158246
670.764	0.0157211
670.842	0.0156542
670.920	0.0156490
670.998	0.0156700
671.076	0.0155815
671.155	0.0156197
671.233	0.0155170
671.311	0.0154052
671.389	0.0155929
671.467	0.0155237
671.545	0.0155690
671.623	0.0155862
671.701	0.0156446
671.780	0.0156449
671.858	0.0155942
671.936	0.0156786
672.014	0.0157216
672.092	0.0157661
672.170	0.0157371
672.248	0.0159017
672.326	0.0158557
672.405	0.0159556
672.483	0.0160571
672.561	0.0160259
672.639	0.0159314
672.717	0.0159637
672.795	0.0158302
672.873	0.0158009
672.951	0.0157922
673.030	0.0158501
673.108	0.0158456
673.186	0.0156603
673.264	0.0157219
673.342	0.0154675
673.420	0.0156197
673.498	0.0154935
673.576	0.0154665
673.655	0.0153931
673.733	0.0153616
673.811	0.0153795
673.889	0.0154358
673.967	0.0154322
674.045	0.0154281
674.123	0.0154253
674.201	0.0155732
674.280	0.0156307
674.358	0.0156533
674.436	0.0157192
674.514	0.0159398
674.592	0.0159590
674.670	0.0159576
674.748	0.0158142
674.826	0.0160517
674.905	0.0160779
674.983	0.0162566
675.061	0.0162321
675.139	0.0160217
675.217	0.0160686
675.295	0.0158708
675.373	0.0158575
675.451	0.0157025
675.530	0.0158623
675.608	0.0155554
675.686	0.0154964
675.764	0.0154967
675.842	0.0154446
675.920	0.0152792
675.998	0.0152801
676.076	0.0152991
676.155	0.0151166
676.233	0.0151389
676.311	0.0152831
676.389	0.0152832
676.467	0.0155217
676.545	0.0154443
676.623	0.0155261
676.701	0.0155468
676.780	0.0156892
676.858	0.0159245
676.936	0.0158363
677.014	0.0157871
677.092	0.0159747
677.170	0.0159053
677.248	0.0159842
677.326	0.0161418
677.405	0.0159673
677.483	0.0159023
677.561	0.0159838
677.639	0.0160576
677.717	0.0158085
677.795	0.0159103
677.873	0.0157701
677.951	0.0157697
678.030	0.0155523
678.108	0.0156696
678.186	0.0155458
678.264	0.0154975
678.342	0.0154986
678.420	0.0152982
678.498	0.0154162
678.576	0.0153597
678.655	0.0152684
678.733	0.0153333
678.811	0.0153539
678.889	0.0152243
678.967	0.0152361
679.045	0.0153286
679.123	0.0154128
679.201	0.0156356
679.280	0.0156530
679.358	0.0158293
679.436	0.0159107
679.514	0.0159039
679.592	0.0159151
679.670	0.0159856
679.748	0.0161111
679.826	0.0161092
679.905	0.0159895
679.983	0.0159280
680.061	0.0160809
680.139	0.0159176
680.217	0.0158836
680.295	0.0158723
680.373	0.0156205
680.451	0.0157250
680.530	0.0156382
680.608	0.0156162
680.686	0.0156493
680.764	0.0155434
680.842	0.0154847
680.920	0.0155674
680.998	0.0154161
681.076	0.0153374
681.155	0.0152841
681.233	0.0152611
681.311	0.0149625
681.389	0.0151011
681.467	0.0152198
681.545	0.0153511
681.623	0.0152985
681.701	0.0153539
681.780	0.0155960
681.858	0.0156746
681.936	0.0155525
682.014	0.0157785
682.092	0.0159151
682.170	0.0160672
682.248	0.0160625
682.326	0.0160222
682.405	0.0159415
682.483	0.0160821
682.561	0.0160969
682.639	0.0161415
682.717	0.0161916
682.795	0.0162186
682.873	0.0161086
682.951	0.0161468
683.030	0.0161720
683.108	0.0161594
683.186	0.0159694
683.264	0.0159656
683.342	0.0157774
683.420	0.0157022
683.498	0.0156699
683.576	0.0155112
683.655	0.0152990
683.733	0.0153488
683.811	0.0153331
683.889	0.0153146
683.967	0.0153031
684.045	0.0154203
684.123	0.0153925
684.201	0.0154175
684.280	0.0154405
684.358	0.0154740
684.436	0.0154570
684.514	0.0155137
684.592	0.0153622
684.670	0.0154340
684.748	0.0155386
684.826	0.0156282
684.905	0.0155650
684.983	0.0154408
685.061	0.0154169
685.139	0.0154202
685.217	0.0155345
685.295	0.0156038
685.373	0.0153838
685.451	0.0152744
685.530	0.0154676
685.608	0.0154533
685.686	0.0154866
685.764	0.0156182
685.842	0.0156651
685.920	0.0157166
685.998	0.0157866
686.076	0.0158734
686.155	0.0158123
686.233	0.0159772
686.311	0.0158225
686.389	0.0159349
686.467	0.0159477
686.545	0.0158715
686.623	0.0159042
686.701	0.0159227
686.780	0.0159760
686.858	0.0161201
686.936	0.0161205
687.014	0.0160215
687.092	0.0160621
687.170	0.0161028
687.248	0.0160359
687.326	0.0159420
687.405	0.0160707
687.483	0.0160870
687.561	0.0160269
687.639	0.0160978
687.717	0.0159840
687.795	0.0159103
687.873	0.0159249
687.951	0.0159993
688.030	0.0158654
688.108	0.0157411
688.186	0.0157378
688.264	0.0157629
688.342	0.0156546
688.420	0.0156969
688.498	0.0157257
688.576	0.0155733
688.655	0.0156071
688.733	0.0155736
688.811	0.0157013
688.889	0.0156699
688.967	0.0157068
689.045	0.0157623
689.123	0.0159102
689.201	0.0158142
689.280	0.0158645
689.358	0.0158091
689.436	0.0157035
689.514	0.0158768
689.592	0.0158176
689.670	0.0157048
689.748	0.0155988
689.826	0.0154330
689.905	0.0154465
689.983	0.0153487
690.061	0.0153318
690.139	0.0150837
690.217	0.0150320
690.295	0.0149768
690.373	0.0148740
690.451	0.0148726
690.530	0.0149780
690.608	0.0149287
690.686	0.0151498
690.764	0.0151180
690.842	0.0155078
690.920	0.0156257
690.998	0.0156071
691.076	0.0160126
691.155	0.0162412
691.233	0.0162834
691.311	0.0164864
691.389	0.0167133
691.467	0.0168840
691.545	0.0170483
691.623	0.0172157
691.701	0.0172768
691.780	0.0171759
691.858	0.0174134
691.936	0.0172784
692.014	0.0172651
692.092	0.0173256
692.170	0.0171780
692.248	0.0170612
692.326	0.0170585
692.405	0.0168528
692.483	0.0166229
692.561	0.0165462
692.639	0.0164185
692.717	0.0162272
692.795	0.0159544
692.873	0.0159172
692.951	0.0157520
693.030	0.0155527
693.108	0.0153004
693.186	0.0155046
693.264	0.0155254
693.342	0.0152945
693.420	0.0151475
693.498	0.0152224
693.576	0.0150234
693.655	0.0149056
693.733	0.0148341
693.811	0.0146568
693.889	0.0143206
693.967	0.0143641
694.045	0.0141850
694.123	0.0138921
694.201	0.0137523
694.280	0.0138269
694.358	0.0137212
694.436	0.0135329
694.514	0.0135584
694.592	0.0136861
694.670	0.0135856
694.748	0.0135159
694.826	0.0137437
694.905	0.0139519
694.983	0.0139385
695.061	0.0141201
695.139	0.0142836
695.217	0.0142814
695.295	0.0144706
695.373	0.0147099
695.451	0.0147762
695.530	0.0149162
695.608	0.0150208
695.686	0.0151354
695.764	0.0154843
695.842	0.0156306
695.920	0.0158385
695.998	0.0160507
696.076	0.0165150
696.155	0.0167973
696.233	0.0173901
696.311	0.0177250
696.389	0.0179959
696.467	0.0184528
696.545	0.0190134
696.623	0.0195066
696.701	0.0198562
696.780	0.0204120
696.858	0.0205566
696.936	0.0207981
697.014	0.0209868
697.092	0.0208778
697.170	0.0208935
697.248	0.0208621
697.326	0.0203416
697.405	0.0198285
697.483	0.0191190
697.561	0.0183231
697.639	0.0175744
697.717	0.0167078
697.795	0.0158245
697.873	0.0148078
697.951	0.0140460
698.030	0.0132835
698.108	0.0127942
698.186	0.0122219
698.264	0.0118448
698.342	0.0114980
698.420	0.0113540
698.498	0.0111786
698.576	0.0112160
698.655	0.0113604
698.733	0.0114540
698.811	0.0116525
698.889	0.0118171
698.967	0.0122782
699.045	0.0125194
699.123	0.0128014
699.201	0.0131679
699.280	0.0134895
699.358	0.0140192
699.436	0.0142944
699.514	0.0147150
699.592	0.0149447
699.670	0.0152973
699.748	0.0152545
699.826	0.0154932
699.905	0.0158073
699.983	0.0160272
700.061	0.0161134
700.139	0.0160069
700.217	0.0162141
700.295	0.0162110
700.373	0.0163626
700.451	0.0163146
700.530	0.0162411
700.608	0.0162353
700.686	0.0161908
700.764	0.0161310
700.842	0.0159125
700.920	0.0157406
700.998	0.0154746
701.076	0.0153198
701.155	0.0150266
701.233	0.0151117
701.311	0.0148734
701.389	0.0147897
701.467	0.0146661
701.545	0.0150701
701.623	0.0153520
701.701	0.0155226
701.780	0.0159150
701.858	0.0162336
701.936	0.0168235
702.014	0.0173409
702.092	0.0176799
702.170	0.0183395
702.248	0.0190136
702.326	0.0194792
702.405	0.0199940
702.483	0.0204021
702.561	0.0208216
702.639	0.0207681
702.717	0.0209593
702.795	0.0208598
702.873	0.0205890
702.951	0.0203074
703.030	0.0197091
703.108	0.0190076
703.186	0.0183466
703.264	0.0175888
703.342	0.0168704
703.420	0.0159934
703.498	0.0152395
703.576	0.0144437
703.655	0.0135896
703.733	0.0128908
703.811	0.0122008
703.889	0.0115076
703.967	0.0109286
704.045	0.0104214
704.123	0.0100529
704.201	0.00983360
704.280	0.00946297
704.358	0.00936798
704.436	0.00949982
704.514	0.00957733
704.592	0.00993195
704.670	0.0104632
704.748	0.0109651
704.826	0.0115173
704.905	0.0119797
704.983	0.0126170
705.061	0.0132417
705.139	0.0139528
705.217	0.0143510
705.295	0.0149171
705.373	0.0153893
705.451	0.0158930
705.530	0.0162479
705.608	0.0164770
705.686	0.0166225
705.764	0.0168104
705.842	0.0170190
705.920	0.0171415
705.998	0.0172681
706.076	0.0171848
706.155	0.0172051
706.233	0.0172092
706.311	0.0170828
706.389	0.0171468
706.467	0.0171348
706.545	0.0169458
706.623	0.0170013
706.701	0.0167724
706.780	0.0169438
706.858	0.0170825
706.936	0.0171332
707.014	0.0172153
707.092	0.0173762
707.170	0.0176672
707.248	0.0178698
707.326	0.0180225
707.405	0.0181692
707.483	0.0184704
707.561	0.0186293
707.639	0.0188583
707.717	0.0189429
707.795	0.0190789
707.873	0.0191834
707.951	0.0192940
708.030	0.0193655
708.108	0.0191590
708.186	0.0191992
708.264	0.0191103
708.342	0.0191290
708.420	0.0191027
708.498	0.0188524
708.576	0.0186941
708.655	0.0184824
708.733	0.0180311
708.811	0.0175010
708.889	0.0170600
708.967	0.0167204
709.045	0.0160228
709.123	0.0154350
709.201	0.0146835
709.280	0.0139869
709.358	0.0131644
709.436	0.0126159
709.514	0.0119949
709.592	0.0112255
709.670	0.0106178
709.748	0.0102003
709.826	0.00967003
709.905	0.00939301
709.983	0.00907295
710.061	0.00889069
710.139	0.00879623
710.217	0.00889206
710.295	0.00900925
710.373	0.00932205
710.451	0.00972176
710.530	0.0100206
710.608	0.0106480
710.686	0.0113110
710.764	0.0120586
710.842	0.0125797
710.920	0.0134866
710.998	0.0142225
711.076	0.0149029
711.155	0.0155844
711.233	0.0163934
711.311	0.0168211
711.389	0.0174494
711.467	0.0179962
711.545	0.0183752
711.623	0.0186755
711.701	0.0191183
711.780	0.0189574
711.858	0.0190891
711.936	0.0191953
712.014	0.0190541
712.092	0.0191107
712.170	0.0190226
712.248	0.0188801
712.326	0.0187168
712.405	0.0185812
712.483	0.0184965
712.561	0.0184014
712.639	0.0181592
712.717	0.0181914
712.795	0.0181235
712.873	0.0180421
712.951	0.0180698
713.030	0.0181461
713.108	0.0182158
713.186	0.0181649
713.264	0.0181715
713.342	0.0181458
713.420	0.0182851
713.498	0.0184264
713.576	0.0184149
713.655	0.0184989
713.733	0.0183201
713.811	0.0186636
713.889	0.0185232
713.967	0.0181069
714.045	0.0179494
714.123	0.0176493
714.201	0.0175285
714.280	0.0172141
714.358	0.0169489
714.436	0.0164956
714.514	0.0160937
714.592	0.0158607
714.670	0.0154351
714.748	0.0149451
714.826	0.0144485
714.905	0.0140871
714.983	0.0138358
715.061	0.0134930
715.139	0.0131799
715.217	0.0127457
715.295	0.0123972
715.373	0.0123895
715.451	0.0119920
715.530	0.0118291
715.608	0.0116075
715.686	0.0114929
715.764	0.0114085
715.842	0.0113416
715.920	0.0113123
715.998	0.0113235
716.076	0.0112502
716.155	0.0114252
716.233	0.0115251
716.311	0.0116699
716.389	0.0119647
716.467	0.0121482
716.545	0.0124203
716.623	0.0128215
716.701	0.0131065
716.780	0.0135084
716.858	0.0138529
716.936	0.0142281
717.014	0.0147171
717.092	0.0151586
717.170	0.0157943
717.248	0.0162152
717.326	0.0165716
717.405	0.0171281
717.483	0.0175940
717.561	0.0180732
717.639	0.0184969
717.717	0.0188148
717.795	0.0190546
717.873	0.0192473
717.951	0.0195047
718.030	0.0196257
718.108	0.0196130
718.186	0.0195425
718.264	0.0194317
718.342	0.0193833
718.420	0.0192125
718.498	0.0189668
718.576	0.0186467
718.655	0.0183385
718.733	0.0180629
718.811	0.0177406
718.889	0.0174445
718.967	0.0173052
719.045	0.0170515
719.123	0.0167786
719.201	0.0165746
719.280	0.0163853
719.358	0.0163848
719.436	0.0163313
719.514	0.0161507
719.592	0.0162666
719.670	0.0163204
719.748	0.0163349
719.826	0.0163825
719.905	0.0163722
719.983	0.0163454
720.061	0.0162084
720.139	0.0160340
720.217	0.0159448
720.295	0.0157093
720.373	0.0155344
720.451	0.0151703
720.530	0.0148971
720.608	0.0146438
720.686	0.0144685
720.764	0.0142365
720.842	0.0140025
720.920	0.0138007
720.998	0.0137319
721.076	0.0135617
721.155	0.0135533
721.233	0.0136878
721.311	0.0136045
721.389	0.0136345
721.467	0.0135900
721.545	0.0136751
721.623	0.0135670
721.701	0.0137405
721.780	0.0136092
721.858	0.0135056
721.936	0.0134698
722.014	0.0134441
722.092	0.0134203
722.170	0.0133452
722.248	0.0134328
722.326	0.0135307
722.405	0.0135984
722.483	0.0137807
722.561	0.0139375
722.639	0.0141308
722.717	0.0144023
722.795	0.0146854
722.873	0.0148719
722.951	0.0152535
723.030	0.0156441
723.108	0.0159663
723.186	0.0163596
723.264	0.0165862
723.342	0.0169012
723.420	0.0171355
723.498	0.0173465
723.576	0.0174335
723.655	0.0175086
723.733	0.0177264
723.811	0.0177863
723.889	0.0178782
723.967	0.0176236
724.045	0.0177956
724.123	0.0177352
724.201	0.0175196
724.280	0.0175768
724.358	0.0174929
724.436	0.0175894
724.514	0.0172731
724.592	0.0170240
724.670	0.0168839
724.748	0.0166936
724.826	0.0165652
724.905	0.0165675
724.983	0.0162429
725.061	0.0161565
725.139	0.0162151
725.217	0.0158329
725.295	0.0158157
725.373	0.0158824
725.451	0.0158189
725.530	0.0156883
725.608	0.0156429
725.686	0.0155186
725.764	0.0155416
725.842	0.0157111
725.920	0.0155748
725.998	0.0155731
726.076	0.0156100
726.155	0.0155675
726.233	0.0156709
726.311	0.0157797
726.389	0.0156066
726.467	0.0154851
726.545	0.0155143
726.623	0.0153002
726.701	0.0154469
726.780	0.0153275
726.858	0.0151694
726.936	0.0150057
727.014	0.0149740
727.092	0.0149628
727.170	0.0149261
727.248	0.0147722
727.326	0.0147478
727.405	0.0147153
727.483	0.0147298
727.561	0.0147543
727.639	0.0145952
727.717	0.0145502
727.795	0.0144802
727.873	0.0145733
727.951	0.0145765
728.030	0.0145261
728.108	0.0144174
728.186	0.0145550
728.264	0.0146446
728.342	0.0146078
728.420	0.0146405
728.498	0.0147207
728.576	0.0149405
728.655	0.0149332
728.733	0.0151510
728.811	0.0152077
728.889	0.0152013
728.967	0.0154460
729.045	0.0154263
729.123	0.0156255
729.201	0.0156502
729.280	0.0157067
729.358	0.0158709
729.436	0.0159655
729.514	0.0161222
729.592	0.0160417
729.670	0.0161836
729.748	0.0160799
729.826	0.0161059
729.905	0.0161819
729.983	0.0162498
730.061	0.0164142
730.139	0.0162221
730.217	0.0164337
730.295	0.0165437
730.373	0.0162971
730.451	0.0163417
730.530	0.0163786
730.608	0.0162663
730.686	0.0160982
730.764	0.0161092
730.842	0.0161699
730.920	0.0160075
730.998	0.0159051
731.076	0.0158566
731.155	0.0156207
731.233	0.0156211
731.311	0.0155912
731.389	0.0154910
731.467	0.0155019
731.545	0.0154248
731.623	0.0154946
731.701	0.0154037
731.780	0.0155398
731.858	0.0155811
731.936	0.0156925
732.014	0.0157824
732.092	0.0158063
732.170	0.0158165
732.248	0.0161152
732.326	0.0159863
732.405	0.0161137
732.483	0.0161959
732.561	0.0159238
732.639	0.0161141
732.717	0.0159998
732.795	0.0158018
732.873	0.0156474
732.951	0.0155498
733.030	0.0155093
733.108	0.0152815
733.186	0.0150526
733.264	0.0151231
733.342	0.0151420
733.420	0.0151177
733.498	0.0151554
733.576	0.0150689
733.655	0.0152470
733.733	0.0152924
733.811	0.0155128
733.889	0.0156190
733.967	0.0155621
734.045	0.0155528
734.123	0.0156153
734.201	0.0156747
734.280	0.0156679
734.358	0.0156144
734.436	0.0155444
734.514	0.0154314
734.592	0.0153558
734.670	0.0153744
734.748	0.0153558
734.826	0.0152866
734.905	0.0153216
734.983	0.0152383
735.061	0.0152749
735.139	0.0152318
735.217	0.0152960
735.295	0.0152604
735.373	0.0154013
735.451	0.0154752
735.530	0.0156579
735.608	0.0156425
735.686	0.0156940
735.764	0.0157848
735.842	0.0157950
735.920	0.0160155
735.998	0.0161514
736.076	0.0161188
736.155	0.0162999
736.233	0.0163857
736.311	0.0163896
736.389	0.0164425
736.467	0.0164855
736.545	0.0164752
736.623	0.0164935
736.701	0.0163344
736.780	0.0163853
736.858	0.0163429
736.936	0.0161993
737.014	0.0161689
737.092	0.0160105
737.170	0.0157958
737.248	0.0157464
737.326	0.0154804
737.405	0.0153947
737.483	0.0151219
737.561	0.0150651
737.639	0.0149039
737.717	0.0148068
737.795	0.0147061
737.873	0.0146022
737.951	0.0146954
738.030	0.0147089
738.108	0.0148141
738.186	0.0148622
738.264	0.0151131
738.342	0.0155219
738.420	0.0154521
738.498	0.0156030
738.576	0.0158149
738.655	0.0159508
738.733	0.0159077
738.811	0.0162152
738.889	0.0163590
738.967	0.0162817
739.045	0.0163068
739.123	0.0161944
739.201	0.0162254
739.280	0.0161864
739.358	0.0160240
739.436	0.0158837
739.514	0.0156957
739.592	0.0154957
739.670	0.0154256
739.748	0.0153619
739.826	0.0152365
739.905	0.0153299
739.983	0.0154604
740.061	0.0154929
740.139	0.0157233
740.217	0.0157151
740.295	0.0158562
740.373	0.0158260
740.451	0.0160835
740.530	0.0162773
740.608	0.0162630
740.686	0.0162436
740.764	0.0161853
740.842	0.0163098
740.920	0.0162303
740.998	0.0162340
741.076	0.0161043
741.155	0.0160129
741.233	0.0158334
741.311	0.0158024
741.389	0.0157848
741.467	0.0155915
741.545	0.0155508
741.623	0.0155819
741.701	0.0153958
741.780	0.0153578
741.858	0.0154400
741.936	0.0153355
742.014	0.0153820
742.092	0.0152802
742.170	0.0152619
742.248	0.0152905
742.326	0.0153452
742.405	0.0154243
742.483	0.0153674
742.561	0.0153799
742.639	0.0154128
742.717	0.0153751
742.795	0.0156560
742.873	0.0156615
742.951	0.0155950
743.030	0.0155563
743.108	0.0157339
743.186	0.0158881
743.264	0.0157906
743.342	0.0158562
743.420	0.0158340
743.498	0.0157680
743.576	0.0156998
743.655	0.0157822
743.733	0.0156119
743.811	0.0156173
743.889	0.0157513
743.967	0.0156472
744.045	0.0155505
744.123	0.0155112
744.201	0.0156535
744.280	0.0157376
744.358	0.0156942
744.436	0.0156357
744.514	0.0158305
744.592	0.0158708
744.670	0.0158162
744.748	0.0159389
744.826	0.0159771
744.905	0.0160315
744.983	0.0159940
745.061	0.0161040
745.139	0.0160526
745.217	0.0159888
745.295	0.0159111
745.373	0.0158286
745.451	0.0156175
745.530	0.0158039
745.608	0.0155088
745.686	0.0153349
745.764	0.0152837
745.842	0.0152332
745.920	0.0150453
745.998	0.0150469
746.076	0.0150234
746.155	0.0150450
746.233	0.0151684
746.311	0.0152801
746.389	0.0153080
746.467	0.0155505
746.545	0.0155330
746.623	0.0156348
746.701	0.0158225
746.780	0.0159467
746.858	0.0160342
746.936	0.0160831
747.014	0.0161333
747.092	0.0162511
747.170	0.0162826
747.248	0.0164511
747.326	0.0163528
747.405	0.0163034
747.483	0.0162402
747.561	0.0161472
747.639	0.0160699
747.717	0.0160485
747.795	0.0158691
747.873	0.0157862
747.951	0.0156634
748.030	0.0156722
748.108	0.0155933
748.186	0.0154327
748.264	0.0154454
748.342	0.0155609
748.420	0.0153030
748.498	0.0153215
748.576	0.0154237
748.655	0.0154547
748.733	0.0156411
748.811	0.0155609
748.889	0.0154643
748.967	0.0154985
749.045	0.0156014
749.123	0.0156992
749.201	0.0156122
749.280	0.0155548
749.358	0.0155795
749.436	0.0155563
749.514	0.0155750
749.592	0.0156077
749.670	0.0156211
749.748	0.0154781
749.826	0.0156318
749.905	0.0157901
749.983	0.0157041
750.061	0.0157075
750.139	0.0157610
750.217	0.0155716
750.295	0.0158130
750.373	0.0157024
750.451	0.0156441
750.530	0.0157626
750.608	0.0156033
750.686	0.0155814
750.764	0.0155135
750.842	0.0155650
750.920	0.0154742
750.998	0.0154060
751.076	0.0152505
751.155	0.0153877
751.233	0.0152842
751.311	0.0152321
751.389	0.0153094
751.467	0.0153254
751.545	0.0154045
751.623	0.0155081
751.701	0.0153693
751.780	0.0154926
751.858	0.0154783
751.936	0.0156360
752.014	0.0156672
752.092	0.0158504
752.170	0.0158525
752.248	0.0157799
752.326	0.0159119
752.405	0.0158769
752.483	0.0158743
752.561	0.0158636
752.639	0.0158236
752.717	0.0156338
752.795	0.0155374
752.873	0.0155851
752.951	0.0155196
753.030	0.0154548
753.108	0.0153320
753.186	0.0152334
753.264	0.0151384
753.342	0.0150941
753.420	0.0150300
753.498	0.0151334
753.576	0.0150479
753.655	0.0149825
753.733	0.0152282
753.811	0.0152559
753.889	0.0153106
753.967	0.0153278
754.045	0.0154113
754.123	0.0156066
754.201	0.0156908
754.280	0.0157975
754.358	0.0159013
754.436	0.0160226
754.514	0.0161158
754.592	0.0161433
754.670	0.0162643
754.748	0.0162374
754.826	0.0163654
754.905	0.0163133
754.983	0.0163064
755.061	0.0163972
755.139	0.0162822
755.217	0.0161027
755.295	0.0160245
755.373	0.0160426
755.451	0.0159480
755.530	0.0157932
755.608	0.0158726
755.686	0.0157032
755.764	0.0156199
755.842	0.0156734
755.920	0.0156316
755.998	0.0155370
756.076	0.0155401
756.155	0.0154787
756.233	0.0155753
756.311	0.0155236
756.389	0.0154556
756.467	0.0154735
756.545	0.0153988
756.623	0.0154523
756.701	0.0154241
756.780	0.0154442
756.858	0.0154553
756.936	0.0155873
757.014	0.0154691
757.092	0.0155506
757.170	0.0155327
757.248	0.0155114
757.326	0.0154684
757.405	0.0156141
757.483	0.0154085
757.561	0.0155231
757.639	0.0154780
757.717	0.0155567
757.795	0.0156530
757.873	0.0155989
757.951	0.0156808
758.030	0.0157191
758.108	0.0157599
758.186	0.0158381
758.264	0.0157632
758.342	0.0157771
758.420	0.0157758
758.498	0.0157806
758.576	0.0157889
758.655	0.0158130
758.733	0.0157247
758.811	0.0154961
758.889	0.0155336
758.967	0.0156619
759.045	0.0153227
759.123	0.0153596
759.201	0.0153363
759.280	0.0152955
759.358	0.0152831
759.436	0.0153188
759.514	0.0153073
759.592	0.0152872
759.670	0.0154072
759.748	0.0154086
759.826	0.0155586
759.905	0.0156021
759.983	0.0156661
760.061	0.0156598
760.139	0.0158907
760.217	0.0158549
760.295	0.0158760
760.373	0.0159436
760.451	0.0159064
760.530	0.0157726
760.608	0.0160034
760.686	0.0158821
760.764	0.0157675
760.842	0.0156886
760.920	0.0157911
760.998	0.0157405
761.076	0.0156921
761.155	0.0155373
761.233	0.0154711
761.311	0.0154243
761.389	0.0153919
761.467	0.0155425
761.545	0.0153448
761.623	0.0153316
761.701	0.0153404
761.780	0.0153802
761.858	0.0157139
761.936	0.0155662
762.014	0.0155317
762.092	0.0156695
762.170	0.0158140
762.248	0.0158508
762.326	0.0160404
762.405	0.0159727
762.483	0.0160262
762.561	0.0159659
762.639	0.0161000
762.717	0.0160332
762.795	0.0160229
762.873	0.0161203
762.951	0.0160977
763.030	0.0160603
763.108	0.0160334
763.186	0.0159722
763.264	0.0159692
763.342	0.0159538
763.420	0.0157811
763.498	0.0157698
763.576	0.0156512
763.655	0.0155073
763.733	0.0154604
763.811	0.0155176
763.889	0.0153323
763.967	0.0153366
764.045	0.0153440
764.123	0.0153949
764.201	0.0153035
764.280	0.0152057
764.358	0.0154055
764.436	0.0154758
764.514	0.0154434
764.592	0.0154101
764.670	0.0155872
764.748	0.0154186
764.826	0.0155051
764.905	0.0156033
764.983	0.0155640
765.061	0.0156778
765.139	0.0157519
765.217	0.0158196
765.295	0.0157364
765.373	0.0158595
765.451	0.0157846
765.530	0.0159252
765.608	0.0158798
765.686	0.0156956
765.764	0.0156854
765.842	0.0156717
765.920	0.0159169
765.998	0.0158031
766.076	0.0156633
766.155	0.0157476
766.233	0.0157521
766.311	0.0155833
766.389	0.0156113
766.467	0.0156263
766.545	0.0155515
766.623	0.0154049
766.701	0.0155083
766.780	0.0155212
766.858	0.0153440
766.936	0.0154384
767.014	0.0154074
767.092	0.0153490
767.170	0.0154420
767.248	0.0154712
767.326	0.0156699
767.405	0.0156368
767.483	0.0155714
767.561	0.0155506
767.639	0.0156603
767.717	0.0157434
767.795	0.0157034
767.873	0.0158628
767.951	0.0155822
768.030	0.0158293
768.108	0.0157367
768.186	0.0158141
768.264	0.0158999
768.342	0.0158587
768.420	0.0158807
768.498	0.0159016
768.576	0.0158187
768.655	0.0157068
768.733	0.0158472
768.811	0.0158546
768.889	0.0156442
768.967	0.0156701
769.045	0.0157211
769.123	0.0156148
769.201	0.0156564
769.280	0.0155182
769.358	0.0155272
769.436	0.0155558
769.514	0.0155155
769.592	0.0154930
769.670	0.0153902
769.748	0.0154553
769.826	0.0155522
769.905	0.0155076
769.983	0.0154385
770.061	0.0155931
770.139	0.0156326
770.217	0.0156954
770.295	0.0157998
770.373	0.0158120
770.451	0.0160117
770.530	0.0158617
770.608	0.0160310
770.686	0.0162586
770.764	0.0161534
770.842	0.0159753
770.920	0.0160824
770.998	0.0160739
771.076	0.0159957
771.155	0.0159521
771.233	0.0158042
771.311	0.0158588
771.389	0.0158006
771.467	0.0155973
771.545	0.0154958
771.623	0.0155094
771.701	0.0153613
771.780	0.0154257
771.858	0.0154836
771.936	0.0154608
772.014	0.0154793
772.092	0.0153830
772.170	0.0153585
772.248	0.0155385
772.326	0.0155848
772.405	0.0156597
772.483	0.0156226
772.561	0.0156934
772.639	0.0157262
772.717	0.0158229
772.795	0.0159613
772.873	0.0158599
772.951	0.0157816
773.030	0.0158630
773.108	0.0158496
773.186	0.0156953
773.264	0.0157863
773.342	0.0157108
773.420	0.0156477
773.498	0.0156284
773.576	0.0155877
773.655	0.0156554
773.733	0.0157222
773.811	0.0155445
773.889	0.0154461
773.967	0.0156420
774.045	0.0156473
774.123	0.0155496
774.201	0.0156176
774.280	0.0154938
774.358	0.0154292
774.436	0.0155474
774.514	0.0156184
774.592	0.0154926
774.670	0.0153793
774.748	0.0154120
774.826	0.0154241
774.905	0.0155058
774.983	0.0153493
775.061	0.0153603
775.139	0.0153956
775.217	0.0154472
775.295	0.0154440
775.373	0.0153848
775.451	0.0154819
775.530	0.0156128
775.608	0.0156844
775.686	0.0156861
775.764	0.0155978
775.842	0.0157880
775.920	0.0156808
775.998	0.0159030
776.076	0.0159047
776.155	0.0158414
776.233	0.0158492
776.311	0.0159027
776.389	0.0158887
776.467	0.0158641
776.545	0.0159267
776.623	0.0159334
776.701	0.0159027
776.780	0.0159458
776.858	0.0158701
776.936	0.0157199
777.014	0.0158498
777.092	0.0156483
777.170	0.0156720
777.248	0.0156827
777.326	0.0155909
777.405	0.0156057
777.483	0.0155866
777.561	0.0155164
777.639	0.0153937
777.717	0.0154754
777.795	0.0155766
777.873	0.0154424
777.951	0.0155107
778.030	0.0154959
778.108	0.0155530
778.186	0.0156615
778.264	0.0156828
778.342	0.0156641
778.420	0.0157417
778.498	0.0156523
778.576	0.0157917
778.655	0.0157763
778.733	0.0158131
778.811	0.0158386
778.889	0.0158263
778.967	0.0157955
779.045	0.0158823
779.123	0.0159668
779.201	0.0157287
779.280	0.0156672
779.358	0.0157865
779.436	0.0156978
779.514	0.0156747
779.592	0.0156511
779.670	0.0156532
779.748	0.0155381
779.826	0.0155495
779.905	0.0156967
779.983	0.0156013
780.061	0.0156949
780.139	0.0156471
780.217	0.0156496
780.295	0.0154273
780.373	0.0156915
780.451	0.0157135
780.530	0.0156175
780.608	0.0155695
780.686	0.0155878
780.764	0.0156593
780.842	0.0156454
780.920	0.0157410
780.998	0.0156837
781.076	0.0156776
781.155	0.0158444
781.233	0.0158210
781.311	0.0157143
781.389	0.0157172
781.467	0.0156179
781.545	0.0157893
781.623	0.0157331
781.701	0.0158676
781.780	0.0157113
781.858	0.0157313
781.936	0.0157684
782.014	0.0157269
782.092	0.0157485
782.170	0.0158173
782.248	0.0156470
782.326	0.0155452
782.405	0.0156189
782.483	0.0155227
782.561	0.0154385
782.639	0.0154852
782.717	0.0155272
782.795	0.0153362
782.873	0.0152911
782.951	0.0152734
783.030	0.0151792
783.108	0.0151929
783.186	0.0153722
783.264	0.0153188
783.342	0.0153020
783.420	0.0152998
783.498	0.0152225
783.576	0.0154240
783.655	0.0155215
783.733	0.0154919
783.811	0.0154991
783.889	0.0154385
783.967	0.0155366
784.045	0.0157409
784.123	0.0158336
784.201	0.0157503
784.280	0.0157704
784.358	0.0159209
784.436	0.0158915
784.514	0.0157864
784.592	0.0156973
784.670	0.0157146
784.748	0.0157053
784.826	0.0157749
784.905	0.0158266
784.983	0.0157361
785.061	0.0157097
785.139	0.0157208
785.217	0.0155012
785.295	0.0156838
785.373	0.0156713
785.451	0.0155206
785.530	0.0156529
785.608	0.0156422
785.686	0.0157661
785.764	0.0156451
785.842	0.0156130
785.920	0.0157127
785.998	0.0157420
786.076	0.0157523
786.155	0.0159744
786.233	0.0159178
786.311	0.0159777
786.389	0.0159587
786.467	0.0158804
786.545	0.0159006
786.623	0.0159447
786.701	0.0159207
786.780	0.0159057
786.858	0.0158932
786.936	0.0158712
787.014	0.0159131
787.092	0.0160032
787.170	0.0158092
787.248	0.0157702
787.326	0.0156530
787.405	0.0156969
787.483	0.0156332
787.561	0.0155817
787.639	0.0155836
787.717	0.0156161
787.795	0.0155376
787.873	0.0155505
787.951	0.0154428
788.030	0.0155291
788.108	0.0156155
788.186	0.0155632
788.264	0.0154431
788.342	0.0155863
788.420	0.0157126
788.498	0.0155293
788.576	0.0156254
788.655	0.0155383
788.733	0.0156713
788.811	0.0157011
788.889	0.0155174
788.967	0.0155389
789.045	0.0155972
789.123	0.0155515
789.201	0.0156251
789.280	0.0155075
789.358	0.0156049
789.436	0.0155383
789.514	0.0156143
789.592	0.0155668
789.670	0.0156416
789.748	0.0155745
789.826	0.0154974
789.905	0.0155710
789.983	0.0155406
790.061	0.0154609
790.139	0.0156016
790.217	0.0156018
790.295	0.0154255
790.373	0.0154149
790.451	0.0155041
790.530	0.0154118
790.608	0.0155334
790.686	0.0156332
790.764	0.0155381
790.842	0.0156870
790.920	0.0155904
790.998	0.0155674
791.076	0.0154418
791.155	0.0153468
791.233	0.0155920
791.311	0.0155264
791.389	0.0155291
791.467	0.0155270
791.545	0.0156598
791.623	0.0155376
791.701	0.0156686
791.780	0.0155262
791.858	0.0156816
791.936	0.0156556
792.014	0.0158346
792.092	0.0158478
792.170	0.0158976
792.248	0.0159838
792.326	0.0158539
792.405	0.0159013
792.483	0.0158960
792.561	0.0159510
792.639	0.0160417
792.717	0.0161443
792.795	0.0161647
792.873	0.0161649
792.951	0.0162521
793.030	0.0163745
793.108	0.0162970
793.186	0.0162132
793.264	0.0164148
793.342	0.0162473
793.420	0.0162595
793.498	0.0162868
793.576	0.0163316
793.655	0.0161758
793.733	0.0163054
793.811	0.0161541
793.889	0.0160938
793.967	0.0161416
794.045	0.0162071
794.123	0.0161021
794.201	0.0159888
794.280	0.0159401
794.358	0.0157167
794.436	0.0157520
794.514	0.0155421
794.592	0.0155695
794.670	0.0155018
794.748	0.0153961
794.826	0.0153273
794.905	0.0152602
794.983	0.0150486
795.061	0.0150745
795.139	0.0149039
795.217	0.0148535
795.295	0.0147890
795.373	0.0146745
795.451	0.0148199
795.530	0.0147187
795.608	0.0147963
795.686	0.0148295
795.764	0.0147779
795.842	0.0148264
795.920	0.0148445
795.998	0.0150496
796.076	0.0150119
796.155	0.0151171
796.233	0.0152436
796.311	0.0154400
796.389	0.0156036
796.467	0.0155753
796.545	0.0155978
796.623	0.0156590
796.701	0.0158412
796.780	0.0159177
796.858	0.0158092
796.936	0.0158783
797.014	0.0158442
797.092	0.0159280
797.170	0.0158908
797.248	0.0158899
797.326	0.0158852
797.405	0.0157931
797.483	0.0157530
797.561	0.0158297
797.639	0.0157643
797.717	0.0158244
797.795	0.0159088
797.873	0.0157889
797.951	0.0157674
798.030	0.0157932
798.108	0.0158157
798.186	0.0158785
798.264	0.0158882
798.342	0.0160796
798.420	0.0159715
798.498	0.0160616
798.576	0.0161494
798.655	0.0160394
798.733	0.0162917
798.811	0.0162753
798.889	0.0163122
798.967	0.0162400
799.045	0.0162691
799.123	0.0163436
799.201	0.0162553
799.280	0.0162889
799.358	0.0163059
799.436	0.0161313
799.514	0.0162407
799.592	0.0162595
799.670	0.0160238
799.748	0.0161732
799.826	0.0161030
799.905	0.0157987
799.983	0.0157637
800.061	0.0156920
800.139	0.0155377
800.217	0.0153619
800.295	0.0154346
800.373	0.0151195
800.451	0.0150639
800.530	0.0149482
800.608	0.0146942
800.686	0.0146410
800.764	0.0145129
800.842	0.0146606
800.920	0.0145572
800.998	0.0143629
801.076	0.0143441
801.155	0.0143022
801.233	0.0144707
801.311	0.0144415
801.389	0.0145626
801.467	0.0145784
801.545	0.0146188
801.623	0.0147181
801.701	0.0149435
801.780	0.0149774
801.858	0.0151839
801.936	0.0153425
802.014	0.0153596
802.092	0.0154458
802.170	0.0156274
802.248	0.0157014
802.326	0.0157629
802.405	0.0157426
802.483	0.0159290
802.561	0.0159639
802.639	0.0159429
802.717	0.0159955
802.795	0.0160325
802.873	0.0160434
802.951	0.0161148
803.030	0.0160686
803.108	0.0160411
803.186	0.0160824
803.264	0.0161951
803.342	0.0160813
803.420	0.0163013
803.498	0.0160578
803.576	0.0160905
803.655	0.0163341
803.733	0.0163743
803.811	0.0161722
803.889	0.0162592
803.967	0.0164105
804.045	0.0163585
804.123	0.0163131
804.201	0.0163637
804.280	0.0162444
804.358	0.0162883
804.436	0.0163895
804.514	0.0164017
804.592	0.0163866
804.670	0.0163692
804.748	0.0163384
804.826	0.0162920
804.905	0.0162442
804.983	0.0163383
805.061	0.0162312
805.139	0.0160976
805.217	0.0162045
805.295	0.0160287
805.373	0.0158199
805.451	0.0158627
805.530	0.0156897
805.608	0.0156977
805.686	0.0156686
805.764	0.0155392
805.842	0.0152844
805.920	0.0151887
805.998	0.0150394
806.076	0.0148094
806.155	0.0147402
806.233	0.0145615
806.311	0.0144855
806.389	0.0142651
806.467	0.0142189
806.545	0.0142576
806.623	0.0141473
806.701	0.0140426
806.780	0.0141733
806.858	0.0142111
806.936	0.0142108
807.014	0.0142841
807.092	0.0142352
807.170	0.0144762
807.248	0.0146241
807.326	0.0147516
807.405	0.0148614
807.483	0.0150549
807.561	0.0151592
807.639	0.0152560
807.717	0.0153400
807.795	0.0154392
807.873	0.0155531
807.951	0.0157224
808.030	0.0156335
808.108	0.0158744
808.186	0.0158947
808.264	0.0160197
808.342	0.0160770
808.420	0.0159998
808.498	0.0162708
808.576	0.0161187
808.655	0.0162253
808.733	0.0162730
808.811	0.0163512
808.889	0.0164011
808.967	0.0163969
809.045	0.0162702
809.123	0.0163729
809.201	0.0163771
809.280	0.0162024
809.358	0.0163972
809.436	0.0162764
809.514	0.0161921
809.592	0.0163886
809.670	0.0164835
809.748	0.0163821
809.826	0.0164588
809.905	0.0164007
809.983	0.0164006
810.061	0.0163035
810.139	0.0162242
810.217	0.0162166
810.295	0.0163785
810.373	0.0164039
810.451	0.0161108
810.530	0.0161322
810.608	0.0162083
810.686	0.0160165
810.764	0.0159772
810.842	0.0159688
810.920	0.0157215
810.998	0.0157493
811.076	0.0155724
811.155	0.0155006
811.233	0.0154018
811.311	0.0151465
811.389	0.0151273
811.467	0.0151077
811.545	0.0148743
811.623	0.0147697
811.701	0.0148425
811.780	0.0146956
811.858	0.0147168
811.936	0.0144824
812.014	0.0145262
812.092	0.0147437
812.170	0.0146181
812.248	0.0146542
812.326	0.0147057
812.405	0.0147563
812.483	0.0146744
812.561	0.0148219
812.639	0.0147898
812.717	0.0148281
812.795	0.0148907
812.873	0.0148815
812.951	0.0148757
813.030	0.0150263
813.108	0.0151977
813.186	0.0153162
813.264	0.0152995
813.342	0.0152888
813.420	0.0155238
813.498	0.0154713
813.576	0.0154488
813.655	0.0156270
813.733	0.0157128
813.811	0.0158363
813.889	0.0159638
813.967	0.0161112
814.045	0.0161421
814.123	0.0162644
814.201	0.0162964
814.280	0.0163887
814.358	0.0164473
814.436	0.0166086
814.514	0.0165178
814.592	0.0166274
814.670	0.0166779
814.748	0.0166376
814.826	0.0165536
814.905	0.0166836
814.983	0.0165079
815.061	0.0165286
815.139	0.0163884
815.217	0.0163821
815.295	0.0162483
815.373	0.0162467
815.451	0.0161897
815.530	0.0162231
815.608	0.0159896
815.686	0.0159720
815.764	0.0160342
815.842	0.0159473
815.920	0.0158604
815.998	0.0157767
816.076	0.0158706
816.155	0.0157499
816.233	0.0156509
816.311	0.0156824
816.389	0.0154959
816.467	0.0156178
816.545	0.0155579
816.623	0.0154872
816.701	0.0154150
816.780	0.0153123
816.858	0.0153094
816.936	0.0151373
817.014	0.0152052
817.092	0.0150646
817.170	0.0151232
817.248	0.0148801
817.326	0.0149339
817.405	0.0150925
817.483	0.0149778
817.561	0.0150458
817.639	0.0150601
817.717	0.0148699
817.795	0.0152405
817.873	0.0151167
817.951	0.0151617
818.030	0.0151035
818.108	0.0152467
818.186	0.0153654
818.264	0.0153568
818.342	0.0153745
818.420	0.0154458
818.498	0.0155170
818.576	0.0155804
818.655	0.0155810
818.733	0.0155285
818.811	0.0155232
818.889	0.0155029
818.967	0.0156420
819.045	0.0156935
819.123	0.0154428
819.201	0.0156106
819.280	0.0158393
819.358	0.0156863
819.436	0.0157824
819.514	0.0156870
819.592	0.0158276
819.670	0.0158382
819.748	0.0158049
819.826	0.0158393
819.905	0.0160434
819.983	0.0159660
820.061	0.0160317
820.139	0.0161372
820.217	0.0160270
820.295	0.0162476
820.373	0.0162613
820.451	0.0161326
820.530	0.0160629
820.608	0.0162547
820.686	0.0159892
820.764	0.0161157
820.842	0.0161314
820.920	0.0160018
820.998	0.0159118
821.076	0.0159808
821.155	0.0158482
821.233	0.0158549
821.311	0.0156351
821.389	0.0158829
821.467	0.0156915
821.545	0.0157077
821.623	0.0156026
821.701	0.0154898
821.780	0.0156582
821.858	0.0155709
821.936	0.0154436
822.014	0.0153330
822.092	0.0152318
822.170	0.0153534
822.248	0.0153844
822.326	0.0153864
822.405	0.0153749
822.483	0.0153535
822.561	0.0153217
822.639	0.0153088
822.717	0.0152939
822.795	0.0153960
822.873	0.0152641
822.951	0.0154653
823.030	0.0153066
823.108	0.0153161
823.186	0.0152837
823.264	0.0153711
823.342	0.0154208
823.420	0.0154093
823.498	0.0154420
823.576	0.0154372
823.655	0.0154865
823.733	0.0154981
823.811	0.0155769
823.889	0.0155858
823.967	0.0154290
824.045	0.0155724
824.123	0.0156783
824.201	0.0155815
824.280	0.0157096
824.358	0.0158116
824.436	0.0157053
824.514	0.0155595
824.592	0.0157333
824.670	0.0156129
824.748	0.0155320
824.826	0.0157018
824.905	0.0155782
824.983	0.0155414
825.061	0.0155550
825.139	0.0156113
825.217	0.0154854
825.295	0.0154316
825.373	0.0154582
825.451	0.0153501
825.530	0.0154414
825.608	0.0154404
825.686	0.0154490
825.764	0.0156574
825.842	0.0155305
825.920	0.0155881
825.998	0.0156961
826.076	0.0156882
826.155	0.0157788
826.233	0.0157631
826.311	0.0158247
826.389	0.0158365
826.467	0.0158279
826.545	0.0159421
826.623	0.0157885
826.701	0.0158778
826.780	0.0157822
826.858	0.0156544
826.936	0.0158354
827.014	0.0156076
827.092	0.0156749
827.170	0.0155999
827.248	0.0156832
827.326	0.0156173
827.405	0.0154591
827.483	0.0155910
827.561	0.0154066
827.639	0.0153494
827.717	0.0154208
827.795	0.0153690
827.873	0.0153899
827.951	0.0154538
828.030	0.0153535
828.108	0.0154285
828.186	0.0156023
828.264	0.0155070
828.342	0.0156095
828.420	0.0156208
828.498	0.0155828
828.576	0.0157547
828.655	0.0156708
828.733	0.0156709
828.811	0.0155499
828.889	0.0157034
828.967	0.0155733
829.045	0.0157072
829.123	0.0157896
829.201	0.0156393
829.280	0.0156142
829.358	0.0157711
829.436	0.0157656
829.514	0.0157078
829.592	0.0156249
829.670	0.0156805
829.748	0.0157042
829.826	0.0155143
829.905	0.0155116
829.983	0.0155983
830.061	0.0157138
830.139	0.0155424
830.217	0.0155255
830.295	0.0156844
830.373	0.0155227
830.451	0.0155771
830.530	0.0154707
830.608	0.0154578
830.686	0.0154646
830.764	0.0155419
830.842	0.0153669
830.920	0.0154568
830.998	0.0154430
831.076	0.0153870
831.155	0.0154859
831.233	0.0154495
831.311	0.0154416
831.389	0.0155020
831.467	0.0153612
831.545	0.0154977
831.623	0.0156048
831.701	0.0156137
831.780	0.0154658
831.858	0.0154649
831.936	0.0155185
832.014	0.0154908
832.092	0.0155134
832.170	0.0155340
832.248	0.0154410
832.326	0.0156219
832.405	0.0154714
832.483	0.0155069
832.561	0.0155868
832.639	0.0155356
832.717	0.0154722
832.795	0.0155753
832.873	0.0155324
832.951	0.0156126
833.030	0.0156110
833.108	0.0156567
833.186	0.0156734
833.264	0.0156644
833.342	0.0156644
833.420	0.0155824
833.498	0.0157178
833.576	0.0157635
833.655	0.0157996
833.733	0.0157139
833.811	0.0159503
833.889	0.0157481
833.967	0.0158361
834.045	0.0158771
834.123	0.0157907
834.201	0.0158379
834.280	0.0157910
834.358	0.0158623
834.436	0.0159515
834.514	0.0158308
834.592	0.0159014
834.670	0.0156440
834.748	0.0158646
834.826	0.0158331
834.905	0.0158805
834.983	0.0159698
835.061	0.0160349
835.139	0.0159695
835.217	0.0158630
835.295	0.0158093
835.373	0.0158886
835.451	0.0158845
835.530	0.0159886
835.608	0.0156534
835.686	0.0158819
835.764	0.0157097
835.842	0.0158388
835.920	0.0156865
835.998	0.0156395
836.076	0.0155693
836.155	0.0156552
836.233	0.0154320
836.311	0.0154105
836.389	0.0155283
836.467	0.0153973
836.545	0.0153577
836.623	0.0154092
836.701	0.0153631
836.780	0.0154595
836.858	0.0155151
836.936	0.0154425
837.014	0.0153081
837.092	0.0153860
837.170	0.0154419
837.248	0.0154036
837.326	0.0154452
837.405	0.0154372
837.483	0.0154179
837.561	0.0154765
837.639	0.0154346
837.717	0.0155450
837.795	0.0154610
837.873	0.0155439
837.951	0.0155701
838.030	0.0155804
838.108	0.0155864
838.186	0.0155024
838.264	0.0154810
838.342	0.0155308
838.420	0.0156605
838.498	0.0155217
838.576	0.0156056
838.655	0.0157304
838.733	0.0156731
838.811	0.0157520
838.889	0.0156525
838.967	0.0155809
839.045	0.0157327
839.123	0.0158609
839.201	0.0158654
839.280	0.0158578
839.358	0.0157684
839.436	0.0158573
839.514	0.0159949
839.592	0.0160364
839.670	0.0159605
839.748	0.0159830
839.826	0.0160301
839.905	0.0160864
839.983	0.0161333
840.061	0.0160513
840.139	0.0159379
840.217	0.0159455
840.295	0.0158652
840.373	0.0158322
840.451	0.0160252
840.530	0.0158575
840.608	0.0158378
840.686	0.0157845
840.764	0.0157021
840.842	0.0158337
840.920	0.0159687
840.998	0.0156341
841.076	0.0157154
841.155	0.0156111
841.233	0.0155570
841.311	0.0156651
841.389	0.0157518
841.467	0.0156223
841.545	0.0155613
841.623	0.0156228
841.701	0.0157449
841.780	0.0156837
841.858	0.0157079
841.936	0.0155077
842.014	0.0156652
842.092	0.0156567
842.170	0.0155195
842.248	0.0155798
842.326	0.0155856
842.405	0.0153876
842.483	0.0153477
842.561	0.0155850
842.639	0.0152912
842.717	0.0153394
842.795	0.0153172
842.873	0.0154116
842.951	0.0153886
843.030	0.0152584
843.108	0.0153897
843.186	0.0153660
843.264	0.0155054
843.342	0.0154838
843.420	0.0153812
843.498	0.0154142
843.576	0.0154346
843.655	0.0156120
843.733	0.0155701
843.811	0.0155634
843.889	0.0155315
843.967	0.0156054
844.045	0.0157310
844.123	0.0156613
844.201	0.0158935
844.280	0.0157851
844.358	0.0157365
844.436	0.0157990
844.514	0.0157278
844.592	0.0159721
844.670	0.0158507
844.748	0.0159303
844.826	0.0158749
844.905	0.0158915
844.983	0.0160219
845.061	0.0159332
845.139	0.0159404
845.217	0.0159460
845.295	0.0158709
845.373	0.0159478
845.451	0.0160785
845.530	0.0159490
845.608	0.0159234
845.686	0.0160624
845.764	0.0159807
845.842	0.0159692
845.920	0.0158026
845.998	0.0158669
846.076	0.0158806
846.155	0.0157487
846.233	0.0157581
846.311	0.0158572
846.389	0.0157279
846.467	0.0157164
846.545	0.0157211
846.623	0.0157639
846.701	0.0157493
846.780	0.0157005
846.858	0.0158032
846.936	0.0156941
847.014	0.0156862
847.092	0.0156698
847.170	0.0157829
847.248	0.0158080
847.326	0.0156637
847.405	0.0155691
847.483	0.0155183
847.561	0.0156292
847.639	0.0155908
847.717	0.0153676
847.795	0.0154422
847.873	0.0154640
847.951	0.0154273
848.030	0.0154624
848.108	0.0153596
848.186	0.0153657
848.264	0.0154839
848.342	0.0154166
848.420	0.0155416
848.498	0.0153763
848.576	0.0156557
848.655	0.0156219
848.733	0.0155874
848.811	0.0155640
848.889	0.0154766
848.967	0.0154622
849.045	0.0154558
849.123	0.0155585
849.201	0.0156148
849.280	0.0156547
849.358	0.0155105
849.436	0.0155906
849.514	0.0155687
849.592	0.0157319
849.670	0.0157234
849.748	0.0155616
849.826	0.0156808
849.905	0.0157578
849.983	0.0158157
850.061	0.0157735
850.139	0.0157531
850.217	0.0157516
850.295	0.0158636
850.373	0.0157843
850.451	0.0158592
850.530	0.0159505
850.608	0.0159491
850.686	0.0159509
850.764	0.0159756
850.842	0.0160331
850.920	0.0160124
850.998	0.0160110
851.076	0.0160110
851.155	0.0160193
851.233	0.0158984
851.311	0.0158979
851.389	0.0160222
851.467	0.0159649
851.545	0.0159134
851.623	0.0158929
851.701	0.0158121
851.780	0.0159697
851.858	0.0160519
851.936	0.0158276
852.014	0.0158076
852.092	0.0156885
852.170	0.0157516
852.248	0.0157313
852.326	0.0156070
852.405	0.0156329
852.483	0.0157349
852.561	0.0157063
852.639	0.0156132
852.717	0.0155677
852.795	0.0154646
852.873	0.0154620
852.951	0.0153729
853.030	0.0153973
853.108	0.0155304
853.186	0.0154807
853.264	0.0155660
853.342	0.0154343
853.420	0.0155628
853.498	0.0154887
853.576	0.0153651
853.655	0.0155276
853.733	0.0154218
853.811	0.0154003
853.889	0.0154921
853.967	0.0154146
854.045	0.0153387
854.123	0.0154893
854.201	0.0153103
854.280	0.0155135
854.358	0.0154673
854.436	0.0153156
854.514	0.0153486
854.592	0.0155482
854.670	0.0153763
854.748	0.0154164
854.826	0.0153817
854.905	0.0154687
854.983	0.0153797
855.061	0.0155022
855.139	0.0155880
855.217	0.0156934
855.295	0.0157340
855.373	0.0158076
855.451	0.0157605
855.530	0.0156812
855.608	0.0158511
855.686	0.0160144
855.764	0.0157879
855.842	0.0158189
855.920	0.0159148
855.998	0.0159983
856.076	0.0159362
856.155	0.0159190
856.233	0.0160044
856.311	0.0159820
856.389	0.0160204
856.467	0.0161264
856.545	0.0160560
856.623	0.0160025
856.701	0.0161382
856.780	0.0160614
856.858	0.0159346
856.936	0.0159816
857.014	0.0160611
857.092	0.0159068
857.170	0.0159418
857.248	0.0158700
857.326	0.0158784
857.405	0.0159172
857.483	0.0158591
857.561	0.0158996
857.639	0.0158176
857.717	0.0158094
857.795	0.0156503
857.873	0.0157031
857.951	0.0158542
858.030	0.0156974
858.108	0.0156939
858.186	0.0157717
858.264	0.0155982
858.342	0.0155512
858.420	0.0157484
858.498	0.0155644
858.576	0.0157166
858.655	0.0156196
858.733	0.0155664
858.811	0.0155875
858.889	0.0155242
858.967	0.0156279
859.045	0.0156306
859.123	0.0157435
859.201	0.0156261
859.280	0.0155013
859.358	0.0156535
859.436	0.0156833
859.514	0.0154822
859.592	0.0155449
859.670	0.0154813
859.748	0.0155526
859.826	0.0156144
859.905	0.0154962
859.983	0.0153603
860.061	0.0154281
860.139	0.0154240
860.217	0.0154125
860.295	0.0154430
860.373	0.0152728
860.451	0.0154262
860.530	0.0155344
860.608	0.0154564
860.686	0.0155394
860.764	0.0155232
860.842	0.0154053
860.920	0.0155338
860.998	0.0154979
861.076	0.0157377
861.155	0.0157160
861.233	0.0157342
861.311	0.0157153
861.389	0.0157148
861.467	0.0158195
861.545	0.0157915
861.623	0.0157166
861.701	0.0158125
861.780	0.0158922
861.858	0.0157998
861.936	0.0158202
862.014	0.0158966
862.092	0.0158292
862.170	0.0158671
862.248	0.0157870
862.326	0.0158617
862.405	0.0157719
862.483	0.0158112
862.561	0.0158512
862.639	0.0157906
862.717	0.0160181
862.795	0.0158391
862.873	0.0159365
862.951	0.0158231
863.030	0.0157276
863.108	0.0157580
863.186	0.0158244
863.264	0.0157749
863.342	0.0158118
863.420	0.0156668
863.498	0.0157607
863.576	0.0157071
863.655	0.0157870
863.733	0.0156526
863.811	0.0157024
863.889	0.0156979
863.967	0.0157394
864.045	0.0156980
864.123	0.0156606
864.201	0.0157350
864.280	0.0157246
864.358	0.0155984
864.436	0.0156657
864.514	0.0155482
864.592	0.0155660
864.670	0.0155823
864.748	0.0155682
864.826	0.0155763
864.905	0.0155446
864.983	0.0155511
865.061	0.0155386
865.139	0.0153765
865.217	0.0153761
865.295	0.0155289
865.373	0.0154744
865.451	0.0153416
865.530	0.0154652
865.608	0.0154577
865.686	0.0155830
865.764	0.0154489
865.842	0.0155368
865.920	0.0156252
865.998	0.0155680
866.076	0.0155031
866.155	0.0154157
866.233	0.0156258
866.311	0.0157238
866.389	0.0155985
866.467	0.0155916
866.545	0.0156642
866.623	0.0156992
866.701	0.0155835
866.780	0.0155962
866.858	0.0157489
866.936	0.0155517
867.014	0.0155347
867.092	0.0156030
867.170	0.0156439
867.248	0.0157324
867.326	0.0156671
867.405	0.0156915
867.483	0.0157628
867.561	0.0157945
867.639	0.0157813
867.717	0.0157941
867.795	0.0157544
867.873	0.0159570
867.951	0.0157703
868.030	0.0158408
868.108	0.0158392
868.186	0.0159959
868.264	0.0160881
868.342	0.0159321
868.420	0.0158948
868.498	0.0160171
868.576	0.0159742
868.655	0.0158192
868.733	0.0156755
868.811	0.0157794
868.889	0.0157558
868.967	0.0157349
869.045	0.0157803
869.123	0.0157504
869.201	0.0157195
869.280	0.0156700
869.358	0.0155813
869.436	0.0156287
869.514	0.0156631
869.592	0.0155991
869.670	0.0157774
869.748	0.0157497
869.826	0.0155568
869.905	0.0155799
869.983	0.0156223
870.061	0.0156100
870.139	0.0156086
870.217	0.0157167
870.295	0.0157072
870.373	0.0156512
870.451	0.0155887
870.530	0.0156069
870.608	0.0156277
870.686	0.0155707
870.764	0.0156395
870.842	0.0155370
870.920	0.0154878
870.998	0.0156493
871.076	0.0156094
871.155	0.0154927
871.233	0.0155909
871.311	0.0156322
871.389	0.0154725
871.467	0.0155834
871.545	0.0155675
871.623	0.0155977
871.701	0.0157272
871.780	0.0155727
871.858	0.0156342
871.936	0.0156915
872.014	0.0156857
872.092	0.0155585
872.170	0.0155418
872.248	0.0155927
872.326	0.0155746
872.405	0.0154086
872.483	0.0156200
872.561	0.0155364
872.639	0.0155665
872.717	0.0155982
872.795	0.0156468
872.873	0.0155452
872.951	0.0157525
873.030	0.0156460
873.108	0.0156906
873.186	0.0156446
873.264	0.0157802
873.342	0.0157261
873.420	0.0158255
873.498	0.0158551
873.576	0.0158376
873.655	0.0158397
873.733	0.0158188
873.811	0.0158661
873.889	0.0157813
873.967	0.0158173
874.045	0.0158021
874.123	0.0157565
874.201	0.0158302
874.280	0.0156769
874.358	0.0157479
874.436	0.0157487
874.514	0.0158267
874.592	0.0157342
874.670	0.0158327
874.748	0.0157334
874.826	0.0158101
874.905	0.0158373
874.983	0.0156236
875.061	0.0156683
875.139	0.0156924
875.217	0.0157169
875.295	0.0156404
875.373	0.0155356
875.451	0.0156982
875.530	0.0155695
875.608	0.0156872
875.686	0.0154900
875.764	0.0155723
875.842	0.0155342
875.920	0.0155550
875.998	0.0155444
876.076	0.0155577
876.155	0.0156492
876.233	0.0155592
876.311	0.0156699
876.389	0.0156624
876.467	0.0155882
876.545	0.0157150
876.623	0.0156396
876.701	0.0156690
876.780	0.0155674
876.858	0.0155528
876.936	0.0155695
877.014	0.0156874
877.092	0.0156312
877.170	0.0155766
877.248	0.0156184
877.326	0.0156897
877.405	0.0154594
877.483	0.0155709
877.561	0.0154122
877.639	0.0156023
877.717	0.0156793
877.795	0.0156555
877.873	0.0155288
877.951	0.0157018
878.030	0.0157064
878.108	0.0155672
878.186	0.0157001
878.264	0.0158688
878.342	0.0156750
878.420	0.0157440
878.498	0.0157655
878.576	0.0158318
878.655	0.0157207
878.733	0.0158852
878.811	0.0157404
878.889	0.0158293
878.967	0.0158713
879.045	0.0158937
879.123	0.0158509
879.201	0.0158347
879.280	0.0157596
879.358	0.0157118
879.436	0.0156706
879.514	0.0157118
879.592	0.0156782
879.670	0.0157001
879.748	0.0158806
879.826	0.0157661
879.905	0.0158041
879.983	0.0158437
880.061	0.0157874
880.139	0.0158325
880.217	0.0159702
880.295	0.0157008
880.373	0.0157920
880.451	0.0160089
880.530	0.0158894
880.608	0.0157320
880.686	0.0157714
880.764	0.0157677
880.842	0.0157175
880.920	0.0157061
880.998	0.0158645
881.076	0.0157874
881.155	0.0157054
881.233	0.0158302
881.311	0.0157077
881.389	0.0157831
881.467	0.0156747
881.545	0.0154893
881.623	0.0156396
881.701	0.0156666
881.780	0.0155210
881.858	0.0155105
881.936	0.0155170
882.014	0.0154462
882.092	0.0155124
882.170	0.0155459
882.248	0.0156847
882.326	0.0156141
882.405	0.0154502
882.483	0.0155584
882.561	0.0155663
882.639	0.0155500
882.717	0.0156503
882.795	0.0156242
882.873	0.0156996
882.951	0.0156232
883.030	0.0156229
883.108	0.0156937
883.186	0.0158211
883.264	0.0157275
883.342	0.0156564
883.420	0.0156510
883.498	0.0156964
883.576	0.0155955
883.655	0.0157935
883.733	0.0156570
883.811	0.0158276
883.889	0.0158529
883.967	0.0157566
884.045	0.0156886
884.123	0.0157189
884.201	0.0157453
884.280	0.0156234
884.358	0.0156674
884.436	0.0156464
884.514	0.0156124
884.592	0.0156894
884.670	0.0155309
884.748	0.0156481
884.826	0.0157278
884.905	0.0157117
884.983	0.0156332
885.061	0.0155654
885.139	0.0156802
885.217	0.0157873
885.295	0.0156920
885.373	0.0155701
885.451	0.0155540
885.530	0.0156796
885.608	0.0155659
885.686	0.0155647
885.764	0.0156089
885.842	0.0156142
885.920	0.0155840
885.998	0.0156013
886.076	0.0157018
886.155	0.0155691
886.233	0.0156474
886.311	0.0156844
886.389	0.0157038
886.467	0.0156758
886.545	0.0156367
886.623	0.0155606
886.701	0.0155737
886.780	0.0155604
886.858	0.0155206
886.936	0.0155849
887.014	0.0155393
887.092	0.0156361
887.170	0.0154556
887.248	0.0154129
887.326	0.0156893
887.405	0.0155550
887.483	0.0155990
887.561	0.0157360
887.639	0.0156139
887.717	0.0156454
887.795	0.0157896
887.873	0.0158894
887.951	0.0157480
888.030	0.0157011
888.108	0.0158794
888.186	0.0158313
888.264	0.0157617
888.342	0.0159739
888.420	0.0158817
888.498	0.0159146
888.576	0.0158782
888.655	0.0158298
888.733	0.0158656
888.811	0.0158138
888.889	0.0158065
888.967	0.0157941
889.045	0.0155903
889.123	0.0155362
889.201	0.0154665
889.280	0.0155010
889.358	0.0153033
889.436	0.0154068
889.514	0.0152755
889.592	0.0152841
889.670	0.0152110
889.748	0.0152286
889.826	0.0152325
889.905	0.0152926
889.983	0.0154209
890.061	0.0152476
890.139	0.0153808
890.217	0.0154935
890.295	0.0156862
890.373	0.0155885
890.451	0.0155901
890.530	0.0157060
890.608	0.0157292
890.686	0.0159056
890.764	0.0159879
890.842	0.0157824
890.920	0.0158539
890.998	0.0160123
891.076	0.0160135
891.155	0.0159571
891.233	0.0160378
891.311	0.0159541
891.389	0.0159629
891.467	0.0159672
891.545	0.0157199
891.623	0.0157872
891.701	0.0158412
891.780	0.0156734
891.858	0.0157140
891.936	0.0158210
892.014	0.0156976
892.092	0.0154757
892.170	0.0156077
892.248	0.0155399
892.326	0.0155766
892.405	0.0155520
892.483	0.0155049
892.561	0.0155834
892.639	0.0154036
892.717	0.0153649
892.795	0.0154407
892.873	0.0155789
892.951	0.0153734
893.030	0.0155247
893.108	0.0155993
893.186	0.0156541
893.264	0.0156906
893.342	0.0156378
893.420	0.0155960
893.498	0.0156539
893.576	0.0158780
893.655	0.0159097
893.733	0.0160235
893.811	0.0160483
893.889	0.0160616
893.967	0.0161491
894.045	0.0161275
894.123	0.0160490
894.201	0.0158759
894.280	0.0159839
894.358	0.0157801
894.436	0.0159499
894.514	0.0158826
894.592	0.0157634
894.670	0.0157973
894.748	0.0157122
894.826	0.0155718
894.905	0.0153464
894.983	0.0154846
895.061	0.0153908
895.139	0.0155613
895.217	0.0154037
895.295	0.0153497
895.373	0.0154436
895.451	0.0154379
895.530	0.0153528
895.608	0.0153517
895.686	0.0154297
895.764	0.0155299
895.842	0.0153755
895.920	0.0155173
895.998	0.0156123
896.076	0.0154357
896.155	0.0153996
896.233	0.0155516
896.311	0.0156071
896.389	0.0156512
896.467	0.0157672
896.545	0.0158576
896.623	0.0158525
896.701	0.0157942
896.780	0.0157191
896.858	0.0157435
896.936	0.0158025
897.014	0.0157809
897.092	0.0156846
897.170	0.0157345
897.248	0.0156020
897.326	0.0156413
897.405	0.0156207
897.483	0.0155354
897.561	0.0155219
897.639	0.0155576
897.717	0.0153839
897.795	0.0155634
897.873	0.0156094
897.951	0.0154783
898.030	0.0154617
898.108	0.0154738
898.186	0.0155322
898.264	0.0155656
898.342	0.0155799
898.420	0.0155695
898.498	0.0155518
898.576	0.0157204
898.655	0.0157924
898.733	0.0157223
898.811	0.0158584
898.889	0.0159386
898.967	0.0159472
899.045	0.0159153
899.123	0.0158473
899.201	0.0158675
899.280	0.0159373
899.358	0.0160719
899.436	0.0159158
899.514	0.0158915
899.592	0.0159341
899.670	0.0158397
899.748	0.0158739
899.826	0.0157760
899.905	0.0158807
899.983	0.0155956
900.061	0.0158485
900.139	0.0157988
900.217	0.0157297
900.295	0.0156230
900.373	0.0157868
900.451	0.0157129
900.530	0.0155915
900.608	0.0155019
900.686	0.0156508
900.764	0.0155383
900.842	0.0154456
900.920	0.0155511
900.998	0.0154442
901.076	0.0154601
901.155	0.0153238
901.233	0.0154209
901.311	0.0152448
901.389	0.0152776
901.467	0.0154217
901.545	0.0152492
901.623	0.0153889
901.701	0.0152990
901.780	0.0153378
901.858	0.0151449
901.936	0.0152049
902.014	0.0154448
902.092	0.0153309
902.170	0.0154876
902.248	0.0155846
902.326	0.0156901
902.405	0.0155229
902.483	0.0155119
902.561	0.0156515
902.639	0.0157311
902.717	0.0158439
902.795	0.0159898
902.873	0.0158640
902.951	0.0158519
903.030	0.0159405
903.108	0.0158716
903.186	0.0158649
903.264	0.0159116
903.342	0.0159803
903.420	0.0159441
903.498	0.0159634
903.576	0.0159908
903.655	0.0159510
903.733	0.0158531
903.811	0.0157774
903.889	0.0159364
903.967	0.0157705
904.045	0.0157768
904.123	0.0156740
904.201	0.0156709
904.280	0.0157811
904.358	0.0155995
904.436	0.0156228
904.514	0.0155784
904.592	0.0155552
904.670	0.0154567
904.748	0.0156437
904.826	0.0157491
904.905	0.0154958
904.983	0.0155708
905.061	0.0154072
905.139	0.0153890
905.217	0.0154964
905.295	0.0155424
905.373	0.0154799
905.451	0.0154428
905.530	0.0154330
905.608	0.0153168
905.686	0.0155130
905.764	0.0154946
905.842	0.0152999
905.920	0.0154341
905.998	0.0155077
906.076	0.0154504
906.155	0.0155506
906.233	0.0155073
906.311	0.0154375
906.389	0.0155070
906.467	0.0156515
906.545	0.0156545
906.623	0.0155939
906.701	0.0157080
906.780	0.0156467
906.858	0.0156385
906.936	0.0156696
907.014	0.0157765
907.092	0.0156147
907.170	0.0156843
907.248	0.0156549
907.326	0.0156891
907.405	0.0155811
907.483	0.0157386
907.561	0.0155298
907.639	0.0156973
907.717	0.0156194
907.795	0.0154301
907.873	0.0156208
907.951	0.0156650
908.030	0.0156516
908.108	0.0157198
908.186	0.0156736
908.264	0.0156881
908.342	0.0158437
908.420	0.0159642
908.498	0.0157246
908.576	0.0159411
908.655	0.0158617
908.733	0.0159017
908.811	0.0157811
908.889	0.0159728
908.967	0.0158968
909.045	0.0160049
909.123	0.0159337
909.201	0.0158887
909.280	0.0159165
909.358	0.0159230
909.436	0.0160386
909.514	0.0159109
909.592	0.0158092
909.670	0.0159340
909.748	0.0158295
909.826	0.0155929
909.905	0.0155945
909.983	0.0154918
910.061	0.0154486
910.139	0.0154160
910.217	0.0152926
910.295	0.0152818
910.373	0.0151959
910.451	0.0151701
910.530	0.0151846
910.608	0.0150320
910.686	0.0151816
910.764	0.0152113
910.842	0.0152001
910.920	0.0152944
910.998	0.0152806
911.076	0.0152958
911.155	0.0154800
911.233	0.0154488
911.311	0.0155040
911.389	0.0156046
911.467	0.0156464
911.545	0.0158925
911.623	0.0158694
911.701	0.0158347
911.780	0.0159200
911.858	0.0159361
911.936	0.0157941
912.014	0.0158969
912.092	0.0160090
912.170	0.0159784
912.248	0.0160683
912.326	0.0158505
912.405	0.0159874
912.483	0.0158739
912.561	0.0159249
912.639	0.0159091
912.717	0.0158034
912.795	0.0156815
912.873	0.0157919
912.951	0.0158160
913.030	0.0157843
913.108	0.0158025
913.186	0.0156165
913.264	0.0157688
913.342	0.0156280
913.420	0.0156728
913.498	0.0158148
913.576	0.0158075
913.655	0.0155873
913.733	0.0156515
913.811	0.0155645
913.889	0.0158846
913.967	0.0157732
914.045	0.0156071
914.123	0.0156952
914.201	0.0156645
914.280	0.0156557
914.358	0.0157079
914.436	0.0158134
914.514	0.0157700
914.592	0.0157266
914.670	0.0156773
914.748	0.0157670
914.826	0.0157533
914.905	0.0157432
914.983	0.0157504
915.061	0.0156266
915.139	0.0156168
915.217	0.0157236
915.295	0.0156487
915.373	0.0157411
915.451	0.0156871
915.530	0.0157938
915.608	0.0156615
915.686	0.0156012
915.764	0.0156453
915.842	0.0157693
915.920	0.0156292
915.998	0.0156228
916.076	0.0155812
916.155	0.0155573
916.233	0.0156331
916.311	0.0156443
916.389	0.0156116
916.467	0.0157208
916.545	0.0157851
916.623	0.0155399
916.701	0.0157307
916.780	0.0155586
916.858	0.0155941
916.936	0.0156202
917.014	0.0156247
917.092	0.0155932
917.170	0.0155946
917.248	0.0155949
917.326	0.0156531
917.405	0.0157136
917.483	0.0157125
917.561	0.0157726
917.639	0.0157380
917.717	0.0157098
917.795	0.0158735
917.873	0.0158171
917.951	0.0157189
918.030	0.0158454
918.108	0.0158223
918.186	0.0157204
918.264	0.0157150
918.342	0.0158257
918.420	0.0159007
918.498	0.0158272
918.576	0.0157322
918.655	0.0157845
918.733	0.0157800
918.811	0.0157058
918.889	0.0156906
918.967	0.0158724
919.045	0.0158038
919.123	0.0157870
919.201	0.0157491
919.280	0.0158135
919.358	0.0158714
919.436	0.0159201
919.514	0.0159046
919.592	0.0158157
919.670	0.0157562
919.748	0.0157202
919.826	0.0156794
919.905	0.0157943
919.983	0.0156976
920.061	0.0157673
920.139	0.0156824
920.217	0.0156308
920.295	0.0156499
920.373	0.0155495
920.451	0.0156302
920.530	0.0157079
920.608	0.0156206
920.686	0.0155331
920.764	0.0154951
920.842	0.0156725
920.920	0.0155990
920.998	0.0156887
921.076	0.0154713
921.155	0.0154755
921.233	0.0154687
921.311	0.0155659
921.389	0.0154718
921.467	0.0155064
921.545	0.0156445
921.623	0.0155656
921.701	0.0154639
921.780	0.0154742
921.858	0.0154663
921.936	0.0155034
922.014	0.0155242
922.092	0.0153847
922.170	0.0155241
922.248	0.0153880
922.326	0.0154765
922.405	0.0154625
922.483	0.0155264
922.561	0.0155165
922.639	0.0154810
922.717	0.0156989
922.795	0.0156203
922.873	0.0153991
922.951	0.0155599
923.030	0.0156071
923.108	0.0157457
923.186	0.0157196
923.264	0.0155784
923.342	0.0154704
923.420	0.0156414
923.498	0.0156247
923.576	0.0155883
923.655	0.0156590
923.733	0.0155222
923.811	0.0155559
923.889	0.0157534
923.967	0.0155377
924.045	0.0156377
924.123	0.0156387
924.201	0.0156926
924.280	0.0156039
924.358	0.0156153
924.436	0.0155690
924.514	0.0156641
924.592	0.0156184
924.670	0.0157820
924.748	0.0156941
924.826	0.0157512
924.905	0.0156736
924.983	0.0158083
925.061	0.0156978
925.139	0.0157973
925.217	0.0157730
925.295	0.0157894
925.373	0.0158339
925.451	0.0158656
925.530	0.0158456
925.608	0.0159046
925.686	0.0158831
925.764	0.0157195
925.842	0.0158518
925.920	0.0158180
925.998	0.0157498
926.076	0.0158315
926.155	0.0157984
926.233	0.0156358
926.311	0.0155392
926.389	0.0154656
926.467	0.0155352
926.545	0.0154993
926.623	0.0155201
926.701	0.0155608
926.780	0.0154250
926.858	0.0155093
926.936	0.0155003
927.014	0.0154243
927.092	0.0154324
927.170	0.0155542
927.248	0.0154085
927.326	0.0154146
927.405	0.0155483
927.483	0.0155671
927.561	0.0155038
927.639	0.0156171
927.717	0.0155948
927.795	0.0156288
927.873	0.0157800
927.951	0.0155724
928.030	0.0156185
928.108	0.0156828
928.186	0.0158360
928.264	0.0158258
928.342	0.0156625
928.420	0.0155848
928.498	0.0157213
928.576	0.0157664
928.655	0.0156264
928.733	0.0156482
928.811	0.0157098
928.889	0.0157618
928.967	0.0157157
929.045	0.0155296
929.123	0.0156380
929.201	0.0156251
929.280	0.0156406
929.358	0.0156411
929.436	0.0154803
929.514	0.0156115
929.592	0.0155757
929.670	0.0156225
929.748	0.0155124
929.826	0.0156519
929.905	0.0155500
929.983	0.0156669
930.061	0.0157589
930.139	0.0157627
930.217	0.0158308
930.295	0.0157756
930.373	0.0159269
930.451	0.0159419
930.530	0.0157616
930.608	0.0158865
930.686	0.0158924
930.764	0.0158897
930.842	0.0158755
930.920	0.0158866
930.998	0.0157146
931.076	0.0158407
931.155	0.0156764
931.233	0.0157149
931.311	0.0155721
931.389	0.0157433
931.467	0.0156990
931.545	0.0156355
931.623	0.0157526
931.701	0.0157014
931.780	0.0157801
931.858	0.0156429
931.936	0.0155917
932.014	0.0156251
932.092	0.0157304
932.170	0.0156339
932.248	0.0156659
932.326	0.0156835
932.405	0.0157294
932.483	0.0156315
932.561	0.0156911
932.639	0.0156347
932.717	0.0156063
932.795	0.0157713
932.873	0.0157047
932.951	0.0155547
933.030	0.0155729
933.108	0.0153652
933.186	0.0156044
933.264	0.0154816
933.342	0.0154490
933.420	0.0155189
933.498	0.0154825
933.576	0.0155161
933.655	0.0154468
933.733	0.0155007
933.811	0.0154188
933.889	0.0154401
933.967	0.0152930
934.045	0.0154288
934.123	0.0153816
934.201	0.0153549
934.280	0.0154412
934.358	0.0155455
934.436	0.0155707
934.514	0.0154218
934.592	0.0154498
934.670	0.0154874
934.748	0.0154441
934.826	0.0156530
934.905	0.0156091
934.983	0.0155687
935.061	0.0155920
935.139	0.0155807
935.217	0.0155930
935.295	0.0156052
935.373	0.0155715
935.451	0.0154413
935.530	0.0158192
935.608	0.0158003
935.686	0.0157737
935.764	0.0156527
935.842	0.0157821
935.920	0.0158160
935.998	0.0158327
936.076	0.0159531
936.155	0.0160020
936.233	0.0158462
936.311	0.0159033
936.389	0.0159875
936.467	0.0158078
936.545	0.0158408
936.623	0.0157919
936.701	0.0158429
936.780	0.0158842
936.858	0.0159521
936.936	0.0159025
937.014	0.0159490
937.092	0.0159364
937.170	0.0158189
937.248	0.0158255
937.326	0.0159206
937.405	0.0158852
937.483	0.0157122
937.561	0.0156635
937.639	0.0156274
937.717	0.0155219
937.795	0.0156597
937.873	0.0156802
937.951	0.0154483
938.030	0.0154527
938.108	0.0155653
938.186	0.0154621
938.264	0.0155515
938.342	0.0154949
938.420	0.0155481
938.498	0.0155833
938.576	0.0154986
938.655	0.0155479
938.733	0.0156844
938.811	0.0156293
938.889	0.0154541
938.967	0.0155237
939.045	0.0156300
939.123	0.0154180
939.201	0.0155471
939.280	0.0155977
939.358	0.0154893
939.436	0.0155037
939.514	0.0156184
939.592	0.0155623
939.670	0.0155173
939.748	0.0155453
939.826	0.0155828
939.905	0.0154753
939.983	0.0156027
940.061	0.0155064
940.139	0.0156534
940.217	0.0156475
940.295	0.0156314
940.373	0.0156149
940.451	0.0156223
940.530	0.0156232
940.608	0.0155791
940.686	0.0157029
940.764	0.0157365
940.842	0.0157163
940.920	0.0157926
940.998	0.0158106
941.076	0.0157932
941.155	0.0158807
941.233	0.0158788
941.311	0.0159361
941.389	0.0158809
941.467	0.0159591
941.545	0.0158533
941.623	0.0157409
941.701	0.0158684
941.780	0.0159810
941.858	0.0158889
941.936	0.0160255
942.014	0.0159232
942.092	0.0158934
942.170	0.0158802
942.248	0.0158105
942.326	0.0158893
942.405	0.0158630
942.483	0.0157651
942.561	0.0157270
942.639	0.0157680
942.717	0.0157544
942.795	0.0156525
942.873	0.0158079
942.951	0.0156704
943.030	0.0155675
943.108	0.0157340
943.186	0.0157539
943.264	0.0155875
943.342	0.0155325
943.420	0.0156165
943.498	0.0156176
943.576	0.0155447
943.655	0.0154559
943.733	0.0154967
943.811	0.0155444
943.889	0.0154596
943.967	0.0155457
944.045	0.0155460
944.123	0.0154884
944.201	0.0153475
944.280	0.0154829
944.358	0.0156622
944.436	0.0155013
944.514	0.0154753
944.592	0.0153943
944.670	0.0152803
944.748	0.0153428
944.826	0.0154753
944.905	0.0154130
944.983	0.0153526
945.061	0.0155386
945.139	0.0155450
945.217	0.0154874
945.295	0.0154587
945.373	0.0155011
945.451	0.0154718
945.530	0.0154375
945.608	0.0154894
945.686	0.0154282
945.764	0.0155589
945.842	0.0156248
945.920	0.0155724
945.998	0.0155843
946.076	0.0155157
946.155	0.0156677
946.233	0.0156764
946.311	0.0156731
946.389	0.0156644
946.467	0.0156540
946.545	0.0158318
946.623	0.0158430
946.701	0.0158624
946.780	0.0158439
946.858	0.0157995
946.936	0.0159739
947.014	0.0158469
947.092	0.0159644
947.170	0.0160953
947.248	0.0161314
947.326	0.0160336
947.405	0.0161724
947.483	0.0161060
947.561	0.0160409
947.639	0.0160892
947.717	0.0162093
947.795	0.0160466
947.873	0.0160227
947.951	0.0158405
948.030	0.0158590
948.108	0.0158373
948.186	0.0157847
948.264	0.0156177
948.342	0.0156884
948.420	0.0154601
948.498	0.0153685
948.576	0.0155534
948.655	0.0153794
948.733	0.0154345
948.811	0.0153745
948.889	0.0152780
948.967	0.0153865
949.045	0.0152773
949.123	0.0151395
949.201	0.0153236
949.280	0.0152828
949.358	0.0154331
949.436	0.0153733
949.514	0.0154238
949.592	0.0153202
949.670	0.0153693
949.748	0.0156136
949.826	0.0155445
949.905	0.0154170
949.983	0.0155278
950.061	0.0153638
950.139	0.0155704
950.217	0.0156159
950.295	0.0155166
950.373	0.0155810
950.451	0.0156736
950.530	0.0156332
950.608	0.0155972
950.686	0.0155578
950.764	0.0156393
950.842	0.0156429
950.920	0.0155894
950.998	0.0156190
951.076	0.0155861
951.155	0.0155229
951.233	0.0156038
951.311	0.0155865
951.389	0.0156085
951.467	0.0157095
951.545	0.0157558
951.623	0.0158637
951.701	0.0157998
951.780	0.0158673
951.858	0.0156554
951.936	0.0158199
952.014	0.0159152
952.092	0.0158805
952.170	0.0158685
952.248	0.0158893
952.326	0.0158545
952.405	0.0158701
952.483	0.0159512
952.561	0.0159846
952.639	0.0159898
952.717	0.0160413
952.795	0.0160180
952.873	0.0159492
952.951	0.0159483
953.030	0.0158918
953.108	0.0158782
953.186	0.0159216
953.264	0.0159996
953.342	0.0159518
953.420	0.0159207
953.498	0.0157928
953.576	0.0158556
953.655	0.0157583
953.733	0.0158571
953.811	0.0157771
953.889	0.0156715
953.967	0.0155586
954.045	0.0157040
954.123	0.0156231
954.201	0.0156220
954.280	0.0156095
954.358	0.0155061
954.436	0.0155462
954.514	0.0154530
954.592	0.0155350
954.670	0.0155595
954.748	0.0156023
954.826	0.0155525
954.905	0.0155776
954.983	0.0155326
955.061	0.0155019
955.139	0.0155284
955.217	0.0154409
955.295	0.0153935
955.373	0.0155848
955.451	0.0155433
955.530	0.0154833
955.608	0.0153377
955.686	0.0155509
955.764	0.0156034
955.842	0.0156300
955.920	0.0155606
955.998	0.0156055
956.076	0.0155280
956.155	0.0156537
956.233	0.0156548
956.311	0.0156406
956.389	0.0156846
956.467	0.0155176
956.545	0.0155170
956.623	0.0156839
956.701	0.0156146
956.780	0.0156570
956.858	0.0155074
956.936	0.0156276
957.014	0.0155791
957.092	0.0157192
957.170	0.0156688
957.248	0.0155255
957.326	0.0155486
957.405	0.0155912
957.483	0.0157008
957.561	0.0156049
957.639	0.0156700
957.717	0.0156645
957.795	0.0156782
957.873	0.0158427
957.951	0.0156091
958.030	0.0156694
958.108	0.0157764
958.186	0.0158321
958.264	0.0159035
958.342	0.0158145
958.420	0.0160120
958.498	0.0159076
958.576	0.0157722
958.655	0.0157553
958.733	0.0160582
958.811	0.0159289
958.889	0.0156940
958.967	0.0158129
959.045	0.0158263
959.123	0.0158678
959.201	0.0157345
959.280	0.0157424
959.358	0.0158144
959.436	0.0155583
959.514	0.0158416
959.592	0.0157352
959.670	0.0156961
959.748	0.0155028
959.826	0.0154751
959.905	0.0156281
