05/14/2022	19:40:41	Ver.	4.1	UNKNOWN
Optical Delay	650.009681	Delta X		0.078125	Sweeps	1	Scan Rate	0/0
Coordinates	Axis 1	NaN	Axis 2	NaN	Axis 3	NaN	Axis 4	NaN	Axis 5	NaN	Axis 6	0.000000
TX Power	0.000000	RX Power	0.000000

650.010	0.0132614
650.088	0.0132911
650.166	0.0133789
650.244	0.0132423
650.322	0.0132822
650.400	0.0133146
650.478	0.0132391
650.557	0.0133186
650.635	0.0132511
650.713	0.0133511
650.791	0.0133350
650.869	0.0134097
650.947	0.0132675
651.025	0.0133973
651.103	0.0134563
651.182	0.0133350
651.260	0.0133308
651.338	0.0134431
651.416	0.0133580
651.494	0.0133362
651.572	0.0134148
651.650	0.0132960
651.728	0.0132769
651.807	0.0132494
651.885	0.0132277
651.963	0.0131393
652.041	0.0131720
652.119	0.0131649
652.197	0.0130876
652.275	0.0131240
652.353	0.0131931
652.432	0.0131552
652.510	0.0133942
652.588	0.0133057
652.666	0.0133988
652.744	0.0133655
652.822	0.0135323
652.900	0.0136519
652.978	0.0137113
653.057	0.0136642
653.135	0.0137352
653.213	0.0138902
653.291	0.0138113
653.369	0.0140102
653.447	0.0138544
653.525	0.0137222
653.603	0.0136882
653.682	0.0136969
653.760	0.0136109
653.838	0.0135468
653.916	0.0136021
653.994	0.0135374
654.072	0.0133538
654.150	0.0133102
654.228	0.0133588
654.307	0.0134267
654.385	0.0133823
654.463	0.0132203
654.541	0.0132619
654.619	0.0134558
654.697	0.0133805
654.775	0.0133516
654.853	0.0134586
654.932	0.0135116
655.010	0.0135952
655.088	0.0135328
655.166	0.0134718
655.244	0.0137052
655.322	0.0137546
655.400	0.0136509
655.478	0.0137071
655.557	0.0137411
655.635	0.0136721
655.713	0.0136774
655.791	0.0137937
655.869	0.0136183
655.947	0.0137333
656.025	0.0135076
656.103	0.0134021
656.182	0.0134038
656.260	0.0133032
656.338	0.0131832
656.416	0.0132507
656.494	0.0131933
656.572	0.0129991
656.650	0.0127085
656.728	0.0127393
656.807	0.0128117
656.885	0.0126262
656.963	0.0127032
657.041	0.0131192
657.119	0.0128086
657.197	0.0127271
657.275	0.0128896
657.353	0.0130910
657.432	0.0132752
657.510	0.0134077
657.588	0.0135554
657.666	0.0136789
657.744	0.0138762
657.822	0.0140305
657.900	0.0140841
657.978	0.0140260
658.057	0.0141692
658.135	0.0140742
658.213	0.0140974
658.291	0.0141975
658.369	0.0141168
658.447	0.0140495
658.525	0.0139135
658.603	0.0138948
658.682	0.0137119
658.760	0.0134676
658.838	0.0133652
658.916	0.0132955
658.994	0.0130298
659.072	0.0128259
659.150	0.0127859
659.228	0.0126443
659.307	0.0124743
659.385	0.0124060
659.463	0.0121599
659.541	0.0121676
659.619	0.0121043
659.697	0.0120871
659.775	0.0122569
659.853	0.0121132
659.932	0.0122518
660.010	0.0123583
660.088	0.0124443
660.166	0.0127094
660.244	0.0129826
660.322	0.0131201
660.400	0.0131861
660.478	0.0133727
660.557	0.0136140
660.635	0.0138404
660.713	0.0139852
660.791	0.0141966
660.869	0.0143763
660.947	0.0145861
661.025	0.0146468
661.103	0.0146655
661.182	0.0148130
661.260	0.0147842
661.338	0.0149113
661.416	0.0149156
661.494	0.0147906
661.572	0.0146180
661.650	0.0146325
661.728	0.0146009
661.807	0.0144263
661.885	0.0142947
661.963	0.0140093
662.041	0.0140018
662.119	0.0139013
662.197	0.0137402
662.275	0.0136456
662.353	0.0136417
662.432	0.0134239
662.510	0.0132796
662.588	0.0131837
662.666	0.0129724
662.744	0.0127306
662.822	0.0125983
662.900	0.0124565
662.978	0.0121635
663.057	0.0120108
663.135	0.0118796
663.213	0.0117713
663.291	0.0116504
663.369	0.0115063
663.447	0.0114670
663.525	0.0113412
663.603	0.0113567
663.682	0.0112961
663.760	0.0113226
663.838	0.0114583
663.916	0.0116194
663.994	0.0116945
664.072	0.0119753
664.150	0.0122974
664.228	0.0126343
664.307	0.0127766
664.385	0.0132159
664.463	0.0136375
664.541	0.0140488
664.619	0.0144430
664.697	0.0147578
664.775	0.0152290
664.853	0.0157397
664.932	0.0159811
665.010	0.0164158
665.088	0.0165960
665.166	0.0167535
665.244	0.0169284
665.322	0.0170988
665.400	0.0170406
665.478	0.0170141
665.557	0.0168166
665.635	0.0168111
665.713	0.0164989
665.791	0.0162454
665.869	0.0157371
665.947	0.0153493
666.025	0.0149267
666.103	0.0144440
666.182	0.0139694
666.260	0.0133517
666.338	0.0127442
666.416	0.0121978
666.494	0.0118594
666.572	0.0111446
666.650	0.0108117
666.728	0.0102158
666.807	0.00987419
666.885	0.00951012
666.963	0.00937340
667.041	0.00912163
667.119	0.00901016
667.197	0.00896271
667.275	0.00895180
667.353	0.00924278
667.432	0.00931572
667.510	0.00967354
667.588	0.00993576
667.666	0.0103632
667.744	0.0107133
667.822	0.0112257
667.900	0.0117031
667.978	0.0121075
668.057	0.0126806
668.135	0.0129984
668.213	0.0135804
668.291	0.0140170
668.369	0.0144968
668.447	0.0147728
668.525	0.0151705
668.603	0.0153964
668.682	0.0159378
668.760	0.0160725
668.838	0.0164472
668.916	0.0166462
668.994	0.0170167
669.072	0.0171241
669.150	0.0171574
669.228	0.0171609
669.307	0.0171884
669.385	0.0172093
669.463	0.0170850
669.541	0.0168931
669.619	0.0168243
669.697	0.0164536
669.775	0.0162061
669.853	0.0159229
669.932	0.0157554
670.010	0.0153294
670.088	0.0148047
670.166	0.0144427
670.244	0.0141198
670.322	0.0138499
670.400	0.0134177
670.478	0.0130320
670.557	0.0124834
670.635	0.0120937
670.713	0.0116505
670.791	0.0112036
670.869	0.0107920
670.947	0.0103156
671.025	0.00971725
671.103	0.00954155
671.182	0.00907845
671.260	0.00885979
671.338	0.00864357
671.416	0.00861977
671.494	0.00844215
671.572	0.00843765
671.650	0.00860847
671.728	0.00879570
671.807	0.00920547
671.885	0.00928368
671.963	0.00973267
672.041	0.0102399
672.119	0.0107256
672.197	0.0111698
672.275	0.0115625
672.353	0.0123095
672.432	0.0129203
672.510	0.0134267
672.588	0.0141622
672.666	0.0145288
672.744	0.0151302
672.822	0.0156542
672.900	0.0162464
672.978	0.0167231
673.057	0.0172125
673.135	0.0175041
673.213	0.0177916
673.291	0.0179717
673.369	0.0183455
673.447	0.0183969
673.525	0.0184546
673.603	0.0183116
673.682	0.0181760
673.760	0.0179273
673.838	0.0176057
673.916	0.0172923
673.994	0.0168950
674.072	0.0164406
674.150	0.0160085
674.228	0.0154933
674.307	0.0150246
674.385	0.0143933
674.463	0.0140629
674.541	0.0134105
674.619	0.0128648
674.697	0.0126495
674.775	0.0122501
674.853	0.0117275
674.932	0.0113523
675.010	0.0110442
675.088	0.0106288
675.166	0.0104362
675.244	0.0101443
675.322	0.00985069
675.400	0.00969696
675.478	0.00962585
675.557	0.00955132
675.635	0.00952759
675.713	0.00973915
675.791	0.00972328
675.869	0.00985374
675.947	0.0102230
676.025	0.0103522
676.103	0.0107119
676.182	0.0110689
676.260	0.0114090
676.338	0.0117995
676.416	0.0122458
676.494	0.0126112
676.572	0.0128005
676.650	0.0131966
676.728	0.0135174
676.807	0.0138096
676.885	0.0139588
676.963	0.0143996
677.041	0.0145901
677.119	0.0148751
677.197	0.0149098
677.275	0.0151141
677.353	0.0153144
677.432	0.0154203
677.510	0.0154589
677.588	0.0153432
677.666	0.0154353
677.744	0.0153800
677.822	0.0151585
677.900	0.0150410
677.978	0.0150623
678.057	0.0149940
678.135	0.0147939
678.213	0.0145889
678.291	0.0143685
678.369	0.0140768
678.447	0.0139734
678.525	0.0138205
678.603	0.0137035
678.682	0.0135790
678.760	0.0134666
678.838	0.0131555
678.916	0.0130279
678.994	0.0130852
679.072	0.0128999
679.150	0.0126357
679.228	0.0127899
679.307	0.0128058
679.385	0.0128848
679.463	0.0128912
679.541	0.0129451
679.619	0.0130028
679.697	0.0130845
679.775	0.0131217
679.853	0.0131683
679.932	0.0130869
680.010	0.0131994
680.088	0.0130991
680.166	0.0130061
680.244	0.0131584
680.322	0.0131918
680.400	0.0130468
680.478	0.0130173
680.557	0.0129733
680.635	0.0129387
680.713	0.0128897
680.791	0.0130710
680.869	0.0129389
680.947	0.0129315
681.025	0.0129549
681.103	0.0127533
681.182	0.0129050
681.260	0.0128400
681.338	0.0128239
681.416	0.0128135
681.494	0.0128956
681.572	0.0126571
681.650	0.0125945
681.728	0.0126077
681.807	0.0124355
681.885	0.0124031
681.963	0.0124197
682.041	0.0123883
682.119	0.0121912
682.197	0.0120943
682.275	0.0120541
682.353	0.0119927
682.432	0.0117773
682.510	0.0120041
682.588	0.0119839
682.666	0.0119771
682.744	0.0121154
682.822	0.0121907
682.900	0.0123074
682.978	0.0125056
683.057	0.0128220
683.135	0.0129335
683.213	0.0131905
683.291	0.0133318
683.369	0.0136039
683.447	0.0139371
683.525	0.0141409
683.603	0.0144914
683.682	0.0146777
683.760	0.0148405
683.838	0.0151364
683.916	0.0152096
683.994	0.0153761
684.072	0.0155713
684.150	0.0157561
684.228	0.0157098
684.307	0.0159162
684.385	0.0157585
684.463	0.0157426
684.541	0.0156641
684.619	0.0155898
684.697	0.0156251
684.775	0.0154660
684.853	0.0154047
684.932	0.0149194
685.010	0.0148515
685.088	0.0147906
685.166	0.0146320
685.244	0.0143652
685.322	0.0140378
685.400	0.0138799
685.478	0.0138274
685.557	0.0134985
685.635	0.0132150
685.713	0.0130344
685.791	0.0128841
685.869	0.0126430
685.947	0.0126359
686.025	0.0124270
686.103	0.0123120
686.182	0.0120975
686.260	0.0121092
686.338	0.0117760
686.416	0.0117804
686.494	0.0116842
686.572	0.0116424
686.650	0.0114596
686.728	0.0114570
686.807	0.0114122
686.885	0.0114418
686.963	0.0112405
687.041	0.0114092
687.119	0.0113359
687.197	0.0112735
687.275	0.0111532
687.353	0.0112112
687.432	0.0112533
687.510	0.0113908
687.588	0.0112321
687.666	0.0112744
687.744	0.0114860
687.822	0.0115533
687.900	0.0117744
687.978	0.0116319
688.057	0.0118923
688.135	0.0122126
688.213	0.0124861
688.291	0.0127588
688.369	0.0130280
688.447	0.0133564
688.525	0.0136102
688.603	0.0139270
688.682	0.0143890
688.760	0.0147342
688.838	0.0151501
688.916	0.0153618
688.994	0.0158891
689.072	0.0161877
689.150	0.0163689
689.228	0.0165874
689.307	0.0167587
689.385	0.0167387
689.463	0.0167146
689.541	0.0168540
689.619	0.0167572
689.697	0.0165275
689.775	0.0165018
689.853	0.0160999
689.932	0.0159766
690.010	0.0157176
690.088	0.0153799
690.166	0.0150127
690.244	0.0148941
690.322	0.0143607
690.400	0.0140691
690.478	0.0137238
690.557	0.0134704
690.635	0.0130696
690.713	0.0125362
690.791	0.0123463
690.869	0.0119792
690.947	0.0116574
691.025	0.0114690
691.103	0.0112463
691.182	0.0111329
691.260	0.0109416
691.338	0.0108854
691.416	0.0108381
691.494	0.0108665
691.572	0.0108771
691.650	0.0109194
691.728	0.0110101
691.807	0.0112333
691.885	0.0111996
691.963	0.0113034
692.041	0.0112366
692.119	0.0115475
692.197	0.0116981
692.275	0.0118880
692.353	0.0121095
692.432	0.0123436
692.510	0.0124323
692.588	0.0127230
692.666	0.0127732
692.744	0.0131691
692.822	0.0132531
692.900	0.0135245
692.978	0.0136633
693.057	0.0136549
693.135	0.0137465
693.213	0.0139689
693.291	0.0141775
693.369	0.0143013
693.447	0.0141871
693.525	0.0143210
693.603	0.0143481
693.682	0.0144952
693.760	0.0145133
693.838	0.0146176
693.916	0.0147528
693.994	0.0147007
694.072	0.0145496
694.150	0.0147229
694.228	0.0148201
694.307	0.0146429
694.385	0.0146988
694.463	0.0147509
694.541	0.0146471
694.619	0.0145441
694.697	0.0145191
694.775	0.0143093
694.853	0.0141132
694.932	0.0138240
695.010	0.0138938
695.088	0.0135851
695.166	0.0134557
695.244	0.0134046
695.322	0.0132792
695.400	0.0130760
695.478	0.0131279
695.557	0.0131173
695.635	0.0130035
695.713	0.0129102
695.791	0.0130824
695.869	0.0130681
695.947	0.0132065
696.025	0.0133109
696.103	0.0132643
696.182	0.0133097
696.260	0.0135101
696.338	0.0134217
696.416	0.0135559
696.494	0.0136323
696.572	0.0136397
696.650	0.0136834
696.728	0.0135629
696.807	0.0137469
696.885	0.0137641
696.963	0.0137048
697.041	0.0136919
697.119	0.0135445
697.197	0.0136342
697.275	0.0135500
697.353	0.0134108
697.432	0.0133350
697.510	0.0132333
697.588	0.0131651
697.666	0.0130204
697.744	0.0126491
697.822	0.0128121
697.900	0.0127284
697.978	0.0124967
698.057	0.0123920
698.135	0.0122166
698.213	0.0121318
698.291	0.0122661
698.369	0.0123145
698.447	0.0121059
698.525	0.0122438
698.603	0.0123902
698.682	0.0124263
698.760	0.0124054
698.838	0.0126629
698.916	0.0126402
698.994	0.0128078
699.072	0.0130352
699.150	0.0131681
699.228	0.0130212
699.307	0.0131172
699.385	0.0132791
699.463	0.0133412
699.541	0.0133287
699.619	0.0134389
699.697	0.0134647
699.775	0.0136050
699.853	0.0136403
699.932	0.0135833
700.010	0.0138047
700.088	0.0138762
700.166	0.0138254
700.244	0.0139803
700.322	0.0141360
700.400	0.0141595
700.478	0.0140927
700.557	0.0140373
700.635	0.0141031
700.713	0.0142240
700.791	0.0142112
700.869	0.0143506
700.947	0.0144293
701.025	0.0143261
701.103	0.0144027
701.182	0.0145171
701.260	0.0144614
701.338	0.0144136
701.416	0.0144025
701.494	0.0144429
701.572	0.0141451
701.650	0.0141467
701.728	0.0142058
701.807	0.0142326
701.885	0.0138571
701.963	0.0137483
702.041	0.0135789
702.119	0.0133125
702.197	0.0130930
702.275	0.0130049
702.353	0.0129543
702.432	0.0125626
702.510	0.0124855
702.588	0.0124308
702.666	0.0123864
702.744	0.0121566
702.822	0.0121636
702.900	0.0120116
702.978	0.0119772
703.057	0.0119875
703.135	0.0118492
703.213	0.0119983
703.291	0.0120341
703.369	0.0121874
703.447	0.0123035
703.525	0.0124445
703.603	0.0127261
703.682	0.0126888
703.760	0.0129144
703.838	0.0131852
703.916	0.0133443
703.994	0.0135664
704.072	0.0138020
704.150	0.0138363
704.228	0.0140126
704.307	0.0141686
704.385	0.0141433
704.463	0.0142912
704.541	0.0142794
704.619	0.0142249
704.697	0.0142760
704.775	0.0141682
704.853	0.0140272
704.932	0.0139491
705.010	0.0139762
705.088	0.0139203
705.166	0.0136935
705.244	0.0136766
705.322	0.0135802
705.400	0.0135910
705.478	0.0133563
705.557	0.0133321
705.635	0.0130742
705.713	0.0130464
705.791	0.0128844
705.869	0.0127470
705.947	0.0127679
706.025	0.0128279
706.103	0.0126599
706.182	0.0125874
706.260	0.0126380
706.338	0.0125205
706.416	0.0125827
706.494	0.0125838
706.572	0.0126588
706.650	0.0126469
706.728	0.0127888
706.807	0.0129051
706.885	0.0130546
706.963	0.0131543
707.041	0.0132524
707.119	0.0136050
707.197	0.0135587
707.275	0.0137795
707.353	0.0138446
707.432	0.0138123
707.510	0.0140741
707.588	0.0140664
707.666	0.0143825
707.744	0.0145063
707.822	0.0145140
707.900	0.0145753
707.978	0.0146316
708.057	0.0147433
708.135	0.0148714
708.213	0.0148497
708.291	0.0147656
708.369	0.0148668
708.447	0.0148454
708.525	0.0146954
708.603	0.0145375
708.682	0.0145609
708.760	0.0144099
708.838	0.0141939
708.916	0.0140554
708.994	0.0139139
709.072	0.0138335
709.150	0.0134573
709.228	0.0133305
709.307	0.0130979
709.385	0.0129947
709.463	0.0128278
709.541	0.0124778
709.619	0.0124168
709.697	0.0124345
709.775	0.0122232
709.853	0.0121712
709.932	0.0121716
710.010	0.0120623
710.088	0.0121414
710.166	0.0120278
710.244	0.0119431
710.322	0.0120748
710.400	0.0120457
710.478	0.0121008
710.557	0.0121595
710.635	0.0121397
710.713	0.0122440
710.791	0.0123340
710.869	0.0122753
710.947	0.0124691
711.025	0.0125647
711.103	0.0126009
711.182	0.0128194
711.260	0.0129455
711.338	0.0130022
711.416	0.0130650
711.494	0.0130570
711.572	0.0133105
711.650	0.0134769
711.728	0.0137177
711.807	0.0137484
711.885	0.0137086
711.963	0.0138320
712.041	0.0139268
712.119	0.0141410
712.197	0.0142383
712.275	0.0141723
712.353	0.0143272
712.432	0.0144996
712.510	0.0144157
712.588	0.0146525
712.666	0.0148447
712.744	0.0148994
712.822	0.0148473
712.900	0.0149552
712.978	0.0149940
713.057	0.0150458
713.135	0.0149165
713.213	0.0147514
713.291	0.0148935
713.369	0.0148737
713.447	0.0147015
713.525	0.0146250
713.603	0.0145048
713.682	0.0143366
713.760	0.0140894
713.838	0.0139635
713.916	0.0138675
713.994	0.0136261
714.072	0.0135376
714.150	0.0134258
714.228	0.0132741
714.307	0.0131556
714.385	0.0130257
714.463	0.0128367
714.541	0.0127856
714.619	0.0126913
714.697	0.0125551
714.775	0.0124197
714.853	0.0124733
714.932	0.0124268
715.010	0.0123986
715.088	0.0122315
715.166	0.0122304
715.244	0.0121060
715.322	0.0120598
715.400	0.0121555
715.478	0.0122062
715.557	0.0122236
715.635	0.0121967
715.713	0.0121301
715.791	0.0122337
715.869	0.0124232
715.947	0.0124519
716.025	0.0127074
716.103	0.0128117
716.182	0.0128755
716.260	0.0130464
716.338	0.0132304
716.416	0.0134006
716.494	0.0135509
716.572	0.0137248
716.650	0.0139668
716.728	0.0141068
716.807	0.0142065
716.885	0.0143559
716.963	0.0144650
717.041	0.0145434
717.119	0.0146653
717.197	0.0147462
717.275	0.0147395
717.353	0.0147579
717.432	0.0146003
717.510	0.0145560
717.588	0.0145768
717.666	0.0144906
717.744	0.0144983
717.822	0.0143600
717.900	0.0142185
717.978	0.0140608
718.057	0.0140520
718.135	0.0139227
718.213	0.0137606
718.291	0.0135529
718.369	0.0135789
718.447	0.0135083
718.525	0.0134610
718.603	0.0134362
718.682	0.0132452
718.760	0.0132195
718.838	0.0130836
718.916	0.0128774
718.994	0.0129673
719.072	0.0130035
719.150	0.0127966
719.228	0.0128619
719.307	0.0127443
719.385	0.0127205
719.463	0.0126857
719.541	0.0128579
719.619	0.0127781
719.697	0.0128484
719.775	0.0129921
719.853	0.0128479
719.932	0.0129648
720.010	0.0129565
720.088	0.0131007
720.166	0.0130345
720.244	0.0131553
720.322	0.0131691
720.400	0.0132121
720.478	0.0133205
720.557	0.0134899
720.635	0.0133468
720.713	0.0134541
720.791	0.0135150
720.869	0.0132931
720.947	0.0135023
721.025	0.0135136
721.103	0.0134581
721.182	0.0135531
721.260	0.0133917
721.338	0.0134264
721.416	0.0135270
721.494	0.0134213
721.572	0.0133184
721.650	0.0134545
721.728	0.0135179
721.807	0.0134941
721.885	0.0134775
721.963	0.0135236
722.041	0.0135738
722.119	0.0135414
722.197	0.0134787
722.275	0.0136156
722.353	0.0137393
722.432	0.0135525
722.510	0.0135846
722.588	0.0137242
722.666	0.0136220
722.744	0.0135781
722.822	0.0135633
722.900	0.0134698
722.978	0.0135214
723.057	0.0134072
723.135	0.0134000
723.213	0.0133318
723.291	0.0133400
723.369	0.0132549
723.447	0.0132763
723.525	0.0132008
723.603	0.0132038
723.682	0.0133061
723.760	0.0131368
723.838	0.0130819
723.916	0.0131853
723.994	0.0133673
724.072	0.0133245
724.150	0.0132668
724.228	0.0133313
724.307	0.0133125
724.385	0.0133908
724.463	0.0132458
724.541	0.0133974
724.619	0.0134281
724.697	0.0134609
724.775	0.0134602
724.853	0.0135851
724.932	0.0136677
725.010	0.0136835
725.088	0.0137644
725.166	0.0136116
725.244	0.0136777
725.322	0.0138851
725.400	0.0137267
725.478	0.0136658
725.557	0.0136433
725.635	0.0137623
725.713	0.0135603
725.791	0.0135249
725.869	0.0136113
725.947	0.0135387
726.025	0.0133488
726.103	0.0132945
726.182	0.0132880
726.260	0.0133062
726.338	0.0131738
726.416	0.0130597
726.494	0.0131871
726.572	0.0132104
726.650	0.0130351
726.728	0.0131017
726.807	0.0131800
726.885	0.0130731
726.963	0.0130617
727.041	0.0131686
727.119	0.0130961
727.197	0.0131036
727.275	0.0132716
727.353	0.0132097
727.432	0.0132747
727.510	0.0132100
727.588	0.0135413
727.666	0.0133434
727.744	0.0134244
727.822	0.0136566
727.900	0.0135555
727.978	0.0136603
728.057	0.0138393
728.135	0.0138762
728.213	0.0137898
728.291	0.0136325
728.369	0.0137579
728.447	0.0137817
728.525	0.0136315
728.603	0.0135658
728.682	0.0135151
728.760	0.0134726
728.838	0.0133460
728.916	0.0133601
728.994	0.0132510
729.072	0.0132098
729.150	0.0132372
729.228	0.0130866
729.307	0.0131200
729.385	0.0129505
729.463	0.0131325
729.541	0.0129900
729.619	0.0130033
729.697	0.0131586
729.775	0.0129819
729.853	0.0131273
729.932	0.0130618
730.010	0.0130893
730.088	0.0132671
730.166	0.0132771
730.244	0.0131906
730.322	0.0134770
730.400	0.0132844
730.478	0.0133033
730.557	0.0134650
730.635	0.0134416
730.713	0.0136693
730.791	0.0137280
730.869	0.0137091
730.947	0.0137597
731.025	0.0138851
731.103	0.0139505
731.182	0.0137807
731.260	0.0141091
731.338	0.0141949
731.416	0.0140250
731.494	0.0139948
731.572	0.0142331
731.650	0.0141595
731.728	0.0141169
731.807	0.0141171
731.885	0.0140991
731.963	0.0140258
732.041	0.0140244
732.119	0.0138958
732.197	0.0139339
732.275	0.0138831
732.353	0.0137859
732.432	0.0137421
732.510	0.0136777
732.588	0.0135376
732.666	0.0135638
732.744	0.0134449
732.822	0.0132359
732.900	0.0133837
732.978	0.0133397
733.057	0.0132751
733.135	0.0133495
733.213	0.0132496
733.291	0.0131385
733.369	0.0132089
733.447	0.0132735
733.525	0.0132293
733.603	0.0130054
733.682	0.0131078
733.760	0.0131566
733.838	0.0130853
733.916	0.0131245
733.994	0.0132194
734.072	0.0130737
734.150	0.0131631
734.228	0.0132300
734.307	0.0131998
734.385	0.0131139
734.463	0.0131305
734.541	0.0131048
734.619	0.0131699
734.697	0.0131256
734.775	0.0131190
734.853	0.0131618
734.932	0.0131075
735.010	0.0129261
735.088	0.0128347
735.166	0.0129762
735.244	0.0128960
735.322	0.0129562
735.400	0.0129382
735.478	0.0129816
735.557	0.0129585
735.635	0.0129755
735.713	0.0128520
735.791	0.0128593
735.869	0.0129500
735.947	0.0129573
736.025	0.0131419
736.103	0.0130904
736.182	0.0131097
736.260	0.0132909
736.338	0.0132053
736.416	0.0132620
736.494	0.0133219
736.572	0.0134710
736.650	0.0135336
736.728	0.0136349
736.807	0.0136583
736.885	0.0138622
736.963	0.0139371
737.041	0.0139179
737.119	0.0139531
737.197	0.0140620
737.275	0.0140009
737.353	0.0140545
737.432	0.0141763
737.510	0.0142043
737.588	0.0142048
737.666	0.0141895
737.744	0.0143031
737.822	0.0143811
737.900	0.0143127
737.978	0.0142029
738.057	0.0141252
738.135	0.0141231
738.213	0.0140439
738.291	0.0140884
738.369	0.0141006
738.447	0.0140253
738.525	0.0139151
738.603	0.0136959
738.682	0.0135293
738.760	0.0134895
738.838	0.0134207
738.916	0.0131906
738.994	0.0132050
739.072	0.0132554
739.150	0.0129932
739.228	0.0128024
739.307	0.0129319
739.385	0.0128836
739.463	0.0130156
739.541	0.0127898
739.619	0.0128029
739.697	0.0127926
739.775	0.0126500
739.853	0.0128423
739.932	0.0128166
740.010	0.0128114
740.088	0.0127416
740.166	0.0126772
740.244	0.0128801
740.322	0.0128395
740.400	0.0127220
740.478	0.0127434
740.557	0.0128288
740.635	0.0129133
740.713	0.0129421
740.791	0.0127012
740.869	0.0128622
740.947	0.0126996
741.025	0.0128642
741.103	0.0128205
741.182	0.0129462
741.260	0.0129233
741.338	0.0128557
741.416	0.0127580
741.494	0.0128271
741.572	0.0129134
741.650	0.0128867
741.728	0.0129820
741.807	0.0130072
741.885	0.0129485
741.963	0.0130482
742.041	0.0131200
742.119	0.0130241
742.197	0.0131068
742.275	0.0131041
742.353	0.0132741
742.432	0.0132482
742.510	0.0132326
742.588	0.0133249
742.666	0.0134206
742.744	0.0135388
742.822	0.0135555
742.900	0.0136980
742.978	0.0135862
743.057	0.0138264
743.135	0.0139247
743.213	0.0139176
743.291	0.0140193
743.369	0.0140594
743.447	0.0141399
743.525	0.0140820
743.603	0.0141010
743.682	0.0141114
743.760	0.0141525
743.838	0.0141002
743.916	0.0140218
743.994	0.0140585
744.072	0.0140870
744.150	0.0141733
744.228	0.0140161
744.307	0.0139945
744.385	0.0139855
744.463	0.0140513
744.541	0.0139130
744.619	0.0137215
744.697	0.0139309
744.775	0.0137696
744.853	0.0136887
744.932	0.0136465
745.010	0.0135137
745.088	0.0134058
745.166	0.0134373
745.244	0.0134449
745.322	0.0133245
745.400	0.0131802
745.478	0.0131950
745.557	0.0132137
745.635	0.0130420
745.713	0.0129919
745.791	0.0129165
745.869	0.0130213
745.947	0.0127829
746.025	0.0129819
746.103	0.0128300
746.182	0.0127337
746.260	0.0128793
746.338	0.0128698
746.416	0.0129423
746.494	0.0128639
746.572	0.0129107
746.650	0.0129594
746.728	0.0129099
746.807	0.0131454
746.885	0.0133031
746.963	0.0133491
747.041	0.0132822
747.119	0.0133733
747.197	0.0134434
747.275	0.0134873
747.353	0.0134717
747.432	0.0135300
747.510	0.0135203
747.588	0.0135604
747.666	0.0135796
747.744	0.0136582
747.822	0.0134572
747.900	0.0135141
747.978	0.0136189
748.057	0.0136845
748.135	0.0136481
748.213	0.0135950
748.291	0.0135386
748.369	0.0133784
748.447	0.0136252
748.525	0.0134618
748.603	0.0135504
748.682	0.0135649
748.760	0.0134895
748.838	0.0134911
748.916	0.0133804
748.994	0.0135374
749.072	0.0134853
749.150	0.0132195
749.228	0.0133538
749.307	0.0134077
749.385	0.0135447
749.463	0.0136091
749.541	0.0134737
749.619	0.0134632
749.697	0.0133988
749.775	0.0133783
749.853	0.0134696
749.932	0.0133278
750.010	0.0133707
750.088	0.0133154
750.166	0.0133156
750.244	0.0132202
750.322	0.0131899
750.400	0.0132032
750.478	0.0134085
750.557	0.0133588
750.635	0.0132825
750.713	0.0134066
750.791	0.0133925
750.869	0.0132750
750.947	0.0134335
751.025	0.0133452
751.103	0.0134644
751.182	0.0134268
751.260	0.0134335
751.338	0.0135287
751.416	0.0133907
751.494	0.0134095
751.572	0.0135859
751.650	0.0134409
751.728	0.0135611
751.807	0.0135690
751.885	0.0136843
751.963	0.0135715
752.041	0.0138663
752.119	0.0138313
752.197	0.0138760
752.275	0.0138624
752.353	0.0139629
752.432	0.0139172
752.510	0.0137965
752.588	0.0138972
752.666	0.0138256
752.744	0.0138468
752.822	0.0137485
752.900	0.0137305
752.978	0.0136722
753.057	0.0135905
753.135	0.0133530
753.213	0.0133908
753.291	0.0133108
753.369	0.0130886
753.447	0.0131854
753.525	0.0131242
753.603	0.0131799
753.682	0.0128818
753.760	0.0128537
753.838	0.0128614
753.916	0.0129900
753.994	0.0128774
754.072	0.0130970
754.150	0.0129469
754.228	0.0128252
754.307	0.0128299
754.385	0.0129016
754.463	0.0130627
754.541	0.0130498
754.619	0.0130849
754.697	0.0131541
754.775	0.0132485
754.853	0.0132657
754.932	0.0131346
755.010	0.0130267
755.088	0.0131630
755.166	0.0132069
755.244	0.0132726
755.322	0.0131409
755.400	0.0131705
755.478	0.0131430
755.557	0.0132301
755.635	0.0131426
755.713	0.0132563
755.791	0.0132316
755.869	0.0131580
755.947	0.0132206
756.025	0.0133257
756.103	0.0132850
756.182	0.0133247
756.260	0.0133937
756.338	0.0135361
756.416	0.0135032
756.494	0.0135002
756.572	0.0136236
756.650	0.0136675
756.728	0.0136762
756.807	0.0137028
756.885	0.0137073
756.963	0.0137937
757.041	0.0136324
757.119	0.0137945
757.197	0.0139079
757.275	0.0138700
757.353	0.0139377
757.432	0.0139570
757.510	0.0138768
757.588	0.0138430
757.666	0.0139001
757.744	0.0138704
757.822	0.0138606
757.900	0.0138396
757.978	0.0138570
758.057	0.0138759
758.135	0.0137176
758.213	0.0136866
758.291	0.0136255
758.369	0.0137245
758.447	0.0136349
758.525	0.0135219
758.603	0.0135810
758.682	0.0135698
758.760	0.0134178
758.838	0.0132183
758.916	0.0131982
758.994	0.0132115
759.072	0.0132761
759.150	0.0131221
759.228	0.0130359
759.307	0.0130246
759.385	0.0129229
759.463	0.0128226
759.541	0.0128565
759.619	0.0129296
759.697	0.0128693
759.775	0.0128148
759.853	0.0128614
759.932	0.0128246
760.010	0.0127715
760.088	0.0126012
760.166	0.0127076
760.244	0.0128134
760.322	0.0125582
760.400	0.0127386
760.478	0.0126932
760.557	0.0127304
760.635	0.0127526
760.713	0.0128238
760.791	0.0128105
760.869	0.0128889
760.947	0.0129234
761.025	0.0129221
761.103	0.0131298
761.182	0.0131863
761.260	0.0131570
761.338	0.0134965
761.416	0.0133884
761.494	0.0132999
761.572	0.0135598
761.650	0.0134568
761.728	0.0134190
761.807	0.0134623
761.885	0.0135184
761.963	0.0135933
762.041	0.0134009
762.119	0.0135334
762.197	0.0135443
762.275	0.0135371
762.353	0.0135612
762.432	0.0135308
762.510	0.0135120
762.588	0.0135658
762.666	0.0134964
762.744	0.0133836
762.822	0.0132809
762.900	0.0132705
762.978	0.0131429
763.057	0.0130299
763.135	0.0129533
763.213	0.0130160
763.291	0.0129273
763.369	0.0128385
763.447	0.0129294
763.525	0.0127010
763.603	0.0128489
763.682	0.0128652
763.760	0.0127920
763.838	0.0128361
763.916	0.0127515
763.994	0.0128374
764.072	0.0128795
764.150	0.0128941
764.228	0.0130659
764.307	0.0130830
764.385	0.0131796
764.463	0.0131866
764.541	0.0133433
764.619	0.0132967
764.697	0.0133452
764.775	0.0135424
764.853	0.0135071
764.932	0.0136894
765.010	0.0136983
765.088	0.0138980
765.166	0.0138275
765.244	0.0140007
765.322	0.0138342
765.400	0.0138967
765.478	0.0141801
765.557	0.0140392
765.635	0.0140739
765.713	0.0140627
765.791	0.0141246
765.869	0.0140829
765.947	0.0140456
766.025	0.0141431
766.103	0.0140599
766.182	0.0139813
766.260	0.0139206
766.338	0.0138248
766.416	0.0138405
766.494	0.0136331
766.572	0.0137087
766.650	0.0135655
766.728	0.0135390
766.807	0.0132768
766.885	0.0132802
766.963	0.0131050
767.041	0.0131230
767.119	0.0130061
767.197	0.0129559
767.275	0.0128597
767.353	0.0127652
767.432	0.0127414
767.510	0.0127777
767.588	0.0126166
767.666	0.0126336
767.744	0.0127193
767.822	0.0126838
767.900	0.0125498
767.978	0.0126455
768.057	0.0125095
768.135	0.0127074
768.213	0.0128161
768.291	0.0125769
768.369	0.0127978
768.447	0.0127690
768.525	0.0128930
768.603	0.0129221
768.682	0.0128578
768.760	0.0130014
768.838	0.0130138
768.916	0.0130652
768.994	0.0130807
769.072	0.0130463
769.150	0.0131519
769.228	0.0134022
769.307	0.0135402
769.385	0.0133394
769.463	0.0135661
769.541	0.0135393
769.619	0.0135588
769.697	0.0138207
769.775	0.0137827
769.853	0.0137870
769.932	0.0139183
770.010	0.0139423
770.088	0.0138670
770.166	0.0140416
770.244	0.0140662
770.322	0.0140077
770.400	0.0140271
770.478	0.0141230
770.557	0.0140466
770.635	0.0139963
770.713	0.0140566
770.791	0.0140509
770.869	0.0137867
770.947	0.0137949
771.025	0.0137359
771.103	0.0136420
771.182	0.0136297
771.260	0.0135204
771.338	0.0135931
771.416	0.0135474
771.494	0.0134397
771.572	0.0133262
771.650	0.0133457
771.728	0.0132842
771.807	0.0133287
771.885	0.0133000
771.963	0.0131902
772.041	0.0131882
772.119	0.0131068
772.197	0.0131645
772.275	0.0130989
772.353	0.0130814
772.432	0.0131780
772.510	0.0131496
772.588	0.0130791
772.666	0.0132082
772.744	0.0131463
772.822	0.0131819
772.900	0.0130835
772.978	0.0130163
773.057	0.0130804
773.135	0.0131747
773.213	0.0132094
773.291	0.0132513
773.369	0.0132808
773.447	0.0131567
773.525	0.0131168
773.603	0.0133089
773.682	0.0131808
773.760	0.0130707
773.838	0.0131955
773.916	0.0133276
773.994	0.0133008
774.072	0.0131736
774.150	0.0131195
774.228	0.0131972
774.307	0.0132778
774.385	0.0131704
774.463	0.0132220
774.541	0.0133266
774.619	0.0131763
774.697	0.0134128
774.775	0.0133172
774.853	0.0134003
774.932	0.0133329
775.010	0.0135017
775.088	0.0134065
775.166	0.0134116
775.244	0.0134657
775.322	0.0134421
775.400	0.0133806
775.478	0.0133672
775.557	0.0132467
775.635	0.0133835
775.713	0.0132146
775.791	0.0132920
775.869	0.0132856
775.947	0.0133121
776.025	0.0132281
776.103	0.0130597
776.182	0.0132224
776.260	0.0132439
776.338	0.0132829
776.416	0.0132264
776.494	0.0133313
776.572	0.0132178
776.650	0.0132054
776.728	0.0131924
776.807	0.0132215
776.885	0.0133382
776.963	0.0133018
777.041	0.0133325
777.119	0.0135091
777.197	0.0135851
777.275	0.0133896
777.353	0.0134509
777.432	0.0135093
777.510	0.0135944
777.588	0.0135145
777.666	0.0136223
777.744	0.0135439
777.822	0.0135413
777.900	0.0134448
777.978	0.0134710
778.057	0.0134900
778.135	0.0135018
778.213	0.0134061
778.291	0.0133072
778.369	0.0134660
778.447	0.0134193
778.525	0.0132799
778.603	0.0133272
778.682	0.0133073
778.760	0.0132337
778.838	0.0130999
778.916	0.0131860
778.994	0.0131896
779.072	0.0131612
779.150	0.0130708
779.228	0.0130145
779.307	0.0130912
779.385	0.0131481
779.463	0.0129108
779.541	0.0131497
779.619	0.0131860
779.697	0.0131281
779.775	0.0131703
779.853	0.0131709
779.932	0.0131777
780.010	0.0132117
780.088	0.0134396
780.166	0.0133469
780.244	0.0133904
780.322	0.0133742
780.400	0.0136148
780.478	0.0135322
780.557	0.0135715
780.635	0.0136176
780.713	0.0135815
780.791	0.0135120
780.869	0.0136109
780.947	0.0136709
781.025	0.0135347
781.103	0.0135204
781.182	0.0135953
781.260	0.0135895
781.338	0.0136366
781.416	0.0135085
781.494	0.0134136
781.572	0.0134942
781.650	0.0135282
781.728	0.0134466
781.807	0.0134393
781.885	0.0133476
781.963	0.0133534
782.041	0.0132545
782.119	0.0132793
782.197	0.0131534
782.275	0.0132256
782.353	0.0131000
782.432	0.0130569
782.510	0.0130888
782.588	0.0132588
782.666	0.0129778
782.744	0.0129437
782.822	0.0130436
782.900	0.0128861
782.978	0.0128853
783.057	0.0128783
783.135	0.0129678
783.213	0.0129752
783.291	0.0127429
783.369	0.0128284
783.447	0.0127656
783.525	0.0126888
783.603	0.0127327
783.682	0.0128746
783.760	0.0126557
783.838	0.0125935
783.916	0.0129258
783.994	0.0128654
784.072	0.0129449
784.150	0.0128684
784.228	0.0129359
784.307	0.0130080
784.385	0.0132016
784.463	0.0131447
784.541	0.0133034
784.619	0.0131384
784.697	0.0133006
784.775	0.0134991
784.853	0.0133464
784.932	0.0135443
785.010	0.0136227
785.088	0.0139017
785.166	0.0138573
785.244	0.0139100
785.322	0.0140405
785.400	0.0142271
785.478	0.0141553
785.557	0.0142004
785.635	0.0142879
785.713	0.0142898
785.791	0.0142345
785.869	0.0143128
785.947	0.0144173
786.025	0.0143715
786.103	0.0145021
786.182	0.0144200
786.260	0.0142577
786.338	0.0143182
786.416	0.0144251
786.494	0.0142570
786.572	0.0143622
786.650	0.0142214
786.728	0.0142139
786.807	0.0140701
786.885	0.0140479
786.963	0.0139520
787.041	0.0139281
787.119	0.0137469
787.197	0.0138223
787.275	0.0136459
787.353	0.0134201
787.432	0.0133466
787.510	0.0133215
787.588	0.0131210
787.666	0.0131436
787.744	0.0129691
787.822	0.0128854
787.900	0.0129726
787.978	0.0128468
788.057	0.0127171
788.135	0.0127366
788.213	0.0125048
788.291	0.0125680
788.369	0.0125776
788.447	0.0125401
788.525	0.0125064
788.603	0.0125188
788.682	0.0125243
788.760	0.0125295
788.838	0.0124953
788.916	0.0125565
788.994	0.0126508
789.072	0.0126566
789.150	0.0125187
789.228	0.0127157
789.307	0.0127539
789.385	0.0128069
789.463	0.0128407
789.541	0.0129425
789.619	0.0130073
789.697	0.0131020
789.775	0.0131638
789.853	0.0132331
789.932	0.0131686
790.010	0.0133283
790.088	0.0134472
790.166	0.0133963
790.244	0.0134003
790.322	0.0133524
790.400	0.0134184
790.478	0.0133751
790.557	0.0134079
790.635	0.0135038
790.713	0.0134800
790.791	0.0136072
790.869	0.0135258
790.947	0.0134865
791.025	0.0136243
791.103	0.0135569
791.182	0.0136182
791.260	0.0136539
791.338	0.0136691
791.416	0.0137449
791.494	0.0138474
791.572	0.0137702
791.650	0.0139413
791.728	0.0139763
791.807	0.0138343
791.885	0.0139096
791.963	0.0138969
792.041	0.0139211
792.119	0.0138756
792.197	0.0139285
792.275	0.0139420
792.353	0.0138600
792.432	0.0135864
792.510	0.0135963
792.588	0.0136034
792.666	0.0134350
792.744	0.0134365
792.822	0.0132822
792.900	0.0131880
792.978	0.0132655
793.057	0.0132027
793.135	0.0131696
793.213	0.0131693
793.291	0.0130491
793.369	0.0131157
793.447	0.0132075
793.525	0.0130994
793.603	0.0132770
793.682	0.0130670
793.760	0.0130840
793.838	0.0132024
793.916	0.0133082
793.994	0.0132742
794.072	0.0132127
794.150	0.0133498
794.228	0.0133571
794.307	0.0133894
794.385	0.0132883
794.463	0.0133649
794.541	0.0133339
794.619	0.0133398
794.697	0.0133047
794.775	0.0132362
794.853	0.0130569
794.932	0.0131606
795.010	0.0130974
795.088	0.0130136
795.166	0.0129828
795.244	0.0129486
795.322	0.0130523
795.400	0.0132134
795.478	0.0131507
795.557	0.0132419
795.635	0.0132590
795.713	0.0133899
795.791	0.0133537
795.869	0.0135044
795.947	0.0136444
796.025	0.0134058
796.103	0.0135138
796.182	0.0136053
796.260	0.0134938
796.338	0.0133421
796.416	0.0133724
796.494	0.0134399
796.572	0.0134166
796.650	0.0134468
796.728	0.0137068
796.807	0.0135930
796.885	0.0135821
796.963	0.0134967
797.041	0.0135316
797.119	0.0136018
797.197	0.0136268
797.275	0.0135944
797.353	0.0135600
797.432	0.0134859
797.510	0.0136276
797.588	0.0134836
797.666	0.0135078
797.744	0.0135281
797.822	0.0135625
797.900	0.0135455
797.978	0.0134295
798.057	0.0135716
798.135	0.0136734
798.213	0.0133591
798.291	0.0134898
798.369	0.0135896
798.447	0.0135682
798.525	0.0133658
798.603	0.0133948
798.682	0.0133334
798.760	0.0134991
798.838	0.0134306
798.916	0.0133341
798.994	0.0132668
799.072	0.0132415
799.150	0.0132031
799.228	0.0132115
799.307	0.0132384
799.385	0.0132420
799.463	0.0131741
799.541	0.0131621
799.619	0.0130695
799.697	0.0132160
799.775	0.0131166
799.853	0.0132472
799.932	0.0131963
800.010	0.0133076
800.088	0.0133732
800.166	0.0134483
800.244	0.0134626
800.322	0.0135169
800.400	0.0135786
800.478	0.0136834
800.557	0.0137222
800.635	0.0135483
800.713	0.0135363
800.791	0.0136420
800.869	0.0137466
800.947	0.0137415
801.025	0.0136958
801.103	0.0136086
801.182	0.0135460
801.260	0.0136719
801.338	0.0134399
801.416	0.0133821
801.494	0.0134657
801.572	0.0134418
801.650	0.0134116
801.728	0.0132237
801.807	0.0133552
801.885	0.0133171
801.963	0.0133921
802.041	0.0132527
802.119	0.0133888
802.197	0.0133040
802.275	0.0134174
802.353	0.0134328
802.432	0.0133622
802.510	0.0132905
802.588	0.0133295
802.666	0.0133327
802.744	0.0133063
802.822	0.0133131
802.900	0.0134656
802.978	0.0133334
803.057	0.0131252
803.135	0.0132892
803.213	0.0132755
803.291	0.0132429
803.369	0.0131348
803.447	0.0132402
803.525	0.0132268
803.603	0.0131401
803.682	0.0131336
803.760	0.0130920
803.838	0.0131564
803.916	0.0131587
803.994	0.0131508
804.072	0.0131360
804.150	0.0132950
804.228	0.0132278
804.307	0.0130634
804.385	0.0131863
804.463	0.0131760
804.541	0.0132377
804.619	0.0134938
804.697	0.0134786
804.775	0.0134817
804.853	0.0134667
804.932	0.0136359
805.010	0.0134867
805.088	0.0137030
805.166	0.0135621
805.244	0.0135898
805.322	0.0135337
805.400	0.0135522
805.478	0.0134654
805.557	0.0132025
805.635	0.0132339
805.713	0.0132185
805.791	0.0131525
805.869	0.0131146
805.947	0.0131435
806.025	0.0130627
806.103	0.0130939
806.182	0.0132607
806.260	0.0132407
806.338	0.0132534
806.416	0.0134370
806.494	0.0133792
806.572	0.0133773
806.650	0.0135625
806.728	0.0135755
806.807	0.0136351
806.885	0.0137457
806.963	0.0137683
807.041	0.0136023
807.119	0.0137483
807.197	0.0136864
807.275	0.0136888
807.353	0.0135396
807.432	0.0136680
807.510	0.0137344
807.588	0.0136479
807.666	0.0135481
807.744	0.0136166
807.822	0.0135963
807.900	0.0135622
807.978	0.0133614
808.057	0.0133990
808.135	0.0133871
808.213	0.0133389
808.291	0.0133391
808.369	0.0133633
808.447	0.0133372
808.525	0.0134604
808.603	0.0133270
808.682	0.0133656
808.760	0.0133083
808.838	0.0133842
808.916	0.0136657
808.994	0.0135796
809.072	0.0135367
809.150	0.0135728
809.228	0.0134933
809.307	0.0136609
809.385	0.0135665
809.463	0.0134940
809.541	0.0134188
809.619	0.0134747
809.697	0.0134988
809.775	0.0133617
809.853	0.0133334
809.932	0.0135256
810.010	0.0136896
810.088	0.0136243
810.166	0.0137302
810.244	0.0138230
810.322	0.0138701
810.400	0.0140691
810.478	0.0140697
810.557	0.0140631
810.635	0.0141294
810.713	0.0141011
810.791	0.0140725
810.869	0.0139905
810.947	0.0138528
811.025	0.0137806
811.103	0.0139062
811.182	0.0135383
811.260	0.0135398
811.338	0.0134473
811.416	0.0131765
811.494	0.0132070
811.572	0.0131405
811.650	0.0129924
811.728	0.0129555
811.807	0.0128539
811.885	0.0130568
811.963	0.0131599
812.041	0.0131348
812.119	0.0131215
812.197	0.0132499
812.275	0.0133895
812.353	0.0133920
812.432	0.0134142
812.510	0.0135623
812.588	0.0136135
812.666	0.0136306
812.744	0.0136124
812.822	0.0137701
812.900	0.0136580
812.978	0.0137858
813.057	0.0136555
813.135	0.0137659
813.213	0.0135368
813.291	0.0135807
813.369	0.0132852
813.447	0.0133031
813.525	0.0132610
813.603	0.0132881
813.682	0.0130743
813.760	0.0131236
813.838	0.0131760
813.916	0.0132084
813.994	0.0132335
814.072	0.0131063
814.150	0.0132370
814.228	0.0132678
814.307	0.0133501
814.385	0.0133676
814.463	0.0133621
814.541	0.0136053
814.619	0.0134185
814.697	0.0134840
814.775	0.0133141
814.853	0.0133301
814.932	0.0134897
815.010	0.0132764
815.088	0.0133856
815.166	0.0134688
815.244	0.0133058
815.322	0.0133452
815.400	0.0135023
815.478	0.0135149
815.557	0.0134995
815.635	0.0135950
815.713	0.0136444
815.791	0.0136490
815.869	0.0137493
815.947	0.0136624
816.025	0.0136832
816.103	0.0136926
816.182	0.0136559
816.260	0.0135461
816.338	0.0134443
816.416	0.0134562
816.494	0.0132391
816.572	0.0130873
816.650	0.0131299
816.728	0.0132180
816.807	0.0131437
816.885	0.0131719
816.963	0.0133308
817.041	0.0134617
817.119	0.0134943
817.197	0.0134592
817.275	0.0135743
817.353	0.0135265
817.432	0.0137254
817.510	0.0138915
817.588	0.0138404
817.666	0.0138542
817.744	0.0135789
817.822	0.0135067
817.900	0.0135117
817.978	0.0133609
818.057	0.0131470
818.135	0.0131104
818.213	0.0129243
818.291	0.0129260
818.369	0.0128614
818.447	0.0128677
818.525	0.0127836
818.603	0.0130358
818.682	0.0129552
818.760	0.0129833
818.838	0.0130807
818.916	0.0130190
818.994	0.0133759
819.072	0.0132714
819.150	0.0132861
819.228	0.0132899
819.307	0.0135484
819.385	0.0135168
819.463	0.0134939
819.541	0.0135902
819.619	0.0135133
819.697	0.0135421
819.775	0.0134711
819.853	0.0134713
819.932	0.0134937
820.010	0.0133331
820.088	0.0133347
820.166	0.0132882
820.244	0.0130898
820.322	0.0130711
820.400	0.0129492
820.478	0.0129849
820.557	0.0128931
820.635	0.0130405
820.713	0.0128698
820.791	0.0130134
820.869	0.0130413
820.947	0.0130684
821.025	0.0132212
821.103	0.0133311
821.182	0.0132965
821.260	0.0134843
821.338	0.0135501
821.416	0.0135036
821.494	0.0135248
821.572	0.0136535
821.650	0.0136443
821.728	0.0136241
821.807	0.0135884
821.885	0.0135162
821.963	0.0137436
822.041	0.0137357
822.119	0.0136371
822.197	0.0136214
822.275	0.0136694
822.353	0.0136327
822.432	0.0137208
822.510	0.0139108
822.588	0.0137763
822.666	0.0137518
822.744	0.0137934
822.822	0.0137998
822.900	0.0136956
822.978	0.0136051
823.057	0.0135496
823.135	0.0133562
823.213	0.0134652
823.291	0.0131744
823.369	0.0133472
823.447	0.0132618
823.525	0.0131151
823.603	0.0130682
823.682	0.0132442
823.760	0.0132145
823.838	0.0131824
823.916	0.0132587
823.994	0.0133475
824.072	0.0133151
824.150	0.0135065
824.228	0.0135374
824.307	0.0136658
824.385	0.0135899
824.463	0.0136110
824.541	0.0135001
824.619	0.0135242
824.697	0.0134872
824.775	0.0135271
824.853	0.0133316
824.932	0.0134126
825.010	0.0133284
825.088	0.0132240
825.166	0.0131853
825.244	0.0129756
825.322	0.0131474
825.400	0.0129457
825.478	0.0129753
825.557	0.0128890
825.635	0.0126596
825.713	0.0128012
825.791	0.0126965
825.869	0.0126618
825.947	0.0126048
826.025	0.0126458
826.103	0.0128067
826.182	0.0127472
826.260	0.0126349
826.338	0.0127568
826.416	0.0128757
826.494	0.0129110
826.572	0.0129060
826.650	0.0131120
826.728	0.0130917
826.807	0.0131857
826.885	0.0132986
826.963	0.0134743
827.041	0.0135064
827.119	0.0136036
827.197	0.0136390
827.275	0.0137205
827.353	0.0137553
827.432	0.0138384
827.510	0.0139687
827.588	0.0141131
827.666	0.0140736
827.744	0.0140635
827.822	0.0140652
827.900	0.0141051
827.978	0.0142413
828.057	0.0141473
828.135	0.0143269
828.213	0.0142098
828.291	0.0140916
828.369	0.0139766
828.447	0.0138903
828.525	0.0138349
828.603	0.0136761
828.682	0.0135915
828.760	0.0133571
828.838	0.0134095
828.916	0.0132908
828.994	0.0131939
829.072	0.0129996
829.150	0.0130263
829.228	0.0129865
829.307	0.0128712
829.385	0.0129822
829.463	0.0129939
829.541	0.0131247
829.619	0.0132626
829.697	0.0132333
829.775	0.0133072
829.853	0.0134790
829.932	0.0135374
830.010	0.0133362
830.088	0.0135427
830.166	0.0136590
830.244	0.0137074
830.322	0.0135515
830.400	0.0136797
830.478	0.0139164
830.557	0.0138580
830.635	0.0138108
830.713	0.0138378
830.791	0.0138274
830.869	0.0138410
830.947	0.0138875
831.025	0.0138668
831.103	0.0137594
831.182	0.0138480
831.260	0.0139057
831.338	0.0136221
831.416	0.0136114
831.494	0.0135974
831.572	0.0135080
831.650	0.0135038
831.728	0.0133389
831.807	0.0134261
831.885	0.0132980
831.963	0.0130953
832.041	0.0130591
832.119	0.0129116
832.197	0.0130630
832.275	0.0131490
832.353	0.0131052
832.432	0.0130888
832.510	0.0130869
832.588	0.0132091
832.666	0.0132795
832.744	0.0132760
832.822	0.0132832
832.900	0.0134126
832.978	0.0132609
833.057	0.0134953
833.135	0.0134283
833.213	0.0134563
833.291	0.0133340
833.369	0.0133901
833.447	0.0134621
833.525	0.0134731
833.603	0.0133912
833.682	0.0134554
833.760	0.0133582
833.838	0.0134755
833.916	0.0135250
833.994	0.0134567
834.072	0.0135115
834.150	0.0135300
834.228	0.0135270
834.307	0.0135464
834.385	0.0135425
834.463	0.0135650
834.541	0.0133919
834.619	0.0134957
834.697	0.0137204
834.775	0.0135801
834.853	0.0134678
834.932	0.0135963
835.010	0.0136258
835.088	0.0136971
835.166	0.0136608
835.244	0.0135334
835.322	0.0135661
835.400	0.0136255
835.478	0.0136840
835.557	0.0135571
835.635	0.0134949
835.713	0.0134086
835.791	0.0133920
835.869	0.0134238
835.947	0.0132856
836.025	0.0133797
836.103	0.0132563
836.182	0.0132724
836.260	0.0132642
836.338	0.0131737
836.416	0.0129974
836.494	0.0129750
836.572	0.0129385
836.650	0.0130121
836.728	0.0129198
836.807	0.0128596
836.885	0.0130227
836.963	0.0128468
837.041	0.0127618
837.119	0.0127344
837.197	0.0127779
837.275	0.0129472
837.353	0.0130695
837.432	0.0129674
837.510	0.0130384
837.588	0.0132590
837.666	0.0132624
837.744	0.0134336
837.822	0.0133135
837.900	0.0134496
837.978	0.0137149
838.057	0.0136134
838.135	0.0136411
838.213	0.0137577
838.291	0.0136079
838.369	0.0136642
838.447	0.0136671
838.525	0.0135970
838.603	0.0135236
838.682	0.0135075
838.760	0.0135675
838.838	0.0134929
838.916	0.0133726
838.994	0.0134193
839.072	0.0134846
839.150	0.0134312
839.228	0.0133672
839.307	0.0133074
839.385	0.0133595
839.463	0.0133862
839.541	0.0134131
839.619	0.0133640
839.697	0.0131681
839.775	0.0133675
839.853	0.0131802
839.932	0.0133424
840.010	0.0132977
840.088	0.0133362
840.166	0.0133791
840.244	0.0134734
840.322	0.0133975
840.400	0.0134144
840.478	0.0133713
840.557	0.0135516
840.635	0.0135287
840.713	0.0135863
840.791	0.0134154
840.869	0.0133833
840.947	0.0135224
841.025	0.0136011
841.103	0.0136560
841.182	0.0134676
841.260	0.0133900
841.338	0.0134381
841.416	0.0134788
841.494	0.0133338
841.572	0.0133698
841.650	0.0133819
841.728	0.0132350
841.807	0.0133805
841.885	0.0134026
841.963	0.0134368
842.041	0.0133904
842.119	0.0134041
842.197	0.0133401
842.275	0.0133167
842.353	0.0133220
842.432	0.0132221
842.510	0.0132796
842.588	0.0132127
842.666	0.0132262
842.744	0.0131503
842.822	0.0130787
842.900	0.0131699
842.978	0.0132322
843.057	0.0133795
843.135	0.0134218
843.213	0.0131907
843.291	0.0133451
843.369	0.0133656
843.447	0.0132698
843.525	0.0133509
843.603	0.0133029
843.682	0.0133759
843.760	0.0134633
843.838	0.0133086
843.916	0.0133943
843.994	0.0133794
844.072	0.0133638
844.150	0.0134896
844.228	0.0134258
844.307	0.0134951
844.385	0.0133478
844.463	0.0134485
844.541	0.0135300
844.619	0.0135853
844.697	0.0135332
844.775	0.0134297
844.853	0.0134011
844.932	0.0135506
845.010	0.0136070
845.088	0.0136863
845.166	0.0135756
845.244	0.0134184
845.322	0.0137363
845.400	0.0135317
845.478	0.0135160
845.557	0.0135266
845.635	0.0134743
845.713	0.0132903
845.791	0.0133847
845.869	0.0132989
845.947	0.0132932
846.025	0.0133178
846.103	0.0132441
846.182	0.0131667
846.260	0.0130640
846.338	0.0131026
846.416	0.0130908
846.494	0.0131772
846.572	0.0131966
846.650	0.0131475
846.728	0.0131040
846.807	0.0131830
846.885	0.0133456
846.963	0.0134599
847.041	0.0132771
847.119	0.0135190
847.197	0.0134046
847.275	0.0133671
847.353	0.0134545
847.432	0.0133580
847.510	0.0133401
847.588	0.0134252
847.666	0.0134859
847.744	0.0135549
847.822	0.0134137
847.900	0.0133945
847.978	0.0133227
848.057	0.0133965
848.135	0.0133669
848.213	0.0133586
848.291	0.0134769
848.369	0.0135893
848.447	0.0135201
848.525	0.0135528
848.603	0.0135371
848.682	0.0135853
848.760	0.0136103
848.838	0.0136429
848.916	0.0135905
848.994	0.0136127
849.072	0.0136192
849.150	0.0136156
849.228	0.0134794
849.307	0.0136837
849.385	0.0137178
849.463	0.0135042
849.541	0.0134958
849.619	0.0134448
849.697	0.0133840
849.775	0.0133078
849.853	0.0131618
849.932	0.0131887
850.010	0.0131298
850.088	0.0128165
850.166	0.0129642
850.244	0.0129353
850.322	0.0130016
850.400	0.0130908
850.478	0.0130101
850.557	0.0130435
850.635	0.0131927
850.713	0.0130743
850.791	0.0132635
850.869	0.0131257
850.947	0.0129746
851.025	0.0131423
851.103	0.0133054
851.182	0.0131892
851.260	0.0132100
851.338	0.0131647
851.416	0.0130993
851.494	0.0132302
851.572	0.0132455
851.650	0.0132699
851.728	0.0132653
851.807	0.0132030
851.885	0.0132682
851.963	0.0132726
852.041	0.0134592
852.119	0.0135725
852.197	0.0133892
852.275	0.0135897
852.353	0.0135081
852.432	0.0135665
852.510	0.0135832
852.588	0.0135157
852.666	0.0135554
852.744	0.0135721
852.822	0.0136761
852.900	0.0135385
852.978	0.0133816
853.057	0.0134757
853.135	0.0135001
853.213	0.0134271
853.291	0.0135794
853.369	0.0136345
853.447	0.0133602
853.525	0.0134436
853.603	0.0133437
853.682	0.0133620
853.760	0.0135211
853.838	0.0134391
853.916	0.0133485
853.994	0.0133430
854.072	0.0133379
854.150	0.0134009
854.228	0.0132418
854.307	0.0133860
854.385	0.0133494
854.463	0.0132776
854.541	0.0133165
854.619	0.0132449
854.697	0.0134091
854.775	0.0133242
854.853	0.0133732
854.932	0.0133908
855.010	0.0132517
855.088	0.0132629
855.166	0.0134628
855.244	0.0134874
855.322	0.0133844
855.400	0.0135239
855.478	0.0136079
855.557	0.0135490
855.635	0.0135886
855.713	0.0136773
855.791	0.0135863
855.869	0.0137492
855.947	0.0139485
856.025	0.0137511
856.103	0.0137572
856.182	0.0140033
856.260	0.0137760
856.338	0.0137740
856.416	0.0137964
856.494	0.0137981
856.572	0.0138289
856.650	0.0136594
856.728	0.0136562
856.807	0.0136577
856.885	0.0136415
856.963	0.0135580
857.041	0.0134489
857.119	0.0135991
857.197	0.0135603
857.275	0.0133263
857.353	0.0134435
857.432	0.0133030
857.510	0.0134068
857.588	0.0134212
857.666	0.0134002
857.744	0.0134013
857.822	0.0132621
857.900	0.0132037
857.978	0.0131074
858.057	0.0128436
858.135	0.0130830
858.213	0.0130047
858.291	0.0128797
858.369	0.0127968
858.447	0.0128478
858.525	0.0126192
858.603	0.0126915
858.682	0.0127010
858.760	0.0127499
858.838	0.0128437
858.916	0.0129021
858.994	0.0128948
859.072	0.0131469
859.150	0.0131351
859.228	0.0131641
859.307	0.0133222
859.385	0.0132973
859.463	0.0134833
859.541	0.0136396
859.619	0.0136512
859.697	0.0136772
859.775	0.0137897
859.853	0.0137732
859.932	0.0138446
860.010	0.0136591
860.088	0.0136771
860.166	0.0138371
860.244	0.0137901
860.322	0.0137534
860.400	0.0137189
860.478	0.0136542
860.557	0.0136680
860.635	0.0137550
860.713	0.0137310
860.791	0.0135183
860.869	0.0135085
860.947	0.0135185
861.025	0.0134824
861.103	0.0132867
861.182	0.0132608
861.260	0.0133547
861.338	0.0133112
861.416	0.0132178
861.494	0.0131632
861.572	0.0132491
861.650	0.0132648
861.728	0.0131171
861.807	0.0131898
861.885	0.0132379
861.963	0.0130674
862.041	0.0131388
862.119	0.0130656
862.197	0.0129501
862.275	0.0131519
862.353	0.0132293
862.432	0.0131194
862.510	0.0130038
862.588	0.0130244
862.666	0.0130276
862.744	0.0130416
862.822	0.0130722
862.900	0.0131172
862.978	0.0129803
863.057	0.0130774
863.135	0.0130729
863.213	0.0131824
863.291	0.0131606
863.369	0.0133109
863.447	0.0133743
863.525	0.0132879
863.603	0.0132635
863.682	0.0135283
863.760	0.0135747
863.838	0.0134616
863.916	0.0136166
863.994	0.0136711
864.072	0.0138513
864.150	0.0137659
864.228	0.0137759
864.307	0.0138189
864.385	0.0139536
864.463	0.0139254
864.541	0.0139991
864.619	0.0139362
864.697	0.0139571
864.775	0.0139388
864.853	0.0138351
864.932	0.0137971
865.010	0.0139536
865.088	0.0139053
865.166	0.0136551
865.244	0.0136967
865.322	0.0137321
865.400	0.0136373
865.478	0.0134815
865.557	0.0134410
865.635	0.0134586
865.713	0.0133755
865.791	0.0133236
865.869	0.0133365
865.947	0.0131602
866.025	0.0131140
866.103	0.0132623
866.182	0.0131324
866.260	0.0130455
866.338	0.0130642
866.416	0.0131462
866.494	0.0130470
866.572	0.0130454
866.650	0.0130544
866.728	0.0131038
866.807	0.0129388
866.885	0.0130177
866.963	0.0130979
867.041	0.0130400
867.119	0.0131141
867.197	0.0131709
867.275	0.0131990
867.353	0.0132491
867.432	0.0132168
867.510	0.0131579
867.588	0.0131483
867.666	0.0133121
867.744	0.0133235
867.822	0.0133926
867.900	0.0134258
867.978	0.0134070
868.057	0.0134420
868.135	0.0136572
868.213	0.0136104
868.291	0.0134946
868.369	0.0135260
868.447	0.0136891
868.525	0.0137004
868.603	0.0136381
868.682	0.0137536
868.760	0.0136329
868.838	0.0137174
868.916	0.0136468
868.994	0.0137151
869.072	0.0136386
869.150	0.0135793
869.228	0.0135697
869.307	0.0134728
869.385	0.0135051
869.463	0.0133527
869.541	0.0134533
869.619	0.0133720
869.697	0.0133121
869.775	0.0132565
869.853	0.0133310
869.932	0.0131756
870.010	0.0130988
870.088	0.0130569
870.166	0.0131824
870.244	0.0132132
870.322	0.0131437
870.400	0.0131460
870.478	0.0132372
870.557	0.0133060
870.635	0.0132618
870.713	0.0132925
870.791	0.0134215
870.869	0.0132860
870.947	0.0132902
871.025	0.0133953
871.103	0.0133321
871.182	0.0132406
871.260	0.0133828
871.338	0.0132836
871.416	0.0133165
871.494	0.0133994
871.572	0.0134434
871.650	0.0133762
871.728	0.0134069
871.807	0.0133636
871.885	0.0135483
871.963	0.0134732
872.041	0.0135743
872.119	0.0135102
872.197	0.0135645
872.275	0.0135918
872.353	0.0135884
872.432	0.0135516
872.510	0.0137347
872.588	0.0137099
872.666	0.0138062
872.744	0.0136374
872.822	0.0136922
872.900	0.0136735
872.978	0.0136549
873.057	0.0138142
873.135	0.0137566
873.213	0.0137626
873.291	0.0135246
873.369	0.0135844
873.447	0.0136053
873.525	0.0134798
873.603	0.0136421
873.682	0.0134415
873.760	0.0134032
873.838	0.0134533
873.916	0.0134141
873.994	0.0133371
874.072	0.0133065
874.150	0.0133115
874.228	0.0131738
874.307	0.0131208
874.385	0.0131223
874.463	0.0130877
874.541	0.0130691
874.619	0.0130349
874.697	0.0130821
874.775	0.0130449
874.853	0.0131520
874.932	0.0132130
875.010	0.0131026
875.088	0.0132563
875.166	0.0133687
875.244	0.0134299
875.322	0.0134293
875.400	0.0134962
875.478	0.0136918
875.557	0.0135566
875.635	0.0136282
875.713	0.0136729
875.791	0.0137064
875.869	0.0136593
875.947	0.0137487
876.025	0.0136665
876.103	0.0137072
876.182	0.0135954
876.260	0.0136283
876.338	0.0137859
876.416	0.0135210
876.494	0.0134921
876.572	0.0135718
876.650	0.0136895
876.728	0.0136747
876.807	0.0135310
876.885	0.0135735
876.963	0.0135915
877.041	0.0135535
877.119	0.0135533
877.197	0.0134769
877.275	0.0134177
877.353	0.0133291
877.432	0.0134560
877.510	0.0132523
877.588	0.0133018
877.666	0.0133215
877.744	0.0132719
877.822	0.0132085
877.900	0.0130526
877.978	0.0131940
878.057	0.0131374
878.135	0.0129256
878.213	0.0130229
878.291	0.0129903
878.369	0.0129335
878.447	0.0128510
878.525	0.0129981
878.603	0.0129393
878.682	0.0128436
878.760	0.0128541
878.838	0.0129475
878.916	0.0129575
878.994	0.0129702
879.072	0.0128991
879.150	0.0130186
879.228	0.0131152
879.307	0.0131103
879.385	0.0130830
879.463	0.0131297
879.541	0.0131336
879.619	0.0132484
879.697	0.0132343
879.775	0.0133246
879.853	0.0132237
879.932	0.0132859
880.010	0.0134547
880.088	0.0134776
880.166	0.0134414
880.244	0.0135654
880.322	0.0135603
880.400	0.0137914
880.478	0.0137016
880.557	0.0137350
880.635	0.0136703
880.713	0.0137190
880.791	0.0137492
880.869	0.0136257
880.947	0.0137521
881.025	0.0137234
881.103	0.0136853
881.182	0.0137354
881.260	0.0137418
881.338	0.0136706
881.416	0.0136916
881.494	0.0136515
881.572	0.0136538
881.650	0.0136085
881.728	0.0135859
881.807	0.0135313
881.885	0.0135397
881.963	0.0135903
882.041	0.0135061
882.119	0.0135411
882.197	0.0134505
882.275	0.0135156
882.353	0.0135377
882.432	0.0133693
882.510	0.0132410
882.588	0.0133017
882.666	0.0133720
882.744	0.0133125
882.822	0.0132764
882.900	0.0132765
882.978	0.0132768
883.057	0.0133855
883.135	0.0133698
883.213	0.0133042
883.291	0.0133653
883.369	0.0136494
883.447	0.0136125
883.525	0.0134527
883.603	0.0132996
883.682	0.0134557
883.760	0.0135761
883.838	0.0134971
883.916	0.0135794
883.994	0.0135264
884.072	0.0134255
884.150	0.0134986
884.228	0.0135720
884.307	0.0136837
884.385	0.0136445
884.463	0.0136292
884.541	0.0136772
884.619	0.0137815
884.697	0.0138186
884.775	0.0136963
884.853	0.0135468
884.932	0.0136272
885.010	0.0135813
885.088	0.0135980
885.166	0.0137070
885.244	0.0134656
885.322	0.0135783
885.400	0.0136275
885.478	0.0134855
885.557	0.0135334
885.635	0.0135246
885.713	0.0135114
885.791	0.0134444
885.869	0.0134037
885.947	0.0133488
886.025	0.0133147
886.103	0.0133742
886.182	0.0133098
886.260	0.0134260
886.338	0.0132416
886.416	0.0133272
886.494	0.0132915
886.572	0.0132669
886.650	0.0131921
886.728	0.0132479
886.807	0.0131926
886.885	0.0131206
886.963	0.0133141
887.041	0.0132989
887.119	0.0131038
887.197	0.0133446
887.275	0.0132494
887.353	0.0132578
887.432	0.0131588
887.510	0.0132291
887.588	0.0132574
887.666	0.0131979
887.744	0.0133600
887.822	0.0133843
887.900	0.0133938
887.978	0.0134003
888.057	0.0134108
888.135	0.0134297
888.213	0.0135229
888.291	0.0135818
888.369	0.0134464
888.447	0.0136951
888.525	0.0137381
888.603	0.0135437
888.682	0.0136147
888.760	0.0137610
888.838	0.0136783
888.916	0.0135825
888.994	0.0137289
889.072	0.0137438
889.150	0.0135996
889.228	0.0137794
889.307	0.0135777
889.385	0.0135630
889.463	0.0134310
889.541	0.0135400
889.619	0.0134336
889.697	0.0134894
889.775	0.0135604
889.853	0.0134456
889.932	0.0134692
890.010	0.0134779
890.088	0.0134535
890.166	0.0134993
890.244	0.0133271
890.322	0.0133836
890.400	0.0134959
890.478	0.0134743
890.557	0.0134066
890.635	0.0134666
890.713	0.0132984
890.791	0.0133358
890.869	0.0135248
890.947	0.0133113
891.025	0.0131705
891.103	0.0133257
891.182	0.0133142
891.260	0.0133702
891.338	0.0132442
891.416	0.0134943
891.494	0.0134557
891.572	0.0133542
891.650	0.0134225
891.728	0.0132012
891.807	0.0133298
891.885	0.0133266
891.963	0.0135490
892.041	0.0136277
892.119	0.0134010
892.197	0.0134709
892.275	0.0134554
892.353	0.0134245
892.432	0.0135557
892.510	0.0134776
892.588	0.0134547
892.666	0.0134225
892.744	0.0135075
892.822	0.0135563
892.900	0.0133846
892.978	0.0133834
893.057	0.0133945
893.135	0.0134959
893.213	0.0132943
893.291	0.0133949
893.369	0.0133363
893.447	0.0133485
893.525	0.0131773
893.603	0.0131014
893.682	0.0131724
893.760	0.0133582
893.838	0.0134292
893.916	0.0132687
893.994	0.0132322
894.072	0.0132520
894.150	0.0133180
894.228	0.0133518
894.307	0.0132738
894.385	0.0133367
894.463	0.0134037
894.541	0.0133607
894.619	0.0132858
894.697	0.0133853
894.775	0.0132448
894.853	0.0132867
894.932	0.0134634
895.010	0.0133388
895.088	0.0134695
895.166	0.0133974
895.244	0.0134549
895.322	0.0134969
895.400	0.0135928
895.478	0.0135001
895.557	0.0133690
895.635	0.0134869
895.713	0.0134241
895.791	0.0136151
895.869	0.0136203
895.947	0.0135550
896.025	0.0135392
896.103	0.0136009
896.182	0.0135918
896.260	0.0135127
896.338	0.0134314
896.416	0.0135226
896.494	0.0136736
896.572	0.0135417
896.650	0.0134854
896.728	0.0136266
896.807	0.0135275
896.885	0.0136305
896.963	0.0135078
897.041	0.0136154
897.119	0.0135107
897.197	0.0135876
897.275	0.0135143
897.353	0.0136124
897.432	0.0136264
897.510	0.0136321
897.588	0.0134898
897.666	0.0135559
897.744	0.0135307
897.822	0.0135098
897.900	0.0134464
897.978	0.0133952
898.057	0.0133014
898.135	0.0134948
898.213	0.0135036
898.291	0.0134044
898.369	0.0133490
898.447	0.0134368
898.525	0.0133151
898.603	0.0134451
898.682	0.0134320
898.760	0.0133897
898.838	0.0134912
898.916	0.0133298
898.994	0.0133264
899.072	0.0132233
899.150	0.0135423
899.228	0.0133740
899.307	0.0135295
899.385	0.0133263
899.463	0.0134057
899.541	0.0133497
899.619	0.0133916
899.697	0.0132533
899.775	0.0132898
899.853	0.0133095
899.932	0.0132787
900.010	0.0132195
900.088	0.0131185
900.166	0.0131591
900.244	0.0132127
900.322	0.0131287
900.400	0.0130743
900.478	0.0131076
900.557	0.0131702
900.635	0.0130884
900.713	0.0131519
900.791	0.0130822
900.869	0.0131747
900.947	0.0131242
901.025	0.0130931
901.103	0.0131582
901.182	0.0131000
901.260	0.0131149
901.338	0.0132665
901.416	0.0132372
901.494	0.0131599
901.572	0.0131950
901.650	0.0133185
901.728	0.0133811
901.807	0.0134054
901.885	0.0135378
901.963	0.0134477
902.041	0.0134954
902.119	0.0134680
902.197	0.0135035
902.275	0.0134645
902.353	0.0136543
902.432	0.0135709
902.510	0.0134907
902.588	0.0135558
902.666	0.0136972
902.744	0.0135660
902.822	0.0135212
902.900	0.0136571
902.978	0.0134533
903.057	0.0137073
903.135	0.0134750
903.213	0.0136469
903.291	0.0135540
903.369	0.0136683
903.447	0.0134673
903.525	0.0134509
903.603	0.0136285
903.682	0.0135791
903.760	0.0134245
903.838	0.0134966
903.916	0.0134230
903.994	0.0134334
904.072	0.0134364
904.150	0.0134434
904.228	0.0134348
904.307	0.0133350
904.385	0.0134462
904.463	0.0135155
904.541	0.0135101
904.619	0.0134769
904.697	0.0134041
904.775	0.0135416
904.853	0.0134853
904.932	0.0136160
905.010	0.0135852
905.088	0.0136298
905.166	0.0134502
905.244	0.0136046
905.322	0.0133627
905.400	0.0133741
905.478	0.0133571
905.557	0.0133538
905.635	0.0134268
905.713	0.0132932
905.791	0.0132797
905.869	0.0133334
905.947	0.0132415
906.025	0.0133385
906.103	0.0131911
906.182	0.0132030
906.260	0.0133042
906.338	0.0133103
906.416	0.0131990
906.494	0.0131917
906.572	0.0132575
906.650	0.0132523
906.728	0.0131194
906.807	0.0132729
906.885	0.0133858
906.963	0.0133927
907.041	0.0133188
907.119	0.0132987
907.197	0.0133126
907.275	0.0134693
907.353	0.0135165
907.432	0.0134246
907.510	0.0135100
907.588	0.0134640
907.666	0.0135349
907.744	0.0136179
907.822	0.0136066
907.900	0.0135099
907.978	0.0135564
908.057	0.0135063
908.135	0.0135627
908.213	0.0137592
908.291	0.0135846
908.369	0.0136352
908.447	0.0135739
908.525	0.0135442
908.603	0.0135995
908.682	0.0136118
908.760	0.0133891
908.838	0.0133289
908.916	0.0135145
908.994	0.0134904
909.072	0.0134045
909.150	0.0133427
909.228	0.0134229
909.307	0.0134358
909.385	0.0134227
909.463	0.0135120
909.541	0.0133345
909.619	0.0133624
909.697	0.0132993
909.775	0.0132638
909.853	0.0133220
909.932	0.0133080
910.010	0.0132061
910.088	0.0133720
910.166	0.0131377
910.244	0.0132977
910.322	0.0132589
910.400	0.0133774
910.478	0.0133332
910.557	0.0131145
910.635	0.0132857
910.713	0.0132654
910.791	0.0131725
910.869	0.0132224
910.947	0.0133660
911.025	0.0132750
911.103	0.0132978
911.182	0.0133701
911.260	0.0134203
911.338	0.0133805
911.416	0.0134176
911.494	0.0134291
911.572	0.0133527
911.650	0.0133760
911.728	0.0134349
911.807	0.0134451
911.885	0.0134245
911.963	0.0134392
912.041	0.0135772
912.119	0.0135349
912.197	0.0135445
912.275	0.0136349
912.353	0.0135648
912.432	0.0136562
912.510	0.0135346
912.588	0.0134010
912.666	0.0135677
912.744	0.0134574
912.822	0.0135973
912.900	0.0135547
912.978	0.0134122
913.057	0.0135827
913.135	0.0134862
913.213	0.0135049
913.291	0.0134333
913.369	0.0134332
913.447	0.0135460
913.525	0.0135662
913.603	0.0134535
913.682	0.0134431
913.760	0.0135266
913.838	0.0133891
913.916	0.0133913
913.994	0.0135232
914.072	0.0133546
914.150	0.0133359
914.228	0.0133629
914.307	0.0134364
914.385	0.0134095
914.463	0.0133136
914.541	0.0133149
914.619	0.0133129
914.697	0.0132879
914.775	0.0133893
914.853	0.0134354
914.932	0.0132581
915.010	0.0133384
915.088	0.0132684
915.166	0.0133464
915.244	0.0133027
915.322	0.0133508
915.400	0.0134067
915.478	0.0133591
915.557	0.0134622
915.635	0.0134559
915.713	0.0133426
915.791	0.0133595
915.869	0.0132964
915.947	0.0133090
916.025	0.0133585
916.103	0.0135121
916.182	0.0133444
916.260	0.0132970
916.338	0.0132366
916.416	0.0132235
916.494	0.0132958
916.572	0.0132752
916.650	0.0132264
916.728	0.0132108
916.807	0.0135261
916.885	0.0132677
916.963	0.0132906
917.041	0.0134500
917.119	0.0133433
917.197	0.0134554
917.275	0.0133826
917.353	0.0134608
917.432	0.0133396
917.510	0.0132760
917.588	0.0134068
917.666	0.0134019
917.744	0.0133610
917.822	0.0135208
917.900	0.0134254
917.978	0.0133841
918.057	0.0135432
918.135	0.0133885
918.213	0.0136353
918.291	0.0135258
918.369	0.0135036
918.447	0.0136912
918.525	0.0136669
918.603	0.0136200
918.682	0.0136076
918.760	0.0137006
918.838	0.0135258
918.916	0.0135281
918.994	0.0135720
919.072	0.0135986
919.150	0.0134751
919.228	0.0136600
919.307	0.0135035
919.385	0.0133665
919.463	0.0134774
919.541	0.0133700
919.619	0.0134039
919.697	0.0134184
919.775	0.0133560
919.853	0.0134376
919.932	0.0134850
920.010	0.0134001
920.088	0.0134272
920.166	0.0134882
920.244	0.0133465
920.322	0.0135387
920.400	0.0132224
920.478	0.0133979
920.557	0.0133916
920.635	0.0133142
920.713	0.0133095
920.791	0.0133565
920.869	0.0131071
920.947	0.0132912
921.025	0.0132983
921.103	0.0133518
921.182	0.0132507
921.260	0.0133338
921.338	0.0133547
921.416	0.0132590
921.494	0.0133168
921.572	0.0132568
921.650	0.0132577
921.728	0.0132728
921.807	0.0133219
921.885	0.0133189
921.963	0.0131697
922.041	0.0134037
922.119	0.0134318
922.197	0.0131823
922.275	0.0131728
922.353	0.0132796
922.432	0.0131863
922.510	0.0133247
922.588	0.0133212
922.666	0.0133067
922.744	0.0131866
922.822	0.0133521
922.900	0.0133053
922.978	0.0133244
923.057	0.0133730
923.135	0.0133508
923.213	0.0133557
923.291	0.0132324
923.369	0.0132991
923.447	0.0134094
923.525	0.0132993
923.603	0.0133052
923.682	0.0133574
923.760	0.0132190
923.838	0.0132037
923.916	0.0133279
923.994	0.0133707
924.072	0.0134802
924.150	0.0133997
924.228	0.0134138
924.307	0.0132777
924.385	0.0134141
924.463	0.0132914
924.541	0.0133828
924.619	0.0133418
924.697	0.0135214
924.775	0.0133278
924.853	0.0133377
924.932	0.0133941
925.010	0.0134484
925.088	0.0134184
925.166	0.0134122
925.244	0.0132610
925.322	0.0132406
925.400	0.0133360
925.478	0.0133752
925.557	0.0134814
925.635	0.0133476
925.713	0.0132277
925.791	0.0132285
925.869	0.0132625
925.947	0.0133173
926.025	0.0133186
926.103	0.0130683
926.182	0.0133018
926.260	0.0131716
926.338	0.0131516
926.416	0.0131658
926.494	0.0133647
926.572	0.0133190
926.650	0.0131796
926.728	0.0131194
926.807	0.0133425
926.885	0.0133075
926.963	0.0132928
927.041	0.0132832
927.119	0.0133324
927.197	0.0135214
927.275	0.0133589
927.353	0.0133684
927.432	0.0133005
927.510	0.0133565
927.588	0.0135458
927.666	0.0135572
927.744	0.0136057
927.822	0.0134261
927.900	0.0134451
927.978	0.0133469
928.057	0.0134869
928.135	0.0134476
928.213	0.0134872
928.291	0.0133556
928.369	0.0133605
928.447	0.0132847
928.525	0.0132597
928.603	0.0134307
928.682	0.0133452
928.760	0.0133536
928.838	0.0133109
928.916	0.0132071
928.994	0.0132574
929.072	0.0132676
929.150	0.0133885
929.228	0.0131667
929.307	0.0132133
929.385	0.0132654
929.463	0.0133175
929.541	0.0132491
929.619	0.0132485
929.697	0.0131007
929.775	0.0131974
929.853	0.0132707
929.932	0.0131384
930.010	0.0132679
930.088	0.0131830
930.166	0.0131753
930.244	0.0132481
930.322	0.0131292
930.400	0.0134255
930.478	0.0134239
930.557	0.0133977
930.635	0.0132319
930.713	0.0132441
930.791	0.0133569
930.869	0.0133603
930.947	0.0134546
931.025	0.0132008
931.103	0.0134033
931.182	0.0135233
931.260	0.0134283
931.338	0.0134834
931.416	0.0135456
931.494	0.0134741
931.572	0.0135415
931.650	0.0135274
931.728	0.0134863
931.807	0.0135815
931.885	0.0135026
931.963	0.0135536
932.041	0.0134644
932.119	0.0136536
932.197	0.0134814
932.275	0.0133919
932.353	0.0133327
932.432	0.0133987
932.510	0.0134638
932.588	0.0135089
932.666	0.0134657
932.744	0.0132559
932.822	0.0134872
932.900	0.0133619
932.978	0.0133221
933.057	0.0134154
933.135	0.0134286
933.213	0.0134939
933.291	0.0134340
933.369	0.0133562
933.447	0.0134796
933.525	0.0135420
933.603	0.0134998
933.682	0.0136172
933.760	0.0135686
933.838	0.0134930
933.916	0.0135781
933.994	0.0136746
934.072	0.0136279
934.150	0.0136115
934.228	0.0137772
934.307	0.0135836
934.385	0.0135686
934.463	0.0136853
934.541	0.0135358
934.619	0.0136179
934.697	0.0136589
934.775	0.0134788
934.853	0.0135270
934.932	0.0136034
935.010	0.0136724
935.088	0.0137463
935.166	0.0135758
935.244	0.0135168
935.322	0.0135195
935.400	0.0135221
935.478	0.0134659
935.557	0.0135142
935.635	0.0133246
935.713	0.0132162
935.791	0.0132777
935.869	0.0133866
935.947	0.0133742
936.025	0.0132253
936.103	0.0133571
936.182	0.0133038
936.260	0.0131410
936.338	0.0132848
936.416	0.0131066
936.494	0.0131636
936.572	0.0131713
936.650	0.0131977
936.728	0.0130744
936.807	0.0132940
936.885	0.0133518
936.963	0.0133201
937.041	0.0131866
937.119	0.0132858
937.197	0.0131432
937.275	0.0133432
937.353	0.0132419
937.432	0.0131216
937.510	0.0132131
937.588	0.0133128
937.666	0.0133073
937.744	0.0134083
937.822	0.0133309
937.900	0.0132715
937.978	0.0133261
938.057	0.0135284
938.135	0.0134860
938.213	0.0134946
938.291	0.0134946
938.369	0.0136070
938.447	0.0134826
938.525	0.0135416
938.603	0.0136522
938.682	0.0136765
938.760	0.0137133
938.838	0.0138440
938.916	0.0135659
938.994	0.0136544
939.072	0.0135732
939.150	0.0136651
939.228	0.0136633
939.307	0.0136995
939.385	0.0136852
939.463	0.0135889
939.541	0.0134363
939.619	0.0135836
939.697	0.0135484
939.775	0.0135536
939.853	0.0135321
939.932	0.0133947
940.010	0.0132572
940.088	0.0134464
940.166	0.0134089
940.244	0.0133070
940.322	0.0132578
940.400	0.0132864
940.478	0.0132531
940.557	0.0133368
940.635	0.0131618
940.713	0.0131235
940.791	0.0132263
940.869	0.0132510
940.947	0.0130829
941.025	0.0131555
941.103	0.0132877
941.182	0.0133451
941.260	0.0132623
941.338	0.0132475
941.416	0.0132244
941.494	0.0132502
941.572	0.0132439
941.650	0.0132938
941.728	0.0133731
941.807	0.0133727
941.885	0.0132631
941.963	0.0133682
942.041	0.0132934
942.119	0.0133351
942.197	0.0133294
942.275	0.0132440
942.353	0.0134196
942.432	0.0132133
942.510	0.0132909
942.588	0.0132944
942.666	0.0133930
942.744	0.0133899
942.822	0.0133925
942.900	0.0134546
942.978	0.0133887
943.057	0.0133813
943.135	0.0135049
943.213	0.0133884
943.291	0.0135588
943.369	0.0134412
943.447	0.0134934
943.525	0.0136359
943.603	0.0135511
943.682	0.0136399
943.760	0.0136368
943.838	0.0136844
943.916	0.0135728
943.994	0.0136166
944.072	0.0135946
944.150	0.0136274
944.228	0.0136629
944.307	0.0136282
944.385	0.0136536
944.463	0.0135814
944.541	0.0135747
944.619	0.0136178
944.697	0.0135435
944.775	0.0135488
944.853	0.0135547
944.932	0.0135632
945.010	0.0135072
945.088	0.0135374
945.166	0.0134113
945.244	0.0134141
945.322	0.0135233
945.400	0.0135588
945.478	0.0134837
945.557	0.0135346
945.635	0.0135053
945.713	0.0135358
945.791	0.0134086
945.869	0.0135217
945.947	0.0135724
946.025	0.0135627
946.103	0.0134865
946.182	0.0135659
946.260	0.0135351
946.338	0.0134570
946.416	0.0135541
946.494	0.0135579
946.572	0.0133615
946.650	0.0134046
946.728	0.0134441
946.807	0.0132474
946.885	0.0133862
946.963	0.0132771
947.041	0.0132389
947.119	0.0132211
947.197	0.0132352
947.275	0.0131433
947.353	0.0132973
947.432	0.0131944
947.510	0.0132721
947.588	0.0131026
947.666	0.0133128
947.744	0.0132079
947.822	0.0130914
947.900	0.0131809
947.978	0.0134184
948.057	0.0133184
948.135	0.0131654
948.213	0.0132248
948.291	0.0131856
948.369	0.0133742
948.447	0.0132932
948.525	0.0132718
948.603	0.0133811
948.682	0.0133469
948.760	0.0132654
948.838	0.0134178
948.916	0.0132284
948.994	0.0133560
949.072	0.0134464
949.150	0.0132320
949.228	0.0132333
949.307	0.0133504
949.385	0.0133420
949.463	0.0130770
949.541	0.0133578
949.619	0.0133920
949.697	0.0133413
949.775	0.0133395
949.853	0.0133313
949.932	0.0132538
950.010	0.0133405
950.088	0.0133935
950.166	0.0133073
950.244	0.0132858
950.322	0.0134603
950.400	0.0133609
950.478	0.0132795
950.557	0.0134031
950.635	0.0132623
950.713	0.0132302
950.791	0.0133603
950.869	0.0131969
950.947	0.0132727
951.025	0.0133929
951.103	0.0134111
951.182	0.0134077
951.260	0.0134216
951.338	0.0134639
951.416	0.0135460
951.494	0.0134255
951.572	0.0135121
951.650	0.0134835
951.728	0.0134176
951.807	0.0134449
951.885	0.0134917
951.963	0.0134275
952.041	0.0135150
952.119	0.0134986
952.197	0.0135223
952.275	0.0136643
952.353	0.0135446
952.432	0.0135619
952.510	0.0135677
952.588	0.0137363
952.666	0.0136547
952.744	0.0134932
952.822	0.0136625
952.900	0.0136716
952.978	0.0136971
953.057	0.0135781
953.135	0.0136128
953.213	0.0135502
953.291	0.0136765
953.369	0.0136436
953.447	0.0134695
953.525	0.0134935
953.603	0.0134669
953.682	0.0133877
953.760	0.0135091
953.838	0.0135544
953.916	0.0134126
953.994	0.0134695
954.072	0.0133891
954.150	0.0134521
954.228	0.0134282
954.307	0.0133155
954.385	0.0132760
954.463	0.0132742
954.541	0.0131646
954.619	0.0133064
954.697	0.0132678
954.775	0.0132312
954.853	0.0132405
954.932	0.0133058
955.010	0.0131442
955.088	0.0130746
955.166	0.0132022
955.244	0.0132084
955.322	0.0132492
955.400	0.0132552
955.478	0.0132489
955.557	0.0132385
955.635	0.0132230
955.713	0.0134983
955.791	0.0132602
955.869	0.0132809
955.947	0.0133372
956.025	0.0132883
956.103	0.0132481
956.182	0.0133936
956.260	0.0130988
956.338	0.0132410
956.416	0.0132573
956.494	0.0132581
956.572	0.0134245
956.650	0.0132944
956.728	0.0134300
956.807	0.0132242
956.885	0.0132619
956.963	0.0133296
957.041	0.0134158
957.119	0.0134413
957.197	0.0133109
957.275	0.0134024
957.353	0.0133913
957.432	0.0133341
957.510	0.0134317
957.588	0.0133028
957.666	0.0134132
957.744	0.0135530
957.822	0.0134441
957.900	0.0134187
957.978	0.0134160
958.057	0.0133056
958.135	0.0135040
958.213	0.0135677
958.291	0.0135285
958.369	0.0134169
958.447	0.0133067
958.525	0.0134458
958.603	0.0134328
958.682	0.0133160
958.760	0.0134808
958.838	0.0132803
958.916	0.0133341
958.994	0.0134473
959.072	0.0132996
959.150	0.0133371
959.228	0.0132918
959.307	0.0132991
959.385	0.0133408
959.463	0.0131792
959.541	0.0133694
959.619	0.0133330
959.697	0.0132142
959.775	0.0133761
959.853	0.0132121
959.932	0.0132294
960.010	0.0132813
960.088	0.0133374
960.166	0.0132749
960.244	0.0133331
960.322	0.0131052
960.400	0.0133469
960.478	0.0134249
960.557	0.0133710
960.635	0.0133858
960.713	0.0133864
960.791	0.0133065
960.869	0.0133503
960.947	0.0135370
961.025	0.0135149
961.103	0.0135286
961.182	0.0135641
961.260	0.0135884
961.338	0.0134795
961.416	0.0136491
961.494	0.0136694
961.572	0.0136349
961.650	0.0136099
961.728	0.0135947
961.807	0.0137594
961.885	0.0137674
961.963	0.0135297
962.041	0.0137152
962.119	0.0135412
962.197	0.0137598
962.275	0.0137460
962.353	0.0136411
962.432	0.0136142
962.510	0.0135893
962.588	0.0134488
962.666	0.0135407
962.744	0.0136139
962.822	0.0135112
962.900	0.0135076
962.978	0.0134920
963.057	0.0135083
963.135	0.0134160
963.213	0.0134866
963.291	0.0133565
963.369	0.0132652
963.447	0.0133923
963.525	0.0133691
963.603	0.0135098
963.682	0.0133076
963.760	0.0133862
963.838	0.0134845
963.916	0.0133900
963.994	0.0133301
964.072	0.0132359
964.150	0.0135064
964.228	0.0133963
964.307	0.0133776
964.385	0.0132629
964.463	0.0135484
964.541	0.0134036
964.619	0.0134421
964.697	0.0134122
964.775	0.0134555
964.853	0.0134203
964.932	0.0134329
965.010	0.0134438
965.088	0.0134774
965.166	0.0135834
965.244	0.0135474
965.322	0.0134939
965.400	0.0135103
965.478	0.0136328
965.557	0.0135910
965.635	0.0135824
965.713	0.0135139
965.791	0.0134255
965.869	0.0135571
965.947	0.0135026
966.025	0.0135136
966.103	0.0135175
966.182	0.0135629
966.260	0.0135802
966.338	0.0134698
966.416	0.0134599
966.494	0.0134624
966.572	0.0135197
966.650	0.0134463
966.728	0.0133144
966.807	0.0133316
966.885	0.0134877
966.963	0.0134269
967.041	0.0133468
967.119	0.0133460
967.197	0.0133939
967.275	0.0135015
967.353	0.0134415
967.432	0.0134838
967.510	0.0134515
967.588	0.0135204
967.666	0.0135274
967.744	0.0133935
967.822	0.0136443
967.900	0.0135559
967.978	0.0135256
968.057	0.0135841
968.135	0.0135143
968.213	0.0133752
968.291	0.0135319
968.369	0.0136397
968.447	0.0135474
968.525	0.0134965
968.603	0.0135334
968.682	0.0134433
968.760	0.0134259
968.838	0.0133968
968.916	0.0135178
968.994	0.0134564
969.072	0.0134428
969.150	0.0132990
969.228	0.0134618
969.307	0.0135289
969.385	0.0133880
969.463	0.0134553
969.541	0.0133421
969.619	0.0134790
969.697	0.0135041
969.775	0.0132923
969.853	0.0132587
969.932	0.0134320
