05/14/2022	19:16:04	Ver.	4.1	UNKNOWN
Optical Delay	650.016352	Delta X		0.078125	Sweeps	1	Scan Rate	0/0
Coordinates	Axis 1	NaN	Axis 2	NaN	Axis 3	NaN	Axis 4	NaN	Axis 5	NaN	Axis 6	0.000000
TX Power	0.000000	RX Power	0.000000

650.016	0.0145349
650.094	0.0146674
650.173	0.0145919
650.251	0.0145090
650.329	0.0145706
650.407	0.0146073
650.485	0.0144144
650.563	0.0146736
650.641	0.0146838
650.719	0.0146399
650.798	0.0144923
650.876	0.0145855
650.954	0.0144689
651.032	0.0144617
651.110	0.0146206
651.188	0.0145709
651.266	0.0145358
651.344	0.0146895
651.423	0.0145899
651.501	0.0143360
651.579	0.0144779
651.657	0.0146054
651.735	0.0143940
651.813	0.0145222
651.891	0.0145361
651.969	0.0145826
652.048	0.0145166
652.126	0.0145630
652.204	0.0145953
652.282	0.0146103
652.360	0.0144800
652.438	0.0145148
652.516	0.0144816
652.594	0.0146204
652.673	0.0146426
652.751	0.0145172
652.829	0.0145300
652.907	0.0144534
652.985	0.0144861
653.063	0.0146044
653.141	0.0145083
653.219	0.0144449
653.298	0.0145909
653.376	0.0146839
653.454	0.0146542
653.532	0.0144865
653.610	0.0145723
653.688	0.0147083
653.766	0.0144923
653.844	0.0146312
653.923	0.0146473
654.001	0.0145493
654.079	0.0144324
654.157	0.0145769
654.235	0.0147755
654.313	0.0144891
654.391	0.0145599
654.469	0.0145840
654.548	0.0144894
654.626	0.0144714
654.704	0.0146388
654.782	0.0145085
654.860	0.0145959
654.938	0.0146510
655.016	0.0145089
655.094	0.0146442
655.173	0.0146233
655.251	0.0144935
655.329	0.0144096
655.407	0.0144566
655.485	0.0145929
655.563	0.0145147
655.641	0.0145035
655.719	0.0144741
655.798	0.0144492
655.876	0.0145329
655.954	0.0145700
656.032	0.0145442
656.110	0.0146797
656.188	0.0145103
656.266	0.0144881
656.344	0.0145929
656.423	0.0145165
656.501	0.0145112
656.579	0.0144661
656.657	0.0145491
656.735	0.0147652
656.813	0.0145815
656.891	0.0146048
656.969	0.0144807
657.048	0.0145406
657.126	0.0146286
657.204	0.0146061
657.282	0.0144862
657.360	0.0146063
657.438	0.0146178
657.516	0.0145303
657.594	0.0145203
657.673	0.0144833
657.751	0.0144863
657.829	0.0145074
657.907	0.0144859
657.985	0.0146436
658.063	0.0146108
658.141	0.0147260
658.219	0.0145605
658.298	0.0144691
658.376	0.0145927
658.454	0.0144918
658.532	0.0146156
658.610	0.0145589
658.688	0.0145518
658.766	0.0146854
658.844	0.0145538
658.923	0.0146007
659.001	0.0146419
659.079	0.0145233
659.157	0.0145664
659.235	0.0144897
659.313	0.0146264
659.391	0.0145360
659.469	0.0145757
659.548	0.0145883
659.626	0.0145312
659.704	0.0145137
659.782	0.0145499
659.860	0.0145706
659.938	0.0145343
660.016	0.0146645
660.094	0.0144609
660.173	0.0146689
660.251	0.0147209
660.329	0.0146933
660.407	0.0145890
660.485	0.0143392
660.563	0.0146802
660.641	0.0145266
660.719	0.0145296
660.798	0.0146393
660.876	0.0145116
660.954	0.0144656
661.032	0.0146385
661.110	0.0145560
661.188	0.0146426
661.266	0.0144604
661.344	0.0145650
661.423	0.0144474
661.501	0.0146211
661.579	0.0145387
661.657	0.0145220
661.735	0.0145869
661.813	0.0145026
661.891	0.0145060
661.969	0.0145319
662.048	0.0145780
662.126	0.0145676
662.204	0.0145013
662.282	0.0145145
662.360	0.0144899
662.438	0.0144241
662.516	0.0144713
662.594	0.0144218
662.673	0.0144447
662.751	0.0146011
662.829	0.0145996
662.907	0.0145744
662.985	0.0145725
663.063	0.0146353
663.141	0.0144533
663.219	0.0146088
663.298	0.0146000
663.376	0.0145285
663.454	0.0145132
663.532	0.0143842
663.610	0.0144820
663.688	0.0145882
663.766	0.0144338
663.844	0.0144908
663.923	0.0144711
664.001	0.0144781
664.079	0.0145499
664.157	0.0145617
664.235	0.0146357
664.313	0.0144971
664.391	0.0144041
664.469	0.0145364
664.548	0.0144576
664.626	0.0145670
664.704	0.0145816
664.782	0.0146922
664.860	0.0146159
664.938	0.0144202
665.016	0.0144765
665.094	0.0145722
665.173	0.0144193
665.251	0.0143919
665.329	0.0144573
665.407	0.0146674
665.485	0.0145134
665.563	0.0144270
665.641	0.0145213
665.719	0.0146912
665.798	0.0145145
665.876	0.0145448
665.954	0.0145422
666.032	0.0146499
666.110	0.0145285
666.188	0.0145219
666.266	0.0143793
666.344	0.0146544
666.423	0.0145943
666.501	0.0145583
666.579	0.0145190
666.657	0.0146155
666.735	0.0145538
666.813	0.0145950
666.891	0.0144775
666.969	0.0146570
667.048	0.0145135
667.126	0.0146763
667.204	0.0144826
667.282	0.0144846
667.360	0.0145218
667.438	0.0146428
667.516	0.0145424
667.594	0.0146944
667.673	0.0145480
667.751	0.0145490
667.829	0.0144463
667.907	0.0143246
667.985	0.0145279
668.063	0.0146089
668.141	0.0145786
668.219	0.0146855
668.298	0.0145094
668.376	0.0144980
668.454	0.0145378
668.532	0.0145006
668.610	0.0145618
668.688	0.0145505
668.766	0.0146741
668.844	0.0146378
668.923	0.0145550
669.001	0.0144351
669.079	0.0145454
669.157	0.0145286
669.235	0.0146402
669.313	0.0145628
669.391	0.0145381
669.469	0.0144667
669.548	0.0145874
669.626	0.0145612
669.704	0.0146134
669.782	0.0145840
669.860	0.0144975
669.938	0.0144880
670.016	0.0144524
670.094	0.0144156
670.173	0.0145036
670.251	0.0145178
670.329	0.0144764
670.407	0.0144755
670.485	0.0145198
670.563	0.0145390
670.641	0.0146434
670.719	0.0146746
670.798	0.0147064
670.876	0.0146333
670.954	0.0145097
671.032	0.0144353
671.110	0.0145555
671.188	0.0145625
671.266	0.0146022
671.344	0.0145845
671.423	0.0145908
671.501	0.0145142
671.579	0.0145494
671.657	0.0145811
671.735	0.0145576
671.813	0.0144653
671.891	0.0144900
671.969	0.0145003
672.048	0.0144915
672.126	0.0145403
672.204	0.0146094
672.282	0.0145109
672.360	0.0144298
672.438	0.0145077
672.516	0.0146107
672.594	0.0144757
672.673	0.0144406
672.751	0.0146004
672.829	0.0145838
672.907	0.0143945
672.985	0.0144405
673.063	0.0145962
673.141	0.0144439
673.219	0.0145573
673.298	0.0145071
673.376	0.0144408
673.454	0.0145151
673.532	0.0143598
673.610	0.0143768
673.688	0.0145465
673.766	0.0145692
673.844	0.0145374
673.923	0.0144756
674.001	0.0144743
674.079	0.0146459
674.157	0.0146216
674.235	0.0144887
674.313	0.0145231
674.391	0.0144860
674.469	0.0145948
674.548	0.0144549
674.626	0.0145029
674.704	0.0144817
674.782	0.0145909
674.860	0.0144896
674.938	0.0145351
675.016	0.0145022
675.094	0.0145875
675.173	0.0144339
675.251	0.0144968
675.329	0.0145252
675.407	0.0145992
675.485	0.0145453
675.563	0.0144084
675.641	0.0145319
675.719	0.0144902
675.798	0.0145805
675.876	0.0144707
675.954	0.0144765
676.032	0.0146181
676.110	0.0144907
676.188	0.0144936
676.266	0.0144566
676.344	0.0145545
676.423	0.0146078
676.501	0.0145877
676.579	0.0145113
676.657	0.0145583
676.735	0.0144521
676.813	0.0144876
676.891	0.0145753
676.969	0.0145307
677.048	0.0145444
677.126	0.0144786
677.204	0.0145809
677.282	0.0144977
677.360	0.0145853
677.438	0.0146285
677.516	0.0145066
677.594	0.0145052
677.673	0.0145943
677.751	0.0145432
677.829	0.0145246
677.907	0.0147295
677.985	0.0144616
678.063	0.0145087
678.141	0.0146706
678.219	0.0145322
678.298	0.0144499
678.376	0.0145560
678.454	0.0145042
678.532	0.0146407
678.610	0.0146027
678.688	0.0145924
678.766	0.0145026
678.844	0.0144777
678.923	0.0146339
679.001	0.0146317
679.079	0.0147171
679.157	0.0145189
679.235	0.0145322
679.313	0.0146159
679.391	0.0146080
679.469	0.0145859
679.548	0.0144791
679.626	0.0146066
679.704	0.0145416
679.782	0.0145145
679.860	0.0145432
679.938	0.0144511
680.016	0.0145641
680.094	0.0144447
680.173	0.0145621
680.251	0.0145974
680.329	0.0145153
680.407	0.0146016
680.485	0.0145966
680.563	0.0146163
680.641	0.0144901
680.719	0.0144840
680.798	0.0144141
680.876	0.0146111
680.954	0.0145892
681.032	0.0145785
681.110	0.0145921
681.188	0.0146225
681.266	0.0146598
681.344	0.0144536
681.423	0.0145374
681.501	0.0146199
681.579	0.0147002
681.657	0.0146317
681.735	0.0145573
681.813	0.0144981
681.891	0.0145699
681.969	0.0145152
682.048	0.0144366
682.126	0.0146844
682.204	0.0146987
682.282	0.0146456
682.360	0.0146812
682.438	0.0148039
682.516	0.0147368
682.594	0.0147679
682.673	0.0148259
682.751	0.0147731
682.829	0.0145927
682.907	0.0145242
682.985	0.0145750
683.063	0.0144013
683.141	0.0141709
683.219	0.0142229
683.298	0.0142543
683.376	0.0140486
683.454	0.0141600
683.532	0.0143141
683.610	0.0142176
683.688	0.0144043
683.766	0.0143531
683.844	0.0147388
683.923	0.0149216
684.001	0.0149712
684.079	0.0149557
684.157	0.0150571
684.235	0.0150369
684.313	0.0150652
684.391	0.0152364
684.469	0.0151126
684.548	0.0151403
684.626	0.0152039
684.704	0.0150763
684.782	0.0149312
684.860	0.0148875
684.938	0.0146423
685.016	0.0145984
685.094	0.0143515
685.173	0.0140792
685.251	0.0138052
685.329	0.0137274
685.407	0.0134507
685.485	0.0133271
685.563	0.0134167
685.641	0.0134077
685.719	0.0135360
685.798	0.0136807
685.876	0.0138816
685.954	0.0142266
686.032	0.0144012
686.110	0.0147682
686.188	0.0152512
686.266	0.0154321
686.344	0.0155690
686.423	0.0157169
686.501	0.0158266
686.579	0.0158333
686.657	0.0158553
686.735	0.0157700
686.813	0.0156912
686.891	0.0155178
686.969	0.0154196
687.048	0.0153238
687.126	0.0150887
687.204	0.0148678
687.282	0.0149431
687.360	0.0147607
687.438	0.0148853
687.516	0.0145000
687.594	0.0144418
687.673	0.0142763
687.751	0.0142284
687.829	0.0140269
687.907	0.0137605
687.985	0.0136263
688.063	0.0134094
688.141	0.0133398
688.219	0.0132114
688.298	0.0130112
688.376	0.0130295
688.454	0.0130964
688.532	0.0131146
688.610	0.0133086
688.688	0.0133098
688.766	0.0134314
688.844	0.0134649
688.923	0.0136214
689.001	0.0141431
689.079	0.0144373
689.157	0.0147315
689.235	0.0149452
689.313	0.0153196
689.391	0.0157015
689.469	0.0160439
689.548	0.0163885
689.626	0.0165897
689.704	0.0168178
689.782	0.0170691
689.860	0.0170737
689.938	0.0171345
690.016	0.0172118
690.094	0.0171338
690.173	0.0171098
690.251	0.0168780
690.329	0.0166853
690.407	0.0166322
690.485	0.0163082
690.563	0.0160634
690.641	0.0159886
690.719	0.0154230
690.798	0.0151159
690.876	0.0146713
690.954	0.0141847
691.032	0.0136433
691.110	0.0128269
691.188	0.0121805
691.266	0.0116249
691.344	0.0110326
691.423	0.0102168
691.501	0.00985847
691.579	0.00952766
691.657	0.00930290
691.735	0.00919365
691.813	0.00918884
691.891	0.00942200
691.969	0.00976501
692.048	0.0101750
692.126	0.0107998
692.204	0.0115607
692.282	0.0122868
692.360	0.0130278
692.438	0.0137640
692.516	0.0147959
692.594	0.0157800
692.673	0.0164608
692.751	0.0175793
692.829	0.0183785
692.907	0.0192866
692.985	0.0202583
693.063	0.0211177
693.141	0.0217015
693.219	0.0223229
693.298	0.0226324
693.376	0.0228745
693.454	0.0229465
693.532	0.0227060
693.610	0.0223209
693.688	0.0217473
693.766	0.0206979
693.844	0.0196568
693.923	0.0184971
694.001	0.0169660
694.079	0.0155079
694.157	0.0138553
694.235	0.0121871
694.313	0.0109630
694.391	0.00965088
694.469	0.00862366
694.548	0.00761055
694.626	0.00698151
694.704	0.00652344
694.782	0.00635155
694.860	0.00634674
694.938	0.00625488
695.016	0.00651527
695.094	0.00672165
695.173	0.00688034
695.251	0.00744881
695.329	0.00785896
695.407	0.00842796
695.485	0.00908173
695.563	0.00976463
695.641	0.0107483
695.719	0.0117268
695.798	0.0129376
695.876	0.0139485
695.954	0.0149541
696.032	0.0163681
696.110	0.0174632
696.188	0.0183090
696.266	0.0192442
696.344	0.0200107
696.423	0.0205170
696.501	0.0207691
696.579	0.0211111
696.657	0.0210936
696.735	0.0211407
696.813	0.0209156
696.891	0.0208891
696.969	0.0207263
697.048	0.0207589
697.126	0.0206750
697.204	0.0206985
697.282	0.0206714
697.360	0.0205273
697.438	0.0204921
697.516	0.0201128
697.594	0.0196449
697.673	0.0190401
697.751	0.0183617
697.829	0.0173647
697.907	0.0162849
697.985	0.0150689
698.063	0.0139368
698.141	0.0127832
698.219	0.0117210
698.298	0.0106851
698.376	0.00973007
698.454	0.00892723
698.532	0.00837860
698.610	0.00790268
698.688	0.00754166
698.766	0.00741379
698.844	0.00744057
698.923	0.00740700
699.001	0.00743217
699.079	0.00748489
699.157	0.00762787
699.235	0.00768700
699.313	0.00771484
699.391	0.00783524
699.469	0.00787041
699.548	0.00788719
699.626	0.00826546
699.704	0.00859695
699.782	0.00924789
699.860	0.00999336
699.938	0.0107229
700.016	0.0119291
700.094	0.0132389
700.173	0.0145425
700.251	0.0157199
700.329	0.0173256
700.407	0.0185722
700.485	0.0195821
700.563	0.0206055
700.641	0.0215793
700.719	0.0222330
700.798	0.0226790
700.876	0.0229991
700.954	0.0232004
701.032	0.0233726
701.110	0.0234542
701.188	0.0234596
701.266	0.0234062
701.344	0.0233856
701.423	0.0231957
701.501	0.0231637
701.579	0.0229031
701.657	0.0223534
701.735	0.0218284
701.813	0.0211937
701.891	0.0201642
701.969	0.0190281
702.048	0.0177627
702.126	0.0164706
702.204	0.0149055
702.282	0.0133702
702.360	0.0119092
702.438	0.0102911
702.516	0.00900558
702.594	0.00771271
702.673	0.00678886
702.751	0.00589706
702.829	0.00535019
702.907	0.00500496
702.985	0.00492386
703.063	0.00511818
703.141	0.00523567
703.219	0.00557411
703.298	0.00602493
703.376	0.00648354
703.454	0.00707581
703.532	0.00759544
703.610	0.00798935
703.688	0.00856804
703.766	0.00898544
703.844	0.00953140
703.923	0.00996590
704.001	0.0105660
704.079	0.0110432
704.157	0.0116772
704.235	0.0123919
704.313	0.0130156
704.391	0.0139474
704.469	0.0149321
704.548	0.0156033
704.626	0.0163778
704.704	0.0174067
704.782	0.0183504
704.860	0.0192442
704.938	0.0198842
705.016	0.0205659
705.094	0.0210722
705.173	0.0217012
705.251	0.0220930
705.329	0.0225423
705.407	0.0228111
705.485	0.0230405
705.563	0.0233804
705.641	0.0236031
705.719	0.0236359
705.798	0.0236919
705.876	0.0235723
705.954	0.0233323
706.032	0.0229607
706.110	0.0224469
706.188	0.0217729
706.266	0.0208483
706.344	0.0197301
706.423	0.0186807
706.501	0.0172903
706.579	0.0161384
706.657	0.0148228
706.735	0.0132988
706.813	0.0121374
706.891	0.0110050
706.969	0.00982681
707.048	0.00874130
707.126	0.00781769
707.204	0.00708405
707.282	0.00644608
707.360	0.00590927
707.438	0.00550468
707.516	0.00511559
707.594	0.00493500
707.673	0.00502159
707.751	0.00514748
707.829	0.00540291
707.907	0.00556824
707.985	0.00625435
708.063	0.00670517
708.141	0.00729759
708.219	0.00812408
708.298	0.00891235
708.376	0.00981178
708.454	0.0107581
708.532	0.0116634
708.610	0.0127156
708.688	0.0136940
708.766	0.0145919
708.844	0.0157055
708.923	0.0163953
709.001	0.0172540
709.079	0.0178594
709.157	0.0183589
709.235	0.0189591
709.313	0.0192462
709.391	0.0197079
709.469	0.0200689
709.548	0.0203007
709.626	0.0205624
709.704	0.0208265
709.782	0.0208297
709.860	0.0209547
709.938	0.0211436
710.016	0.0210816
710.094	0.0209538
710.173	0.0208997
710.251	0.0206258
710.329	0.0202230
710.407	0.0199604
710.485	0.0194199
710.563	0.0189134
710.641	0.0183868
710.719	0.0176472
710.798	0.0172854
710.876	0.0165533
710.954	0.0158657
711.032	0.0151585
711.110	0.0146410
711.188	0.0142706
711.266	0.0138577
711.344	0.0131919
711.423	0.0126847
711.501	0.0125713
711.579	0.0120831
711.657	0.0116249
711.735	0.0114359
711.813	0.0111288
711.891	0.0106445
711.969	0.0106887
712.048	0.0103816
712.126	0.0103383
712.204	0.0101882
712.282	0.0101183
712.360	0.0102652
712.438	0.0103241
712.516	0.0103721
712.594	0.0105392
712.673	0.0107793
712.751	0.0110181
712.829	0.0112287
712.907	0.0114447
712.985	0.0116933
713.063	0.0119955
713.141	0.0122228
713.219	0.0126852
713.298	0.0128781
713.376	0.0131979
713.454	0.0136425
713.532	0.0138560
713.610	0.0142954
713.688	0.0145695
713.766	0.0149739
713.844	0.0152453
713.923	0.0156924
714.001	0.0159901
714.079	0.0164359
714.157	0.0167439
714.235	0.0169646
714.313	0.0173336
714.391	0.0174902
714.469	0.0175460
714.548	0.0175600
714.626	0.0173791
714.704	0.0173302
714.782	0.0170991
714.860	0.0165751
714.938	0.0162701
715.016	0.0160197
715.094	0.0156748
715.173	0.0155264
715.251	0.0151288
715.329	0.0149862
715.407	0.0149868
715.485	0.0147227
715.563	0.0147842
715.641	0.0149982
715.719	0.0151604
715.798	0.0151867
715.876	0.0152699
715.954	0.0154490
716.032	0.0155683
716.110	0.0154557
716.188	0.0155718
716.266	0.0156382
716.344	0.0156520
716.423	0.0156859
716.501	0.0156190
716.579	0.0155468
716.657	0.0153768
716.735	0.0153506
716.813	0.0151214
716.891	0.0148679
716.969	0.0147187
717.048	0.0145066
717.126	0.0144113
717.204	0.0142754
717.282	0.0139999
717.360	0.0137595
717.438	0.0136935
717.516	0.0134794
717.594	0.0135007
717.673	0.0134114
717.751	0.0131437
717.829	0.0130308
717.907	0.0131464
717.985	0.0130813
718.063	0.0130904
718.141	0.0131795
718.219	0.0132056
718.298	0.0132352
718.376	0.0134068
718.454	0.0134008
718.532	0.0133407
718.610	0.0133949
718.688	0.0133302
718.766	0.0132777
718.844	0.0132671
718.923	0.0132113
719.001	0.0131963
719.079	0.0131146
719.157	0.0130794
719.235	0.0131255
719.313	0.0131352
719.391	0.0131487
719.469	0.0134067
719.548	0.0134615
719.626	0.0132768
719.704	0.0136469
719.782	0.0139174
719.860	0.0140450
719.938	0.0141095
720.016	0.0143615
720.094	0.0145261
720.173	0.0146562
720.251	0.0147881
720.329	0.0150220
720.407	0.0152129
720.485	0.0152425
720.563	0.0154822
720.641	0.0156799
720.719	0.0159495
720.798	0.0163768
720.876	0.0163444
720.954	0.0166159
721.032	0.0166442
721.110	0.0167757
721.188	0.0170535
721.266	0.0171243
721.344	0.0168956
721.423	0.0169049
721.501	0.0166418
721.579	0.0165653
721.657	0.0161784
721.735	0.0161295
721.813	0.0158451
721.891	0.0154943
721.969	0.0152670
722.048	0.0152795
722.126	0.0151214
722.204	0.0147840
722.282	0.0146730
722.360	0.0145699
722.438	0.0144427
722.516	0.0145085
722.594	0.0144765
722.673	0.0145735
722.751	0.0145322
722.829	0.0144727
722.907	0.0146351
722.985	0.0144741
723.063	0.0144108
723.141	0.0144044
723.219	0.0143059
723.298	0.0142242
723.376	0.0139858
723.454	0.0140103
723.532	0.0139055
723.610	0.0135751
723.688	0.0133127
723.766	0.0132554
723.844	0.0130846
723.923	0.0131475
724.001	0.0130915
724.079	0.0130869
724.157	0.0131327
724.235	0.0130891
724.313	0.0129359
724.391	0.0131934
724.469	0.0130580
724.548	0.0133273
724.626	0.0133010
724.704	0.0131728
724.782	0.0133585
724.860	0.0134229
724.938	0.0134444
725.016	0.0134846
725.094	0.0134113
725.173	0.0136012
725.251	0.0136254
725.329	0.0137327
725.407	0.0138207
725.485	0.0138216
725.563	0.0138621
725.641	0.0139748
725.719	0.0141740
725.798	0.0142697
725.876	0.0144050
725.954	0.0145189
726.032	0.0146954
726.110	0.0147936
726.188	0.0149884
726.266	0.0151218
726.344	0.0151632
726.423	0.0152601
726.501	0.0155581
726.579	0.0157383
726.657	0.0156889
726.735	0.0157644
726.813	0.0160080
726.891	0.0160079
726.969	0.0161646
727.048	0.0160355
727.126	0.0161787
727.204	0.0162495
727.282	0.0163847
727.360	0.0163070
727.438	0.0161991
727.516	0.0162481
727.594	0.0162399
727.673	0.0163281
727.751	0.0162055
727.829	0.0161136
727.907	0.0160790
727.985	0.0158994
728.063	0.0158990
728.141	0.0157940
728.219	0.0156093
728.298	0.0155183
728.376	0.0152778
728.454	0.0151175
728.532	0.0150668
728.610	0.0150205
728.688	0.0145968
728.766	0.0145957
728.844	0.0142498
728.923	0.0142710
729.001	0.0142113
729.079	0.0139428
729.157	0.0139203
729.235	0.0138316
729.313	0.0137580
729.391	0.0136652
729.469	0.0135706
729.548	0.0135208
729.626	0.0132880
729.704	0.0132361
729.782	0.0130891
729.860	0.0130548
729.938	0.0130651
730.016	0.0129384
730.094	0.0130059
730.173	0.0130092
730.251	0.0127940
730.329	0.0129247
730.407	0.0129860
730.485	0.0129455
730.563	0.0129781
730.641	0.0130954
730.719	0.0131239
730.798	0.0132497
730.876	0.0133985
730.954	0.0133974
731.032	0.0134697
731.110	0.0136124
731.188	0.0137223
731.266	0.0137513
731.344	0.0139888
731.423	0.0141428
731.501	0.0141550
731.579	0.0145140
731.657	0.0145187
731.735	0.0146313
731.813	0.0148131
731.891	0.0151039
731.969	0.0152089
732.048	0.0153754
732.126	0.0153442
732.204	0.0155402
732.282	0.0155197
732.360	0.0155598
732.438	0.0157239
732.516	0.0157595
732.594	0.0158316
732.673	0.0159267
732.751	0.0159248
732.829	0.0160950
732.907	0.0161348
732.985	0.0161579
733.063	0.0162409
733.141	0.0161072
733.219	0.0160339
733.298	0.0160368
733.376	0.0159625
733.454	0.0158865
733.532	0.0158457
733.610	0.0157698
733.688	0.0156194
733.766	0.0155283
733.844	0.0153345
733.923	0.0153526
734.001	0.0153773
734.079	0.0151760
734.157	0.0150352
734.235	0.0151322
734.313	0.0149747
734.391	0.0149906
734.469	0.0147839
734.548	0.0146011
734.626	0.0145277
734.704	0.0143298
734.782	0.0142516
734.860	0.0142132
734.938	0.0140828
735.016	0.0139944
735.094	0.0138846
735.173	0.0137466
735.251	0.0138011
735.329	0.0136031
735.407	0.0136269
735.485	0.0135361
735.563	0.0134666
735.641	0.0135928
735.719	0.0134196
735.798	0.0134502
735.876	0.0133273
735.954	0.0134356
736.032	0.0132522
736.110	0.0132977
736.188	0.0132786
736.266	0.0133218
736.344	0.0133638
736.423	0.0134589
736.501	0.0134785
736.579	0.0135607
736.657	0.0136994
736.735	0.0136963
736.813	0.0137997
736.891	0.0139888
736.969	0.0137457
737.048	0.0139831
737.126	0.0140687
737.204	0.0142020
737.282	0.0141066
737.360	0.0142315
737.438	0.0142155
737.516	0.0144381
737.594	0.0143033
737.673	0.0145509
737.751	0.0146891
737.829	0.0146548
737.907	0.0148660
737.985	0.0150791
738.063	0.0150533
738.141	0.0151958
738.219	0.0152891
738.298	0.0154161
738.376	0.0155901
738.454	0.0154961
738.532	0.0154871
738.610	0.0155654
738.688	0.0155093
738.766	0.0154290
738.844	0.0155046
738.923	0.0154158
739.001	0.0153417
739.079	0.0154744
739.157	0.0152787
739.235	0.0152861
739.313	0.0152490
739.391	0.0152013
739.469	0.0151675
739.548	0.0152203
739.626	0.0153043
739.704	0.0153078
739.782	0.0151485
739.860	0.0150546
739.938	0.0150365
740.016	0.0151063
740.094	0.0150626
740.173	0.0151386
740.251	0.0150031
740.329	0.0149792
740.407	0.0149102
740.485	0.0147165
740.563	0.0146533
740.641	0.0145827
740.719	0.0146202
740.798	0.0145502
740.876	0.0143077
740.954	0.0143864
741.032	0.0143320
741.110	0.0142303
741.188	0.0141587
741.266	0.0141994
741.344	0.0141621
741.423	0.0141180
741.501	0.0140749
741.579	0.0140295
741.657	0.0142134
741.735	0.0140030
741.813	0.0138392
741.891	0.0140034
741.969	0.0140856
742.048	0.0140646
742.126	0.0139951
742.204	0.0140179
742.282	0.0140326
742.360	0.0140649
742.438	0.0140033
742.516	0.0140287
742.594	0.0140171
742.673	0.0139677
742.751	0.0138097
742.829	0.0139633
742.907	0.0140176
742.985	0.0141171
743.063	0.0138743
743.141	0.0139684
743.219	0.0140809
743.298	0.0139384
743.376	0.0140541
743.454	0.0139828
743.532	0.0139901
743.610	0.0139217
743.688	0.0140359
743.766	0.0140450
743.844	0.0139313
743.923	0.0141517
744.001	0.0140545
744.079	0.0140649
744.157	0.0142076
744.235	0.0141912
744.313	0.0143488
744.391	0.0143577
744.469	0.0145131
744.548	0.0145300
744.626	0.0147984
744.704	0.0148045
744.782	0.0148334
744.860	0.0150868
744.938	0.0152256
745.016	0.0153381
745.094	0.0152289
745.173	0.0153097
745.251	0.0154563
745.329	0.0155773
745.407	0.0155231
745.485	0.0155650
745.563	0.0157774
745.641	0.0157966
745.719	0.0158189
745.798	0.0159237
745.876	0.0160275
745.954	0.0160320
746.032	0.0158817
746.110	0.0158138
746.188	0.0158701
746.266	0.0157882
746.344	0.0158395
746.423	0.0156458
746.501	0.0154166
746.579	0.0154500
746.657	0.0152699
746.735	0.0149435
746.813	0.0148249
746.891	0.0147209
746.969	0.0146165
747.048	0.0143328
747.126	0.0140258
747.204	0.0140540
747.282	0.0138006
747.360	0.0137183
747.438	0.0137753
747.516	0.0136098
747.594	0.0136549
747.673	0.0135545
747.751	0.0135362
747.829	0.0135371
747.907	0.0133492
747.985	0.0134344
748.063	0.0136211
748.141	0.0135938
748.219	0.0135434
748.298	0.0137446
748.376	0.0136894
748.454	0.0137089
748.532	0.0139260
748.610	0.0138993
748.688	0.0139909
748.766	0.0139676
748.844	0.0140773
748.923	0.0140651
749.001	0.0143822
749.079	0.0142521
749.157	0.0143700
749.235	0.0143507
749.313	0.0144684
749.391	0.0145506
749.469	0.0146397
749.548	0.0147400
749.626	0.0145810
749.704	0.0146886
749.782	0.0147490
749.860	0.0146886
749.938	0.0146841
750.016	0.0146565
750.094	0.0146969
750.173	0.0148163
750.251	0.0147840
750.329	0.0147980
750.407	0.0146669
750.485	0.0148454
750.563	0.0148321
750.641	0.0149921
750.719	0.0148252
750.798	0.0148770
750.876	0.0151408
750.954	0.0150027
751.032	0.0149732
751.110	0.0150456
751.188	0.0150325
751.266	0.0150962
751.344	0.0150053
751.423	0.0147871
751.501	0.0149628
751.579	0.0149396
751.657	0.0148347
751.735	0.0146997
751.813	0.0147490
751.891	0.0145723
751.969	0.0145563
752.048	0.0143800
752.126	0.0144101
752.204	0.0144544
752.282	0.0143979
752.360	0.0144833
752.438	0.0145137
752.516	0.0145001
752.594	0.0144245
752.673	0.0144367
752.751	0.0145567
752.829	0.0146191
752.907	0.0146241
752.985	0.0147118
753.063	0.0147868
753.141	0.0146632
753.219	0.0146802
753.298	0.0146970
753.376	0.0147511
753.454	0.0147201
753.532	0.0145329
753.610	0.0146738
753.688	0.0147469
753.766	0.0146008
753.844	0.0144585
753.923	0.0145740
754.001	0.0145248
754.079	0.0145566
754.157	0.0146861
754.235	0.0145789
754.313	0.0145469
754.391	0.0144982
754.469	0.0145345
754.548	0.0142872
754.626	0.0143906
754.704	0.0142649
754.782	0.0142757
754.860	0.0143335
754.938	0.0141123
755.016	0.0141563
755.094	0.0142702
755.173	0.0141798
755.251	0.0141900
755.329	0.0141853
755.407	0.0141908
755.485	0.0141785
755.563	0.0143530
755.641	0.0141999
755.719	0.0143261
755.798	0.0141630
755.876	0.0142218
755.954	0.0143375
756.032	0.0143190
756.110	0.0144971
756.188	0.0143910
756.266	0.0144720
756.344	0.0143924
756.423	0.0145469
756.501	0.0145319
756.579	0.0146299
756.657	0.0145272
756.735	0.0145712
756.813	0.0146755
756.891	0.0146704
756.969	0.0144949
757.048	0.0145210
757.126	0.0145543
757.204	0.0145043
757.282	0.0144748
757.360	0.0143786
757.438	0.0142683
757.516	0.0143495
757.594	0.0144339
757.673	0.0143958
757.751	0.0144628
757.829	0.0144764
757.907	0.0144062
757.985	0.0143355
758.063	0.0145753
758.141	0.0146408
758.219	0.0146447
758.298	0.0146983
758.376	0.0147998
758.454	0.0148677
758.532	0.0149635
758.610	0.0149998
758.688	0.0150254
758.766	0.0149859
758.844	0.0150398
758.923	0.0152238
759.001	0.0154139
759.079	0.0152409
759.157	0.0152724
759.235	0.0151859
759.313	0.0152264
759.391	0.0152467
759.469	0.0151329
759.548	0.0151958
759.626	0.0150111
759.704	0.0148291
759.782	0.0147984
759.860	0.0148217
759.938	0.0145852
760.016	0.0144927
760.094	0.0144872
760.173	0.0142562
760.251	0.0141640
760.329	0.0139359
760.407	0.0139912
760.485	0.0139604
760.563	0.0139565
760.641	0.0140943
760.719	0.0140176
760.798	0.0141397
760.876	0.0141450
760.954	0.0140479
761.032	0.0141068
761.110	0.0142106
761.188	0.0143980
761.266	0.0143996
761.344	0.0145572
761.423	0.0145973
761.501	0.0146949
761.579	0.0148582
761.657	0.0148029
761.735	0.0147360
761.813	0.0148138
761.891	0.0149255
761.969	0.0147968
762.048	0.0147604
762.126	0.0147006
762.204	0.0147408
762.282	0.0146421
762.360	0.0145544
762.438	0.0144695
762.516	0.0144149
762.594	0.0143613
762.673	0.0142995
762.751	0.0140585
762.829	0.0140025
762.907	0.0139885
762.985	0.0139368
763.063	0.0138802
763.141	0.0138774
763.219	0.0139116
763.298	0.0138306
763.376	0.0140317
763.454	0.0140706
763.532	0.0141484
763.610	0.0141282
763.688	0.0141712
763.766	0.0142326
763.844	0.0143679
763.923	0.0144084
764.001	0.0146733
764.079	0.0146539
764.157	0.0146338
764.235	0.0146410
764.313	0.0146960
764.391	0.0147800
764.469	0.0147313
764.548	0.0147937
764.626	0.0148179
764.704	0.0148384
764.782	0.0148592
764.860	0.0149007
764.938	0.0149051
765.016	0.0149559
765.094	0.0149335
765.173	0.0148856
765.251	0.0148691
765.329	0.0149251
765.407	0.0150164
765.485	0.0150311
765.563	0.0148763
765.641	0.0149610
765.719	0.0149733
765.798	0.0150447
765.876	0.0151316
765.954	0.0150479
766.032	0.0149158
766.110	0.0148834
766.188	0.0150450
766.266	0.0148097
766.344	0.0146696
766.423	0.0148068
766.501	0.0146690
766.579	0.0143172
766.657	0.0145557
766.735	0.0144568
766.813	0.0144133
766.891	0.0143179
766.969	0.0144261
767.048	0.0143723
767.126	0.0141959
767.204	0.0141709
767.282	0.0143262
767.360	0.0142580
767.438	0.0143680
767.516	0.0142750
767.594	0.0142236
767.673	0.0142657
767.751	0.0144482
767.829	0.0143597
767.907	0.0145139
767.985	0.0144126
768.063	0.0145011
768.141	0.0146002
768.219	0.0145352
768.298	0.0145731
768.376	0.0145756
768.454	0.0145548
768.532	0.0144283
768.610	0.0144931
768.688	0.0143583
768.766	0.0143810
768.844	0.0142505
768.923	0.0142197
769.001	0.0142208
769.079	0.0142956
769.157	0.0141871
769.235	0.0142709
769.313	0.0140909
769.391	0.0141052
769.469	0.0142104
769.548	0.0141869
769.626	0.0142929
769.704	0.0143644
769.782	0.0143929
769.860	0.0144225
769.938	0.0144582
770.016	0.0143373
770.094	0.0144917
770.173	0.0145529
770.251	0.0147247
770.329	0.0146735
770.407	0.0145439
770.485	0.0146230
770.563	0.0145859
770.641	0.0146384
770.719	0.0144862
770.798	0.0146182
770.876	0.0146111
770.954	0.0145844
771.032	0.0146432
771.110	0.0146651
771.188	0.0145135
771.266	0.0144701
771.344	0.0144743
771.423	0.0145193
771.501	0.0144603
771.579	0.0144664
771.657	0.0145435
771.735	0.0145773
771.813	0.0144016
771.891	0.0145126
771.969	0.0145154
772.048	0.0146041
772.126	0.0147409
772.204	0.0147688
772.282	0.0147389
772.360	0.0146263
772.438	0.0146838
772.516	0.0148233
772.594	0.0148450
772.673	0.0147633
772.751	0.0149088
772.829	0.0149969
772.907	0.0150139
772.985	0.0149970
773.063	0.0151188
773.141	0.0151182
773.219	0.0149890
773.298	0.0148832
773.376	0.0148813
773.454	0.0147386
773.532	0.0148337
773.610	0.0148218
773.688	0.0145631
773.766	0.0146183
773.844	0.0145865
773.923	0.0145512
774.001	0.0145192
774.079	0.0144222
774.157	0.0143839
774.235	0.0142115
774.313	0.0143261
774.391	0.0143038
774.469	0.0142456
774.548	0.0142388
774.626	0.0141302
774.704	0.0140559
774.782	0.0141737
774.860	0.0140976
774.938	0.0142730
775.016	0.0141721
775.094	0.0142123
775.173	0.0141501
775.251	0.0142155
775.329	0.0142313
775.407	0.0141665
775.485	0.0141774
775.563	0.0140839
775.641	0.0142734
775.719	0.0143636
775.798	0.0141994
775.876	0.0141359
775.954	0.0142336
776.032	0.0144668
776.110	0.0144444
776.188	0.0143655
776.266	0.0143613
776.344	0.0144350
776.423	0.0147324
776.501	0.0148053
776.579	0.0147767
776.657	0.0147943
776.735	0.0148198
776.813	0.0148940
776.891	0.0148631
776.969	0.0148872
777.048	0.0148805
777.126	0.0148939
777.204	0.0149377
777.282	0.0148386
777.360	0.0146935
777.438	0.0147504
777.516	0.0147393
777.594	0.0147263
777.673	0.0146342
777.751	0.0145676
777.829	0.0144193
777.907	0.0144257
777.985	0.0145016
778.063	0.0144515
778.141	0.0140752
778.219	0.0142871
778.298	0.0143883
778.376	0.0143610
778.454	0.0142462
778.532	0.0143507
778.610	0.0143320
778.688	0.0143727
778.766	0.0143542
778.844	0.0143398
778.923	0.0142462
779.001	0.0145246
779.079	0.0145060
779.157	0.0146856
779.235	0.0147232
779.313	0.0146394
779.391	0.0147259
779.469	0.0147260
779.548	0.0147289
779.626	0.0149040
779.704	0.0149962
779.782	0.0149082
779.860	0.0149342
779.938	0.0149685
780.016	0.0150224
780.094	0.0148937
780.173	0.0149215
780.251	0.0149002
780.329	0.0147881
780.407	0.0147381
780.485	0.0147192
780.563	0.0148831
780.641	0.0148032
780.719	0.0147101
780.798	0.0147385
780.876	0.0146758
780.954	0.0146323
781.032	0.0145120
781.110	0.0145498
781.188	0.0145087
781.266	0.0146024
781.344	0.0145425
781.423	0.0143748
781.501	0.0143552
781.579	0.0143662
781.657	0.0143223
781.735	0.0142870
781.813	0.0143546
781.891	0.0144403
781.969	0.0143852
782.048	0.0144057
782.126	0.0143546
782.204	0.0143588
782.282	0.0141372
782.360	0.0143289
782.438	0.0143771
782.516	0.0142565
782.594	0.0141365
782.673	0.0142260
782.751	0.0143088
782.829	0.0141863
782.907	0.0142059
782.985	0.0142544
783.063	0.0142319
783.141	0.0142806
783.219	0.0143510
783.298	0.0144769
783.376	0.0145637
783.454	0.0144836
783.532	0.0143494
783.610	0.0144845
783.688	0.0145834
783.766	0.0146153
783.844	0.0146674
783.923	0.0146067
784.001	0.0144978
784.079	0.0145671
784.157	0.0146033
784.235	0.0146127
784.313	0.0145901
784.391	0.0145404
784.469	0.0145724
784.548	0.0146211
784.626	0.0146549
784.704	0.0146237
784.782	0.0145435
784.860	0.0145659
784.938	0.0146698
785.016	0.0146426
785.094	0.0146703
785.173	0.0147849
785.251	0.0147684
785.329	0.0148202
785.407	0.0148553
785.485	0.0148315
785.563	0.0149219
785.641	0.0148659
785.719	0.0149014
785.798	0.0147878
785.876	0.0149487
785.954	0.0148203
786.032	0.0148276
786.110	0.0148405
786.188	0.0147919
786.266	0.0148035
786.344	0.0148009
786.423	0.0146298
786.501	0.0147453
786.579	0.0148056
786.657	0.0147951
786.735	0.0148170
786.813	0.0148048
786.891	0.0146073
786.969	0.0146045
787.048	0.0146683
787.126	0.0145236
787.204	0.0144494
787.282	0.0143489
787.360	0.0144141
787.438	0.0145203
787.516	0.0143127
787.594	0.0142275
787.673	0.0142482
787.751	0.0143076
787.829	0.0143429
787.907	0.0142168
787.985	0.0142349
788.063	0.0141863
788.141	0.0140981
788.219	0.0142403
788.298	0.0142538
788.376	0.0142343
788.454	0.0142077
788.532	0.0143002
788.610	0.0144888
788.688	0.0143235
788.766	0.0144352
788.844	0.0145863
788.923	0.0144667
789.001	0.0144907
789.079	0.0145422
789.157	0.0147281
789.235	0.0147798
789.313	0.0149155
789.391	0.0149168
789.469	0.0150426
789.548	0.0150631
789.626	0.0151943
789.704	0.0154137
789.782	0.0155354
789.860	0.0154539
789.938	0.0153609
790.016	0.0153833
790.094	0.0155974
790.173	0.0155234
790.251	0.0154858
790.329	0.0153328
790.407	0.0153016
790.485	0.0152725
790.563	0.0151046
790.641	0.0149951
790.719	0.0147294
790.798	0.0146497
790.876	0.0144456
790.954	0.0143481
791.032	0.0141342
791.110	0.0138153
791.188	0.0137881
791.266	0.0136342
791.344	0.0134920
791.423	0.0133746
791.501	0.0131570
791.579	0.0131650
791.657	0.0132204
791.735	0.0132524
791.813	0.0132674
791.891	0.0131525
791.969	0.0131717
792.048	0.0133292
792.126	0.0133623
792.204	0.0135184
792.282	0.0136098
792.360	0.0138007
792.438	0.0140447
792.516	0.0139862
792.594	0.0144486
792.673	0.0146601
792.751	0.0148203
792.829	0.0150394
792.907	0.0151648
792.985	0.0153136
793.063	0.0155207
793.141	0.0155183
793.219	0.0157011
793.298	0.0158205
793.376	0.0160394
793.454	0.0160823
793.532	0.0160897
793.610	0.0161559
793.688	0.0160764
793.766	0.0162280
793.844	0.0161073
793.923	0.0159753
794.001	0.0159195
794.079	0.0158487
794.157	0.0157037
794.235	0.0154033
794.313	0.0153094
794.391	0.0150765
794.469	0.0148516
794.548	0.0145866
794.626	0.0144409
794.704	0.0144016
794.782	0.0142461
794.860	0.0139919
794.938	0.0139220
795.016	0.0137722
795.094	0.0135049
795.173	0.0135260
795.251	0.0132619
795.329	0.0133241
795.407	0.0133473
795.485	0.0132581
795.563	0.0132378
795.641	0.0134152
795.719	0.0133195
795.798	0.0134443
795.876	0.0135334
795.954	0.0134800
796.032	0.0137234
796.110	0.0137228
796.188	0.0139613
796.266	0.0140137
796.344	0.0141681
796.423	0.0142458
796.501	0.0143824
796.579	0.0142397
796.657	0.0143890
796.735	0.0145611
796.813	0.0145861
796.891	0.0146629
796.969	0.0147713
797.048	0.0147326
797.126	0.0149319
797.204	0.0149101
797.282	0.0147992
797.360	0.0150422
797.438	0.0152000
797.516	0.0152880
797.594	0.0153567
797.673	0.0153500
797.751	0.0155608
797.829	0.0156183
797.907	0.0157001
797.985	0.0156577
798.063	0.0156097
798.141	0.0155768
798.219	0.0154678
798.298	0.0155957
798.376	0.0154732
798.454	0.0153194
798.532	0.0152155
798.610	0.0150462
798.688	0.0149270
798.766	0.0147762
798.844	0.0146534
798.923	0.0144843
799.001	0.0143660
799.079	0.0141001
799.157	0.0139715
799.235	0.0138821
799.313	0.0137534
799.391	0.0136192
799.469	0.0134914
799.548	0.0134841
799.626	0.0132533
799.704	0.0134669
799.782	0.0134692
799.860	0.0134919
799.938	0.0133994
800.016	0.0132999
800.094	0.0136992
800.173	0.0135977
800.251	0.0137965
800.329	0.0138439
800.407	0.0138144
800.485	0.0142420
800.563	0.0142054
800.641	0.0143740
800.719	0.0144476
800.798	0.0143835
800.876	0.0145053
800.954	0.0146072
801.032	0.0147358
801.110	0.0147592
801.188	0.0148381
801.266	0.0149062
801.344	0.0149278
801.423	0.0149254
801.501	0.0151658
801.579	0.0151561
801.657	0.0152322
801.735	0.0154203
801.813	0.0154074
801.891	0.0155657
801.969	0.0156087
802.048	0.0156712
802.126	0.0157514
802.204	0.0157441
802.282	0.0158064
802.360	0.0159733
802.438	0.0160469
802.516	0.0157742
802.594	0.0157710
802.673	0.0157126
802.751	0.0156161
802.829	0.0156805
802.907	0.0153941
802.985	0.0153471
803.063	0.0151511
803.141	0.0147965
803.219	0.0148161
803.298	0.0146165
803.376	0.0144949
803.454	0.0142319
803.532	0.0140758
803.610	0.0139046
803.688	0.0137861
803.766	0.0135576
803.844	0.0135190
803.923	0.0133176
804.001	0.0131853
804.079	0.0130972
804.157	0.0130548
804.235	0.0130231
804.313	0.0130025
804.391	0.0129388
804.469	0.0130309
804.548	0.0130981
804.626	0.0132823
804.704	0.0132944
804.782	0.0133559
804.860	0.0133698
804.938	0.0134944
805.016	0.0136398
805.094	0.0138508
805.173	0.0139429
805.251	0.0140422
805.329	0.0141541
805.407	0.0142965
805.485	0.0142698
805.563	0.0145347
805.641	0.0146664
805.719	0.0149062
805.798	0.0149331
805.876	0.0151476
805.954	0.0152541
806.032	0.0152671
806.110	0.0153184
806.188	0.0156079
806.266	0.0156431
806.344	0.0157291
806.423	0.0157661
806.501	0.0157973
806.579	0.0159979
806.657	0.0160392
806.735	0.0161234
806.813	0.0158800
806.891	0.0159119
806.969	0.0158742
807.048	0.0159095
807.126	0.0158149
807.204	0.0157923
807.282	0.0157161
807.360	0.0155740
807.438	0.0153744
807.516	0.0152027
807.594	0.0149752
807.673	0.0149434
807.751	0.0148242
807.829	0.0145393
807.907	0.0145462
807.985	0.0143833
808.063	0.0141263
808.141	0.0142219
808.219	0.0141153
808.298	0.0139303
808.376	0.0139677
808.454	0.0137875
808.532	0.0138269
808.610	0.0138232
808.688	0.0136755
808.766	0.0136580
808.844	0.0135702
808.923	0.0137997
809.001	0.0136646
809.079	0.0135519
809.157	0.0134573
809.235	0.0136458
809.313	0.0136885
809.391	0.0136037
809.469	0.0137141
809.548	0.0136100
809.626	0.0138858
809.704	0.0138844
809.782	0.0139363
809.860	0.0140047
809.938	0.0139613
810.016	0.0139585
810.094	0.0141519
810.173	0.0142374
810.251	0.0143974
810.329	0.0144949
810.407	0.0146106
810.485	0.0147162
810.563	0.0147219
810.641	0.0149165
810.719	0.0149334
810.798	0.0150311
810.876	0.0150134
810.954	0.0152114
811.032	0.0151489
811.110	0.0150372
811.188	0.0152309
811.266	0.0152635
811.344	0.0152075
811.423	0.0152677
811.501	0.0150768
811.579	0.0150208
811.657	0.0150710
811.735	0.0149976
811.813	0.0148764
811.891	0.0148786
811.969	0.0148874
812.048	0.0148940
812.126	0.0148804
812.204	0.0147309
812.282	0.0147077
812.360	0.0148251
812.438	0.0146693
812.516	0.0147786
812.594	0.0148226
812.673	0.0145853
812.751	0.0147534
812.829	0.0146481
812.907	0.0147051
812.985	0.0147071
813.063	0.0146032
813.141	0.0147305
813.219	0.0146788
813.298	0.0146825
813.376	0.0147114
813.454	0.0147518
813.532	0.0146853
813.610	0.0145789
813.688	0.0147147
813.766	0.0147265
813.844	0.0146643
813.923	0.0146342
814.001	0.0146710
814.079	0.0146074
814.157	0.0145310
814.235	0.0146162
814.313	0.0145227
814.391	0.0145705
814.469	0.0144868
814.548	0.0146391
814.626	0.0143520
814.704	0.0145213
814.782	0.0143790
814.860	0.0142726
814.938	0.0143420
815.016	0.0141309
815.094	0.0141991
815.173	0.0141019
815.251	0.0142294
815.329	0.0142059
815.407	0.0139542
815.485	0.0140503
815.563	0.0138654
815.641	0.0140031
815.719	0.0138056
815.798	0.0138571
815.876	0.0138364
815.954	0.0138564
816.032	0.0138342
816.110	0.0139232
816.188	0.0139471
816.266	0.0139974
816.344	0.0142079
816.423	0.0142562
816.501	0.0142204
816.579	0.0143635
816.657	0.0144475
816.735	0.0146999
816.813	0.0146624
816.891	0.0147312
816.969	0.0148064
817.048	0.0149535
817.126	0.0149274
817.204	0.0148994
817.282	0.0150567
817.360	0.0152160
817.438	0.0151753
817.516	0.0151796
817.594	0.0152190
817.673	0.0152686
817.751	0.0152397
817.829	0.0151718
817.907	0.0151117
817.985	0.0152161
818.063	0.0153082
818.141	0.0153165
818.219	0.0151062
818.298	0.0152206
818.376	0.0151163
818.454	0.0150265
818.532	0.0149387
818.610	0.0149249
818.688	0.0147808
818.766	0.0148969
818.844	0.0147172
818.923	0.0147984
819.001	0.0148205
819.079	0.0146965
819.157	0.0145516
819.235	0.0147730
819.313	0.0146131
819.391	0.0146180
819.469	0.0147132
819.548	0.0145578
819.626	0.0145586
819.704	0.0145747
819.782	0.0144782
819.860	0.0144978
819.938	0.0145345
820.016	0.0144645
820.094	0.0141944
820.173	0.0139521
820.251	0.0138750
820.329	0.0140221
820.407	0.0140322
820.485	0.0138431
820.563	0.0138486
820.641	0.0138196
820.719	0.0138202
820.798	0.0137841
820.876	0.0135416
820.954	0.0137260
821.032	0.0138618
821.110	0.0137267
821.188	0.0136535
821.266	0.0137525
821.344	0.0137472
821.423	0.0140098
821.501	0.0140332
821.579	0.0140440
821.657	0.0140828
821.735	0.0142386
821.813	0.0144359
821.891	0.0144394
821.969	0.0145710
822.048	0.0145956
822.126	0.0148567
822.204	0.0148227
822.282	0.0150317
822.360	0.0150768
822.438	0.0151245
822.516	0.0151873
822.594	0.0150143
822.673	0.0151906
822.751	0.0152702
822.829	0.0152440
822.907	0.0152585
822.985	0.0150603
823.063	0.0152657
823.141	0.0151416
823.219	0.0150358
823.298	0.0151439
823.376	0.0151666
823.454	0.0149820
823.532	0.0148977
823.610	0.0149638
823.688	0.0149573
823.766	0.0150819
823.844	0.0150301
823.923	0.0149093
824.001	0.0147765
824.079	0.0147238
824.157	0.0148314
824.235	0.0147787
824.313	0.0146553
824.391	0.0147231
824.469	0.0145309
824.548	0.0145387
824.626	0.0145460
824.704	0.0144787
824.782	0.0144256
824.860	0.0144752
824.938	0.0144595
825.016	0.0144124
825.094	0.0143771
825.173	0.0141982
825.251	0.0144180
825.329	0.0143036
825.407	0.0142562
825.485	0.0141966
825.563	0.0142303
825.641	0.0142953
825.719	0.0143438
825.798	0.0143633
825.876	0.0142449
825.954	0.0143274
826.032	0.0144267
826.110	0.0143610
826.188	0.0143243
826.266	0.0143401
826.344	0.0144384
826.423	0.0144144
826.501	0.0144717
826.579	0.0143300
826.657	0.0144794
826.735	0.0144299
826.813	0.0143916
826.891	0.0142688
826.969	0.0143568
827.048	0.0142130
827.126	0.0141428
827.204	0.0141673
827.282	0.0141387
827.360	0.0142471
827.438	0.0143533
827.516	0.0144537
827.594	0.0143851
827.673	0.0144247
827.751	0.0144360
827.829	0.0144549
827.907	0.0145820
827.985	0.0145564
828.063	0.0147131
828.141	0.0145629
828.219	0.0147639
828.298	0.0148466
828.376	0.0147984
828.454	0.0149438
828.532	0.0149897
828.610	0.0149245
828.688	0.0150611
828.766	0.0148949
828.844	0.0149668
828.923	0.0150293
829.001	0.0150515
829.079	0.0150522
829.157	0.0150541
829.235	0.0149144
829.313	0.0149015
829.391	0.0148769
829.469	0.0146560
829.548	0.0148127
829.626	0.0147865
829.704	0.0147041
829.782	0.0146432
829.860	0.0145341
829.938	0.0143290
830.016	0.0144602
830.094	0.0143621
830.173	0.0143584
830.251	0.0142194
830.329	0.0144121
830.407	0.0144750
830.485	0.0142612
830.563	0.0143956
830.641	0.0143270
830.719	0.0144028
830.798	0.0144602
830.876	0.0143280
830.954	0.0145382
831.032	0.0145606
831.110	0.0146635
831.188	0.0147347
831.266	0.0146165
831.344	0.0146304
831.423	0.0148016
831.501	0.0147369
831.579	0.0147667
831.657	0.0146614
831.735	0.0147503
831.813	0.0147252
831.891	0.0147473
831.969	0.0144821
832.048	0.0145584
832.126	0.0146812
832.204	0.0145599
832.282	0.0145004
832.360	0.0144267
832.438	0.0143973
832.516	0.0142526
832.594	0.0143388
832.673	0.0142974
832.751	0.0142559
832.829	0.0142243
832.907	0.0143183
832.985	0.0143815
833.063	0.0143875
833.141	0.0144240
833.219	0.0143137
833.298	0.0144855
833.376	0.0145653
833.454	0.0144218
833.532	0.0143951
833.610	0.0145663
833.688	0.0146167
833.766	0.0145315
833.844	0.0146929
833.923	0.0144987
834.001	0.0145353
834.079	0.0146307
834.157	0.0145525
834.235	0.0145403
834.313	0.0144196
834.391	0.0145842
834.469	0.0146960
834.548	0.0145654
834.626	0.0144357
834.704	0.0144292
834.782	0.0144677
834.860	0.0145078
834.938	0.0145327
835.016	0.0145586
835.094	0.0145565
835.173	0.0145337
835.251	0.0145686
835.329	0.0144854
835.407	0.0145235
835.485	0.0145177
835.563	0.0146107
835.641	0.0145512
835.719	0.0146602
835.798	0.0145088
835.876	0.0146783
835.954	0.0145894
836.032	0.0147425
836.110	0.0147369
836.188	0.0148045
836.266	0.0147562
836.344	0.0147766
836.423	0.0147549
836.501	0.0147856
836.579	0.0148183
836.657	0.0147000
836.735	0.0147305
836.813	0.0147704
836.891	0.0147134
836.969	0.0146844
837.048	0.0145198
837.126	0.0143900
837.204	0.0144933
837.282	0.0144736
837.360	0.0146357
837.438	0.0145373
837.516	0.0143784
837.594	0.0144746
837.673	0.0144508
837.751	0.0143819
837.829	0.0142841
837.907	0.0143871
837.985	0.0144241
838.063	0.0143816
838.141	0.0144250
838.219	0.0144619
838.298	0.0144794
838.376	0.0144660
838.454	0.0145296
838.532	0.0146780
838.610	0.0146470
838.688	0.0148361
838.766	0.0148703
838.844	0.0148448
838.923	0.0148309
839.001	0.0145763
839.079	0.0147585
839.157	0.0148445
839.235	0.0148634
839.313	0.0145679
839.391	0.0146739
839.469	0.0147437
839.548	0.0145615
839.626	0.0146072
839.704	0.0147220
839.782	0.0145482
839.860	0.0145380
839.938	0.0144569
840.016	0.0144794
840.094	0.0143625
840.173	0.0143471
840.251	0.0143327
840.329	0.0142100
840.407	0.0142990
840.485	0.0142152
840.563	0.0142814
840.641	0.0141335
840.719	0.0141890
840.798	0.0143490
840.876	0.0143195
840.954	0.0141690
841.032	0.0142225
841.110	0.0142678
841.188	0.0142311
841.266	0.0142425
841.344	0.0142963
841.423	0.0143522
841.501	0.0143666
841.579	0.0144605
841.657	0.0144886
841.735	0.0144857
841.813	0.0144484
841.891	0.0146036
841.969	0.0146716
842.048	0.0146861
842.126	0.0147121
842.204	0.0147539
842.282	0.0147021
842.360	0.0147153
842.438	0.0146848
842.516	0.0148326
842.594	0.0149845
842.673	0.0149088
842.751	0.0146661
842.829	0.0148398
842.907	0.0147585
842.985	0.0149613
843.063	0.0149244
843.141	0.0148629
843.219	0.0149316
843.298	0.0149684
843.376	0.0150101
843.454	0.0148833
843.532	0.0149287
843.610	0.0149284
843.688	0.0148209
843.766	0.0149500
843.844	0.0149220
843.923	0.0149182
844.001	0.0148199
844.079	0.0147799
844.157	0.0148513
844.235	0.0147176
844.313	0.0146108
844.391	0.0145620
844.469	0.0145210
844.548	0.0144769
844.626	0.0143993
844.704	0.0142423
844.782	0.0143280
844.860	0.0142877
844.938	0.0143225
845.016	0.0141805
845.094	0.0140408
845.173	0.0140548
845.251	0.0140298
845.329	0.0140733
845.407	0.0139541
845.485	0.0140233
845.563	0.0139388
845.641	0.0139601
845.719	0.0140795
845.798	0.0141153
845.876	0.0140195
845.954	0.0141273
846.032	0.0140987
846.110	0.0141660
846.188	0.0142617
846.266	0.0142734
846.344	0.0143646
846.423	0.0143997
846.501	0.0144687
846.579	0.0146120
846.657	0.0146227
846.735	0.0146278
846.813	0.0146275
846.891	0.0146976
846.969	0.0148104
847.048	0.0146875
847.126	0.0149364
847.204	0.0148512
847.282	0.0147998
847.360	0.0149823
847.438	0.0149529
847.516	0.0148009
847.594	0.0150220
847.673	0.0149107
847.751	0.0149771
847.829	0.0150118
847.907	0.0148563
847.985	0.0148829
848.063	0.0149419
848.141	0.0150001
848.219	0.0148621
848.298	0.0147085
848.376	0.0148330
848.454	0.0149186
848.532	0.0148647
848.610	0.0148631
848.688	0.0146707
848.766	0.0147710
848.844	0.0146645
848.923	0.0146481
849.001	0.0144622
849.079	0.0145403
849.157	0.0145605
849.235	0.0146259
849.313	0.0145774
849.391	0.0145310
849.469	0.0145853
849.548	0.0144241
849.626	0.0144625
849.704	0.0145318
849.782	0.0145753
849.860	0.0144323
849.938	0.0145908
850.016	0.0145551
850.094	0.0144433
850.173	0.0145461
850.251	0.0144311
850.329	0.0144202
850.407	0.0143726
850.485	0.0143530
850.563	0.0142528
850.641	0.0145541
850.719	0.0144827
850.798	0.0142840
850.876	0.0142545
850.954	0.0142734
851.032	0.0142185
851.110	0.0143742
851.188	0.0142842
851.266	0.0143156
851.344	0.0144536
851.423	0.0143980
851.501	0.0144584
851.579	0.0144203
851.657	0.0144157
851.735	0.0143418
851.813	0.0144568
851.891	0.0144582
851.969	0.0145216
852.048	0.0144920
852.126	0.0146111
852.204	0.0145742
852.282	0.0145969
852.360	0.0145052
852.438	0.0146117
852.516	0.0146991
852.594	0.0146602
852.673	0.0146983
852.751	0.0148094
852.829	0.0147333
852.907	0.0146362
852.985	0.0147432
853.063	0.0147354
853.141	0.0145730
853.219	0.0144853
853.298	0.0146497
853.376	0.0147543
853.454	0.0145891
853.532	0.0144884
853.610	0.0146487
853.688	0.0146306
853.766	0.0146825
853.844	0.0147484
853.923	0.0147617
854.001	0.0147060
854.079	0.0145983
854.157	0.0146755
854.235	0.0147946
854.313	0.0147394
854.391	0.0148240
854.469	0.0148040
854.548	0.0149233
854.626	0.0148240
854.704	0.0148192
854.782	0.0147433
854.860	0.0147868
854.938	0.0149392
855.016	0.0148461
855.094	0.0147593
855.173	0.0147711
855.251	0.0146857
855.329	0.0146901
855.407	0.0146553
855.485	0.0146894
855.563	0.0145881
855.641	0.0146667
855.719	0.0146391
855.798	0.0145541
855.876	0.0144975
855.954	0.0144118
856.032	0.0144350
856.110	0.0144382
856.188	0.0142610
856.266	0.0143779
856.344	0.0141727
856.423	0.0142787
856.501	0.0144397
856.579	0.0143782
856.657	0.0144534
856.735	0.0143454
856.813	0.0141908
856.891	0.0143186
856.969	0.0144823
857.048	0.0143378
857.126	0.0143053
857.204	0.0143237
857.282	0.0142827
857.360	0.0143682
857.438	0.0142082
857.516	0.0142287
857.594	0.0142974
857.673	0.0143000
857.751	0.0142947
857.829	0.0143812
857.907	0.0143176
857.985	0.0143684
858.063	0.0143774
858.141	0.0143861
858.219	0.0144691
858.298	0.0144577
858.376	0.0144651
858.454	0.0145217
858.532	0.0143793
858.610	0.0146135
858.688	0.0144637
858.766	0.0146313
858.844	0.0146066
858.923	0.0147094
859.001	0.0144151
859.079	0.0146185
859.157	0.0147321
859.235	0.0147311
859.313	0.0146275
859.391	0.0146040
859.469	0.0147253
859.548	0.0149345
859.626	0.0149112
859.704	0.0148971
859.782	0.0148310
859.860	0.0148021
859.938	0.0148075
860.016	0.0148124
860.094	0.0148185
860.173	0.0148074
860.251	0.0149228
860.329	0.0149634
860.407	0.0148375
860.485	0.0148904
860.563	0.0147249
860.641	0.0147158
860.719	0.0146281
860.798	0.0146983
860.876	0.0148201
860.954	0.0148184
861.032	0.0145698
861.110	0.0145811
861.188	0.0146504
861.266	0.0144595
861.344	0.0144723
861.423	0.0144591
861.501	0.0145554
861.579	0.0146355
861.657	0.0145134
861.735	0.0145124
861.813	0.0144157
861.891	0.0143430
861.969	0.0144009
862.048	0.0144022
862.126	0.0142313
862.204	0.0145157
862.282	0.0143345
862.360	0.0143427
862.438	0.0143600
862.516	0.0143532
862.594	0.0143020
862.673	0.0143336
862.751	0.0143427
862.829	0.0144836
862.907	0.0144635
862.985	0.0144753
863.063	0.0144411
863.141	0.0145518
863.219	0.0146323
863.298	0.0145639
863.376	0.0144800
863.454	0.0146262
863.532	0.0146400
863.610	0.0146808
863.688	0.0145057
863.766	0.0146393
863.844	0.0145418
863.923	0.0146051
864.001	0.0146465
864.079	0.0143508
864.157	0.0145992
864.235	0.0144712
864.313	0.0146134
864.391	0.0146867
864.469	0.0145577
864.548	0.0144447
864.626	0.0143960
864.704	0.0145322
864.782	0.0144859
864.860	0.0145745
864.938	0.0147022
865.016	0.0145957
865.094	0.0146364
865.173	0.0144647
865.251	0.0147075
865.329	0.0146157
865.407	0.0146307
865.485	0.0147158
865.563	0.0147433
865.641	0.0147873
865.719	0.0146728
865.798	0.0146877
865.876	0.0146651
865.954	0.0147866
866.032	0.0147749
866.110	0.0146822
866.188	0.0148348
866.266	0.0148038
866.344	0.0146223
866.423	0.0146902
866.501	0.0147939
866.579	0.0146860
866.657	0.0145690
866.735	0.0146100
866.813	0.0144348
866.891	0.0145139
866.969	0.0144078
867.048	0.0145694
867.126	0.0145615
867.204	0.0145742
867.282	0.0144248
867.360	0.0143954
867.438	0.0144028
867.516	0.0143667
867.594	0.0145013
867.673	0.0143798
867.751	0.0144183
867.829	0.0144547
867.907	0.0143761
867.985	0.0144620
868.063	0.0144363
868.141	0.0144764
868.219	0.0143756
868.298	0.0146133
868.376	0.0146587
868.454	0.0145092
868.532	0.0146363
868.610	0.0144855
868.688	0.0146098
868.766	0.0143972
868.844	0.0143147
868.923	0.0144627
869.001	0.0146173
869.079	0.0146199
869.157	0.0144872
869.235	0.0145941
869.313	0.0145764
869.391	0.0144053
869.469	0.0144995
869.548	0.0143481
869.626	0.0145368
869.704	0.0144155
869.782	0.0144785
869.860	0.0144448
869.938	0.0144997
870.016	0.0143934
870.094	0.0144470
870.173	0.0145300
870.251	0.0144336
870.329	0.0143245
870.407	0.0146129
870.485	0.0145956
870.563	0.0143419
870.641	0.0145491
870.719	0.0145325
870.798	0.0144759
870.876	0.0145770
870.954	0.0145028
871.032	0.0145144
871.110	0.0144776
871.188	0.0145688
871.266	0.0146391
871.344	0.0146701
871.423	0.0146051
871.501	0.0146753
871.579	0.0146494
871.657	0.0145737
871.735	0.0144740
871.813	0.0146570
871.891	0.0147279
871.969	0.0147133
872.048	0.0146944
872.126	0.0147326
872.204	0.0147984
872.282	0.0147299
872.360	0.0147482
872.438	0.0147021
872.516	0.0146674
872.594	0.0147393
872.673	0.0148097
872.751	0.0146997
872.829	0.0148139
872.907	0.0148232
872.985	0.0146240
873.063	0.0146720
873.141	0.0147627
873.219	0.0147861
873.298	0.0146484
873.376	0.0145242
873.454	0.0145901
873.532	0.0146287
873.610	0.0145521
873.688	0.0144734
873.766	0.0144501
873.844	0.0144875
873.923	0.0145203
874.001	0.0144989
874.079	0.0144327
874.157	0.0143581
874.235	0.0142381
874.313	0.0143925
874.391	0.0144524
874.469	0.0144097
874.548	0.0144290
874.626	0.0143406
874.704	0.0144114
874.782	0.0143603
874.860	0.0143509
874.938	0.0143491
875.016	0.0144591
875.094	0.0142845
875.173	0.0144174
875.251	0.0144843
875.329	0.0144822
875.407	0.0143359
875.485	0.0144394
875.563	0.0145583
875.641	0.0146613
875.719	0.0145619
875.798	0.0147452
875.876	0.0147697
875.954	0.0146759
876.032	0.0146858
876.110	0.0147482
876.188	0.0148078
876.266	0.0147749
876.344	0.0146690
876.423	0.0148046
876.501	0.0147758
876.579	0.0147247
876.657	0.0145175
876.735	0.0149021
876.813	0.0148103
876.891	0.0147434
876.969	0.0148917
877.048	0.0147428
877.126	0.0146304
877.204	0.0147452
877.282	0.0147433
877.360	0.0148072
877.438	0.0147180
877.516	0.0146680
877.594	0.0147780
877.673	0.0147282
877.751	0.0147447
877.829	0.0148922
877.907	0.0148843
877.985	0.0148872
878.063	0.0147213
878.141	0.0148626
878.219	0.0147073
878.298	0.0146276
878.376	0.0144899
878.454	0.0145444
878.532	0.0144251
878.610	0.0143329
878.688	0.0142519
878.766	0.0143752
878.844	0.0141753
878.923	0.0142164
879.001	0.0142436
879.079	0.0144061
879.157	0.0141290
879.235	0.0142194
879.313	0.0143429
879.391	0.0142529
879.469	0.0142457
879.548	0.0141746
879.626	0.0142478
879.704	0.0143333
879.782	0.0142604
879.860	0.0143783
879.938	0.0142289
880.016	0.0142549
880.094	0.0142952
880.173	0.0143869
880.251	0.0143487
880.329	0.0143834
880.407	0.0144688
880.485	0.0144992
880.563	0.0146199
880.641	0.0145844
880.719	0.0145674
880.798	0.0146741
880.876	0.0148541
880.954	0.0147462
881.032	0.0148244
881.110	0.0150542
881.188	0.0149688
881.266	0.0150867
881.344	0.0151781
881.423	0.0151617
881.501	0.0152392
881.579	0.0151453
881.657	0.0151402
881.735	0.0150475
881.813	0.0150573
881.891	0.0149547
881.969	0.0148794
882.048	0.0148370
882.126	0.0149734
882.204	0.0147701
882.282	0.0147183
882.360	0.0148152
882.438	0.0145802
882.516	0.0145795
882.594	0.0144005
882.673	0.0145026
882.751	0.0144487
882.829	0.0143020
882.907	0.0142927
882.985	0.0142976
883.063	0.0140694
883.141	0.0139829
883.219	0.0139389
883.298	0.0140412
883.376	0.0138943
883.454	0.0139533
883.532	0.0140298
883.610	0.0140235
883.688	0.0141695
883.766	0.0141690
883.844	0.0141681
883.923	0.0141949
884.001	0.0143043
884.079	0.0143642
884.157	0.0145753
884.235	0.0146439
884.313	0.0148228
884.391	0.0149133
884.469	0.0148505
884.548	0.0149049
884.626	0.0149490
884.704	0.0150178
884.782	0.0151843
884.860	0.0151427
884.938	0.0150542
885.016	0.0151929
885.094	0.0150468
885.173	0.0150256
885.251	0.0149221
885.329	0.0149358
885.407	0.0150357
885.485	0.0147274
885.563	0.0144345
885.641	0.0145890
885.719	0.0145284
885.798	0.0143404
885.876	0.0142632
885.954	0.0141008
886.032	0.0140411
886.110	0.0140546
886.188	0.0142053
886.266	0.0139841
886.344	0.0139853
886.423	0.0139392
886.501	0.0141644
886.579	0.0141753
886.657	0.0142753
886.735	0.0144753
886.813	0.0142983
886.891	0.0144920
886.969	0.0144345
887.048	0.0144883
887.126	0.0146642
887.204	0.0147636
887.282	0.0144892
887.360	0.0145897
887.438	0.0147114
887.516	0.0147417
887.594	0.0146247
887.673	0.0147300
887.751	0.0146566
887.829	0.0149123
887.907	0.0149071
887.985	0.0148931
888.063	0.0149202
888.141	0.0148547
888.219	0.0148219
888.298	0.0148837
888.376	0.0147365
888.454	0.0147097
888.532	0.0147122
888.610	0.0147242
888.688	0.0147456
888.766	0.0149438
888.844	0.0149007
888.923	0.0149147
889.001	0.0148910
889.079	0.0147301
889.157	0.0149313
889.235	0.0149882
889.313	0.0148875
889.391	0.0147235
889.469	0.0147370
889.548	0.0145966
889.626	0.0144235
889.704	0.0144588
889.782	0.0142491
889.860	0.0142220
889.938	0.0140975
890.016	0.0139742
890.094	0.0139617
890.173	0.0140138
890.251	0.0139275
890.329	0.0139541
890.407	0.0139291
890.485	0.0139969
890.563	0.0141929
890.641	0.0141870
890.719	0.0141142
890.798	0.0141522
890.876	0.0142789
890.954	0.0142793
891.032	0.0142520
891.110	0.0144980
891.188	0.0143639
891.266	0.0145113
891.344	0.0145171
891.423	0.0145763
891.501	0.0146370
891.579	0.0147578
891.657	0.0148357
891.735	0.0148862
891.813	0.0149849
891.891	0.0151323
891.969	0.0152849
892.048	0.0151899
892.126	0.0151758
892.204	0.0152222
892.282	0.0150733
892.360	0.0151581
892.438	0.0152990
892.516	0.0151932
892.594	0.0150548
892.673	0.0150887
892.751	0.0150387
892.829	0.0149503
892.907	0.0150755
892.985	0.0149870
893.063	0.0149644
893.141	0.0150639
893.219	0.0149023
893.298	0.0148200
893.376	0.0146671
893.454	0.0146896
893.532	0.0146557
893.610	0.0144618
893.688	0.0144144
893.766	0.0142616
893.844	0.0141210
893.923	0.0139719
894.001	0.0139856
894.079	0.0138366
894.157	0.0139153
894.235	0.0136991
894.313	0.0137415
894.391	0.0136407
894.469	0.0137526
894.548	0.0138181
894.626	0.0140218
894.704	0.0141554
894.782	0.0141357
894.860	0.0144456
894.938	0.0145127
895.016	0.0145192
895.094	0.0145212
895.173	0.0146439
895.251	0.0146857
895.329	0.0147853
895.407	0.0147640
895.485	0.0148489
895.563	0.0147283
895.641	0.0147421
895.719	0.0147871
895.798	0.0147377
895.876	0.0146862
895.954	0.0148640
896.032	0.0146220
896.110	0.0147066
896.188	0.0146964
896.266	0.0146835
896.344	0.0147323
896.423	0.0147362
896.501	0.0145834
896.579	0.0148489
896.657	0.0147797
896.735	0.0147626
896.813	0.0148995
896.891	0.0148007
896.969	0.0148848
897.048	0.0147524
897.126	0.0149515
897.204	0.0150232
897.282	0.0149258
897.360	0.0149110
897.438	0.0149591
897.516	0.0150607
897.594	0.0150556
897.673	0.0149260
897.751	0.0147787
897.829	0.0149945
897.907	0.0147378
897.985	0.0146191
898.063	0.0145547
898.141	0.0145001
898.219	0.0145559
898.298	0.0142924
898.376	0.0141409
898.454	0.0141050
898.532	0.0141510
898.610	0.0141342
898.688	0.0140545
898.766	0.0140255
898.844	0.0139407
898.923	0.0139294
899.001	0.0138868
899.079	0.0139010
899.157	0.0141426
899.235	0.0141803
899.313	0.0142563
899.391	0.0142216
899.469	0.0143091
899.548	0.0145757
899.626	0.0145760
899.704	0.0142954
899.782	0.0145614
899.860	0.0147547
899.938	0.0147536
900.016	0.0147878
900.094	0.0148058
900.173	0.0148788
900.251	0.0149634
900.329	0.0148565
900.407	0.0147918
900.485	0.0148594
900.563	0.0148422
900.641	0.0149290
900.719	0.0147999
900.798	0.0149392
900.876	0.0148662
900.954	0.0149294
901.032	0.0148898
901.110	0.0149165
901.188	0.0148582
901.266	0.0148781
901.344	0.0146579
901.423	0.0145973
901.501	0.0147533
901.579	0.0146951
901.657	0.0144933
901.735	0.0146407
901.813	0.0144420
901.891	0.0144752
901.969	0.0143194
902.048	0.0142912
902.126	0.0141135
902.204	0.0141155
902.282	0.0142850
902.360	0.0141138
902.438	0.0139425
902.516	0.0141050
902.594	0.0140701
902.673	0.0140439
902.751	0.0141830
902.829	0.0141383
902.907	0.0141711
902.985	0.0142240
903.063	0.0145113
903.141	0.0143027
903.219	0.0144746
903.298	0.0145040
903.376	0.0145970
903.454	0.0147044
903.532	0.0147869
903.610	0.0148427
903.688	0.0147569
903.766	0.0148911
903.844	0.0149164
903.923	0.0147753
904.001	0.0150239
904.079	0.0149319
904.157	0.0149296
904.235	0.0149107
904.313	0.0149459
904.391	0.0150075
904.469	0.0150970
904.548	0.0148313
904.626	0.0149360
904.704	0.0149272
904.782	0.0148009
904.860	0.0148099
904.938	0.0148235
905.016	0.0147398
905.094	0.0146315
905.173	0.0146931
905.251	0.0145376
905.329	0.0145963
905.407	0.0144266
905.485	0.0145947
905.563	0.0145261
905.641	0.0143980
905.719	0.0145200
905.798	0.0143782
905.876	0.0144177
905.954	0.0143941
906.032	0.0143534
906.110	0.0144080
906.188	0.0142557
906.266	0.0142750
906.344	0.0141365
906.423	0.0141771
906.501	0.0141247
906.579	0.0140006
906.657	0.0141046
906.735	0.0141223
906.813	0.0140993
906.891	0.0139362
906.969	0.0140797
907.048	0.0140764
907.126	0.0143298
907.204	0.0143375
907.282	0.0143483
907.360	0.0143842
907.438	0.0145423
907.516	0.0146184
907.594	0.0146905
907.673	0.0147544
907.751	0.0146879
907.829	0.0146992
907.907	0.0148129
907.985	0.0148957
908.063	0.0148789
908.141	0.0149104
908.219	0.0150252
908.298	0.0150443
908.376	0.0149229
908.454	0.0149807
908.532	0.0149791
908.610	0.0150011
908.688	0.0148873
908.766	0.0150087
908.844	0.0149020
908.923	0.0147503
909.001	0.0148750
909.079	0.0147109
909.157	0.0147129
909.235	0.0147527
909.313	0.0147431
909.391	0.0146916
909.469	0.0146697
909.548	0.0145470
909.626	0.0146183
909.704	0.0146236
909.782	0.0146259
909.860	0.0145633
909.938	0.0145551
910.016	0.0144874
910.094	0.0144312
910.173	0.0145034
910.251	0.0144084
910.329	0.0144109
910.407	0.0144698
910.485	0.0144933
910.563	0.0144112
910.641	0.0143130
910.719	0.0142748
910.798	0.0142953
910.876	0.0143542
910.954	0.0144101
911.032	0.0143674
911.110	0.0143362
911.188	0.0143797
911.266	0.0144305
911.344	0.0143948
911.423	0.0145525
911.501	0.0145371
911.579	0.0146123
911.657	0.0146339
911.735	0.0146902
911.813	0.0146642
911.891	0.0146693
911.969	0.0147465
912.048	0.0147142
912.126	0.0147282
912.204	0.0147300
912.282	0.0147272
912.360	0.0146537
912.438	0.0146778
912.516	0.0148466
912.594	0.0147678
912.673	0.0148000
912.751	0.0148338
912.829	0.0148565
912.907	0.0149868
912.985	0.0148920
913.063	0.0148481
913.141	0.0148700
913.219	0.0148401
913.298	0.0148270
913.376	0.0145562
913.454	0.0146666
913.532	0.0146842
913.610	0.0146181
913.688	0.0145122
913.766	0.0146465
913.844	0.0147315
913.923	0.0144704
914.001	0.0143752
914.079	0.0146384
914.157	0.0146568
914.235	0.0146865
914.313	0.0144314
914.391	0.0146060
914.469	0.0147074
914.548	0.0146738
914.626	0.0145765
914.704	0.0145641
914.782	0.0145958
914.860	0.0144878
914.938	0.0145729
915.016	0.0144626
915.094	0.0144640
915.173	0.0144287
915.251	0.0142718
915.329	0.0143904
915.407	0.0143112
915.485	0.0142937
915.563	0.0141628
915.641	0.0142272
915.719	0.0144704
915.798	0.0142667
915.876	0.0143373
915.954	0.0145701
916.032	0.0144250
916.110	0.0144459
916.188	0.0146181
916.266	0.0146100
916.344	0.0145950
916.423	0.0145895
916.501	0.0146655
916.579	0.0146668
916.657	0.0146650
916.735	0.0146726
916.813	0.0146494
916.891	0.0146355
916.969	0.0146294
917.048	0.0147668
917.126	0.0147466
917.204	0.0148580
917.282	0.0148290
917.360	0.0148927
917.438	0.0148102
917.516	0.0146445
917.594	0.0148293
917.673	0.0148522
917.751	0.0148373
917.829	0.0148413
917.907	0.0148614
917.985	0.0147914
918.063	0.0148139
918.141	0.0147874
918.219	0.0146745
918.298	0.0147173
918.376	0.0149793
918.454	0.0147724
918.532	0.0146806
918.610	0.0146352
918.688	0.0146268
918.766	0.0145594
918.844	0.0144563
918.923	0.0145580
919.001	0.0146092
919.079	0.0142908
919.157	0.0143251
919.235	0.0143668
919.313	0.0143793
919.391	0.0143227
919.469	0.0141317
919.548	0.0143065
919.626	0.0142651
919.704	0.0142966
919.782	0.0142020
919.860	0.0142527
919.938	0.0143360
920.016	0.0141369
920.094	0.0141969
920.173	0.0142179
920.251	0.0142163
920.329	0.0144429
920.407	0.0144199
920.485	0.0143896
920.563	0.0145058
920.641	0.0145754
920.719	0.0146077
920.798	0.0145414
920.876	0.0146680
920.954	0.0147451
921.032	0.0146067
921.110	0.0146705
921.188	0.0147233
921.266	0.0148338
921.344	0.0148035
921.423	0.0147848
921.501	0.0147015
921.579	0.0146239
921.657	0.0147056
921.735	0.0148580
921.813	0.0147247
921.891	0.0147791
921.969	0.0146967
922.048	0.0146339
922.126	0.0147112
922.204	0.0146825
922.282	0.0145458
922.360	0.0145670
922.438	0.0144513
922.516	0.0145141
922.594	0.0146371
922.673	0.0144234
922.751	0.0143512
922.829	0.0144571
922.907	0.0141973
922.985	0.0143491
923.063	0.0142550
923.141	0.0142790
923.219	0.0142742
923.298	0.0142465
923.376	0.0142408
923.454	0.0140631
923.532	0.0141942
923.610	0.0142790
923.688	0.0141167
923.766	0.0141331
923.844	0.0141656
923.923	0.0143199
924.001	0.0141460
924.079	0.0142589
924.157	0.0144524
924.235	0.0144523
924.313	0.0144356
924.391	0.0144543
924.469	0.0146470
924.548	0.0145802
924.626	0.0145245
924.704	0.0145011
924.782	0.0147234
924.860	0.0146355
924.938	0.0147637
925.016	0.0148083
925.094	0.0148275
925.173	0.0147932
925.251	0.0148714
925.329	0.0149085
925.407	0.0148536
925.485	0.0146198
925.563	0.0147620
925.641	0.0148055
925.719	0.0148444
925.798	0.0148663
925.876	0.0148025
925.954	0.0146840
926.032	0.0147434
926.110	0.0148387
926.188	0.0147847
926.266	0.0145795
926.344	0.0146703
926.423	0.0146664
926.501	0.0145512
926.579	0.0146427
926.657	0.0146253
926.735	0.0145914
926.813	0.0145693
926.891	0.0146159
926.969	0.0144098
927.048	0.0144127
927.126	0.0145135
927.204	0.0145031
927.282	0.0145572
927.360	0.0145780
927.438	0.0146368
927.516	0.0145178
927.594	0.0144093
927.673	0.0144553
927.751	0.0144439
927.829	0.0143350
927.907	0.0143369
927.985	0.0144614
928.063	0.0143941
928.141	0.0144907
928.219	0.0144608
928.298	0.0144755
928.376	0.0142821
928.454	0.0144074
928.532	0.0145241
928.610	0.0144062
928.688	0.0145002
928.766	0.0144736
928.844	0.0144400
928.923	0.0143362
929.001	0.0142952
929.079	0.0144740
929.157	0.0143320
929.235	0.0143166
929.313	0.0144115
929.391	0.0144897
929.469	0.0144646
929.548	0.0143114
929.626	0.0143111
929.704	0.0144888
929.782	0.0145292
929.860	0.0145692
929.938	0.0146549
930.016	0.0147039
930.094	0.0146459
930.173	0.0146404
930.251	0.0147179
930.329	0.0146355
930.407	0.0146643
930.485	0.0147289
930.563	0.0147428
930.641	0.0147884
930.719	0.0146195
930.798	0.0147144
930.876	0.0147562
930.954	0.0147441
931.032	0.0146562
931.110	0.0148206
931.188	0.0147397
931.266	0.0147717
931.344	0.0148979
931.423	0.0148193
931.501	0.0148705
931.579	0.0148103
931.657	0.0147423
931.735	0.0146898
931.813	0.0148307
931.891	0.0149160
931.969	0.0147733
932.048	0.0146085
932.126	0.0147226
932.204	0.0146734
932.282	0.0143616
932.360	0.0145512
932.438	0.0143803
932.516	0.0144593
932.594	0.0142833
932.673	0.0141718
932.751	0.0141735
932.829	0.0140953
932.907	0.0142936
932.985	0.0141382
933.063	0.0139366
933.141	0.0139624
933.219	0.0141142
933.298	0.0140722
933.376	0.0140630
933.454	0.0141493
933.532	0.0142433
933.610	0.0141885
933.688	0.0142967
933.766	0.0143832
933.844	0.0143170
933.923	0.0145245
934.001	0.0144371
934.079	0.0145173
934.157	0.0146600
934.235	0.0145863
934.313	0.0147375
934.391	0.0148543
934.469	0.0148478
934.548	0.0149103
934.626	0.0149718
934.704	0.0150520
934.782	0.0149358
934.860	0.0148843
934.938	0.0149688
935.016	0.0151165
935.094	0.0150632
935.173	0.0149348
935.251	0.0150421
935.329	0.0151455
935.407	0.0151713
935.485	0.0150533
935.563	0.0151162
935.641	0.0150421
935.719	0.0148768
935.798	0.0148461
935.876	0.0148573
935.954	0.0148005
936.032	0.0148444
936.110	0.0146970
936.188	0.0146510
936.266	0.0145599
936.344	0.0144753
936.423	0.0143753
936.501	0.0145334
936.579	0.0144755
936.657	0.0144125
936.735	0.0143661
936.813	0.0143826
936.891	0.0144367
936.969	0.0143859
937.048	0.0143456
937.126	0.0144013
937.204	0.0142764
937.282	0.0143250
937.360	0.0141877
937.438	0.0142271
937.516	0.0142720
937.594	0.0141618
937.673	0.0142933
937.751	0.0142843
937.829	0.0142432
937.907	0.0141496
937.985	0.0141922
938.063	0.0141932
938.141	0.0142024
938.219	0.0141116
938.298	0.0141889
938.376	0.0143169
938.454	0.0142510
938.532	0.0142859
938.610	0.0143372
938.688	0.0142882
938.766	0.0143088
938.844	0.0144466
938.923	0.0142529
939.001	0.0144421
939.079	0.0145397
939.157	0.0146040
939.235	0.0147012
939.313	0.0146194
939.391	0.0146201
939.469	0.0147984
939.548	0.0149080
939.626	0.0149420
939.704	0.0149306
939.782	0.0150353
939.860	0.0149458
939.938	0.0151330
940.016	0.0151447
940.094	0.0150148
940.173	0.0151794
940.251	0.0151249
940.329	0.0151462
940.407	0.0150750
940.485	0.0149488
940.563	0.0149251
940.641	0.0149713
940.719	0.0148422
940.798	0.0146975
940.876	0.0147791
940.954	0.0147430
941.032	0.0146884
941.110	0.0147456
941.188	0.0146130
941.266	0.0144698
941.344	0.0145253
941.423	0.0145798
941.501	0.0144077
941.579	0.0143546
941.657	0.0143793
941.735	0.0144177
941.813	0.0142944
941.891	0.0142061
941.969	0.0142060
942.048	0.0142755
942.126	0.0142410
942.204	0.0140646
942.282	0.0141632
942.360	0.0142660
942.438	0.0142092
942.516	0.0142625
942.594	0.0141908
942.673	0.0141398
942.751	0.0142433
942.829	0.0142583
942.907	0.0143627
942.985	0.0143697
943.063	0.0145147
943.141	0.0145704
943.219	0.0144925
943.298	0.0144901
943.376	0.0146301
943.454	0.0146381
943.532	0.0146517
943.610	0.0147156
943.688	0.0147044
943.766	0.0147984
943.844	0.0147758
943.923	0.0147752
944.001	0.0146955
944.079	0.0147710
944.157	0.0147282
944.235	0.0147001
944.313	0.0147148
944.391	0.0147770
944.469	0.0147047
944.548	0.0148349
944.626	0.0147171
944.704	0.0146012
944.782	0.0147263
944.860	0.0147492
944.938	0.0146455
945.016	0.0145863
945.094	0.0146674
945.173	0.0146012
945.251	0.0145760
945.329	0.0145311
945.407	0.0144630
945.485	0.0144923
945.563	0.0144459
945.641	0.0144059
945.719	0.0143843
945.798	0.0143005
945.876	0.0143435
945.954	0.0143699
946.032	0.0143556
946.110	0.0142540
946.188	0.0142995
946.266	0.0142595
946.344	0.0143428
946.423	0.0143574
946.501	0.0142141
946.579	0.0142689
946.657	0.0143588
946.735	0.0143118
946.813	0.0142485
946.891	0.0143914
946.969	0.0143260
947.048	0.0143481
947.126	0.0144834
947.204	0.0144220
947.282	0.0143253
947.360	0.0145974
947.438	0.0145925
947.516	0.0145528
947.594	0.0145732
947.673	0.0145042
947.751	0.0146651
947.829	0.0146514
947.907	0.0146651
947.985	0.0146979
948.063	0.0147679
948.141	0.0146687
948.219	0.0147245
948.298	0.0147165
948.376	0.0146473
948.454	0.0144228
948.532	0.0144139
948.610	0.0145570
948.688	0.0143877
948.766	0.0144496
948.844	0.0144083
948.923	0.0144532
949.001	0.0144530
949.079	0.0143866
949.157	0.0144884
949.235	0.0144299
949.313	0.0145595
949.391	0.0144785
949.469	0.0143774
949.548	0.0146266
949.626	0.0145426
949.704	0.0146516
949.782	0.0145718
949.860	0.0145998
949.938	0.0146691
950.016	0.0146632
950.094	0.0145388
950.173	0.0144485
950.251	0.0145593
950.329	0.0145727
950.407	0.0146254
950.485	0.0146446
950.563	0.0143508
950.641	0.0144494
950.719	0.0144508
950.798	0.0145052
950.876	0.0144961
950.954	0.0145141
951.032	0.0145469
951.110	0.0146484
951.188	0.0146160
951.266	0.0145180
951.344	0.0145670
951.423	0.0145613
951.501	0.0145345
951.579	0.0145986
951.657	0.0146393
951.735	0.0146575
951.813	0.0145668
951.891	0.0146541
951.969	0.0144631
952.048	0.0145470
952.126	0.0145255
952.204	0.0145332
952.282	0.0145698
952.360	0.0146078
952.438	0.0146394
952.516	0.0145901
952.594	0.0144488
952.673	0.0145496
952.751	0.0144174
952.829	0.0144263
952.907	0.0143621
952.985	0.0145863
953.063	0.0145256
953.141	0.0144614
953.219	0.0143686
953.298	0.0144319
953.376	0.0145236
953.454	0.0144148
953.532	0.0144527
953.610	0.0145789
953.688	0.0145403
953.766	0.0144928
953.844	0.0146327
953.923	0.0145757
954.001	0.0145771
954.079	0.0145182
954.157	0.0144571
954.235	0.0145200
954.313	0.0145468
954.391	0.0145813
954.469	0.0145545
954.548	0.0146526
954.626	0.0145445
954.704	0.0144448
954.782	0.0145112
954.860	0.0144300
954.938	0.0143573
955.016	0.0143755
955.094	0.0145323
955.173	0.0146386
955.251	0.0146041
955.329	0.0145572
955.407	0.0146651
955.485	0.0146250
955.563	0.0146526
955.641	0.0146925
955.719	0.0146547
955.798	0.0147089
955.876	0.0147710
955.954	0.0148608
956.032	0.0148708
956.110	0.0147745
956.188	0.0148790
956.266	0.0148050
956.344	0.0147694
956.423	0.0146917
956.501	0.0147504
956.579	0.0146816
956.657	0.0148557
956.735	0.0146537
956.813	0.0144579
956.891	0.0145033
956.969	0.0146577
957.048	0.0144637
957.126	0.0144700
957.204	0.0144230
957.282	0.0145040
957.360	0.0144701
957.438	0.0144291
957.516	0.0144003
957.594	0.0144367
957.673	0.0142468
957.751	0.0144668
957.829	0.0143813
957.907	0.0144219
957.985	0.0143508
958.063	0.0143914
958.141	0.0143024
958.219	0.0143926
958.298	0.0142935
958.376	0.0143677
958.454	0.0143198
958.532	0.0143356
958.610	0.0145930
958.688	0.0145545
958.766	0.0145032
958.844	0.0144200
958.923	0.0144576
959.001	0.0144484
959.079	0.0144439
959.157	0.0143569
959.235	0.0144650
959.313	0.0146787
959.391	0.0146093
959.469	0.0145862
959.548	0.0145778
959.626	0.0146323
959.704	0.0145391
959.782	0.0147316
959.860	0.0146623
959.938	0.0145896
960.016	0.0146334
960.094	0.0146893
960.173	0.0145288
960.251	0.0147060
960.329	0.0146727
960.407	0.0146458
960.485	0.0147170
960.563	0.0146487
960.641	0.0146198
960.719	0.0145895
960.798	0.0145944
960.876	0.0145321
960.954	0.0146776
961.032	0.0147588
961.110	0.0144751
961.188	0.0145400
961.266	0.0145222
961.344	0.0145487
961.423	0.0146308
961.501	0.0145961
961.579	0.0145326
961.657	0.0145139
961.735	0.0146606
961.813	0.0146764
961.891	0.0144794
961.969	0.0145627
962.048	0.0145733
962.126	0.0143749
962.204	0.0144427
962.282	0.0144584
962.360	0.0144756
962.438	0.0143961
962.516	0.0145851
962.594	0.0146343
962.673	0.0144394
962.751	0.0145013
962.829	0.0144726
962.907	0.0142875
962.985	0.0145046
963.063	0.0145429
963.141	0.0143880
963.219	0.0145400
963.298	0.0146351
963.376	0.0145893
963.454	0.0145064
963.532	0.0143610
963.610	0.0145135
963.688	0.0145967
963.766	0.0145879
963.844	0.0145739
963.923	0.0146548
964.001	0.0145329
964.079	0.0145063
964.157	0.0145638
964.235	0.0145164
964.313	0.0145396
964.391	0.0145840
964.469	0.0146034
964.548	0.0146198
964.626	0.0143784
964.704	0.0142751
964.782	0.0144344
964.860	0.0144870
964.938	0.0145162
965.016	0.0142329
965.094	0.0143267
965.173	0.0142896
965.251	0.0143814
965.329	0.0142383
965.407	0.0143401
965.485	0.0143494
965.563	0.0144239
965.641	0.0143144
965.719	0.0145332
965.798	0.0144867
965.876	0.0144968
965.954	0.0147055
966.032	0.0145705
966.110	0.0145988
966.188	0.0145240
966.266	0.0144534
966.344	0.0146083
966.423	0.0147375
966.501	0.0147511
966.579	0.0147208
966.657	0.0147870
966.735	0.0148190
966.813	0.0148453
966.891	0.0147379
966.969	0.0146492
967.048	0.0147196
967.126	0.0148631
967.204	0.0148901
967.282	0.0147141
967.360	0.0148352
967.438	0.0146897
967.516	0.0147423
967.594	0.0145982
967.673	0.0146472
967.751	0.0147217
967.829	0.0147441
967.907	0.0145387
967.985	0.0146188
968.063	0.0145447
968.141	0.0145274
968.219	0.0146854
968.298	0.0145699
968.376	0.0144537
968.454	0.0144105
968.532	0.0145287
968.610	0.0144772
968.688	0.0144246
968.766	0.0144730
968.844	0.0143872
968.923	0.0144125
969.001	0.0143489
969.079	0.0144203
969.157	0.0144636
969.235	0.0145172
969.313	0.0144714
969.391	0.0143465
969.469	0.0144006
969.548	0.0143616
969.626	0.0144698
969.704	0.0143633
969.782	0.0143500
969.860	0.0144427
969.938	0.0144950
