05/14/2022	19:16:40	Ver.	4.1	UNKNOWN
Optical Delay	650.016352	Delta X		0.078125	Sweeps	1	Scan Rate	0/0
Coordinates	Axis 1	NaN	Axis 2	NaN	Axis 3	NaN	Axis 4	NaN	Axis 5	NaN	Axis 6	0.000000
TX Power	0.000000	RX Power	0.000000

650.016	0.0144622
650.094	0.0145938
650.173	0.0146108
650.251	0.0144617
650.329	0.0145355
650.407	0.0145291
650.485	0.0144576
650.563	0.0145104
650.641	0.0145183
650.719	0.0145129
650.798	0.0144733
650.876	0.0144740
650.954	0.0143266
651.032	0.0144338
651.110	0.0145255
651.188	0.0143299
651.266	0.0145213
651.344	0.0144968
651.423	0.0144360
651.501	0.0144866
651.579	0.0145074
651.657	0.0143193
651.735	0.0144226
651.813	0.0146019
651.891	0.0146246
651.969	0.0145073
652.048	0.0144161
652.126	0.0144074
652.204	0.0145596
652.282	0.0145676
652.360	0.0144532
652.438	0.0145737
652.516	0.0145065
652.594	0.0143961
652.673	0.0144843
652.751	0.0145319
652.829	0.0144898
652.907	0.0144341
652.985	0.0144618
653.063	0.0144103
653.141	0.0145365
653.219	0.0145399
653.298	0.0144083
653.376	0.0143044
653.454	0.0144830
653.532	0.0144149
653.610	0.0144218
653.688	0.0144334
653.766	0.0144213
653.844	0.0144146
653.923	0.0146191
654.001	0.0146125
654.079	0.0144726
654.157	0.0144472
654.235	0.0145599
654.313	0.0144756
654.391	0.0143183
654.469	0.0143710
654.548	0.0144908
654.626	0.0144899
654.704	0.0145238
654.782	0.0145257
654.860	0.0144314
654.938	0.0144924
655.016	0.0145502
655.094	0.0144003
655.173	0.0143153
655.251	0.0143550
655.329	0.0144923
655.407	0.0144646
655.485	0.0145512
655.563	0.0144607
655.641	0.0145596
655.719	0.0146207
655.798	0.0145901
655.876	0.0144024
655.954	0.0143922
656.032	0.0144757
656.110	0.0143201
656.188	0.0145383
656.266	0.0144636
656.344	0.0144585
656.423	0.0144582
656.501	0.0145376
656.579	0.0145454
656.657	0.0145555
656.735	0.0144440
656.813	0.0143654
656.891	0.0144411
656.969	0.0144948
657.048	0.0145032
657.126	0.0145336
657.204	0.0144569
657.282	0.0145699
657.360	0.0144706
657.438	0.0145246
657.516	0.0144900
657.594	0.0145454
657.673	0.0143803
657.751	0.0144739
657.829	0.0144929
657.907	0.0144112
657.985	0.0144461
658.063	0.0145727
658.141	0.0145275
658.219	0.0145164
658.298	0.0144233
658.376	0.0145434
658.454	0.0144468
658.532	0.0143580
658.610	0.0143881
658.688	0.0142908
658.766	0.0143857
658.844	0.0145081
658.923	0.0145016
659.001	0.0146027
659.079	0.0143978
659.157	0.0143500
659.235	0.0145329
659.313	0.0145384
659.391	0.0144521
659.469	0.0145516
659.548	0.0144759
659.626	0.0144901
659.704	0.0144250
659.782	0.0144966
659.860	0.0142911
659.938	0.0145230
660.016	0.0144885
660.094	0.0145035
660.173	0.0144540
660.251	0.0143605
660.329	0.0145180
660.407	0.0144149
660.485	0.0144617
660.563	0.0142607
660.641	0.0145045
660.719	0.0145055
660.798	0.0144115
660.876	0.0144393
660.954	0.0144061
661.032	0.0144508
661.110	0.0144952
661.188	0.0144255
661.266	0.0143797
661.344	0.0144882
661.423	0.0145298
661.501	0.0144329
661.579	0.0145114
661.657	0.0144511
661.735	0.0145123
661.813	0.0143472
661.891	0.0144272
661.969	0.0144421
662.048	0.0143684
662.126	0.0143595
662.204	0.0144307
662.282	0.0145699
662.360	0.0143656
662.438	0.0143901
662.516	0.0144141
662.594	0.0143716
662.673	0.0144725
662.751	0.0144412
662.829	0.0144715
662.907	0.0144582
662.985	0.0143796
663.063	0.0144257
663.141	0.0142809
663.219	0.0143898
663.298	0.0144682
663.376	0.0144299
663.454	0.0144474
663.532	0.0143979
663.610	0.0145958
663.688	0.0145873
663.766	0.0142857
663.844	0.0143391
663.923	0.0144103
664.001	0.0145478
664.079	0.0145131
664.157	0.0145319
664.235	0.0143880
664.313	0.0144142
664.391	0.0145538
664.469	0.0144787
664.548	0.0142088
664.626	0.0145087
664.704	0.0144851
664.782	0.0145065
664.860	0.0145419
664.938	0.0145247
665.016	0.0143594
665.094	0.0142963
665.173	0.0144573
665.251	0.0145796
665.329	0.0145936
665.407	0.0144551
665.485	0.0146880
665.563	0.0145683
665.641	0.0144806
665.719	0.0145406
665.798	0.0144638
665.876	0.0146122
665.954	0.0144063
666.032	0.0144358
666.110	0.0145184
666.188	0.0144509
666.266	0.0144720
666.344	0.0144695
666.423	0.0145261
666.501	0.0144907
666.579	0.0143869
666.657	0.0144171
666.735	0.0144126
666.813	0.0145006
666.891	0.0143966
666.969	0.0144568
667.048	0.0146551
667.126	0.0144051
667.204	0.0144525
667.282	0.0143997
667.360	0.0144714
667.438	0.0145068
667.516	0.0144824
667.594	0.0144716
667.673	0.0144589
667.751	0.0145396
667.829	0.0143016
667.907	0.0144777
667.985	0.0144984
668.063	0.0143628
668.141	0.0144169
668.219	0.0144738
668.298	0.0143621
668.376	0.0144231
668.454	0.0144702
668.532	0.0143772
668.610	0.0144328
668.688	0.0145458
668.766	0.0144280
668.844	0.0144510
668.923	0.0144675
669.001	0.0143660
669.079	0.0143964
669.157	0.0144489
669.235	0.0144737
669.313	0.0144337
669.391	0.0143502
669.469	0.0143697
669.548	0.0144550
669.626	0.0145827
669.704	0.0144226
669.782	0.0143675
669.860	0.0145034
669.938	0.0144745
670.016	0.0144294
670.094	0.0143235
670.173	0.0144147
670.251	0.0143962
670.329	0.0144226
670.407	0.0144637
670.485	0.0144401
670.563	0.0144011
670.641	0.0143990
670.719	0.0144261
670.798	0.0143893
670.876	0.0145405
670.954	0.0144762
671.032	0.0144423
671.110	0.0144116
671.188	0.0143542
671.266	0.0143333
671.344	0.0144609
671.423	0.0144537
671.501	0.0144795
671.579	0.0144773
671.657	0.0143032
671.735	0.0144912
671.813	0.0144044
671.891	0.0144128
671.969	0.0144291
672.048	0.0142516
672.126	0.0144498
672.204	0.0144012
672.282	0.0143941
672.360	0.0144386
672.438	0.0145135
672.516	0.0144837
672.594	0.0143819
672.673	0.0144293
672.751	0.0144183
672.829	0.0144191
672.907	0.0144717
672.985	0.0144763
673.063	0.0145451
673.141	0.0143549
673.219	0.0144778
673.298	0.0144401
673.376	0.0144486
673.454	0.0144654
673.532	0.0144405
673.610	0.0144630
673.688	0.0145704
673.766	0.0145123
673.844	0.0144107
673.923	0.0144722
674.001	0.0145361
674.079	0.0144747
674.157	0.0145954
674.235	0.0144178
674.313	0.0145087
674.391	0.0146679
674.469	0.0145358
674.548	0.0144306
674.626	0.0145444
674.704	0.0144979
674.782	0.0145134
674.860	0.0144037
674.938	0.0144526
675.016	0.0144527
675.094	0.0145094
675.173	0.0145407
675.251	0.0144453
675.329	0.0144919
675.407	0.0144073
675.485	0.0145874
675.563	0.0145166
675.641	0.0144588
675.719	0.0144420
675.798	0.0143466
675.876	0.0144849
675.954	0.0144568
676.032	0.0144944
676.110	0.0145041
676.188	0.0144019
676.266	0.0144953
676.344	0.0146206
676.423	0.0144465
676.501	0.0144295
676.579	0.0144698
676.657	0.0145852
676.735	0.0144978
676.813	0.0144530
676.891	0.0144239
676.969	0.0146223
677.048	0.0144144
677.126	0.0145035
677.204	0.0145397
677.282	0.0144784
677.360	0.0144722
677.438	0.0146084
677.516	0.0143913
677.594	0.0146387
677.673	0.0145717
677.751	0.0143349
677.829	0.0145527
677.907	0.0144948
677.985	0.0145548
678.063	0.0144533
678.141	0.0143457
678.219	0.0144841
678.298	0.0144844
678.376	0.0145422
678.454	0.0144302
678.532	0.0145094
678.610	0.0144272
678.688	0.0144901
678.766	0.0144701
678.844	0.0144742
678.923	0.0143816
679.001	0.0143921
679.079	0.0146034
679.157	0.0145111
679.235	0.0144013
679.313	0.0144025
679.391	0.0145212
679.469	0.0144925
679.548	0.0145084
679.626	0.0144926
679.704	0.0143299
679.782	0.0144998
679.860	0.0144823
679.938	0.0145255
680.016	0.0145268
680.094	0.0144699
680.173	0.0146154
680.251	0.0145933
680.329	0.0145091
680.407	0.0144443
680.485	0.0144307
680.563	0.0143237
680.641	0.0145399
680.719	0.0144867
680.798	0.0144170
680.876	0.0144000
680.954	0.0143038
681.032	0.0143319
681.110	0.0145100
681.188	0.0145559
681.266	0.0143925
681.344	0.0146555
681.423	0.0145422
681.501	0.0146683
681.579	0.0145576
681.657	0.0147098
681.735	0.0146626
681.813	0.0146517
681.891	0.0145999
681.969	0.0146392
682.048	0.0143607
682.126	0.0143134
682.204	0.0141701
682.282	0.0142336
682.360	0.0140816
682.438	0.0140296
682.516	0.0140379
682.594	0.0141272
682.673	0.0141283
682.751	0.0141505
682.829	0.0143984
682.907	0.0145734
682.985	0.0147292
683.063	0.0149037
683.141	0.0150426
683.219	0.0150512
683.298	0.0151112
683.376	0.0152868
683.454	0.0151168
683.532	0.0151663
683.610	0.0149863
683.688	0.0147807
683.766	0.0147465
683.844	0.0145866
683.923	0.0143948
684.001	0.0142901
684.079	0.0141409
684.157	0.0141476
684.235	0.0139711
684.313	0.0139494
684.391	0.0138299
684.469	0.0136837
684.548	0.0135566
684.626	0.0135561
684.704	0.0135783
684.782	0.0135095
684.860	0.0134893
684.938	0.0138814
685.016	0.0138502
685.094	0.0140409
685.173	0.0143987
685.251	0.0148183
685.329	0.0151985
685.407	0.0155116
685.485	0.0157343
685.563	0.0157927
685.641	0.0161031
685.719	0.0160669
685.798	0.0158842
685.876	0.0160680
685.954	0.0158191
686.032	0.0156139
686.110	0.0152428
686.188	0.0151237
686.266	0.0147721
686.344	0.0146218
686.423	0.0143656
686.501	0.0141678
686.579	0.0139314
686.657	0.0137962
686.735	0.0135129
686.813	0.0134085
686.891	0.0132541
686.969	0.0132079
687.048	0.0131525
687.126	0.0131187
687.204	0.0129623
687.282	0.0130581
687.360	0.0130602
687.438	0.0132393
687.516	0.0135271
687.594	0.0136290
687.673	0.0139436
687.751	0.0143237
687.829	0.0144179
687.907	0.0147379
687.985	0.0148448
688.063	0.0149194
688.141	0.0150144
688.219	0.0150572
688.298	0.0151132
688.376	0.0152203
688.454	0.0153300
688.532	0.0153105
688.610	0.0155207
688.688	0.0155794
688.766	0.0156828
688.844	0.0158965
688.923	0.0158379
689.001	0.0158549
689.079	0.0158767
689.157	0.0158815
689.235	0.0157740
689.313	0.0158167
689.391	0.0156151
689.469	0.0153260
689.548	0.0151472
689.626	0.0148082
689.704	0.0145125
689.782	0.0143555
689.860	0.0141498
689.938	0.0138262
690.016	0.0135636
690.094	0.0133371
690.173	0.0133378
690.251	0.0130931
690.329	0.0130952
690.407	0.0127432
690.485	0.0126160
690.563	0.0125117
690.641	0.0123878
690.719	0.0122623
690.798	0.0119675
690.876	0.0120672
690.954	0.0120444
691.032	0.0120371
691.110	0.0120399
691.188	0.0122179
691.266	0.0122169
691.344	0.0126487
691.423	0.0128535
691.501	0.0131575
691.579	0.0136476
691.657	0.0139200
691.735	0.0143404
691.813	0.0150806
691.891	0.0153916
691.969	0.0160178
692.048	0.0165852
692.126	0.0171905
692.204	0.0177903
692.282	0.0183272
692.360	0.0187464
692.438	0.0192050
692.516	0.0194144
692.594	0.0195853
692.673	0.0193681
692.751	0.0193644
692.829	0.0191800
692.907	0.0187756
692.985	0.0183624
693.063	0.0178301
693.141	0.0172874
693.219	0.0165467
693.298	0.0159008
693.376	0.0152238
693.454	0.0145454
693.532	0.0137147
693.610	0.0130260
693.688	0.0122314
693.766	0.0116158
693.844	0.0109114
693.923	0.0102198
694.001	0.00954536
694.079	0.00897636
694.157	0.00853058
694.235	0.00798157
694.313	0.00763367
694.391	0.00711906
694.469	0.00692360
694.548	0.00683792
694.626	0.00711800
694.704	0.00741150
694.782	0.00791328
694.860	0.00885201
694.938	0.00960014
695.016	0.0106474
695.094	0.0118673
695.173	0.0131865
695.251	0.0143145
695.329	0.0157471
695.407	0.0168840
695.485	0.0180967
695.563	0.0191196
695.641	0.0201196
695.719	0.0208113
695.798	0.0214262
695.876	0.0218244
695.954	0.0222264
696.032	0.0224187
696.110	0.0224730
696.188	0.0225680
696.266	0.0226434
696.344	0.0223070
696.423	0.0222015
696.501	0.0218661
696.579	0.0212772
696.657	0.0207195
696.735	0.0201940
696.813	0.0193030
696.891	0.0183060
696.969	0.0172780
697.048	0.0160471
697.126	0.0146276
697.204	0.0133009
697.282	0.0119882
697.360	0.0106836
697.438	0.00946205
697.516	0.00854599
697.594	0.00763123
697.673	0.00699905
697.751	0.00667244
697.829	0.00653381
697.907	0.00674866
697.985	0.00698608
698.063	0.00737534
698.141	0.00792824
698.219	0.00860077
698.298	0.00905045
698.376	0.00982399
698.454	0.0102195
698.532	0.0105531
698.610	0.0108426
698.688	0.0110964
698.766	0.0109955
698.844	0.0110773
698.923	0.0109812
699.001	0.0114555
699.079	0.0116811
699.157	0.0123360
699.235	0.0130030
699.313	0.0139225
699.391	0.0148979
699.469	0.0155924
699.548	0.0166211
699.626	0.0175895
699.704	0.0181852
699.782	0.0187556
699.860	0.0192924
699.938	0.0196524
700.016	0.0198159
700.094	0.0200711
700.173	0.0202749
700.251	0.0201926
700.329	0.0202836
700.407	0.0204995
700.485	0.0205315
700.563	0.0207289
700.641	0.0211318
700.719	0.0213325
700.798	0.0215823
700.876	0.0217691
700.954	0.0215542
701.032	0.0212537
701.110	0.0206922
701.188	0.0200513
701.266	0.0191199
701.344	0.0178917
701.423	0.0167063
701.501	0.0154607
701.579	0.0140926
701.657	0.0128111
701.735	0.0116113
701.813	0.0103233
701.891	0.00925026
701.969	0.00835030
702.048	0.00763214
702.126	0.00702621
702.204	0.00676262
702.282	0.00665588
702.360	0.00646416
702.438	0.00650352
702.516	0.00672279
702.594	0.00681839
702.673	0.00707161
702.751	0.00751282
702.829	0.00799179
702.907	0.00822243
702.985	0.00861687
703.063	0.00911606
703.141	0.00955551
703.219	0.00986740
703.298	0.0103742
703.376	0.0107477
703.454	0.0111317
703.532	0.0116192
703.610	0.0122946
703.688	0.0128898
703.766	0.0138150
703.844	0.0144750
703.923	0.0153756
704.001	0.0163241
704.079	0.0170105
704.157	0.0180705
704.235	0.0188145
704.313	0.0196093
704.391	0.0200741
704.469	0.0205347
704.548	0.0210403
704.626	0.0215015
704.704	0.0216892
704.782	0.0219126
704.860	0.0219450
704.938	0.0220797
705.016	0.0221861
705.094	0.0222710
705.173	0.0221268
705.251	0.0224684
705.329	0.0225242
705.407	0.0223090
705.485	0.0221379
705.563	0.0216530
705.641	0.0211053
705.719	0.0203189
705.798	0.0195325
705.876	0.0183385
705.954	0.0172407
706.032	0.0159053
706.110	0.0146349
706.188	0.0133548
706.266	0.0120001
706.344	0.0105655
706.423	0.00944771
706.501	0.00822670
706.579	0.00705322
706.657	0.00620697
706.735	0.00556686
706.813	0.00500534
706.891	0.00477486
706.969	0.00479980
707.048	0.00486542
707.126	0.00529411
707.204	0.00587311
707.282	0.00635834
707.360	0.00708862
707.438	0.00776886
707.516	0.00829720
707.594	0.00885719
707.673	0.00939713
707.751	0.00986015
707.829	0.0102445
707.907	0.0106766
707.985	0.0110304
708.063	0.0115768
708.141	0.0121516
708.219	0.0125981
708.298	0.0132540
708.376	0.0138672
708.454	0.0144856
708.532	0.0151933
708.610	0.0160368
708.688	0.0167551
708.766	0.0174919
708.844	0.0182345
708.923	0.0189912
709.001	0.0197123
709.079	0.0203396
709.157	0.0206580
709.235	0.0210708
709.313	0.0214261
709.391	0.0216000
709.469	0.0218700
709.548	0.0218458
709.626	0.0221508
709.704	0.0221186
709.782	0.0221429
709.860	0.0222498
709.938	0.0218849
710.016	0.0216105
710.094	0.0213091
710.173	0.0210753
710.251	0.0202005
710.329	0.0195481
710.407	0.0187889
710.485	0.0180376
710.563	0.0169276
710.641	0.0159740
710.719	0.0148341
710.798	0.0138893
710.876	0.0127036
710.954	0.0117710
711.032	0.0108433
711.110	0.00988159
711.188	0.00915001
711.266	0.00865692
711.344	0.00803459
711.423	0.00776657
711.501	0.00755272
711.579	0.00764946
711.657	0.00758751
711.735	0.00771095
711.813	0.00780273
711.891	0.00783989
711.969	0.00788765
712.048	0.00816742
712.126	0.00831581
712.204	0.00837837
712.282	0.00867500
712.360	0.00897232
712.438	0.00942314
712.516	0.00988182
712.594	0.0101824
712.673	0.0107066
712.751	0.0113705
712.829	0.0120427
712.907	0.0126286
712.985	0.0131826
713.063	0.0139725
713.141	0.0149689
713.219	0.0154012
713.298	0.0159863
713.376	0.0167319
713.454	0.0173972
713.532	0.0176960
713.610	0.0182227
713.688	0.0184178
713.766	0.0187733
713.844	0.0191231
713.923	0.0191080
714.001	0.0192179
714.079	0.0192863
714.157	0.0193060
714.235	0.0191728
714.313	0.0191174
714.391	0.0189245
714.469	0.0187665
714.548	0.0184499
714.626	0.0184500
714.704	0.0181245
714.782	0.0178312
714.860	0.0174167
714.938	0.0172066
715.016	0.0168687
715.094	0.0165556
715.173	0.0163012
715.251	0.0158575
715.329	0.0154518
715.407	0.0151965
715.485	0.0147791
715.563	0.0146461
715.641	0.0144509
715.719	0.0143128
715.798	0.0140146
715.876	0.0139358
715.954	0.0137700
716.032	0.0137115
716.110	0.0136088
716.188	0.0135985
716.266	0.0133156
716.344	0.0130796
716.423	0.0129747
716.501	0.0128929
716.579	0.0126281
716.657	0.0123206
716.735	0.0121600
716.813	0.0120631
716.891	0.0116454
716.969	0.0115534
717.048	0.0115274
717.126	0.0113794
717.204	0.0113033
717.282	0.0111749
717.360	0.0115537
717.438	0.0116161
717.516	0.0117722
717.594	0.0120190
717.673	0.0122912
717.751	0.0125401
717.829	0.0127633
717.907	0.0130256
717.985	0.0132459
718.063	0.0134042
718.141	0.0135530
718.219	0.0139393
718.298	0.0138937
718.376	0.0139629
718.454	0.0142094
718.532	0.0145076
718.610	0.0147421
718.688	0.0148933
718.766	0.0154237
718.844	0.0154310
718.923	0.0156925
719.001	0.0159106
719.079	0.0160484
719.157	0.0162894
719.235	0.0163669
719.313	0.0165143
719.391	0.0163940
719.469	0.0162401
719.548	0.0161256
719.626	0.0160184
719.704	0.0157502
719.782	0.0156604
719.860	0.0154228
719.938	0.0151138
720.016	0.0150642
720.094	0.0150967
720.173	0.0150217
720.251	0.0149926
720.329	0.0152902
720.407	0.0154459
720.485	0.0157038
720.563	0.0158246
720.641	0.0159863
720.719	0.0160979
720.798	0.0163046
720.876	0.0162968
720.954	0.0164449
721.032	0.0161974
721.110	0.0162415
721.188	0.0160586
721.266	0.0158994
721.344	0.0155163
721.423	0.0151717
721.501	0.0149127
721.579	0.0145903
721.657	0.0144245
721.735	0.0140322
721.813	0.0137732
721.891	0.0135143
721.969	0.0136027
722.048	0.0135667
722.126	0.0135328
722.204	0.0135172
722.282	0.0135226
722.360	0.0136118
722.438	0.0136609
722.516	0.0136060
722.594	0.0135278
722.673	0.0136001
722.751	0.0136068
722.829	0.0134675
722.907	0.0132946
722.985	0.0134174
723.063	0.0133478
723.141	0.0132599
723.219	0.0131457
723.298	0.0132697
723.376	0.0133547
723.454	0.0133274
723.532	0.0132941
723.610	0.0134955
723.688	0.0135374
723.766	0.0136603
723.844	0.0138169
723.923	0.0139140
724.001	0.0140163
724.079	0.0137832
724.157	0.0137862
724.235	0.0138426
724.313	0.0138364
724.391	0.0137952
724.469	0.0137103
724.548	0.0136430
724.626	0.0137305
724.704	0.0136541
724.782	0.0137370
724.860	0.0139662
724.938	0.0139195
725.016	0.0140434
725.094	0.0142180
725.173	0.0143248
725.251	0.0144061
725.329	0.0146545
725.407	0.0147990
725.485	0.0149269
725.563	0.0150225
725.641	0.0151992
725.719	0.0151491
725.798	0.0152477
725.876	0.0153190
725.954	0.0153405
726.032	0.0152035
726.110	0.0152554
726.188	0.0153637
726.266	0.0154952
726.344	0.0155362
726.423	0.0157908
726.501	0.0159313
726.579	0.0161445
726.657	0.0161935
726.735	0.0165311
726.813	0.0165999
726.891	0.0165285
726.969	0.0167148
727.048	0.0166050
727.126	0.0165720
727.204	0.0164877
727.282	0.0162699
727.360	0.0159689
727.438	0.0158352
727.516	0.0157515
727.594	0.0153802
727.673	0.0151991
727.751	0.0150477
727.829	0.0147342
727.907	0.0145770
727.985	0.0143948
728.063	0.0142322
728.141	0.0140741
728.219	0.0141106
728.298	0.0139599
728.376	0.0139553
728.454	0.0138094
728.532	0.0136530
728.610	0.0133865
728.688	0.0132556
728.766	0.0130449
728.844	0.0129200
728.923	0.0128606
729.001	0.0128088
729.079	0.0125708
729.157	0.0128970
729.235	0.0125684
729.313	0.0124888
729.391	0.0126988
729.469	0.0128131
729.548	0.0127628
729.626	0.0128284
729.704	0.0129180
729.782	0.0129327
729.860	0.0129437
729.938	0.0129719
730.016	0.0128924
730.094	0.0128637
730.173	0.0128664
730.251	0.0127995
730.329	0.0128998
730.407	0.0130272
730.485	0.0129487
730.563	0.0130148
730.641	0.0133163
730.719	0.0133501
730.798	0.0135735
730.876	0.0139874
730.954	0.0143637
731.032	0.0145924
731.110	0.0149658
731.188	0.0153468
731.266	0.0156763
731.344	0.0157991
731.423	0.0161285
731.501	0.0164948
731.579	0.0162753
731.657	0.0163953
731.735	0.0165191
731.813	0.0165824
731.891	0.0163931
731.969	0.0165136
732.048	0.0166078
732.126	0.0165827
732.204	0.0164816
732.282	0.0163532
732.360	0.0162638
732.438	0.0163504
732.516	0.0161639
732.594	0.0161359
732.673	0.0157994
732.751	0.0158786
732.829	0.0156535
732.907	0.0153489
732.985	0.0152061
733.063	0.0150311
733.141	0.0150249
733.219	0.0147594
733.298	0.0146524
733.376	0.0145579
733.454	0.0143211
733.532	0.0143273
733.610	0.0143021
733.688	0.0140008
733.766	0.0139812
733.844	0.0138776
733.923	0.0137698
734.001	0.0136249
734.079	0.0135580
734.157	0.0136023
734.235	0.0134658
734.313	0.0136089
734.391	0.0135754
734.469	0.0136347
734.548	0.0137578
734.626	0.0136245
734.704	0.0137543
734.782	0.0135497
734.860	0.0135291
734.938	0.0134713
735.016	0.0134147
735.094	0.0134717
735.173	0.0134818
735.251	0.0133905
735.329	0.0132831
735.407	0.0132314
735.485	0.0132035
735.563	0.0132484
735.641	0.0134123
735.719	0.0135326
735.798	0.0135355
735.876	0.0135867
735.954	0.0135837
736.032	0.0138277
736.110	0.0138554
736.188	0.0138798
736.266	0.0138670
736.344	0.0140371
736.423	0.0137991
736.501	0.0139212
736.579	0.0139613
736.657	0.0139424
736.735	0.0139381
736.813	0.0139288
736.891	0.0140361
736.969	0.0140831
737.048	0.0142943
737.126	0.0142603
737.204	0.0146301
737.282	0.0147071
737.360	0.0150539
737.438	0.0151087
737.516	0.0151494
737.594	0.0153915
737.673	0.0154600
737.751	0.0155582
737.829	0.0155782
737.907	0.0156143
737.985	0.0155568
738.063	0.0155560
738.141	0.0154498
738.219	0.0152897
738.298	0.0151440
738.376	0.0152307
738.454	0.0151667
738.532	0.0150607
738.610	0.0152112
738.688	0.0149873
738.766	0.0149509
738.844	0.0149725
738.923	0.0149940
739.001	0.0149676
739.079	0.0148321
739.157	0.0147929
739.235	0.0149406
739.313	0.0148961
739.391	0.0148989
739.469	0.0148749
739.548	0.0149329
739.626	0.0149808
739.704	0.0151408
739.782	0.0150369
739.860	0.0150196
739.938	0.0150249
740.016	0.0150368
740.094	0.0150411
740.173	0.0149605
740.251	0.0148130
740.329	0.0147335
740.407	0.0145588
740.485	0.0144240
740.563	0.0144656
740.641	0.0141465
740.719	0.0140662
740.798	0.0140691
740.876	0.0138161
740.954	0.0137018
741.032	0.0136356
741.110	0.0136251
741.188	0.0135365
741.266	0.0135786
741.344	0.0136335
741.423	0.0134745
741.501	0.0134509
741.579	0.0135146
741.657	0.0135612
741.735	0.0136992
741.813	0.0136471
741.891	0.0136136
741.969	0.0137064
742.048	0.0137846
742.126	0.0137701
742.204	0.0137270
742.282	0.0137672
742.360	0.0136439
742.438	0.0136938
742.516	0.0138412
742.594	0.0138586
742.673	0.0138898
742.751	0.0137646
742.829	0.0138504
742.907	0.0138633
742.985	0.0139539
743.063	0.0138094
743.141	0.0138705
743.219	0.0139282
743.298	0.0138808
743.376	0.0140750
743.454	0.0141549
743.532	0.0142762
743.610	0.0142601
743.688	0.0144494
743.766	0.0145240
743.844	0.0146172
743.923	0.0147902
744.001	0.0148757
744.079	0.0150052
744.157	0.0151097
744.235	0.0152143
744.313	0.0152415
744.391	0.0155105
744.469	0.0157179
744.548	0.0156103
744.626	0.0156194
744.704	0.0156898
744.782	0.0160416
744.860	0.0158974
744.938	0.0160768
745.016	0.0161286
745.094	0.0160610
745.173	0.0160573
745.251	0.0160909
745.329	0.0161664
745.407	0.0160861
745.485	0.0159914
745.563	0.0157888
745.641	0.0156069
745.719	0.0156258
745.798	0.0153958
745.876	0.0153419
745.954	0.0150997
746.032	0.0148738
746.110	0.0147729
746.188	0.0147021
746.266	0.0145366
746.344	0.0143534
746.423	0.0142576
746.501	0.0142043
746.579	0.0139998
746.657	0.0139313
746.735	0.0140099
746.813	0.0137231
746.891	0.0135518
746.969	0.0136210
747.048	0.0135363
747.126	0.0133407
747.204	0.0132424
747.282	0.0132697
747.360	0.0132413
747.438	0.0132858
747.516	0.0132145
747.594	0.0133329
747.673	0.0132589
747.751	0.0131992
747.829	0.0132967
747.907	0.0133122
747.985	0.0134206
748.063	0.0134983
748.141	0.0135943
748.219	0.0136475
748.298	0.0135765
748.376	0.0138319
748.454	0.0138129
748.532	0.0139076
748.610	0.0140992
748.688	0.0140406
748.766	0.0140536
748.844	0.0141881
748.923	0.0141838
749.001	0.0143530
749.079	0.0144859
749.157	0.0144289
749.235	0.0147163
749.313	0.0145453
749.391	0.0147933
749.469	0.0147526
749.548	0.0148872
749.626	0.0148225
749.704	0.0148843
749.782	0.0148414
749.860	0.0150529
749.938	0.0151356
750.016	0.0152230
750.094	0.0151912
750.173	0.0150925
750.251	0.0152937
750.329	0.0153175
750.407	0.0153599
750.485	0.0151986
750.563	0.0153510
750.641	0.0152740
750.719	0.0154415
750.798	0.0154586
750.876	0.0152787
750.954	0.0152781
751.032	0.0152191
751.110	0.0149195
751.188	0.0149611
751.266	0.0150739
751.344	0.0149010
751.423	0.0147910
751.501	0.0147504
751.579	0.0147314
751.657	0.0147778
751.735	0.0148470
751.813	0.0146365
751.891	0.0145936
751.969	0.0146230
752.048	0.0144345
752.126	0.0143309
752.204	0.0143419
752.282	0.0143562
752.360	0.0142229
752.438	0.0141827
752.516	0.0140041
752.594	0.0141145
752.673	0.0138928
752.751	0.0139346
752.829	0.0138821
752.907	0.0139209
752.985	0.0139605
753.063	0.0138876
753.141	0.0140868
753.219	0.0140619
753.298	0.0139809
753.376	0.0140051
753.454	0.0141217
753.532	0.0141206
753.610	0.0142749
753.688	0.0143778
753.766	0.0141880
753.844	0.0142645
753.923	0.0143715
754.001	0.0142972
754.079	0.0144223
754.157	0.0141963
754.235	0.0142981
754.313	0.0143404
754.391	0.0143135
754.469	0.0143284
754.548	0.0143639
754.626	0.0143630
754.704	0.0142044
754.782	0.0142154
754.860	0.0143198
754.938	0.0143447
755.016	0.0143649
755.094	0.0143166
755.173	0.0142253
755.251	0.0144170
755.329	0.0142300
755.407	0.0142525
755.485	0.0142078
755.563	0.0142603
755.641	0.0143739
755.719	0.0143405
755.798	0.0144762
755.876	0.0144650
755.954	0.0142245
756.032	0.0144200
756.110	0.0142667
756.188	0.0141772
756.266	0.0143732
756.344	0.0144398
756.423	0.0142780
756.501	0.0143010
756.579	0.0144639
756.657	0.0143588
756.735	0.0144301
756.813	0.0145165
756.891	0.0145320
756.969	0.0145254
757.048	0.0146014
757.126	0.0145746
757.204	0.0147248
757.282	0.0148324
757.360	0.0147283
757.438	0.0147108
757.516	0.0147991
757.594	0.0145879
757.673	0.0146784
757.751	0.0146143
757.829	0.0146278
757.907	0.0146560
757.985	0.0146121
758.063	0.0146491
758.141	0.0146581
758.219	0.0146155
758.298	0.0146704
758.376	0.0145953
758.454	0.0146857
758.532	0.0146968
758.610	0.0146674
758.688	0.0147769
758.766	0.0148869
758.844	0.0148090
758.923	0.0148537
759.001	0.0149451
759.079	0.0148787
759.157	0.0148533
759.235	0.0146637
759.313	0.0148667
759.391	0.0148005
759.469	0.0147490
759.548	0.0146112
759.626	0.0144798
759.704	0.0144777
759.782	0.0145097
759.860	0.0143578
759.938	0.0141811
760.016	0.0142946
760.094	0.0143176
760.173	0.0142361
760.251	0.0140445
760.329	0.0139548
760.407	0.0139145
760.485	0.0138136
760.563	0.0139744
760.641	0.0138409
760.719	0.0138171
760.798	0.0138349
760.876	0.0138969
760.954	0.0137304
761.032	0.0138520
761.110	0.0138440
761.188	0.0138298
761.266	0.0138407
761.344	0.0139680
761.423	0.0140926
761.501	0.0140681
761.579	0.0142226
761.657	0.0143876
761.735	0.0145228
761.813	0.0143729
761.891	0.0144334
761.969	0.0144913
762.048	0.0146096
762.126	0.0146223
762.204	0.0146017
762.282	0.0147002
762.360	0.0147224
762.438	0.0145178
762.516	0.0145847
762.594	0.0145969
762.673	0.0147131
762.751	0.0146149
762.829	0.0145527
762.907	0.0145477
762.985	0.0144541
763.063	0.0144563
763.141	0.0145036
763.219	0.0144780
763.298	0.0144527
763.376	0.0144105
763.454	0.0144387
763.532	0.0144757
763.610	0.0145023
763.688	0.0143315
763.766	0.0143671
763.844	0.0144567
763.923	0.0144670
764.001	0.0144586
764.079	0.0145277
764.157	0.0145394
764.235	0.0145327
764.313	0.0145946
764.391	0.0146721
764.469	0.0146616
764.548	0.0146507
764.626	0.0147346
764.704	0.0147400
764.782	0.0146941
764.860	0.0147684
764.938	0.0148179
765.016	0.0149657
765.094	0.0148664
765.173	0.0148648
765.251	0.0149257
765.329	0.0148896
765.407	0.0149361
765.485	0.0149435
765.563	0.0148453
765.641	0.0149351
765.719	0.0147769
765.798	0.0147226
765.876	0.0147977
765.954	0.0148281
766.032	0.0147372
766.110	0.0144598
766.188	0.0145425
766.266	0.0145941
766.344	0.0145782
766.423	0.0144144
766.501	0.0143987
766.579	0.0143607
766.657	0.0143661
766.735	0.0142326
766.813	0.0142767
766.891	0.0142564
766.969	0.0141443
767.048	0.0140898
767.126	0.0141195
767.204	0.0140952
767.282	0.0140848
767.360	0.0140541
767.438	0.0141062
767.516	0.0141472
767.594	0.0142178
767.673	0.0143797
767.751	0.0143118
767.829	0.0142541
767.907	0.0144467
767.985	0.0144694
768.063	0.0144849
768.141	0.0144848
768.219	0.0145330
768.298	0.0145114
768.376	0.0144515
768.454	0.0143986
768.532	0.0143863
768.610	0.0144504
768.688	0.0143778
768.766	0.0143897
768.844	0.0142785
768.923	0.0142371
769.001	0.0142049
769.079	0.0142313
769.157	0.0141773
769.235	0.0141449
769.313	0.0142341
769.391	0.0141361
769.469	0.0141397
769.548	0.0141703
769.626	0.0141579
769.704	0.0142369
769.782	0.0141891
769.860	0.0142274
769.938	0.0142994
770.016	0.0143337
770.094	0.0143156
770.173	0.0142001
770.251	0.0142371
770.329	0.0142467
770.407	0.0144018
770.485	0.0144817
770.563	0.0146186
770.641	0.0146877
770.719	0.0146888
770.798	0.0148225
770.876	0.0147232
770.954	0.0149018
771.032	0.0148507
771.110	0.0148418
771.188	0.0149673
771.266	0.0150365
771.344	0.0150375
771.423	0.0151194
771.501	0.0150124
771.579	0.0151615
771.657	0.0152689
771.735	0.0152091
771.813	0.0151020
771.891	0.0151650
771.969	0.0150912
772.048	0.0147746
772.126	0.0148478
772.204	0.0149705
772.282	0.0147161
772.360	0.0147363
772.438	0.0145541
772.516	0.0144933
772.594	0.0143896
772.673	0.0143192
772.751	0.0143406
772.829	0.0141653
772.907	0.0142367
772.985	0.0140633
773.063	0.0140128
773.141	0.0140411
773.219	0.0139790
773.298	0.0140100
773.376	0.0139846
773.454	0.0140597
773.532	0.0140897
773.610	0.0141476
773.688	0.0140599
773.766	0.0143744
773.844	0.0143178
773.923	0.0141969
774.001	0.0144653
774.079	0.0144053
774.157	0.0144363
774.235	0.0144255
774.313	0.0146262
774.391	0.0146847
774.469	0.0145859
774.548	0.0145200
774.626	0.0144473
774.704	0.0145590
774.782	0.0144626
774.860	0.0144637
774.938	0.0144515
775.016	0.0144783
775.094	0.0143491
775.173	0.0142845
775.251	0.0142741
775.329	0.0141799
775.407	0.0142310
775.485	0.0141148
775.563	0.0141753
775.641	0.0141569
775.719	0.0142384
775.798	0.0143758
775.876	0.0142868
775.954	0.0143874
776.032	0.0143400
776.110	0.0143383
776.188	0.0146249
776.266	0.0145724
776.344	0.0146465
776.423	0.0146602
776.501	0.0146278
776.579	0.0146407
776.657	0.0146217
776.735	0.0147273
776.813	0.0146885
776.891	0.0146735
776.969	0.0147878
777.048	0.0146717
777.126	0.0144308
777.204	0.0145817
777.282	0.0146252
777.360	0.0145570
777.438	0.0143899
777.516	0.0143916
777.594	0.0144102
777.673	0.0144315
777.751	0.0144143
777.829	0.0142889
777.907	0.0144003
777.985	0.0143468
778.063	0.0142465
778.141	0.0142303
778.219	0.0143942
778.298	0.0144102
778.376	0.0144432
778.454	0.0144070
778.532	0.0144310
778.610	0.0144434
778.688	0.0146342
778.766	0.0148734
778.844	0.0146793
778.923	0.0146204
779.001	0.0148215
779.079	0.0148861
779.157	0.0148936
779.235	0.0148972
779.313	0.0148602
779.391	0.0148316
779.469	0.0148082
779.548	0.0147424
779.626	0.0150539
779.704	0.0147676
779.782	0.0148032
779.860	0.0147798
779.938	0.0147529
780.016	0.0147427
780.094	0.0146782
780.173	0.0146998
780.251	0.0145522
780.329	0.0146180
780.407	0.0145253
780.485	0.0143826
780.563	0.0143537
780.641	0.0143779
780.719	0.0145219
780.798	0.0143555
780.876	0.0143317
780.954	0.0142410
781.032	0.0141673
781.110	0.0143124
781.188	0.0141922
781.266	0.0143073
781.344	0.0143278
781.423	0.0143858
781.501	0.0141485
781.579	0.0140445
781.657	0.0142108
781.735	0.0143678
781.813	0.0142181
781.891	0.0142725
781.969	0.0141198
782.048	0.0142414
782.126	0.0144151
782.204	0.0142670
782.282	0.0143629
782.360	0.0142854
782.438	0.0143218
782.516	0.0142120
782.594	0.0143077
782.673	0.0143242
782.751	0.0143392
782.829	0.0144545
782.907	0.0143364
782.985	0.0143468
783.063	0.0144683
783.141	0.0143794
783.219	0.0144834
783.298	0.0144496
783.376	0.0145457
783.454	0.0146053
783.532	0.0145538
783.610	0.0145149
783.688	0.0145551
783.766	0.0145190
783.844	0.0145331
783.923	0.0145068
784.001	0.0145212
784.079	0.0145419
784.157	0.0145702
784.235	0.0146870
784.313	0.0144569
784.391	0.0145183
784.469	0.0145934
784.548	0.0145951
784.626	0.0144675
784.704	0.0145814
784.782	0.0146281
784.860	0.0145918
784.938	0.0147149
785.016	0.0147912
785.094	0.0148320
785.173	0.0147952
785.251	0.0146779
785.329	0.0149343
785.407	0.0149284
785.485	0.0150050
785.563	0.0148205
785.641	0.0149907
785.719	0.0147296
785.798	0.0146671
785.876	0.0147578
785.954	0.0146032
786.032	0.0145077
786.110	0.0143402
786.188	0.0143356
786.266	0.0144765
786.344	0.0144246
786.423	0.0143201
786.501	0.0142757
786.579	0.0142291
786.657	0.0141747
786.735	0.0142428
786.813	0.0142078
786.891	0.0141199
786.969	0.0140047
787.048	0.0139845
787.126	0.0140356
787.204	0.0141946
787.282	0.0139690
787.360	0.0139478
787.438	0.0141430
787.516	0.0140936
787.594	0.0141004
787.673	0.0142067
787.751	0.0143440
787.829	0.0143242
787.907	0.0144756
787.985	0.0144489
788.063	0.0146871
788.141	0.0147493
788.219	0.0146935
788.298	0.0148112
788.376	0.0148266
788.454	0.0148362
788.532	0.0149127
788.610	0.0147270
788.688	0.0148909
788.766	0.0148367
788.844	0.0149793
788.923	0.0149731
789.001	0.0148652
789.079	0.0149453
789.157	0.0149163
789.235	0.0149114
789.313	0.0149783
789.391	0.0149164
789.469	0.0149110
789.548	0.0147724
789.626	0.0148237
789.704	0.0148093
789.782	0.0146732
789.860	0.0146076
789.938	0.0145560
790.016	0.0144337
790.094	0.0142873
790.173	0.0142818
790.251	0.0142251
790.329	0.0140969
790.407	0.0140817
790.485	0.0140034
790.563	0.0139169
790.641	0.0137939
790.719	0.0138235
790.798	0.0138123
790.876	0.0136529
790.954	0.0135654
791.032	0.0136663
791.110	0.0135535
791.188	0.0137003
791.266	0.0135694
791.344	0.0134850
791.423	0.0136417
791.501	0.0137670
791.579	0.0138038
791.657	0.0138865
791.735	0.0140185
791.813	0.0140556
791.891	0.0141350
791.969	0.0143938
792.048	0.0144981
792.126	0.0146133
792.204	0.0147598
792.282	0.0149416
792.360	0.0152162
792.438	0.0154713
792.516	0.0153644
792.594	0.0154543
792.673	0.0156718
792.751	0.0156895
792.829	0.0160258
792.907	0.0159613
792.985	0.0160899
793.063	0.0161116
793.141	0.0160763
793.219	0.0159633
793.298	0.0159026
793.376	0.0158669
793.454	0.0155156
793.532	0.0154508
793.610	0.0152692
793.688	0.0149908
793.766	0.0148788
793.844	0.0145087
793.923	0.0142965
794.001	0.0139987
794.079	0.0138798
794.157	0.0136557
794.235	0.0135407
794.313	0.0134139
794.391	0.0132520
794.469	0.0133208
794.548	0.0132180
794.626	0.0131795
794.704	0.0131428
794.782	0.0132277
794.860	0.0132067
794.938	0.0132333
795.016	0.0133385
795.094	0.0133806
795.173	0.0133720
795.251	0.0135616
795.329	0.0137247
795.407	0.0137977
795.485	0.0140342
795.563	0.0140086
795.641	0.0141689
795.719	0.0143380
795.798	0.0144253
795.876	0.0144294
795.954	0.0144660
796.032	0.0144884
796.110	0.0146326
796.188	0.0145431
796.266	0.0147563
796.344	0.0148765
796.423	0.0149391
796.501	0.0148661
796.579	0.0148619
796.657	0.0148941
796.735	0.0151186
796.813	0.0150362
796.891	0.0151089
796.969	0.0153104
797.048	0.0152597
797.126	0.0151968
797.204	0.0153111
797.282	0.0154314
797.360	0.0154089
797.438	0.0152757
797.516	0.0151981
797.594	0.0152145
797.673	0.0150365
797.751	0.0151878
797.829	0.0148499
797.907	0.0148011
797.985	0.0148078
798.063	0.0146296
798.141	0.0144179
798.219	0.0142993
798.298	0.0143249
798.376	0.0142335
798.454	0.0139157
798.532	0.0139532
798.610	0.0139446
798.688	0.0140128
798.766	0.0138298
798.844	0.0136980
798.923	0.0138220
799.001	0.0138087
799.079	0.0138503
799.157	0.0139113
799.235	0.0137705
799.313	0.0138480
799.391	0.0138895
799.469	0.0139237
799.548	0.0139804
799.626	0.0139723
799.704	0.0140567
799.782	0.0141138
799.860	0.0142355
799.938	0.0142880
800.016	0.0145837
800.094	0.0143808
800.173	0.0145420
800.251	0.0144447
800.329	0.0145333
800.407	0.0146687
800.485	0.0146625
800.563	0.0146177
800.641	0.0144008
800.719	0.0146828
800.798	0.0147821
800.876	0.0147873
800.954	0.0147977
801.032	0.0147355
801.110	0.0148373
801.188	0.0149471
801.266	0.0151028
801.344	0.0150381
801.423	0.0151877
801.501	0.0155451
801.579	0.0153261
801.657	0.0154058
801.735	0.0156365
801.813	0.0155584
801.891	0.0155109
801.969	0.0155270
802.048	0.0155254
802.126	0.0155729
802.204	0.0152367
802.282	0.0152064
802.360	0.0151383
802.438	0.0148699
802.516	0.0148326
802.594	0.0147034
802.673	0.0146154
802.751	0.0142453
802.829	0.0141204
802.907	0.0139709
802.985	0.0136879
803.063	0.0135435
803.141	0.0133130
803.219	0.0133380
803.298	0.0134249
803.376	0.0133336
803.454	0.0132103
803.532	0.0130736
803.610	0.0131568
803.688	0.0132631
803.766	0.0133037
803.844	0.0132060
803.923	0.0134607
804.001	0.0134238
804.079	0.0134831
804.157	0.0136477
804.235	0.0137849
804.313	0.0137266
804.391	0.0140434
804.469	0.0140292
804.548	0.0140578
804.626	0.0141710
804.704	0.0143020
804.782	0.0144183
804.860	0.0144709
804.938	0.0144751
805.016	0.0144253
805.094	0.0145489
805.173	0.0147811
805.251	0.0148611
805.329	0.0147581
805.407	0.0148977
805.485	0.0150719
805.563	0.0150084
805.641	0.0151605
805.719	0.0152035
805.798	0.0154108
805.876	0.0154524
805.954	0.0155578
806.032	0.0157894
806.110	0.0158339
806.188	0.0158130
806.266	0.0158218
806.344	0.0159253
806.423	0.0160082
806.501	0.0159278
806.579	0.0159423
806.657	0.0159386
806.735	0.0156710
806.813	0.0155518
806.891	0.0153903
806.969	0.0153279
807.048	0.0150847
807.126	0.0148483
807.204	0.0147245
807.282	0.0146572
807.360	0.0143679
807.438	0.0142660
807.516	0.0141242
807.594	0.0140463
807.673	0.0138985
807.751	0.0135905
807.829	0.0136067
807.907	0.0132690
807.985	0.0132461
808.063	0.0131629
808.141	0.0131284
808.219	0.0131683
808.298	0.0130129
808.376	0.0129974
808.454	0.0131680
808.532	0.0132243
808.610	0.0132188
808.688	0.0133757
808.766	0.0133163
808.844	0.0134653
808.923	0.0136424
809.001	0.0137379
809.079	0.0137875
809.157	0.0138686
809.235	0.0137704
809.313	0.0141087
809.391	0.0140533
809.469	0.0140907
809.548	0.0141649
809.626	0.0142431
809.704	0.0142005
809.782	0.0145394
809.860	0.0146481
809.938	0.0145645
810.016	0.0146633
810.094	0.0147829
810.173	0.0149057
810.251	0.0149697
810.329	0.0150571
810.407	0.0151605
810.485	0.0150402
810.563	0.0151304
810.641	0.0153173
810.719	0.0152540
810.798	0.0152667
810.876	0.0153150
810.954	0.0152546
811.032	0.0152886
811.110	0.0152768
811.188	0.0151823
811.266	0.0151832
811.344	0.0151611
811.423	0.0150179
811.501	0.0150774
811.579	0.0149577
811.657	0.0148669
811.735	0.0147570
811.813	0.0146732
811.891	0.0147211
811.969	0.0145482
812.048	0.0144859
812.126	0.0145678
812.204	0.0144889
812.282	0.0144875
812.360	0.0144911
812.438	0.0143851
812.516	0.0143940
812.594	0.0143636
812.673	0.0142688
812.751	0.0143211
812.829	0.0143599
812.907	0.0141504
812.985	0.0142251
813.063	0.0144656
813.141	0.0143902
813.219	0.0141614
813.298	0.0141306
813.376	0.0142039
813.454	0.0142406
813.532	0.0140740
813.610	0.0140615
813.688	0.0141244
813.766	0.0140951
813.844	0.0141976
813.923	0.0141306
814.001	0.0141209
814.079	0.0141286
814.157	0.0143020
814.235	0.0141557
814.313	0.0142298
814.391	0.0140337
814.469	0.0141336
814.548	0.0140979
814.626	0.0141068
814.704	0.0140971
814.782	0.0140704
814.860	0.0140516
814.938	0.0141004
815.016	0.0140996
815.094	0.0140880
815.173	0.0140518
815.251	0.0142871
815.329	0.0142433
815.407	0.0142441
815.485	0.0142236
815.563	0.0142965
815.641	0.0142445
815.719	0.0143656
815.798	0.0144137
815.876	0.0144095
815.954	0.0143465
816.032	0.0145736
816.110	0.0144324
816.188	0.0144930
816.266	0.0146230
816.344	0.0146421
816.423	0.0146156
816.501	0.0147841
816.579	0.0149548
816.657	0.0147882
816.735	0.0149630
816.813	0.0149960
816.891	0.0151671
816.969	0.0150469
817.048	0.0151393
817.126	0.0151548
817.204	0.0151299
817.282	0.0151466
817.360	0.0149142
817.438	0.0150406
817.516	0.0151032
817.594	0.0149647
817.673	0.0150008
817.751	0.0148939
817.829	0.0149209
817.907	0.0149074
817.985	0.0147640
818.063	0.0147260
818.141	0.0146667
818.219	0.0146685
818.298	0.0145215
818.376	0.0144559
818.454	0.0144444
818.532	0.0143627
818.610	0.0142460
818.688	0.0143885
818.766	0.0142442
818.844	0.0142993
818.923	0.0142979
819.001	0.0142016
819.079	0.0141228
819.157	0.0141042
819.235	0.0140871
819.313	0.0141810
819.391	0.0141373
819.469	0.0140417
819.548	0.0140011
819.626	0.0141158
819.704	0.0140160
819.782	0.0140042
819.860	0.0139572
819.938	0.0138877
820.016	0.0138381
820.094	0.0139397
820.173	0.0139507
820.251	0.0138308
820.329	0.0138324
820.407	0.0137344
820.485	0.0139777
820.563	0.0138586
820.641	0.0139040
820.719	0.0139089
820.798	0.0139349
820.876	0.0140411
820.954	0.0141664
821.032	0.0141311
821.110	0.0141199
821.188	0.0143427
821.266	0.0144559
821.344	0.0144707
821.423	0.0147148
821.501	0.0146455
821.579	0.0147398
821.657	0.0146720
821.735	0.0149087
821.813	0.0148093
821.891	0.0148419
821.969	0.0149767
822.048	0.0150741
822.126	0.0149829
822.204	0.0151863
822.282	0.0150813
822.360	0.0150417
822.438	0.0150866
822.516	0.0152706
822.594	0.0151150
822.673	0.0150148
822.751	0.0151220
822.829	0.0151529
822.907	0.0150916
822.985	0.0150628
823.063	0.0151048
823.141	0.0150247
823.219	0.0150338
823.298	0.0150836
823.376	0.0149995
823.454	0.0148973
823.532	0.0148070
823.610	0.0147982
823.688	0.0147124
823.766	0.0145864
823.844	0.0145564
823.923	0.0143930
824.001	0.0143340
824.079	0.0142767
824.157	0.0143490
824.235	0.0142358
824.313	0.0141760
824.391	0.0140331
824.469	0.0140537
824.548	0.0140591
824.626	0.0139193
824.704	0.0140085
824.782	0.0140479
824.860	0.0139560
824.938	0.0138117
825.016	0.0139634
825.094	0.0140402
825.173	0.0140710
825.251	0.0141048
825.329	0.0140567
825.407	0.0138732
825.485	0.0140985
825.563	0.0140208
825.641	0.0141805
825.719	0.0142120
825.798	0.0143086
825.876	0.0142587
825.954	0.0141855
826.032	0.0141425
826.110	0.0143350
826.188	0.0142591
826.266	0.0141553
826.344	0.0141575
826.423	0.0140997
826.501	0.0141679
826.579	0.0142023
826.657	0.0140679
826.735	0.0142087
826.813	0.0140932
826.891	0.0140931
826.969	0.0141389
827.048	0.0141587
827.126	0.0141496
827.204	0.0142908
827.282	0.0144456
827.360	0.0143487
827.438	0.0145715
827.516	0.0146735
827.594	0.0146575
827.673	0.0148728
827.751	0.0149539
827.829	0.0150592
827.907	0.0151073
827.985	0.0152460
828.063	0.0153216
828.141	0.0152662
828.219	0.0152122
828.298	0.0151472
828.376	0.0151900
828.454	0.0150525
828.532	0.0152937
828.610	0.0150871
828.688	0.0150659
828.766	0.0147771
828.844	0.0148639
828.923	0.0147800
829.001	0.0145783
829.079	0.0144077
829.157	0.0145000
829.235	0.0143464
829.313	0.0142947
829.391	0.0142084
829.469	0.0142602
829.548	0.0140498
829.626	0.0141209
829.704	0.0139912
829.782	0.0139657
829.860	0.0140423
829.938	0.0140828
830.016	0.0139104
830.094	0.0139030
830.173	0.0140012
830.251	0.0140587
830.329	0.0142876
830.407	0.0141512
830.485	0.0141492
830.563	0.0141851
830.641	0.0142489
830.719	0.0143426
830.798	0.0143763
830.876	0.0143133
830.954	0.0142733
831.032	0.0144028
831.110	0.0143657
831.188	0.0144975
831.266	0.0144603
831.344	0.0141961
831.423	0.0143658
831.501	0.0143611
831.579	0.0143044
831.657	0.0142274
831.735	0.0143094
831.813	0.0143799
831.891	0.0143065
831.969	0.0141003
832.048	0.0141514
832.126	0.0141920
832.204	0.0143378
832.282	0.0143526
832.360	0.0143822
832.438	0.0144360
832.516	0.0144769
832.594	0.0143880
832.673	0.0144100
832.751	0.0145754
832.829	0.0145284
832.907	0.0145913
832.985	0.0145847
833.063	0.0146352
833.141	0.0144569
833.219	0.0144864
833.298	0.0145959
833.376	0.0145825
833.454	0.0144962
833.532	0.0144899
833.610	0.0145908
833.688	0.0146361
833.766	0.0144891
833.844	0.0145101
833.923	0.0145120
834.001	0.0146378
834.079	0.0145370
834.157	0.0143750
834.235	0.0144675
834.313	0.0144905
834.391	0.0144202
834.469	0.0143253
834.548	0.0145210
834.626	0.0145028
834.704	0.0144234
834.782	0.0144197
834.860	0.0144761
834.938	0.0145110
835.016	0.0146440
835.094	0.0144700
835.173	0.0144076
835.251	0.0143880
835.329	0.0143859
835.407	0.0145719
835.485	0.0143607
835.563	0.0144830
835.641	0.0144640
835.719	0.0143502
835.798	0.0144493
835.876	0.0144701
835.954	0.0144402
836.032	0.0145381
836.110	0.0145967
836.188	0.0144697
836.266	0.0143752
836.344	0.0144033
836.423	0.0146172
836.501	0.0144461
836.579	0.0144135
836.657	0.0143941
836.735	0.0144699
836.813	0.0145405
836.891	0.0144698
836.969	0.0143075
837.048	0.0144877
837.126	0.0143764
837.204	0.0143124
837.282	0.0144634
837.360	0.0145227
837.438	0.0144559
837.516	0.0142883
837.594	0.0143781
837.673	0.0143195
837.751	0.0144312
837.829	0.0145634
837.907	0.0144707
837.985	0.0144723
838.063	0.0143532
838.141	0.0144281
838.219	0.0144523
838.298	0.0144270
838.376	0.0144987
838.454	0.0144754
838.532	0.0145405
838.610	0.0145203
838.688	0.0145686
838.766	0.0145060
838.844	0.0142831
838.923	0.0143726
839.001	0.0143761
839.079	0.0143709
839.157	0.0144707
839.235	0.0143822
839.313	0.0143082
839.391	0.0144474
839.469	0.0142822
839.548	0.0142764
839.626	0.0141898
839.704	0.0142214
839.782	0.0142566
839.860	0.0143800
839.938	0.0142491
840.016	0.0142518
840.094	0.0143014
840.173	0.0140653
840.251	0.0142809
840.329	0.0142329
840.407	0.0142988
840.485	0.0142818
840.563	0.0142004
840.641	0.0141920
840.719	0.0142433
840.798	0.0142258
840.876	0.0144498
840.954	0.0144393
841.032	0.0143278
841.110	0.0144082
841.188	0.0144992
841.266	0.0144413
841.344	0.0145117
841.423	0.0144586
841.501	0.0145650
841.579	0.0146108
841.657	0.0146542
841.735	0.0148261
841.813	0.0146369
841.891	0.0148514
841.969	0.0147608
842.048	0.0147385
842.126	0.0148885
842.204	0.0147331
842.282	0.0148348
842.360	0.0147491
842.438	0.0147440
842.516	0.0147646
842.594	0.0146651
842.673	0.0146039
842.751	0.0147420
842.829	0.0146885
842.907	0.0146420
842.985	0.0146317
843.063	0.0146060
843.141	0.0146786
843.219	0.0145590
843.298	0.0145502
843.376	0.0146040
843.454	0.0146445
843.532	0.0144245
843.610	0.0143761
843.688	0.0143986
843.766	0.0143891
843.844	0.0144083
843.923	0.0143671
844.001	0.0143257
844.079	0.0141373
844.157	0.0141135
844.235	0.0141108
844.313	0.0141946
844.391	0.0142151
844.469	0.0141860
844.548	0.0140771
844.626	0.0138946
844.704	0.0140029
844.782	0.0139429
844.860	0.0140469
844.938	0.0139942
845.016	0.0140309
845.094	0.0139730
845.173	0.0139906
845.251	0.0141315
845.329	0.0140057
845.407	0.0142277
845.485	0.0141988
845.563	0.0143384
845.641	0.0144773
845.719	0.0143343
845.798	0.0144177
845.876	0.0142850
845.954	0.0144720
846.032	0.0144558
846.110	0.0144810
846.188	0.0144162
846.266	0.0143864
846.344	0.0145426
846.423	0.0145054
846.501	0.0146291
846.579	0.0147199
846.657	0.0147296
846.735	0.0147359
846.813	0.0147433
846.891	0.0147959
846.969	0.0146264
847.048	0.0149290
847.126	0.0147931
847.204	0.0148921
847.282	0.0149104
847.360	0.0149018
847.438	0.0149480
847.516	0.0149226
847.594	0.0147582
847.673	0.0148585
847.751	0.0148406
847.829	0.0148157
847.907	0.0147786
847.985	0.0147284
848.063	0.0147822
848.141	0.0147532
848.219	0.0145757
848.298	0.0144838
848.376	0.0145476
848.454	0.0145113
848.532	0.0143482
848.610	0.0144961
848.688	0.0144434
848.766	0.0144194
848.844	0.0143649
848.923	0.0143751
849.001	0.0145170
849.079	0.0144035
849.157	0.0142955
849.235	0.0141260
849.313	0.0142059
849.391	0.0142596
849.469	0.0143301
849.548	0.0143832
849.626	0.0142724
849.704	0.0142382
849.782	0.0143555
849.860	0.0141300
849.938	0.0142152
850.016	0.0141724
850.094	0.0142005
850.173	0.0141756
850.251	0.0140314
850.329	0.0140493
850.407	0.0139408
850.485	0.0139986
850.563	0.0140909
850.641	0.0140900
850.719	0.0141084
850.798	0.0142177
850.876	0.0142453
850.954	0.0142551
851.032	0.0141689
851.110	0.0143140
851.188	0.0144198
851.266	0.0143484
851.344	0.0144376
851.423	0.0144267
851.501	0.0145921
851.579	0.0145370
851.657	0.0144345
851.735	0.0145859
851.813	0.0146085
851.891	0.0145895
851.969	0.0146480
852.048	0.0146954
852.126	0.0147754
852.204	0.0144567
852.282	0.0145054
852.360	0.0147323
852.438	0.0146860
852.516	0.0147429
852.594	0.0147340
852.673	0.0145808
852.751	0.0145884
852.829	0.0146280
852.907	0.0145982
852.985	0.0145077
853.063	0.0145709
853.141	0.0147118
853.219	0.0145098
853.298	0.0146162
853.376	0.0144971
853.454	0.0146384
853.532	0.0147052
853.610	0.0145161
853.688	0.0146512
853.766	0.0145425
853.844	0.0146583
853.923	0.0146731
854.001	0.0146207
854.079	0.0145047
854.157	0.0146944
854.235	0.0146611
854.313	0.0145755
854.391	0.0145165
854.469	0.0145399
854.548	0.0144618
854.626	0.0145474
854.704	0.0145858
854.782	0.0144679
854.860	0.0144053
854.938	0.0143754
855.016	0.0143356
855.094	0.0143362
855.173	0.0141920
855.251	0.0142962
855.329	0.0142672
855.407	0.0143327
855.485	0.0141450
855.563	0.0141987
855.641	0.0141984
855.719	0.0142329
855.798	0.0141679
855.876	0.0142023
855.954	0.0141547
856.032	0.0141680
856.110	0.0142374
856.188	0.0143869
856.266	0.0142571
856.344	0.0143250
856.423	0.0142993
856.501	0.0142319
856.579	0.0142957
856.657	0.0142945
856.735	0.0142762
856.813	0.0141228
856.891	0.0142958
856.969	0.0142086
857.048	0.0142270
857.126	0.0143697
857.204	0.0142394
857.282	0.0142587
857.360	0.0144066
857.438	0.0142876
857.516	0.0143096
857.594	0.0142493
857.673	0.0142867
857.751	0.0143264
857.829	0.0145105
857.907	0.0145023
857.985	0.0144204
858.063	0.0143632
858.141	0.0145314
858.219	0.0144579
858.298	0.0146420
858.376	0.0146265
858.454	0.0147436
858.532	0.0146706
858.610	0.0147907
858.688	0.0147375
858.766	0.0147964
858.844	0.0147783
858.923	0.0146574
859.001	0.0146776
859.079	0.0149379
859.157	0.0149219
859.235	0.0148110
859.313	0.0147726
859.391	0.0147896
859.469	0.0147395
859.548	0.0145567
859.626	0.0146590
859.704	0.0146754
859.782	0.0147119
859.860	0.0145875
859.938	0.0144737
860.016	0.0144682
860.094	0.0145039
860.173	0.0143562
860.251	0.0142121
860.329	0.0144377
860.407	0.0144483
860.485	0.0145003
860.563	0.0144483
860.641	0.0144796
860.719	0.0144222
860.798	0.0142871
860.876	0.0143585
860.954	0.0142580
861.032	0.0144488
861.110	0.0143348
861.188	0.0144553
861.266	0.0143625
861.344	0.0143491
861.423	0.0142683
861.501	0.0143031
861.579	0.0143702
861.657	0.0144220
861.735	0.0142560
861.813	0.0143999
861.891	0.0144229
861.969	0.0144283
862.048	0.0145583
862.126	0.0144265
862.204	0.0144585
862.282	0.0145553
862.360	0.0145655
862.438	0.0144325
862.516	0.0144675
862.594	0.0145274
862.673	0.0144970
862.751	0.0145198
862.829	0.0145282
862.907	0.0146756
862.985	0.0144900
863.063	0.0144798
863.141	0.0144793
863.219	0.0145500
863.298	0.0143285
863.376	0.0143911
863.454	0.0143065
863.532	0.0144566
863.610	0.0143521
863.688	0.0143272
863.766	0.0145227
863.844	0.0143904
863.923	0.0144047
864.001	0.0143177
864.079	0.0144953
864.157	0.0143156
864.235	0.0143645
864.313	0.0144036
864.391	0.0144978
864.469	0.0144309
864.548	0.0143150
864.626	0.0143271
864.704	0.0143628
864.782	0.0143839
864.860	0.0144143
864.938	0.0144714
865.016	0.0145030
865.094	0.0145600
865.173	0.0144433
865.251	0.0145885
865.329	0.0144602
865.407	0.0145769
865.485	0.0145053
865.563	0.0145735
865.641	0.0146000
865.719	0.0145501
865.798	0.0146330
865.876	0.0145759
865.954	0.0143897
866.032	0.0146049
866.110	0.0145232
866.188	0.0144849
866.266	0.0143430
866.344	0.0145654
866.423	0.0144699
866.501	0.0144463
866.579	0.0143705
866.657	0.0142368
866.735	0.0143105
866.813	0.0144888
866.891	0.0145142
866.969	0.0144209
867.048	0.0143381
867.126	0.0142937
867.204	0.0145275
867.282	0.0145219
867.360	0.0145383
867.438	0.0144917
867.516	0.0145993
867.594	0.0146590
867.673	0.0145789
867.751	0.0146008
867.829	0.0146791
867.907	0.0146349
867.985	0.0146929
868.063	0.0144878
868.141	0.0144463
868.219	0.0146113
868.298	0.0144941
868.376	0.0145284
868.454	0.0145921
868.532	0.0145773
868.610	0.0145631
868.688	0.0143285
868.766	0.0143282
868.844	0.0144965
868.923	0.0143330
869.001	0.0142397
869.079	0.0143328
869.157	0.0143333
869.235	0.0143464
869.313	0.0141528
869.391	0.0143495
869.469	0.0144447
869.548	0.0143953
869.626	0.0142867
869.704	0.0144124
869.782	0.0145758
869.860	0.0143577
869.938	0.0144039
870.016	0.0143825
870.094	0.0145740
870.173	0.0145328
870.251	0.0145212
870.329	0.0144888
870.407	0.0144193
870.485	0.0145235
870.563	0.0145378
870.641	0.0146148
870.719	0.0148003
870.798	0.0146433
870.876	0.0145834
870.954	0.0147708
871.032	0.0145877
871.110	0.0146763
871.188	0.0144424
871.266	0.0146367
871.344	0.0147239
871.423	0.0145246
871.501	0.0145400
871.579	0.0144636
871.657	0.0144313
871.735	0.0144611
871.813	0.0145829
871.891	0.0144942
871.969	0.0144814
872.048	0.0145474
872.126	0.0145457
872.204	0.0144870
872.282	0.0145437
872.360	0.0143929
872.438	0.0144778
872.516	0.0145100
872.594	0.0144566
872.673	0.0143874
872.751	0.0143320
872.829	0.0144986
872.907	0.0144059
872.985	0.0143691
873.063	0.0143192
873.141	0.0143227
873.219	0.0143136
873.298	0.0143435
873.376	0.0143562
873.454	0.0143552
873.532	0.0144150
873.610	0.0143387
873.688	0.0145083
873.766	0.0142893
873.844	0.0143412
873.923	0.0144543
874.001	0.0143392
874.079	0.0143894
874.157	0.0144691
874.235	0.0144913
874.313	0.0144309
874.391	0.0144488
874.469	0.0144321
874.548	0.0144890
874.626	0.0144543
874.704	0.0144820
874.782	0.0145805
874.860	0.0145919
874.938	0.0145650
875.016	0.0146351
875.094	0.0144640
875.173	0.0144534
875.251	0.0144332
875.329	0.0145817
875.407	0.0144171
875.485	0.0144364
875.563	0.0144513
875.641	0.0145135
875.719	0.0143719
875.798	0.0143693
875.876	0.0146150
875.954	0.0144182
876.032	0.0144343
876.110	0.0144574
876.188	0.0145065
876.266	0.0145468
876.344	0.0144741
876.423	0.0145095
876.501	0.0146212
876.579	0.0146593
876.657	0.0146747
876.735	0.0145565
876.813	0.0146301
876.891	0.0147669
876.969	0.0145831
877.048	0.0146534
877.126	0.0146545
877.204	0.0147969
877.282	0.0148060
877.360	0.0147213
877.438	0.0145811
877.516	0.0144688
877.594	0.0144646
877.673	0.0144378
877.751	0.0144772
877.829	0.0142812
877.907	0.0142902
877.985	0.0142290
878.063	0.0141979
878.141	0.0142118
878.219	0.0140311
878.298	0.0139878
878.376	0.0139478
878.454	0.0141758
878.532	0.0141032
878.610	0.0141007
878.688	0.0142216
878.766	0.0140028
878.844	0.0140536
878.923	0.0140476
879.001	0.0140405
879.079	0.0140503
879.157	0.0141196
879.235	0.0140445
879.313	0.0142014
879.391	0.0141322
879.469	0.0142315
879.548	0.0141863
879.626	0.0141904
879.704	0.0142339
879.782	0.0142373
879.860	0.0142862
879.938	0.0143328
880.016	0.0143343
880.094	0.0143673
880.173	0.0145300
880.251	0.0144251
880.329	0.0145890
880.407	0.0145964
880.485	0.0146646
880.563	0.0147949
880.641	0.0148737
880.719	0.0148461
880.798	0.0149108
880.876	0.0149761
880.954	0.0149461
881.032	0.0148497
881.110	0.0148365
881.188	0.0147168
881.266	0.0149198
881.344	0.0148845
881.423	0.0148743
881.501	0.0147722
881.579	0.0147450
881.657	0.0146207
881.735	0.0146590
881.813	0.0146958
881.891	0.0146629
881.969	0.0146078
882.048	0.0144286
882.126	0.0144653
882.204	0.0143824
882.282	0.0143500
882.360	0.0143436
882.438	0.0142645
882.516	0.0142135
882.594	0.0139340
882.673	0.0139292
882.751	0.0140274
882.829	0.0140504
882.907	0.0140485
882.985	0.0139339
883.063	0.0138222
883.141	0.0140841
883.219	0.0141373
883.298	0.0140474
883.376	0.0140865
883.454	0.0143080
883.532	0.0142352
883.610	0.0142387
883.688	0.0144178
883.766	0.0144584
883.844	0.0145423
883.923	0.0145081
884.001	0.0144936
884.079	0.0145603
884.157	0.0146808
884.235	0.0145055
884.313	0.0147062
884.391	0.0147362
884.469	0.0147766
884.548	0.0146334
884.626	0.0145830
884.704	0.0147878
884.782	0.0146349
884.860	0.0146217
884.938	0.0146075
885.016	0.0145182
885.094	0.0144538
885.173	0.0143717
885.251	0.0143913
885.329	0.0143000
885.407	0.0144584
885.485	0.0142585
885.563	0.0143750
885.641	0.0142864
885.719	0.0142345
885.798	0.0142951
885.876	0.0142556
885.954	0.0142880
886.032	0.0141743
886.110	0.0141897
886.188	0.0142661
886.266	0.0142113
886.344	0.0142313
886.423	0.0142759
886.501	0.0144144
886.579	0.0143307
886.657	0.0145061
886.735	0.0144605
886.813	0.0144017
886.891	0.0143825
886.969	0.0147049
887.048	0.0145496
887.126	0.0144933
887.204	0.0145095
887.282	0.0147263
887.360	0.0147939
887.438	0.0149377
887.516	0.0148648
887.594	0.0147897
887.673	0.0146733
887.751	0.0148820
887.829	0.0148418
887.907	0.0147710
887.985	0.0148717
888.063	0.0148218
888.141	0.0148759
888.219	0.0148708
888.298	0.0148594
888.376	0.0146691
888.454	0.0146761
888.532	0.0146191
888.610	0.0145630
888.688	0.0144062
888.766	0.0144047
888.844	0.0143505
888.923	0.0141198
889.001	0.0140038
889.079	0.0138564
889.157	0.0138784
889.235	0.0137968
889.313	0.0137470
889.391	0.0138151
889.469	0.0137926
889.548	0.0139820
889.626	0.0139529
889.704	0.0142188
889.782	0.0142331
889.860	0.0143350
889.938	0.0144551
890.016	0.0145493
890.094	0.0145625
890.173	0.0145368
890.251	0.0145767
890.329	0.0144444
890.407	0.0144047
890.485	0.0142997
890.563	0.0143220
890.641	0.0143198
890.719	0.0142887
890.798	0.0144816
890.876	0.0144408
890.954	0.0145955
891.032	0.0145248
891.110	0.0145393
891.188	0.0145913
891.266	0.0146674
891.344	0.0146844
891.423	0.0149384
891.501	0.0147229
891.579	0.0148227
891.657	0.0148625
891.735	0.0149014
891.813	0.0148003
891.891	0.0147977
891.969	0.0147353
892.048	0.0147739
892.126	0.0147755
892.204	0.0148061
892.282	0.0148581
892.360	0.0148919
892.438	0.0146569
892.516	0.0148710
892.594	0.0148280
892.673	0.0146176
892.751	0.0147677
892.829	0.0144838
892.907	0.0144326
892.985	0.0144067
893.063	0.0142137
893.141	0.0140978
893.219	0.0139991
893.298	0.0139544
893.376	0.0138396
893.454	0.0136924
893.532	0.0137904
893.610	0.0137823
893.688	0.0137544
893.766	0.0137680
893.844	0.0137232
893.923	0.0138872
894.001	0.0139595
894.079	0.0141299
894.157	0.0141006
894.235	0.0141599
894.313	0.0141966
894.391	0.0144228
894.469	0.0143716
894.548	0.0144237
894.626	0.0144868
894.704	0.0145847
894.782	0.0146680
894.860	0.0146610
894.938	0.0146339
895.016	0.0146007
895.094	0.0145872
895.173	0.0147187
895.251	0.0148013
895.329	0.0145238
895.407	0.0145566
895.485	0.0144775
895.563	0.0146490
895.641	0.0145358
895.719	0.0144671
895.798	0.0145864
895.876	0.0146188
895.954	0.0145399
896.032	0.0148177
896.110	0.0148079
896.188	0.0147693
896.266	0.0146632
896.344	0.0147880
896.423	0.0148140
896.501	0.0149542
896.579	0.0147969
896.657	0.0147131
896.735	0.0148551
896.813	0.0149661
896.891	0.0148397
896.969	0.0147247
897.048	0.0148533
897.126	0.0148016
897.204	0.0147976
897.282	0.0145699
897.360	0.0145823
897.438	0.0145972
897.516	0.0144083
897.594	0.0143369
897.673	0.0141238
897.751	0.0139716
897.829	0.0139017
897.907	0.0138080
897.985	0.0136784
898.063	0.0137093
898.141	0.0135960
898.219	0.0137158
898.298	0.0136574
898.376	0.0136341
898.454	0.0136298
898.532	0.0136907
898.610	0.0139034
898.688	0.0139145
898.766	0.0141716
898.844	0.0141103
898.923	0.0141979
899.001	0.0145273
899.079	0.0145896
899.157	0.0145193
899.235	0.0147984
899.313	0.0147405
899.391	0.0147907
899.469	0.0149011
899.548	0.0147478
899.626	0.0147904
899.704	0.0148065
899.782	0.0146873
899.860	0.0147469
899.938	0.0148544
900.016	0.0147762
900.094	0.0147004
900.173	0.0147053
900.251	0.0148492
900.329	0.0147437
900.407	0.0147100
900.485	0.0147516
900.563	0.0147485
900.641	0.0147466
900.719	0.0146182
900.798	0.0147483
900.876	0.0146033
900.954	0.0146939
901.032	0.0145959
901.110	0.0145708
901.188	0.0144617
901.266	0.0144635
901.344	0.0144705
901.423	0.0143364
901.501	0.0143908
901.579	0.0143295
901.657	0.0142548
901.735	0.0142126
901.813	0.0143008
901.891	0.0142146
901.969	0.0143377
902.048	0.0143273
902.126	0.0143358
902.204	0.0142253
902.282	0.0142988
902.360	0.0143523
902.438	0.0142210
902.516	0.0143296
902.594	0.0141727
902.673	0.0141372
902.751	0.0142217
902.829	0.0143391
902.907	0.0142555
902.985	0.0143078
903.063	0.0144891
903.141	0.0144746
903.219	0.0144091
903.298	0.0145410
903.376	0.0145580
903.454	0.0145618
903.532	0.0146092
903.610	0.0148821
903.688	0.0148455
903.766	0.0148103
903.844	0.0147528
903.923	0.0147742
904.001	0.0147923
904.079	0.0147588
904.157	0.0147279
904.235	0.0148224
904.313	0.0147413
904.391	0.0146465
904.469	0.0145259
904.548	0.0145069
904.626	0.0144704
904.704	0.0146127
904.782	0.0145869
904.860	0.0144305
904.938	0.0145883
905.016	0.0143657
905.094	0.0143871
905.173	0.0144481
905.251	0.0143799
905.329	0.0141681
905.407	0.0142417
905.485	0.0141719
905.563	0.0141656
905.641	0.0141379
905.719	0.0141519
905.798	0.0140098
905.876	0.0140272
905.954	0.0140191
906.032	0.0141373
906.110	0.0140652
906.188	0.0141145
906.266	0.0141077
906.344	0.0141398
906.423	0.0141484
906.501	0.0143457
906.579	0.0141956
906.657	0.0143648
906.735	0.0144236
906.813	0.0144559
906.891	0.0145313
906.969	0.0145090
907.048	0.0145195
907.126	0.0146994
907.204	0.0148464
907.282	0.0145613
907.360	0.0146463
907.438	0.0147751
907.516	0.0149332
907.594	0.0149158
907.673	0.0149580
907.751	0.0149390
907.829	0.0148911
907.907	0.0148901
907.985	0.0149484
908.063	0.0149716
908.141	0.0149571
908.219	0.0147769
908.298	0.0147934
908.376	0.0147104
908.454	0.0148020
908.532	0.0144991
908.610	0.0144168
908.688	0.0144649
908.766	0.0144599
908.844	0.0144520
908.923	0.0143291
909.001	0.0143423
909.079	0.0141492
909.157	0.0142086
909.235	0.0143304
909.313	0.0141431
909.391	0.0141378
909.469	0.0143451
909.548	0.0141830
909.626	0.0142371
909.704	0.0141390
909.782	0.0142518
909.860	0.0142718
909.938	0.0141206
910.016	0.0143559
910.094	0.0143708
910.173	0.0142146
910.251	0.0142584
910.329	0.0142926
910.407	0.0143202
910.485	0.0143420
910.563	0.0142876
910.641	0.0144151
910.719	0.0145946
910.798	0.0144153
910.876	0.0145308
910.954	0.0145657
911.032	0.0146600
911.110	0.0144382
911.188	0.0145126
911.266	0.0146085
911.344	0.0145116
911.423	0.0145752
911.501	0.0145895
911.579	0.0146339
911.657	0.0146477
911.735	0.0146222
911.813	0.0146503
911.891	0.0147591
911.969	0.0147735
912.048	0.0146935
912.126	0.0147949
912.204	0.0146607
912.282	0.0147100
912.360	0.0147240
912.438	0.0149110
912.516	0.0146794
912.594	0.0148442
912.673	0.0148687
912.751	0.0148186
912.829	0.0147585
912.907	0.0145990
912.985	0.0146962
913.063	0.0146043
913.141	0.0145369
913.219	0.0145414
913.298	0.0144794
913.376	0.0144736
913.454	0.0142976
913.532	0.0142591
913.610	0.0141958
913.688	0.0143394
913.766	0.0142741
913.844	0.0143959
913.923	0.0141729
914.001	0.0143083
914.079	0.0143063
914.157	0.0142548
914.235	0.0143686
914.313	0.0142117
914.391	0.0141416
914.469	0.0142986
914.548	0.0141098
914.626	0.0142798
914.704	0.0142908
914.782	0.0143599
914.860	0.0142071
914.938	0.0142452
915.016	0.0143540
915.094	0.0144251
915.173	0.0142049
915.251	0.0143478
915.329	0.0145087
915.407	0.0144077
915.485	0.0144460
915.563	0.0146468
915.641	0.0145913
915.719	0.0145187
915.798	0.0145576
915.876	0.0145695
915.954	0.0146205
916.032	0.0145218
916.110	0.0145655
916.188	0.0146387
916.266	0.0145251
916.344	0.0145470
916.423	0.0145287
916.501	0.0145369
916.579	0.0144814
916.657	0.0146681
916.735	0.0145189
916.813	0.0145667
916.891	0.0144107
916.969	0.0145428
917.048	0.0144221
917.126	0.0144201
917.204	0.0144051
917.282	0.0145357
917.360	0.0144574
917.438	0.0145641
917.516	0.0146883
917.594	0.0144846
917.673	0.0144681
917.751	0.0145293
917.829	0.0144340
917.907	0.0144196
917.985	0.0144428
918.063	0.0144224
918.141	0.0143343
918.219	0.0145406
918.298	0.0144244
918.376	0.0143865
918.454	0.0145108
918.532	0.0143592
918.610	0.0143403
918.688	0.0143852
918.766	0.0142457
918.844	0.0142841
918.923	0.0142207
919.001	0.0141192
919.079	0.0142848
919.157	0.0141807
919.235	0.0142086
919.313	0.0141004
919.391	0.0141463
919.469	0.0142374
919.548	0.0142317
919.626	0.0142371
919.704	0.0142432
919.782	0.0141723
919.860	0.0143069
919.938	0.0143896
920.016	0.0144226
920.094	0.0144293
920.173	0.0144233
920.251	0.0145222
920.329	0.0145876
920.407	0.0147317
920.485	0.0146194
920.563	0.0146529
920.641	0.0147563
920.719	0.0147189
920.798	0.0145795
920.876	0.0146453
920.954	0.0146652
921.032	0.0145652
921.110	0.0146410
921.188	0.0145876
921.266	0.0146687
921.344	0.0145607
921.423	0.0145869
921.501	0.0145882
921.579	0.0144560
921.657	0.0144722
921.735	0.0142982
921.813	0.0142970
921.891	0.0142852
921.969	0.0143223
922.048	0.0142801
922.126	0.0143059
922.204	0.0141333
922.282	0.0140450
922.360	0.0141560
922.438	0.0142648
922.516	0.0143332
922.594	0.0143893
922.673	0.0141150
922.751	0.0143015
922.829	0.0143944
922.907	0.0143384
922.985	0.0143806
923.063	0.0143858
923.141	0.0143439
923.219	0.0143438
923.298	0.0144636
923.376	0.0143509
923.454	0.0145312
923.532	0.0143961
923.610	0.0143293
923.688	0.0144061
923.766	0.0144910
923.844	0.0144930
923.923	0.0146847
924.001	0.0147009
924.079	0.0145150
924.157	0.0144544
924.235	0.0146241
924.313	0.0145065
924.391	0.0144646
924.469	0.0145372
924.548	0.0146462
924.626	0.0146377
924.704	0.0145972
924.782	0.0146908
924.860	0.0146059
924.938	0.0146770
925.016	0.0148251
925.094	0.0146819
925.173	0.0146147
925.251	0.0146906
925.329	0.0146645
925.407	0.0147442
925.485	0.0144690
925.563	0.0146199
925.641	0.0145667
925.719	0.0145752
925.798	0.0146439
925.876	0.0145308
925.954	0.0146082
926.032	0.0143958
926.110	0.0145537
926.188	0.0146271
926.266	0.0145506
926.344	0.0146207
926.423	0.0144920
926.501	0.0146377
926.579	0.0145776
926.657	0.0145931
926.735	0.0144363
926.813	0.0144541
926.891	0.0146073
926.969	0.0144542
927.048	0.0143520
927.126	0.0143613
927.204	0.0143278
927.282	0.0143797
927.360	0.0143373
927.438	0.0143290
927.516	0.0142717
927.594	0.0143456
927.673	0.0141972
927.751	0.0142256
927.829	0.0141225
927.907	0.0142924
927.985	0.0142652
928.063	0.0143211
928.141	0.0142843
928.219	0.0141948
928.298	0.0142352
928.376	0.0142294
928.454	0.0141583
928.532	0.0143082
928.610	0.0142876
928.688	0.0143404
928.766	0.0144531
928.844	0.0144331
928.923	0.0145010
929.001	0.0146242
929.079	0.0145588
929.157	0.0146033
929.235	0.0146594
929.313	0.0146793
929.391	0.0146582
929.469	0.0145914
929.548	0.0147964
929.626	0.0147225
929.704	0.0147494
929.782	0.0145828
929.860	0.0146436
929.938	0.0147617
930.016	0.0148831
930.094	0.0146405
930.173	0.0146564
930.251	0.0145840
930.329	0.0146523
930.407	0.0146448
930.485	0.0146333
930.563	0.0146278
930.641	0.0146458
930.719	0.0146626
930.798	0.0145040
930.876	0.0145811
930.954	0.0147453
931.032	0.0146815
931.110	0.0145834
931.188	0.0147066
931.266	0.0146387
931.344	0.0145816
931.423	0.0147292
931.501	0.0146002
931.579	0.0145900
931.657	0.0145225
931.735	0.0144374
931.813	0.0146159
931.891	0.0142873
931.969	0.0143926
932.048	0.0142397
932.126	0.0141062
932.204	0.0142095
932.282	0.0143029
932.360	0.0141675
932.438	0.0140771
932.516	0.0140051
932.594	0.0141023
932.673	0.0141073
932.751	0.0140444
932.829	0.0140105
932.907	0.0140232
932.985	0.0141044
933.063	0.0141348
933.141	0.0141196
933.219	0.0141709
933.298	0.0142260
933.376	0.0142532
933.454	0.0143840
933.532	0.0142860
933.610	0.0144231
933.688	0.0146010
933.766	0.0146381
933.844	0.0146077
933.923	0.0147156
934.001	0.0147686
934.079	0.0147538
934.157	0.0147581
934.235	0.0147701
934.313	0.0147817
934.391	0.0148679
934.469	0.0147721
934.548	0.0148618
934.626	0.0147639
934.704	0.0149323
934.782	0.0147997
934.860	0.0148466
934.938	0.0146498
935.016	0.0145724
935.094	0.0147182
935.173	0.0146978
935.251	0.0146873
935.329	0.0146448
935.407	0.0145644
935.485	0.0146152
935.563	0.0146436
935.641	0.0146159
935.719	0.0144285
935.798	0.0146367
935.876	0.0145406
935.954	0.0144119
936.032	0.0146217
936.110	0.0143987
936.188	0.0143897
936.266	0.0143851
936.344	0.0143523
936.423	0.0142701
936.501	0.0142377
936.579	0.0143866
936.657	0.0142583
936.735	0.0142407
936.813	0.0141409
936.891	0.0142461
936.969	0.0140505
937.048	0.0140974
937.126	0.0140896
937.204	0.0140092
937.282	0.0141129
937.360	0.0140326
937.438	0.0140902
937.516	0.0138795
937.594	0.0139848
937.673	0.0139545
937.751	0.0141148
937.829	0.0141012
937.907	0.0139703
937.985	0.0141891
938.063	0.0142957
938.141	0.0142316
938.219	0.0143022
938.298	0.0142832
938.376	0.0142871
938.454	0.0143759
938.532	0.0145318
938.610	0.0145909
938.688	0.0144600
938.766	0.0145621
938.844	0.0147126
938.923	0.0146800
939.001	0.0148206
939.079	0.0148780
939.157	0.0147964
939.235	0.0147927
939.313	0.0149575
939.391	0.0147805
939.469	0.0149174
939.548	0.0149519
939.626	0.0149198
939.704	0.0148226
939.782	0.0148603
939.860	0.0149097
939.938	0.0147439
940.016	0.0146947
940.094	0.0148579
940.173	0.0147218
940.251	0.0145814
940.329	0.0145301
940.407	0.0146354
940.485	0.0146381
940.563	0.0144327
940.641	0.0143541
940.719	0.0143982
940.798	0.0142957
940.876	0.0141621
940.954	0.0142386
941.032	0.0142678
941.110	0.0143736
941.188	0.0141501
941.266	0.0144550
941.344	0.0141998
941.423	0.0141154
941.501	0.0140982
941.579	0.0142342
941.657	0.0140736
941.735	0.0141627
941.813	0.0140738
941.891	0.0141312
941.969	0.0139928
942.048	0.0141396
942.126	0.0143031
942.204	0.0141689
942.282	0.0142760
942.360	0.0142849
942.438	0.0143652
942.516	0.0144785
942.594	0.0145854
942.673	0.0143796
942.751	0.0144565
942.829	0.0146439
942.907	0.0144952
942.985	0.0145476
943.063	0.0146788
943.141	0.0146871
943.219	0.0146334
943.298	0.0145339
943.376	0.0145974
943.454	0.0145922
943.532	0.0144099
943.610	0.0145376
943.688	0.0146530
943.766	0.0147122
943.844	0.0147344
943.923	0.0145693
944.001	0.0145456
944.079	0.0146560
944.157	0.0145723
944.235	0.0146146
944.313	0.0145054
944.391	0.0144585
944.469	0.0144421
944.548	0.0145354
944.626	0.0144715
944.704	0.0144968
944.782	0.0143996
944.860	0.0144365
944.938	0.0144553
945.016	0.0144526
945.094	0.0142746
945.173	0.0142837
945.251	0.0143067
945.329	0.0142488
945.407	0.0143560
945.485	0.0143068
945.563	0.0142805
945.641	0.0141588
945.719	0.0143341
945.798	0.0142372
945.876	0.0142069
945.954	0.0143771
946.032	0.0141286
946.110	0.0141872
946.188	0.0141778
946.266	0.0143217
946.344	0.0143042
946.423	0.0142895
946.501	0.0143608
946.579	0.0145509
946.657	0.0143767
946.735	0.0144590
946.813	0.0144907
946.891	0.0145476
946.969	0.0146223
947.048	0.0146178
947.126	0.0145792
947.204	0.0146125
947.282	0.0144708
947.360	0.0146857
947.438	0.0145594
947.516	0.0144804
947.594	0.0145235
947.673	0.0145100
947.751	0.0146577
947.829	0.0145904
947.907	0.0146062
947.985	0.0144645
948.063	0.0145886
948.141	0.0144951
948.219	0.0145048
948.298	0.0144572
948.376	0.0144021
948.454	0.0144718
948.532	0.0145564
948.610	0.0144547
948.688	0.0145089
948.766	0.0145988
948.844	0.0144097
948.923	0.0143159
949.001	0.0144173
949.079	0.0143159
949.157	0.0145525
949.235	0.0145186
949.313	0.0144591
949.391	0.0145617
949.469	0.0144781
949.548	0.0142469
949.626	0.0142612
949.704	0.0143237
949.782	0.0143790
949.860	0.0144236
949.938	0.0144717
950.016	0.0145224
950.094	0.0144448
950.173	0.0144248
950.251	0.0145065
950.329	0.0144499
950.407	0.0144728
950.485	0.0144338
950.563	0.0145857
950.641	0.0146035
950.719	0.0144252
950.798	0.0145818
950.876	0.0145142
950.954	0.0144677
951.032	0.0143404
951.110	0.0145328
951.188	0.0144666
951.266	0.0144630
951.344	0.0143922
951.423	0.0144556
951.501	0.0144941
951.579	0.0145147
951.657	0.0143561
951.735	0.0142979
951.813	0.0143052
951.891	0.0144930
951.969	0.0144013
952.048	0.0144467
952.126	0.0144405
952.204	0.0145079
952.282	0.0144467
952.360	0.0143610
952.438	0.0143543
952.516	0.0144570
952.594	0.0144397
952.673	0.0145476
952.751	0.0143562
952.829	0.0143798
952.907	0.0142951
952.985	0.0143980
953.063	0.0142771
953.141	0.0144536
953.219	0.0143811
953.298	0.0144675
953.376	0.0144859
953.454	0.0144617
953.532	0.0144161
953.610	0.0144273
953.688	0.0145119
953.766	0.0143913
953.844	0.0143797
953.923	0.0145204
954.001	0.0145569
954.079	0.0144133
954.157	0.0143202
954.235	0.0143224
954.313	0.0144704
954.391	0.0144172
954.469	0.0143095
954.548	0.0143890
954.626	0.0144488
954.704	0.0145210
954.782	0.0144882
954.860	0.0144685
954.938	0.0145103
955.016	0.0146190
955.094	0.0146341
955.173	0.0144889
955.251	0.0144992
955.329	0.0146300
955.407	0.0147009
955.485	0.0146615
955.563	0.0145670
955.641	0.0145686
955.719	0.0146546
955.798	0.0145591
955.876	0.0146127
955.954	0.0144776
956.032	0.0144839
956.110	0.0144814
956.188	0.0143758
956.266	0.0144597
956.344	0.0144012
956.423	0.0144648
956.501	0.0143139
956.579	0.0143142
956.657	0.0143597
956.735	0.0143890
956.813	0.0142670
956.891	0.0142179
956.969	0.0143243
957.048	0.0141866
957.126	0.0143324
957.204	0.0143261
957.282	0.0143873
957.360	0.0143044
957.438	0.0143844
957.516	0.0142995
957.594	0.0143204
957.673	0.0143010
957.751	0.0143732
957.829	0.0144451
957.907	0.0144942
957.985	0.0144358
958.063	0.0144609
958.141	0.0144275
958.219	0.0144651
958.298	0.0143778
958.376	0.0144489
958.454	0.0143983
958.532	0.0143304
958.610	0.0144681
958.688	0.0144550
958.766	0.0143618
958.844	0.0143231
958.923	0.0142592
959.001	0.0144373
959.079	0.0144309
959.157	0.0143857
959.235	0.0143608
959.313	0.0145155
959.391	0.0145028
959.469	0.0144044
959.548	0.0143982
959.626	0.0144470
959.704	0.0144065
959.782	0.0144283
959.860	0.0145593
959.938	0.0145756
960.016	0.0146103
960.094	0.0148064
960.173	0.0146413
960.251	0.0146396
960.329	0.0146421
960.407	0.0147166
960.485	0.0146304
960.563	0.0147154
960.641	0.0147340
960.719	0.0145914
960.798	0.0146313
960.876	0.0144226
960.954	0.0143830
961.032	0.0145045
961.110	0.0144817
961.188	0.0144064
961.266	0.0143609
961.344	0.0143258
961.423	0.0142210
961.501	0.0142541
961.579	0.0142931
961.657	0.0141998
961.735	0.0143481
961.813	0.0144532
961.891	0.0143140
961.969	0.0144848
962.048	0.0146003
962.126	0.0145084
962.204	0.0144301
962.282	0.0145132
962.360	0.0144680
962.438	0.0143657
962.516	0.0145042
962.594	0.0145432
962.673	0.0144653
962.751	0.0145584
962.829	0.0144390
962.907	0.0143693
962.985	0.0143850
963.063	0.0144831
963.141	0.0145057
963.219	0.0145534
963.298	0.0145020
963.376	0.0143909
963.454	0.0144611
963.532	0.0144655
963.610	0.0144308
963.688	0.0144720
963.766	0.0144559
963.844	0.0143472
963.923	0.0143714
964.001	0.0144111
964.079	0.0142633
964.157	0.0142397
964.235	0.0142814
964.313	0.0143177
964.391	0.0143760
964.469	0.0143045
964.548	0.0143210
964.626	0.0143233
964.704	0.0142700
964.782	0.0142998
964.860	0.0144016
964.938	0.0144377
965.016	0.0144401
965.094	0.0143740
965.173	0.0146074
965.251	0.0145876
965.329	0.0146558
965.407	0.0145485
965.485	0.0145649
965.563	0.0147295
965.641	0.0146260
965.719	0.0146337
965.798	0.0147980
965.876	0.0147165
965.954	0.0146535
966.032	0.0146395
966.110	0.0146767
966.188	0.0145779
966.266	0.0146211
966.344	0.0145581
966.423	0.0146718
966.501	0.0145757
966.579	0.0144686
966.657	0.0145035
966.735	0.0145298
966.813	0.0146166
966.891	0.0144395
966.969	0.0146081
967.048	0.0145685
967.126	0.0145637
967.204	0.0145201
967.282	0.0146510
967.360	0.0145515
967.438	0.0145365
967.516	0.0145207
967.594	0.0145312
967.673	0.0145635
967.751	0.0145317
967.829	0.0145413
967.907	0.0144793
967.985	0.0145073
968.063	0.0144048
968.141	0.0142851
968.219	0.0143923
968.298	0.0142698
968.376	0.0142641
968.454	0.0142462
968.532	0.0143193
968.610	0.0142818
968.688	0.0142529
968.766	0.0141970
968.844	0.0141717
968.923	0.0141939
969.001	0.0141866
969.079	0.0141877
969.157	0.0142786
969.235	0.0141735
969.313	0.0142363
969.391	0.0143336
969.469	0.0143234
969.548	0.0142654
969.626	0.0143496
969.704	0.0143199
969.782	0.0144485
969.860	0.0142862
969.938	0.0144573
