05/14/2022	19:17:15	Ver.	4.1	UNKNOWN
Optical Delay	650.016352	Delta X		0.078125	Sweeps	1	Scan Rate	0/0
Coordinates	Axis 1	NaN	Axis 2	NaN	Axis 3	NaN	Axis 4	NaN	Axis 5	NaN	Axis 6	0.000000
TX Power	0.000000	RX Power	0.000000

650.016	0.0141448
650.094	0.0142296
650.173	0.0142239
650.251	0.0140457
650.329	0.0140469
650.407	0.0140162
650.485	0.0141689
650.563	0.0141353
650.641	0.0141328
650.719	0.0142010
650.798	0.0143144
650.876	0.0139725
650.954	0.0140588
651.032	0.0142370
651.110	0.0139832
651.188	0.0141114
651.266	0.0141697
651.344	0.0141660
651.423	0.0141370
651.501	0.0140409
651.579	0.0142480
651.657	0.0140791
651.735	0.0141527
651.813	0.0141279
651.891	0.0140503
651.969	0.0141421
652.048	0.0140826
652.126	0.0141478
652.204	0.0141312
652.282	0.0141299
652.360	0.0141077
652.438	0.0142249
652.516	0.0141689
652.594	0.0140412
652.673	0.0141102
652.751	0.0141971
652.829	0.0141407
652.907	0.0141873
652.985	0.0143003
653.063	0.0142529
653.141	0.0141525
653.219	0.0141171
653.298	0.0141247
653.376	0.0142062
653.454	0.0140912
653.532	0.0140535
653.610	0.0141479
653.688	0.0141969
653.766	0.0140424
653.844	0.0141086
653.923	0.0142394
654.001	0.0141689
654.079	0.0141633
654.157	0.0141169
654.235	0.0141183
654.313	0.0140358
654.391	0.0141871
654.469	0.0142101
654.548	0.0140807
654.626	0.0140609
654.704	0.0142549
654.782	0.0140623
654.860	0.0139978
654.938	0.0141315
655.016	0.0141619
655.094	0.0140939
655.173	0.0141743
655.251	0.0141312
655.329	0.0141183
655.407	0.0141523
655.485	0.0141232
655.563	0.0140922
655.641	0.0141502
655.719	0.0142883
655.798	0.0142730
655.876	0.0141329
655.954	0.0141557
656.032	0.0142605
656.110	0.0142097
656.188	0.0141206
656.266	0.0142326
656.344	0.0140928
656.423	0.0141624
656.501	0.0140106
656.579	0.0141566
656.657	0.0141056
656.735	0.0141623
656.813	0.0142182
656.891	0.0142191
656.969	0.0139923
657.048	0.0141283
657.126	0.0141388
657.204	0.0140943
657.282	0.0141899
657.360	0.0141101
657.438	0.0141108
657.516	0.0140593
657.594	0.0140796
657.673	0.0141587
657.751	0.0142081
657.829	0.0141227
657.907	0.0140889
657.985	0.0141021
658.063	0.0141319
658.141	0.0141509
658.219	0.0141552
658.298	0.0141397
658.376	0.0141481
658.454	0.0140493
658.532	0.0141465
658.610	0.0143197
658.688	0.0142525
658.766	0.0142203
658.844	0.0140236
658.923	0.0140923
659.001	0.0140892
659.079	0.0141738
659.157	0.0141650
659.235	0.0141433
659.313	0.0141351
659.391	0.0140955
659.469	0.0141184
659.548	0.0141534
659.626	0.0141010
659.704	0.0142105
659.782	0.0142360
659.860	0.0140112
659.938	0.0140434
660.016	0.0140530
660.094	0.0141123
660.173	0.0141615
660.251	0.0141055
660.329	0.0140211
660.407	0.0140825
660.485	0.0141586
660.563	0.0141994
660.641	0.0143380
660.719	0.0140922
660.798	0.0140392
660.876	0.0140376
660.954	0.0140539
661.032	0.0140543
661.110	0.0140727
661.188	0.0141086
661.266	0.0140073
661.344	0.0140791
661.423	0.0141045
661.501	0.0141970
661.579	0.0141000
661.657	0.0140326
661.735	0.0140893
661.813	0.0141953
661.891	0.0140007
661.969	0.0141123
662.048	0.0140697
662.126	0.0141325
662.204	0.0142432
662.282	0.0141032
662.360	0.0141288
662.438	0.0141924
662.516	0.0140549
662.594	0.0139008
662.673	0.0141537
662.751	0.0141554
662.829	0.0142217
662.907	0.0141136
662.985	0.0140566
663.063	0.0140464
663.141	0.0140813
663.219	0.0141175
663.298	0.0140949
663.376	0.0141496
663.454	0.0140961
663.532	0.0140836
663.610	0.0141438
663.688	0.0139205
663.766	0.0140076
663.844	0.0141035
663.923	0.0141041
664.001	0.0140981
664.079	0.0141439
664.157	0.0141235
664.235	0.0141924
664.313	0.0141983
664.391	0.0141525
664.469	0.0141355
664.548	0.0142732
664.626	0.0142671
664.704	0.0140575
664.782	0.0140753
664.860	0.0140072
664.938	0.0140951
665.016	0.0141409
665.094	0.0141667
665.173	0.0141954
665.251	0.0142747
665.329	0.0139796
665.407	0.0141077
665.485	0.0140891
665.563	0.0141721
665.641	0.0141187
665.719	0.0142294
665.798	0.0141937
665.876	0.0141626
665.954	0.0142126
666.032	0.0141016
666.110	0.0141251
666.188	0.0140870
666.266	0.0141496
666.344	0.0141888
666.423	0.0142584
666.501	0.0141949
666.579	0.0141204
666.657	0.0142459
666.735	0.0141514
666.813	0.0140723
666.891	0.0141960
666.969	0.0140202
667.048	0.0141435
667.126	0.0140848
667.204	0.0140080
667.282	0.0141695
667.360	0.0142249
667.438	0.0141446
667.516	0.0142017
667.594	0.0140392
667.673	0.0141006
667.751	0.0139941
667.829	0.0140466
667.907	0.0142770
667.985	0.0140887
668.063	0.0141322
668.141	0.0140457
668.219	0.0140392
668.298	0.0140958
668.376	0.0141956
668.454	0.0140881
668.532	0.0141441
668.610	0.0140781
668.688	0.0141249
668.766	0.0140305
668.844	0.0140746
668.923	0.0141808
669.001	0.0142072
669.079	0.0141244
669.157	0.0142736
669.235	0.0140584
669.313	0.0142668
669.391	0.0141984
669.469	0.0140142
669.548	0.0139333
669.626	0.0142748
669.704	0.0140143
669.782	0.0140205
669.860	0.0141081
669.938	0.0140894
670.016	0.0141976
670.094	0.0141064
670.173	0.0140778
670.251	0.0141927
670.329	0.0140958
670.407	0.0141299
670.485	0.0141905
670.563	0.0141343
670.641	0.0140836
670.719	0.0141370
670.798	0.0141104
670.876	0.0141506
670.954	0.0142236
671.032	0.0142297
671.110	0.0142213
671.188	0.0140866
671.266	0.0140852
671.344	0.0141417
671.423	0.0141703
671.501	0.0141469
671.579	0.0141580
671.657	0.0140691
671.735	0.0140129
671.813	0.0142212
671.891	0.0140005
671.969	0.0139593
672.048	0.0141853
672.126	0.0141275
672.204	0.0141679
672.282	0.0140490
672.360	0.0141016
672.438	0.0141154
672.516	0.0141459
672.594	0.0140546
672.673	0.0141747
672.751	0.0142574
672.829	0.0141460
672.907	0.0140865
672.985	0.0141165
673.063	0.0141119
673.141	0.0140611
673.219	0.0140669
673.298	0.0141995
673.376	0.0141453
673.454	0.0141422
673.532	0.0140826
673.610	0.0141360
673.688	0.0141460
673.766	0.0141741
673.844	0.0141954
673.923	0.0140484
674.001	0.0140926
674.079	0.0141439
674.157	0.0141914
674.235	0.0141486
674.313	0.0141334
674.391	0.0139428
674.469	0.0141239
674.548	0.0140556
674.626	0.0140516
674.704	0.0141685
674.782	0.0140609
674.860	0.0140560
674.938	0.0141454
675.016	0.0140594
675.094	0.0141058
675.173	0.0140733
675.251	0.0141430
675.329	0.0139849
675.407	0.0140685
675.485	0.0142091
675.563	0.0140983
675.641	0.0140876
675.719	0.0140223
675.798	0.0141985
675.876	0.0141840
675.954	0.0139935
676.032	0.0141756
676.110	0.0142311
676.188	0.0141194
676.266	0.0140371
676.344	0.0142229
676.423	0.0140833
676.501	0.0140795
676.579	0.0141659
676.657	0.0140261
676.735	0.0141901
676.813	0.0141045
676.891	0.0140843
676.969	0.0140582
677.048	0.0140588
677.126	0.0140597
677.204	0.0140750
677.282	0.0141067
677.360	0.0140047
677.438	0.0140863
677.516	0.0140836
677.594	0.0140331
677.673	0.0141405
677.751	0.0140620
677.829	0.0140265
677.907	0.0140536
677.985	0.0140918
678.063	0.0140771
678.141	0.0139851
678.219	0.0140061
678.298	0.0140336
678.376	0.0141324
678.454	0.0140781
678.532	0.0141167
678.610	0.0140339
678.688	0.0140929
678.766	0.0141651
678.844	0.0141925
678.923	0.0141104
679.001	0.0142276
679.079	0.0140564
679.157	0.0140202
679.235	0.0141162
679.313	0.0141666
679.391	0.0143456
679.469	0.0142134
679.548	0.0141750
679.626	0.0141129
679.704	0.0141923
679.782	0.0141441
679.860	0.0141785
679.938	0.0141300
680.016	0.0141330
680.094	0.0141180
680.173	0.0140793
680.251	0.0139507
680.329	0.0139420
680.407	0.0139338
680.485	0.0140231
680.563	0.0141227
680.641	0.0141181
680.719	0.0141472
680.798	0.0142141
680.876	0.0143079
680.954	0.0143768
681.032	0.0143157
681.110	0.0144154
681.188	0.0143252
681.266	0.0142651
681.344	0.0141803
681.423	0.0142921
681.501	0.0139389
681.579	0.0140790
681.657	0.0139109
681.735	0.0138955
681.813	0.0137782
681.891	0.0137015
681.969	0.0136112
682.048	0.0137767
682.126	0.0138073
682.204	0.0138306
682.282	0.0140289
682.360	0.0141090
682.438	0.0142182
682.516	0.0144587
682.594	0.0145055
682.673	0.0146087
682.751	0.0147905
682.829	0.0147809
682.907	0.0148295
682.985	0.0147652
683.063	0.0146709
683.141	0.0143578
683.219	0.0142160
683.298	0.0140621
683.376	0.0138341
683.454	0.0136330
683.532	0.0134926
683.610	0.0133465
683.688	0.0131860
683.766	0.0133147
683.844	0.0132854
683.923	0.0133106
684.001	0.0134078
684.079	0.0135294
684.157	0.0135678
684.235	0.0137283
684.313	0.0136285
684.391	0.0136373
684.469	0.0138085
684.548	0.0137678
684.626	0.0141152
684.704	0.0141619
684.782	0.0145073
684.860	0.0147994
684.938	0.0150860
685.016	0.0152105
685.094	0.0155203
685.173	0.0156609
685.251	0.0156367
685.329	0.0156331
685.407	0.0154963
685.485	0.0153091
685.563	0.0151060
685.641	0.0147886
685.719	0.0145376
685.798	0.0141348
685.876	0.0138789
685.954	0.0135645
686.032	0.0133356
686.110	0.0131460
686.188	0.0130578
686.266	0.0127905
686.344	0.0127892
686.423	0.0126596
686.501	0.0127721
686.579	0.0127222
686.657	0.0125444
686.735	0.0128669
686.813	0.0127740
686.891	0.0127560
686.969	0.0131879
687.048	0.0133217
687.126	0.0134403
687.204	0.0138087
687.282	0.0140425
687.360	0.0143348
687.438	0.0147287
687.516	0.0151172
687.594	0.0154172
687.673	0.0156944
687.751	0.0157363
687.829	0.0159737
687.907	0.0161481
687.985	0.0161056
688.063	0.0159651
688.141	0.0159330
688.219	0.0156063
688.298	0.0154974
688.376	0.0150699
688.454	0.0148557
688.532	0.0146246
688.610	0.0144366
688.688	0.0142603
688.766	0.0140275
688.844	0.0141124
688.923	0.0138431
689.001	0.0139023
689.079	0.0138337
689.157	0.0139684
689.235	0.0137506
689.313	0.0137347
689.391	0.0135764
689.469	0.0137074
689.548	0.0133866
689.626	0.0132702
689.704	0.0131647
689.782	0.0131252
689.860	0.0130403
689.938	0.0128194
690.016	0.0127750
690.094	0.0127470
690.173	0.0126131
690.251	0.0128300
690.329	0.0129588
690.407	0.0129368
690.485	0.0131363
690.563	0.0132079
690.641	0.0133851
690.719	0.0136676
690.798	0.0137746
690.876	0.0140264
690.954	0.0142455
691.032	0.0144565
691.110	0.0146122
691.188	0.0147938
691.266	0.0147346
691.344	0.0150861
691.423	0.0152094
691.501	0.0153054
691.579	0.0156597
691.657	0.0156151
691.735	0.0157939
691.813	0.0159996
691.891	0.0160979
691.969	0.0162923
692.048	0.0163795
692.126	0.0163959
692.204	0.0165013
692.282	0.0165477
692.360	0.0163702
692.438	0.0163557
692.516	0.0161419
692.594	0.0161517
692.673	0.0159189
692.751	0.0157603
692.829	0.0154722
692.907	0.0152888
692.985	0.0148603
693.063	0.0145256
693.141	0.0140310
693.219	0.0137763
693.298	0.0133968
693.376	0.0128946
693.454	0.0124935
693.532	0.0121121
693.610	0.0116029
693.688	0.0110921
693.766	0.0107603
693.844	0.0103561
693.923	0.00990616
694.001	0.00949203
694.079	0.00955345
694.157	0.00916908
694.235	0.00909248
694.313	0.00926613
694.391	0.00946846
694.469	0.00979103
694.548	0.0101941
694.626	0.0106423
694.704	0.0112712
694.782	0.0118525
694.860	0.0126127
694.938	0.0132889
695.016	0.0140737
695.094	0.0150491
695.173	0.0158570
695.251	0.0166634
695.329	0.0176315
695.407	0.0181091
695.485	0.0191756
695.563	0.0199307
695.641	0.0206037
695.719	0.0212045
695.798	0.0217436
695.876	0.0221103
695.954	0.0223726
696.032	0.0225031
696.110	0.0223576
696.188	0.0221885
696.266	0.0215771
696.344	0.0210755
696.423	0.0202306
696.501	0.0193851
696.579	0.0181567
696.657	0.0170703
696.735	0.0156944
696.813	0.0142104
696.891	0.0129776
696.969	0.0114315
697.048	0.00991394
697.126	0.00890121
697.204	0.00796753
697.282	0.00691772
697.360	0.00620972
697.438	0.00583313
697.516	0.00561066
697.594	0.00545029
697.673	0.00559052
697.751	0.00593369
697.829	0.00637360
697.907	0.00694878
697.985	0.00751259
698.063	0.00803253
698.141	0.00851433
698.219	0.00894829
698.298	0.00928116
698.376	0.00985283
698.454	0.0103224
698.532	0.0107717
698.610	0.0116524
698.688	0.0123161
698.766	0.0133665
698.844	0.0144062
698.923	0.0155505
699.001	0.0166125
699.079	0.0175701
699.157	0.0184136
699.235	0.0193355
699.313	0.0200134
699.391	0.0205054
699.469	0.0209011
699.548	0.0210988
699.626	0.0211319
699.704	0.0211148
699.782	0.0209174
699.860	0.0206361
699.938	0.0203418
700.016	0.0200854
700.094	0.0198627
700.173	0.0196642
700.251	0.0194595
700.329	0.0193401
700.407	0.0192316
700.485	0.0187872
700.563	0.0184315
700.641	0.0179910
700.719	0.0172088
700.798	0.0165322
700.876	0.0156257
700.954	0.0145100
701.032	0.0136928
701.110	0.0126125
701.188	0.0113465
701.266	0.0105672
701.344	0.00970558
701.423	0.00893784
701.501	0.00831497
701.579	0.00798050
701.657	0.00784103
701.735	0.00781395
701.813	0.00802574
701.891	0.00815117
701.969	0.00870934
702.048	0.00889091
702.126	0.00923164
702.204	0.00957779
702.282	0.00992615
702.360	0.0102635
702.438	0.0103281
702.516	0.0104305
702.594	0.0103274
702.673	0.0103671
702.751	0.0105338
702.829	0.0104276
702.907	0.0104530
702.985	0.0103339
703.063	0.0105713
703.141	0.0109158
703.219	0.0113784
703.298	0.0117626
703.376	0.0123020
703.454	0.0131062
703.532	0.0139520
703.610	0.0149677
703.688	0.0155222
703.766	0.0163163
703.844	0.0171036
703.923	0.0178373
704.001	0.0181867
704.079	0.0187653
704.157	0.0192538
704.235	0.0195670
704.313	0.0199386
704.391	0.0201258
704.469	0.0204388
704.548	0.0206625
704.626	0.0208584
704.704	0.0210480
704.782	0.0211900
704.860	0.0214257
704.938	0.0213847
705.016	0.0214930
705.094	0.0215755
705.173	0.0210682
705.251	0.0207898
705.329	0.0202372
705.407	0.0195857
705.485	0.0186033
705.563	0.0174566
705.641	0.0164044
705.719	0.0151493
705.798	0.0139368
705.876	0.0126173
705.954	0.0113356
706.032	0.0103036
706.110	0.00905212
706.188	0.00816002
706.266	0.00726028
706.344	0.00655128
706.423	0.00597984
706.501	0.00567841
706.579	0.00559044
706.657	0.00562614
706.735	0.00583702
706.813	0.00612427
706.891	0.00659912
706.969	0.00713974
707.048	0.00775513
707.126	0.00832977
707.204	0.00891449
707.282	0.00950485
707.360	0.0101991
707.438	0.0105311
707.516	0.0109552
707.594	0.0112221
707.673	0.0114693
707.751	0.0117451
707.829	0.0121999
707.907	0.0123764
707.985	0.0127528
708.063	0.0130780
708.141	0.0134284
708.219	0.0139503
708.298	0.0143871
708.376	0.0150416
708.454	0.0156671
708.532	0.0163518
708.610	0.0170361
708.688	0.0175480
708.766	0.0181412
708.844	0.0187612
708.923	0.0192895
709.001	0.0196716
709.079	0.0200377
709.157	0.0203175
709.235	0.0205997
709.313	0.0207256
709.391	0.0210255
709.469	0.0211826
709.548	0.0213117
709.626	0.0215228
709.704	0.0216003
709.782	0.0216552
709.860	0.0215448
709.938	0.0215745
710.016	0.0212302
710.094	0.0207990
710.173	0.0201505
710.251	0.0194498
710.329	0.0185376
710.407	0.0175031
710.485	0.0162546
710.563	0.0150369
710.641	0.0137312
710.719	0.0122612
710.798	0.0110361
710.876	0.00985985
710.954	0.00883812
711.032	0.00796173
711.110	0.00730766
711.188	0.00683418
711.266	0.00640549
711.344	0.00628990
711.423	0.00627907
711.501	0.00619606
711.579	0.00624107
711.657	0.00648636
711.735	0.00688225
711.813	0.00717010
711.891	0.00748077
711.969	0.00772346
712.048	0.00812714
712.126	0.00840988
712.204	0.00891937
712.282	0.00908714
712.360	0.00954315
712.438	0.00994904
712.516	0.0106854
712.594	0.0111488
712.673	0.0117349
712.751	0.0124356
712.829	0.0131183
712.907	0.0138470
712.985	0.0144708
713.063	0.0151709
713.141	0.0158737
713.219	0.0164933
713.298	0.0171054
713.376	0.0176471
713.454	0.0179021
713.532	0.0182268
713.610	0.0186908
713.688	0.0189888
713.766	0.0190851
713.844	0.0191138
713.923	0.0190677
714.001	0.0192897
714.079	0.0196085
714.157	0.0196290
714.235	0.0196513
714.313	0.0197145
714.391	0.0199329
714.469	0.0199056
714.548	0.0197677
714.626	0.0197311
714.704	0.0195361
714.782	0.0193187
714.860	0.0188908
714.938	0.0184009
715.016	0.0179278
715.094	0.0173309
715.173	0.0167396
715.251	0.0161906
715.329	0.0154107
715.407	0.0147820
715.485	0.0142623
715.563	0.0136750
715.641	0.0131406
715.719	0.0127869
715.798	0.0121734
715.876	0.0119006
715.954	0.0115768
716.032	0.0113586
716.110	0.0109756
716.188	0.0106476
716.266	0.0105311
716.344	0.0103089
716.423	0.0100450
716.501	0.0101206
716.579	0.0100786
716.657	0.0100620
716.735	0.0100287
716.813	0.00987244
716.891	0.0100959
716.969	0.0101154
717.048	0.0101358
717.126	0.0103136
717.204	0.0104178
717.282	0.0104086
717.360	0.0104872
717.438	0.0106956
717.516	0.0110226
717.594	0.0110026
717.673	0.0110756
717.751	0.0115559
717.829	0.0118514
717.907	0.0120845
717.985	0.0125568
718.063	0.0130188
718.141	0.0134567
718.219	0.0140524
718.298	0.0146175
718.376	0.0150996
718.454	0.0156866
718.532	0.0162895
718.610	0.0167593
718.688	0.0172140
718.766	0.0176559
718.844	0.0179529
718.923	0.0181185
719.001	0.0182372
719.079	0.0182857
719.157	0.0183619
719.235	0.0182056
719.313	0.0179177
719.391	0.0178191
719.469	0.0175378
719.548	0.0172696
719.626	0.0168328
719.704	0.0166630
719.782	0.0164439
719.860	0.0160474
719.938	0.0159236
720.016	0.0158063
720.094	0.0155435
720.173	0.0153650
720.251	0.0150664
720.329	0.0150229
720.407	0.0149895
720.485	0.0148299
720.563	0.0148183
720.641	0.0147623
720.719	0.0145840
720.798	0.0145242
720.876	0.0145909
720.954	0.0143919
721.032	0.0141685
721.110	0.0141718
721.188	0.0139835
721.266	0.0140077
721.344	0.0137987
721.423	0.0135457
721.501	0.0133010
721.579	0.0131519
721.657	0.0128751
721.735	0.0125835
721.813	0.0125424
721.891	0.0122568
721.969	0.0120892
722.048	0.0118985
722.126	0.0118491
722.204	0.0117262
722.282	0.0116398
722.360	0.0117365
722.438	0.0116991
722.516	0.0117174
722.594	0.0118214
722.673	0.0119466
722.751	0.0121581
722.829	0.0122414
722.907	0.0125630
722.985	0.0126392
723.063	0.0127844
723.141	0.0131820
723.219	0.0132918
723.298	0.0132120
723.376	0.0134337
723.454	0.0136290
723.532	0.0138309
723.610	0.0139819
723.688	0.0142272
723.766	0.0143905
723.844	0.0145423
723.923	0.0146648
724.001	0.0148781
724.079	0.0148100
724.157	0.0150528
724.235	0.0153128
724.313	0.0153052
724.391	0.0154179
724.469	0.0151591
724.548	0.0152095
724.626	0.0152406
724.704	0.0149876
724.782	0.0148712
724.860	0.0147234
724.938	0.0144979
725.016	0.0140353
725.094	0.0140604
725.173	0.0140369
725.251	0.0138935
725.329	0.0137203
725.407	0.0137899
725.485	0.0137460
725.563	0.0140718
725.641	0.0141520
725.719	0.0142685
725.798	0.0145486
725.876	0.0148274
725.954	0.0152220
726.032	0.0154472
726.110	0.0157007
726.188	0.0159522
726.266	0.0160824
726.344	0.0161039
726.423	0.0162434
726.501	0.0161305
726.579	0.0163816
726.657	0.0162184
726.735	0.0159923
726.813	0.0157852
726.891	0.0156201
726.969	0.0152747
727.048	0.0151529
727.126	0.0148148
727.204	0.0144703
727.282	0.0141789
727.360	0.0141478
727.438	0.0139249
727.516	0.0136958
727.594	0.0136051
727.673	0.0136000
727.751	0.0133994
727.829	0.0132877
727.907	0.0133607
727.985	0.0131845
728.063	0.0130328
728.141	0.0130882
728.219	0.0130193
728.298	0.0130579
728.376	0.0130588
728.454	0.0129556
728.532	0.0128413
728.610	0.0127698
728.688	0.0128141
728.766	0.0127417
728.844	0.0127471
728.923	0.0127903
729.001	0.0127382
729.079	0.0127934
729.157	0.0128812
729.235	0.0128732
729.313	0.0129065
729.391	0.0130568
729.469	0.0129372
729.548	0.0129111
729.626	0.0129570
729.704	0.0130870
729.782	0.0130843
729.860	0.0127539
729.938	0.0127613
730.016	0.0127620
730.094	0.0126947
730.173	0.0127679
730.251	0.0127992
730.329	0.0128966
730.407	0.0129273
730.485	0.0132033
730.563	0.0134488
730.641	0.0137648
730.719	0.0140481
730.798	0.0143348
730.876	0.0146264
730.954	0.0148781
731.032	0.0153410
731.110	0.0155282
731.188	0.0155715
731.266	0.0157571
731.344	0.0158736
731.423	0.0160274
731.501	0.0161565
731.579	0.0162192
731.657	0.0162646
731.735	0.0163013
731.813	0.0162016
731.891	0.0161462
731.969	0.0161761
732.048	0.0161190
732.126	0.0160904
732.204	0.0160419
732.282	0.0159902
732.360	0.0159886
732.438	0.0157605
732.516	0.0156821
732.594	0.0154056
732.673	0.0153114
732.751	0.0152591
732.829	0.0151473
732.907	0.0148642
732.985	0.0147083
733.063	0.0143880
733.141	0.0142232
733.219	0.0141142
733.298	0.0139294
733.376	0.0136600
733.454	0.0134950
733.532	0.0135693
733.610	0.0132592
733.688	0.0132315
733.766	0.0131705
733.844	0.0131145
733.923	0.0131467
734.001	0.0132006
734.079	0.0130829
734.157	0.0130897
734.235	0.0129903
734.313	0.0128800
734.391	0.0129399
734.469	0.0127856
734.548	0.0127415
734.626	0.0127731
734.704	0.0126828
734.782	0.0127370
734.860	0.0127785
734.938	0.0127174
735.016	0.0128484
735.094	0.0127948
735.173	0.0129391
735.251	0.0131033
735.329	0.0130602
735.407	0.0130849
735.485	0.0131039
735.563	0.0132098
735.641	0.0132603
735.719	0.0134602
735.798	0.0133994
735.876	0.0134995
735.954	0.0135099
736.032	0.0135495
736.110	0.0134959
736.188	0.0137610
736.266	0.0136475
736.344	0.0136877
736.423	0.0137285
736.501	0.0139839
736.579	0.0138615
736.657	0.0139980
736.735	0.0143607
736.813	0.0145198
736.891	0.0145448
736.969	0.0149255
737.048	0.0151269
737.126	0.0152454
737.204	0.0154606
737.282	0.0154940
737.360	0.0156948
737.438	0.0158478
737.516	0.0157053
737.594	0.0157896
737.673	0.0157126
737.751	0.0155274
737.829	0.0153398
737.907	0.0152567
737.985	0.0151047
738.063	0.0151841
738.141	0.0149268
738.219	0.0146970
738.298	0.0146413
738.376	0.0146854
738.454	0.0145920
738.532	0.0146762
738.610	0.0146755
738.688	0.0146500
738.766	0.0145898
738.844	0.0145428
738.923	0.0145744
739.001	0.0146025
739.079	0.0145478
739.157	0.0144740
739.235	0.0145383
739.313	0.0145612
739.391	0.0144553
739.469	0.0144714
739.548	0.0143794
739.626	0.0142537
739.704	0.0143512
739.782	0.0140187
739.860	0.0141417
739.938	0.0141440
740.016	0.0141995
740.094	0.0140302
740.173	0.0140136
740.251	0.0140140
740.329	0.0139502
740.407	0.0139310
740.485	0.0137548
740.563	0.0137863
740.641	0.0136823
740.719	0.0135433
740.798	0.0133324
740.876	0.0134026
740.954	0.0133914
741.032	0.0132045
741.110	0.0130930
741.188	0.0132301
741.266	0.0131439
741.344	0.0130565
741.423	0.0130965
741.501	0.0131288
741.579	0.0131910
741.657	0.0131258
741.735	0.0131273
741.813	0.0132407
741.891	0.0134220
741.969	0.0134530
742.048	0.0134328
742.126	0.0135374
742.204	0.0134939
742.282	0.0135296
742.360	0.0135889
742.438	0.0135926
742.516	0.0136852
742.594	0.0136676
742.673	0.0137515
742.751	0.0137763
742.829	0.0137979
742.907	0.0137700
742.985	0.0138667
743.063	0.0141669
743.141	0.0141738
743.219	0.0142066
743.298	0.0143042
743.376	0.0143867
743.454	0.0145918
743.532	0.0147939
743.610	0.0148788
743.688	0.0148838
743.766	0.0149297
743.844	0.0149520
743.923	0.0152140
744.001	0.0149653
744.079	0.0150030
744.157	0.0152618
744.235	0.0153221
744.313	0.0152561
744.391	0.0151829
744.469	0.0152425
744.548	0.0151978
744.626	0.0153447
744.704	0.0152517
744.782	0.0154437
744.860	0.0154963
744.938	0.0153960
745.016	0.0154780
745.094	0.0155451
745.173	0.0155283
745.251	0.0153320
745.329	0.0154166
745.407	0.0154195
745.485	0.0152094
745.563	0.0149879
745.641	0.0149249
745.719	0.0146877
745.798	0.0146220
745.876	0.0144415
745.954	0.0143266
746.032	0.0140413
746.110	0.0140408
746.188	0.0137566
746.266	0.0137321
746.344	0.0136648
746.423	0.0134856
746.501	0.0134854
746.579	0.0133110
746.657	0.0133688
746.735	0.0133434
746.813	0.0131889
746.891	0.0131545
746.969	0.0130183
747.048	0.0131355
747.126	0.0131426
747.204	0.0129002
747.282	0.0128321
747.360	0.0130070
747.438	0.0129280
747.516	0.0127518
747.594	0.0128979
747.673	0.0129151
747.751	0.0127498
747.829	0.0129595
747.907	0.0131358
747.985	0.0131782
748.063	0.0133650
748.141	0.0133145
748.219	0.0133105
748.298	0.0134195
748.376	0.0135191
748.454	0.0135486
748.532	0.0136731
748.610	0.0137057
748.688	0.0137711
748.766	0.0136909
748.844	0.0139101
748.923	0.0140119
749.001	0.0139281
749.079	0.0140519
749.157	0.0143294
749.235	0.0144450
749.313	0.0146895
749.391	0.0146103
749.469	0.0146326
749.548	0.0148635
749.626	0.0149845
749.704	0.0149791
749.782	0.0152283
749.860	0.0152234
749.938	0.0151905
750.016	0.0153165
750.094	0.0153178
750.173	0.0152869
750.251	0.0152265
750.329	0.0151631
750.407	0.0150178
750.485	0.0149581
750.563	0.0149345
750.641	0.0147447
750.719	0.0146864
750.798	0.0148193
750.876	0.0146841
750.954	0.0146169
751.032	0.0146140
751.110	0.0144427
751.188	0.0145457
751.266	0.0145737
751.344	0.0143613
751.423	0.0144808
751.501	0.0143995
751.579	0.0143407
751.657	0.0143176
751.735	0.0143169
751.813	0.0143175
751.891	0.0141277
751.969	0.0140795
752.048	0.0141395
752.126	0.0140867
752.204	0.0139927
752.282	0.0140023
752.360	0.0141336
752.438	0.0139394
752.516	0.0138396
752.594	0.0138116
752.673	0.0139083
752.751	0.0137972
752.829	0.0137437
752.907	0.0137601
752.985	0.0135873
753.063	0.0136747
753.141	0.0136935
753.219	0.0135456
753.298	0.0133878
753.376	0.0134463
753.454	0.0135194
753.532	0.0134271
753.610	0.0134589
753.688	0.0132415
753.766	0.0132511
753.844	0.0133969
753.923	0.0133996
754.001	0.0134528
754.079	0.0135767
754.157	0.0136024
754.235	0.0136388
754.313	0.0137016
754.391	0.0138527
754.469	0.0140141
754.548	0.0140160
754.626	0.0141720
754.704	0.0142319
754.782	0.0141261
754.860	0.0142165
754.938	0.0142758
755.016	0.0141178
755.094	0.0142183
755.173	0.0141833
755.251	0.0140404
755.329	0.0141033
755.407	0.0141319
755.485	0.0140291
755.563	0.0139116
755.641	0.0139881
755.719	0.0139378
755.798	0.0139611
755.876	0.0139537
755.954	0.0139905
756.032	0.0140549
756.110	0.0139330
756.188	0.0140302
756.266	0.0141599
756.344	0.0142263
756.423	0.0141100
756.501	0.0142027
756.579	0.0142786
756.657	0.0142861
756.735	0.0143412
756.813	0.0143959
756.891	0.0143703
756.969	0.0144061
757.048	0.0146519
757.126	0.0145892
757.204	0.0145776
757.282	0.0146443
757.360	0.0147339
757.438	0.0149255
757.516	0.0147984
757.594	0.0148087
757.673	0.0149989
757.751	0.0149324
757.829	0.0149273
757.907	0.0149069
757.985	0.0149110
758.063	0.0147989
758.141	0.0146799
758.219	0.0145341
758.298	0.0144405
758.376	0.0143917
758.454	0.0142606
758.532	0.0140608
758.610	0.0141889
758.688	0.0141524
758.766	0.0141669
758.844	0.0139253
758.923	0.0139273
759.001	0.0139596
759.079	0.0139896
759.157	0.0139635
759.235	0.0138441
759.313	0.0139380
759.391	0.0139707
759.469	0.0138850
759.548	0.0137933
759.626	0.0139159
759.704	0.0139678
759.782	0.0138134
759.860	0.0138507
759.938	0.0138707
760.016	0.0139144
760.094	0.0136837
760.173	0.0136255
760.251	0.0137906
760.329	0.0138210
760.407	0.0137659
760.485	0.0138721
760.563	0.0139326
760.641	0.0139652
760.719	0.0138897
760.798	0.0138342
760.876	0.0137195
760.954	0.0138613
761.032	0.0137936
761.110	0.0138391
761.188	0.0137439
761.266	0.0135864
761.344	0.0137849
761.423	0.0137106
761.501	0.0137668
761.579	0.0136438
761.657	0.0136456
761.735	0.0139709
761.813	0.0138493
761.891	0.0138422
761.969	0.0138409
762.048	0.0139438
762.126	0.0141129
762.204	0.0139874
762.282	0.0141382
762.360	0.0142264
762.438	0.0143793
762.516	0.0143995
762.594	0.0144501
762.673	0.0146626
762.751	0.0146719
762.829	0.0146998
762.907	0.0148219
762.985	0.0148763
763.063	0.0146958
763.141	0.0146316
763.219	0.0148693
763.298	0.0147489
763.376	0.0147404
763.454	0.0148646
763.532	0.0147086
763.610	0.0146066
763.688	0.0145954
763.766	0.0146294
763.844	0.0146085
763.923	0.0146133
764.001	0.0145707
764.079	0.0144057
764.157	0.0142831
764.235	0.0144518
764.313	0.0142787
764.391	0.0140406
764.469	0.0142509
764.548	0.0141277
764.626	0.0141719
764.704	0.0142760
764.782	0.0141377
764.860	0.0140588
764.938	0.0141156
765.016	0.0140926
765.094	0.0142127
765.173	0.0142293
765.251	0.0141608
765.329	0.0141863
765.407	0.0142525
765.485	0.0141849
765.563	0.0143459
765.641	0.0145180
765.719	0.0144916
765.798	0.0144547
765.876	0.0146026
765.954	0.0142207
766.032	0.0143887
766.110	0.0144010
766.188	0.0142361
766.266	0.0141518
766.344	0.0141774
766.423	0.0142468
766.501	0.0140996
766.579	0.0140678
766.657	0.0140134
766.735	0.0140490
766.813	0.0140026
766.891	0.0140505
766.969	0.0139367
767.048	0.0138461
767.126	0.0137782
767.204	0.0138686
767.282	0.0137749
767.360	0.0136423
767.438	0.0138362
767.516	0.0137264
767.594	0.0136075
767.673	0.0136410
767.751	0.0138114
767.829	0.0136873
767.907	0.0137394
767.985	0.0136963
768.063	0.0136994
768.141	0.0138783
768.219	0.0139087
768.298	0.0140954
768.376	0.0140202
768.454	0.0141189
768.532	0.0141824
768.610	0.0142674
768.688	0.0141708
768.766	0.0141698
768.844	0.0141403
768.923	0.0142680
769.001	0.0141867
769.079	0.0141488
769.157	0.0141988
769.235	0.0143783
769.313	0.0142281
769.391	0.0141583
769.469	0.0140324
769.548	0.0141512
769.626	0.0142475
769.704	0.0142175
769.782	0.0142098
769.860	0.0142154
769.938	0.0142007
770.016	0.0141879
770.094	0.0141158
770.173	0.0141811
770.251	0.0142615
770.329	0.0142354
770.407	0.0142870
770.485	0.0142159
770.563	0.0143086
770.641	0.0143555
770.719	0.0144835
770.798	0.0144049
770.876	0.0145454
770.954	0.0143904
771.032	0.0145457
771.110	0.0145934
771.188	0.0145816
771.266	0.0146940
771.344	0.0148844
771.423	0.0148172
771.501	0.0148801
771.579	0.0147968
771.657	0.0146356
771.735	0.0148768
771.813	0.0148542
771.891	0.0147604
771.969	0.0147643
772.048	0.0146716
772.126	0.0144535
772.204	0.0146508
772.282	0.0144368
772.360	0.0141935
772.438	0.0140072
772.516	0.0139877
772.594	0.0139191
772.673	0.0137434
772.751	0.0135912
772.829	0.0137573
772.907	0.0134411
772.985	0.0134000
773.063	0.0135207
773.141	0.0134166
773.219	0.0134138
773.298	0.0133805
773.376	0.0133485
773.454	0.0135143
773.532	0.0136395
773.610	0.0136882
773.688	0.0137782
773.766	0.0138439
773.844	0.0139227
773.923	0.0139280
774.001	0.0139848
774.079	0.0141660
774.157	0.0141528
774.235	0.0141138
774.313	0.0141348
774.391	0.0142657
774.469	0.0142728
774.548	0.0142463
774.626	0.0142037
774.704	0.0142856
774.782	0.0142503
774.860	0.0141312
774.938	0.0142063
775.016	0.0143502
775.094	0.0143060
775.173	0.0141382
775.251	0.0141842
775.329	0.0142176
775.407	0.0142883
775.485	0.0141455
775.563	0.0140623
775.641	0.0139680
775.719	0.0140668
775.798	0.0139748
775.876	0.0140503
775.954	0.0139607
776.032	0.0139145
776.110	0.0140441
776.188	0.0140222
776.266	0.0139724
776.344	0.0140125
776.423	0.0140575
776.501	0.0140135
776.579	0.0139407
776.657	0.0141383
776.735	0.0139877
776.813	0.0139045
776.891	0.0141132
776.969	0.0141519
777.048	0.0141740
777.126	0.0141589
777.204	0.0140949
777.282	0.0142642
777.360	0.0143063
777.438	0.0141864
777.516	0.0141430
777.594	0.0143197
777.673	0.0142586
777.751	0.0142252
777.829	0.0142381
777.907	0.0142406
777.985	0.0141599
778.063	0.0142387
778.141	0.0142819
778.219	0.0143898
778.298	0.0144486
778.376	0.0143977
778.454	0.0144833
778.532	0.0144651
778.610	0.0144540
778.688	0.0144582
778.766	0.0145956
778.844	0.0143650
778.923	0.0142966
779.001	0.0144321
779.079	0.0145409
779.157	0.0143733
779.235	0.0142403
779.313	0.0144307
779.391	0.0142847
779.469	0.0142766
779.548	0.0143813
779.626	0.0141686
779.704	0.0141840
779.782	0.0140846
779.860	0.0140817
779.938	0.0140578
780.016	0.0139710
780.094	0.0139240
780.173	0.0139772
780.251	0.0139941
780.329	0.0139802
780.407	0.0138308
780.485	0.0138197
780.563	0.0137859
780.641	0.0137737
780.719	0.0138718
780.798	0.0138195
780.876	0.0137997
780.954	0.0138185
781.032	0.0139195
781.110	0.0138599
781.188	0.0138625
781.266	0.0137745
781.344	0.0139214
781.423	0.0139051
781.501	0.0139098
781.579	0.0139065
781.657	0.0138696
781.735	0.0139802
781.813	0.0137825
781.891	0.0139216
781.969	0.0139018
782.048	0.0136674
782.126	0.0138224
782.204	0.0139053
782.282	0.0139565
782.360	0.0138137
782.438	0.0137846
782.516	0.0138750
782.594	0.0140149
782.673	0.0140519
782.751	0.0140812
782.829	0.0140549
782.907	0.0140984
782.985	0.0140894
783.063	0.0140707
783.141	0.0142561
783.219	0.0143107
783.298	0.0143914
783.376	0.0143522
783.454	0.0143686
783.532	0.0144990
783.610	0.0145889
783.688	0.0144586
783.766	0.0144847
783.844	0.0145909
783.923	0.0145573
784.001	0.0146880
784.079	0.0145965
784.157	0.0145528
784.235	0.0145907
784.313	0.0147072
784.391	0.0147210
784.469	0.0146009
784.548	0.0145377
784.626	0.0145463
784.704	0.0144770
784.782	0.0143782
784.860	0.0142934
784.938	0.0144447
785.016	0.0142421
785.094	0.0141753
785.173	0.0141106
785.251	0.0140781
785.329	0.0141136
785.407	0.0141181
785.485	0.0139148
785.563	0.0139084
785.641	0.0139599
785.719	0.0138612
785.798	0.0138806
785.876	0.0138767
785.954	0.0139252
786.032	0.0138984
786.110	0.0137684
786.188	0.0139292
786.266	0.0140004
786.344	0.0139441
786.423	0.0139945
786.501	0.0139246
786.579	0.0138501
786.657	0.0139130
786.735	0.0139881
786.813	0.0139019
786.891	0.0139243
786.969	0.0138988
787.048	0.0138612
787.126	0.0138345
787.204	0.0138951
787.282	0.0141539
787.360	0.0139988
787.438	0.0140125
787.516	0.0141019
787.594	0.0141849
787.673	0.0141837
787.751	0.0142980
787.829	0.0143813
787.907	0.0144975
787.985	0.0144950
788.063	0.0144501
788.141	0.0144807
788.219	0.0144730
788.298	0.0144649
788.376	0.0145379
788.454	0.0145583
788.532	0.0145966
788.610	0.0144954
788.688	0.0145420
788.766	0.0144108
788.844	0.0144785
788.923	0.0144643
789.001	0.0144030
789.079	0.0145361
789.157	0.0144659
789.235	0.0143530
789.313	0.0141860
789.391	0.0141846
789.469	0.0141574
789.548	0.0141401
789.626	0.0141465
789.704	0.0138940
789.782	0.0139198
789.860	0.0138685
789.938	0.0137309
790.016	0.0137261
790.094	0.0135230
790.173	0.0135284
790.251	0.0134676
790.329	0.0134863
790.407	0.0135517
790.485	0.0135757
790.563	0.0134657
790.641	0.0135339
790.719	0.0135013
790.798	0.0135562
790.876	0.0136613
790.954	0.0136130
791.032	0.0136350
791.110	0.0137474
791.188	0.0138474
791.266	0.0138844
791.344	0.0140308
791.423	0.0140820
791.501	0.0139645
791.579	0.0142980
791.657	0.0142334
791.735	0.0143469
791.813	0.0146443
791.891	0.0146970
791.969	0.0146850
792.048	0.0148475
792.126	0.0149715
792.204	0.0150456
792.282	0.0150255
792.360	0.0152467
792.438	0.0152540
792.516	0.0153275
792.594	0.0153441
792.673	0.0152945
792.751	0.0154305
792.829	0.0154408
792.907	0.0151679
792.985	0.0151414
793.063	0.0150030
793.141	0.0148152
793.219	0.0148291
793.298	0.0146877
793.376	0.0144560
793.454	0.0143897
793.532	0.0140424
793.610	0.0139984
793.688	0.0138771
793.766	0.0137219
793.844	0.0135292
793.923	0.0133448
794.001	0.0133376
794.079	0.0131732
794.157	0.0131686
794.235	0.0131129
794.313	0.0130595
794.391	0.0128915
794.469	0.0130651
794.548	0.0130733
794.626	0.0130573
794.704	0.0130346
794.782	0.0130894
794.860	0.0132136
794.938	0.0132636
795.016	0.0133292
795.094	0.0134529
795.173	0.0135390
795.251	0.0136358
795.329	0.0136610
795.407	0.0138522
795.485	0.0139512
795.563	0.0140069
795.641	0.0141217
795.719	0.0141456
795.798	0.0142937
795.876	0.0143977
795.954	0.0144301
796.032	0.0145841
796.110	0.0147832
796.188	0.0148077
796.266	0.0150085
796.344	0.0150076
796.423	0.0151108
796.501	0.0150626
796.579	0.0150683
796.657	0.0152144
796.735	0.0151562
796.813	0.0152206
796.891	0.0151865
796.969	0.0151431
797.048	0.0152055
797.126	0.0150088
797.204	0.0150349
797.282	0.0148969
797.360	0.0147104
797.438	0.0145592
797.516	0.0143005
797.594	0.0143179
797.673	0.0143078
797.751	0.0140957
797.829	0.0139107
797.907	0.0138170
797.985	0.0136804
798.063	0.0134469
798.141	0.0134969
798.219	0.0134251
798.298	0.0133911
798.376	0.0133119
798.454	0.0133096
798.532	0.0133041
798.610	0.0131349
798.688	0.0132520
798.766	0.0131915
798.844	0.0131180
798.923	0.0132967
799.001	0.0134615
799.079	0.0134373
799.157	0.0136898
799.235	0.0135402
799.313	0.0137070
799.391	0.0136853
799.469	0.0140218
799.548	0.0139927
799.626	0.0141216
799.704	0.0140913
799.782	0.0141500
799.860	0.0141985
799.938	0.0142929
800.016	0.0142761
800.094	0.0145219
800.173	0.0142439
800.251	0.0142719
800.329	0.0143507
800.407	0.0143172
800.485	0.0143668
800.563	0.0144300
800.641	0.0144862
800.719	0.0146333
800.798	0.0145277
800.876	0.0146841
800.954	0.0147262
801.032	0.0148737
801.110	0.0149346
801.188	0.0148312
801.266	0.0149013
801.344	0.0152384
801.423	0.0149963
801.501	0.0149911
801.579	0.0151299
801.657	0.0150605
801.735	0.0149966
801.813	0.0149942
801.891	0.0148814
801.969	0.0148418
802.048	0.0147369
802.126	0.0144650
802.204	0.0143143
802.282	0.0141915
802.360	0.0139841
802.438	0.0138562
802.516	0.0137554
802.594	0.0136103
802.673	0.0132737
802.751	0.0131575
802.829	0.0131596
802.907	0.0129824
802.985	0.0130206
803.063	0.0128593
803.141	0.0129072
803.219	0.0129503
803.298	0.0127558
803.376	0.0128372
803.454	0.0129171
803.532	0.0129895
803.610	0.0129745
803.688	0.0131573
803.766	0.0131666
803.844	0.0133156
803.923	0.0133335
804.001	0.0134911
804.079	0.0136255
804.157	0.0136774
804.235	0.0139085
804.313	0.0139376
804.391	0.0139231
804.469	0.0141217
804.548	0.0142889
804.626	0.0142757
804.704	0.0141320
804.782	0.0142670
804.860	0.0144222
804.938	0.0145572
805.016	0.0145518
805.094	0.0145817
805.173	0.0145817
805.251	0.0144600
805.329	0.0146420
805.407	0.0147581
805.485	0.0147966
805.563	0.0148663
805.641	0.0149406
805.719	0.0149780
805.798	0.0150996
805.876	0.0152634
805.954	0.0151462
806.032	0.0154193
806.110	0.0153140
806.188	0.0154061
806.266	0.0154548
806.344	0.0154953
806.423	0.0154237
806.501	0.0154118
806.579	0.0153809
806.657	0.0152618
806.735	0.0151918
806.813	0.0151426
806.891	0.0149792
806.969	0.0145786
807.048	0.0145205
807.126	0.0144987
807.204	0.0142538
807.282	0.0139759
807.360	0.0137241
807.438	0.0136237
807.516	0.0133904
807.594	0.0133630
807.673	0.0130980
807.751	0.0131261
807.829	0.0129323
807.907	0.0127796
807.985	0.0125801
808.063	0.0126785
808.141	0.0126468
808.219	0.0127601
808.298	0.0128274
808.376	0.0127836
808.454	0.0128527
808.532	0.0129402
808.610	0.0130799
808.688	0.0131500
808.766	0.0132254
808.844	0.0132381
808.923	0.0132703
809.001	0.0133491
809.079	0.0135543
809.157	0.0136958
809.235	0.0136960
809.313	0.0137926
809.391	0.0137164
809.469	0.0138078
809.548	0.0138038
809.626	0.0138850
809.704	0.0139074
809.782	0.0139577
809.860	0.0141578
809.938	0.0142992
810.016	0.0142818
810.094	0.0143621
810.173	0.0145990
810.251	0.0145355
810.329	0.0145952
810.407	0.0148254
810.485	0.0148656
810.563	0.0151387
810.641	0.0150838
810.719	0.0150793
810.798	0.0150770
810.876	0.0152391
810.954	0.0152699
811.032	0.0152699
811.110	0.0152104
811.188	0.0151865
811.266	0.0152927
811.344	0.0152808
811.423	0.0151756
811.501	0.0151369
811.579	0.0150500
811.657	0.0150577
811.735	0.0150674
811.813	0.0148987
811.891	0.0148218
811.969	0.0146032
812.048	0.0146418
812.126	0.0145580
812.204	0.0143402
812.282	0.0141672
812.360	0.0143434
812.438	0.0140834
812.516	0.0140112
812.594	0.0140294
812.673	0.0138334
812.751	0.0137007
812.829	0.0137313
812.907	0.0135429
812.985	0.0135383
813.063	0.0134652
813.141	0.0134399
813.219	0.0133390
813.298	0.0132738
813.376	0.0133369
813.454	0.0132858
813.532	0.0133252
813.610	0.0132885
813.688	0.0133991
813.766	0.0131796
813.844	0.0132644
813.923	0.0132038
814.001	0.0133219
814.079	0.0135034
814.157	0.0134561
814.235	0.0134474
814.313	0.0135808
814.391	0.0134706
814.469	0.0136433
814.548	0.0137627
814.626	0.0136440
814.704	0.0137665
814.782	0.0138723
814.860	0.0138812
814.938	0.0140088
815.016	0.0139497
815.094	0.0140408
815.173	0.0140218
815.251	0.0140805
815.329	0.0141440
815.407	0.0141982
815.485	0.0143437
815.563	0.0145740
815.641	0.0143914
815.719	0.0143233
815.798	0.0143475
815.876	0.0145042
815.954	0.0146268
816.032	0.0145633
816.110	0.0146192
816.188	0.0147813
816.266	0.0148206
816.344	0.0148154
816.423	0.0149125
816.501	0.0149458
816.579	0.0148937
816.657	0.0149242
816.735	0.0149871
816.813	0.0151405
816.891	0.0150201
816.969	0.0150029
817.048	0.0149538
817.126	0.0148655
817.204	0.0148818
817.282	0.0148416
817.360	0.0147984
817.438	0.0146750
817.516	0.0146726
817.594	0.0147905
817.673	0.0145847
817.751	0.0144749
817.829	0.0143647
817.907	0.0142294
817.985	0.0141624
818.063	0.0142229
818.141	0.0141002
818.219	0.0138550
818.298	0.0139125
818.376	0.0137910
818.454	0.0136395
818.532	0.0135781
818.610	0.0135212
818.688	0.0134522
818.766	0.0134824
818.844	0.0134233
818.923	0.0134232
819.001	0.0133109
819.079	0.0132680
819.157	0.0134507
819.235	0.0133640
819.313	0.0132997
819.391	0.0134074
819.469	0.0136259
819.548	0.0135799
819.626	0.0134454
819.704	0.0136624
819.782	0.0136948
819.860	0.0136871
819.938	0.0136908
820.016	0.0137316
820.094	0.0138891
820.173	0.0137861
820.251	0.0138048
820.329	0.0136839
820.407	0.0138448
820.485	0.0138878
820.563	0.0140067
820.641	0.0140599
820.719	0.0140469
820.798	0.0141943
820.876	0.0142568
820.954	0.0143842
821.032	0.0143488
821.110	0.0143962
821.188	0.0143851
821.266	0.0143472
821.344	0.0145515
821.423	0.0145693
821.501	0.0145845
821.579	0.0146389
821.657	0.0146873
821.735	0.0146601
821.813	0.0147939
821.891	0.0147400
821.969	0.0146999
822.048	0.0146215
822.126	0.0147797
822.204	0.0145930
822.282	0.0146496
822.360	0.0148187
822.438	0.0147519
822.516	0.0146973
822.594	0.0147748
822.673	0.0146711
822.751	0.0147650
822.829	0.0147777
822.907	0.0145657
822.985	0.0146404
823.063	0.0146458
823.141	0.0145596
823.219	0.0144144
823.298	0.0144423
823.376	0.0143511
823.454	0.0143205
823.532	0.0141614
823.610	0.0140838
823.688	0.0139919
823.766	0.0140382
823.844	0.0138356
823.923	0.0136846
824.001	0.0135335
824.079	0.0136043
824.157	0.0134721
824.235	0.0136031
824.313	0.0134966
824.391	0.0134365
824.469	0.0134444
824.548	0.0134967
824.626	0.0133793
824.704	0.0135507
824.782	0.0135273
824.860	0.0136059
824.938	0.0135800
825.016	0.0136620
825.094	0.0137909
825.173	0.0138167
825.251	0.0138082
825.329	0.0138464
825.407	0.0138708
825.485	0.0139722
825.563	0.0139256
825.641	0.0139551
825.719	0.0141869
825.798	0.0140997
825.876	0.0140454
825.954	0.0140005
826.032	0.0139518
826.110	0.0139774
826.188	0.0139307
826.266	0.0138725
826.344	0.0137647
826.423	0.0138640
826.501	0.0137899
826.579	0.0138287
826.657	0.0138656
826.735	0.0139179
826.813	0.0137894
826.891	0.0138251
826.969	0.0138278
827.048	0.0140580
827.126	0.0140160
827.204	0.0141280
827.282	0.0141870
827.360	0.0143279
827.438	0.0143109
827.516	0.0144824
827.594	0.0145647
827.673	0.0147659
827.751	0.0146527
827.829	0.0146338
827.907	0.0145928
827.985	0.0148656
828.063	0.0148434
828.141	0.0148560
828.219	0.0148115
828.298	0.0146900
828.376	0.0147374
828.454	0.0146355
828.532	0.0146906
828.610	0.0145560
828.688	0.0144256
828.766	0.0143844
828.844	0.0142911
828.923	0.0140955
829.001	0.0141303
829.079	0.0141396
829.157	0.0139935
829.235	0.0139237
829.313	0.0138845
829.391	0.0137921
829.469	0.0137791
829.548	0.0138474
829.626	0.0137272
829.704	0.0136569
829.782	0.0137650
829.860	0.0138689
829.938	0.0137656
830.016	0.0138810
830.094	0.0138394
830.173	0.0139188
830.251	0.0138381
830.329	0.0138229
830.407	0.0139948
830.485	0.0139387
830.563	0.0140037
830.641	0.0140614
830.719	0.0140186
830.798	0.0139191
830.876	0.0140573
830.954	0.0139246
831.032	0.0139949
831.110	0.0139769
831.188	0.0139994
831.266	0.0139093
831.344	0.0138725
831.423	0.0138445
831.501	0.0136773
831.579	0.0137553
831.657	0.0136959
831.735	0.0138592
831.813	0.0138678
831.891	0.0140244
831.969	0.0140816
832.048	0.0139532
832.126	0.0139387
832.204	0.0139572
832.282	0.0140788
832.360	0.0141716
832.438	0.0140429
832.516	0.0141932
832.594	0.0142439
832.673	0.0140891
832.751	0.0141837
832.829	0.0142311
832.907	0.0141560
832.985	0.0141627
833.063	0.0142744
833.141	0.0143186
833.219	0.0142671
833.298	0.0142017
833.376	0.0143495
833.454	0.0144062
833.532	0.0142239
833.610	0.0142623
833.688	0.0142138
833.766	0.0142059
833.844	0.0142076
833.923	0.0142301
834.001	0.0141702
834.079	0.0141432
834.157	0.0140794
834.235	0.0140446
834.313	0.0140211
834.391	0.0140475
834.469	0.0140370
834.548	0.0141161
834.626	0.0140269
834.704	0.0140273
834.782	0.0139180
834.860	0.0139645
834.938	0.0139791
835.016	0.0140634
835.094	0.0139942
835.173	0.0140257
835.251	0.0140564
835.329	0.0141103
835.407	0.0140759
835.485	0.0141185
835.563	0.0139903
835.641	0.0140493
835.719	0.0141347
835.798	0.0141019
835.876	0.0141474
835.954	0.0142404
836.032	0.0142091
836.110	0.0141615
836.188	0.0142942
836.266	0.0140989
836.344	0.0142789
836.423	0.0142740
836.501	0.0143748
836.579	0.0144792
836.657	0.0144275
836.735	0.0143569
836.813	0.0143403
836.891	0.0143152
836.969	0.0142316
837.048	0.0143403
837.126	0.0142780
837.204	0.0143391
837.282	0.0144086
837.360	0.0143333
837.438	0.0142981
837.516	0.0142631
837.594	0.0141148
837.673	0.0142148
837.751	0.0141866
837.829	0.0142126
837.907	0.0141998
837.985	0.0141151
838.063	0.0141162
838.141	0.0140363
838.219	0.0140630
838.298	0.0140295
838.376	0.0139576
838.454	0.0138654
838.532	0.0138707
838.610	0.0138438
838.688	0.0137977
838.766	0.0138495
838.844	0.0138768
838.923	0.0139283
839.001	0.0138667
839.079	0.0137567
839.157	0.0138780
839.235	0.0139449
839.313	0.0138634
839.391	0.0139895
839.469	0.0138911
839.548	0.0140338
839.626	0.0140398
839.704	0.0139426
839.782	0.0138995
839.860	0.0139759
839.938	0.0139983
840.016	0.0141109
840.094	0.0140694
840.173	0.0140514
840.251	0.0140455
840.329	0.0140147
840.407	0.0140695
840.485	0.0139906
840.563	0.0141728
840.641	0.0140231
840.719	0.0139933
840.798	0.0143011
840.876	0.0143281
840.954	0.0141969
841.032	0.0141595
841.110	0.0143958
841.188	0.0143453
841.266	0.0143060
841.344	0.0144018
841.423	0.0145884
841.501	0.0144993
841.579	0.0145395
841.657	0.0147019
841.735	0.0146982
841.813	0.0146725
841.891	0.0146025
841.969	0.0146932
842.048	0.0147900
842.126	0.0147055
842.204	0.0146761
842.282	0.0146175
842.360	0.0146577
842.438	0.0146703
842.516	0.0145212
842.594	0.0144190
842.673	0.0144444
842.751	0.0144921
842.829	0.0143854
842.907	0.0143457
842.985	0.0143687
843.063	0.0142865
843.141	0.0142558
843.219	0.0141425
843.298	0.0140664
843.376	0.0140278
843.454	0.0140852
843.532	0.0140461
843.610	0.0139230
843.688	0.0138515
843.766	0.0138048
843.844	0.0138828
843.923	0.0140309
844.001	0.0137878
844.079	0.0136769
844.157	0.0137273
844.235	0.0137698
844.313	0.0137089
844.391	0.0136259
844.469	0.0136691
844.548	0.0136658
844.626	0.0135809
844.704	0.0135444
844.782	0.0136759
844.860	0.0137592
844.938	0.0136555
845.016	0.0137240
845.094	0.0135710
845.173	0.0138171
845.251	0.0138824
845.329	0.0138644
845.407	0.0138927
845.485	0.0139753
845.563	0.0139460
845.641	0.0139609
845.719	0.0140395
845.798	0.0139538
845.876	0.0140239
845.954	0.0142265
846.032	0.0141958
846.110	0.0143215
846.188	0.0143266
846.266	0.0142286
846.344	0.0142892
846.423	0.0143824
846.501	0.0144131
846.579	0.0144230
846.657	0.0144688
846.735	0.0146156
846.813	0.0145938
846.891	0.0145326
846.969	0.0145581
847.048	0.0146944
847.126	0.0147532
847.204	0.0147736
847.282	0.0146482
847.360	0.0145718
847.438	0.0146601
847.516	0.0146046
847.594	0.0145578
847.673	0.0145426
847.751	0.0147325
847.829	0.0145165
847.907	0.0143539
847.985	0.0144776
848.063	0.0143668
848.141	0.0142485
848.219	0.0143508
848.298	0.0143975
848.376	0.0143177
848.454	0.0142786
848.532	0.0142360
848.610	0.0142567
848.688	0.0141728
848.766	0.0141814
848.844	0.0140992
848.923	0.0140768
849.001	0.0140880
849.079	0.0140986
849.157	0.0140883
849.235	0.0139231
849.313	0.0140988
849.391	0.0139378
849.469	0.0139833
849.548	0.0138990
849.626	0.0135955
849.704	0.0136842
849.782	0.0137647
849.860	0.0137212
849.938	0.0135136
850.016	0.0135694
850.094	0.0135995
850.173	0.0136462
850.251	0.0135223
850.329	0.0135340
850.407	0.0136523
850.485	0.0135838
850.563	0.0137768
850.641	0.0135635
850.719	0.0137572
850.798	0.0137966
850.876	0.0139207
850.954	0.0140371
851.032	0.0139976
851.110	0.0140117
851.188	0.0139246
851.266	0.0140655
851.344	0.0141611
851.423	0.0141774
851.501	0.0141450
851.579	0.0141217
851.657	0.0142721
851.735	0.0141621
851.813	0.0142542
851.891	0.0143028
851.969	0.0142342
852.048	0.0141435
852.126	0.0142706
852.204	0.0142401
852.282	0.0143522
852.360	0.0143885
852.438	0.0143160
852.516	0.0143656
852.594	0.0143407
852.673	0.0144411
852.751	0.0144714
852.829	0.0145505
852.907	0.0144663
852.985	0.0145016
853.063	0.0144839
853.141	0.0146284
853.219	0.0145170
853.298	0.0144675
853.376	0.0144281
853.454	0.0144768
853.532	0.0143813
853.610	0.0144366
853.688	0.0144952
853.766	0.0144631
853.844	0.0142941
853.923	0.0143356
854.001	0.0141753
854.079	0.0141913
854.157	0.0141025
854.235	0.0142665
854.313	0.0141944
854.391	0.0141411
854.469	0.0140260
854.548	0.0140096
854.626	0.0139168
854.704	0.0140114
854.782	0.0138719
854.860	0.0138052
854.938	0.0137885
855.016	0.0137160
855.094	0.0137457
855.173	0.0139466
855.251	0.0137431
855.329	0.0137553
855.407	0.0138068
855.485	0.0138357
855.563	0.0137736
855.641	0.0139630
855.719	0.0137256
855.798	0.0137642
855.876	0.0140287
855.954	0.0139310
856.032	0.0138020
856.110	0.0139002
856.188	0.0139339
856.266	0.0139462
856.344	0.0138976
856.423	0.0139788
856.501	0.0139506
856.579	0.0139780
856.657	0.0139563
856.735	0.0140195
856.813	0.0141935
856.891	0.0140879
856.969	0.0138635
857.048	0.0139821
857.126	0.0141171
857.204	0.0140816
857.282	0.0140964
857.360	0.0140294
857.438	0.0141066
857.516	0.0142076
857.594	0.0141937
857.673	0.0143127
857.751	0.0143530
857.829	0.0142745
857.907	0.0142075
857.985	0.0143090
858.063	0.0143994
858.141	0.0143388
858.219	0.0143642
858.298	0.0144624
858.376	0.0145081
858.454	0.0144465
858.532	0.0144603
858.610	0.0146375
858.688	0.0146447
858.766	0.0145240
858.844	0.0145602
858.923	0.0145689
859.001	0.0145217
859.079	0.0144101
859.157	0.0145515
859.235	0.0144598
859.313	0.0143066
859.391	0.0143935
859.469	0.0141906
859.548	0.0142105
859.626	0.0141206
859.704	0.0141085
859.782	0.0140172
859.860	0.0138685
859.938	0.0139512
860.016	0.0138551
860.094	0.0139964
860.173	0.0139898
860.251	0.0139198
860.329	0.0138878
860.407	0.0140269
860.485	0.0138795
860.563	0.0138477
860.641	0.0140778
860.719	0.0140225
860.798	0.0139055
860.876	0.0137530
860.954	0.0140273
861.032	0.0139618
861.110	0.0140253
861.188	0.0140429
861.266	0.0141096
861.344	0.0139769
861.423	0.0140227
861.501	0.0140709
861.579	0.0141373
861.657	0.0142316
861.735	0.0141763
861.813	0.0142115
861.891	0.0140186
861.969	0.0141972
862.048	0.0142078
862.126	0.0142670
862.204	0.0142596
862.282	0.0142925
862.360	0.0141945
862.438	0.0142302
862.516	0.0143242
862.594	0.0143162
862.673	0.0143343
862.751	0.0142289
862.829	0.0142496
862.907	0.0143906
862.985	0.0143517
863.063	0.0142822
863.141	0.0142924
863.219	0.0142966
863.298	0.0142984
863.376	0.0144592
863.454	0.0143556
863.532	0.0143504
863.610	0.0142854
863.688	0.0142953
863.766	0.0142818
863.844	0.0142450
863.923	0.0143070
864.001	0.0142226
864.079	0.0142500
864.157	0.0141729
864.235	0.0141692
864.313	0.0141444
864.391	0.0140866
864.469	0.0140950
864.548	0.0141090
864.626	0.0141836
864.704	0.0140357
864.782	0.0142032
864.860	0.0141516
864.938	0.0140829
865.016	0.0141660
865.094	0.0141895
865.173	0.0141383
865.251	0.0141502
865.329	0.0140641
865.407	0.0140870
865.485	0.0139734
865.563	0.0140855
865.641	0.0140813
865.719	0.0140091
865.798	0.0139962
865.876	0.0140809
865.954	0.0139976
866.032	0.0141009
866.110	0.0140008
866.188	0.0140706
866.266	0.0139433
866.344	0.0141384
866.423	0.0140492
866.501	0.0139787
866.579	0.0142361
866.657	0.0141574
866.735	0.0141692
866.813	0.0142581
866.891	0.0142484
866.969	0.0142475
867.048	0.0142083
867.126	0.0142405
867.204	0.0141753
867.282	0.0142900
867.360	0.0144011
867.438	0.0142776
867.516	0.0142268
867.594	0.0142145
867.673	0.0141904
867.751	0.0143449
867.829	0.0142725
867.907	0.0142516
867.985	0.0142652
868.063	0.0140989
868.141	0.0141582
868.219	0.0140483
868.298	0.0141104
868.376	0.0140813
868.454	0.0140253
868.532	0.0142702
868.610	0.0141068
868.688	0.0139919
868.766	0.0141183
868.844	0.0140073
868.923	0.0141169
869.001	0.0141479
869.079	0.0140788
869.157	0.0141305
869.235	0.0141238
869.313	0.0140826
869.391	0.0141044
869.469	0.0142616
869.548	0.0141888
869.626	0.0143430
869.704	0.0144971
869.782	0.0142641
869.860	0.0141872
869.938	0.0141966
870.016	0.0144496
870.094	0.0144958
870.173	0.0144810
870.251	0.0143914
870.329	0.0143239
870.407	0.0145304
870.485	0.0144341
870.563	0.0142647
870.641	0.0144905
870.719	0.0142973
870.798	0.0143639
870.876	0.0142779
870.954	0.0142590
871.032	0.0141750
871.110	0.0143474
871.188	0.0143042
871.266	0.0142448
871.344	0.0141554
871.423	0.0140965
871.501	0.0141041
871.579	0.0139641
871.657	0.0140177
871.735	0.0139452
871.813	0.0141355
871.891	0.0140772
871.969	0.0140884
872.048	0.0139317
872.126	0.0139350
872.204	0.0138551
872.282	0.0140400
872.360	0.0139981
872.438	0.0139866
872.516	0.0139600
872.594	0.0138564
872.673	0.0138926
872.751	0.0138979
872.829	0.0138371
872.907	0.0138814
872.985	0.0139675
873.063	0.0139563
873.141	0.0139071
873.219	0.0139081
873.298	0.0139687
873.376	0.0139989
873.454	0.0139300
873.532	0.0140384
873.610	0.0140511
873.688	0.0140900
873.766	0.0142560
873.844	0.0141666
873.923	0.0142365
874.001	0.0141898
874.079	0.0142779
874.157	0.0144201
874.235	0.0142701
874.313	0.0143639
874.391	0.0143861
874.469	0.0144581
874.548	0.0144396
874.626	0.0143891
874.704	0.0144380
874.782	0.0143906
874.860	0.0142691
874.938	0.0142567
875.016	0.0142914
875.094	0.0141619
875.173	0.0141990
875.251	0.0141235
875.329	0.0141650
875.407	0.0143090
875.485	0.0141780
875.563	0.0141826
875.641	0.0142223
875.719	0.0142091
875.798	0.0141772
875.876	0.0142112
875.954	0.0140367
876.032	0.0140699
876.110	0.0144849
876.188	0.0141760
876.266	0.0143633
876.344	0.0142551
876.423	0.0143259
876.501	0.0143597
876.579	0.0143589
876.657	0.0142899
876.735	0.0143470
876.813	0.0144426
876.891	0.0141815
876.969	0.0142754
877.048	0.0143368
877.126	0.0143913
877.204	0.0142440
877.282	0.0139884
877.360	0.0140977
877.438	0.0140686
877.516	0.0138470
877.594	0.0139221
877.673	0.0138945
877.751	0.0139449
877.829	0.0138197
877.907	0.0140116
877.985	0.0138299
878.063	0.0137244
878.141	0.0138364
878.219	0.0138762
878.298	0.0137430
878.376	0.0139079
878.454	0.0138583
878.532	0.0138060
878.610	0.0138841
878.688	0.0137227
878.766	0.0137333
878.844	0.0138285
878.923	0.0137709
879.001	0.0138816
879.079	0.0138824
879.157	0.0140044
879.235	0.0140417
879.313	0.0139598
879.391	0.0140752
879.469	0.0140620
879.548	0.0140018
879.626	0.0142395
879.704	0.0140871
879.782	0.0141992
879.860	0.0142561
879.938	0.0142593
880.016	0.0142828
880.094	0.0142870
880.173	0.0143314
880.251	0.0143896
880.329	0.0142739
880.407	0.0143226
880.485	0.0142793
880.563	0.0143752
880.641	0.0143644
880.719	0.0143903
880.798	0.0144987
880.876	0.0144662
880.954	0.0145727
881.032	0.0147629
881.110	0.0145313
881.188	0.0146209
881.266	0.0144973
881.344	0.0145201
881.423	0.0145409
881.501	0.0145054
881.579	0.0145127
881.657	0.0143950
881.735	0.0144855
881.813	0.0143519
881.891	0.0141457
881.969	0.0144011
882.048	0.0141904
882.126	0.0140686
882.204	0.0141541
882.282	0.0139468
882.360	0.0139095
882.438	0.0139333
882.516	0.0139030
882.594	0.0139562
882.673	0.0140936
882.751	0.0138264
882.829	0.0137807
882.907	0.0138634
882.985	0.0138158
883.063	0.0138866
883.141	0.0139001
883.219	0.0138883
883.298	0.0138630
883.376	0.0140295
883.454	0.0139842
883.532	0.0140333
883.610	0.0139654
883.688	0.0139957
883.766	0.0141864
883.844	0.0142120
883.923	0.0141549
884.001	0.0143536
884.079	0.0142715
884.157	0.0142715
884.235	0.0141003
884.313	0.0142782
884.391	0.0142625
884.469	0.0142603
884.548	0.0142563
884.626	0.0142491
884.704	0.0142845
884.782	0.0141116
884.860	0.0142526
884.938	0.0142419
885.016	0.0140334
885.094	0.0142172
885.173	0.0141716
885.251	0.0142167
885.329	0.0140857
885.407	0.0140916
885.485	0.0141273
885.563	0.0140079
885.641	0.0139281
885.719	0.0137900
885.798	0.0140978
885.876	0.0140485
885.954	0.0138725
886.032	0.0138101
886.110	0.0137492
886.188	0.0138915
886.266	0.0138374
886.344	0.0137808
886.423	0.0137641
886.501	0.0139331
886.579	0.0139802
886.657	0.0140371
886.735	0.0140871
886.813	0.0141980
886.891	0.0141798
886.969	0.0143612
887.048	0.0143917
887.126	0.0144559
887.204	0.0145071
887.282	0.0146467
887.360	0.0147352
887.438	0.0146002
887.516	0.0147312
887.594	0.0148342
887.673	0.0147305
887.751	0.0148116
887.829	0.0147382
887.907	0.0146041
887.985	0.0145304
888.063	0.0144646
888.141	0.0144109
888.219	0.0142764
888.298	0.0143118
888.376	0.0141543
888.454	0.0138550
888.532	0.0139243
888.610	0.0138776
888.688	0.0139010
888.766	0.0137893
888.844	0.0135703
888.923	0.0136311
889.001	0.0136264
889.079	0.0136559
889.157	0.0135704
889.235	0.0135999
889.313	0.0137315
889.391	0.0137292
889.469	0.0138329
889.548	0.0136829
889.626	0.0138795
889.704	0.0139996
889.782	0.0139940
889.860	0.0139624
889.938	0.0140414
890.016	0.0141697
890.094	0.0141489
890.173	0.0141663
890.251	0.0141183
890.329	0.0141151
890.407	0.0143666
890.485	0.0142176
890.563	0.0143959
890.641	0.0145259
890.719	0.0144485
890.798	0.0145470
890.876	0.0146957
890.954	0.0145443
891.032	0.0145153
891.110	0.0144913
891.188	0.0144968
891.266	0.0143234
891.344	0.0142390
891.423	0.0143084
891.501	0.0141550
891.579	0.0141441
891.657	0.0140988
891.735	0.0139987
891.813	0.0139942
891.891	0.0140378
891.969	0.0140462
892.048	0.0141212
892.126	0.0142012
892.204	0.0142085
892.282	0.0141024
892.360	0.0141850
892.438	0.0140272
892.516	0.0139806
892.594	0.0140594
892.673	0.0139287
892.751	0.0138944
892.829	0.0138500
892.907	0.0138793
892.985	0.0137830
893.063	0.0137117
893.141	0.0136965
893.219	0.0137932
893.298	0.0136722
893.376	0.0137770
893.454	0.0137382
893.532	0.0138872
893.610	0.0139798
893.688	0.0140391
893.766	0.0139314
893.844	0.0142303
893.923	0.0140384
894.001	0.0141194
894.079	0.0142073
894.157	0.0140945
894.235	0.0143607
894.313	0.0141158
894.391	0.0142281
894.469	0.0141925
894.548	0.0142290
894.626	0.0144130
894.704	0.0144510
894.782	0.0143432
894.860	0.0143234
894.938	0.0142155
895.016	0.0143359
895.094	0.0144073
895.173	0.0144102
895.251	0.0143519
895.329	0.0143387
895.407	0.0143256
895.485	0.0144360
895.563	0.0143606
895.641	0.0144514
895.719	0.0144276
895.798	0.0145318
895.876	0.0146437
895.954	0.0145296
896.032	0.0145321
896.110	0.0144760
896.188	0.0144836
896.266	0.0144701
896.344	0.0144707
896.423	0.0146828
896.501	0.0145680
896.579	0.0145328
896.657	0.0145514
896.735	0.0145003
896.813	0.0144253
896.891	0.0143857
896.969	0.0143307
897.048	0.0143475
897.126	0.0141916
897.204	0.0141646
897.282	0.0139574
897.360	0.0139812
897.438	0.0138097
897.516	0.0136423
897.594	0.0136030
897.673	0.0134651
897.751	0.0134233
897.829	0.0133923
897.907	0.0131860
897.985	0.0133769
898.063	0.0134228
898.141	0.0132843
898.219	0.0133050
898.298	0.0134235
898.376	0.0134751
898.454	0.0136527
898.532	0.0137783
898.610	0.0138744
898.688	0.0140078
898.766	0.0142574
898.844	0.0141297
898.923	0.0143130
899.001	0.0143738
899.079	0.0143421
899.157	0.0144975
899.235	0.0145274
899.313	0.0143372
899.391	0.0144768
899.469	0.0145727
899.548	0.0146267
899.626	0.0145304
899.704	0.0144466
899.782	0.0144530
899.860	0.0144272
899.938	0.0141916
900.016	0.0144848
900.094	0.0143137
900.173	0.0142939
900.251	0.0142784
900.329	0.0144065
900.407	0.0142515
900.485	0.0143984
900.563	0.0142323
900.641	0.0142964
900.719	0.0142869
900.798	0.0142961
900.876	0.0141630
900.954	0.0142101
901.032	0.0143315
901.110	0.0144328
901.188	0.0143460
901.266	0.0142249
901.344	0.0144096
901.423	0.0143267
901.501	0.0143684
901.579	0.0145287
901.657	0.0142951
901.735	0.0143426
901.813	0.0142996
901.891	0.0142997
901.969	0.0141925
902.048	0.0140893
902.126	0.0140973
902.204	0.0140161
902.282	0.0138625
902.360	0.0137458
902.438	0.0136478
902.516	0.0136057
902.594	0.0137000
902.673	0.0136578
902.751	0.0137072
902.829	0.0137418
902.907	0.0137032
902.985	0.0138852
903.063	0.0137459
903.141	0.0139992
903.219	0.0140853
903.298	0.0141727
903.376	0.0142565
903.454	0.0143448
903.532	0.0144006
903.610	0.0144123
903.688	0.0144383
903.766	0.0145031
903.844	0.0144588
903.923	0.0144357
904.001	0.0144026
904.079	0.0144686
904.157	0.0144154
904.235	0.0142349
904.313	0.0142588
904.391	0.0142340
904.469	0.0141230
904.548	0.0143011
904.626	0.0141748
904.704	0.0140796
904.782	0.0139306
904.860	0.0140007
904.938	0.0140118
905.016	0.0138758
905.094	0.0137191
905.173	0.0138767
905.251	0.0138008
905.329	0.0136925
905.407	0.0137471
905.485	0.0138088
905.563	0.0137900
905.641	0.0139211
905.719	0.0139069
905.798	0.0139806
905.876	0.0139474
905.954	0.0138994
906.032	0.0139867
906.110	0.0140457
906.188	0.0141074
906.266	0.0141050
906.344	0.0142091
906.423	0.0143264
906.501	0.0142465
906.579	0.0140861
906.657	0.0144133
906.735	0.0144914
906.813	0.0144719
906.891	0.0144408
906.969	0.0144582
907.048	0.0145195
907.126	0.0144844
907.204	0.0145284
907.282	0.0144514
907.360	0.0145065
907.438	0.0145370
907.516	0.0145633
907.594	0.0144315
907.673	0.0145275
907.751	0.0146567
907.829	0.0145126
907.907	0.0144750
907.985	0.0144846
908.063	0.0144448
908.141	0.0143013
908.219	0.0142365
908.298	0.0143436
908.376	0.0143307
908.454	0.0140972
908.532	0.0140301
908.610	0.0141354
908.688	0.0140821
908.766	0.0139466
908.844	0.0140307
908.923	0.0139174
909.001	0.0137943
909.079	0.0138976
909.157	0.0137972
909.235	0.0136826
909.313	0.0135733
909.391	0.0136221
909.469	0.0136931
909.548	0.0136546
909.626	0.0137753
909.704	0.0138133
909.782	0.0137499
909.860	0.0138741
909.938	0.0139662
910.016	0.0138845
910.094	0.0140295
910.173	0.0140473
910.251	0.0141694
910.329	0.0142535
910.407	0.0142443
910.485	0.0143202
910.563	0.0141992
910.641	0.0143312
910.719	0.0142793
910.798	0.0141300
910.876	0.0142044
910.954	0.0142243
911.032	0.0144595
911.110	0.0143543
911.188	0.0143594
911.266	0.0143071
911.344	0.0143847
911.423	0.0142182
911.501	0.0143745
911.579	0.0143172
911.657	0.0142843
911.735	0.0142961
911.813	0.0143178
911.891	0.0143920
911.969	0.0143973
912.048	0.0143366
912.126	0.0142839
912.204	0.0143799
912.282	0.0144128
912.360	0.0144543
912.438	0.0144789
912.516	0.0144173
912.594	0.0144575
912.673	0.0143635
912.751	0.0145403
912.829	0.0144794
912.907	0.0145296
912.985	0.0143311
913.063	0.0142883
913.141	0.0143478
913.219	0.0142300
913.298	0.0142390
913.376	0.0141201
913.454	0.0139359
913.532	0.0139629
913.610	0.0138236
913.688	0.0137739
913.766	0.0138162
913.844	0.0134933
913.923	0.0135919
914.001	0.0136907
914.079	0.0135464
914.157	0.0135636
914.235	0.0135540
914.313	0.0138412
914.391	0.0137119
914.469	0.0137774
914.548	0.0138002
914.626	0.0138798
914.704	0.0141100
914.782	0.0140260
914.860	0.0140487
914.938	0.0141327
915.016	0.0142752
915.094	0.0143546
915.173	0.0143876
915.251	0.0143163
915.329	0.0144022
915.407	0.0145542
915.485	0.0143948
915.563	0.0145063
915.641	0.0144778
915.719	0.0144781
915.798	0.0145676
915.876	0.0143831
915.954	0.0145954
916.032	0.0145283
916.110	0.0144759
916.188	0.0145167
916.266	0.0144859
916.344	0.0143948
916.423	0.0141968
916.501	0.0141045
916.579	0.0139951
916.657	0.0141736
916.735	0.0140969
916.813	0.0139342
916.891	0.0139856
916.969	0.0139438
917.048	0.0139546
917.126	0.0138673
917.204	0.0139489
917.282	0.0140257
917.360	0.0140414
917.438	0.0139201
917.516	0.0140392
917.594	0.0140860
917.673	0.0141251
917.751	0.0141810
917.829	0.0141338
917.907	0.0141824
917.985	0.0142637
918.063	0.0141316
918.141	0.0141708
918.219	0.0141397
918.298	0.0142403
918.376	0.0141620
918.454	0.0141877
918.532	0.0141861
918.610	0.0141708
918.688	0.0140096
918.766	0.0138842
918.844	0.0139824
918.923	0.0139814
919.001	0.0138366
919.079	0.0139666
919.157	0.0140754
919.235	0.0139043
919.313	0.0140807
919.391	0.0139790
919.469	0.0141328
919.548	0.0140774
919.626	0.0142245
919.704	0.0142353
919.782	0.0142056
919.860	0.0143321
919.938	0.0143108
920.016	0.0145262
920.094	0.0143964
920.173	0.0144435
920.251	0.0144498
920.329	0.0144813
920.407	0.0145092
920.485	0.0143478
920.563	0.0144756
920.641	0.0144397
920.719	0.0144289
920.798	0.0142657
920.876	0.0143025
920.954	0.0140768
921.032	0.0142309
921.110	0.0142625
921.188	0.0141672
921.266	0.0141005
921.344	0.0140300
921.423	0.0140055
921.501	0.0139217
921.579	0.0139191
921.657	0.0139622
921.735	0.0139075
921.813	0.0139104
921.891	0.0138021
921.969	0.0136001
922.048	0.0137985
922.126	0.0138515
922.204	0.0137333
922.282	0.0137668
922.360	0.0138537
922.438	0.0139808
922.516	0.0139457
922.594	0.0138892
922.673	0.0140977
922.751	0.0140810
922.829	0.0140654
922.907	0.0140986
922.985	0.0141740
923.063	0.0141424
923.141	0.0142101
923.219	0.0143671
923.298	0.0141929
923.376	0.0141513
923.454	0.0142465
923.532	0.0142025
923.610	0.0141831
923.688	0.0143000
923.766	0.0141961
923.844	0.0141022
923.923	0.0142632
924.001	0.0142056
924.079	0.0141837
924.157	0.0142426
924.235	0.0142727
924.313	0.0142843
924.391	0.0143634
924.469	0.0142205
924.548	0.0144455
924.626	0.0141921
924.704	0.0143233
924.782	0.0142508
924.860	0.0141922
924.938	0.0142673
925.016	0.0143346
925.094	0.0142012
925.173	0.0143127
925.251	0.0142090
925.329	0.0142520
925.407	0.0142934
925.485	0.0141862
925.563	0.0141935
925.641	0.0142185
925.719	0.0143494
925.798	0.0141915
925.876	0.0141799
925.954	0.0142211
926.032	0.0141693
926.110	0.0140985
926.188	0.0141272
926.266	0.0139551
926.344	0.0141463
926.423	0.0141849
926.501	0.0140257
926.579	0.0140415
926.657	0.0140411
926.735	0.0139006
926.813	0.0139209
926.891	0.0138672
926.969	0.0139001
927.048	0.0139355
927.126	0.0138412
927.204	0.0137981
927.282	0.0139577
927.360	0.0137498
927.438	0.0137495
927.516	0.0137297
927.594	0.0138324
927.673	0.0138625
927.751	0.0138200
927.829	0.0137469
927.907	0.0139098
927.985	0.0137634
928.063	0.0139619
928.141	0.0139830
928.219	0.0139121
928.298	0.0140760
928.376	0.0140039
928.454	0.0141519
928.532	0.0141924
928.610	0.0140446
928.688	0.0142185
928.766	0.0141908
928.844	0.0142872
928.923	0.0142524
929.001	0.0142116
929.079	0.0141525
929.157	0.0142680
929.235	0.0142824
929.313	0.0142733
929.391	0.0143899
929.469	0.0142529
929.548	0.0141349
929.626	0.0142534
929.704	0.0142241
929.782	0.0141965
929.860	0.0142222
929.938	0.0142288
930.016	0.0142767
930.094	0.0143157
930.173	0.0141679
930.251	0.0141175
930.329	0.0141559
930.407	0.0142728
930.485	0.0142236
930.563	0.0142433
930.641	0.0142460
930.719	0.0143294
930.798	0.0143392
930.876	0.0142123
930.954	0.0141856
931.032	0.0142362
931.110	0.0141280
931.188	0.0140881
931.266	0.0141882
931.344	0.0142255
931.423	0.0141190
931.501	0.0141074
931.579	0.0140630
931.657	0.0139136
931.735	0.0139420
931.813	0.0140149
931.891	0.0138486
931.969	0.0138852
932.048	0.0139275
932.126	0.0138456
932.204	0.0139399
932.282	0.0138979
932.360	0.0137403
932.438	0.0136840
932.516	0.0138555
932.594	0.0138315
932.673	0.0138136
932.751	0.0138943
932.829	0.0140827
932.907	0.0139256
932.985	0.0138682
933.063	0.0140088
933.141	0.0140234
933.219	0.0140755
933.298	0.0141788
933.376	0.0141532
933.454	0.0142235
933.532	0.0142314
933.610	0.0141702
933.688	0.0143717
933.766	0.0144915
933.844	0.0144724
933.923	0.0145161
934.001	0.0144995
934.079	0.0144592
934.157	0.0144037
934.235	0.0146024
934.313	0.0144967
934.391	0.0145729
934.469	0.0144389
934.548	0.0144908
934.626	0.0143664
934.704	0.0144112
934.782	0.0144238
934.860	0.0143999
934.938	0.0142776
935.016	0.0142120
935.094	0.0143249
935.173	0.0141921
935.251	0.0140989
935.329	0.0142597
935.407	0.0142256
935.485	0.0143085
935.563	0.0142065
935.641	0.0142593
935.719	0.0142340
935.798	0.0141190
935.876	0.0141129
935.954	0.0141695
936.032	0.0140862
936.110	0.0141419
936.188	0.0140337
936.266	0.0140534
936.344	0.0139767
936.423	0.0140929
936.501	0.0139376
936.579	0.0139893
936.657	0.0139317
936.735	0.0137545
936.813	0.0138571
936.891	0.0139410
936.969	0.0136793
937.048	0.0138591
937.126	0.0138718
937.204	0.0138554
937.282	0.0138914
937.360	0.0138060
937.438	0.0137456
937.516	0.0138112
937.594	0.0137621
937.673	0.0138054
937.751	0.0138519
937.829	0.0139622
937.907	0.0140354
937.985	0.0140171
938.063	0.0141508
938.141	0.0141656
938.219	0.0142183
938.298	0.0143704
938.376	0.0144621
938.454	0.0144243
938.532	0.0146168
938.610	0.0145660
938.688	0.0145497
938.766	0.0145454
938.844	0.0146706
938.923	0.0146599
939.001	0.0147239
939.079	0.0146265
939.157	0.0146655
939.235	0.0146025
939.313	0.0146651
939.391	0.0145217
939.469	0.0145329
939.548	0.0144804
939.626	0.0144698
939.704	0.0145223
939.782	0.0144550
939.860	0.0144061
939.938	0.0144568
940.016	0.0143707
940.094	0.0143091
940.173	0.0143815
940.251	0.0141619
940.329	0.0142794
940.407	0.0141842
940.485	0.0140410
940.563	0.0142111
940.641	0.0142359
940.719	0.0142207
940.798	0.0141000
940.876	0.0139680
940.954	0.0140112
941.032	0.0139125
941.110	0.0139841
941.188	0.0139471
941.266	0.0138526
941.344	0.0137731
941.423	0.0139700
941.501	0.0139108
941.579	0.0137777
941.657	0.0137026
941.735	0.0138452
941.813	0.0138548
941.891	0.0137672
941.969	0.0139272
942.048	0.0138278
942.126	0.0139150
942.204	0.0137297
942.282	0.0139637
942.360	0.0140038
942.438	0.0140665
942.516	0.0139487
942.594	0.0140652
942.673	0.0139059
942.751	0.0140773
942.829	0.0140377
942.907	0.0142641
942.985	0.0142730
943.063	0.0142261
943.141	0.0142323
943.219	0.0143923
943.298	0.0143756
943.376	0.0143831
943.454	0.0144169
943.532	0.0144863
943.610	0.0144064
943.688	0.0143291
943.766	0.0143121
943.844	0.0143282
943.923	0.0145002
944.001	0.0142657
944.079	0.0142513
944.157	0.0143683
944.235	0.0143745
944.313	0.0142110
944.391	0.0142592
944.469	0.0142307
944.548	0.0142762
944.626	0.0142301
944.704	0.0141181
944.782	0.0140847
944.860	0.0142106
944.938	0.0140106
945.016	0.0141365
945.094	0.0141668
945.173	0.0139392
945.251	0.0141444
945.329	0.0141772
945.407	0.0140912
945.485	0.0138760
945.563	0.0140276
945.641	0.0139745
945.719	0.0139487
945.798	0.0139421
945.876	0.0140506
945.954	0.0141032
946.032	0.0139520
946.110	0.0141078
946.188	0.0140732
946.266	0.0139286
946.344	0.0140121
946.423	0.0140028
946.501	0.0140424
946.579	0.0140697
946.657	0.0138748
946.735	0.0140942
946.813	0.0140331
946.891	0.0141052
946.969	0.0139021
947.048	0.0140384
947.126	0.0140796
947.204	0.0140379
947.282	0.0139948
947.360	0.0141068
947.438	0.0140569
947.516	0.0140137
947.594	0.0139646
947.673	0.0141080
947.751	0.0141908
947.829	0.0141060
947.907	0.0140739
947.985	0.0139854
948.063	0.0143138
948.141	0.0141692
948.219	0.0142373
948.298	0.0140826
948.376	0.0143153
948.454	0.0142149
948.532	0.0142237
948.610	0.0142198
948.688	0.0142123
948.766	0.0141936
948.844	0.0142976
948.923	0.0140932
949.001	0.0141467
949.079	0.0142008
949.157	0.0142402
949.235	0.0141599
949.313	0.0141923
949.391	0.0140758
949.469	0.0141512
949.548	0.0141749
949.626	0.0141927
949.704	0.0142762
949.782	0.0141786
949.860	0.0141110
949.938	0.0141990
950.016	0.0142442
950.094	0.0142889
950.173	0.0141689
950.251	0.0141344
950.329	0.0140096
950.407	0.0140977
950.485	0.0140231
950.563	0.0140213
950.641	0.0141167
950.719	0.0140226
950.798	0.0139839
950.876	0.0140416
950.954	0.0138297
951.032	0.0139563
951.110	0.0140034
951.188	0.0138773
951.266	0.0139778
951.344	0.0140031
951.423	0.0139697
951.501	0.0140289
951.579	0.0140198
951.657	0.0140313
951.735	0.0140682
951.813	0.0141486
951.891	0.0140575
951.969	0.0138835
952.048	0.0141827
952.126	0.0139783
952.204	0.0139790
952.282	0.0139882
952.360	0.0140720
952.438	0.0139327
952.516	0.0139033
952.594	0.0140431
952.673	0.0140641
952.751	0.0139664
952.829	0.0140044
952.907	0.0139255
952.985	0.0140870
953.063	0.0140426
953.141	0.0141480
953.219	0.0141039
953.298	0.0140981
953.376	0.0142079
953.454	0.0139747
953.532	0.0141460
953.610	0.0141753
953.688	0.0142392
953.766	0.0141344
953.844	0.0141143
953.923	0.0142258
954.001	0.0142561
954.079	0.0143449
954.157	0.0142939
954.235	0.0143323
954.313	0.0143787
954.391	0.0144839
954.469	0.0145795
954.548	0.0144808
954.626	0.0144427
954.704	0.0144193
954.782	0.0146091
954.860	0.0146251
954.938	0.0144359
955.016	0.0142606
955.094	0.0143605
955.173	0.0144863
955.251	0.0143041
955.329	0.0142577
955.407	0.0143211
955.485	0.0142684
955.563	0.0142419
955.641	0.0142113
955.719	0.0140617
955.798	0.0140079
955.876	0.0140592
955.954	0.0139024
956.032	0.0138768
956.110	0.0139836
956.188	0.0139869
956.266	0.0139484
956.344	0.0138991
956.423	0.0139512
956.501	0.0139500
956.579	0.0140022
956.657	0.0139996
956.735	0.0138983
956.813	0.0139182
956.891	0.0138294
956.969	0.0138838
957.048	0.0139691
957.126	0.0138289
957.204	0.0140215
957.282	0.0139945
957.360	0.0139367
957.438	0.0139870
957.516	0.0140546
957.594	0.0140626
957.673	0.0139199
957.751	0.0139085
957.829	0.0141534
957.907	0.0141412
957.985	0.0141228
958.063	0.0140143
958.141	0.0142351
958.219	0.0141879
958.298	0.0141318
958.376	0.0139938
958.454	0.0141897
958.532	0.0140694
958.610	0.0141022
958.688	0.0141781
958.766	0.0140324
958.844	0.0141573
958.923	0.0141903
959.001	0.0140196
959.079	0.0142103
959.157	0.0141818
959.235	0.0142565
959.313	0.0142047
959.391	0.0142129
959.469	0.0143159
959.548	0.0143311
959.626	0.0141927
959.704	0.0142796
959.782	0.0143100
959.860	0.0142073
959.938	0.0143368
960.016	0.0142632
960.094	0.0144105
960.173	0.0143374
960.251	0.0143404
960.329	0.0144232
960.407	0.0142786
960.485	0.0142136
960.563	0.0143117
960.641	0.0142748
960.719	0.0142026
960.798	0.0141386
960.876	0.0140726
960.954	0.0142018
961.032	0.0141256
961.110	0.0141293
961.188	0.0141249
961.266	0.0140409
961.344	0.0140919
961.423	0.0140623
961.501	0.0141226
961.579	0.0142232
961.657	0.0140591
961.735	0.0141153
961.813	0.0141212
961.891	0.0140712
961.969	0.0141181
962.048	0.0141697
962.126	0.0142414
962.204	0.0140155
962.282	0.0141789
962.360	0.0142965
962.438	0.0141497
962.516	0.0141865
962.594	0.0140807
962.673	0.0141679
962.751	0.0142535
962.829	0.0142804
962.907	0.0143042
962.985	0.0142754
963.063	0.0141612
963.141	0.0141348
963.219	0.0142186
963.298	0.0140730
963.376	0.0140028
963.454	0.0141357
963.532	0.0140176
963.610	0.0140485
963.688	0.0140169
963.766	0.0139756
963.844	0.0137875
963.923	0.0138040
964.001	0.0138827
964.079	0.0138898
964.157	0.0138882
964.235	0.0138847
964.313	0.0139000
964.391	0.0141013
964.469	0.0141320
964.548	0.0142455
964.626	0.0141933
964.704	0.0142167
964.782	0.0142280
964.860	0.0141216
964.938	0.0142882
965.016	0.0143625
965.094	0.0142516
965.173	0.0143439
965.251	0.0143486
965.329	0.0141807
965.407	0.0142687
965.485	0.0143167
965.563	0.0141269
965.641	0.0140826
965.719	0.0141436
965.798	0.0140653
965.876	0.0140109
965.954	0.0140146
966.032	0.0140752
966.110	0.0142317
966.188	0.0142383
966.266	0.0142116
966.344	0.0140593
966.423	0.0141697
966.501	0.0140988
966.579	0.0141990
966.657	0.0141721
966.735	0.0142187
966.813	0.0142830
966.891	0.0141047
966.969	0.0140696
967.048	0.0141457
967.126	0.0141636
967.204	0.0141727
967.282	0.0141254
967.360	0.0140798
967.438	0.0140279
967.516	0.0141882
967.594	0.0140488
967.673	0.0140174
967.751	0.0139912
967.829	0.0139341
967.907	0.0139299
967.985	0.0139365
968.063	0.0139422
968.141	0.0138502
968.219	0.0139390
968.298	0.0138699
968.376	0.0139159
968.454	0.0138568
968.532	0.0140196
968.610	0.0138982
968.688	0.0138718
968.766	0.0138041
968.844	0.0139728
968.923	0.0139181
969.001	0.0139276
969.079	0.0139196
969.157	0.0140306
969.235	0.0138633
969.313	0.0138764
969.391	0.0139480
969.469	0.0141048
969.548	0.0138972
969.626	0.0140314
969.704	0.0140332
969.782	0.0139771
969.860	0.0140605
969.938	0.0141898
