05/14/2022	19:22:55	Ver.	4.1	UNKNOWN
Optical Delay	650.009681	Delta X		0.078125	Sweeps	1	Scan Rate	0/0
Coordinates	Axis 1	NaN	Axis 2	NaN	Axis 3	NaN	Axis 4	NaN	Axis 5	NaN	Axis 6	0.000000
TX Power	0.000000	RX Power	0.000000

650.010	0.0140439
650.088	0.0141063
650.166	0.0139703
650.244	0.0139493
650.322	0.0140736
650.400	0.0140839
650.478	0.0141228
650.557	0.0140505
650.635	0.0139574
650.713	0.0139744
650.791	0.0140475
650.869	0.0140617
650.947	0.0141169
651.025	0.0140810
651.103	0.0140826
651.182	0.0141667
651.260	0.0139762
651.338	0.0140261
651.416	0.0140771
651.494	0.0141145
651.572	0.0140839
651.650	0.0140523
651.728	0.0140293
651.807	0.0140138
651.885	0.0140224
651.963	0.0140118
652.041	0.0139854
652.119	0.0139481
652.197	0.0140127
652.275	0.0140907
652.353	0.0141843
652.432	0.0139854
652.510	0.0138940
652.588	0.0140079
652.666	0.0140627
652.744	0.0139160
652.822	0.0139532
652.900	0.0139753
652.978	0.0139874
653.057	0.0139867
653.135	0.0140594
653.213	0.0140183
653.291	0.0140355
653.369	0.0139757
653.447	0.0139916
653.525	0.0139604
653.603	0.0140448
653.682	0.0140043
653.760	0.0139478
653.838	0.0139212
653.916	0.0139576
653.994	0.0140788
654.072	0.0138908
654.150	0.0139933
654.228	0.0139333
654.307	0.0140031
654.385	0.0140528
654.463	0.0140179
654.541	0.0139953
654.619	0.0140028
654.697	0.0139347
654.775	0.0138480
654.853	0.0140746
654.932	0.0139799
655.010	0.0139854
655.088	0.0139454
655.166	0.0139744
655.244	0.0140134
655.322	0.0138615
655.400	0.0139665
655.478	0.0138893
655.557	0.0140051
655.635	0.0140293
655.713	0.0139319
655.791	0.0139847
655.869	0.0141394
655.947	0.0138866
656.025	0.0139642
656.103	0.0139149
656.182	0.0138721
656.260	0.0141479
656.338	0.0140208
656.416	0.0139015
656.494	0.0139819
656.572	0.0140200
656.650	0.0139928
656.728	0.0140875
656.807	0.0140027
656.885	0.0139761
656.963	0.0139587
657.041	0.0140536
657.119	0.0140836
657.197	0.0139268
657.275	0.0139612
657.353	0.0141732
657.432	0.0141384
657.510	0.0140076
657.588	0.0140504
657.666	0.0140397
657.744	0.0140895
657.822	0.0139712
657.900	0.0140441
657.978	0.0140102
658.057	0.0140550
658.135	0.0140144
658.213	0.0139795
658.291	0.0140657
658.369	0.0141601
658.447	0.0140235
658.525	0.0140661
658.603	0.0142218
658.682	0.0139433
658.760	0.0139496
658.838	0.0139436
658.916	0.0139516
658.994	0.0140437
659.072	0.0141655
659.150	0.0141199
659.228	0.0140453
659.307	0.0141534
659.385	0.0142253
659.463	0.0141048
659.541	0.0140028
659.619	0.0140762
659.697	0.0140264
659.775	0.0141534
659.853	0.0140179
659.932	0.0140127
660.010	0.0139497
660.088	0.0141222
660.166	0.0141190
660.244	0.0141372
660.322	0.0140635
660.400	0.0140282
660.478	0.0139330
660.557	0.0140527
660.635	0.0142610
660.713	0.0141670
660.791	0.0141774
660.869	0.0141422
660.947	0.0141040
661.025	0.0141400
661.103	0.0140578
661.182	0.0141391
661.260	0.0140734
661.338	0.0140553
661.416	0.0140900
661.494	0.0141718
661.572	0.0140597
661.650	0.0139534
661.728	0.0140700
661.807	0.0142168
661.885	0.0140903
661.963	0.0141155
662.041	0.0141515
662.119	0.0140445
662.197	0.0142126
662.275	0.0142588
662.353	0.0141655
662.432	0.0141380
662.510	0.0141696
662.588	0.0140098
662.666	0.0140099
662.744	0.0141680
662.822	0.0141598
662.900	0.0141736
662.978	0.0140713
663.057	0.0142174
663.135	0.0140910
663.213	0.0141888
663.291	0.0141405
663.369	0.0141580
663.447	0.0141701
663.525	0.0142293
663.603	0.0141204
663.682	0.0141909
663.760	0.0141972
663.838	0.0142272
663.916	0.0141364
663.994	0.0141989
664.072	0.0142363
664.150	0.0142207
664.228	0.0142795
664.307	0.0142074
664.385	0.0142160
664.463	0.0141653
664.541	0.0140780
664.619	0.0142354
664.697	0.0142125
664.775	0.0142503
664.853	0.0141978
664.932	0.0141479
665.010	0.0141251
665.088	0.0141818
665.166	0.0142655
665.244	0.0142422
665.322	0.0141119
665.400	0.0141335
665.478	0.0142183
665.557	0.0141050
665.635	0.0141454
665.713	0.0141481
665.791	0.0141597
665.869	0.0141817
665.947	0.0142467
666.025	0.0140691
666.103	0.0141533
666.182	0.0141666
666.260	0.0142271
666.338	0.0141714
666.416	0.0141346
666.494	0.0141631
666.572	0.0140751
666.650	0.0141109
666.728	0.0141685
666.807	0.0140231
666.885	0.0141660
666.963	0.0142115
667.041	0.0140028
667.119	0.0142151
667.197	0.0142684
667.275	0.0139610
667.353	0.0140529
667.432	0.0139359
667.510	0.0141103
667.588	0.0140481
667.666	0.0141776
667.744	0.0139721
667.822	0.0140186
667.900	0.0140708
667.978	0.0141142
668.057	0.0138751
668.135	0.0140793
668.213	0.0140077
668.291	0.0140350
668.369	0.0140659
668.447	0.0140462
668.525	0.0142043
668.603	0.0139582
668.682	0.0140298
668.760	0.0140672
668.838	0.0142194
668.916	0.0141644
668.994	0.0141080
669.072	0.0140764
669.150	0.0140051
669.228	0.0141067
669.307	0.0141080
669.385	0.0141128
669.463	0.0141603
669.541	0.0140440
669.619	0.0142209
669.697	0.0140707
669.775	0.0141541
669.853	0.0140725
669.932	0.0141377
670.010	0.0141370
670.088	0.0141553
670.166	0.0140656
670.244	0.0140759
670.322	0.0140551
670.400	0.0140400
670.478	0.0140382
670.557	0.0140195
670.635	0.0140141
670.713	0.0141235
670.791	0.0140891
670.869	0.0141386
670.947	0.0140073
671.025	0.0141717
671.103	0.0140531
671.182	0.0140382
671.260	0.0140745
671.338	0.0141859
671.416	0.0141120
671.494	0.0139811
671.572	0.0140569
671.650	0.0139993
671.728	0.0141357
671.807	0.0141014
671.885	0.0140314
671.963	0.0139384
672.041	0.0139365
672.119	0.0140686
672.197	0.0139599
672.275	0.0139244
672.353	0.0139780
672.432	0.0138668
672.510	0.0139327
672.588	0.0139247
672.666	0.0139847
672.744	0.0141283
672.822	0.0140959
672.900	0.0140394
672.978	0.0141354
673.057	0.0140593
673.135	0.0141491
673.213	0.0141074
673.291	0.0138561
673.369	0.0137119
673.447	0.0140109
673.525	0.0137226
673.603	0.0136613
673.682	0.0136897
673.760	0.0134998
673.838	0.0135608
673.916	0.0136738
673.994	0.0138737
674.072	0.0140121
674.150	0.0140078
674.228	0.0141679
674.307	0.0143898
674.385	0.0144731
674.463	0.0146774
674.541	0.0149374
674.619	0.0147702
674.697	0.0146905
674.775	0.0146599
674.853	0.0144695
674.932	0.0145787
675.010	0.0141505
675.088	0.0138969
675.166	0.0136985
675.244	0.0135491
675.322	0.0132554
675.400	0.0130045
675.478	0.0129954
675.557	0.0130877
675.635	0.0130163
675.713	0.0131631
675.791	0.0131935
675.869	0.0133875
675.947	0.0135268
676.025	0.0136768
676.103	0.0139064
676.182	0.0142059
676.260	0.0144888
676.338	0.0144875
676.416	0.0146703
676.494	0.0148195
676.572	0.0148875
676.650	0.0149538
676.728	0.0149580
676.807	0.0149244
676.885	0.0151122
676.963	0.0150546
677.041	0.0150677
677.119	0.0150682
677.197	0.0150880
677.275	0.0148647
677.353	0.0147541
677.432	0.0146653
677.510	0.0144672
677.588	0.0141601
677.666	0.0142363
677.744	0.0138789
677.822	0.0134512
677.900	0.0134163
677.978	0.0132140
678.057	0.0131456
678.135	0.0130345
678.213	0.0129687
678.291	0.0130796
678.369	0.0130609
678.447	0.0131001
678.525	0.0129412
678.603	0.0131358
678.682	0.0131060
678.760	0.0132904
678.838	0.0133627
678.916	0.0132973
678.994	0.0136452
679.072	0.0135594
679.150	0.0136971
679.228	0.0137304
679.307	0.0139188
679.385	0.0141053
679.463	0.0143727
679.541	0.0147290
679.619	0.0147751
679.697	0.0150086
679.775	0.0154939
679.853	0.0154566
679.932	0.0157034
680.010	0.0160297
680.088	0.0161102
680.166	0.0160275
680.244	0.0159663
680.322	0.0158176
680.400	0.0156568
680.478	0.0152800
680.557	0.0148693
680.635	0.0145909
680.713	0.0142330
680.791	0.0141135
680.869	0.0137583
680.947	0.0135545
681.025	0.0134821
681.103	0.0132800
681.182	0.0133051
681.260	0.0134283
681.338	0.0132477
681.416	0.0131335
681.494	0.0130043
681.572	0.0127339
681.650	0.0125784
681.728	0.0124380
681.807	0.0120377
681.885	0.0117515
681.963	0.0117059
682.041	0.0115496
682.119	0.0113834
682.197	0.0116314
682.275	0.0118779
682.353	0.0122372
682.432	0.0126771
682.510	0.0133324
682.588	0.0138914
682.666	0.0143385
682.744	0.0150212
682.822	0.0156812
682.900	0.0161002
682.978	0.0164641
683.057	0.0168130
683.135	0.0170395
683.213	0.0173092
683.291	0.0173776
683.369	0.0172497
683.447	0.0173859
683.525	0.0173981
683.603	0.0170161
683.682	0.0167797
683.760	0.0165707
683.838	0.0161735
683.916	0.0156980
683.994	0.0152959
684.072	0.0147516
684.150	0.0141748
684.228	0.0135280
684.307	0.0131400
684.385	0.0127798
684.463	0.0123463
684.541	0.0118803
684.619	0.0117434
684.697	0.0115956
684.775	0.0115715
684.853	0.0114211
684.932	0.0114850
685.010	0.0115869
685.088	0.0115669
685.166	0.0115807
685.244	0.0117684
685.322	0.0119205
685.400	0.0122032
685.478	0.0123174
685.557	0.0125649
685.635	0.0128213
685.713	0.0132310
685.791	0.0135547
685.869	0.0138629
685.947	0.0142517
686.025	0.0144852
686.103	0.0148618
686.182	0.0152594
686.260	0.0156659
686.338	0.0157225
686.416	0.0157770
686.494	0.0159705
686.572	0.0161416
686.650	0.0160509
686.728	0.0161620
686.807	0.0162403
686.885	0.0161164
686.963	0.0160086
687.041	0.0158718
687.119	0.0158559
687.197	0.0156169
687.275	0.0152807
687.353	0.0150301
687.432	0.0146767
687.510	0.0145352
687.588	0.0141871
687.666	0.0138943
687.744	0.0135868
687.822	0.0137183
687.900	0.0135045
687.978	0.0133383
688.057	0.0133213
688.135	0.0131750
688.213	0.0130996
688.291	0.0131666
688.369	0.0131634
688.447	0.0131801
688.525	0.0130101
688.603	0.0131380
688.682	0.0132491
688.760	0.0132873
688.838	0.0134551
688.916	0.0137015
688.994	0.0139109
689.072	0.0141716
689.150	0.0144183
689.228	0.0144744
689.307	0.0146905
689.385	0.0147881
689.463	0.0149438
689.541	0.0148470
689.619	0.0146796
689.697	0.0146259
689.775	0.0143514
689.853	0.0142224
689.932	0.0141856
690.010	0.0139102
690.088	0.0138850
690.166	0.0137395
690.244	0.0136626
690.322	0.0135026
690.400	0.0132513
690.478	0.0132178
690.557	0.0132127
690.635	0.0131506
690.713	0.0128818
690.791	0.0128471
690.869	0.0129868
690.947	0.0126444
691.025	0.0125971
691.103	0.0124855
691.182	0.0127186
691.260	0.0128047
691.338	0.0129376
691.416	0.0132130
691.494	0.0134442
691.572	0.0137961
691.650	0.0143039
691.728	0.0146980
691.807	0.0150327
691.885	0.0153669
691.963	0.0158159
692.041	0.0159598
692.119	0.0161449
692.197	0.0162244
692.275	0.0163576
692.353	0.0163007
692.432	0.0161159
692.510	0.0161889
692.588	0.0160421
692.666	0.0159583
692.744	0.0158296
692.822	0.0155742
692.900	0.0155820
692.978	0.0155591
693.057	0.0154693
693.135	0.0153013
693.213	0.0150494
693.291	0.0148035
693.369	0.0146427
693.447	0.0140484
693.525	0.0138158
693.603	0.0135515
693.682	0.0131495
693.760	0.0129630
693.838	0.0129195
693.916	0.0127457
693.994	0.0127805
694.072	0.0127647
694.150	0.0126250
694.228	0.0128310
694.307	0.0128165
694.385	0.0126586
694.463	0.0127866
694.541	0.0127019
694.619	0.0125063
694.697	0.0125163
694.775	0.0124948
694.853	0.0122802
694.932	0.0122092
695.010	0.0120084
695.088	0.0118288
695.166	0.0118619
695.244	0.0117209
695.322	0.0117124
695.400	0.0118875
695.478	0.0121796
695.557	0.0123193
695.635	0.0124851
695.713	0.0129638
695.791	0.0132902
695.869	0.0137148
695.947	0.0143950
696.025	0.0147438
696.103	0.0151761
696.182	0.0157698
696.260	0.0163265
696.338	0.0167019
696.416	0.0171275
696.494	0.0175201
696.572	0.0177930
696.650	0.0178831
696.728	0.0182520
696.807	0.0181179
696.885	0.0182621
696.963	0.0180796
697.041	0.0180537
697.119	0.0177781
697.197	0.0174763
697.275	0.0170380
697.353	0.0165623
697.432	0.0160068
697.510	0.0153708
697.588	0.0150221
697.666	0.0143852
697.744	0.0136499
697.822	0.0130952
697.900	0.0125439
697.978	0.0118734
698.057	0.0114693
698.135	0.0110326
698.213	0.0106873
698.291	0.0104048
698.369	0.0101829
698.447	0.0102494
698.525	0.0102498
698.603	0.0104049
698.682	0.0105479
698.760	0.0108920
698.838	0.0113737
698.916	0.0117610
698.994	0.0121844
699.072	0.0124450
699.150	0.0128791
699.228	0.0132013
699.307	0.0136437
699.385	0.0140170
699.463	0.0143556
699.541	0.0145190
699.619	0.0149364
699.697	0.0151161
699.775	0.0152474
699.853	0.0154485
699.932	0.0155756
700.010	0.0158081
700.088	0.0156372
700.166	0.0156281
700.244	0.0157044
700.322	0.0157325
700.400	0.0156870
700.478	0.0156812
700.557	0.0155135
700.635	0.0155093
700.713	0.0153591
700.791	0.0149947
700.869	0.0150476
700.947	0.0147980
701.025	0.0145523
701.103	0.0142868
701.182	0.0139203
701.260	0.0136196
701.338	0.0133298
701.416	0.0129704
701.494	0.0126861
701.572	0.0123379
701.650	0.0122911
701.728	0.0121595
701.807	0.0121268
701.885	0.0119999
701.963	0.0120076
702.041	0.0123193
702.119	0.0123963
702.197	0.0127468
702.275	0.0131976
702.353	0.0134222
702.432	0.0138810
702.510	0.0144735
702.588	0.0148441
702.666	0.0154318
702.744	0.0159247
702.822	0.0163651
702.900	0.0167268
702.978	0.0171690
703.057	0.0174603
703.135	0.0175236
703.213	0.0175829
703.291	0.0176260
703.369	0.0175829
703.447	0.0173360
703.525	0.0170553
703.603	0.0165915
703.682	0.0163591
703.760	0.0158685
703.838	0.0153803
703.916	0.0150063
703.994	0.0146159
704.072	0.0142163
704.150	0.0137209
704.228	0.0133534
704.307	0.0130219
704.385	0.0125429
704.463	0.0121934
704.541	0.0118113
704.619	0.0115160
704.697	0.0111614
704.775	0.0110118
704.853	0.0107581
704.932	0.0106388
705.010	0.0107270
705.088	0.0105203
705.166	0.0104102
705.244	0.0105769
705.322	0.0107324
705.400	0.0108568
705.478	0.0112220
705.557	0.0113467
705.635	0.0116553
705.713	0.0118694
705.791	0.0123006
705.869	0.0126204
705.947	0.0126878
706.025	0.0130288
706.103	0.0133865
706.182	0.0136741
706.260	0.0139616
706.338	0.0141842
706.416	0.0144138
706.494	0.0147625
706.572	0.0151821
706.650	0.0155270
706.728	0.0158038
706.807	0.0160217
706.885	0.0163895
706.963	0.0166500
707.041	0.0168729
707.119	0.0172211
707.197	0.0174446
707.275	0.0175549
707.353	0.0177454
707.432	0.0177877
707.510	0.0178593
707.588	0.0176514
707.666	0.0174416
707.744	0.0172886
707.822	0.0170348
707.900	0.0165689
707.978	0.0161036
708.057	0.0156367
708.135	0.0151482
708.213	0.0146706
708.291	0.0142297
708.369	0.0138892
708.447	0.0133762
708.525	0.0132980
708.603	0.0128225
708.682	0.0127415
708.760	0.0129002
708.838	0.0126485
708.916	0.0122775
708.994	0.0123642
709.072	0.0123891
709.150	0.0122766
709.228	0.0123571
709.307	0.0123518
709.385	0.0122412
709.463	0.0122385
709.541	0.0123129
709.619	0.0122981
709.697	0.0125670
709.775	0.0128350
709.853	0.0128545
709.932	0.0128917
710.010	0.0130131
710.088	0.0131057
710.166	0.0130835
710.244	0.0130009
710.322	0.0130597
710.400	0.0130921
710.478	0.0130747
710.557	0.0131470
710.635	0.0133414
710.713	0.0133865
710.791	0.0136617
710.869	0.0137115
710.947	0.0139562
711.025	0.0140131
711.103	0.0142038
711.182	0.0144078
711.260	0.0146317
711.338	0.0148003
711.416	0.0147038
711.494	0.0147265
711.572	0.0146793
711.650	0.0145877
711.728	0.0146638
711.807	0.0146904
711.885	0.0145351
711.963	0.0143715
712.041	0.0144652
712.119	0.0142670
712.197	0.0144794
712.275	0.0145284
712.353	0.0144028
712.432	0.0144626
712.510	0.0145316
712.588	0.0145317
712.666	0.0144193
712.744	0.0143620
712.822	0.0143731
712.900	0.0142791
712.978	0.0142529
713.057	0.0141942
713.135	0.0142697
713.213	0.0142004
713.291	0.0142477
713.369	0.0143423
713.447	0.0143127
713.525	0.0143422
713.603	0.0144582
713.682	0.0145405
713.760	0.0145907
713.838	0.0147488
713.916	0.0148897
713.994	0.0148621
714.072	0.0148838
714.150	0.0149934
714.228	0.0149274
714.307	0.0151496
714.385	0.0153477
714.463	0.0151323
714.541	0.0155046
714.619	0.0155048
714.697	0.0156258
714.775	0.0157336
714.853	0.0157980
714.932	0.0156969
715.010	0.0157164
715.088	0.0158399
715.166	0.0156985
715.244	0.0154680
715.322	0.0153764
715.400	0.0150457
715.478	0.0149056
715.557	0.0145162
715.635	0.0141504
715.713	0.0137470
715.791	0.0132961
715.869	0.0130985
715.947	0.0124313
716.025	0.0120721
716.103	0.0117751
716.182	0.0114748
716.260	0.0112225
716.338	0.0111396
716.416	0.0108147
716.494	0.0109131
716.572	0.0107824
716.650	0.0109823
716.728	0.0112167
716.807	0.0115651
716.885	0.0118127
716.963	0.0122290
717.041	0.0124722
717.119	0.0127579
717.197	0.0130422
717.275	0.0133212
717.353	0.0137098
717.432	0.0139751
717.510	0.0142767
717.588	0.0142615
717.666	0.0145589
717.744	0.0144998
717.822	0.0144682
717.900	0.0145844
717.978	0.0145950
718.057	0.0147591
718.135	0.0146080
718.213	0.0145396
718.291	0.0146011
718.369	0.0144822
718.447	0.0145644
718.525	0.0146059
718.603	0.0148087
718.682	0.0149261
718.760	0.0148917
718.838	0.0150819
718.916	0.0152621
718.994	0.0153255
719.072	0.0154801
719.150	0.0155922
719.228	0.0157550
719.307	0.0159027
719.385	0.0159531
719.463	0.0159449
719.541	0.0159877
719.619	0.0160595
719.697	0.0158541
719.775	0.0157777
719.853	0.0156985
719.932	0.0156019
720.010	0.0154081
720.088	0.0153261
720.166	0.0151949
720.244	0.0151752
720.322	0.0149334
720.400	0.0148647
720.478	0.0148460
720.557	0.0147510
720.635	0.0148500
720.713	0.0145370
720.791	0.0145625
720.869	0.0145268
720.947	0.0146242
721.025	0.0145883
721.103	0.0144379
721.182	0.0143899
721.260	0.0144617
721.338	0.0144389
721.416	0.0142221
721.494	0.0140876
721.572	0.0138979
721.650	0.0136945
721.728	0.0132716
721.807	0.0129888
721.885	0.0127447
721.963	0.0123046
722.041	0.0120540
722.119	0.0118050
722.197	0.0114311
722.275	0.0111501
722.353	0.0109202
722.432	0.0109568
722.510	0.0108804
722.588	0.0108276
722.666	0.0109147
722.744	0.0113435
722.822	0.0117957
722.900	0.0122011
722.978	0.0126035
723.057	0.0130824
723.135	0.0134096
723.213	0.0139024
723.291	0.0143662
723.369	0.0146246
723.447	0.0150200
723.525	0.0150640
723.603	0.0152666
723.682	0.0150521
723.760	0.0152065
723.838	0.0151236
723.916	0.0147557
723.994	0.0144386
724.072	0.0142717
724.150	0.0140908
724.228	0.0138675
724.307	0.0138235
724.385	0.0137988
724.463	0.0138660
724.541	0.0139321
724.619	0.0141938
724.697	0.0142972
724.775	0.0144939
724.853	0.0145730
724.932	0.0149187
725.010	0.0150127
725.088	0.0152368
725.166	0.0152470
725.244	0.0152843
725.322	0.0154543
725.400	0.0154172
725.478	0.0154391
725.557	0.0154760
725.635	0.0155324
725.713	0.0154191
725.791	0.0155351
725.869	0.0155688
725.947	0.0155148
726.025	0.0153790
726.103	0.0153925
726.182	0.0153283
726.260	0.0153375
726.338	0.0150872
726.416	0.0151456
726.494	0.0151160
726.572	0.0149146
726.650	0.0148177
726.728	0.0148689
726.807	0.0149176
726.885	0.0147892
726.963	0.0148567
727.041	0.0147584
727.119	0.0147913
727.197	0.0146533
727.275	0.0145538
727.353	0.0143915
727.432	0.0141221
727.510	0.0138753
727.588	0.0136501
727.666	0.0134228
727.744	0.0131252
727.822	0.0127409
727.900	0.0123481
727.978	0.0120245
728.057	0.0115818
728.135	0.0113437
728.213	0.0112107
728.291	0.0110252
728.369	0.0108863
728.447	0.0108227
728.525	0.0110632
728.603	0.0111562
728.682	0.0113677
728.760	0.0116770
728.838	0.0120728
728.916	0.0122224
728.994	0.0127650
729.072	0.0131158
729.150	0.0135457
729.228	0.0138711
729.307	0.0141763
729.385	0.0144499
729.463	0.0146846
729.541	0.0147524
729.619	0.0150401
729.697	0.0151176
729.775	0.0150322
729.853	0.0151442
729.932	0.0150512
730.010	0.0148547
730.088	0.0146683
730.166	0.0144499
730.244	0.0142013
730.322	0.0139799
730.400	0.0136377
730.478	0.0134646
730.557	0.0133484
730.635	0.0132969
730.713	0.0132103
730.791	0.0132929
730.869	0.0134897
730.947	0.0136816
731.025	0.0138364
731.103	0.0141067
731.182	0.0143907
731.260	0.0146029
731.338	0.0147791
731.416	0.0149621
731.494	0.0152840
731.572	0.0152902
731.650	0.0152175
731.728	0.0154084
731.807	0.0153284
731.885	0.0153302
731.963	0.0152289
732.041	0.0151486
732.119	0.0152049
732.197	0.0151446
732.275	0.0151656
732.353	0.0151360
732.432	0.0150847
732.510	0.0152513
732.588	0.0152701
732.666	0.0153222
732.744	0.0153877
732.822	0.0156290
732.900	0.0156915
732.978	0.0156307
733.057	0.0156573
733.135	0.0157408
733.213	0.0158276
733.291	0.0156814
733.369	0.0155979
733.447	0.0156288
733.525	0.0155402
733.603	0.0152087
733.682	0.0150279
733.760	0.0147240
733.838	0.0144732
733.916	0.0140833
733.994	0.0136301
734.072	0.0131859
734.150	0.0128078
734.228	0.0125749
734.307	0.0122115
734.385	0.0118848
734.463	0.0115246
734.541	0.0115280
734.619	0.0113013
734.697	0.0112032
734.775	0.0110830
734.853	0.0111571
734.932	0.0111507
735.010	0.0112444
735.088	0.0113289
735.166	0.0116518
735.244	0.0116566
735.322	0.0120349
735.400	0.0121442
735.478	0.0125131
735.557	0.0126740
735.635	0.0129297
735.713	0.0131754
735.791	0.0133692
735.869	0.0136165
735.947	0.0136491
736.025	0.0137454
736.103	0.0140128
736.182	0.0140678
736.260	0.0140735
736.338	0.0141254
736.416	0.0140940
736.494	0.0140327
736.572	0.0140764
736.650	0.0140491
736.728	0.0141145
736.807	0.0139861
736.885	0.0140697
736.963	0.0141219
737.041	0.0143533
737.119	0.0145691
737.197	0.0146593
737.275	0.0148444
737.353	0.0151065
737.432	0.0152218
737.510	0.0153006
737.588	0.0153674
737.666	0.0154720
737.744	0.0154932
737.822	0.0156126
737.900	0.0158377
737.978	0.0158942
738.057	0.0156678
738.135	0.0157494
738.213	0.0157647
738.291	0.0158736
738.369	0.0155708
738.447	0.0155676
738.525	0.0157614
738.603	0.0157515
738.682	0.0156328
738.760	0.0156837
738.838	0.0157569
738.916	0.0157147
738.994	0.0158305
739.072	0.0156776
739.150	0.0157863
739.228	0.0157761
739.307	0.0157491
739.385	0.0156348
739.463	0.0157362
739.541	0.0154490
739.619	0.0153226
739.697	0.0152109
739.775	0.0150694
739.853	0.0147891
739.932	0.0145555
740.010	0.0142747
740.088	0.0140420
740.166	0.0136599
740.244	0.0132769
740.322	0.0128787
740.400	0.0125509
740.478	0.0122177
740.557	0.0119460
740.635	0.0115743
740.713	0.0113213
740.791	0.0111745
740.869	0.0108750
740.947	0.0107633
741.025	0.0106895
741.103	0.0107153
741.182	0.0109171
741.260	0.0110179
741.338	0.0109703
741.416	0.0111959
741.494	0.0114763
741.572	0.0117230
741.650	0.0120731
741.728	0.0122841
741.807	0.0125928
741.885	0.0129253
741.963	0.0132497
742.041	0.0135036
742.119	0.0137611
742.197	0.0141155
742.275	0.0143231
742.353	0.0145815
742.432	0.0145811
742.510	0.0148653
742.588	0.0148325
742.666	0.0148796
742.744	0.0151652
742.822	0.0150429
742.900	0.0149961
742.978	0.0151199
743.057	0.0151264
743.135	0.0151118
743.213	0.0150946
743.291	0.0150578
743.369	0.0151773
743.447	0.0151968
743.525	0.0153519
743.603	0.0155132
743.682	0.0155607
743.760	0.0156088
743.838	0.0157776
743.916	0.0158243
743.994	0.0159496
744.072	0.0158910
744.150	0.0157977
744.228	0.0158335
744.307	0.0157838
744.385	0.0157758
744.463	0.0157103
744.541	0.0154449
744.619	0.0155804
744.697	0.0154954
744.775	0.0154070
744.853	0.0153146
744.932	0.0152720
745.010	0.0151368
745.088	0.0152090
745.166	0.0151562
745.244	0.0149667
745.322	0.0150067
745.400	0.0149773
745.478	0.0148984
745.557	0.0148319
745.635	0.0147140
745.713	0.0146923
745.791	0.0144666
745.869	0.0143679
745.947	0.0142699
746.025	0.0141477
746.103	0.0138824
746.182	0.0136700
746.260	0.0136135
746.338	0.0134478
746.416	0.0134213
746.494	0.0130315
746.572	0.0131024
746.650	0.0128768
746.728	0.0126627
746.807	0.0125894
746.885	0.0124123
746.963	0.0122044
747.041	0.0121706
747.119	0.0120313
747.197	0.0119995
747.275	0.0117816
747.353	0.0119736
747.432	0.0119033
747.510	0.0120017
747.588	0.0120930
747.666	0.0120128
747.744	0.0120735
747.822	0.0122159
747.900	0.0124526
747.978	0.0125625
748.057	0.0127267
748.135	0.0129473
748.213	0.0131059
748.291	0.0133766
748.369	0.0134367
748.447	0.0137885
748.525	0.0139019
748.603	0.0139980
748.682	0.0142345
748.760	0.0144395
748.838	0.0145088
748.916	0.0146082
748.994	0.0146721
749.072	0.0146339
749.150	0.0144599
749.228	0.0144838
749.307	0.0145821
749.385	0.0146524
749.463	0.0147697
749.541	0.0147997
749.619	0.0148214
749.697	0.0147559
749.775	0.0150568
749.853	0.0150374
749.932	0.0149035
750.010	0.0150877
750.088	0.0151071
750.166	0.0151377
750.244	0.0153114
750.322	0.0153143
750.400	0.0152364
750.478	0.0153300
750.557	0.0152050
750.635	0.0152861
750.713	0.0153751
750.791	0.0152702
750.869	0.0151131
750.947	0.0150883
751.025	0.0150774
751.103	0.0150746
751.182	0.0149780
751.260	0.0149409
751.338	0.0150072
751.416	0.0148464
751.494	0.0148158
751.572	0.0145858
751.650	0.0144776
751.728	0.0143974
751.807	0.0144025
751.885	0.0144088
751.963	0.0144382
752.041	0.0142244
752.119	0.0141363
752.197	0.0141629
752.275	0.0140266
752.353	0.0140419
752.432	0.0139069
752.510	0.0137283
752.588	0.0138250
752.666	0.0137567
752.744	0.0135162
752.822	0.0135020
752.900	0.0134322
752.978	0.0132565
753.057	0.0132690
753.135	0.0131307
753.213	0.0128316
753.291	0.0128811
753.369	0.0127888
753.447	0.0126009
753.525	0.0126389
753.603	0.0126427
753.682	0.0126215
753.760	0.0126153
753.838	0.0126353
753.916	0.0125985
753.994	0.0127715
754.072	0.0127690
754.150	0.0126717
754.228	0.0128576
754.307	0.0129034
754.385	0.0128566
754.463	0.0131740
754.541	0.0132542
754.619	0.0132857
754.697	0.0133611
754.775	0.0134123
754.853	0.0135430
754.932	0.0135554
755.010	0.0136794
755.088	0.0135603
755.166	0.0137850
755.244	0.0138193
755.322	0.0136678
755.400	0.0139741
755.478	0.0139675
755.557	0.0140087
755.635	0.0142016
755.713	0.0142845
755.791	0.0142954
755.869	0.0144676
755.947	0.0147445
756.025	0.0147849
756.103	0.0147748
756.182	0.0148808
756.260	0.0149718
756.338	0.0150540
756.416	0.0152430
756.494	0.0151274
756.572	0.0151735
756.650	0.0151614
756.728	0.0150394
756.807	0.0149702
756.885	0.0149055
756.963	0.0150606
757.041	0.0149050
757.119	0.0148903
757.197	0.0149503
757.275	0.0148566
757.353	0.0150182
757.432	0.0150069
757.510	0.0149388
757.588	0.0148779
757.666	0.0148875
757.744	0.0148680
757.822	0.0148711
757.900	0.0148071
757.978	0.0147699
758.057	0.0146539
758.135	0.0146193
758.213	0.0144868
758.291	0.0144411
758.369	0.0144350
758.447	0.0143574
758.525	0.0142910
758.603	0.0142785
758.682	0.0140142
758.760	0.0141247
758.838	0.0140858
758.916	0.0138857
758.994	0.0139385
759.072	0.0140083
759.150	0.0139319
759.228	0.0136910
759.307	0.0137335
759.385	0.0136217
759.463	0.0135206
759.541	0.0134413
759.619	0.0134139
759.697	0.0135184
759.775	0.0133588
759.853	0.0133610
759.932	0.0133491
760.010	0.0133452
760.088	0.0134259
760.166	0.0133618
760.244	0.0133520
760.322	0.0133723
760.400	0.0134215
760.478	0.0135876
760.557	0.0134552
760.635	0.0135317
760.713	0.0136214
760.791	0.0136044
760.869	0.0135738
760.947	0.0136155
761.025	0.0135634
761.103	0.0135601
761.182	0.0136000
761.260	0.0136964
761.338	0.0137540
761.416	0.0137727
761.494	0.0139272
761.572	0.0137965
761.650	0.0138309
761.728	0.0137782
761.807	0.0137187
761.885	0.0138587
761.963	0.0138673
762.041	0.0138011
762.119	0.0139859
762.197	0.0141537
762.275	0.0141103
762.353	0.0143640
762.432	0.0142538
762.510	0.0143034
762.588	0.0144775
762.666	0.0143357
762.744	0.0144210
762.822	0.0146094
762.900	0.0145807
762.978	0.0145657
763.057	0.0146869
763.135	0.0145509
763.213	0.0145910
763.291	0.0145393
763.369	0.0145181
763.447	0.0147071
763.525	0.0146761
763.603	0.0144631
763.682	0.0145444
763.760	0.0145319
763.838	0.0145406
763.916	0.0145885
763.994	0.0147421
764.072	0.0146423
764.150	0.0146055
764.228	0.0145721
764.307	0.0145426
764.385	0.0144695
764.463	0.0145251
764.541	0.0146131
764.619	0.0145679
764.697	0.0144967
764.775	0.0144569
764.853	0.0145515
764.932	0.0145699
765.010	0.0144282
765.088	0.0144746
765.166	0.0144552
765.244	0.0143852
765.322	0.0143952
765.400	0.0143227
765.478	0.0143520
765.557	0.0143875
765.635	0.0142967
765.713	0.0142378
765.791	0.0142075
765.869	0.0142030
765.947	0.0139709
766.025	0.0139901
766.103	0.0139785
766.182	0.0139962
766.260	0.0139056
766.338	0.0140833
766.416	0.0140833
766.494	0.0140953
766.572	0.0139560
766.650	0.0140149
766.728	0.0140356
766.807	0.0139075
766.885	0.0140416
766.963	0.0140290
767.041	0.0138857
767.119	0.0138875
767.197	0.0137579
767.275	0.0137074
767.353	0.0137127
767.432	0.0135841
767.510	0.0135339
767.588	0.0134135
767.666	0.0133894
767.744	0.0133987
767.822	0.0133386
767.900	0.0132851
767.978	0.0133379
768.057	0.0132618
768.135	0.0133451
768.213	0.0132731
768.291	0.0135982
768.369	0.0136559
768.447	0.0135738
768.525	0.0137765
768.603	0.0139246
768.682	0.0139450
768.760	0.0140499
768.838	0.0140119
768.916	0.0139334
768.994	0.0140051
769.072	0.0139748
769.150	0.0139671
769.228	0.0139512
769.307	0.0140733
769.385	0.0140462
769.463	0.0140192
769.541	0.0139603
769.619	0.0140662
769.697	0.0139864
769.775	0.0140104
769.853	0.0140088
769.932	0.0141120
770.010	0.0141256
770.088	0.0142049
770.166	0.0142466
770.244	0.0142879
770.322	0.0144894
770.400	0.0144659
770.478	0.0145780
770.557	0.0145854
770.635	0.0147192
770.713	0.0148077
770.791	0.0147207
770.869	0.0147150
770.947	0.0146317
771.025	0.0148186
771.103	0.0147241
771.182	0.0146986
771.260	0.0144939
771.338	0.0146236
771.416	0.0144790
771.494	0.0145651
771.572	0.0144186
771.650	0.0144264
771.728	0.0144920
771.807	0.0143396
771.885	0.0144793
771.963	0.0142738
772.041	0.0141538
772.119	0.0142739
772.197	0.0142918
772.275	0.0142997
772.353	0.0141782
772.432	0.0141124
772.510	0.0142567
772.588	0.0140806
772.666	0.0141143
772.744	0.0142310
772.822	0.0140263
772.900	0.0139458
772.978	0.0140185
773.057	0.0140315
773.135	0.0139065
773.213	0.0139433
773.291	0.0140120
773.369	0.0139651
773.447	0.0138651
773.525	0.0139137
773.603	0.0139564
773.682	0.0138058
773.760	0.0137399
773.838	0.0137437
773.916	0.0137395
773.994	0.0135905
774.072	0.0135600
774.150	0.0135954
774.228	0.0135629
774.307	0.0135862
774.385	0.0134617
774.463	0.0134906
774.541	0.0134758
774.619	0.0133796
774.697	0.0134323
774.775	0.0134446
774.853	0.0135448
774.932	0.0135136
775.010	0.0135349
775.088	0.0136600
775.166	0.0135728
775.244	0.0136189
775.322	0.0135130
775.400	0.0134670
775.478	0.0135342
775.557	0.0136406
775.635	0.0137011
775.713	0.0136040
775.791	0.0137045
775.869	0.0137901
775.947	0.0138369
776.025	0.0140917
776.103	0.0140856
776.182	0.0142563
776.260	0.0142120
776.338	0.0142075
776.416	0.0145197
776.494	0.0145110
776.572	0.0145252
776.650	0.0146146
776.728	0.0147756
776.807	0.0146662
776.885	0.0147940
776.963	0.0148545
777.041	0.0150030
777.119	0.0148703
777.197	0.0148307
777.275	0.0147945
777.353	0.0148920
777.432	0.0147812
777.510	0.0147906
777.588	0.0146502
777.666	0.0145724
777.744	0.0146085
777.822	0.0143359
777.900	0.0144515
777.978	0.0142440
778.057	0.0142400
778.135	0.0142783
778.213	0.0142532
778.291	0.0140639
778.369	0.0141517
778.447	0.0141206
778.525	0.0139842
778.603	0.0141928
778.682	0.0141565
778.760	0.0143124
778.838	0.0142984
778.916	0.0143236
778.994	0.0143879
779.072	0.0144146
779.150	0.0143301
779.228	0.0145347
779.307	0.0146407
779.385	0.0144735
779.463	0.0145780
779.541	0.0144866
779.619	0.0145518
779.697	0.0146306
779.775	0.0144489
779.853	0.0144810
779.932	0.0142505
780.010	0.0143703
780.088	0.0140738
780.166	0.0140710
780.244	0.0140306
780.322	0.0138942
780.400	0.0137297
780.478	0.0136625
780.557	0.0135690
780.635	0.0134555
780.713	0.0135405
780.791	0.0134388
780.869	0.0135297
780.947	0.0135311
781.025	0.0135508
781.103	0.0135654
781.182	0.0136002
781.260	0.0134962
781.338	0.0137153
781.416	0.0136787
781.494	0.0136655
781.572	0.0137389
781.650	0.0137197
781.728	0.0136902
781.807	0.0136761
781.885	0.0135963
781.963	0.0137035
782.041	0.0138549
782.119	0.0137322
782.197	0.0137902
782.275	0.0139342
782.353	0.0140124
782.432	0.0138091
782.510	0.0139762
782.588	0.0141387
782.666	0.0141368
782.744	0.0141972
782.822	0.0143266
782.900	0.0143839
782.978	0.0144228
783.057	0.0144280
783.135	0.0145050
783.213	0.0144849
783.291	0.0145410
783.369	0.0146386
783.447	0.0145405
783.525	0.0145597
783.603	0.0147030
783.682	0.0146139
783.760	0.0146478
783.838	0.0146624
783.916	0.0145856
783.994	0.0145901
784.072	0.0146369
784.150	0.0146368
784.228	0.0146328
784.307	0.0144543
784.385	0.0144829
784.463	0.0144388
784.541	0.0143820
784.619	0.0143216
784.697	0.0141405
784.775	0.0141080
784.853	0.0140590
784.932	0.0141339
785.010	0.0141908
785.088	0.0139787
785.166	0.0142787
785.244	0.0141088
785.322	0.0140427
785.400	0.0141475
785.478	0.0143327
785.557	0.0141735
785.635	0.0142570
785.713	0.0143346
785.791	0.0144021
785.869	0.0142979
785.947	0.0142641
786.025	0.0144885
786.103	0.0143361
786.182	0.0143696
786.260	0.0143208
786.338	0.0142260
786.416	0.0142822
786.494	0.0141628
786.572	0.0139569
786.650	0.0140204
786.728	0.0140739
786.807	0.0140135
786.885	0.0139164
786.963	0.0137177
787.041	0.0137678
787.119	0.0137677
787.197	0.0137154
787.275	0.0136049
787.353	0.0136439
787.432	0.0135770
787.510	0.0136690
787.588	0.0137307
787.666	0.0137383
787.744	0.0136168
787.822	0.0138762
787.900	0.0137671
787.978	0.0137843
788.057	0.0137844
788.135	0.0137960
788.213	0.0139350
788.291	0.0139165
788.369	0.0140024
788.447	0.0138931
788.525	0.0138676
788.603	0.0139898
788.682	0.0140589
788.760	0.0139777
788.838	0.0139764
788.916	0.0139246
788.994	0.0139841
789.072	0.0139635
789.150	0.0139349
789.228	0.0139996
789.307	0.0140840
789.385	0.0139327
789.463	0.0141134
789.541	0.0140018
789.619	0.0140723
789.697	0.0140910
789.775	0.0140877
789.853	0.0142326
789.932	0.0140873
790.010	0.0142377
790.088	0.0140968
790.166	0.0143307
790.244	0.0143938
790.322	0.0142890
790.400	0.0142642
790.478	0.0142842
790.557	0.0142602
790.635	0.0142221
790.713	0.0141213
790.791	0.0142191
790.869	0.0141988
790.947	0.0139306
791.025	0.0139381
791.103	0.0139893
791.182	0.0139049
791.260	0.0135915
791.338	0.0136667
791.416	0.0136119
791.494	0.0137481
791.572	0.0137347
791.650	0.0136866
791.728	0.0136533
791.807	0.0138360
791.885	0.0137804
791.963	0.0140784
792.041	0.0139850
792.119	0.0140462
792.197	0.0142425
792.275	0.0141023
792.353	0.0142476
792.432	0.0142021
792.510	0.0144914
792.588	0.0145139
792.666	0.0144883
792.744	0.0144777
792.822	0.0145924
792.900	0.0147200
792.978	0.0145099
793.057	0.0147243
793.135	0.0147749
793.213	0.0148370
793.291	0.0146925
793.369	0.0148737
793.447	0.0148537
793.525	0.0148835
793.603	0.0147571
793.682	0.0145762
793.760	0.0145424
793.838	0.0145842
793.916	0.0143482
793.994	0.0144286
794.072	0.0142886
794.150	0.0142662
794.228	0.0140648
794.307	0.0139034
794.385	0.0139307
794.463	0.0136878
794.541	0.0136353
794.619	0.0134274
794.697	0.0135460
794.775	0.0134370
794.853	0.0133803
794.932	0.0133207
795.010	0.0131878
795.088	0.0131924
795.166	0.0131769
795.244	0.0133326
795.322	0.0133275
795.400	0.0132108
795.478	0.0131853
795.557	0.0134000
795.635	0.0134895
795.713	0.0133590
795.791	0.0135289
795.869	0.0136247
795.947	0.0136092
796.025	0.0137049
796.103	0.0137930
796.182	0.0138766
796.260	0.0140066
796.338	0.0141827
796.416	0.0141616
796.494	0.0142089
796.572	0.0143738
796.650	0.0143967
796.728	0.0143245
796.807	0.0144541
796.885	0.0144004
796.963	0.0144567
797.041	0.0144508
797.119	0.0143883
797.197	0.0145720
797.275	0.0142929
797.353	0.0142685
797.432	0.0143157
797.510	0.0141016
797.588	0.0140582
797.666	0.0140556
797.744	0.0140886
797.822	0.0141082
797.900	0.0140433
797.978	0.0141682
798.057	0.0142248
798.135	0.0142581
798.213	0.0141811
798.291	0.0141177
798.369	0.0142757
798.447	0.0142881
798.525	0.0143812
798.603	0.0142389
798.682	0.0144574
798.760	0.0146244
798.838	0.0145345
798.916	0.0143383
798.994	0.0144946
799.072	0.0144239
799.150	0.0146028
799.228	0.0144366
799.307	0.0144397
799.385	0.0145734
799.463	0.0145768
799.541	0.0145097
799.619	0.0144012
799.697	0.0145277
799.775	0.0144082
799.853	0.0145269
799.932	0.0144407
800.010	0.0144461
800.088	0.0142830
800.166	0.0143425
800.244	0.0144109
800.322	0.0143869
800.400	0.0142139
800.478	0.0141003
800.557	0.0141693
800.635	0.0143843
800.713	0.0142936
800.791	0.0141063
800.869	0.0139118
800.947	0.0140063
801.025	0.0139704
801.103	0.0138441
801.182	0.0138857
801.260	0.0137895
801.338	0.0136542
801.416	0.0136088
801.494	0.0136180
801.572	0.0134306
801.650	0.0133985
801.728	0.0134013
801.807	0.0135167
801.885	0.0135664
801.963	0.0136129
802.041	0.0136202
802.119	0.0135348
802.197	0.0134945
802.275	0.0136758
802.353	0.0137974
802.432	0.0138176
802.510	0.0137839
802.588	0.0139219
802.666	0.0138575
802.744	0.0139610
802.822	0.0140071
802.900	0.0139483
802.978	0.0140980
803.057	0.0140461
803.135	0.0141809
803.213	0.0143542
803.291	0.0143156
803.369	0.0142855
803.447	0.0143534
803.525	0.0143117
803.603	0.0144045
803.682	0.0144579
803.760	0.0144138
803.838	0.0143633
803.916	0.0144373
803.994	0.0143301
804.072	0.0143690
804.150	0.0141959
804.228	0.0142255
804.307	0.0143525
804.385	0.0143028
804.463	0.0141891
804.541	0.0143250
804.619	0.0141376
804.697	0.0141401
804.775	0.0142215
804.853	0.0142433
804.932	0.0142521
805.010	0.0141897
805.088	0.0141079
805.166	0.0143095
805.244	0.0142867
805.322	0.0141094
805.400	0.0142112
805.478	0.0141225
805.557	0.0142699
805.635	0.0140955
805.713	0.0141582
805.791	0.0138516
805.869	0.0141602
805.947	0.0140914
806.025	0.0138213
806.103	0.0140028
806.182	0.0139640
806.260	0.0140061
806.338	0.0140530
806.416	0.0140255
806.494	0.0141077
806.572	0.0140839
806.650	0.0140813
806.728	0.0141655
806.807	0.0140450
806.885	0.0141751
806.963	0.0141486
807.041	0.0143404
807.119	0.0142947
807.197	0.0143412
807.275	0.0143095
807.353	0.0142120
807.432	0.0141786
807.510	0.0143498
807.588	0.0142831
807.666	0.0140994
807.744	0.0142120
807.822	0.0140965
807.900	0.0139426
807.978	0.0141229
808.057	0.0139507
808.135	0.0138608
808.213	0.0139197
808.291	0.0139934
808.369	0.0139284
808.447	0.0138349
808.525	0.0137308
808.603	0.0140157
808.682	0.0140522
808.760	0.0139793
808.838	0.0139822
808.916	0.0139461
808.994	0.0140398
809.072	0.0140030
809.150	0.0139730
809.228	0.0141035
809.307	0.0140720
809.385	0.0141098
809.463	0.0140938
809.541	0.0140903
809.619	0.0141517
809.697	0.0141726
809.775	0.0142731
809.853	0.0142057
809.932	0.0143302
810.010	0.0142388
810.088	0.0142330
810.166	0.0140950
810.244	0.0141630
810.322	0.0141555
810.400	0.0142271
810.478	0.0140987
810.557	0.0141772
810.635	0.0141141
810.713	0.0140432
810.791	0.0141653
810.869	0.0141454
810.947	0.0139636
811.025	0.0141335
811.103	0.0139998
811.182	0.0139680
811.260	0.0140698
811.338	0.0139494
811.416	0.0140210
811.494	0.0141077
811.572	0.0140960
811.650	0.0140740
811.728	0.0141605
811.807	0.0141544
811.885	0.0141674
811.963	0.0141003
812.041	0.0140675
812.119	0.0141772
812.197	0.0142752
812.275	0.0141621
812.353	0.0141473
812.432	0.0139860
812.510	0.0142371
812.588	0.0141562
812.666	0.0140835
812.744	0.0140679
812.822	0.0142123
812.900	0.0139779
812.978	0.0141253
813.057	0.0141187
813.135	0.0141988
813.213	0.0139950
813.291	0.0139756
813.369	0.0140116
813.447	0.0139088
813.525	0.0139682
813.603	0.0139407
813.682	0.0139726
813.760	0.0137587
813.838	0.0138507
813.916	0.0139462
813.994	0.0138450
814.072	0.0139117
814.150	0.0140928
814.228	0.0139645
814.307	0.0141316
814.385	0.0141656
814.463	0.0141692
814.541	0.0141612
814.619	0.0141371
814.697	0.0142376
814.775	0.0142224
814.853	0.0142899
814.932	0.0143958
815.010	0.0143601
815.088	0.0143215
815.166	0.0142194
815.244	0.0142379
815.322	0.0144023
815.400	0.0142424
815.478	0.0141564
815.557	0.0143235
815.635	0.0141707
815.713	0.0141224
815.791	0.0140048
815.869	0.0139738
815.947	0.0139542
816.025	0.0139948
816.103	0.0139018
816.182	0.0137836
816.260	0.0137769
816.338	0.0138154
816.416	0.0136546
816.494	0.0138712
816.572	0.0138794
816.650	0.0139339
816.728	0.0138156
816.807	0.0139792
816.885	0.0140022
816.963	0.0139151
817.041	0.0140916
817.119	0.0141863
817.197	0.0141446
817.275	0.0141932
817.353	0.0141562
817.432	0.0143649
817.510	0.0142759
817.588	0.0143366
817.666	0.0142904
817.744	0.0142309
817.822	0.0142136
817.900	0.0142161
817.978	0.0141577
818.057	0.0139985
818.135	0.0141334
818.213	0.0140569
818.291	0.0139414
818.369	0.0138937
818.447	0.0137695
818.525	0.0136699
818.603	0.0134866
818.682	0.0135581
818.760	0.0136124
818.838	0.0133563
818.916	0.0134846
818.994	0.0133829
819.072	0.0134259
819.150	0.0134705
819.228	0.0135237
819.307	0.0134779
819.385	0.0135732
819.463	0.0135084
819.541	0.0136243
819.619	0.0138095
819.697	0.0137121
819.775	0.0137888
819.853	0.0138001
819.932	0.0139085
820.010	0.0139493
820.088	0.0139555
820.166	0.0140922
820.244	0.0141817
820.322	0.0141523
820.400	0.0141807
820.478	0.0142819
820.557	0.0144102
820.635	0.0145188
820.713	0.0143606
820.791	0.0144974
820.869	0.0143701
820.947	0.0142545
821.025	0.0143400
821.103	0.0143373
821.182	0.0143104
821.260	0.0143600
821.338	0.0142461
821.416	0.0140947
821.494	0.0143723
821.572	0.0144263
821.650	0.0143284
821.728	0.0142684
821.807	0.0142232
821.885	0.0142241
821.963	0.0142722
822.041	0.0144851
822.119	0.0142645
822.197	0.0143446
822.275	0.0144524
822.353	0.0145165
822.432	0.0144904
822.510	0.0146863
822.588	0.0144965
822.666	0.0146214
822.744	0.0147161
822.822	0.0145120
822.900	0.0146046
822.978	0.0146218
823.057	0.0145221
823.135	0.0143404
823.213	0.0143554
823.291	0.0142767
823.369	0.0143428
823.447	0.0143437
823.525	0.0141864
823.603	0.0139788
823.682	0.0140057
823.760	0.0139355
823.838	0.0139202
823.916	0.0138611
823.994	0.0137442
824.072	0.0137244
824.150	0.0137867
824.228	0.0136504
824.307	0.0136255
824.385	0.0135817
824.463	0.0135843
824.541	0.0135228
824.619	0.0137181
824.697	0.0136633
824.775	0.0136674
824.853	0.0136797
824.932	0.0136748
825.010	0.0137984
825.088	0.0136603
825.166	0.0136404
825.244	0.0137425
825.322	0.0137682
825.400	0.0138333
825.478	0.0139931
825.557	0.0139308
825.635	0.0139520
825.713	0.0138702
825.791	0.0138330
825.869	0.0140456
825.947	0.0139030
826.025	0.0139913
826.103	0.0140291
826.182	0.0140071
826.260	0.0139232
826.338	0.0139451
826.416	0.0139754
826.494	0.0139479
826.572	0.0141177
826.650	0.0139947
826.728	0.0139936
826.807	0.0139920
826.885	0.0138059
826.963	0.0140783
827.041	0.0140471
827.119	0.0140227
827.197	0.0140244
827.275	0.0140694
827.353	0.0141191
827.432	0.0139710
827.510	0.0141195
827.588	0.0141434
827.666	0.0140624
827.744	0.0140717
827.822	0.0142045
827.900	0.0140817
827.978	0.0141437
828.057	0.0140193
828.135	0.0141933
828.213	0.0141935
828.291	0.0142390
828.369	0.0142675
828.447	0.0142684
828.525	0.0143668
828.603	0.0144492
828.682	0.0143264
828.760	0.0144252
828.838	0.0145470
828.916	0.0144736
828.994	0.0145786
829.072	0.0145452
829.150	0.0144563
829.228	0.0146553
829.307	0.0146533
829.385	0.0146970
829.463	0.0148062
829.541	0.0145750
829.619	0.0146219
829.697	0.0145485
829.775	0.0146119
829.853	0.0146500
829.932	0.0147987
830.010	0.0146124
830.088	0.0143644
830.166	0.0143399
830.244	0.0143400
830.322	0.0142087
830.400	0.0141253
830.478	0.0139901
830.557	0.0139366
830.635	0.0137738
830.713	0.0137263
830.791	0.0136238
830.869	0.0135114
830.947	0.0133245
831.025	0.0131762
831.103	0.0132440
831.182	0.0131274
831.260	0.0131411
831.338	0.0131340
831.416	0.0130872
831.494	0.0130039
831.572	0.0130860
831.650	0.0130983
831.728	0.0131152
831.807	0.0132184
831.885	0.0134076
831.963	0.0134795
832.041	0.0133928
832.119	0.0136092
832.197	0.0137182
832.275	0.0138013
832.353	0.0139810
832.432	0.0139078
832.510	0.0139419
832.588	0.0141084
832.666	0.0142253
832.744	0.0143130
832.822	0.0142259
832.900	0.0142822
832.978	0.0143209
833.057	0.0143211
833.135	0.0142638
833.213	0.0143359
833.291	0.0142696
833.369	0.0143268
833.447	0.0143130
833.525	0.0142777
833.603	0.0143338
833.682	0.0141722
833.760	0.0141917
833.838	0.0143656
833.916	0.0142950
833.994	0.0142496
834.072	0.0142246
834.150	0.0142690
834.228	0.0143674
834.307	0.0142247
834.385	0.0143385
834.463	0.0143844
834.541	0.0142451
834.619	0.0144275
834.697	0.0144029
834.775	0.0143940
834.853	0.0145604
834.932	0.0145522
835.010	0.0145500
835.088	0.0144456
835.166	0.0145432
835.244	0.0145756
835.322	0.0143662
835.400	0.0145591
835.478	0.0145322
835.557	0.0145038
835.635	0.0144431
835.713	0.0146729
835.791	0.0145039
835.869	0.0145210
835.947	0.0145919
836.025	0.0145435
836.103	0.0145732
836.182	0.0146410
836.260	0.0143629
836.338	0.0144078
836.416	0.0145169
836.494	0.0142656
836.572	0.0142171
836.650	0.0140003
836.728	0.0140498
836.807	0.0139252
836.885	0.0137215
836.963	0.0138387
837.041	0.0136597
837.119	0.0135827
837.197	0.0134486
837.275	0.0135064
837.353	0.0134767
837.432	0.0132739
837.510	0.0134975
837.588	0.0134636
837.666	0.0134133
837.744	0.0134187
837.822	0.0133260
837.900	0.0132251
837.978	0.0133768
838.057	0.0132912
838.135	0.0132586
838.213	0.0133917
838.291	0.0133961
838.369	0.0132931
838.447	0.0132966
838.525	0.0134725
838.603	0.0133694
838.682	0.0134423
838.760	0.0135402
838.838	0.0136548
838.916	0.0136512
838.994	0.0137588
839.072	0.0139964
839.150	0.0139917
839.228	0.0139510
839.307	0.0140618
839.385	0.0142535
839.463	0.0144476
839.541	0.0145152
839.619	0.0146627
839.697	0.0144981
839.775	0.0146450
839.853	0.0148315
839.932	0.0147398
840.010	0.0148608
840.088	0.0149475
840.166	0.0148634
840.244	0.0147600
840.322	0.0149440
840.400	0.0147141
840.478	0.0148252
840.557	0.0148533
840.635	0.0148302
840.713	0.0146547
840.791	0.0146371
840.869	0.0146815
840.947	0.0147763
841.025	0.0146814
841.103	0.0144888
841.182	0.0144283
841.260	0.0144815
841.338	0.0143674
841.416	0.0143604
841.494	0.0142493
841.572	0.0142461
841.650	0.0142867
841.728	0.0141077
841.807	0.0140174
841.885	0.0140026
841.963	0.0141521
842.041	0.0140691
842.119	0.0138711
842.197	0.0138174
842.275	0.0139193
842.353	0.0139178
842.432	0.0139430
842.510	0.0138873
842.588	0.0138876
842.666	0.0138991
842.744	0.0137953
842.822	0.0139574
842.900	0.0140556
842.978	0.0139629
843.057	0.0138167
843.135	0.0137780
843.213	0.0138128
843.291	0.0138412
843.369	0.0138934
843.447	0.0138291
843.525	0.0139530
843.603	0.0138779
843.682	0.0138319
843.760	0.0138448
843.838	0.0138729
843.916	0.0139411
843.994	0.0140289
844.072	0.0140298
844.150	0.0140428
844.228	0.0139381
844.307	0.0139048
844.385	0.0139742
844.463	0.0139244
844.541	0.0139751
844.619	0.0138976
844.697	0.0138847
844.775	0.0138505
844.853	0.0138621
844.932	0.0137840
845.010	0.0137290
845.088	0.0139037
845.166	0.0136803
845.244	0.0137843
845.322	0.0137730
845.400	0.0139191
845.478	0.0139564
845.557	0.0140298
845.635	0.0139442
845.713	0.0139556
845.791	0.0140626
845.869	0.0141064
845.947	0.0143253
846.025	0.0143226
846.103	0.0144460
846.182	0.0143880
846.260	0.0143607
846.338	0.0143919
846.416	0.0144353
846.494	0.0144942
846.572	0.0143440
846.650	0.0145008
846.728	0.0144370
846.807	0.0145656
846.885	0.0143546
846.963	0.0143179
847.041	0.0143748
847.119	0.0144947
847.197	0.0143234
847.275	0.0144407
847.353	0.0143401
847.432	0.0143225
847.510	0.0144868
847.588	0.0142806
847.666	0.0142290
847.744	0.0140313
847.822	0.0142557
847.900	0.0143725
847.978	0.0142218
848.057	0.0140869
848.135	0.0141204
848.213	0.0140707
848.291	0.0139201
848.369	0.0141297
848.447	0.0140419
848.525	0.0140332
848.603	0.0139650
848.682	0.0139044
848.760	0.0137143
848.838	0.0137952
848.916	0.0137672
848.994	0.0136371
849.072	0.0135419
849.150	0.0136202
849.228	0.0137525
849.307	0.0135400
849.385	0.0135017
849.463	0.0135617
849.541	0.0134820
849.619	0.0135237
849.697	0.0134336
849.775	0.0135219
849.853	0.0134009
849.932	0.0133920
850.010	0.0137105
850.088	0.0134858
850.166	0.0136259
850.244	0.0136676
850.322	0.0136163
850.400	0.0137338
850.478	0.0137249
850.557	0.0138737
850.635	0.0139328
850.713	0.0138521
850.791	0.0139295
850.869	0.0139829
850.947	0.0139288
851.025	0.0141631
851.103	0.0140918
851.182	0.0143332
851.260	0.0141265
851.338	0.0139691
851.416	0.0139811
851.494	0.0141756
851.572	0.0141210
851.650	0.0140192
851.728	0.0140172
851.807	0.0140620
851.885	0.0140028
851.963	0.0138216
852.041	0.0139866
852.119	0.0138628
852.197	0.0137755
852.275	0.0138390
852.353	0.0139545
852.432	0.0140515
852.510	0.0140730
852.588	0.0140936
852.666	0.0141601
852.744	0.0141696
852.822	0.0141064
852.900	0.0143076
852.978	0.0143999
853.057	0.0142178
853.135	0.0143515
853.213	0.0143777
853.291	0.0145310
853.369	0.0144914
853.447	0.0143369
853.525	0.0143318
853.603	0.0144461
853.682	0.0144307
853.760	0.0143430
853.838	0.0143485
853.916	0.0143237
853.994	0.0144405
854.072	0.0144418
854.150	0.0142820
854.228	0.0141671
854.307	0.0143260
854.385	0.0142514
854.463	0.0142385
854.541	0.0141595
854.619	0.0141083
854.697	0.0141306
854.775	0.0139854
854.853	0.0140823
854.932	0.0140506
855.010	0.0139614
855.088	0.0139930
855.166	0.0139368
855.244	0.0138282
855.322	0.0140263
855.400	0.0139870
855.478	0.0139281
855.557	0.0140887
855.635	0.0139223
855.713	0.0139682
855.791	0.0138683
855.869	0.0138502
855.947	0.0139350
856.025	0.0139565
856.103	0.0138406
856.182	0.0141199
856.260	0.0140536
856.338	0.0140744
856.416	0.0139632
856.494	0.0141119
856.572	0.0142416
856.650	0.0142033
856.728	0.0141837
856.807	0.0141795
856.885	0.0140872
856.963	0.0141466
857.041	0.0140392
857.119	0.0141473
857.197	0.0141798
857.275	0.0141580
857.353	0.0140836
857.432	0.0140020
857.510	0.0141078
857.588	0.0141335
857.666	0.0140044
857.744	0.0140057
857.822	0.0139460
857.900	0.0140060
857.978	0.0140269
858.057	0.0139516
858.135	0.0139447
858.213	0.0137515
858.291	0.0139566
858.369	0.0138248
858.447	0.0138165
858.525	0.0139732
858.603	0.0140379
858.682	0.0139930
858.760	0.0140255
858.838	0.0140228
858.916	0.0140572
858.994	0.0141689
859.072	0.0142369
859.150	0.0141939
859.228	0.0142972
859.307	0.0143038
859.385	0.0143191
859.463	0.0143371
859.541	0.0143552
859.619	0.0143385
859.697	0.0144755
859.775	0.0143983
859.853	0.0143208
859.932	0.0143117
860.010	0.0143974
860.088	0.0144916
860.166	0.0143756
860.244	0.0143759
860.322	0.0142448
860.400	0.0141663
860.478	0.0142769
860.557	0.0142179
860.635	0.0141350
860.713	0.0141459
860.791	0.0141405
860.869	0.0140826
860.947	0.0140581
861.025	0.0140281
861.103	0.0140052
861.182	0.0139005
861.260	0.0139001
861.338	0.0138540
861.416	0.0139040
861.494	0.0139004
861.572	0.0138499
861.650	0.0138784
861.728	0.0138831
861.807	0.0139108
861.885	0.0139078
861.963	0.0138537
862.041	0.0137617
862.119	0.0139075
862.197	0.0139486
862.275	0.0140407
862.353	0.0138671
862.432	0.0138983
862.510	0.0140649
862.588	0.0139505
862.666	0.0139756
862.744	0.0140012
862.822	0.0140853
862.900	0.0140843
862.978	0.0140487
863.057	0.0139861
863.135	0.0139793
863.213	0.0141557
863.291	0.0139899
863.369	0.0139658
863.447	0.0141502
863.525	0.0141091
863.603	0.0139445
863.682	0.0140162
863.760	0.0140442
863.838	0.0140859
863.916	0.0141223
863.994	0.0142184
864.072	0.0143173
864.150	0.0142612
864.228	0.0144101
864.307	0.0142315
864.385	0.0142809
864.463	0.0141692
864.541	0.0144099
864.619	0.0141846
864.697	0.0139861
864.775	0.0140746
864.853	0.0141491
864.932	0.0141110
865.010	0.0141521
865.088	0.0140102
865.166	0.0140024
865.244	0.0141628
865.322	0.0139011
865.400	0.0138416
865.478	0.0140755
865.557	0.0139277
865.635	0.0139404
865.713	0.0139934
865.791	0.0141107
865.869	0.0140092
865.947	0.0138747
866.025	0.0140224
866.103	0.0141010
866.182	0.0141042
866.260	0.0139957
866.338	0.0141245
866.416	0.0141389
866.494	0.0140462
866.572	0.0141871
866.650	0.0142572
866.728	0.0140372
866.807	0.0142435
866.885	0.0141496
866.963	0.0142657
867.041	0.0142145
867.119	0.0141952
867.197	0.0141082
867.275	0.0142945
867.353	0.0141303
867.432	0.0142353
867.510	0.0144031
867.588	0.0142138
867.666	0.0143360
867.744	0.0143396
867.822	0.0142960
867.900	0.0144773
867.978	0.0142562
868.057	0.0143163
868.135	0.0142087
868.213	0.0143690
868.291	0.0142508
868.369	0.0141862
868.447	0.0142461
868.525	0.0141655
868.603	0.0140590
868.682	0.0141995
868.760	0.0141301
868.838	0.0140520
868.916	0.0139963
868.994	0.0140642
869.072	0.0138757
869.150	0.0138549
869.228	0.0137882
869.307	0.0138455
869.385	0.0138636
869.463	0.0140206
869.541	0.0139091
869.619	0.0138047
869.697	0.0138335
869.775	0.0138949
869.853	0.0138926
869.932	0.0138344
870.010	0.0138921
870.088	0.0139890
870.166	0.0138933
870.244	0.0137927
870.322	0.0140161
870.400	0.0139369
870.478	0.0139043
870.557	0.0140189
870.635	0.0138359
870.713	0.0138866
870.791	0.0139927
870.869	0.0140340
870.947	0.0140031
871.025	0.0138992
871.103	0.0140987
871.182	0.0140990
871.260	0.0141572
871.338	0.0140139
871.416	0.0142656
871.494	0.0142097
871.572	0.0141312
871.650	0.0142899
871.728	0.0141698
871.807	0.0142036
871.885	0.0142917
871.963	0.0141676
872.041	0.0141418
872.119	0.0141322
872.197	0.0140456
872.275	0.0142597
872.353	0.0141696
872.432	0.0138316
872.510	0.0139678
872.588	0.0139801
872.666	0.0138663
872.744	0.0139796
872.822	0.0139150
872.900	0.0139932
872.978	0.0137801
873.057	0.0138045
873.135	0.0139168
873.213	0.0138110
873.291	0.0136815
873.369	0.0137597
873.447	0.0136640
873.525	0.0138672
873.603	0.0137726
873.682	0.0138251
873.760	0.0137993
873.838	0.0137640
873.916	0.0138690
873.994	0.0139759
874.072	0.0139463
874.150	0.0139629
874.228	0.0141211
874.307	0.0142615
874.385	0.0142943
874.463	0.0143865
874.541	0.0143681
874.619	0.0145749
874.697	0.0146542
874.775	0.0147172
874.853	0.0145755
874.932	0.0146217
875.010	0.0146088
875.088	0.0146855
875.166	0.0147001
875.244	0.0144775
875.322	0.0145715
875.400	0.0145617
875.478	0.0143928
875.557	0.0143250
875.635	0.0144851
875.713	0.0144557
875.791	0.0141656
875.869	0.0140341
875.947	0.0141798
876.025	0.0140801
876.103	0.0139423
876.182	0.0139142
876.260	0.0139239
876.338	0.0137588
876.416	0.0137466
876.494	0.0138428
876.572	0.0137828
876.650	0.0138029
876.728	0.0138161
876.807	0.0137833
876.885	0.0136815
876.963	0.0138676
877.041	0.0138535
877.119	0.0137407
877.197	0.0137113
877.275	0.0138026
877.353	0.0137543
877.432	0.0138913
877.510	0.0140490
877.588	0.0140409
877.666	0.0140256
877.744	0.0140259
877.822	0.0141167
877.900	0.0140858
877.978	0.0142175
878.057	0.0141170
878.135	0.0142469
878.213	0.0142059
878.291	0.0141705
878.369	0.0140554
878.447	0.0141545
878.525	0.0139830
878.603	0.0139955
878.682	0.0140132
878.760	0.0139545
878.838	0.0139912
878.916	0.0139796
878.994	0.0140959
879.072	0.0139902
879.150	0.0139168
879.228	0.0139632
879.307	0.0140977
879.385	0.0139327
879.463	0.0139949
879.541	0.0140584
879.619	0.0139811
879.697	0.0139854
879.775	0.0139222
879.853	0.0141205
879.932	0.0142375
880.010	0.0141390
880.088	0.0142051
880.166	0.0143230
880.244	0.0142530
880.322	0.0143388
880.400	0.0143773
880.478	0.0143556
880.557	0.0143970
880.635	0.0142162
880.713	0.0142920
880.791	0.0142506
880.869	0.0142622
880.947	0.0143040
881.025	0.0141880
881.103	0.0142439
881.182	0.0141911
881.260	0.0140949
881.338	0.0140542
881.416	0.0141016
881.494	0.0140497
881.572	0.0139962
881.650	0.0139693
881.728	0.0141351
881.807	0.0138417
881.885	0.0140440
881.963	0.0141262
882.041	0.0141080
882.119	0.0139773
882.197	0.0141186
882.275	0.0142460
882.353	0.0141459
882.432	0.0142623
882.510	0.0143130
882.588	0.0143095
882.666	0.0143829
882.744	0.0143370
882.822	0.0143462
882.900	0.0141910
882.978	0.0142683
883.057	0.0143231
883.135	0.0142831
883.213	0.0142795
883.291	0.0142611
883.369	0.0142666
883.447	0.0142635
883.525	0.0142458
883.603	0.0143894
883.682	0.0142261
883.760	0.0141312
883.838	0.0142025
883.916	0.0141216
883.994	0.0141416
884.072	0.0140446
884.150	0.0140712
884.228	0.0140195
884.307	0.0139166
884.385	0.0138455
884.463	0.0138592
884.541	0.0138641
884.619	0.0138589
884.697	0.0137583
884.775	0.0139049
884.853	0.0137214
884.932	0.0137698
885.010	0.0138027
885.088	0.0137096
885.166	0.0136490
885.244	0.0136493
885.322	0.0136246
885.400	0.0136690
885.478	0.0137557
885.557	0.0135067
885.635	0.0136733
885.713	0.0137440
885.791	0.0137393
885.869	0.0137469
885.947	0.0137928
886.025	0.0139617
886.103	0.0139554
886.182	0.0139949
886.260	0.0138430
886.338	0.0139470
886.416	0.0141042
886.494	0.0141252
886.572	0.0142180
886.650	0.0140668
886.728	0.0139665
886.807	0.0139446
886.885	0.0140556
886.963	0.0142321
887.041	0.0142061
887.119	0.0141270
887.197	0.0141259
887.275	0.0142911
887.353	0.0142101
887.432	0.0142929
887.510	0.0143513
887.588	0.0143200
887.666	0.0144251
887.744	0.0141258
887.822	0.0143395
887.900	0.0144221
887.978	0.0144046
888.057	0.0145132
888.135	0.0143179
888.213	0.0145137
888.291	0.0144238
888.369	0.0143472
888.447	0.0144316
888.525	0.0145734
888.603	0.0144012
888.682	0.0142202
888.760	0.0143303
888.838	0.0142710
888.916	0.0144188
888.994	0.0141012
889.072	0.0140810
889.150	0.0141001
889.228	0.0141723
889.307	0.0141608
889.385	0.0141031
889.463	0.0141905
889.541	0.0141369
889.619	0.0140212
889.697	0.0140588
889.775	0.0139335
889.853	0.0140512
889.932	0.0141752
890.010	0.0140953
890.088	0.0140136
890.166	0.0140079
890.244	0.0140327
890.322	0.0141195
890.400	0.0141058
890.478	0.0141138
890.557	0.0141933
890.635	0.0141394
890.713	0.0141159
890.791	0.0141785
890.869	0.0141992
890.947	0.0140524
891.025	0.0139908
891.103	0.0140685
891.182	0.0139916
891.260	0.0139402
891.338	0.0139652
891.416	0.0139202
891.494	0.0138181
891.572	0.0138715
891.650	0.0136980
891.728	0.0137265
891.807	0.0136378
891.885	0.0136521
891.963	0.0137791
892.041	0.0137042
892.119	0.0135657
892.197	0.0137746
892.275	0.0137288
892.353	0.0137167
892.432	0.0135509
892.510	0.0137646
892.588	0.0138312
892.666	0.0137127
892.744	0.0137614
892.822	0.0138804
892.900	0.0136856
892.978	0.0137292
893.057	0.0138454
893.135	0.0139371
893.213	0.0137947
893.291	0.0137933
893.369	0.0138829
893.447	0.0139983
893.525	0.0140845
893.603	0.0139932
893.682	0.0142078
893.760	0.0140300
893.838	0.0141096
893.916	0.0142003
893.994	0.0142442
894.072	0.0143820
894.150	0.0143889
894.228	0.0143806
894.307	0.0144486
894.385	0.0144496
894.463	0.0143417
894.541	0.0143952
894.619	0.0144211
894.697	0.0145224
894.775	0.0142792
894.853	0.0143887
894.932	0.0141723
895.010	0.0141576
895.088	0.0143054
895.166	0.0143428
895.244	0.0142232
895.322	0.0142429
895.400	0.0139752
895.478	0.0140028
895.557	0.0141982
895.635	0.0141950
895.713	0.0142545
895.791	0.0140173
895.869	0.0141525
895.947	0.0141951
896.025	0.0140249
896.103	0.0141150
896.182	0.0140770
896.260	0.0140070
896.338	0.0140319
896.416	0.0141236
896.494	0.0140259
896.572	0.0139743
896.650	0.0139924
896.728	0.0140523
896.807	0.0140840
896.885	0.0141212
896.963	0.0139854
897.041	0.0141027
897.119	0.0140809
897.197	0.0140240
897.275	0.0140604
897.353	0.0140645
897.432	0.0140848
897.510	0.0141248
897.588	0.0141564
897.666	0.0140725
897.744	0.0140594
897.822	0.0138686
897.900	0.0139595
897.978	0.0139447
898.057	0.0139948
898.135	0.0140077
898.213	0.0139295
898.291	0.0138850
898.369	0.0140385
898.447	0.0138451
898.525	0.0139559
898.603	0.0139169
898.682	0.0139990
898.760	0.0140643
898.838	0.0141116
898.916	0.0139554
898.994	0.0141747
899.072	0.0142731
899.150	0.0140599
899.228	0.0140359
899.307	0.0142342
899.385	0.0141081
899.463	0.0140494
899.541	0.0140023
899.619	0.0140684
899.697	0.0140024
899.775	0.0138775
899.853	0.0138841
899.932	0.0139684
900.010	0.0138833
900.088	0.0139771
900.166	0.0139439
900.244	0.0139663
900.322	0.0140298
900.400	0.0140416
900.478	0.0138923
900.557	0.0139691
900.635	0.0140208
900.713	0.0141110
900.791	0.0142163
900.869	0.0142287
900.947	0.0140865
901.025	0.0143010
901.103	0.0142874
901.182	0.0141663
901.260	0.0142160
901.338	0.0145397
901.416	0.0144437
901.494	0.0144404
901.572	0.0144232
901.650	0.0143382
901.728	0.0143327
901.807	0.0143423
901.885	0.0143807
901.963	0.0145096
902.041	0.0143503
902.119	0.0141804
902.197	0.0143083
902.275	0.0142429
902.353	0.0144694
902.432	0.0142152
902.510	0.0143619
902.588	0.0143087
902.666	0.0143204
902.744	0.0142806
902.822	0.0143598
902.900	0.0143239
902.978	0.0143595
903.057	0.0143218
903.135	0.0141796
903.213	0.0141857
903.291	0.0141328
903.369	0.0142940
903.447	0.0143769
903.525	0.0141756
903.603	0.0140102
903.682	0.0142242
903.760	0.0143135
903.838	0.0141767
903.916	0.0142374
903.994	0.0141599
904.072	0.0143035
904.150	0.0142104
904.228	0.0141779
904.307	0.0141306
904.385	0.0141889
904.463	0.0141214
904.541	0.0141026
904.619	0.0141679
904.697	0.0141487
904.775	0.0140247
904.853	0.0140633
904.932	0.0138693
905.010	0.0140807
905.088	0.0140900
905.166	0.0141373
905.244	0.0140200
905.322	0.0141760
905.400	0.0141397
905.478	0.0141525
905.557	0.0141788
905.635	0.0140661
905.713	0.0141869
905.791	0.0140797
905.869	0.0140630
905.947	0.0140489
906.025	0.0139697
906.103	0.0140486
906.182	0.0139918
906.260	0.0140555
906.338	0.0140241
906.416	0.0138480
906.494	0.0139793
906.572	0.0139788
906.650	0.0139156
906.728	0.0139080
906.807	0.0138293
906.885	0.0139631
906.963	0.0138995
907.041	0.0139397
907.119	0.0139160
907.197	0.0137280
907.275	0.0139043
907.353	0.0138193
907.432	0.0139466
907.510	0.0138290
907.588	0.0139588
907.666	0.0138402
907.744	0.0139439
907.822	0.0140279
907.900	0.0139761
907.978	0.0139497
908.057	0.0140221
908.135	0.0140759
908.213	0.0140277
908.291	0.0140739
908.369	0.0142166
908.447	0.0141753
908.525	0.0142316
908.603	0.0142289
908.682	0.0143240
908.760	0.0143296
908.838	0.0143402
908.916	0.0142886
908.994	0.0142921
909.072	0.0143761
909.150	0.0142736
909.228	0.0141931
909.307	0.0141955
909.385	0.0142470
909.463	0.0141652
909.541	0.0141726
909.619	0.0140841
909.697	0.0140800
909.775	0.0142741
909.853	0.0140962
909.932	0.0139725
910.010	0.0140898
910.088	0.0141322
910.166	0.0140044
910.244	0.0139675
910.322	0.0141385
910.400	0.0141026
910.478	0.0140554
910.557	0.0141035
910.635	0.0140870
910.713	0.0139863
910.791	0.0141571
910.869	0.0141682
910.947	0.0140708
911.025	0.0141930
911.103	0.0142524
911.182	0.0143105
911.260	0.0143739
911.338	0.0144037
911.416	0.0143882
911.494	0.0143574
911.572	0.0144386
911.650	0.0143250
911.728	0.0142825
911.807	0.0142880
911.885	0.0143482
911.963	0.0140270
912.041	0.0142860
912.119	0.0141354
912.197	0.0141502
912.275	0.0139796
912.353	0.0139682
912.432	0.0139571
912.510	0.0139442
912.588	0.0139037
912.666	0.0137951
912.744	0.0137153
912.822	0.0136761
912.900	0.0137244
912.978	0.0136327
913.057	0.0136069
913.135	0.0136579
913.213	0.0136396
913.291	0.0136903
913.369	0.0137823
913.447	0.0136545
913.525	0.0137014
913.603	0.0138539
913.682	0.0138411
913.760	0.0138181
913.838	0.0138348
913.916	0.0139577
913.994	0.0138520
914.072	0.0138612
914.150	0.0139901
914.228	0.0141248
914.307	0.0140810
914.385	0.0141338
914.463	0.0141752
914.541	0.0141286
914.619	0.0142864
914.697	0.0142389
914.775	0.0143145
914.853	0.0143398
914.932	0.0142753
915.010	0.0143952
915.088	0.0142452
915.166	0.0142951
915.244	0.0143282
915.322	0.0142731
915.400	0.0141343
915.478	0.0143346
915.557	0.0143118
915.635	0.0141263
915.713	0.0141154
915.791	0.0141132
915.869	0.0140410
915.947	0.0139639
916.025	0.0139149
916.103	0.0139189
916.182	0.0138942
916.260	0.0139823
916.338	0.0139257
916.416	0.0138985
916.494	0.0138428
916.572	0.0138609
916.650	0.0140104
916.728	0.0139105
916.807	0.0139626
916.885	0.0140310
916.963	0.0140477
917.041	0.0140179
917.119	0.0140121
917.197	0.0140238
917.275	0.0140150
917.353	0.0141840
917.432	0.0140005
917.510	0.0140629
917.588	0.0141281
917.666	0.0142151
917.744	0.0140996
917.822	0.0141918
917.900	0.0141396
917.978	0.0140703
918.057	0.0140721
918.135	0.0141135
918.213	0.0141087
918.291	0.0141884
918.369	0.0140315
918.447	0.0141656
918.525	0.0141787
918.603	0.0142478
918.682	0.0141739
918.760	0.0141131
918.838	0.0141902
918.916	0.0138803
918.994	0.0140740
919.072	0.0141380
919.150	0.0141727
919.228	0.0140174
919.307	0.0139759
919.385	0.0139046
919.463	0.0139759
919.541	0.0140334
919.619	0.0139610
919.697	0.0138929
919.775	0.0139838
919.853	0.0140064
919.932	0.0140194
920.010	0.0141133
920.088	0.0141485
920.166	0.0140688
920.244	0.0140311
920.322	0.0141357
920.400	0.0141906
920.478	0.0143123
920.557	0.0142914
920.635	0.0143156
920.713	0.0142902
920.791	0.0143645
920.869	0.0143694
920.947	0.0143748
921.025	0.0143137
921.103	0.0144106
921.182	0.0142049
921.260	0.0141682
921.338	0.0143439
921.416	0.0142503
921.494	0.0142464
921.572	0.0142455
921.650	0.0142841
921.728	0.0142162
921.807	0.0140807
921.885	0.0141728
921.963	0.0142331
922.041	0.0140182
922.119	0.0140156
922.197	0.0141105
922.275	0.0139304
922.353	0.0139079
922.432	0.0138965
922.510	0.0140527
922.588	0.0137553
922.666	0.0138900
922.744	0.0138945
922.822	0.0139589
922.900	0.0139107
922.978	0.0140244
923.057	0.0140844
923.135	0.0141224
923.213	0.0140520
923.291	0.0140145
923.369	0.0140799
923.447	0.0139886
923.525	0.0141228
923.603	0.0139305
923.682	0.0140579
923.760	0.0140726
923.838	0.0140453
923.916	0.0141069
923.994	0.0140508
924.072	0.0140432
924.150	0.0139407
924.228	0.0140430
924.307	0.0140324
924.385	0.0139278
924.463	0.0141702
924.541	0.0140600
924.619	0.0141135
924.697	0.0141760
924.775	0.0140841
924.853	0.0141051
924.932	0.0143018
925.010	0.0142023
925.088	0.0141698
925.166	0.0141187
925.244	0.0141336
925.322	0.0139766
925.400	0.0141571
925.478	0.0141676
925.557	0.0139699
925.635	0.0141427
925.713	0.0140743
925.791	0.0140629
925.869	0.0140265
925.947	0.0140354
926.025	0.0140121
926.103	0.0140907
926.182	0.0141627
926.260	0.0142619
926.338	0.0143290
926.416	0.0142677
926.494	0.0142758
926.572	0.0141927
926.650	0.0142736
926.728	0.0143143
926.807	0.0141694
926.885	0.0142673
926.963	0.0141684
927.041	0.0142667
927.119	0.0142350
927.197	0.0142439
927.275	0.0141282
927.353	0.0142805
927.432	0.0142938
927.510	0.0141169
927.588	0.0139912
927.666	0.0141399
927.744	0.0142054
927.822	0.0140121
927.900	0.0138938
927.978	0.0141263
928.057	0.0140245
928.135	0.0138203
928.213	0.0138314
928.291	0.0136883
928.369	0.0136722
928.447	0.0139036
928.525	0.0137152
928.603	0.0136442
928.682	0.0136837
928.760	0.0137024
928.838	0.0136212
928.916	0.0137686
928.994	0.0138315
929.072	0.0136358
929.150	0.0136568
929.228	0.0138193
929.307	0.0137809
929.385	0.0138717
929.463	0.0138232
929.541	0.0139589
929.619	0.0138610
929.697	0.0138897
929.775	0.0139693
929.853	0.0141221
929.932	0.0141772
930.010	0.0140961
930.088	0.0141451
930.166	0.0141257
930.244	0.0141092
930.322	0.0142703
930.400	0.0143237
930.478	0.0142982
930.557	0.0141205
930.635	0.0142894
930.713	0.0143028
930.791	0.0142012
930.869	0.0141518
930.947	0.0141920
931.025	0.0140433
931.103	0.0140762
931.182	0.0141185
931.260	0.0142090
931.338	0.0141789
931.416	0.0141508
931.494	0.0140935
931.572	0.0141000
931.650	0.0139456
931.728	0.0141354
931.807	0.0142618
931.885	0.0141640
931.963	0.0141898
932.041	0.0141193
932.119	0.0139018
932.197	0.0139992
932.275	0.0141991
932.353	0.0140719
932.432	0.0141487
932.510	0.0141544
932.588	0.0142690
932.666	0.0141703
932.744	0.0141541
932.822	0.0142744
932.900	0.0143285
932.978	0.0143906
933.057	0.0143288
933.135	0.0141992
933.213	0.0142226
933.291	0.0145323
933.369	0.0143645
933.447	0.0143665
933.525	0.0144026
933.603	0.0142722
933.682	0.0143962
933.760	0.0144043
933.838	0.0143124
933.916	0.0142135
933.994	0.0143471
934.072	0.0141544
934.150	0.0141912
934.228	0.0142144
934.307	0.0140634
934.385	0.0141151
934.463	0.0140652
934.541	0.0139687
934.619	0.0138161
934.697	0.0138980
934.775	0.0137562
934.853	0.0137815
934.932	0.0139214
935.010	0.0137486
935.088	0.0137129
935.166	0.0138309
935.244	0.0137708
935.322	0.0137181
935.400	0.0139112
935.478	0.0139188
935.557	0.0138904
935.635	0.0139184
935.713	0.0140760
935.791	0.0140847
935.869	0.0139956
935.947	0.0141672
936.025	0.0143507
936.103	0.0142049
936.182	0.0143748
936.260	0.0143433
936.338	0.0141950
936.416	0.0143085
936.494	0.0143240
936.572	0.0144403
936.650	0.0143608
936.728	0.0144260
936.807	0.0144264
936.885	0.0145079
936.963	0.0144806
937.041	0.0144053
937.119	0.0143616
937.197	0.0142542
937.275	0.0144256
937.353	0.0142582
937.432	0.0143545
937.510	0.0141091
937.588	0.0141432
937.666	0.0142009
937.744	0.0141877
937.822	0.0141451
937.900	0.0140749
937.978	0.0141370
938.057	0.0141720
938.135	0.0141319
938.213	0.0140050
938.291	0.0139182
938.369	0.0140367
938.447	0.0139351
938.525	0.0137306
938.603	0.0138700
938.682	0.0140067
938.760	0.0139452
938.838	0.0139671
938.916	0.0139133
938.994	0.0139940
939.072	0.0139737
939.150	0.0139250
939.228	0.0140016
939.307	0.0139390
939.385	0.0139993
939.463	0.0140357
939.541	0.0139883
939.619	0.0139236
939.697	0.0141954
939.775	0.0141936
939.853	0.0142157
939.932	0.0140606
940.010	0.0142300
940.088	0.0143165
940.166	0.0144567
940.244	0.0141928
940.322	0.0141330
940.400	0.0142974
940.478	0.0141630
940.557	0.0140757
940.635	0.0142334
940.713	0.0141354
940.791	0.0140594
940.869	0.0140060
940.947	0.0139868
941.025	0.0140269
941.103	0.0138693
941.182	0.0139273
941.260	0.0140066
941.338	0.0139352
941.416	0.0138090
941.494	0.0139227
941.572	0.0139213
941.650	0.0138250
941.728	0.0137930
941.807	0.0139127
941.885	0.0140561
941.963	0.0139811
942.041	0.0138852
942.119	0.0141689
942.197	0.0139510
942.275	0.0139892
942.353	0.0139963
942.432	0.0140237
942.510	0.0139947
942.588	0.0138986
942.666	0.0140635
942.744	0.0140536
942.822	0.0140275
942.900	0.0140389
942.978	0.0141084
943.057	0.0139637
943.135	0.0139262
943.213	0.0140220
943.291	0.0140647
943.369	0.0141159
943.447	0.0139584
943.525	0.0140098
943.603	0.0140589
943.682	0.0142174
943.760	0.0141115
943.838	0.0140733
943.916	0.0141110
943.994	0.0140199
944.072	0.0141447
944.150	0.0140314
944.228	0.0141003
944.307	0.0141528
944.385	0.0141424
944.463	0.0140440
944.541	0.0140490
944.619	0.0140173
944.697	0.0140660
944.775	0.0140395
944.853	0.0139584
944.932	0.0138891
945.010	0.0138993
945.088	0.0137730
945.166	0.0139200
945.244	0.0140710
945.322	0.0138322
945.400	0.0140234
945.478	0.0139670
945.557	0.0139537
945.635	0.0138853
945.713	0.0139462
945.791	0.0140735
945.869	0.0140464
945.947	0.0139621
946.025	0.0139302
946.103	0.0141402
946.182	0.0140611
946.260	0.0140820
946.338	0.0140529
946.416	0.0141290
946.494	0.0141590
946.572	0.0142245
946.650	0.0140596
946.728	0.0142805
946.807	0.0143242
946.885	0.0141373
946.963	0.0142720
947.041	0.0141219
947.119	0.0141251
947.197	0.0143040
947.275	0.0141644
947.353	0.0141164
947.432	0.0141040
947.510	0.0141721
947.588	0.0139703
947.666	0.0140936
947.744	0.0142311
947.822	0.0140216
947.900	0.0140263
947.978	0.0138651
948.057	0.0140263
948.135	0.0137994
948.213	0.0138426
948.291	0.0139937
948.369	0.0140645
948.447	0.0138628
948.525	0.0139173
948.603	0.0140047
948.682	0.0138746
948.760	0.0138409
948.838	0.0139739
948.916	0.0138783
948.994	0.0138084
949.072	0.0138799
949.150	0.0139562
949.228	0.0139825
949.307	0.0140302
949.385	0.0138624
949.463	0.0138841
949.541	0.0138393
949.619	0.0140002
949.697	0.0140354
949.775	0.0139134
949.853	0.0139666
949.932	0.0139342
950.010	0.0139369
950.088	0.0140377
950.166	0.0140781
950.244	0.0139967
950.322	0.0140693
950.400	0.0139684
950.478	0.0141285
950.557	0.0139759
950.635	0.0139774
950.713	0.0140266
950.791	0.0139617
950.869	0.0138346
950.947	0.0137590
951.025	0.0138732
951.103	0.0137729
951.182	0.0137682
951.260	0.0138052
951.338	0.0138662
951.416	0.0139063
951.494	0.0137321
951.572	0.0137269
951.650	0.0138664
951.728	0.0138275
951.807	0.0139999
951.885	0.0140007
951.963	0.0140556
952.041	0.0140109
952.119	0.0142215
952.197	0.0142770
952.275	0.0142947
952.353	0.0142584
952.432	0.0142815
952.510	0.0141972
952.588	0.0142480
952.666	0.0143148
952.744	0.0142448
952.822	0.0142196
952.900	0.0143696
952.978	0.0144068
953.057	0.0144392
953.135	0.0142940
953.213	0.0143594
953.291	0.0143103
953.369	0.0143825
953.447	0.0142686
953.525	0.0143401
953.603	0.0142126
953.682	0.0142981
953.760	0.0142965
953.838	0.0142742
953.916	0.0142262
953.994	0.0142061
954.072	0.0142250
954.150	0.0142368
954.228	0.0141907
954.307	0.0141102
954.385	0.0141117
954.463	0.0141600
954.541	0.0142857
954.619	0.0140683
954.697	0.0140700
954.775	0.0141377
954.853	0.0140913
954.932	0.0141689
955.010	0.0139466
955.088	0.0140231
955.166	0.0141284
955.244	0.0140736
955.322	0.0140818
955.400	0.0141723
955.478	0.0139765
955.557	0.0140242
955.635	0.0140350
955.713	0.0139951
955.791	0.0139853
955.869	0.0141711
955.947	0.0141591
956.025	0.0139066
956.103	0.0139671
956.182	0.0141071
956.260	0.0140695
956.338	0.0140926
956.416	0.0139980
956.494	0.0141281
956.572	0.0141883
956.650	0.0142805
956.728	0.0142052
956.807	0.0142316
956.885	0.0142606
956.963	0.0143635
957.041	0.0144436
957.119	0.0144485
957.197	0.0144078
957.275	0.0142216
957.353	0.0142497
957.432	0.0143439
957.510	0.0143969
957.588	0.0143539
957.666	0.0141971
957.744	0.0141662
957.822	0.0142643
957.900	0.0142534
957.978	0.0141446
958.057	0.0142026
958.135	0.0143766
958.213	0.0141232
958.291	0.0141663
958.369	0.0142320
958.447	0.0141966
958.525	0.0141776
958.603	0.0142653
958.682	0.0141667
958.760	0.0142616
958.838	0.0142207
958.916	0.0142826
958.994	0.0142568
959.072	0.0142096
959.150	0.0141981
959.228	0.0141622
959.307	0.0142126
959.385	0.0142979
959.463	0.0144273
959.541	0.0144338
959.619	0.0143314
959.697	0.0143408
959.775	0.0144480
959.853	0.0144348
959.932	0.0143200
960.010	0.0143974
960.088	0.0143458
960.166	0.0143801
960.244	0.0142348
960.322	0.0141685
960.400	0.0142754
960.478	0.0141785
960.557	0.0142616
960.635	0.0141695
960.713	0.0139594
960.791	0.0139791
960.869	0.0140178
960.947	0.0138214
961.025	0.0140285
961.103	0.0141885
961.182	0.0139292
961.260	0.0138406
961.338	0.0138125
961.416	0.0139876
961.494	0.0139195
961.572	0.0139595
961.650	0.0138924
961.728	0.0139417
961.807	0.0140512
961.885	0.0139629
961.963	0.0139770
962.041	0.0141164
962.119	0.0141190
962.197	0.0138806
962.275	0.0141357
962.353	0.0140985
962.432	0.0141636
962.510	0.0140201
962.588	0.0140392
962.666	0.0140408
962.744	0.0141917
962.822	0.0141351
962.900	0.0140955
962.978	0.0139742
963.057	0.0141586
963.135	0.0142004
963.213	0.0141760
963.291	0.0140285
963.369	0.0140877
963.447	0.0140012
963.525	0.0142269
963.603	0.0141058
963.682	0.0141400
963.760	0.0139754
963.838	0.0141428
963.916	0.0139932
963.994	0.0140986
964.072	0.0141295
964.150	0.0139953
964.228	0.0139738
964.307	0.0141273
964.385	0.0142876
964.463	0.0141249
964.541	0.0141178
964.619	0.0141827
964.697	0.0141487
964.775	0.0141045
964.853	0.0140151
964.932	0.0141881
965.010	0.0141094
965.088	0.0141243
965.166	0.0142655
965.244	0.0140800
965.322	0.0140551
965.400	0.0142245
965.478	0.0141541
965.557	0.0140659
965.635	0.0142143
965.713	0.0144554
965.791	0.0140617
965.869	0.0141289
965.947	0.0142097
966.025	0.0142104
966.103	0.0143176
966.182	0.0141557
966.260	0.0142101
966.338	0.0141891
966.416	0.0143287
966.494	0.0143083
966.572	0.0142650
966.650	0.0142495
966.728	0.0143830
966.807	0.0141724
966.885	0.0139928
966.963	0.0140509
967.041	0.0141100
967.119	0.0140073
967.197	0.0140714
967.275	0.0141002
967.353	0.0141708
967.432	0.0140911
967.510	0.0140183
967.588	0.0141192
967.666	0.0139565
967.744	0.0141683
967.822	0.0141827
967.900	0.0140189
967.978	0.0140424
968.057	0.0139812
968.135	0.0139674
968.213	0.0139810
968.291	0.0140717
968.369	0.0139100
968.447	0.0139514
968.525	0.0139796
968.603	0.0140064
968.682	0.0138854
968.760	0.0138602
968.838	0.0140003
968.916	0.0138337
968.994	0.0139736
969.072	0.0139885
969.150	0.0139585
969.228	0.0139366
969.307	0.0139636
969.385	0.0139313
969.463	0.0139490
969.541	0.0140004
969.619	0.0139326
969.697	0.0139166
969.775	0.0138673
969.853	0.0137638
969.932	0.0139552
