05/14/2022	19:23:40	Ver.	4.1	UNKNOWN
Optical Delay	650.009681	Delta X		0.078125	Sweeps	1	Scan Rate	0/0
Coordinates	Axis 1	NaN	Axis 2	NaN	Axis 3	NaN	Axis 4	NaN	Axis 5	NaN	Axis 6	0.000000
TX Power	0.000000	RX Power	0.000000

650.010	0.0148199
650.088	0.0147394
650.166	0.0148289
650.244	0.0149012
650.322	0.0149424
650.400	0.0148169
650.478	0.0148135
650.557	0.0147430
650.635	0.0149747
650.713	0.0148888
650.791	0.0149689
650.869	0.0148915
650.947	0.0148759
651.025	0.0147074
651.103	0.0149934
651.182	0.0148850
651.260	0.0149346
651.338	0.0150523
651.416	0.0148351
651.494	0.0149241
651.572	0.0148725
651.650	0.0148724
651.728	0.0150269
651.807	0.0149513
651.885	0.0148016
651.963	0.0149075
652.041	0.0149262
652.119	0.0148868
652.197	0.0150187
652.275	0.0149663
652.353	0.0148432
652.432	0.0148180
652.510	0.0149178
652.588	0.0149662
652.666	0.0148594
652.744	0.0148895
652.822	0.0147015
652.900	0.0149916
652.978	0.0149821
653.057	0.0149700
653.135	0.0148678
653.213	0.0148819
653.291	0.0149348
653.369	0.0149808
653.447	0.0149830
653.525	0.0148318
653.603	0.0148286
653.682	0.0149086
653.760	0.0149397
653.838	0.0149705
653.916	0.0148889
653.994	0.0149632
654.072	0.0148187
654.150	0.0149383
654.228	0.0149412
654.307	0.0148749
654.385	0.0149223
654.463	0.0147758
654.541	0.0148359
654.619	0.0149539
654.697	0.0149994
654.775	0.0149802
654.853	0.0149197
654.932	0.0148279
655.010	0.0149726
655.088	0.0151330
655.166	0.0149294
655.244	0.0149837
655.322	0.0149345
655.400	0.0149319
655.478	0.0149763
655.557	0.0148861
655.635	0.0149110
655.713	0.0150015
655.791	0.0150143
655.869	0.0151466
655.947	0.0149202
656.025	0.0150271
656.103	0.0150446
656.182	0.0151031
656.260	0.0149249
656.338	0.0150134
656.416	0.0149256
656.494	0.0149225
656.572	0.0150019
656.650	0.0149680
656.728	0.0150472
656.807	0.0148987
656.885	0.0147887
656.963	0.0148656
657.041	0.0150598
657.119	0.0149535
657.197	0.0151042
657.275	0.0149641
657.353	0.0149637
657.432	0.0148327
657.510	0.0149456
657.588	0.0148909
657.666	0.0149069
657.744	0.0148948
657.822	0.0149316
657.900	0.0149503
657.978	0.0149175
658.057	0.0149572
658.135	0.0149184
658.213	0.0148701
658.291	0.0148779
658.369	0.0148643
658.447	0.0148584
658.525	0.0148129
658.603	0.0149406
658.682	0.0148782
658.760	0.0149416
658.838	0.0150085
658.916	0.0149799
658.994	0.0148204
659.072	0.0149232
659.150	0.0149355
659.228	0.0149076
659.307	0.0148658
659.385	0.0148629
659.463	0.0148882
659.541	0.0148929
659.619	0.0151067
659.697	0.0149936
659.775	0.0148434
659.853	0.0149749
659.932	0.0148773
660.010	0.0150000
660.088	0.0148682
660.166	0.0148036
660.244	0.0148608
660.322	0.0148268
660.400	0.0149143
660.478	0.0148698
660.557	0.0149511
660.635	0.0148761
660.713	0.0149141
660.791	0.0149914
660.869	0.0149148
660.947	0.0148835
661.025	0.0150330
661.103	0.0148962
661.182	0.0148241
661.260	0.0149152
661.338	0.0149354
661.416	0.0147836
661.494	0.0148594
661.572	0.0148712
661.650	0.0148577
661.728	0.0147645
661.807	0.0149239
661.885	0.0147374
661.963	0.0147587
662.041	0.0149578
662.119	0.0149315
662.197	0.0148544
662.275	0.0146032
662.353	0.0147884
662.432	0.0147538
662.510	0.0148326
662.588	0.0148411
662.666	0.0147800
662.744	0.0148229
662.822	0.0148223
662.900	0.0149503
662.978	0.0148170
663.057	0.0147278
663.135	0.0147336
663.213	0.0148644
663.291	0.0147594
663.369	0.0148366
663.447	0.0147701
663.525	0.0146705
663.603	0.0147183
663.682	0.0148370
663.760	0.0147832
663.838	0.0146935
663.916	0.0148149
663.994	0.0147394
664.072	0.0147404
664.150	0.0147450
664.228	0.0147130
664.307	0.0146854
664.385	0.0146602
664.463	0.0148100
664.541	0.0148309
664.619	0.0148539
664.697	0.0148052
664.775	0.0146729
664.853	0.0146422
664.932	0.0147137
665.010	0.0148515
665.088	0.0148449
665.166	0.0148130
665.244	0.0147520
665.322	0.0146902
665.400	0.0146713
665.478	0.0147554
665.557	0.0146469
665.635	0.0148516
665.713	0.0148342
665.791	0.0148551
665.869	0.0147345
665.947	0.0147576
666.025	0.0148569
666.103	0.0148094
666.182	0.0147476
666.260	0.0148135
666.338	0.0148023
666.416	0.0148048
666.494	0.0148399
666.572	0.0148534
666.650	0.0148363
666.728	0.0148814
666.807	0.0148490
666.885	0.0148692
666.963	0.0148320
667.041	0.0146835
667.119	0.0147677
667.197	0.0147939
667.275	0.0149405
667.353	0.0148763
667.432	0.0147660
667.510	0.0148233
667.588	0.0148461
667.666	0.0148101
667.744	0.0148978
667.822	0.0149107
667.900	0.0147633
667.978	0.0147567
668.057	0.0148260
668.135	0.0147736
668.213	0.0146622
668.291	0.0148820
668.369	0.0147161
668.447	0.0147865
668.525	0.0149446
668.603	0.0149331
668.682	0.0148271
668.760	0.0148595
668.838	0.0148273
668.916	0.0149495
668.994	0.0149253
669.072	0.0147858
669.150	0.0146286
669.228	0.0147247
669.307	0.0148698
669.385	0.0148680
669.463	0.0148667
669.541	0.0148631
669.619	0.0147442
669.697	0.0147269
669.775	0.0147339
669.853	0.0148239
669.932	0.0148723
670.010	0.0148417
670.088	0.0147626
670.166	0.0148466
670.244	0.0148608
670.322	0.0147897
670.400	0.0148663
670.478	0.0148975
670.557	0.0148686
670.635	0.0149767
670.713	0.0150275
670.791	0.0150457
670.869	0.0149532
670.947	0.0149448
671.025	0.0148308
671.103	0.0148769
671.182	0.0148479
671.260	0.0149171
671.338	0.0148779
671.416	0.0147996
671.494	0.0148034
671.572	0.0148489
671.650	0.0148112
671.728	0.0148100
671.807	0.0148741
671.885	0.0148301
671.963	0.0149491
672.041	0.0149194
672.119	0.0150522
672.197	0.0149873
672.275	0.0148881
672.353	0.0150760
672.432	0.0149184
672.510	0.0147295
672.588	0.0145909
672.666	0.0147453
672.744	0.0146469
672.822	0.0144512
672.900	0.0146034
672.978	0.0146697
673.057	0.0145755
673.135	0.0146832
673.213	0.0146925
673.291	0.0148788
673.369	0.0150922
673.447	0.0152195
673.525	0.0152859
673.603	0.0154124
673.682	0.0155830
673.760	0.0155106
673.838	0.0155714
673.916	0.0156568
673.994	0.0153731
674.072	0.0151854
674.150	0.0150878
674.228	0.0148335
674.307	0.0146926
674.385	0.0143826
674.463	0.0141328
674.541	0.0139816
674.619	0.0138969
674.697	0.0137942
674.775	0.0138178
674.853	0.0138205
674.932	0.0139931
675.010	0.0141052
675.088	0.0143195
675.166	0.0144939
675.244	0.0147069
675.322	0.0148766
675.400	0.0151540
675.478	0.0154327
675.557	0.0155779
675.635	0.0157436
675.713	0.0158688
675.791	0.0158559
675.869	0.0159297
675.947	0.0160035
676.025	0.0158563
676.103	0.0159190
676.182	0.0159487
676.260	0.0157133
676.338	0.0156012
676.416	0.0155179
676.494	0.0153948
676.572	0.0151295
676.650	0.0150871
676.728	0.0150221
676.807	0.0146690
676.885	0.0144427
676.963	0.0142725
677.041	0.0140928
677.119	0.0140656
677.197	0.0137663
677.275	0.0136324
677.353	0.0135465
677.432	0.0134933
677.510	0.0135582
677.588	0.0137302
677.666	0.0137776
677.744	0.0138509
677.822	0.0141031
677.900	0.0142501
677.978	0.0144409
678.057	0.0146890
678.135	0.0147150
678.213	0.0149048
678.291	0.0149316
678.369	0.0151426
678.447	0.0152396
678.525	0.0153731
678.603	0.0153935
678.682	0.0155094
678.760	0.0156051
678.838	0.0155414
678.916	0.0157204
678.994	0.0158718
679.072	0.0158688
679.150	0.0160560
679.228	0.0162075
679.307	0.0162270
679.385	0.0164911
679.463	0.0162522
679.541	0.0160597
679.619	0.0159396
679.697	0.0157545
679.775	0.0156117
679.853	0.0153221
679.932	0.0150390
680.010	0.0148663
680.088	0.0147680
680.166	0.0145686
680.244	0.0144321
680.322	0.0142549
680.400	0.0141940
680.478	0.0140545
680.557	0.0140256
680.635	0.0140517
680.713	0.0136816
680.791	0.0135743
680.869	0.0136342
680.947	0.0134022
681.025	0.0133032
681.103	0.0131642
681.182	0.0130400
681.260	0.0131335
681.338	0.0132079
681.416	0.0132271
681.494	0.0133727
681.572	0.0135187
681.650	0.0137534
681.728	0.0140646
681.807	0.0141862
681.885	0.0145508
681.963	0.0149054
682.041	0.0152654
682.119	0.0156184
682.197	0.0161600
682.275	0.0164725
682.353	0.0168869
682.432	0.0173627
682.510	0.0177273
682.588	0.0180821
682.666	0.0183061
682.744	0.0185055
682.822	0.0186543
682.900	0.0184612
682.978	0.0184139
683.057	0.0180018
683.135	0.0175807
683.213	0.0171721
683.291	0.0163890
683.369	0.0157729
683.447	0.0151573
683.525	0.0144807
683.603	0.0138476
683.682	0.0133480
683.760	0.0129234
683.838	0.0125542
683.916	0.0122456
683.994	0.0123073
684.072	0.0119787
684.150	0.0118645
684.228	0.0119508
684.307	0.0118662
684.385	0.0117827
684.463	0.0120110
684.541	0.0119624
684.619	0.0120203
684.697	0.0123956
684.775	0.0125549
684.853	0.0129043
684.932	0.0133012
685.010	0.0138356
685.088	0.0145514
685.166	0.0151147
685.244	0.0157323
685.322	0.0162149
685.400	0.0167833
685.478	0.0170693
685.557	0.0173145
685.635	0.0175359
685.713	0.0176691
685.791	0.0176217
685.869	0.0173746
685.947	0.0173515
686.025	0.0172311
686.103	0.0168568
686.182	0.0165353
686.260	0.0164606
686.338	0.0162726
686.416	0.0160821
686.494	0.0161051
686.572	0.0159515
686.650	0.0161041
686.728	0.0161331
686.807	0.0159270
686.885	0.0159629
686.963	0.0159869
687.041	0.0156714
687.119	0.0154475
687.197	0.0152905
687.275	0.0149216
687.353	0.0144501
687.432	0.0139690
687.510	0.0135828
687.588	0.0132812
687.666	0.0129655
687.744	0.0126101
687.822	0.0123281
687.900	0.0124648
687.978	0.0123595
688.057	0.0124286
688.135	0.0126308
688.213	0.0128552
688.291	0.0130831
688.369	0.0135886
688.447	0.0137967
688.525	0.0141596
688.603	0.0145580
688.682	0.0148415
688.760	0.0153355
688.838	0.0154079
688.916	0.0153797
688.994	0.0155824
689.072	0.0156901
689.150	0.0156729
689.228	0.0156900
689.307	0.0157214
689.385	0.0155764
689.463	0.0155692
689.541	0.0157319
689.619	0.0158886
689.697	0.0158836
689.775	0.0157557
689.853	0.0157937
689.932	0.0156201
690.010	0.0154944
690.088	0.0153481
690.166	0.0148138
690.244	0.0145638
690.322	0.0141467
690.400	0.0138428
690.478	0.0134649
690.557	0.0131828
690.635	0.0131294
690.713	0.0133350
690.791	0.0136106
690.869	0.0138588
690.947	0.0143955
691.025	0.0147838
691.103	0.0153401
691.182	0.0156247
691.260	0.0160404
691.338	0.0164611
691.416	0.0165126
691.494	0.0166331
691.572	0.0165440
691.650	0.0163212
691.728	0.0163932
691.807	0.0161495
691.885	0.0158064
691.963	0.0157968
692.041	0.0156652
692.119	0.0157516
692.197	0.0158633
692.275	0.0158936
692.353	0.0158333
692.432	0.0159473
692.510	0.0159263
692.588	0.0158436
692.666	0.0157310
692.744	0.0154615
692.822	0.0152284
692.900	0.0149532
692.978	0.0146149
693.057	0.0142530
693.135	0.0140646
693.213	0.0138538
693.291	0.0138194
693.369	0.0137012
693.447	0.0137244
693.525	0.0137283
693.603	0.0139201
693.682	0.0140208
693.760	0.0139683
693.838	0.0139046
693.916	0.0139241
693.994	0.0138290
694.072	0.0137410
694.150	0.0135056
694.228	0.0133090
694.307	0.0130284
694.385	0.0127050
694.463	0.0126652
694.541	0.0125214
694.619	0.0125581
694.697	0.0125318
694.775	0.0127402
694.853	0.0129290
694.932	0.0132063
695.010	0.0136400
695.088	0.0138188
695.166	0.0143183
695.244	0.0147973
695.322	0.0151745
695.400	0.0155588
695.478	0.0159141
695.557	0.0163791
695.635	0.0166082
695.713	0.0169317
695.791	0.0172277
695.869	0.0175262
695.947	0.0176385
696.025	0.0178040
696.103	0.0180796
696.182	0.0182413
696.260	0.0183483
696.338	0.0184846
696.416	0.0185271
696.494	0.0185468
696.572	0.0186134
696.650	0.0184740
696.728	0.0181877
696.807	0.0180532
696.885	0.0176419
696.963	0.0170821
697.041	0.0165175
697.119	0.0157584
697.197	0.0150666
697.275	0.0143971
697.353	0.0135104
697.432	0.0127435
697.510	0.0119739
697.588	0.0113295
697.666	0.0108554
697.744	0.0104045
697.822	0.00997597
697.900	0.00995369
697.978	0.00997261
698.057	0.00998787
698.135	0.0102643
698.213	0.0104632
698.291	0.0108878
698.369	0.0112128
698.447	0.0116105
698.525	0.0121120
698.603	0.0125259
698.682	0.0130372
698.760	0.0135327
698.838	0.0139497
698.916	0.0143883
698.994	0.0148175
699.072	0.0152366
699.150	0.0158608
699.228	0.0163213
699.307	0.0166367
699.385	0.0169729
699.463	0.0173240
699.541	0.0176221
699.619	0.0176521
699.697	0.0176730
699.775	0.0177792
699.853	0.0178064
699.932	0.0175427
700.010	0.0172943
700.088	0.0169892
700.166	0.0167030
700.244	0.0163196
700.322	0.0162078
700.400	0.0159617
700.478	0.0158134
700.557	0.0154847
700.635	0.0152441
700.713	0.0150967
700.791	0.0148337
700.869	0.0144603
700.947	0.0143851
701.025	0.0141446
701.103	0.0138469
701.182	0.0137222
701.260	0.0135082
701.338	0.0133569
701.416	0.0134921
701.494	0.0134609
701.572	0.0134922
701.650	0.0135759
701.728	0.0139144
701.807	0.0143114
701.885	0.0146459
701.963	0.0148968
702.041	0.0153190
702.119	0.0155790
702.197	0.0156575
702.275	0.0158662
702.353	0.0158496
702.432	0.0158365
702.510	0.0157577
702.588	0.0156802
702.666	0.0154646
702.744	0.0154191
702.822	0.0154047
702.900	0.0154239
702.978	0.0153417
703.057	0.0154137
703.135	0.0155206
703.213	0.0156332
703.291	0.0156193
703.369	0.0156672
703.447	0.0159275
703.525	0.0159918
703.603	0.0159969
703.682	0.0159598
703.760	0.0158231
703.838	0.0156693
703.916	0.0154265
703.994	0.0151004
704.072	0.0148182
704.150	0.0145071
704.228	0.0139182
704.307	0.0136982
704.385	0.0132372
704.463	0.0128864
704.541	0.0125072
704.619	0.0123475
704.697	0.0121609
704.775	0.0121623
704.853	0.0120247
704.932	0.0120016
705.010	0.0120002
705.088	0.0120743
705.166	0.0123260
705.244	0.0126040
705.322	0.0126698
705.400	0.0129015
705.478	0.0131951
705.557	0.0134331
705.635	0.0137005
705.713	0.0139664
705.791	0.0145281
705.869	0.0148067
705.947	0.0152798
706.025	0.0157977
706.103	0.0161517
706.182	0.0165309
706.260	0.0169302
706.338	0.0174517
706.416	0.0178011
706.494	0.0181707
706.572	0.0184354
706.650	0.0187878
706.728	0.0190659
706.807	0.0189826
706.885	0.0192432
706.963	0.0192748
707.041	0.0191575
707.119	0.0189510
707.197	0.0188924
707.275	0.0186774
707.353	0.0182145
707.432	0.0180563
707.510	0.0175761
707.588	0.0172521
707.666	0.0165900
707.744	0.0160474
707.822	0.0154916
707.900	0.0149783
707.978	0.0142854
708.057	0.0136971
708.135	0.0131792
708.213	0.0123275
708.291	0.0120689
708.369	0.0117368
708.447	0.0115096
708.525	0.0112909
708.603	0.0111925
708.682	0.0111620
708.760	0.0113680
708.838	0.0116378
708.916	0.0116472
708.994	0.0118237
709.072	0.0120686
709.150	0.0121637
709.228	0.0124961
709.307	0.0125325
709.385	0.0127757
709.463	0.0128599
709.541	0.0128629
709.619	0.0131271
709.697	0.0132974
709.775	0.0136412
709.853	0.0139458
709.932	0.0142558
710.010	0.0146599
710.088	0.0149321
710.166	0.0154350
710.244	0.0158899
710.322	0.0161654
710.400	0.0165335
710.478	0.0166761
710.557	0.0168248
710.635	0.0168951
710.713	0.0170058
710.791	0.0168098
710.869	0.0168276
710.947	0.0165327
711.025	0.0163000
711.103	0.0162535
711.182	0.0159820
711.260	0.0157052
711.338	0.0156828
711.416	0.0155879
711.494	0.0155621
711.572	0.0155515
711.650	0.0154624
711.728	0.0154111
711.807	0.0152464
711.885	0.0152866
711.963	0.0153115
712.041	0.0151759
712.119	0.0151385
712.197	0.0151651
712.275	0.0152280
712.353	0.0153685
712.432	0.0151895
712.510	0.0151094
712.588	0.0152679
712.666	0.0152432
712.744	0.0154446
712.822	0.0155201
712.900	0.0154691
712.978	0.0154452
713.057	0.0154902
713.135	0.0153571
713.213	0.0153133
713.291	0.0151414
713.369	0.0150592
713.447	0.0146970
713.525	0.0146807
713.603	0.0145019
713.682	0.0143307
713.760	0.0142343
713.838	0.0142540
713.916	0.0143143
713.994	0.0142493
714.072	0.0144760
714.150	0.0144301
714.228	0.0143346
714.307	0.0146091
714.385	0.0146642
714.463	0.0148114
714.541	0.0148596
714.619	0.0147908
714.697	0.0148409
714.775	0.0149034
714.853	0.0149201
714.932	0.0147155
715.010	0.0146813
715.088	0.0146552
715.166	0.0142709
715.244	0.0141447
715.322	0.0141962
715.400	0.0140030
715.478	0.0140810
715.557	0.0141756
715.635	0.0141215
715.713	0.0142537
715.791	0.0142835
715.869	0.0142471
715.947	0.0141731
716.025	0.0142535
716.103	0.0142318
716.182	0.0141998
716.260	0.0143888
716.338	0.0142648
716.416	0.0142793
716.494	0.0143580
716.572	0.0143071
716.650	0.0144337
716.728	0.0143895
716.807	0.0144056
716.885	0.0145374
716.963	0.0145161
717.041	0.0146175
717.119	0.0146805
717.197	0.0146592
717.275	0.0146513
717.353	0.0145473
717.432	0.0145658
717.510	0.0146366
717.588	0.0146578
717.666	0.0146761
717.744	0.0146181
717.822	0.0143969
717.900	0.0146378
717.978	0.0146357
718.057	0.0148139
718.135	0.0149021
718.213	0.0147520
718.291	0.0148466
718.369	0.0151093
718.447	0.0151601
718.525	0.0155030
718.603	0.0157427
718.682	0.0158675
718.760	0.0158523
718.838	0.0161117
718.916	0.0159715
718.994	0.0161262
719.072	0.0161216
719.150	0.0159611
719.228	0.0161105
719.307	0.0159875
719.385	0.0159231
719.463	0.0159526
719.541	0.0160961
719.619	0.0157960
719.697	0.0158979
719.775	0.0159761
719.853	0.0158826
719.932	0.0157374
720.010	0.0159612
720.088	0.0159087
720.166	0.0158578
720.244	0.0158456
720.322	0.0157156
720.400	0.0157851
720.478	0.0156203
720.557	0.0154002
720.635	0.0151687
720.713	0.0149805
720.791	0.0147153
720.869	0.0142623
720.947	0.0140287
721.025	0.0137634
721.103	0.0134221
721.182	0.0129242
721.260	0.0128258
721.338	0.0125744
721.416	0.0121719
721.494	0.0121384
721.572	0.0119650
721.650	0.0119582
721.728	0.0119242
721.807	0.0119753
721.885	0.0120206
721.963	0.0124052
722.041	0.0126218
722.119	0.0128545
722.197	0.0134406
722.275	0.0137806
722.353	0.0141118
722.432	0.0144653
722.510	0.0146999
722.588	0.0151420
722.666	0.0153126
722.744	0.0156370
722.822	0.0155766
722.900	0.0154300
722.978	0.0154788
723.057	0.0153904
723.135	0.0151636
723.213	0.0151552
723.291	0.0147861
723.369	0.0146118
723.447	0.0144389
723.525	0.0144164
723.603	0.0143758
723.682	0.0143176
723.760	0.0145505
723.838	0.0147408
723.916	0.0148603
723.994	0.0151945
724.072	0.0153992
724.150	0.0156454
724.228	0.0156299
724.307	0.0158489
724.385	0.0158973
724.463	0.0159157
724.541	0.0160129
724.619	0.0160704
724.697	0.0160654
724.775	0.0160915
724.853	0.0161005
724.932	0.0161872
725.010	0.0161111
725.088	0.0160791
725.166	0.0161549
725.244	0.0161094
725.322	0.0160538
725.400	0.0160557
725.478	0.0160527
725.557	0.0160104
725.635	0.0158831
725.713	0.0158858
725.791	0.0158955
725.869	0.0158285
725.947	0.0159099
726.025	0.0159464
726.103	0.0158966
726.182	0.0159668
726.260	0.0160289
726.338	0.0159330
726.416	0.0159220
726.494	0.0159380
726.572	0.0159959
726.650	0.0156959
726.728	0.0154057
726.807	0.0152203
726.885	0.0149458
726.963	0.0144749
727.041	0.0140436
727.119	0.0137489
727.197	0.0132301
727.275	0.0127464
727.353	0.0122305
727.432	0.0118810
727.510	0.0114849
727.588	0.0114157
727.666	0.0113145
727.744	0.0112519
727.822	0.0112759
727.900	0.0113715
727.978	0.0116179
728.057	0.0119267
728.135	0.0123220
728.213	0.0126881
728.291	0.0131396
728.369	0.0135766
728.447	0.0138271
728.525	0.0142488
728.603	0.0145702
728.682	0.0148791
728.760	0.0152453
728.838	0.0155534
728.916	0.0158138
728.994	0.0159608
729.072	0.0159409
729.150	0.0161864
729.228	0.0162868
729.307	0.0160411
729.385	0.0158648
729.463	0.0158131
729.541	0.0156685
729.619	0.0155512
729.697	0.0153400
729.775	0.0153181
729.853	0.0152824
729.932	0.0152295
730.010	0.0151961
730.088	0.0153414
730.166	0.0153801
730.244	0.0153590
730.322	0.0154465
730.400	0.0155238
730.478	0.0156667
730.557	0.0157640
730.635	0.0157110
730.713	0.0158047
730.791	0.0156855
730.869	0.0157975
730.947	0.0157232
731.025	0.0158309
731.103	0.0157505
731.182	0.0155262
731.260	0.0155537
731.338	0.0156767
731.416	0.0156999
731.494	0.0155384
731.572	0.0155762
731.650	0.0155736
731.728	0.0156462
731.807	0.0155305
731.885	0.0155562
731.963	0.0155679
732.041	0.0156502
732.119	0.0155847
732.197	0.0157079
732.275	0.0156808
732.353	0.0157965
732.432	0.0157729
732.510	0.0160049
732.588	0.0159441
732.666	0.0159510
732.744	0.0159025
732.822	0.0158555
732.900	0.0157471
732.978	0.0156741
733.057	0.0155241
733.135	0.0152708
733.213	0.0149394
733.291	0.0147825
733.369	0.0146357
733.447	0.0143248
733.525	0.0140096
733.603	0.0137109
733.682	0.0133317
733.760	0.0131939
733.838	0.0128719
733.916	0.0126371
733.994	0.0126485
734.072	0.0125996
734.150	0.0125866
734.228	0.0126512
734.307	0.0127402
734.385	0.0128403
734.463	0.0130001
734.541	0.0132531
734.619	0.0133517
734.697	0.0137619
734.775	0.0141280
734.853	0.0143485
734.932	0.0145152
735.010	0.0147599
735.088	0.0149333
735.166	0.0150771
735.244	0.0151071
735.322	0.0151812
735.400	0.0151951
735.478	0.0151765
735.557	0.0153806
735.635	0.0151744
735.713	0.0150754
735.791	0.0150272
735.869	0.0148486
735.947	0.0149095
736.025	0.0147856
736.103	0.0145328
736.182	0.0144469
736.260	0.0144918
736.338	0.0145610
736.416	0.0146932
736.494	0.0147864
736.572	0.0148914
736.650	0.0151941
736.728	0.0152334
736.807	0.0155325
736.885	0.0157066
736.963	0.0157696
737.041	0.0159662
737.119	0.0159308
737.197	0.0159373
737.275	0.0160483
737.353	0.0158945
737.432	0.0159747
737.510	0.0159055
737.588	0.0158654
737.666	0.0157964
737.744	0.0156511
737.822	0.0156400
737.900	0.0156010
737.978	0.0157313
738.057	0.0156912
738.135	0.0156386
738.213	0.0158185
738.291	0.0160101
738.369	0.0159655
738.447	0.0161342
738.525	0.0161586
738.603	0.0163535
738.682	0.0165149
738.760	0.0165155
738.838	0.0165916
738.916	0.0167267
738.994	0.0165241
739.072	0.0165137
739.150	0.0164050
739.228	0.0162166
739.307	0.0158782
739.385	0.0156818
739.463	0.0153204
739.541	0.0147661
739.619	0.0144539
739.697	0.0141875
739.775	0.0135538
739.853	0.0133680
739.932	0.0129877
740.010	0.0125901
740.088	0.0122761
740.166	0.0120504
740.244	0.0119040
740.322	0.0117599
740.400	0.0114973
740.478	0.0116859
740.557	0.0116338
740.635	0.0117885
740.713	0.0118529
740.791	0.0120575
740.869	0.0122839
740.947	0.0125299
741.025	0.0130237
741.103	0.0132000
741.182	0.0134203
741.260	0.0137258
741.338	0.0139129
741.416	0.0140574
741.494	0.0143933
741.572	0.0145547
741.650	0.0147084
741.728	0.0148587
741.807	0.0149363
741.885	0.0148727
741.963	0.0151202
742.041	0.0150265
742.119	0.0151054
742.197	0.0151312
742.275	0.0150452
742.353	0.0150436
742.432	0.0151289
742.510	0.0150217
742.588	0.0151371
742.666	0.0152572
742.744	0.0153846
742.822	0.0154226
742.900	0.0156052
742.978	0.0158450
743.057	0.0159801
743.135	0.0159501
743.213	0.0162072
743.291	0.0163745
743.369	0.0163131
743.447	0.0164069
743.525	0.0163523
743.603	0.0163896
743.682	0.0164494
743.760	0.0163919
743.838	0.0163292
743.916	0.0161530
743.994	0.0160928
744.072	0.0159703
744.150	0.0160034
744.228	0.0158247
744.307	0.0158643
744.385	0.0159187
744.463	0.0159146
744.541	0.0158913
744.619	0.0158779
744.697	0.0156251
744.775	0.0155813
744.853	0.0156656
744.932	0.0157176
745.010	0.0156287
745.088	0.0155674
745.166	0.0154480
745.244	0.0154810
745.322	0.0151713
745.400	0.0153040
745.478	0.0151498
745.557	0.0151450
745.635	0.0149457
745.713	0.0147269
745.791	0.0147186
745.869	0.0144408
745.947	0.0142423
746.025	0.0139665
746.103	0.0138467
746.182	0.0136806
746.260	0.0134679
746.338	0.0131152
746.416	0.0129008
746.494	0.0127688
746.572	0.0126736
746.650	0.0125581
746.728	0.0125418
746.807	0.0126797
746.885	0.0124707
746.963	0.0125881
747.041	0.0127570
747.119	0.0127594
747.197	0.0127463
747.275	0.0129245
747.353	0.0130898
747.432	0.0132805
747.510	0.0135112
747.588	0.0138415
747.666	0.0140479
747.744	0.0143531
747.822	0.0145066
747.900	0.0147409
747.978	0.0149315
748.057	0.0150674
748.135	0.0152473
748.213	0.0154491
748.291	0.0154626
748.369	0.0155550
748.447	0.0156559
748.525	0.0155431
748.603	0.0156894
748.682	0.0156926
748.760	0.0155142
748.838	0.0156541
748.916	0.0156602
748.994	0.0157323
749.072	0.0157800
749.150	0.0156740
749.228	0.0156440
749.307	0.0157768
749.385	0.0158472
749.463	0.0158017
749.541	0.0159435
749.619	0.0159618
749.697	0.0158477
749.775	0.0160502
749.853	0.0159770
749.932	0.0160046
750.010	0.0161861
750.088	0.0159756
750.166	0.0160857
750.244	0.0161018
750.322	0.0160576
750.400	0.0159185
750.478	0.0159104
750.557	0.0160097
750.635	0.0158648
750.713	0.0158072
750.791	0.0158112
750.869	0.0156834
750.947	0.0156362
751.025	0.0156286
751.103	0.0154546
751.182	0.0154948
751.260	0.0154666
751.338	0.0153944
751.416	0.0152748
751.494	0.0150922
751.572	0.0151218
751.650	0.0150438
751.728	0.0151041
751.807	0.0149179
751.885	0.0148324
751.963	0.0148037
752.041	0.0147887
752.119	0.0145135
752.197	0.0146023
752.275	0.0144775
752.353	0.0143998
752.432	0.0141185
752.510	0.0141634
752.588	0.0138816
752.666	0.0138657
752.744	0.0136356
752.822	0.0135117
752.900	0.0132999
752.978	0.0133418
753.057	0.0131783
753.135	0.0132718
753.213	0.0133572
753.291	0.0133422
753.369	0.0134052
753.447	0.0135250
753.525	0.0134204
753.603	0.0134226
753.682	0.0136518
753.760	0.0139727
753.838	0.0139536
753.916	0.0141148
753.994	0.0140674
754.072	0.0141933
754.150	0.0143656
754.228	0.0145563
754.307	0.0144798
754.385	0.0145786
754.463	0.0148464
754.541	0.0148525
754.619	0.0148705
754.697	0.0149030
754.775	0.0149451
754.853	0.0149915
754.932	0.0152167
755.010	0.0153345
755.088	0.0154690
755.166	0.0153606
755.244	0.0153644
755.322	0.0154878
755.400	0.0156297
755.478	0.0156367
755.557	0.0156705
755.635	0.0157812
755.713	0.0157001
755.791	0.0157955
755.869	0.0156886
755.947	0.0156060
756.025	0.0155852
756.103	0.0156663
756.182	0.0156146
756.260	0.0156649
756.338	0.0157915
756.416	0.0156555
756.494	0.0155744
756.572	0.0156733
756.650	0.0157179
756.728	0.0157791
756.807	0.0157764
756.885	0.0157098
756.963	0.0158524
757.041	0.0158623
757.119	0.0157052
757.197	0.0156889
757.275	0.0155909
757.353	0.0156460
757.432	0.0154556
757.510	0.0152837
757.588	0.0152428
757.666	0.0151559
757.744	0.0153460
757.822	0.0150956
757.900	0.0151895
757.978	0.0151653
758.057	0.0150243
758.135	0.0150117
758.213	0.0149582
758.291	0.0149573
758.369	0.0149645
758.447	0.0149141
758.525	0.0147318
758.603	0.0146193
758.682	0.0146087
758.760	0.0146061
758.838	0.0145100
758.916	0.0142739
758.994	0.0142558
759.072	0.0140441
759.150	0.0140232
759.228	0.0140504
759.307	0.0139637
759.385	0.0140340
759.463	0.0138216
759.541	0.0139178
759.619	0.0139355
759.697	0.0140417
759.775	0.0139582
759.853	0.0139496
759.932	0.0139420
760.010	0.0139578
760.088	0.0140063
760.166	0.0140472
760.244	0.0140420
760.322	0.0141496
760.400	0.0142094
760.478	0.0141521
760.557	0.0142982
760.635	0.0141589
760.713	0.0142565
760.791	0.0142972
760.869	0.0144581
760.947	0.0144476
761.025	0.0145647
761.103	0.0146185
761.182	0.0146305
761.260	0.0146464
761.338	0.0147224
761.416	0.0146182
761.494	0.0145499
761.572	0.0148373
761.650	0.0150127
761.728	0.0151473
761.807	0.0150432
761.885	0.0150576
761.963	0.0152138
762.041	0.0154524
762.119	0.0153484
762.197	0.0154881
762.275	0.0154691
762.353	0.0154124
762.432	0.0154906
762.510	0.0154255
762.588	0.0155427
762.666	0.0154929
762.744	0.0154707
762.822	0.0156493
762.900	0.0156213
762.978	0.0154712
763.057	0.0153428
763.135	0.0153442
763.213	0.0153819
763.291	0.0152829
763.369	0.0152638
763.447	0.0153197
763.525	0.0151849
763.603	0.0151012
763.682	0.0151811
763.760	0.0149780
763.838	0.0148744
763.916	0.0148907
763.994	0.0148911
764.072	0.0148194
764.150	0.0148692
764.228	0.0148621
764.307	0.0149763
764.385	0.0148828
764.463	0.0148054
764.541	0.0151152
764.619	0.0151572
764.697	0.0151740
764.775	0.0153025
764.853	0.0152002
764.932	0.0152395
765.010	0.0151482
765.088	0.0151910
765.166	0.0150492
765.244	0.0149668
765.322	0.0149466
765.400	0.0148858
765.478	0.0147552
765.557	0.0146592
765.635	0.0146799
765.713	0.0145482
765.791	0.0144393
765.869	0.0143893
765.947	0.0146041
766.025	0.0143432
766.103	0.0142570
766.182	0.0144053
766.260	0.0144371
766.338	0.0143519
766.416	0.0143095
766.494	0.0144724
766.572	0.0143890
766.650	0.0142294
766.728	0.0143108
766.807	0.0143656
766.885	0.0142635
766.963	0.0142023
767.041	0.0143368
767.119	0.0143857
767.197	0.0143359
767.275	0.0143633
767.353	0.0143619
767.432	0.0142883
767.510	0.0145435
767.588	0.0144839
767.666	0.0145154
767.744	0.0146336
767.822	0.0146137
767.900	0.0147029
767.978	0.0146205
768.057	0.0148068
768.135	0.0148716
768.213	0.0147522
768.291	0.0148891
768.369	0.0149438
768.447	0.0148946
768.525	0.0148524
768.603	0.0149696
768.682	0.0150216
768.760	0.0150586
768.838	0.0151064
768.916	0.0151164
768.994	0.0151690
769.072	0.0152862
769.150	0.0152409
769.228	0.0152853
769.307	0.0153268
769.385	0.0152563
769.463	0.0153049
769.541	0.0153646
769.619	0.0152942
769.697	0.0152689
769.775	0.0152833
769.853	0.0153745
769.932	0.0151809
770.010	0.0153133
770.088	0.0152853
770.166	0.0152082
770.244	0.0150034
770.322	0.0151124
770.400	0.0152260
770.478	0.0151042
770.557	0.0150732
770.635	0.0151048
770.713	0.0150961
770.791	0.0151473
770.869	0.0151974
770.947	0.0151987
771.025	0.0152325
771.103	0.0152240
771.182	0.0151231
771.260	0.0151730
771.338	0.0152017
771.416	0.0151798
771.494	0.0152197
771.572	0.0150884
771.650	0.0150332
771.728	0.0151244
771.807	0.0149932
771.885	0.0148826
771.963	0.0150104
772.041	0.0149784
772.119	0.0148869
772.197	0.0150169
772.275	0.0151010
772.353	0.0149392
772.432	0.0148951
772.510	0.0148972
772.588	0.0148872
772.666	0.0149702
772.744	0.0149662
772.822	0.0149123
772.900	0.0148949
772.978	0.0147688
773.057	0.0148510
773.135	0.0146409
773.213	0.0146188
773.291	0.0144353
773.369	0.0143952
773.447	0.0144761
773.525	0.0141734
773.603	0.0142018
773.682	0.0142689
773.760	0.0144030
773.838	0.0141639
773.916	0.0141656
773.994	0.0142585
774.072	0.0142051
774.150	0.0140939
774.228	0.0142575
774.307	0.0143184
774.385	0.0141841
774.463	0.0143505
774.541	0.0145147
774.619	0.0144635
774.697	0.0144637
774.775	0.0146275
774.853	0.0147814
774.932	0.0147004
775.010	0.0147204
775.088	0.0148435
775.166	0.0150098
775.244	0.0149007
775.322	0.0149601
775.400	0.0151136
775.478	0.0150684
775.557	0.0151229
775.635	0.0151109
775.713	0.0150009
775.791	0.0150813
775.869	0.0151901
775.947	0.0150681
776.025	0.0150975
776.103	0.0151421
776.182	0.0151486
776.260	0.0150205
776.338	0.0150464
776.416	0.0150650
776.494	0.0150125
776.572	0.0151941
776.650	0.0151826
776.728	0.0150364
776.807	0.0150974
776.885	0.0150237
776.963	0.0151996
777.041	0.0150240
777.119	0.0150015
777.197	0.0150266
777.275	0.0149037
777.353	0.0151118
777.432	0.0150159
777.510	0.0148643
777.588	0.0149435
777.666	0.0149037
777.744	0.0149532
777.822	0.0148929
777.900	0.0148823
777.978	0.0148250
778.057	0.0147607
778.135	0.0148563
778.213	0.0148434
778.291	0.0148127
778.369	0.0148409
778.447	0.0147604
778.525	0.0149788
778.603	0.0151575
778.682	0.0152318
778.760	0.0152676
778.838	0.0152493
778.916	0.0151900
778.994	0.0151926
779.072	0.0153442
779.150	0.0153718
779.228	0.0153413
779.307	0.0153788
779.385	0.0154396
779.463	0.0152565
779.541	0.0151509
779.619	0.0152171
779.697	0.0150605
779.775	0.0150043
779.853	0.0149344
779.932	0.0148553
780.010	0.0147071
780.088	0.0145875
780.166	0.0144635
780.244	0.0144520
780.322	0.0142699
780.400	0.0141085
780.478	0.0139299
780.557	0.0139358
780.635	0.0138880
780.713	0.0138148
780.791	0.0138459
780.869	0.0138623
780.947	0.0136655
781.025	0.0136893
781.103	0.0137848
781.182	0.0137942
781.260	0.0139043
781.338	0.0140367
781.416	0.0139560
781.494	0.0140816
781.572	0.0142115
781.650	0.0142917
781.728	0.0146259
781.807	0.0145848
781.885	0.0145592
781.963	0.0147460
782.041	0.0148725
782.119	0.0150661
782.197	0.0151036
782.275	0.0151655
782.353	0.0153512
782.432	0.0152775
782.510	0.0153298
782.588	0.0153909
782.666	0.0154600
782.744	0.0154804
782.822	0.0155720
782.900	0.0155141
782.978	0.0155933
783.057	0.0155222
783.135	0.0155562
783.213	0.0154869
783.291	0.0156992
783.369	0.0156311
783.447	0.0156217
783.525	0.0154966
783.603	0.0154675
783.682	0.0154456
783.760	0.0151801
783.838	0.0153275
783.916	0.0151093
783.994	0.0152021
784.072	0.0150877
784.150	0.0148823
784.228	0.0147588
784.307	0.0148486
784.385	0.0146011
784.463	0.0146078
784.541	0.0145731
784.619	0.0146255
784.697	0.0146785
784.775	0.0145039
784.853	0.0145030
784.932	0.0145924
785.010	0.0147163
785.088	0.0145389
785.166	0.0147314
785.244	0.0147612
785.322	0.0149309
785.400	0.0149955
785.478	0.0150008
785.557	0.0150180
785.635	0.0152062
785.713	0.0152171
785.791	0.0152002
785.869	0.0152306
785.947	0.0153455
786.025	0.0152761
786.103	0.0154229
786.182	0.0151959
786.260	0.0152749
786.338	0.0150938
786.416	0.0150812
786.494	0.0150217
786.572	0.0150023
786.650	0.0148088
786.728	0.0147849
786.807	0.0145083
786.885	0.0145436
786.963	0.0146807
787.041	0.0145406
787.119	0.0145029
787.197	0.0145142
787.275	0.0143966
787.353	0.0145173
787.432	0.0144096
787.510	0.0145203
787.588	0.0145728
787.666	0.0145048
787.744	0.0144402
787.822	0.0144787
787.900	0.0145874
787.978	0.0145615
788.057	0.0145816
788.135	0.0146094
788.213	0.0146164
788.291	0.0146049
788.369	0.0148315
788.447	0.0147713
788.525	0.0147887
788.603	0.0148412
788.682	0.0148734
788.760	0.0148895
788.838	0.0148329
788.916	0.0147173
788.994	0.0148413
789.072	0.0147193
789.150	0.0149030
789.228	0.0147092
789.307	0.0146935
789.385	0.0147334
789.463	0.0147123
789.541	0.0148661
789.619	0.0149408
789.697	0.0149339
789.775	0.0149284
789.853	0.0148977
789.932	0.0151025
790.010	0.0151186
790.088	0.0151431
790.166	0.0153126
790.244	0.0152618
790.322	0.0152016
790.400	0.0153421
790.478	0.0153048
790.557	0.0152755
790.635	0.0152551
790.713	0.0151077
790.791	0.0152241
790.869	0.0152254
790.947	0.0150267
791.025	0.0151974
791.103	0.0151035
791.182	0.0149869
791.260	0.0149467
791.338	0.0149936
791.416	0.0149124
791.494	0.0148605
791.572	0.0149317
791.650	0.0149401
791.728	0.0149798
791.807	0.0149387
791.885	0.0148579
791.963	0.0149825
792.041	0.0151743
792.119	0.0150488
792.197	0.0151701
792.275	0.0151218
792.353	0.0150931
792.432	0.0153396
792.510	0.0153708
792.588	0.0152903
792.666	0.0152837
792.744	0.0152489
792.822	0.0153782
792.900	0.0153051
792.978	0.0152983
793.057	0.0151753
793.135	0.0151723
793.213	0.0153467
793.291	0.0152265
793.369	0.0151324
793.447	0.0152177
793.525	0.0150694
793.603	0.0152150
793.682	0.0149870
793.760	0.0149827
793.838	0.0149052
793.916	0.0148820
793.994	0.0148517
794.072	0.0147416
794.150	0.0145943
794.228	0.0144833
794.307	0.0144976
794.385	0.0143127
794.463	0.0142924
794.541	0.0142615
794.619	0.0140579
794.697	0.0141215
794.775	0.0139787
794.853	0.0139227
794.932	0.0140823
795.010	0.0139393
795.088	0.0138589
795.166	0.0140257
795.244	0.0141445
795.322	0.0141662
795.400	0.0140858
795.478	0.0142965
795.557	0.0142617
795.635	0.0144485
795.713	0.0147242
795.791	0.0146411
795.869	0.0147290
795.947	0.0148175
796.025	0.0149144
796.103	0.0150616
796.182	0.0150614
796.260	0.0152280
796.338	0.0152801
796.416	0.0153740
796.494	0.0154594
796.572	0.0154333
796.650	0.0153783
796.728	0.0153755
796.807	0.0153990
796.885	0.0155128
796.963	0.0155818
797.041	0.0154411
797.119	0.0154078
797.197	0.0151967
797.275	0.0151791
797.353	0.0150545
797.432	0.0151562
797.510	0.0149809
797.588	0.0149301
797.666	0.0148792
797.744	0.0148017
797.822	0.0147773
797.900	0.0148214
797.978	0.0147567
798.057	0.0149792
798.135	0.0148006
798.213	0.0148947
798.291	0.0148821
798.369	0.0148951
798.447	0.0148619
798.525	0.0150376
798.603	0.0150278
798.682	0.0150362
798.760	0.0151794
798.838	0.0151317
798.916	0.0152415
798.994	0.0151511
799.072	0.0152901
799.150	0.0151402
799.228	0.0152505
799.307	0.0153412
799.385	0.0152330
799.463	0.0152124
799.541	0.0151402
799.619	0.0152820
799.697	0.0152769
799.775	0.0149947
799.853	0.0150634
799.932	0.0150282
800.010	0.0149522
800.088	0.0148810
800.166	0.0148803
800.244	0.0148130
800.322	0.0147263
800.400	0.0146466
800.478	0.0146976
800.557	0.0145651
800.635	0.0144525
800.713	0.0144959
800.791	0.0143733
800.869	0.0142610
800.947	0.0141294
801.025	0.0142547
801.103	0.0141020
801.182	0.0141968
801.260	0.0141355
801.338	0.0142105
801.416	0.0142387
801.494	0.0143135
801.572	0.0142893
801.650	0.0142249
801.728	0.0143036
801.807	0.0144203
801.885	0.0144297
801.963	0.0143722
802.041	0.0146568
802.119	0.0146553
802.197	0.0145816
802.275	0.0146131
802.353	0.0145840
802.432	0.0149074
802.510	0.0148769
802.588	0.0149332
802.666	0.0151678
802.744	0.0152059
802.822	0.0150596
802.900	0.0152309
802.978	0.0152959
803.057	0.0154393
803.135	0.0155424
803.213	0.0155180
803.291	0.0154811
803.369	0.0156135
803.447	0.0154156
803.525	0.0154655
803.603	0.0155455
803.682	0.0154785
803.760	0.0152702
803.838	0.0154008
803.916	0.0154179
803.994	0.0154078
804.072	0.0152653
804.150	0.0152588
804.228	0.0150835
804.307	0.0150852
804.385	0.0150446
804.463	0.0149676
804.541	0.0149110
804.619	0.0149315
804.697	0.0148520
804.775	0.0149303
804.853	0.0148186
804.932	0.0148257
805.010	0.0148219
805.088	0.0146819
805.166	0.0145621
805.244	0.0146271
805.322	0.0146310
805.400	0.0145644
805.478	0.0145002
805.557	0.0143832
805.635	0.0144128
805.713	0.0144312
805.791	0.0146043
805.869	0.0145835
805.947	0.0146746
806.025	0.0145557
806.103	0.0146834
806.182	0.0145998
806.260	0.0147030
806.338	0.0148442
806.416	0.0149586
806.494	0.0150641
806.572	0.0149752
806.650	0.0149908
806.728	0.0149617
806.807	0.0150482
806.885	0.0151042
806.963	0.0149598
807.041	0.0148451
807.119	0.0150491
807.197	0.0151011
807.275	0.0150102
807.353	0.0147839
807.432	0.0149448
807.510	0.0147466
807.588	0.0149782
807.666	0.0148045
807.744	0.0148116
807.822	0.0148248
807.900	0.0147775
807.978	0.0147961
808.057	0.0147330
808.135	0.0147908
808.213	0.0147712
808.291	0.0147289
808.369	0.0147499
808.447	0.0146734
808.525	0.0147796
808.603	0.0146339
808.682	0.0146288
808.760	0.0146260
808.838	0.0146084
808.916	0.0146390
808.994	0.0146713
809.072	0.0144711
809.150	0.0144384
809.228	0.0146140
809.307	0.0145404
809.385	0.0144632
809.463	0.0146523
809.541	0.0146135
809.619	0.0145303
809.697	0.0145857
809.775	0.0146951
809.853	0.0146839
809.932	0.0147434
810.010	0.0147179
810.088	0.0147839
810.166	0.0147567
810.244	0.0148579
810.322	0.0149049
810.400	0.0148484
810.478	0.0148438
810.557	0.0148946
810.635	0.0147700
810.713	0.0148669
810.791	0.0147479
810.869	0.0148913
810.947	0.0147584
811.025	0.0147333
811.103	0.0148992
811.182	0.0147102
811.260	0.0147820
811.338	0.0148712
811.416	0.0150015
811.494	0.0149203
811.572	0.0150002
811.650	0.0150133
811.728	0.0149994
811.807	0.0150482
811.885	0.0149490
811.963	0.0150758
812.041	0.0151036
812.119	0.0151796
812.197	0.0150085
812.275	0.0150498
812.353	0.0150222
812.432	0.0149671
812.510	0.0149863
812.588	0.0149808
812.666	0.0150562
812.744	0.0148958
812.822	0.0149368
812.900	0.0147402
812.978	0.0147831
813.057	0.0148540
813.135	0.0147707
813.213	0.0149772
813.291	0.0149434
813.369	0.0147753
813.447	0.0147911
813.525	0.0148551
813.603	0.0149205
813.682	0.0148636
813.760	0.0149139
813.838	0.0149722
813.916	0.0149516
813.994	0.0149557
814.072	0.0149507
814.150	0.0150748
814.228	0.0150974
814.307	0.0150076
814.385	0.0149464
814.463	0.0150486
814.541	0.0150230
814.619	0.0149590
814.697	0.0150650
814.775	0.0148319
814.853	0.0149421
814.932	0.0149532
815.010	0.0149269
815.088	0.0148754
815.166	0.0148378
815.244	0.0148609
815.322	0.0148332
815.400	0.0148431
815.478	0.0146581
815.557	0.0148167
815.635	0.0150031
815.713	0.0148450
815.791	0.0148142
815.869	0.0147580
815.947	0.0147124
816.025	0.0147080
816.103	0.0148145
816.182	0.0147643
816.260	0.0146206
816.338	0.0147233
816.416	0.0146154
816.494	0.0145961
816.572	0.0146729
816.650	0.0146538
816.728	0.0145969
816.807	0.0147879
816.885	0.0147823
816.963	0.0146608
817.041	0.0148434
817.119	0.0149165
817.197	0.0148698
817.275	0.0148430
817.353	0.0150569
817.432	0.0148962
817.510	0.0149941
817.588	0.0147739
817.666	0.0149101
817.744	0.0148379
817.822	0.0149355
817.900	0.0148869
817.978	0.0149033
818.057	0.0147687
818.135	0.0147791
818.213	0.0147486
818.291	0.0146685
818.369	0.0147189
818.447	0.0147859
818.525	0.0147523
818.603	0.0146297
818.682	0.0146370
818.760	0.0147460
818.838	0.0146834
818.916	0.0145515
818.994	0.0147336
819.072	0.0145619
819.150	0.0145560
819.228	0.0145843
819.307	0.0145463
819.385	0.0148157
819.463	0.0147218
819.541	0.0147304
819.619	0.0148235
819.697	0.0145665
819.775	0.0148434
819.853	0.0147751
819.932	0.0148840
820.010	0.0151231
820.088	0.0150480
820.166	0.0149220
820.244	0.0149712
820.322	0.0150811
820.400	0.0150226
820.478	0.0150336
820.557	0.0150513
820.635	0.0149096
820.713	0.0149039
820.791	0.0149200
820.869	0.0149033
820.947	0.0147691
821.025	0.0149182
821.103	0.0149760
821.182	0.0148339
821.260	0.0147007
821.338	0.0148178
821.416	0.0147839
821.494	0.0148777
821.572	0.0148713
821.650	0.0148505
821.728	0.0150314
821.807	0.0149694
821.885	0.0150200
821.963	0.0150704
822.041	0.0151384
822.119	0.0152169
822.197	0.0152205
822.275	0.0152842
822.353	0.0152013
822.432	0.0151157
822.510	0.0151319
822.588	0.0152915
822.666	0.0152605
822.744	0.0151240
822.822	0.0150190
822.900	0.0150974
822.978	0.0151720
823.057	0.0149973
823.135	0.0147620
823.213	0.0147007
823.291	0.0145993
823.369	0.0147092
823.447	0.0144993
823.525	0.0145675
823.603	0.0144225
823.682	0.0141225
823.760	0.0143034
823.838	0.0142954
823.916	0.0142803
823.994	0.0141773
824.072	0.0141737
824.150	0.0142280
824.228	0.0143446
824.307	0.0142429
824.385	0.0143370
824.463	0.0142865
824.541	0.0144085
824.619	0.0145106
824.697	0.0145447
824.775	0.0145784
824.853	0.0145920
824.932	0.0147340
825.010	0.0148333
825.088	0.0148153
825.166	0.0147689
825.244	0.0150085
825.322	0.0149871
825.400	0.0151534
825.478	0.0151939
825.557	0.0150252
825.635	0.0150372
825.713	0.0150457
825.791	0.0152337
825.869	0.0150411
825.947	0.0149836
826.025	0.0150613
826.103	0.0149231
826.182	0.0150095
826.260	0.0149058
826.338	0.0149915
826.416	0.0149879
826.494	0.0148700
826.572	0.0149366
826.650	0.0149315
826.728	0.0150064
826.807	0.0149504
826.885	0.0149232
826.963	0.0149738
827.041	0.0149265
827.119	0.0149250
827.197	0.0149764
827.275	0.0149693
827.353	0.0150262
827.432	0.0150604
827.510	0.0149613
827.588	0.0150751
827.666	0.0149287
827.744	0.0151117
827.822	0.0151472
827.900	0.0151054
827.978	0.0152850
828.057	0.0151867
828.135	0.0153406
828.213	0.0152178
828.291	0.0152204
828.369	0.0151402
828.447	0.0151780
828.525	0.0150751
828.603	0.0152046
828.682	0.0152401
828.760	0.0152596
828.838	0.0152068
828.916	0.0151289
828.994	0.0151116
829.072	0.0153168
829.150	0.0153143
829.228	0.0153043
829.307	0.0152181
829.385	0.0151692
829.463	0.0151772
829.541	0.0150899
829.619	0.0150823
829.697	0.0148234
829.775	0.0148265
829.853	0.0149249
829.932	0.0148124
830.010	0.0146505
830.088	0.0145965
830.166	0.0144703
830.244	0.0143854
830.322	0.0144009
830.400	0.0142791
830.478	0.0141792
830.557	0.0142252
830.635	0.0140357
830.713	0.0141408
830.791	0.0140549
830.869	0.0140052
830.947	0.0140708
831.025	0.0140678
831.103	0.0141816
831.182	0.0140801
831.260	0.0141719
831.338	0.0142717
831.416	0.0142645
831.494	0.0143365
831.572	0.0144046
831.650	0.0144547
831.728	0.0146493
831.807	0.0147528
831.885	0.0148641
831.963	0.0148585
832.041	0.0149878
832.119	0.0150988
832.197	0.0152319
832.275	0.0152399
832.353	0.0152133
832.432	0.0152586
832.510	0.0151822
832.588	0.0152908
832.666	0.0152957
832.744	0.0153530
832.822	0.0152260
832.900	0.0151965
832.978	0.0153788
833.057	0.0151675
833.135	0.0151298
833.213	0.0151521
833.291	0.0151999
833.369	0.0150900
833.447	0.0151170
833.525	0.0150291
833.603	0.0150478
833.682	0.0150098
833.760	0.0150817
833.838	0.0149859
833.916	0.0150881
833.994	0.0150188
834.072	0.0149445
834.150	0.0151183
834.228	0.0150833
834.307	0.0148757
834.385	0.0150051
834.463	0.0150565
834.541	0.0150971
834.619	0.0150459
834.697	0.0149814
834.775	0.0149802
834.853	0.0152013
834.932	0.0150953
835.010	0.0150468
835.088	0.0151778
835.166	0.0150479
835.244	0.0151783
835.322	0.0152964
835.400	0.0152193
835.478	0.0153084
835.557	0.0151434
835.635	0.0151023
835.713	0.0151584
835.791	0.0151454
835.869	0.0151143
835.947	0.0150777
836.025	0.0150571
836.103	0.0149892
836.182	0.0149293
836.260	0.0149059
836.338	0.0148236
836.416	0.0147480
836.494	0.0147880
836.572	0.0147844
836.650	0.0147965
836.728	0.0146610
836.807	0.0145633
836.885	0.0145209
836.963	0.0145588
837.041	0.0145605
837.119	0.0144688
837.197	0.0143941
837.275	0.0142427
837.353	0.0141600
837.432	0.0142191
837.510	0.0141307
837.588	0.0140752
837.666	0.0141545
837.744	0.0140218
837.822	0.0139848
837.900	0.0141069
837.978	0.0140389
838.057	0.0140999
838.135	0.0141868
838.213	0.0141999
838.291	0.0142706
838.369	0.0143598
838.447	0.0144484
838.525	0.0145425
838.603	0.0145431
838.682	0.0145553
838.760	0.0147405
838.838	0.0148622
838.916	0.0147397
838.994	0.0147702
839.072	0.0148396
839.150	0.0151260
839.228	0.0152111
839.307	0.0150885
839.385	0.0150921
839.463	0.0152343
839.541	0.0153615
839.619	0.0152677
839.697	0.0153541
839.775	0.0152488
839.853	0.0154013
839.932	0.0154855
840.010	0.0154694
840.088	0.0154425
840.166	0.0154375
840.244	0.0153693
840.322	0.0154061
840.400	0.0153757
840.478	0.0153809
840.557	0.0153652
840.635	0.0153708
840.713	0.0153273
840.791	0.0152136
840.869	0.0151415
840.947	0.0151569
841.025	0.0151006
841.103	0.0150033
841.182	0.0148356
841.260	0.0147610
841.338	0.0146163
841.416	0.0146886
841.494	0.0145128
841.572	0.0144637
841.650	0.0145039
841.728	0.0144652
841.807	0.0144746
841.885	0.0144392
841.963	0.0143821
842.041	0.0143739
842.119	0.0145792
842.197	0.0143134
842.275	0.0144267
842.353	0.0143117
842.432	0.0142958
842.510	0.0145043
842.588	0.0143559
842.666	0.0144422
842.744	0.0144378
842.822	0.0143872
842.900	0.0142992
842.978	0.0144176
843.057	0.0144794
843.135	0.0144584
843.213	0.0146713
843.291	0.0145187
843.369	0.0145531
843.447	0.0145369
843.525	0.0145073
843.603	0.0146076
843.682	0.0145393
843.760	0.0146713
843.838	0.0145655
843.916	0.0146584
843.994	0.0146865
844.072	0.0147414
844.150	0.0147712
844.228	0.0147405
844.307	0.0147871
844.385	0.0148024
844.463	0.0147031
844.541	0.0146098
844.619	0.0146899
844.697	0.0149326
844.775	0.0149544
844.853	0.0149934
844.932	0.0150029
845.010	0.0149919
845.088	0.0150536
845.166	0.0150784
845.244	0.0151524
845.322	0.0151485
845.400	0.0151326
845.478	0.0152837
845.557	0.0151037
845.635	0.0151894
845.713	0.0151868
845.791	0.0152659
845.869	0.0152639
845.947	0.0151337
846.025	0.0153690
846.103	0.0151775
846.182	0.0150485
846.260	0.0149165
846.338	0.0151316
846.416	0.0150331
846.494	0.0151260
846.572	0.0152083
846.650	0.0152275
846.728	0.0151533
846.807	0.0149782
846.885	0.0151447
846.963	0.0152319
847.041	0.0152464
847.119	0.0151359
847.197	0.0152507
847.275	0.0152627
847.353	0.0151545
847.432	0.0151240
847.510	0.0151235
847.588	0.0152248
847.666	0.0151973
847.744	0.0151089
847.822	0.0151673
847.900	0.0151977
847.978	0.0149894
848.057	0.0150659
848.135	0.0149606
848.213	0.0149085
848.291	0.0149401
848.369	0.0148602
848.447	0.0148644
848.525	0.0148755
848.603	0.0148205
848.682	0.0147441
848.760	0.0147256
848.838	0.0145867
848.916	0.0145189
848.994	0.0147534
849.072	0.0145921
849.150	0.0145583
849.228	0.0146671
849.307	0.0145701
849.385	0.0145183
849.463	0.0145374
849.541	0.0145479
849.619	0.0146048
849.697	0.0145387
849.775	0.0146991
849.853	0.0145135
849.932	0.0146141
850.010	0.0145773
850.088	0.0147089
850.166	0.0147292
850.244	0.0148996
850.322	0.0148608
850.400	0.0149945
850.478	0.0149477
850.557	0.0148396
850.635	0.0149480
850.713	0.0150009
850.791	0.0151875
850.869	0.0151231
850.947	0.0149433
851.025	0.0149200
851.103	0.0148784
851.182	0.0149584
851.260	0.0149502
851.338	0.0150156
851.416	0.0149852
851.494	0.0148162
851.572	0.0149361
851.650	0.0148064
851.728	0.0148722
851.807	0.0148143
851.885	0.0148643
851.963	0.0149324
852.041	0.0148529
852.119	0.0148169
852.197	0.0149023
852.275	0.0150261
852.353	0.0150536
852.432	0.0149893
852.510	0.0150038
852.588	0.0150539
852.666	0.0150437
852.744	0.0150031
852.822	0.0150119
852.900	0.0149091
852.978	0.0152450
853.057	0.0151899
853.135	0.0150586
853.213	0.0150694
853.291	0.0151614
853.369	0.0149292
853.447	0.0150993
853.525	0.0150748
853.603	0.0151309
853.682	0.0149025
853.760	0.0149458
853.838	0.0149896
853.916	0.0147566
853.994	0.0147530
854.072	0.0147222
854.150	0.0146492
854.228	0.0146904
854.307	0.0147026
854.385	0.0148060
854.463	0.0145185
854.541	0.0147157
854.619	0.0147923
854.697	0.0145173
854.775	0.0146902
854.853	0.0147421
854.932	0.0147547
855.010	0.0147421
855.088	0.0145414
855.166	0.0147539
855.244	0.0148363
855.322	0.0147431
855.400	0.0149091
855.478	0.0148583
855.557	0.0148626
855.635	0.0147616
855.713	0.0149206
855.791	0.0149007
855.869	0.0148971
855.947	0.0148927
856.025	0.0148448
856.103	0.0148306
856.182	0.0149266
856.260	0.0148891
856.338	0.0150190
856.416	0.0150350
856.494	0.0149328
856.572	0.0149570
856.650	0.0149869
856.728	0.0149419
856.807	0.0147134
856.885	0.0148283
856.963	0.0148855
857.041	0.0150362
857.119	0.0148592
857.197	0.0147327
857.275	0.0148129
857.353	0.0148051
857.432	0.0148625
857.510	0.0147780
857.588	0.0147791
857.666	0.0148933
857.744	0.0148363
857.822	0.0148083
857.900	0.0148688
857.978	0.0147245
858.057	0.0147843
858.135	0.0147610
858.213	0.0148560
858.291	0.0148952
858.369	0.0149458
858.447	0.0148727
858.525	0.0149695
858.603	0.0147907
858.682	0.0148277
858.760	0.0148810
858.838	0.0150206
858.916	0.0149487
858.994	0.0148808
859.072	0.0151006
859.150	0.0150336
859.228	0.0149162
859.307	0.0149165
859.385	0.0149393
859.463	0.0150217
859.541	0.0149963
859.619	0.0150121
859.697	0.0150027
859.775	0.0149356
859.853	0.0148425
859.932	0.0148834
860.010	0.0149664
860.088	0.0149001
860.166	0.0147892
860.244	0.0147014
860.322	0.0148880
860.400	0.0148431
860.478	0.0147441
860.557	0.0148498
860.635	0.0147128
860.713	0.0147769
860.791	0.0147778
860.869	0.0146295
860.947	0.0146707
861.025	0.0147127
861.103	0.0146484
861.182	0.0146302
861.260	0.0146429
861.338	0.0146549
861.416	0.0147263
861.494	0.0146906
861.572	0.0145203
861.650	0.0147401
861.728	0.0147269
861.807	0.0147422
861.885	0.0146432
861.963	0.0146934
862.041	0.0147494
862.119	0.0146274
862.197	0.0147643
862.275	0.0148005
862.353	0.0148546
862.432	0.0148184
862.510	0.0147356
862.588	0.0146942
862.666	0.0147923
862.744	0.0147684
862.822	0.0148278
862.900	0.0147983
862.978	0.0149834
863.057	0.0149786
863.135	0.0148749
863.213	0.0148716
863.291	0.0149586
863.369	0.0149280
863.447	0.0149713
863.525	0.0150192
863.603	0.0150336
863.682	0.0149943
863.760	0.0150774
863.838	0.0148966
863.916	0.0150047
863.994	0.0150157
864.072	0.0149690
864.150	0.0149636
864.228	0.0149251
864.307	0.0147641
864.385	0.0149112
864.463	0.0147762
864.541	0.0147233
864.619	0.0148632
864.697	0.0147195
864.775	0.0146667
864.853	0.0148425
864.932	0.0147737
865.010	0.0146996
865.088	0.0147059
865.166	0.0145432
865.244	0.0146688
865.322	0.0147650
865.400	0.0148167
865.478	0.0147178
865.557	0.0147256
865.635	0.0147272
865.713	0.0147110
865.791	0.0148055
865.869	0.0146293
865.947	0.0147718
866.025	0.0147029
866.103	0.0146425
866.182	0.0144817
866.260	0.0147258
866.338	0.0146146
866.416	0.0147331
866.494	0.0147780
866.572	0.0148940
866.650	0.0148885
866.728	0.0148840
866.807	0.0150407
866.885	0.0150492
866.963	0.0150819
867.041	0.0150436
867.119	0.0150085
867.197	0.0149955
867.275	0.0151128
867.353	0.0150513
867.432	0.0150108
867.510	0.0150659
867.588	0.0150272
867.666	0.0150820
867.744	0.0149541
867.822	0.0149085
867.900	0.0149872
867.978	0.0148243
868.057	0.0148297
868.135	0.0148742
868.213	0.0148370
868.291	0.0149222
868.369	0.0149567
868.447	0.0147925
868.525	0.0148318
868.603	0.0148792
868.682	0.0148073
868.760	0.0148512
868.838	0.0148569
868.916	0.0147503
868.994	0.0146586
869.072	0.0147924
869.150	0.0147396
869.228	0.0146142
869.307	0.0148067
869.385	0.0146581
869.463	0.0147543
869.541	0.0147585
869.619	0.0148643
869.697	0.0148849
869.775	0.0149261
869.853	0.0147491
869.932	0.0149084
870.010	0.0149987
870.088	0.0149492
870.166	0.0150808
870.244	0.0149635
870.322	0.0149390
870.400	0.0149284
870.478	0.0147221
870.557	0.0149751
870.635	0.0150558
870.713	0.0150805
870.791	0.0150613
870.869	0.0150108
870.947	0.0150851
871.025	0.0150982
871.103	0.0151109
871.182	0.0150858
871.260	0.0149926
871.338	0.0149273
871.416	0.0149841
871.494	0.0149977
871.572	0.0149663
871.650	0.0148557
871.728	0.0148911
871.807	0.0149328
871.885	0.0148674
871.963	0.0147726
872.041	0.0148166
872.119	0.0148568
872.197	0.0146692
872.275	0.0146120
872.353	0.0145766
872.432	0.0145062
872.510	0.0145182
872.588	0.0144975
872.666	0.0145880
872.744	0.0144041
872.822	0.0144486
872.900	0.0144309
872.978	0.0144244
873.057	0.0145499
873.135	0.0144487
873.213	0.0145517
873.291	0.0146629
873.369	0.0147736
873.447	0.0147617
873.525	0.0148901
873.603	0.0148715
873.682	0.0149644
873.760	0.0150771
873.838	0.0151878
873.916	0.0152144
873.994	0.0152523
874.072	0.0152180
874.150	0.0151714
874.228	0.0152166
874.307	0.0154098
874.385	0.0152422
874.463	0.0153230
874.541	0.0151884
874.619	0.0152155
874.697	0.0153594
874.775	0.0152869
874.853	0.0151479
874.932	0.0150912
875.010	0.0149709
875.088	0.0149357
875.166	0.0149137
875.244	0.0148582
875.322	0.0150186
875.400	0.0146453
875.478	0.0147869
875.557	0.0146722
875.635	0.0148283
875.713	0.0148415
875.791	0.0146665
875.869	0.0147258
875.947	0.0147138
876.025	0.0147000
876.103	0.0148009
876.182	0.0148907
876.260	0.0147315
876.338	0.0148282
876.416	0.0147165
876.494	0.0147267
876.572	0.0148956
876.650	0.0148910
876.728	0.0148194
876.807	0.0149271
876.885	0.0149632
876.963	0.0149595
877.041	0.0150309
877.119	0.0150663
877.197	0.0149904
877.275	0.0148655
877.353	0.0149809
877.432	0.0150441
877.510	0.0149485
877.588	0.0147954
877.666	0.0147146
877.744	0.0147288
877.822	0.0145404
877.900	0.0146425
877.978	0.0146175
878.057	0.0147044
878.135	0.0146487
878.213	0.0146781
878.291	0.0145884
878.369	0.0145950
878.447	0.0146308
878.525	0.0147458
878.603	0.0146989
878.682	0.0146819
878.760	0.0149344
878.838	0.0147530
878.916	0.0145708
878.994	0.0148578
879.072	0.0148228
879.150	0.0147274
879.228	0.0146332
879.307	0.0146138
879.385	0.0146955
879.463	0.0146848
879.541	0.0146429
879.619	0.0146948
879.697	0.0147097
879.775	0.0145627
879.853	0.0145922
879.932	0.0147610
880.010	0.0147172
880.088	0.0148317
880.166	0.0147725
880.244	0.0147948
880.322	0.0149334
880.400	0.0147769
880.478	0.0149549
880.557	0.0150116
880.635	0.0149703
880.713	0.0149463
880.791	0.0150493
880.869	0.0149970
880.947	0.0149389
881.025	0.0148772
881.103	0.0149969
881.182	0.0149289
881.260	0.0149817
881.338	0.0148923
881.416	0.0148772
881.494	0.0149017
881.572	0.0148542
881.650	0.0148946
881.728	0.0149942
881.807	0.0149143
881.885	0.0148116
881.963	0.0147486
882.041	0.0148736
882.119	0.0148352
882.197	0.0146197
882.275	0.0147785
882.353	0.0148000
882.432	0.0148606
882.510	0.0149662
882.588	0.0149485
882.666	0.0148601
882.744	0.0150049
882.822	0.0149618
882.900	0.0149880
882.978	0.0150766
883.057	0.0149954
883.135	0.0149890
883.213	0.0149838
883.291	0.0149664
883.369	0.0150211
883.447	0.0148885
883.525	0.0147688
883.603	0.0147439
883.682	0.0148164
883.760	0.0147599
883.838	0.0146732
883.916	0.0146544
883.994	0.0144614
884.072	0.0145341
884.150	0.0145629
884.228	0.0145299
884.307	0.0144266
884.385	0.0143775
884.463	0.0143291
884.541	0.0142832
884.619	0.0142245
884.697	0.0141692
884.775	0.0141380
884.853	0.0142000
884.932	0.0141481
885.010	0.0143034
885.088	0.0142577
885.166	0.0143198
885.244	0.0144382
885.322	0.0145441
885.400	0.0145313
885.478	0.0145822
885.557	0.0145613
885.635	0.0146797
885.713	0.0146056
885.791	0.0146334
885.869	0.0147869
885.947	0.0146392
886.025	0.0145910
886.103	0.0146292
886.182	0.0146500
886.260	0.0146815
886.338	0.0146853
886.416	0.0146709
886.494	0.0148144
886.572	0.0147211
886.650	0.0148704
886.728	0.0149828
886.807	0.0149725
886.885	0.0150413
886.963	0.0149538
887.041	0.0151177
887.119	0.0151118
887.197	0.0151412
887.275	0.0152238
887.353	0.0152149
887.432	0.0152054
887.510	0.0151483
887.588	0.0151665
887.666	0.0152008
887.744	0.0151400
887.822	0.0153020
887.900	0.0152444
887.978	0.0151884
888.057	0.0151788
888.135	0.0152700
888.213	0.0152373
888.291	0.0150775
888.369	0.0151571
888.447	0.0151746
888.525	0.0149847
888.603	0.0149339
888.682	0.0149474
888.760	0.0149139
888.838	0.0148187
888.916	0.0147187
888.994	0.0148270
889.072	0.0146989
889.150	0.0147124
889.228	0.0146891
889.307	0.0146997
889.385	0.0147141
889.463	0.0146297
889.541	0.0145731
889.619	0.0146091
889.697	0.0147974
889.775	0.0147872
889.853	0.0147754
889.932	0.0148643
890.010	0.0150047
890.088	0.0148990
890.166	0.0148432
890.244	0.0150031
890.322	0.0151569
890.400	0.0150359
890.478	0.0149722
890.557	0.0149701
890.635	0.0150607
890.713	0.0150987
890.791	0.0149931
890.869	0.0149707
890.947	0.0150125
891.025	0.0149422
891.103	0.0148989
891.182	0.0149535
891.260	0.0149375
891.338	0.0148714
891.416	0.0147815
891.494	0.0148660
891.572	0.0148349
891.650	0.0146920
891.728	0.0148472
891.807	0.0146572
891.885	0.0146283
891.963	0.0147251
892.041	0.0146233
892.119	0.0147012
892.197	0.0147484
892.275	0.0146463
892.353	0.0147825
892.432	0.0148140
892.510	0.0147839
892.588	0.0147675
892.666	0.0148080
892.744	0.0147652
892.822	0.0148743
892.900	0.0148030
892.978	0.0147958
893.057	0.0149181
893.135	0.0148930
893.213	0.0149252
893.291	0.0150974
893.369	0.0149974
893.447	0.0151945
893.525	0.0152742
893.603	0.0152933
893.682	0.0153236
893.760	0.0154408
893.838	0.0154113
893.916	0.0152860
893.994	0.0153104
894.072	0.0151783
894.150	0.0152066
894.228	0.0153220
894.307	0.0153375
894.385	0.0150866
894.463	0.0151534
894.541	0.0150759
894.619	0.0150545
894.697	0.0150201
894.775	0.0150224
894.853	0.0150868
894.932	0.0152012
895.010	0.0151821
895.088	0.0152092
895.166	0.0151600
895.244	0.0151935
895.322	0.0152266
895.400	0.0151443
895.478	0.0151833
895.557	0.0151068
895.635	0.0149949
895.713	0.0149281
895.791	0.0148195
895.869	0.0148639
895.947	0.0149168
896.025	0.0146421
896.103	0.0148072
896.182	0.0147513
896.260	0.0145814
896.338	0.0146455
896.416	0.0147369
896.494	0.0146871
896.572	0.0146501
896.650	0.0147243
896.728	0.0146776
896.807	0.0147047
896.885	0.0148296
896.963	0.0147975
897.041	0.0147124
897.119	0.0147356
897.197	0.0147800
897.275	0.0148447
897.353	0.0146892
897.432	0.0147134
897.510	0.0146993
897.588	0.0146853
897.666	0.0146815
897.744	0.0147789
897.822	0.0147636
897.900	0.0147345
897.978	0.0149474
898.057	0.0149903
898.135	0.0148421
898.213	0.0149688
898.291	0.0150276
898.369	0.0150476
898.447	0.0148836
898.525	0.0149389
898.603	0.0150700
898.682	0.0150981
898.760	0.0148628
898.838	0.0149637
898.916	0.0148542
898.994	0.0147921
899.072	0.0146626
899.150	0.0146465
899.228	0.0146048
899.307	0.0146606
899.385	0.0145810
899.463	0.0143871
899.541	0.0144263
899.619	0.0145169
899.697	0.0145073
899.775	0.0143482
899.853	0.0144232
899.932	0.0146250
900.010	0.0145438
900.088	0.0143816
900.166	0.0145270
900.244	0.0145800
900.322	0.0146091
900.400	0.0145743
900.478	0.0147362
900.557	0.0146370
900.635	0.0149078
900.713	0.0147901
900.791	0.0147906
900.869	0.0148585
900.947	0.0149410
901.025	0.0149032
901.103	0.0148515
901.182	0.0150375
901.260	0.0149744
901.338	0.0149726
901.416	0.0151276
901.494	0.0149875
901.572	0.0149968
901.650	0.0150300
901.728	0.0150475
901.807	0.0151618
901.885	0.0150513
901.963	0.0149004
902.041	0.0150194
902.119	0.0149840
902.197	0.0148934
902.275	0.0148815
902.353	0.0148460
902.432	0.0146870
902.510	0.0148085
902.588	0.0148281
902.666	0.0146458
902.744	0.0146364
902.822	0.0145543
902.900	0.0145896
902.978	0.0148222
903.057	0.0147714
903.135	0.0147054
903.213	0.0146864
903.291	0.0148968
903.369	0.0147902
903.447	0.0147780
903.525	0.0148556
903.603	0.0148058
903.682	0.0147810
903.760	0.0148696
903.838	0.0149158
903.916	0.0149316
903.994	0.0148797
904.072	0.0147845
904.150	0.0148476
904.228	0.0149594
904.307	0.0148199
904.385	0.0150110
904.463	0.0150156
904.541	0.0151027
904.619	0.0150251
904.697	0.0150309
904.775	0.0150365
904.853	0.0148921
904.932	0.0148921
905.010	0.0149059
905.088	0.0150274
905.166	0.0148624
905.244	0.0147781
905.322	0.0146973
905.400	0.0146508
905.478	0.0145529
905.557	0.0145673
905.635	0.0147377
905.713	0.0144341
905.791	0.0145533
905.869	0.0146137
905.947	0.0145826
906.025	0.0144108
906.103	0.0145977
906.182	0.0145705
906.260	0.0145728
906.338	0.0144603
906.416	0.0146278
906.494	0.0146880
906.572	0.0145609
906.650	0.0146995
906.728	0.0146039
906.807	0.0147689
906.885	0.0146963
906.963	0.0147363
907.041	0.0146997
907.119	0.0146838
907.197	0.0147078
907.275	0.0148100
907.353	0.0148896
907.432	0.0149490
907.510	0.0148481
907.588	0.0148397
907.666	0.0150204
907.744	0.0148602
907.822	0.0149249
907.900	0.0149378
907.978	0.0148856
908.057	0.0147906
908.135	0.0147871
908.213	0.0148792
908.291	0.0149189
908.369	0.0149185
908.447	0.0148991
908.525	0.0149545
908.603	0.0148267
908.682	0.0147094
908.760	0.0149372
908.838	0.0148216
908.916	0.0149816
908.994	0.0149490
909.072	0.0148336
909.150	0.0148608
909.228	0.0149959
909.307	0.0149127
909.385	0.0150123
909.463	0.0148282
909.541	0.0149087
909.619	0.0148817
909.697	0.0147680
909.775	0.0149821
909.853	0.0148360
909.932	0.0147800
910.010	0.0149291
910.088	0.0148515
910.166	0.0147655
910.244	0.0148183
910.322	0.0148808
910.400	0.0148591
910.478	0.0149361
910.557	0.0150676
910.635	0.0151273
910.713	0.0150570
910.791	0.0149194
910.869	0.0149802
910.947	0.0149577
911.025	0.0149825
911.103	0.0150033
911.182	0.0151054
911.260	0.0150848
911.338	0.0149626
911.416	0.0151524
911.494	0.0149965
911.572	0.0149439
911.650	0.0150420
911.728	0.0149750
911.807	0.0150163
911.885	0.0148306
911.963	0.0149403
912.041	0.0148418
912.119	0.0146835
912.197	0.0147538
912.275	0.0147973
912.353	0.0146407
912.432	0.0147823
912.510	0.0147363
912.588	0.0146621
912.666	0.0146265
912.744	0.0145022
912.822	0.0147106
912.900	0.0147677
912.978	0.0148228
913.057	0.0147370
913.135	0.0147690
913.213	0.0147788
913.291	0.0148313
913.369	0.0147855
913.447	0.0149437
913.525	0.0148396
913.603	0.0149091
913.682	0.0148340
913.760	0.0149225
913.838	0.0148875
913.916	0.0148489
913.994	0.0149895
914.072	0.0150591
914.150	0.0150159
914.228	0.0150874
914.307	0.0151927
914.385	0.0150293
914.463	0.0151040
914.541	0.0150182
914.619	0.0149626
914.697	0.0150874
914.775	0.0150210
914.853	0.0150484
914.932	0.0150365
915.010	0.0149144
915.088	0.0147276
915.166	0.0148220
915.244	0.0149861
915.322	0.0147784
915.400	0.0146575
915.478	0.0147165
915.557	0.0147466
915.635	0.0148542
915.713	0.0146873
915.791	0.0148347
915.869	0.0148421
915.947	0.0148584
916.025	0.0149033
916.103	0.0148199
916.182	0.0148513
916.260	0.0148435
916.338	0.0147911
916.416	0.0148230
916.494	0.0147888
916.572	0.0147932
916.650	0.0149128
916.728	0.0148466
916.807	0.0148468
916.885	0.0148775
916.963	0.0148656
917.041	0.0147531
917.119	0.0148658
917.197	0.0149791
917.275	0.0150977
917.353	0.0148801
917.432	0.0150146
917.510	0.0148160
917.588	0.0147947
917.666	0.0148717
917.744	0.0149472
917.822	0.0148362
917.900	0.0149157
917.978	0.0148676
918.057	0.0150488
918.135	0.0147906
918.213	0.0147877
918.291	0.0150066
918.369	0.0147781
918.447	0.0147585
918.525	0.0147311
918.603	0.0148445
918.682	0.0146896
918.760	0.0148230
918.838	0.0146941
918.916	0.0146516
918.994	0.0147756
919.072	0.0148151
919.150	0.0147722
919.228	0.0147952
919.307	0.0150217
919.385	0.0148547
919.463	0.0148824
919.541	0.0149088
919.619	0.0150681
919.697	0.0149273
919.775	0.0150011
919.853	0.0149620
919.932	0.0149586
920.010	0.0150608
920.088	0.0150604
920.166	0.0149835
920.244	0.0148592
920.322	0.0149712
920.400	0.0149819
920.478	0.0149958
920.557	0.0150670
920.635	0.0150207
920.713	0.0149055
920.791	0.0150662
920.869	0.0149286
920.947	0.0148824
921.025	0.0147725
921.103	0.0149217
921.182	0.0148942
921.260	0.0148391
921.338	0.0148305
921.416	0.0147210
921.494	0.0147013
921.572	0.0145070
921.650	0.0145470
921.728	0.0145393
921.807	0.0146483
921.885	0.0144407
921.963	0.0145272
922.041	0.0145115
922.119	0.0144649
922.197	0.0146664
922.275	0.0145789
922.353	0.0145969
922.432	0.0145375
922.510	0.0147005
922.588	0.0147308
922.666	0.0147533
922.744	0.0147972
922.822	0.0147263
922.900	0.0147887
922.978	0.0148709
923.057	0.0146898
923.135	0.0148011
923.213	0.0147440
923.291	0.0147757
923.369	0.0149001
923.447	0.0149149
923.525	0.0149349
923.603	0.0149129
923.682	0.0149236
923.760	0.0149420
923.838	0.0149144
923.916	0.0148142
923.994	0.0149428
924.072	0.0150584
924.150	0.0148885
924.228	0.0150125
924.307	0.0150962
924.385	0.0150426
924.463	0.0149437
924.541	0.0149687
924.619	0.0150875
924.697	0.0150541
924.775	0.0150098
924.853	0.0150712
924.932	0.0150222
925.010	0.0148220
925.088	0.0150040
925.166	0.0151872
925.244	0.0149637
925.322	0.0149460
925.400	0.0149559
925.478	0.0150694
925.557	0.0150318
925.635	0.0150642
925.713	0.0151381
925.791	0.0149983
925.869	0.0152406
925.947	0.0151967
926.025	0.0151598
926.103	0.0151792
926.182	0.0151528
926.260	0.0152368
926.338	0.0151602
926.416	0.0151192
926.494	0.0152460
926.572	0.0151983
926.650	0.0150082
926.728	0.0150208
926.807	0.0151536
926.885	0.0151434
926.963	0.0149701
927.041	0.0150241
927.119	0.0149935
927.197	0.0148825
927.275	0.0148767
927.353	0.0148193
927.432	0.0148122
927.510	0.0146822
927.588	0.0147733
927.666	0.0146563
927.744	0.0145986
927.822	0.0145921
927.900	0.0146577
927.978	0.0145573
928.057	0.0145032
928.135	0.0144316
928.213	0.0144676
928.291	0.0144599
928.369	0.0145277
928.447	0.0144915
928.525	0.0144765
928.603	0.0144341
928.682	0.0145109
928.760	0.0145747
928.838	0.0146417
928.916	0.0146784
928.994	0.0146254
929.072	0.0146961
929.150	0.0147766
929.228	0.0148631
929.307	0.0148694
929.385	0.0147906
929.463	0.0147989
929.541	0.0149286
929.619	0.0147813
929.697	0.0149698
929.775	0.0149282
929.853	0.0148647
929.932	0.0149996
930.010	0.0150211
930.088	0.0149133
930.166	0.0149972
930.244	0.0149977
930.322	0.0150816
930.400	0.0148807
930.478	0.0149521
930.557	0.0149183
930.635	0.0149880
930.713	0.0148106
930.791	0.0148273
930.869	0.0149375
930.947	0.0148505
931.025	0.0149610
931.103	0.0149158
931.182	0.0147742
931.260	0.0147860
931.338	0.0148732
931.416	0.0148733
931.494	0.0147015
931.572	0.0147527
931.650	0.0148002
931.728	0.0148376
931.807	0.0147346
931.885	0.0147600
931.963	0.0147656
932.041	0.0148792
932.119	0.0147667
932.197	0.0149185
932.275	0.0149229
932.353	0.0150020
932.432	0.0149837
932.510	0.0151269
932.588	0.0150909
932.666	0.0152141
932.744	0.0151746
932.822	0.0153128
932.900	0.0152519
932.978	0.0152321
933.057	0.0152438
933.135	0.0151871
933.213	0.0152766
933.291	0.0151978
933.369	0.0152253
933.447	0.0151051
933.525	0.0150071
933.603	0.0150036
933.682	0.0150404
933.760	0.0147670
933.838	0.0146272
933.916	0.0146252
933.994	0.0146885
934.072	0.0146217
934.150	0.0143699
934.228	0.0144534
934.307	0.0144328
934.385	0.0144305
934.463	0.0144009
934.541	0.0144117
934.619	0.0144082
934.697	0.0144604
934.775	0.0143012
934.853	0.0144147
934.932	0.0143938
935.010	0.0143982
935.088	0.0146593
935.166	0.0146536
935.244	0.0147188
935.322	0.0145766
935.400	0.0147323
935.478	0.0147333
935.557	0.0147987
935.635	0.0148609
935.713	0.0148975
935.791	0.0147128
935.869	0.0148985
935.947	0.0149667
936.025	0.0149279
936.103	0.0150289
936.182	0.0148899
936.260	0.0149030
936.338	0.0150113
936.416	0.0148896
936.494	0.0149734
936.572	0.0150106
936.650	0.0149837
936.728	0.0149467
936.807	0.0149509
936.885	0.0150423
936.963	0.0148730
937.041	0.0148960
937.119	0.0149058
937.197	0.0150317
937.275	0.0149299
937.353	0.0148992
937.432	0.0148675
937.510	0.0147070
937.588	0.0146575
937.666	0.0147581
937.744	0.0148294
937.822	0.0147008
937.900	0.0145210
937.978	0.0144962
938.057	0.0145274
938.135	0.0145964
938.213	0.0144705
938.291	0.0145564
938.369	0.0145857
938.447	0.0145832
938.525	0.0145716
938.603	0.0146111
938.682	0.0146959
938.760	0.0147219
938.838	0.0146555
938.916	0.0146350
938.994	0.0146809
939.072	0.0148421
939.150	0.0146597
939.228	0.0147222
939.307	0.0148251
939.385	0.0148775
939.463	0.0148227
939.541	0.0148022
939.619	0.0148247
939.697	0.0149287
939.775	0.0147555
939.853	0.0146789
939.932	0.0149667
940.010	0.0149123
940.088	0.0149052
940.166	0.0148634
940.244	0.0148156
940.322	0.0148070
940.400	0.0147807
940.478	0.0148109
940.557	0.0147475
940.635	0.0147735
940.713	0.0147911
940.791	0.0147498
940.869	0.0147030
940.947	0.0148674
941.025	0.0146826
941.103	0.0147523
941.182	0.0147491
941.260	0.0147147
941.338	0.0147600
941.416	0.0148045
941.494	0.0146776
941.572	0.0147829
941.650	0.0147608
941.728	0.0147436
941.807	0.0147589
941.885	0.0147896
941.963	0.0147363
942.041	0.0148942
942.119	0.0148889
942.197	0.0146663
942.275	0.0149074
942.353	0.0149036
942.432	0.0147735
942.510	0.0146025
942.588	0.0147565
942.666	0.0148632
942.744	0.0148357
942.822	0.0146461
942.900	0.0147481
942.978	0.0147850
943.057	0.0147650
943.135	0.0149736
943.213	0.0148917
943.291	0.0149011
943.369	0.0150380
943.447	0.0148481
943.525	0.0148074
943.603	0.0149808
943.682	0.0148536
943.760	0.0148335
943.838	0.0147023
943.916	0.0147900
943.994	0.0149415
944.072	0.0147751
944.150	0.0147054
944.228	0.0148024
944.307	0.0147645
944.385	0.0146915
944.463	0.0147990
944.541	0.0146751
944.619	0.0145873
944.697	0.0148859
944.775	0.0148728
944.853	0.0148648
944.932	0.0148634
945.010	0.0148525
945.088	0.0149603
945.166	0.0150453
945.244	0.0150886
945.322	0.0149776
945.400	0.0150851
945.478	0.0151501
945.557	0.0150443
945.635	0.0149867
945.713	0.0148842
945.791	0.0151649
945.869	0.0151620
945.947	0.0151128
946.025	0.0150953
946.103	0.0149612
946.182	0.0151992
946.260	0.0150905
946.338	0.0150415
946.416	0.0151805
946.494	0.0150549
946.572	0.0150153
946.650	0.0151408
946.728	0.0150751
946.807	0.0150433
946.885	0.0149801
946.963	0.0150441
947.041	0.0149598
947.119	0.0148578
947.197	0.0147814
947.275	0.0148124
947.353	0.0148724
947.432	0.0147614
947.510	0.0147538
947.588	0.0148626
947.666	0.0147323
947.744	0.0147068
947.822	0.0147636
947.900	0.0147369
947.978	0.0148858
948.057	0.0146944
948.135	0.0148311
948.213	0.0148643
948.291	0.0150386
948.369	0.0149737
948.447	0.0148492
948.525	0.0149981
948.603	0.0148228
948.682	0.0148946
948.760	0.0149355
948.838	0.0149372
948.916	0.0149220
948.994	0.0148863
949.072	0.0148145
949.150	0.0150730
949.228	0.0151174
949.307	0.0148562
949.385	0.0150663
949.463	0.0149862
949.541	0.0150123
949.619	0.0150864
949.697	0.0150709
949.775	0.0149379
949.853	0.0150748
949.932	0.0151076
950.010	0.0150337
950.088	0.0148248
950.166	0.0149529
950.244	0.0148273
950.322	0.0149054
950.400	0.0148873
950.478	0.0148410
950.557	0.0148739
950.635	0.0146685
950.713	0.0146909
950.791	0.0146410
950.869	0.0147948
950.947	0.0146883
951.025	0.0147288
951.103	0.0147688
951.182	0.0145252
951.260	0.0146027
951.338	0.0147558
951.416	0.0149496
951.494	0.0148727
951.572	0.0148739
951.650	0.0148593
951.728	0.0148674
951.807	0.0149396
951.885	0.0149510
951.963	0.0149860
952.041	0.0148999
952.119	0.0148383
952.197	0.0149094
952.275	0.0148743
952.353	0.0149748
952.432	0.0149232
952.510	0.0148312
952.588	0.0149454
952.666	0.0148344
952.744	0.0149543
952.822	0.0148580
952.900	0.0148915
952.978	0.0147743
953.057	0.0148463
953.135	0.0149187
953.213	0.0148883
953.291	0.0148912
953.369	0.0148681
953.447	0.0148689
953.525	0.0149527
953.603	0.0148780
953.682	0.0148103
953.760	0.0149411
953.838	0.0148186
953.916	0.0147533
953.994	0.0149207
954.072	0.0147475
954.150	0.0148254
954.228	0.0150018
954.307	0.0147803
954.385	0.0147443
954.463	0.0147373
954.541	0.0146336
954.619	0.0148753
954.697	0.0147340
954.775	0.0147213
954.853	0.0147507
954.932	0.0148145
955.010	0.0147880
955.088	0.0146873
955.166	0.0145078
955.244	0.0147250
955.322	0.0147353
955.400	0.0147765
955.478	0.0149402
955.557	0.0147643
955.635	0.0147186
955.713	0.0148376
955.791	0.0148286
955.869	0.0149683
955.947	0.0149629
956.025	0.0150031
956.103	0.0150343
956.182	0.0147671
956.260	0.0150949
956.338	0.0150104
956.416	0.0149062
956.494	0.0150695
956.572	0.0149531
956.650	0.0150159
956.728	0.0149190
956.807	0.0149131
956.885	0.0148723
956.963	0.0148942
957.041	0.0148029
957.119	0.0146876
957.197	0.0147324
957.275	0.0148174
957.353	0.0147336
957.432	0.0147856
957.510	0.0148666
957.588	0.0148724
957.666	0.0147753
957.744	0.0146996
957.822	0.0148273
957.900	0.0149197
957.978	0.0149542
958.057	0.0149148
958.135	0.0148857
958.213	0.0147184
958.291	0.0147830
958.369	0.0147816
958.447	0.0149006
958.525	0.0149078
958.603	0.0148834
958.682	0.0152071
958.760	0.0150053
958.838	0.0148971
958.916	0.0148895
958.994	0.0147803
959.072	0.0150054
959.150	0.0150719
959.228	0.0150250
959.307	0.0148978
959.385	0.0148849
959.463	0.0148128
959.541	0.0149271
959.619	0.0148534
959.697	0.0149464
959.775	0.0149191
959.853	0.0147573
959.932	0.0147660
960.010	0.0147362
960.088	0.0145655
960.166	0.0147467
960.244	0.0146434
960.322	0.0146445
960.400	0.0147264
960.478	0.0146966
960.557	0.0146257
960.635	0.0146803
960.713	0.0146242
960.791	0.0145647
960.869	0.0145088
960.947	0.0146017
961.025	0.0146760
961.103	0.0145672
961.182	0.0144350
961.260	0.0145708
961.338	0.0145370
961.416	0.0144740
961.494	0.0145451
961.572	0.0145338
961.650	0.0144460
961.728	0.0144617
961.807	0.0144901
961.885	0.0144892
961.963	0.0146420
962.041	0.0146109
962.119	0.0145853
962.197	0.0146667
962.275	0.0146555
962.353	0.0147073
962.432	0.0147610
962.510	0.0148097
962.588	0.0148115
962.666	0.0148180
962.744	0.0149986
962.822	0.0147469
962.900	0.0148120
962.978	0.0147341
963.057	0.0147772
963.135	0.0148777
963.213	0.0148851
963.291	0.0146877
963.369	0.0147156
963.447	0.0147043
963.525	0.0147397
963.603	0.0148219
963.682	0.0147369
963.760	0.0147839
963.838	0.0148073
963.916	0.0147140
963.994	0.0147940
964.072	0.0149322
964.150	0.0147565
964.228	0.0147475
964.307	0.0148157
964.385	0.0148112
964.463	0.0146954
964.541	0.0146593
964.619	0.0147443
964.697	0.0147733
964.775	0.0146668
964.853	0.0148154
964.932	0.0148083
965.010	0.0148041
965.088	0.0147938
965.166	0.0147234
965.244	0.0148235
965.322	0.0149097
965.400	0.0148744
965.478	0.0149177
965.557	0.0146469
965.635	0.0148911
965.713	0.0148713
965.791	0.0147899
965.869	0.0148285
965.947	0.0147329
966.025	0.0147728
966.103	0.0147910
966.182	0.0147101
966.260	0.0147069
966.338	0.0146562
966.416	0.0147465
966.494	0.0144620
966.572	0.0145950
966.650	0.0146812
966.728	0.0146579
966.807	0.0145768
966.885	0.0146402
966.963	0.0145641
967.041	0.0144386
967.119	0.0146630
967.197	0.0146111
967.275	0.0146391
967.353	0.0147876
967.432	0.0146970
967.510	0.0146684
967.588	0.0146713
967.666	0.0145773
967.744	0.0145956
967.822	0.0146214
967.900	0.0147034
967.978	0.0148283
968.057	0.0145375
968.135	0.0146865
968.213	0.0148573
968.291	0.0148019
968.369	0.0147990
968.447	0.0148443
968.525	0.0147431
968.603	0.0147762
968.682	0.0149177
968.760	0.0148685
968.838	0.0148720
968.916	0.0147955
968.994	0.0148460
969.072	0.0148277
969.150	0.0148825
969.228	0.0148593
969.307	0.0148457
969.385	0.0147691
969.463	0.0147129
969.541	0.0147679
969.619	0.0148317
969.697	0.0149610
969.775	0.0149185
969.853	0.0149620
969.932	0.0149655
