05/14/2022	19:24:45	Ver.	4.1	UNKNOWN
Optical Delay	650.009681	Delta X		0.078125	Sweeps	1	Scan Rate	0/0
Coordinates	Axis 1	NaN	Axis 2	NaN	Axis 3	NaN	Axis 4	NaN	Axis 5	NaN	Axis 6	0.000000
TX Power	0.000000	RX Power	0.000000

650.010	0.0147509
650.088	0.0148878
650.166	0.0148503
650.244	0.0148148
650.322	0.0147630
650.400	0.0147161
650.478	0.0146933
650.557	0.0148193
650.635	0.0147889
650.713	0.0147069
650.791	0.0147947
650.869	0.0148533
650.947	0.0148798
651.025	0.0148225
651.103	0.0147607
651.182	0.0148395
651.260	0.0147903
651.338	0.0148810
651.416	0.0148792
651.494	0.0147570
651.572	0.0148074
651.650	0.0148167
651.728	0.0147630
651.807	0.0148778
651.885	0.0148738
651.963	0.0147685
652.041	0.0148121
652.119	0.0148891
652.197	0.0147822
652.275	0.0148135
652.353	0.0147907
652.432	0.0147713
652.510	0.0146909
652.588	0.0147651
652.666	0.0147587
652.744	0.0148463
652.822	0.0148697
652.900	0.0147771
652.978	0.0147684
653.057	0.0148740
653.135	0.0148362
653.213	0.0147752
653.291	0.0148997
653.369	0.0147523
653.447	0.0148632
653.525	0.0149109
653.603	0.0148276
653.682	0.0147637
653.760	0.0147172
653.838	0.0148505
653.916	0.0148356
653.994	0.0148045
654.072	0.0147171
654.150	0.0147707
654.228	0.0149011
654.307	0.0148803
654.385	0.0147884
654.463	0.0148970
654.541	0.0147519
654.619	0.0147659
654.697	0.0148594
654.775	0.0147751
654.853	0.0148125
654.932	0.0146493
655.010	0.0148766
655.088	0.0148009
655.166	0.0147358
655.244	0.0147556
655.322	0.0148502
655.400	0.0146707
655.478	0.0147683
655.557	0.0148407
655.635	0.0148306
655.713	0.0147625
655.791	0.0147778
655.869	0.0146188
655.947	0.0146318
656.025	0.0148036
656.103	0.0148943
656.182	0.0147665
656.260	0.0147314
656.338	0.0147968
656.416	0.0147224
656.494	0.0147524
656.572	0.0147977
656.650	0.0147345
656.728	0.0146391
656.807	0.0147752
656.885	0.0147672
656.963	0.0147976
657.041	0.0146671
657.119	0.0147549
657.197	0.0148003
657.275	0.0147781
657.353	0.0147129
657.432	0.0147778
657.510	0.0147826
657.588	0.0147483
657.666	0.0147391
657.744	0.0147794
657.822	0.0148546
657.900	0.0148819
657.978	0.0147504
658.057	0.0148812
658.135	0.0147868
658.213	0.0146747
658.291	0.0147364
658.369	0.0148218
658.447	0.0146890
658.525	0.0148066
658.603	0.0148866
658.682	0.0147081
658.760	0.0147583
658.838	0.0146808
658.916	0.0147662
658.994	0.0146701
659.072	0.0147787
659.150	0.0148382
659.228	0.0148316
659.307	0.0147141
659.385	0.0147083
659.463	0.0148069
659.541	0.0147544
659.619	0.0147081
659.697	0.0148141
659.775	0.0148532
659.853	0.0146935
659.932	0.0148091
660.010	0.0147194
660.088	0.0147343
660.166	0.0147137
660.244	0.0145864
660.322	0.0146855
660.400	0.0147044
660.478	0.0148849
660.557	0.0147860
660.635	0.0146745
660.713	0.0146072
660.791	0.0147190
660.869	0.0147890
660.947	0.0149136
661.025	0.0147787
661.103	0.0147400
661.182	0.0147752
661.260	0.0146235
661.338	0.0147552
661.416	0.0147485
661.494	0.0147717
661.572	0.0147749
661.650	0.0147442
661.728	0.0147272
661.807	0.0146868
661.885	0.0148168
661.963	0.0148032
662.041	0.0146916
662.119	0.0147910
662.197	0.0146911
662.275	0.0147634
662.353	0.0148505
662.432	0.0148484
662.510	0.0148592
662.588	0.0148347
662.666	0.0147604
662.744	0.0147596
662.822	0.0148827
662.900	0.0148145
662.978	0.0147753
663.057	0.0147676
663.135	0.0149024
663.213	0.0148004
663.291	0.0148009
663.369	0.0147465
663.447	0.0148748
663.525	0.0149564
663.603	0.0148488
663.682	0.0147955
663.760	0.0148159
663.838	0.0148343
663.916	0.0148730
663.994	0.0147981
664.072	0.0149393
664.150	0.0149247
664.228	0.0148528
664.307	0.0148390
664.385	0.0148283
664.463	0.0147878
664.541	0.0147868
664.619	0.0148310
664.697	0.0148873
664.775	0.0149271
664.853	0.0149097
664.932	0.0148779
665.010	0.0148593
665.088	0.0149002
665.166	0.0147648
665.244	0.0148409
665.322	0.0147749
665.400	0.0148131
665.478	0.0148425
665.557	0.0146777
665.635	0.0149534
665.713	0.0148061
665.791	0.0148064
665.869	0.0148488
665.947	0.0147948
666.025	0.0147090
666.103	0.0148102
666.182	0.0148958
666.260	0.0149033
666.338	0.0148325
666.416	0.0147701
666.494	0.0147595
666.572	0.0148827
666.650	0.0148804
666.728	0.0147781
666.807	0.0148879
666.885	0.0148262
666.963	0.0147707
667.041	0.0148165
667.119	0.0148106
667.197	0.0149115
667.275	0.0149126
667.353	0.0148844
667.432	0.0148988
667.510	0.0148740
667.588	0.0148171
667.666	0.0147997
667.744	0.0148629
667.822	0.0149437
667.900	0.0148078
667.978	0.0149679
668.057	0.0148767
668.135	0.0148414
668.213	0.0147937
668.291	0.0149063
668.369	0.0148676
668.447	0.0147433
668.525	0.0148077
668.603	0.0147237
668.682	0.0148471
668.760	0.0149229
668.838	0.0148273
668.916	0.0148211
668.994	0.0148016
669.072	0.0147344
669.150	0.0145953
669.228	0.0147704
669.307	0.0148443
669.385	0.0148134
669.463	0.0146799
669.541	0.0149026
669.619	0.0148329
669.697	0.0147891
669.775	0.0148012
669.853	0.0150323
669.932	0.0150411
670.010	0.0148431
670.088	0.0149298
670.166	0.0151102
670.244	0.0149525
670.322	0.0149342
670.400	0.0149356
670.478	0.0149564
670.557	0.0147410
670.635	0.0147992
670.713	0.0147125
670.791	0.0147693
670.869	0.0147425
670.947	0.0147120
671.025	0.0146153
671.103	0.0146631
671.182	0.0145089
671.260	0.0143900
671.338	0.0146436
671.416	0.0148529
671.494	0.0148740
671.572	0.0148862
671.650	0.0150079
671.728	0.0150653
671.807	0.0152240
671.885	0.0152005
671.963	0.0153645
672.041	0.0154348
672.119	0.0156238
672.197	0.0154229
672.275	0.0151440
672.353	0.0150658
672.432	0.0148969
672.510	0.0149355
672.588	0.0146374
672.666	0.0143240
672.744	0.0142135
672.822	0.0140949
672.900	0.0138956
672.978	0.0136864
673.057	0.0137689
673.135	0.0138820
673.213	0.0139414
673.291	0.0139286
673.369	0.0142106
673.447	0.0143456
673.525	0.0146854
673.603	0.0149472
673.682	0.0152341
673.760	0.0155906
673.838	0.0158695
673.916	0.0159876
673.994	0.0160474
674.072	0.0161389
674.150	0.0162395
674.228	0.0163152
674.307	0.0161190
674.385	0.0160372
674.463	0.0157462
674.541	0.0155888
674.619	0.0153510
674.697	0.0150055
674.775	0.0147939
674.853	0.0147018
674.932	0.0145086
675.010	0.0140568
675.088	0.0138336
675.166	0.0137278
675.244	0.0135767
675.322	0.0135456
675.400	0.0134226
675.478	0.0134870
675.557	0.0133421
675.635	0.0134716
675.713	0.0135335
675.791	0.0134708
675.869	0.0137311
675.947	0.0140797
676.025	0.0139735
676.103	0.0143293
676.182	0.0145313
676.260	0.0148822
676.338	0.0150276
676.416	0.0153124
676.494	0.0155807
676.572	0.0157908
676.650	0.0159809
676.728	0.0162361
676.807	0.0163379
676.885	0.0165229
676.963	0.0164037
677.041	0.0161893
677.119	0.0160500
677.197	0.0158972
677.275	0.0159486
677.353	0.0156573
677.432	0.0153220
677.510	0.0151108
677.588	0.0147580
677.666	0.0147204
677.744	0.0145517
677.822	0.0142953
677.900	0.0141012
677.978	0.0141079
678.057	0.0140678
678.135	0.0139022
678.213	0.0139521
678.291	0.0141073
678.369	0.0141270
678.447	0.0143347
678.525	0.0142880
678.603	0.0143840
678.682	0.0145222
678.760	0.0146197
678.838	0.0146325
678.916	0.0145844
678.994	0.0144038
679.072	0.0144104
679.150	0.0144103
679.228	0.0144801
679.307	0.0144026
679.385	0.0141351
679.463	0.0141521
679.541	0.0141805
679.619	0.0140922
679.697	0.0139671
679.775	0.0139004
679.853	0.0139107
679.932	0.0138359
680.010	0.0141206
680.088	0.0142629
680.166	0.0141943
680.244	0.0143710
680.322	0.0145374
680.400	0.0146576
680.478	0.0149329
680.557	0.0150489
680.635	0.0153447
680.713	0.0157072
680.791	0.0159172
680.869	0.0160305
680.947	0.0161950
681.025	0.0165208
681.103	0.0167304
681.182	0.0169398
681.260	0.0169181
681.338	0.0168655
681.416	0.0168565
681.494	0.0167410
681.572	0.0167707
681.650	0.0165552
681.728	0.0163757
681.807	0.0162963
681.885	0.0161061
681.963	0.0157315
682.041	0.0155176
682.119	0.0153114
682.197	0.0148713
682.275	0.0145306
682.353	0.0142046
682.432	0.0136758
682.510	0.0131664
682.588	0.0126147
682.666	0.0120166
682.744	0.0116002
682.822	0.0112871
682.900	0.0108304
682.978	0.0104401
683.057	0.0103171
683.135	0.0103623
683.213	0.0102990
683.291	0.0108382
683.369	0.0112835
683.447	0.0117429
683.525	0.0125421
683.603	0.0132872
683.682	0.0141989
683.760	0.0151408
683.838	0.0156722
683.916	0.0164197
683.994	0.0172340
684.072	0.0178409
684.150	0.0182389
684.228	0.0184160
684.307	0.0185715
684.385	0.0187624
684.463	0.0186967
684.541	0.0188009
684.619	0.0186284
684.697	0.0186271
684.775	0.0183609
684.853	0.0182404
684.932	0.0180075
685.010	0.0178637
685.088	0.0176962
685.166	0.0172656
685.244	0.0167561
685.322	0.0162858
685.400	0.0156658
685.478	0.0151246
685.557	0.0144741
685.635	0.0138209
685.713	0.0132078
685.791	0.0126485
685.869	0.0122834
685.947	0.0118265
686.025	0.0117766
686.103	0.0117426
686.182	0.0116062
686.260	0.0117060
686.338	0.0119038
686.416	0.0120692
686.494	0.0123227
686.572	0.0127363
686.650	0.0128528
686.728	0.0130516
686.807	0.0134386
686.885	0.0135384
686.963	0.0138678
687.041	0.0140125
687.119	0.0140924
687.197	0.0142688
687.275	0.0144004
687.353	0.0144678
687.432	0.0147260
687.510	0.0145449
687.588	0.0147321
687.666	0.0147718
687.744	0.0148611
687.822	0.0149626
687.900	0.0151867
687.978	0.0153209
688.057	0.0154636
688.135	0.0157668
688.213	0.0159371
688.291	0.0162824
688.369	0.0165894
688.447	0.0166116
688.525	0.0168723
688.603	0.0171627
688.682	0.0171183
688.760	0.0173392
688.838	0.0174445
688.916	0.0173775
688.994	0.0173149
689.072	0.0172798
689.150	0.0172346
689.228	0.0169765
689.307	0.0168176
689.385	0.0167197
689.463	0.0165182
689.541	0.0160493
689.619	0.0155909
689.697	0.0152933
689.775	0.0147219
689.853	0.0143366
689.932	0.0137885
690.010	0.0133267
690.088	0.0129148
690.166	0.0126642
690.244	0.0121489
690.322	0.0119294
690.400	0.0118278
690.478	0.0118682
690.557	0.0119353
690.635	0.0121048
690.713	0.0124686
690.791	0.0128120
690.869	0.0131904
690.947	0.0136024
691.025	0.0141103
691.103	0.0144724
691.182	0.0149388
691.260	0.0150714
691.338	0.0152231
691.416	0.0154605
691.494	0.0155005
691.572	0.0157030
691.650	0.0158601
691.728	0.0158454
691.807	0.0157878
691.885	0.0159151
691.963	0.0159644
692.041	0.0159872
692.119	0.0157476
692.197	0.0158309
692.275	0.0157811
692.353	0.0155428
692.432	0.0155913
692.510	0.0153712
692.588	0.0152813
692.666	0.0149986
692.744	0.0147623
692.822	0.0146484
692.900	0.0145715
692.978	0.0142647
693.057	0.0141790
693.135	0.0140263
693.213	0.0140732
693.291	0.0137046
693.369	0.0134608
693.447	0.0134116
693.525	0.0134624
693.603	0.0134828
693.682	0.0133096
693.760	0.0133451
693.838	0.0134802
693.916	0.0137153
693.994	0.0141512
694.072	0.0143527
694.150	0.0147910
694.228	0.0152065
694.307	0.0156759
694.385	0.0159820
694.463	0.0159977
694.541	0.0162947
694.619	0.0166782
694.697	0.0166248
694.775	0.0166960
694.853	0.0166615
694.932	0.0166934
695.010	0.0167208
695.088	0.0165186
695.166	0.0164526
695.244	0.0164283
695.322	0.0164381
695.400	0.0162497
695.478	0.0161899
695.557	0.0161581
695.635	0.0159763
695.713	0.0157542
695.791	0.0157421
695.869	0.0154748
695.947	0.0151476
696.025	0.0148579
696.103	0.0145473
696.182	0.0144292
696.260	0.0139729
696.338	0.0137305
696.416	0.0135959
696.494	0.0133001
696.572	0.0130470
696.650	0.0129102
696.728	0.0129700
696.807	0.0128529
696.885	0.0128581
696.963	0.0128467
697.041	0.0127021
697.119	0.0128936
697.197	0.0129815
697.275	0.0128105
697.353	0.0127196
697.432	0.0128868
697.510	0.0128573
697.588	0.0130771
697.666	0.0130881
697.744	0.0130406
697.822	0.0133127
697.900	0.0133437
697.978	0.0134148
698.057	0.0136264
698.135	0.0137908
698.213	0.0139773
698.291	0.0142336
698.369	0.0146571
698.447	0.0151041
698.525	0.0152811
698.603	0.0156516
698.682	0.0161093
698.760	0.0165478
698.838	0.0168557
698.916	0.0171061
698.994	0.0174373
699.072	0.0176762
699.150	0.0178275
699.228	0.0178603
699.307	0.0177342
699.385	0.0177825
699.463	0.0176679
699.541	0.0174537
699.619	0.0174388
699.697	0.0171267
699.775	0.0168703
699.853	0.0167149
699.932	0.0164559
700.010	0.0161706
700.088	0.0160104
700.166	0.0157680
700.244	0.0155962
700.322	0.0152498
700.400	0.0149009
700.478	0.0147160
700.557	0.0142589
700.635	0.0139172
700.713	0.0135196
700.791	0.0132441
700.869	0.0130257
700.947	0.0126988
701.025	0.0124820
701.103	0.0123454
701.182	0.0121296
701.260	0.0121659
701.338	0.0121204
701.416	0.0122800
701.494	0.0123962
701.572	0.0124763
701.650	0.0126209
701.728	0.0128628
701.807	0.0130556
701.885	0.0131661
701.963	0.0135048
702.041	0.0137926
702.119	0.0139954
702.197	0.0140359
702.275	0.0142500
702.353	0.0143320
702.432	0.0144814
702.510	0.0146811
702.588	0.0149113
702.666	0.0150169
702.744	0.0151524
702.822	0.0152789
702.900	0.0153407
702.978	0.0154868
703.057	0.0155829
703.135	0.0155887
703.213	0.0157121
703.291	0.0155683
703.369	0.0154080
703.447	0.0152375
703.525	0.0151383
703.603	0.0150082
703.682	0.0148502
703.760	0.0148515
703.838	0.0147231
703.916	0.0146234
703.994	0.0147367
704.072	0.0147577
704.150	0.0147063
704.228	0.0150340
704.307	0.0150196
704.385	0.0153326
704.463	0.0154790
704.541	0.0154751
704.619	0.0157127
704.697	0.0156696
704.775	0.0157417
704.853	0.0158395
704.932	0.0158388
705.010	0.0159827
705.088	0.0160295
705.166	0.0160725
705.244	0.0161295
705.322	0.0160196
705.400	0.0161889
705.478	0.0162548
705.557	0.0162530
705.635	0.0163781
705.713	0.0163604
705.791	0.0163825
705.869	0.0161745
705.947	0.0160505
706.025	0.0159544
706.103	0.0157825
706.182	0.0154566
706.260	0.0150883
706.338	0.0147005
706.416	0.0144379
706.494	0.0137684
706.572	0.0134917
706.650	0.0132377
706.728	0.0128543
706.807	0.0124922
706.885	0.0121668
706.963	0.0120909
707.041	0.0120382
707.119	0.0119944
707.197	0.0120550
707.275	0.0122107
707.353	0.0124105
707.432	0.0126851
707.510	0.0130293
707.588	0.0131714
707.666	0.0135628
707.744	0.0139561
707.822	0.0141905
707.900	0.0142831
707.978	0.0145432
708.057	0.0147873
708.135	0.0148105
708.213	0.0149711
708.291	0.0149612
708.369	0.0146840
708.447	0.0148167
708.525	0.0147454
708.603	0.0145066
708.682	0.0146426
708.760	0.0146358
708.838	0.0146851
708.916	0.0146502
708.994	0.0146992
709.072	0.0148645
709.150	0.0150101
709.228	0.0152036
709.307	0.0153333
709.385	0.0154988
709.463	0.0156818
709.541	0.0157346
709.619	0.0158638
709.697	0.0160764
709.775	0.0160040
709.853	0.0161785
709.932	0.0160910
710.010	0.0160347
710.088	0.0161745
710.166	0.0161444
710.244	0.0161325
710.322	0.0161214
710.400	0.0164027
710.478	0.0163989
710.557	0.0162486
710.635	0.0164830
710.713	0.0163406
710.791	0.0162964
710.869	0.0163821
710.947	0.0163202
711.025	0.0162582
711.103	0.0161893
711.182	0.0160032
711.260	0.0157686
711.338	0.0154486
711.416	0.0152990
711.494	0.0149603
711.572	0.0149599
711.650	0.0145076
711.728	0.0143037
711.807	0.0143088
711.885	0.0139992
711.963	0.0139008
712.041	0.0138084
712.119	0.0136983
712.197	0.0134985
712.275	0.0135068
712.353	0.0134055
712.432	0.0132609
712.510	0.0131649
712.588	0.0132853
712.666	0.0132963
712.744	0.0132472
712.822	0.0132478
712.900	0.0133075
712.978	0.0134322
713.057	0.0133772
713.135	0.0135268
713.213	0.0134988
713.291	0.0137165
713.369	0.0137474
713.447	0.0137968
713.525	0.0140708
713.603	0.0141675
713.682	0.0141822
713.760	0.0142657
713.838	0.0141952
713.916	0.0143505
713.994	0.0143117
714.072	0.0145444
714.150	0.0146369
714.228	0.0145963
714.307	0.0149586
714.385	0.0149112
714.463	0.0151687
714.541	0.0153422
714.619	0.0153678
714.697	0.0158186
714.775	0.0159285
714.853	0.0161459
714.932	0.0162177
715.010	0.0164056
715.088	0.0164297
715.166	0.0163815
715.244	0.0163763
715.322	0.0162478
715.400	0.0161803
715.478	0.0159463
715.557	0.0157797
715.635	0.0157238
715.713	0.0156314
715.791	0.0156629
715.869	0.0155391
715.947	0.0154043
716.025	0.0153326
716.103	0.0152808
716.182	0.0150706
716.260	0.0150899
716.338	0.0151271
716.416	0.0150607
716.494	0.0151174
716.572	0.0150543
716.650	0.0151035
716.728	0.0151215
716.807	0.0148441
716.885	0.0149609
716.963	0.0151137
717.041	0.0149341
717.119	0.0149409
717.197	0.0147667
717.275	0.0147308
717.353	0.0146368
717.432	0.0146036
717.510	0.0143960
717.588	0.0144675
717.666	0.0143845
717.744	0.0142970
717.822	0.0142682
717.900	0.0141488
717.978	0.0141251
718.057	0.0140771
718.135	0.0140799
718.213	0.0141956
718.291	0.0140359
718.369	0.0141188
718.447	0.0141810
718.525	0.0141605
718.603	0.0142507
718.682	0.0143571
718.760	0.0143516
718.838	0.0145845
718.916	0.0146574
718.994	0.0147710
719.072	0.0146539
719.150	0.0148611
719.228	0.0150426
719.307	0.0149739
719.385	0.0149674
719.463	0.0148248
719.541	0.0149007
719.619	0.0148433
719.697	0.0147569
719.775	0.0147059
719.853	0.0145900
719.932	0.0146091
720.010	0.0145907
720.088	0.0146215
720.166	0.0143896
720.244	0.0144859
720.322	0.0146045
720.400	0.0146629
720.478	0.0144500
720.557	0.0146672
720.635	0.0148351
720.713	0.0146487
720.791	0.0146858
720.869	0.0148226
720.947	0.0147499
721.025	0.0149061
721.103	0.0148911
721.182	0.0149245
721.260	0.0150416
721.338	0.0150262
721.416	0.0151118
721.494	0.0150903
721.572	0.0151421
721.650	0.0150385
721.728	0.0150328
721.807	0.0150324
721.885	0.0149615
721.963	0.0148441
722.041	0.0148672
722.119	0.0147356
722.197	0.0147189
722.275	0.0147214
722.353	0.0145483
722.432	0.0146396
722.510	0.0147010
722.588	0.0147401
722.666	0.0147887
722.744	0.0147224
722.822	0.0148866
722.900	0.0148830
722.978	0.0149557
723.057	0.0149110
723.135	0.0148290
723.213	0.0148061
723.291	0.0147172
723.369	0.0145882
723.447	0.0145557
723.525	0.0145149
723.603	0.0145269
723.682	0.0144121
723.760	0.0145450
723.838	0.0143394
723.916	0.0145588
723.994	0.0146485
724.072	0.0147623
724.150	0.0147775
724.228	0.0150445
724.307	0.0151720
724.385	0.0152127
724.463	0.0153128
724.541	0.0155268
724.619	0.0156189
724.697	0.0157760
724.775	0.0156155
724.853	0.0157375
724.932	0.0157225
725.010	0.0156940
725.088	0.0156401
725.166	0.0155126
725.244	0.0155110
725.322	0.0153266
725.400	0.0151058
725.478	0.0151176
725.557	0.0148619
725.635	0.0147498
725.713	0.0145535
725.791	0.0144035
725.869	0.0143346
725.947	0.0140357
726.025	0.0139590
726.103	0.0139605
726.182	0.0138315
726.260	0.0136837
726.338	0.0137266
726.416	0.0136897
726.494	0.0138315
726.572	0.0138245
726.650	0.0137421
726.728	0.0137226
726.807	0.0139015
726.885	0.0141710
726.963	0.0141267
727.041	0.0141154
727.119	0.0142986
727.197	0.0143652
727.275	0.0143918
727.353	0.0144747
727.432	0.0143771
727.510	0.0143361
727.588	0.0145058
727.666	0.0144066
727.744	0.0142476
727.822	0.0141965
727.900	0.0139964
727.978	0.0141903
728.057	0.0140382
728.135	0.0141083
728.213	0.0143154
728.291	0.0144030
728.369	0.0145340
728.447	0.0145558
728.525	0.0147464
728.603	0.0149216
728.682	0.0150743
728.760	0.0151419
728.838	0.0152383
728.916	0.0154211
728.994	0.0154725
729.072	0.0156818
729.150	0.0158060
729.228	0.0158443
729.307	0.0159580
729.385	0.0159756
729.463	0.0160908
729.541	0.0161057
729.619	0.0161095
729.697	0.0160644
729.775	0.0161591
729.853	0.0162311
729.932	0.0163171
730.010	0.0164021
730.088	0.0163290
730.166	0.0161642
730.244	0.0162110
730.322	0.0160882
730.400	0.0159536
730.478	0.0159451
730.557	0.0158025
730.635	0.0156263
730.713	0.0154858
730.791	0.0156269
730.869	0.0155605
730.947	0.0153435
731.025	0.0152921
731.103	0.0153002
731.182	0.0150105
731.260	0.0149770
731.338	0.0148044
731.416	0.0145749
731.494	0.0143922
731.572	0.0142846
731.650	0.0142603
731.728	0.0139267
731.807	0.0137082
731.885	0.0134283
731.963	0.0133806
732.041	0.0133801
732.119	0.0130717
732.197	0.0129047
732.275	0.0127728
732.353	0.0127016
732.432	0.0125885
732.510	0.0127650
732.588	0.0127280
732.666	0.0127832
732.744	0.0130600
732.822	0.0130619
732.900	0.0133260
732.978	0.0137372
733.057	0.0138152
733.135	0.0140264
733.213	0.0142339
733.291	0.0143681
733.369	0.0146838
733.447	0.0149448
733.525	0.0150708
733.603	0.0152072
733.682	0.0154765
733.760	0.0154845
733.838	0.0156460
733.916	0.0156289
733.994	0.0155864
734.072	0.0156200
734.150	0.0155504
734.228	0.0154149
734.307	0.0153765
734.385	0.0152249
734.463	0.0152647
734.541	0.0150647
734.619	0.0150156
734.697	0.0149458
734.775	0.0150073
734.853	0.0152943
734.932	0.0154193
735.010	0.0152587
735.088	0.0156262
735.166	0.0155041
735.244	0.0155173
735.322	0.0156403
735.400	0.0155750
735.478	0.0156570
735.557	0.0157763
735.635	0.0157033
735.713	0.0155982
735.791	0.0155124
735.869	0.0154216
735.947	0.0153285
736.025	0.0153040
736.103	0.0151505
736.182	0.0150527
736.260	0.0149203
736.338	0.0148849
736.416	0.0149023
736.494	0.0149036
736.572	0.0149184
736.650	0.0148349
736.728	0.0149625
736.807	0.0149304
736.885	0.0152335
736.963	0.0152779
737.041	0.0152686
737.119	0.0153503
737.197	0.0154986
737.275	0.0155713
737.353	0.0156297
737.432	0.0155704
737.510	0.0155265
737.588	0.0155773
737.666	0.0155016
737.744	0.0154254
737.822	0.0152310
737.900	0.0150011
737.978	0.0148736
738.057	0.0146236
738.135	0.0144983
738.213	0.0141095
738.291	0.0140530
738.369	0.0137773
738.447	0.0135791
738.525	0.0133937
738.603	0.0133050
738.682	0.0131891
738.760	0.0130558
738.838	0.0130015
738.916	0.0131142
738.994	0.0130547
739.072	0.0131822
739.150	0.0131295
739.228	0.0135152
739.307	0.0134798
739.385	0.0137160
739.463	0.0139988
739.541	0.0142415
739.619	0.0143014
739.697	0.0145058
739.775	0.0146646
739.853	0.0148631
739.932	0.0148545
740.010	0.0148997
740.088	0.0150633
740.166	0.0151006
740.244	0.0150220
740.322	0.0153177
740.400	0.0152818
740.478	0.0151679
740.557	0.0151865
740.635	0.0151796
740.713	0.0151623
740.791	0.0151025
740.869	0.0149844
740.947	0.0151228
741.025	0.0149435
741.103	0.0148150
741.182	0.0148035
741.260	0.0148805
741.338	0.0149640
741.416	0.0149421
741.494	0.0149276
741.572	0.0152148
741.650	0.0152525
741.728	0.0152573
741.807	0.0152677
741.885	0.0153644
741.963	0.0154105
742.041	0.0154485
742.119	0.0155608
742.197	0.0155117
742.275	0.0154577
742.353	0.0153024
742.432	0.0153087
742.510	0.0152571
742.588	0.0151812
742.666	0.0150664
742.744	0.0149297
742.822	0.0150726
742.900	0.0149712
742.978	0.0150587
743.057	0.0150736
743.135	0.0150112
743.213	0.0150109
743.291	0.0151063
743.369	0.0152002
743.447	0.0152619
743.525	0.0153114
743.603	0.0155553
743.682	0.0157576
743.760	0.0158423
743.838	0.0158905
743.916	0.0158643
743.994	0.0157851
744.072	0.0158072
744.150	0.0157721
744.228	0.0156021
744.307	0.0154215
744.385	0.0152768
744.463	0.0150451
744.541	0.0149490
744.619	0.0146627
744.697	0.0144642
744.775	0.0142678
744.853	0.0139508
744.932	0.0138559
745.010	0.0136332
745.088	0.0135290
745.166	0.0133813
745.244	0.0132015
745.322	0.0132236
745.400	0.0130927
745.478	0.0131218
745.557	0.0133020
745.635	0.0133017
745.713	0.0133644
745.791	0.0135952
745.869	0.0137139
745.947	0.0139072
746.025	0.0141420
746.103	0.0141362
746.182	0.0143086
746.260	0.0143068
746.338	0.0146065
746.416	0.0145585
746.494	0.0145191
746.572	0.0146913
746.650	0.0147550
746.728	0.0146668
746.807	0.0148846
746.885	0.0148222
746.963	0.0147482
747.041	0.0148178
747.119	0.0148281
747.197	0.0149847
747.275	0.0148956
747.353	0.0150099
747.432	0.0148391
747.510	0.0148640
747.588	0.0148714
747.666	0.0150654
747.744	0.0149110
747.822	0.0150403
747.900	0.0150938
747.978	0.0151981
748.057	0.0152544
748.135	0.0153575
748.213	0.0154902
748.291	0.0154564
748.369	0.0155920
748.447	0.0157625
748.525	0.0157424
748.603	0.0158766
748.682	0.0158856
748.760	0.0158871
748.838	0.0157862
748.916	0.0157101
748.994	0.0158276
749.072	0.0158018
749.150	0.0155775
749.228	0.0155377
749.307	0.0155695
749.385	0.0154003
749.463	0.0153725
749.541	0.0154581
749.619	0.0154155
749.697	0.0152606
749.775	0.0153627
749.853	0.0153916
749.932	0.0152361
750.010	0.0153054
750.088	0.0154070
750.166	0.0154117
750.244	0.0155300
750.322	0.0156091
750.400	0.0155594
750.478	0.0155446
750.557	0.0155208
750.635	0.0154617
750.713	0.0153975
750.791	0.0152341
750.869	0.0150765
750.947	0.0148546
751.025	0.0146249
751.103	0.0144255
751.182	0.0143662
751.260	0.0141422
751.338	0.0140317
751.416	0.0137908
751.494	0.0137065
751.572	0.0134652
751.650	0.0131152
751.728	0.0132102
751.807	0.0132730
751.885	0.0132275
751.963	0.0132787
752.041	0.0132578
752.119	0.0133071
752.197	0.0133920
752.275	0.0134145
752.353	0.0135608
752.432	0.0136552
752.510	0.0137335
752.588	0.0139432
752.666	0.0141319
752.744	0.0142108
752.822	0.0144743
752.900	0.0144663
752.978	0.0144701
753.057	0.0145177
753.135	0.0147198
753.213	0.0147200
753.291	0.0148792
753.369	0.0148927
753.447	0.0148858
753.525	0.0150054
753.603	0.0150500
753.682	0.0150521
753.760	0.0150378
753.838	0.0149946
753.916	0.0148251
753.994	0.0148729
754.072	0.0148507
754.150	0.0148990
754.228	0.0151012
754.307	0.0150041
754.385	0.0150145
754.463	0.0151865
754.541	0.0152650
754.619	0.0152747
754.697	0.0153238
754.775	0.0154463
754.853	0.0155234
754.932	0.0156002
755.010	0.0156686
755.088	0.0155971
755.166	0.0157368
755.244	0.0158404
755.322	0.0157421
755.400	0.0156946
755.478	0.0156918
755.557	0.0156123
755.635	0.0155026
755.713	0.0151239
755.791	0.0152718
755.869	0.0151449
755.947	0.0151076
756.025	0.0150218
756.103	0.0150389
756.182	0.0149492
756.260	0.0148762
756.338	0.0148692
756.416	0.0147620
756.494	0.0148643
756.572	0.0149831
756.650	0.0149550
756.728	0.0148579
756.807	0.0149592
756.885	0.0150759
756.963	0.0150172
757.041	0.0150825
757.119	0.0151191
757.197	0.0150443
757.275	0.0149588
757.353	0.0149690
757.432	0.0149619
757.510	0.0148382
757.588	0.0147324
757.666	0.0145430
757.744	0.0142748
757.822	0.0142776
757.900	0.0141930
757.978	0.0140603
758.057	0.0139903
758.135	0.0139509
758.213	0.0136829
758.291	0.0136591
758.369	0.0136326
758.447	0.0135320
758.525	0.0135849
758.603	0.0137366
758.682	0.0137360
758.760	0.0137679
758.838	0.0138795
758.916	0.0138644
758.994	0.0140033
759.072	0.0140579
759.150	0.0142554
759.228	0.0142342
759.307	0.0142825
759.385	0.0143884
759.463	0.0145560
759.541	0.0145510
759.619	0.0143114
759.697	0.0145438
759.775	0.0147665
759.853	0.0147034
759.932	0.0146854
760.010	0.0146979
760.088	0.0148235
760.166	0.0149704
760.244	0.0148507
760.322	0.0148269
760.400	0.0148780
760.478	0.0150105
760.557	0.0149823
760.635	0.0149589
760.713	0.0149279
760.791	0.0150479
760.869	0.0150339
760.947	0.0150174
761.025	0.0150517
761.103	0.0149868
761.182	0.0151143
761.260	0.0152576
761.338	0.0152957
761.416	0.0151859
761.494	0.0152124
761.572	0.0152843
761.650	0.0153282
761.728	0.0153167
761.807	0.0153383
761.885	0.0152956
761.963	0.0152717
762.041	0.0151970
762.119	0.0152428
762.197	0.0152038
762.275	0.0153719
762.353	0.0152271
762.432	0.0150061
762.510	0.0150925
762.588	0.0151883
762.666	0.0151502
762.744	0.0151110
762.822	0.0152134
762.900	0.0151356
762.978	0.0151606
763.057	0.0151417
763.135	0.0149433
763.213	0.0150818
763.291	0.0150112
763.369	0.0150629
763.447	0.0150504
763.525	0.0149398
763.603	0.0148982
763.682	0.0149633
763.760	0.0148760
763.838	0.0149458
763.916	0.0148106
763.994	0.0148808
764.072	0.0149226
764.150	0.0148465
764.228	0.0147080
764.307	0.0146969
764.385	0.0146355
764.463	0.0145093
764.541	0.0145383
764.619	0.0143793
764.697	0.0144382
764.775	0.0141921
764.853	0.0140916
764.932	0.0139554
765.010	0.0140732
765.088	0.0139887
765.166	0.0139436
765.244	0.0140354
765.322	0.0138658
765.400	0.0139297
765.478	0.0139557
765.557	0.0140803
765.635	0.0141342
765.713	0.0141421
765.791	0.0141268
765.869	0.0143376
765.947	0.0143039
766.025	0.0144262
766.103	0.0143877
766.182	0.0143841
766.260	0.0146667
766.338	0.0146038
766.416	0.0144332
766.494	0.0144234
766.572	0.0145406
766.650	0.0146658
766.728	0.0147863
766.807	0.0148540
766.885	0.0147697
766.963	0.0148401
767.041	0.0149043
767.119	0.0148538
767.197	0.0149773
767.275	0.0150930
767.353	0.0150366
767.432	0.0150381
767.510	0.0151170
767.588	0.0151142
767.666	0.0151356
767.744	0.0152393
767.822	0.0150748
767.900	0.0151409
767.978	0.0153181
768.057	0.0153430
768.135	0.0152180
768.213	0.0151945
768.291	0.0150676
768.369	0.0151701
768.447	0.0153081
768.525	0.0152885
768.603	0.0151629
768.682	0.0151141
768.760	0.0151863
768.838	0.0151398
768.916	0.0151265
768.994	0.0151356
769.072	0.0148951
769.150	0.0151070
769.228	0.0151336
769.307	0.0150401
769.385	0.0150863
769.463	0.0151621
769.541	0.0150320
769.619	0.0151261
769.697	0.0152588
769.775	0.0151883
769.853	0.0152229
769.932	0.0151474
770.010	0.0151013
770.088	0.0151803
770.166	0.0151972
770.244	0.0151823
770.322	0.0151468
770.400	0.0150683
770.478	0.0151929
770.557	0.0149384
770.635	0.0148421
770.713	0.0149636
770.791	0.0149987
770.869	0.0148917
770.947	0.0148917
771.025	0.0149883
771.103	0.0147698
771.182	0.0146868
771.260	0.0147305
771.338	0.0145818
771.416	0.0146247
771.494	0.0145330
771.572	0.0144458
771.650	0.0142665
771.728	0.0142543
771.807	0.0143009
771.885	0.0141249
771.963	0.0142434
772.041	0.0142933
772.119	0.0141241
772.197	0.0141718
772.275	0.0142635
772.353	0.0141302
772.432	0.0142377
772.510	0.0144732
772.588	0.0144305
772.666	0.0143630
772.744	0.0143827
772.822	0.0144510
772.900	0.0145293
772.978	0.0144912
773.057	0.0146085
773.135	0.0146521
773.213	0.0146407
773.291	0.0145327
773.369	0.0147663
773.447	0.0148506
773.525	0.0147626
773.603	0.0148949
773.682	0.0148947
773.760	0.0149786
773.838	0.0149156
773.916	0.0150721
773.994	0.0151624
774.072	0.0150607
774.150	0.0151496
774.228	0.0150793
774.307	0.0150024
774.385	0.0151424
774.463	0.0152097
774.541	0.0150526
774.619	0.0150113
774.697	0.0151048
774.775	0.0151053
774.853	0.0150116
774.932	0.0151099
775.010	0.0149908
775.088	0.0149938
775.166	0.0149807
775.244	0.0151103
775.322	0.0150787
775.400	0.0150795
775.478	0.0150159
775.557	0.0150719
775.635	0.0150494
775.713	0.0149386
775.791	0.0148240
775.869	0.0150208
775.947	0.0150189
776.025	0.0147443
776.103	0.0148960
776.182	0.0150227
776.260	0.0148227
776.338	0.0148338
776.416	0.0148561
776.494	0.0148293
776.572	0.0146804
776.650	0.0148218
776.728	0.0149440
776.807	0.0150517
776.885	0.0151866
776.963	0.0152145
777.041	0.0151999
777.119	0.0151830
777.197	0.0151830
777.275	0.0151925
777.353	0.0151856
777.432	0.0152073
777.510	0.0151533
777.588	0.0152418
777.666	0.0152094
777.744	0.0149895
777.822	0.0150464
777.900	0.0148658
777.978	0.0150383
778.057	0.0150581
778.135	0.0148149
778.213	0.0148639
778.291	0.0146819
778.369	0.0148491
778.447	0.0147432
778.525	0.0146561
778.603	0.0144310
778.682	0.0144273
778.760	0.0143662
778.838	0.0143497
778.916	0.0141628
778.994	0.0141331
779.072	0.0142845
779.150	0.0140975
779.228	0.0139721
779.307	0.0141315
779.385	0.0141458
779.463	0.0140823
779.541	0.0139624
779.619	0.0140331
779.697	0.0140801
779.775	0.0141568
779.853	0.0141397
779.932	0.0141747
780.010	0.0143581
780.088	0.0144324
780.166	0.0143932
780.244	0.0144199
780.322	0.0147307
780.400	0.0146645
780.478	0.0145893
780.557	0.0147437
780.635	0.0149583
780.713	0.0149760
780.791	0.0151217
780.869	0.0153265
780.947	0.0153411
781.025	0.0153336
781.103	0.0154726
781.182	0.0154466
781.260	0.0155544
781.338	0.0154494
781.416	0.0153194
781.494	0.0155373
781.572	0.0153518
781.650	0.0152626
781.728	0.0152393
781.807	0.0151924
781.885	0.0151220
781.963	0.0151231
782.041	0.0149794
782.119	0.0149150
782.197	0.0149618
782.275	0.0148329
782.353	0.0147752
782.432	0.0147795
782.510	0.0148841
782.588	0.0146442
782.666	0.0146156
782.744	0.0146304
782.822	0.0144934
782.900	0.0146100
782.978	0.0146308
783.057	0.0143821
783.135	0.0144862
783.213	0.0146705
783.291	0.0147258
783.369	0.0148337
783.447	0.0147871
783.525	0.0149184
783.603	0.0149243
783.682	0.0148518
783.760	0.0149609
783.838	0.0150474
783.916	0.0151543
783.994	0.0152121
784.072	0.0151591
784.150	0.0152474
784.228	0.0152754
784.307	0.0152231
784.385	0.0152637
784.463	0.0153180
784.541	0.0151487
784.619	0.0152204
784.697	0.0151311
784.775	0.0151524
784.853	0.0151234
784.932	0.0151383
785.010	0.0150523
785.088	0.0150902
785.166	0.0150322
785.244	0.0149599
785.322	0.0150416
785.400	0.0149466
785.478	0.0149778
785.557	0.0148811
785.635	0.0148498
785.713	0.0147139
785.791	0.0147343
785.869	0.0147515
785.947	0.0145261
786.025	0.0144625
786.103	0.0144445
786.182	0.0143821
786.260	0.0144901
786.338	0.0142618
786.416	0.0142469
786.494	0.0142101
786.572	0.0142451
786.650	0.0141542
786.728	0.0141171
786.807	0.0141431
786.885	0.0140481
786.963	0.0141911
787.041	0.0142550
787.119	0.0142511
787.197	0.0143496
787.275	0.0143322
787.353	0.0143350
787.432	0.0144125
787.510	0.0144791
787.588	0.0146119
787.666	0.0146295
787.744	0.0147231
787.822	0.0148565
787.900	0.0148577
787.978	0.0148875
788.057	0.0148148
788.135	0.0148934
788.213	0.0149370
788.291	0.0149992
788.369	0.0150835
788.447	0.0149722
788.525	0.0149889
788.603	0.0150253
788.682	0.0149778
788.760	0.0149669
788.838	0.0151376
788.916	0.0151277
788.994	0.0151875
789.072	0.0151042
789.150	0.0149743
789.228	0.0150317
789.307	0.0151810
789.385	0.0151166
789.463	0.0150090
789.541	0.0149582
789.619	0.0148762
789.697	0.0151522
789.775	0.0149684
789.853	0.0148735
789.932	0.0149206
790.010	0.0148161
790.088	0.0148773
790.166	0.0150832
790.244	0.0150133
790.322	0.0149424
790.400	0.0148767
790.478	0.0150165
790.557	0.0148646
790.635	0.0149915
790.713	0.0150691
790.791	0.0150153
790.869	0.0150188
790.947	0.0150034
791.025	0.0149441
791.103	0.0152280
791.182	0.0151134
791.260	0.0149657
791.338	0.0150121
791.416	0.0151633
791.494	0.0151749
791.572	0.0151332
791.650	0.0151691
791.728	0.0151392
791.807	0.0152440
791.885	0.0149713
791.963	0.0150497
792.041	0.0150828
792.119	0.0149917
792.197	0.0149744
792.275	0.0147513
792.353	0.0148479
792.432	0.0147609
792.510	0.0145367
792.588	0.0146780
792.666	0.0144508
792.744	0.0142844
792.822	0.0142304
792.900	0.0141285
792.978	0.0140864
793.057	0.0139857
793.135	0.0141074
793.213	0.0140660
793.291	0.0139198
793.369	0.0138544
793.447	0.0138923
793.525	0.0139344
793.603	0.0138956
793.682	0.0139578
793.760	0.0140689
793.838	0.0139831
793.916	0.0141476
793.994	0.0141967
794.072	0.0143266
794.150	0.0144848
794.228	0.0145248
794.307	0.0146355
794.385	0.0146284
794.463	0.0147777
794.541	0.0148177
794.619	0.0148370
794.697	0.0149197
794.775	0.0149173
794.853	0.0148521
794.932	0.0147796
795.010	0.0149920
795.088	0.0149978
795.166	0.0150090
795.244	0.0150214
795.322	0.0150721
795.400	0.0151531
795.478	0.0150397
795.557	0.0150679
795.635	0.0150649
795.713	0.0151130
795.791	0.0149271
795.869	0.0151064
795.947	0.0150919
796.025	0.0150391
796.103	0.0151035
796.182	0.0152208
796.260	0.0152440
796.338	0.0152912
796.416	0.0152639
796.494	0.0153187
796.572	0.0153365
796.650	0.0153095
796.728	0.0154583
796.807	0.0153434
796.885	0.0154433
796.963	0.0153895
797.041	0.0152845
797.119	0.0153108
797.197	0.0152626
797.275	0.0151279
797.353	0.0151091
797.432	0.0149235
797.510	0.0149628
797.588	0.0147715
797.666	0.0146944
797.744	0.0148508
797.822	0.0146775
797.900	0.0146113
797.978	0.0143410
798.057	0.0144274
798.135	0.0144488
798.213	0.0143761
798.291	0.0144724
798.369	0.0143926
798.447	0.0143300
798.525	0.0144208
798.603	0.0143567
798.682	0.0145982
798.760	0.0145910
798.838	0.0145736
798.916	0.0146527
798.994	0.0146532
799.072	0.0145860
799.150	0.0145911
799.228	0.0148174
799.307	0.0148012
799.385	0.0145790
799.463	0.0145873
799.541	0.0146773
799.619	0.0148038
799.697	0.0147954
799.775	0.0147552
799.853	0.0146329
799.932	0.0145343
800.010	0.0145317
800.088	0.0145654
800.166	0.0145690
800.244	0.0145387
800.322	0.0145048
800.400	0.0146013
800.478	0.0145137
800.557	0.0144726
800.635	0.0145152
800.713	0.0146141
800.791	0.0145696
800.869	0.0146619
800.947	0.0147266
801.025	0.0146770
801.103	0.0147495
801.182	0.0148086
801.260	0.0147598
801.338	0.0147601
801.416	0.0148486
801.494	0.0149036
801.572	0.0148071
801.650	0.0148672
801.728	0.0148724
801.807	0.0149487
801.885	0.0147989
801.963	0.0148129
802.041	0.0148354
802.119	0.0149281
802.197	0.0150597
802.275	0.0147855
802.353	0.0148524
802.432	0.0149229
802.510	0.0149921
802.588	0.0149860
802.666	0.0148805
802.744	0.0148453
802.822	0.0149493
802.900	0.0149664
802.978	0.0149209
803.057	0.0149851
803.135	0.0149404
803.213	0.0148940
803.291	0.0148972
803.369	0.0148079
803.447	0.0148861
803.525	0.0146877
803.603	0.0145940
803.682	0.0145847
803.760	0.0146542
803.838	0.0144774
803.916	0.0145488
803.994	0.0145445
804.072	0.0144788
804.150	0.0143991
804.228	0.0145940
804.307	0.0145937
804.385	0.0144765
804.463	0.0145718
804.541	0.0145411
804.619	0.0145687
804.697	0.0145421
804.775	0.0147334
804.853	0.0147818
804.932	0.0147913
805.010	0.0148666
805.088	0.0148544
805.166	0.0149029
805.244	0.0149817
805.322	0.0150417
805.400	0.0150132
805.478	0.0149331
805.557	0.0150644
805.635	0.0151749
805.713	0.0151540
805.791	0.0150549
805.869	0.0149837
805.947	0.0150356
806.025	0.0148969
806.103	0.0149229
806.182	0.0150526
806.260	0.0148637
806.338	0.0150032
806.416	0.0149469
806.494	0.0147778
806.572	0.0148646
806.650	0.0147681
806.728	0.0148302
806.807	0.0149493
806.885	0.0148418
806.963	0.0148161
807.041	0.0148299
807.119	0.0148251
807.197	0.0147414
807.275	0.0148970
807.353	0.0147346
807.432	0.0146848
807.510	0.0148377
807.588	0.0148410
807.666	0.0148026
807.744	0.0149310
807.822	0.0147929
807.900	0.0147559
807.978	0.0147641
808.057	0.0147009
808.135	0.0146329
808.213	0.0146163
808.291	0.0145967
808.369	0.0145384
808.447	0.0145557
808.525	0.0144305
808.603	0.0144350
808.682	0.0143327
808.760	0.0144928
808.838	0.0145064
808.916	0.0143651
808.994	0.0143302
809.072	0.0143959
809.150	0.0144256
809.228	0.0143639
809.307	0.0143997
809.385	0.0145200
809.463	0.0146304
809.541	0.0146490
809.619	0.0146587
809.697	0.0146694
809.775	0.0146940
809.853	0.0146838
809.932	0.0148438
810.010	0.0148229
810.088	0.0147775
810.166	0.0148717
810.244	0.0149363
810.322	0.0150021
810.400	0.0149625
810.478	0.0149355
810.557	0.0148666
810.635	0.0148317
810.713	0.0149838
810.791	0.0150111
810.869	0.0151085
810.947	0.0150440
811.025	0.0149496
811.103	0.0150327
811.182	0.0151103
811.260	0.0151324
811.338	0.0151969
811.416	0.0151288
811.494	0.0152781
811.572	0.0152833
811.650	0.0153745
811.728	0.0152695
811.807	0.0153070
811.885	0.0153636
811.963	0.0153222
812.041	0.0152980
812.119	0.0153580
812.197	0.0152148
812.275	0.0151995
812.353	0.0152654
812.432	0.0152661
812.510	0.0150540
812.588	0.0151684
812.666	0.0152007
812.744	0.0152299
812.822	0.0150392
812.900	0.0148903
812.978	0.0149436
813.057	0.0147492
813.135	0.0147217
813.213	0.0145650
813.291	0.0144656
813.369	0.0144564
813.447	0.0143729
813.525	0.0142868
813.603	0.0143713
813.682	0.0143936
813.760	0.0142484
813.838	0.0142863
813.916	0.0142499
813.994	0.0144605
814.072	0.0144283
814.150	0.0144901
814.228	0.0142828
814.307	0.0144494
814.385	0.0144528
814.463	0.0145944
814.541	0.0146270
814.619	0.0146344
814.697	0.0147575
814.775	0.0148506
814.853	0.0148526
814.932	0.0147602
815.010	0.0148387
815.088	0.0147569
815.166	0.0148517
815.244	0.0147426
815.322	0.0146789
815.400	0.0145896
815.478	0.0145311
815.557	0.0145565
815.635	0.0144155
815.713	0.0144082
815.791	0.0144675
815.869	0.0144817
815.947	0.0143732
816.025	0.0144799
816.103	0.0144550
816.182	0.0145541
816.260	0.0144917
816.338	0.0145969
816.416	0.0147041
816.494	0.0148341
816.572	0.0148653
816.650	0.0146687
816.728	0.0149361
816.807	0.0149232
816.885	0.0150877
816.963	0.0150674
817.041	0.0149786
817.119	0.0150743
817.197	0.0149800
817.275	0.0150094
817.353	0.0150601
817.432	0.0149828
817.510	0.0150105
817.588	0.0150906
817.666	0.0148677
817.744	0.0150658
817.822	0.0150742
817.900	0.0149660
817.978	0.0148695
818.057	0.0149659
818.135	0.0149489
818.213	0.0148730
818.291	0.0148058
818.369	0.0149613
818.447	0.0148125
818.525	0.0148366
818.603	0.0149042
818.682	0.0148828
818.760	0.0147839
818.838	0.0146741
818.916	0.0146513
818.994	0.0146644
819.072	0.0147012
819.150	0.0148795
819.228	0.0148650
819.307	0.0148291
819.385	0.0149366
819.463	0.0148859
819.541	0.0149595
819.619	0.0148849
819.697	0.0148336
819.775	0.0148409
819.853	0.0149329
819.932	0.0150066
820.010	0.0148456
820.088	0.0150220
820.166	0.0149168
820.244	0.0149095
820.322	0.0148279
820.400	0.0149569
820.478	0.0147904
820.557	0.0147120
820.635	0.0147389
820.713	0.0147144
820.791	0.0146975
820.869	0.0147578
820.947	0.0146433
821.025	0.0146618
821.103	0.0145764
821.182	0.0144652
821.260	0.0146518
821.338	0.0146126
821.416	0.0144465
821.494	0.0145849
821.572	0.0145804
821.650	0.0145334
821.728	0.0145146
821.807	0.0144519
821.885	0.0146353
821.963	0.0146129
822.041	0.0145840
822.119	0.0146304
822.197	0.0146813
822.275	0.0144143
822.353	0.0145783
822.432	0.0145631
822.510	0.0143707
822.588	0.0145495
822.666	0.0146002
822.744	0.0145645
822.822	0.0145963
822.900	0.0146432
822.978	0.0145843
823.057	0.0146632
823.135	0.0145981
823.213	0.0145479
823.291	0.0144898
823.369	0.0145782
823.447	0.0146165
823.525	0.0146603
823.603	0.0147009
823.682	0.0147408
823.760	0.0146103
823.838	0.0147172
823.916	0.0148267
823.994	0.0147807
824.072	0.0148104
824.150	0.0147351
824.228	0.0147511
824.307	0.0147298
824.385	0.0148653
824.463	0.0150233
824.541	0.0148975
824.619	0.0149679
824.697	0.0151100
824.775	0.0150928
824.853	0.0150454
824.932	0.0150229
825.010	0.0150849
825.088	0.0151274
825.166	0.0151685
825.244	0.0150874
825.322	0.0151054
825.400	0.0150906
825.478	0.0152141
825.557	0.0150267
825.635	0.0150053
825.713	0.0151549
825.791	0.0150806
825.869	0.0151627
825.947	0.0151231
826.025	0.0151698
826.103	0.0150952
826.182	0.0150527
826.260	0.0151191
826.338	0.0150314
826.416	0.0150407
826.494	0.0151291
826.572	0.0151408
826.650	0.0150932
826.728	0.0150897
826.807	0.0149871
826.885	0.0151588
826.963	0.0151238
827.041	0.0149572
827.119	0.0149909
827.197	0.0150296
827.275	0.0151131
827.353	0.0149125
827.432	0.0149847
827.510	0.0149205
827.588	0.0148066
827.666	0.0147932
827.744	0.0148604
827.822	0.0146539
827.900	0.0146888
827.978	0.0145641
828.057	0.0146066
828.135	0.0146274
828.213	0.0145847
828.291	0.0144772
828.369	0.0146025
828.447	0.0146122
828.525	0.0145803
828.603	0.0145973
828.682	0.0145120
828.760	0.0144745
828.838	0.0145296
828.916	0.0145027
828.994	0.0146201
829.072	0.0145853
829.150	0.0146943
829.228	0.0145411
829.307	0.0144655
829.385	0.0144557
829.463	0.0145177
829.541	0.0145468
829.619	0.0144090
829.697	0.0144660
829.775	0.0145206
829.853	0.0144164
829.932	0.0144341
830.010	0.0144099
830.088	0.0145242
830.166	0.0144163
830.244	0.0143766
830.322	0.0144373
830.400	0.0146545
830.478	0.0146235
830.557	0.0144543
830.635	0.0147196
830.713	0.0147189
830.791	0.0148433
830.869	0.0147243
830.947	0.0147421
831.025	0.0148967
831.103	0.0148663
831.182	0.0148558
831.260	0.0149464
831.338	0.0149715
831.416	0.0150109
831.494	0.0151023
831.572	0.0150690
831.650	0.0151191
831.728	0.0152882
831.807	0.0150954
831.885	0.0151099
831.963	0.0153210
832.041	0.0152316
832.119	0.0153825
832.197	0.0153598
832.275	0.0154920
832.353	0.0154919
832.432	0.0153163
832.510	0.0153384
832.588	0.0154327
832.666	0.0154192
832.744	0.0154415
832.822	0.0155165
832.900	0.0154518
832.978	0.0154565
833.057	0.0152145
833.135	0.0151695
833.213	0.0152203
833.291	0.0152206
833.369	0.0151974
833.447	0.0150372
833.525	0.0149796
833.603	0.0149697
833.682	0.0149099
833.760	0.0149652
833.838	0.0147771
833.916	0.0147771
833.994	0.0145691
834.072	0.0145110
834.150	0.0145380
834.228	0.0145039
834.307	0.0144155
834.385	0.0143691
834.463	0.0143870
834.541	0.0144196
834.619	0.0143961
834.697	0.0142126
834.775	0.0143494
834.853	0.0143164
834.932	0.0143137
835.010	0.0143678
835.088	0.0142191
835.166	0.0143600
835.244	0.0144595
835.322	0.0144320
835.400	0.0143899
835.478	0.0144851
835.557	0.0143623
835.635	0.0144453
835.713	0.0144793
835.791	0.0143742
835.869	0.0143801
835.947	0.0144161
836.025	0.0142872
836.103	0.0145592
836.182	0.0146396
836.260	0.0146446
836.338	0.0145621
836.416	0.0147147
836.494	0.0146140
836.572	0.0148703
836.650	0.0148457
836.728	0.0147261
836.807	0.0148706
836.885	0.0148969
836.963	0.0148312
837.041	0.0149013
837.119	0.0150706
837.197	0.0149682
837.275	0.0149168
837.353	0.0149773
837.432	0.0150656
837.510	0.0148045
837.588	0.0149320
837.666	0.0150143
837.744	0.0149376
837.822	0.0149351
837.900	0.0148769
837.978	0.0149332
838.057	0.0149829
838.135	0.0147694
838.213	0.0148322
838.291	0.0150467
838.369	0.0149985
838.447	0.0147330
838.525	0.0149763
838.603	0.0149354
838.682	0.0149624
838.760	0.0148853
838.838	0.0149123
838.916	0.0150690
838.994	0.0149817
839.072	0.0149033
839.150	0.0149734
839.228	0.0151122
839.307	0.0150043
839.385	0.0149732
839.463	0.0150389
839.541	0.0151917
839.619	0.0150839
839.697	0.0151319
839.775	0.0151626
839.853	0.0150414
839.932	0.0150514
840.010	0.0149819
840.088	0.0148228
840.166	0.0149329
840.244	0.0149358
840.322	0.0148929
840.400	0.0149489
840.478	0.0149254
840.557	0.0148901
840.635	0.0148441
840.713	0.0149184
840.791	0.0147371
840.869	0.0147628
840.947	0.0147817
841.025	0.0146604
841.103	0.0148252
841.182	0.0147812
841.260	0.0146973
841.338	0.0147410
841.416	0.0146965
841.494	0.0145899
841.572	0.0147466
841.650	0.0145538
841.728	0.0145517
841.807	0.0145036
841.885	0.0144382
841.963	0.0144226
842.041	0.0143754
842.119	0.0142416
842.197	0.0141888
842.275	0.0142245
842.353	0.0142137
842.432	0.0141409
842.510	0.0142688
842.588	0.0142429
842.666	0.0142350
842.744	0.0142768
842.822	0.0145181
842.900	0.0144183
842.978	0.0144335
843.057	0.0145880
843.135	0.0146291
843.213	0.0146368
843.291	0.0146719
843.369	0.0148857
843.447	0.0149662
843.525	0.0148792
843.603	0.0150546
843.682	0.0150861
843.760	0.0151845
843.838	0.0151598
843.916	0.0152278
843.994	0.0153825
844.072	0.0154309
844.150	0.0151887
844.228	0.0151908
844.307	0.0154426
844.385	0.0153059
844.463	0.0152077
844.541	0.0152476
844.619	0.0152232
844.697	0.0152411
844.775	0.0151514
844.853	0.0150193
844.932	0.0149580
845.010	0.0150001
845.088	0.0149258
845.166	0.0149809
845.244	0.0148569
845.322	0.0147917
845.400	0.0147576
845.478	0.0148671
845.557	0.0147691
845.635	0.0146725
845.713	0.0146120
845.791	0.0147001
845.869	0.0147547
845.947	0.0147654
846.025	0.0146337
846.103	0.0146531
846.182	0.0146290
846.260	0.0147172
846.338	0.0148637
846.416	0.0147672
846.494	0.0147062
846.572	0.0147810
846.650	0.0149055
846.728	0.0149149
846.807	0.0148968
846.885	0.0147964
846.963	0.0149186
847.041	0.0148314
847.119	0.0148830
847.197	0.0149527
847.275	0.0148585
847.353	0.0150041
847.432	0.0149496
847.510	0.0150078
847.588	0.0149795
847.666	0.0150028
847.744	0.0150415
847.822	0.0148827
847.900	0.0149392
847.978	0.0149586
848.057	0.0149124
848.135	0.0146900
848.213	0.0148232
848.291	0.0147160
848.369	0.0146552
848.447	0.0145411
848.525	0.0144856
848.603	0.0145279
848.682	0.0145633
848.760	0.0144464
848.838	0.0143450
848.916	0.0144346
848.994	0.0144321
849.072	0.0143456
849.150	0.0143993
849.228	0.0146008
849.307	0.0145776
849.385	0.0144440
849.463	0.0144850
849.541	0.0144725
849.619	0.0145586
849.697	0.0145424
849.775	0.0145964
849.853	0.0145132
849.932	0.0145248
850.010	0.0146658
850.088	0.0146211
850.166	0.0145504
850.244	0.0145856
850.322	0.0147281
850.400	0.0147372
850.478	0.0148708
850.557	0.0148708
850.635	0.0149071
850.713	0.0148214
850.791	0.0148780
850.869	0.0150442
850.947	0.0150315
851.025	0.0150079
851.103	0.0151034
851.182	0.0151436
851.260	0.0150690
851.338	0.0151818
851.416	0.0152164
851.494	0.0151982
851.572	0.0150912
851.650	0.0150547
851.728	0.0151115
851.807	0.0151290
851.885	0.0149748
851.963	0.0148774
852.041	0.0148467
852.119	0.0148836
852.197	0.0149786
852.275	0.0149550
852.353	0.0147744
852.432	0.0147705
852.510	0.0148056
852.588	0.0147763
852.666	0.0147431
852.744	0.0146394
852.822	0.0147646
852.900	0.0146331
852.978	0.0144965
853.057	0.0146658
853.135	0.0145276
853.213	0.0145291
853.291	0.0145914
853.369	0.0145049
853.447	0.0145914
853.525	0.0145427
853.603	0.0146979
853.682	0.0147443
853.760	0.0146623
853.838	0.0147338
853.916	0.0149339
853.994	0.0148240
854.072	0.0148938
854.150	0.0150700
854.228	0.0149833
854.307	0.0149399
854.385	0.0149117
854.463	0.0149458
854.541	0.0149594
854.619	0.0149422
854.697	0.0148543
854.775	0.0148876
854.853	0.0148728
854.932	0.0149006
855.010	0.0149265
855.088	0.0148454
855.166	0.0148816
855.244	0.0149306
855.322	0.0149326
855.400	0.0147348
855.478	0.0147176
855.557	0.0147031
855.635	0.0149013
855.713	0.0148212
855.791	0.0147057
855.869	0.0146901
855.947	0.0146118
856.025	0.0145624
856.103	0.0146179
856.182	0.0147295
856.260	0.0146278
856.338	0.0144951
856.416	0.0145574
856.494	0.0145496
856.572	0.0146661
856.650	0.0146172
856.728	0.0145480
856.807	0.0145352
856.885	0.0145731
856.963	0.0145997
857.041	0.0147504
857.119	0.0147614
857.197	0.0146567
857.275	0.0146782
857.353	0.0147681
857.432	0.0148676
857.510	0.0147407
857.588	0.0148284
857.666	0.0148389
857.744	0.0148857
857.822	0.0148071
857.900	0.0148431
857.978	0.0150043
858.057	0.0150796
858.135	0.0149259
858.213	0.0148534
858.291	0.0148671
858.369	0.0149797
858.447	0.0149082
858.525	0.0150271
858.603	0.0149786
858.682	0.0151376
858.760	0.0150003
858.838	0.0149187
858.916	0.0150478
858.994	0.0149996
859.072	0.0150417
859.150	0.0150320
859.228	0.0150238
859.307	0.0150972
859.385	0.0147778
859.463	0.0149934
859.541	0.0149728
859.619	0.0149139
859.697	0.0147668
859.775	0.0149352
859.853	0.0147968
859.932	0.0147887
860.010	0.0149514
860.088	0.0147399
860.166	0.0146368
860.244	0.0147594
860.322	0.0147382
860.400	0.0147027
860.478	0.0146965
860.557	0.0147473
860.635	0.0145054
860.713	0.0145321
860.791	0.0148861
860.869	0.0146384
860.947	0.0145520
861.025	0.0145406
861.103	0.0145647
861.182	0.0144915
861.260	0.0145477
861.338	0.0146163
861.416	0.0145348
861.494	0.0145504
861.572	0.0145502
861.650	0.0145773
861.728	0.0146103
861.807	0.0146056
861.885	0.0146028
861.963	0.0147772
862.041	0.0147992
862.119	0.0147932
862.197	0.0148099
862.275	0.0148325
862.353	0.0147910
862.432	0.0149229
862.510	0.0148685
862.588	0.0149426
862.666	0.0149030
862.744	0.0148659
862.822	0.0148381
862.900	0.0150101
862.978	0.0149931
863.057	0.0148452
863.135	0.0147530
863.213	0.0148843
863.291	0.0149140
863.369	0.0149642
863.447	0.0148087
863.525	0.0148512
863.603	0.0148080
863.682	0.0147223
863.760	0.0148242
863.838	0.0147298
863.916	0.0147062
863.994	0.0146384
864.072	0.0146384
864.150	0.0147150
864.228	0.0147505
864.307	0.0147358
864.385	0.0146636
864.463	0.0146793
864.541	0.0146276
864.619	0.0146726
864.697	0.0146801
864.775	0.0147203
864.853	0.0148138
864.932	0.0148409
865.010	0.0148547
865.088	0.0147559
865.166	0.0148500
865.244	0.0148190
865.322	0.0148679
865.400	0.0149519
865.478	0.0149757
865.557	0.0149902
865.635	0.0148186
865.713	0.0149071
865.791	0.0148486
865.869	0.0148869
865.947	0.0148350
866.025	0.0146073
866.103	0.0147595
866.182	0.0148604
866.260	0.0148029
866.338	0.0146779
866.416	0.0149436
866.494	0.0147437
866.572	0.0146632
866.650	0.0147086
866.728	0.0146742
866.807	0.0146429
866.885	0.0147722
866.963	0.0147806
867.041	0.0146334
867.119	0.0147572
867.197	0.0147852
867.275	0.0146466
867.353	0.0147177
867.432	0.0147011
867.510	0.0147789
867.588	0.0147630
867.666	0.0147680
867.744	0.0147605
867.822	0.0148056
867.900	0.0147476
867.978	0.0146341
868.057	0.0148352
868.135	0.0148108
868.213	0.0147729
868.291	0.0148396
868.369	0.0148283
868.447	0.0147053
868.525	0.0148406
868.603	0.0147867
868.682	0.0148853
868.760	0.0148676
868.838	0.0148431
868.916	0.0149583
868.994	0.0148239
869.072	0.0149891
869.150	0.0149076
869.228	0.0149129
869.307	0.0149582
869.385	0.0149782
869.463	0.0150296
869.541	0.0151590
869.619	0.0151381
869.697	0.0149628
869.775	0.0151373
869.853	0.0151868
869.932	0.0151285
870.010	0.0151411
870.088	0.0150677
870.166	0.0152606
870.244	0.0151085
870.322	0.0149378
870.400	0.0150708
870.478	0.0149852
870.557	0.0149905
870.635	0.0149638
870.713	0.0148982
870.791	0.0147730
870.869	0.0148006
870.947	0.0147350
871.025	0.0147897
871.103	0.0147422
871.182	0.0144879
871.260	0.0145177
871.338	0.0146683
871.416	0.0145525
871.494	0.0145498
871.572	0.0144714
871.650	0.0146437
871.728	0.0147626
871.807	0.0146340
871.885	0.0146443
871.963	0.0147649
872.041	0.0148468
872.119	0.0148170
872.197	0.0149437
872.275	0.0148309
872.353	0.0149376
872.432	0.0150170
872.510	0.0150249
872.588	0.0149529
872.666	0.0149100
872.744	0.0148901
872.822	0.0149190
872.900	0.0149952
872.978	0.0151157
873.057	0.0151309
873.135	0.0149876
873.213	0.0151688
873.291	0.0150600
873.369	0.0150008
873.447	0.0150581
873.525	0.0150049
873.603	0.0150401
873.682	0.0150613
873.760	0.0151310
873.838	0.0149660
873.916	0.0149893
873.994	0.0149819
874.072	0.0148792
874.150	0.0149464
874.228	0.0148425
874.307	0.0148816
874.385	0.0147765
874.463	0.0147971
874.541	0.0146983
874.619	0.0147021
874.697	0.0145669
874.775	0.0145441
874.853	0.0145502
874.932	0.0145841
875.010	0.0145739
875.088	0.0145661
875.166	0.0146986
875.244	0.0148000
875.322	0.0148313
875.400	0.0150225
875.478	0.0147952
875.557	0.0149879
875.635	0.0151407
875.713	0.0151412
875.791	0.0151261
875.869	0.0151346
875.947	0.0151015
876.025	0.0153030
876.103	0.0148640
876.182	0.0150919
876.260	0.0150715
876.338	0.0149665
876.416	0.0149064
876.494	0.0149044
876.572	0.0149058
876.650	0.0149265
876.728	0.0148312
876.807	0.0148735
876.885	0.0148109
876.963	0.0148033
877.041	0.0146512
877.119	0.0147145
877.197	0.0144734
877.275	0.0145842
877.353	0.0146296
877.432	0.0145730
877.510	0.0145229
877.588	0.0144944
877.666	0.0144167
877.744	0.0145797
877.822	0.0145483
877.900	0.0146770
877.978	0.0147138
878.057	0.0147012
878.135	0.0147354
878.213	0.0148443
878.291	0.0148439
878.369	0.0146957
878.447	0.0147526
878.525	0.0146542
878.603	0.0148768
878.682	0.0147464
878.760	0.0147074
878.838	0.0147330
878.916	0.0147290
878.994	0.0147746
879.072	0.0147407
879.150	0.0144794
879.228	0.0146455
879.307	0.0148007
879.385	0.0147990
879.463	0.0148054
879.541	0.0145876
879.619	0.0147256
879.697	0.0146866
879.775	0.0147199
879.853	0.0147929
879.932	0.0147762
880.010	0.0149078
880.088	0.0149972
880.166	0.0147952
880.244	0.0147361
880.322	0.0149377
880.400	0.0149561
880.478	0.0149957
880.557	0.0149699
880.635	0.0148246
880.713	0.0149388
880.791	0.0149088
880.869	0.0148648
880.947	0.0150520
881.025	0.0148888
881.103	0.0148003
881.182	0.0148594
881.260	0.0148441
881.338	0.0148489
881.416	0.0147958
881.494	0.0147668
881.572	0.0146298
881.650	0.0145873
881.728	0.0145471
881.807	0.0144662
881.885	0.0145728
881.963	0.0144337
882.041	0.0144893
882.119	0.0145211
882.197	0.0144147
882.275	0.0145422
882.353	0.0146577
882.432	0.0147129
882.510	0.0146446
882.588	0.0147717
882.666	0.0148927
882.744	0.0150683
882.822	0.0149408
882.900	0.0150247
882.978	0.0149635
883.057	0.0149033
883.135	0.0150191
883.213	0.0150030
883.291	0.0150002
883.369	0.0149213
883.447	0.0148637
883.525	0.0148231
883.603	0.0148048
883.682	0.0147729
883.760	0.0147765
883.838	0.0147543
883.916	0.0146138
883.994	0.0147439
884.072	0.0147758
884.150	0.0147806
884.228	0.0147668
884.307	0.0147626
884.385	0.0146409
884.463	0.0145898
884.541	0.0146278
884.619	0.0146076
884.697	0.0146439
884.775	0.0146604
884.853	0.0144703
884.932	0.0144971
885.010	0.0147437
885.088	0.0145368
885.166	0.0146210
885.244	0.0146451
885.322	0.0146243
885.400	0.0148038
885.478	0.0147120
885.557	0.0146860
885.635	0.0148123
885.713	0.0147620
885.791	0.0148439
885.869	0.0148275
885.947	0.0146929
886.025	0.0148946
886.103	0.0149948
886.182	0.0150007
886.260	0.0150720
886.338	0.0151103
886.416	0.0150300
886.494	0.0150452
886.572	0.0150554
886.650	0.0151297
886.728	0.0149529
886.807	0.0149668
886.885	0.0149679
886.963	0.0150072
887.041	0.0148892
887.119	0.0148397
887.197	0.0148773
887.275	0.0147630
887.353	0.0147070
887.432	0.0148306
887.510	0.0147886
887.588	0.0147138
887.666	0.0147373
887.744	0.0148443
887.822	0.0146978
887.900	0.0146748
887.978	0.0146977
888.057	0.0146737
888.135	0.0145691
888.213	0.0145803
888.291	0.0145465
888.369	0.0146778
888.447	0.0146831
888.525	0.0145480
888.603	0.0147183
888.682	0.0145576
888.760	0.0145981
888.838	0.0145649
888.916	0.0144788
888.994	0.0144559
889.072	0.0147422
889.150	0.0143885
889.228	0.0144183
889.307	0.0144685
889.385	0.0146341
889.463	0.0146255
889.541	0.0144980
889.619	0.0144662
889.697	0.0144334
889.775	0.0144231
889.853	0.0145111
889.932	0.0147700
890.010	0.0146491
890.088	0.0148264
890.166	0.0147206
890.244	0.0147920
890.322	0.0148251
890.400	0.0149529
890.478	0.0149600
890.557	0.0151173
890.635	0.0151214
890.713	0.0149301
890.791	0.0150940
890.869	0.0151128
890.947	0.0151411
891.025	0.0150458
891.103	0.0150076
891.182	0.0150068
891.260	0.0148528
891.338	0.0147546
891.416	0.0148441
891.494	0.0149746
891.572	0.0148743
891.650	0.0148292
891.728	0.0146973
891.807	0.0147635
891.885	0.0146758
891.963	0.0146134
892.041	0.0150072
892.119	0.0147686
892.197	0.0147554
892.275	0.0149258
892.353	0.0146870
892.432	0.0146687
892.510	0.0146669
892.588	0.0147639
892.666	0.0146139
892.744	0.0146830
892.822	0.0145794
892.900	0.0146665
892.978	0.0147461
893.057	0.0147952
893.135	0.0146825
893.213	0.0146999
893.291	0.0147437
893.369	0.0146834
893.447	0.0148215
893.525	0.0148810
893.603	0.0148061
893.682	0.0148595
893.760	0.0148173
893.838	0.0148907
893.916	0.0148812
893.994	0.0146623
894.072	0.0147726
894.150	0.0149214
894.228	0.0148734
894.307	0.0147774
894.385	0.0149264
894.463	0.0147990
894.541	0.0148077
894.619	0.0146940
894.697	0.0149916
894.775	0.0149500
894.853	0.0147349
894.932	0.0147649
895.010	0.0147437
895.088	0.0146664
895.166	0.0148758
895.244	0.0145869
895.322	0.0144621
895.400	0.0145227
895.478	0.0145538
895.557	0.0145627
895.635	0.0146758
895.713	0.0146139
895.791	0.0145758
895.869	0.0147421
895.947	0.0145285
896.025	0.0146868
896.103	0.0147598
896.182	0.0148425
896.260	0.0148847
896.338	0.0149243
896.416	0.0147466
896.494	0.0150536
896.572	0.0149686
896.650	0.0149642
896.728	0.0150340
896.807	0.0150146
896.885	0.0149605
896.963	0.0149529
897.041	0.0151200
897.119	0.0151239
897.197	0.0151051
897.275	0.0150884
897.353	0.0149485
897.432	0.0149271
897.510	0.0150809
897.588	0.0150426
897.666	0.0149831
897.744	0.0150159
897.822	0.0148739
897.900	0.0148711
897.978	0.0149819
898.057	0.0148438
898.135	0.0146330
898.213	0.0147172
898.291	0.0147221
898.369	0.0146358
898.447	0.0146905
898.525	0.0146576
898.603	0.0145236
898.682	0.0145331
898.760	0.0146490
898.838	0.0146458
898.916	0.0146908
898.994	0.0146542
899.072	0.0148329
899.150	0.0147344
899.228	0.0148103
899.307	0.0148182
899.385	0.0149108
899.463	0.0148318
899.541	0.0148287
899.619	0.0149023
899.697	0.0149329
899.775	0.0149876
899.853	0.0148605
899.932	0.0149623
900.010	0.0148309
900.088	0.0148793
900.166	0.0147869
900.244	0.0146277
900.322	0.0147143
900.400	0.0145987
900.478	0.0146378
900.557	0.0145601
900.635	0.0145625
900.713	0.0145241
900.791	0.0146531
900.869	0.0147605
900.947	0.0145848
901.025	0.0146460
901.103	0.0147174
901.182	0.0146975
901.260	0.0146791
901.338	0.0147430
901.416	0.0147861
901.494	0.0147569
901.572	0.0147500
901.650	0.0147429
901.728	0.0147926
901.807	0.0148068
901.885	0.0148744
901.963	0.0148848
902.041	0.0150607
902.119	0.0149993
902.197	0.0148779
902.275	0.0148317
902.353	0.0148764
902.432	0.0148277
902.510	0.0148801
902.588	0.0149285
902.666	0.0149485
902.744	0.0149884
902.822	0.0148414
902.900	0.0150229
902.978	0.0150484
903.057	0.0148784
903.135	0.0150379
903.213	0.0149412
903.291	0.0148114
903.369	0.0150616
903.447	0.0150190
903.525	0.0149999
903.603	0.0149380
903.682	0.0149749
903.760	0.0147840
903.838	0.0147712
903.916	0.0148929
903.994	0.0147612
904.072	0.0145676
904.150	0.0148906
904.228	0.0147343
904.307	0.0146623
904.385	0.0147299
904.463	0.0146163
904.541	0.0147114
904.619	0.0146122
904.697	0.0147352
904.775	0.0148081
904.853	0.0146938
904.932	0.0147044
905.010	0.0147190
905.088	0.0148840
905.166	0.0148258
905.244	0.0148901
905.322	0.0147682
905.400	0.0147650
905.478	0.0148906
905.557	0.0150051
905.635	0.0148737
905.713	0.0148779
905.791	0.0150030
905.869	0.0150777
905.947	0.0150773
906.025	0.0149255
906.103	0.0149097
906.182	0.0149694
906.260	0.0150238
906.338	0.0148243
906.416	0.0150021
906.494	0.0150823
906.572	0.0149693
906.650	0.0149646
906.728	0.0148583
906.807	0.0148423
906.885	0.0150430
906.963	0.0151323
907.041	0.0149135
907.119	0.0149017
907.197	0.0149736
907.275	0.0149090
907.353	0.0149032
907.432	0.0147946
907.510	0.0148561
907.588	0.0147217
907.666	0.0147198
907.744	0.0147330
907.822	0.0146974
907.900	0.0146647
907.978	0.0147234
908.057	0.0146519
908.135	0.0145500
908.213	0.0147223
908.291	0.0147057
908.369	0.0145992
908.447	0.0146093
908.525	0.0146101
908.603	0.0147924
908.682	0.0147237
908.760	0.0147231
908.838	0.0147890
908.916	0.0147591
908.994	0.0148662
909.072	0.0148042
909.150	0.0148551
909.228	0.0147366
909.307	0.0146882
909.385	0.0148970
909.463	0.0149490
909.541	0.0146851
909.619	0.0147844
909.697	0.0148796
909.775	0.0148748
909.853	0.0147758
909.932	0.0148277
910.010	0.0147830
910.088	0.0149166
910.166	0.0146888
910.244	0.0148920
910.322	0.0147581
910.400	0.0146735
910.478	0.0146385
910.557	0.0148141
910.635	0.0147472
910.713	0.0147416
910.791	0.0147116
910.869	0.0147981
910.947	0.0147698
911.025	0.0147197
911.103	0.0147584
911.182	0.0149317
911.260	0.0149552
911.338	0.0148412
911.416	0.0148624
911.494	0.0149018
911.572	0.0149806
911.650	0.0150013
911.728	0.0149348
911.807	0.0149279
911.885	0.0150159
911.963	0.0149550
912.041	0.0150885
912.119	0.0150380
912.197	0.0148424
912.275	0.0149403
912.353	0.0149851
912.432	0.0149129
912.510	0.0148291
912.588	0.0149113
912.666	0.0149284
912.744	0.0147763
912.822	0.0147776
912.900	0.0147790
912.978	0.0148268
913.057	0.0147318
913.135	0.0147430
913.213	0.0147588
913.291	0.0146877
913.369	0.0147199
913.447	0.0148253
913.525	0.0146555
913.603	0.0146246
913.682	0.0146530
913.760	0.0146591
913.838	0.0145231
913.916	0.0146286
913.994	0.0147173
914.072	0.0146697
914.150	0.0146625
914.228	0.0146020
914.307	0.0146384
914.385	0.0147572
914.463	0.0146420
914.541	0.0145738
914.619	0.0145526
914.697	0.0146729
914.775	0.0146629
914.853	0.0146360
914.932	0.0146487
915.010	0.0146870
915.088	0.0146352
915.166	0.0144425
915.244	0.0147384
915.322	0.0148085
915.400	0.0146426
915.478	0.0147345
915.557	0.0147282
915.635	0.0147370
915.713	0.0147394
915.791	0.0147009
915.869	0.0147378
915.947	0.0148008
916.025	0.0146332
916.103	0.0148623
916.182	0.0149184
916.260	0.0148429
916.338	0.0147964
916.416	0.0148221
916.494	0.0146590
916.572	0.0146585
916.650	0.0146519
916.728	0.0147048
916.807	0.0146565
916.885	0.0145381
916.963	0.0146853
917.041	0.0147334
917.119	0.0146825
917.197	0.0145412
917.275	0.0145998
917.353	0.0145798
917.432	0.0145279
917.510	0.0146285
917.588	0.0147905
917.666	0.0148708
917.744	0.0149077
917.822	0.0148380
917.900	0.0149564
917.978	0.0148457
918.057	0.0147567
918.135	0.0147691
918.213	0.0149002
918.291	0.0150166
918.369	0.0149826
918.447	0.0149337
918.525	0.0148228
918.603	0.0149530
918.682	0.0148444
918.760	0.0148565
918.838	0.0148145
918.916	0.0148040
918.994	0.0149534
919.072	0.0148734
919.150	0.0147795
919.228	0.0148904
919.307	0.0149364
919.385	0.0148361
919.463	0.0149471
919.541	0.0146839
919.619	0.0147655
919.697	0.0147324
919.775	0.0148014
919.853	0.0146306
919.932	0.0147327
920.010	0.0147273
920.088	0.0148314
920.166	0.0147461
920.244	0.0147331
920.322	0.0146474
920.400	0.0146190
920.478	0.0145956
920.557	0.0145933
920.635	0.0145673
920.713	0.0146450
920.791	0.0145982
920.869	0.0146754
920.947	0.0146528
921.025	0.0146380
921.103	0.0146623
921.182	0.0146807
921.260	0.0148574
921.338	0.0147758
921.416	0.0146391
921.494	0.0146735
921.572	0.0148305
921.650	0.0147141
921.728	0.0147997
921.807	0.0147691
921.885	0.0149007
921.963	0.0148286
922.041	0.0148278
922.119	0.0147569
922.197	0.0147010
922.275	0.0147611
922.353	0.0147689
922.432	0.0146318
922.510	0.0146622
922.588	0.0146572
922.666	0.0147868
922.744	0.0148362
922.822	0.0147221
922.900	0.0147141
922.978	0.0148146
923.057	0.0148036
923.135	0.0148285
923.213	0.0148066
923.291	0.0148248
923.369	0.0148183
923.447	0.0148387
923.525	0.0148341
923.603	0.0149529
923.682	0.0147623
923.760	0.0148267
923.838	0.0148029
923.916	0.0147858
923.994	0.0147680
924.072	0.0147569
924.150	0.0148666
924.228	0.0147371
924.307	0.0147101
924.385	0.0147093
924.463	0.0146681
924.541	0.0148457
924.619	0.0149475
924.697	0.0147626
924.775	0.0147635
924.853	0.0148214
924.932	0.0147707
925.010	0.0148160
925.088	0.0149423
925.166	0.0148003
925.244	0.0148808
925.322	0.0148888
925.400	0.0148792
925.478	0.0148159
925.557	0.0147583
925.635	0.0149284
925.713	0.0150180
925.791	0.0149908
925.869	0.0148216
925.947	0.0149265
926.025	0.0149496
926.103	0.0150931
926.182	0.0148946
926.260	0.0149611
926.338	0.0147947
926.416	0.0148215
926.494	0.0148541
926.572	0.0149727
926.650	0.0148125
926.728	0.0149157
926.807	0.0148908
926.885	0.0148231
926.963	0.0148256
927.041	0.0146254
927.119	0.0148962
927.197	0.0147878
927.275	0.0147923
927.353	0.0148784
927.432	0.0149496
927.510	0.0147873
927.588	0.0148380
927.666	0.0148093
927.744	0.0148097
927.822	0.0148242
927.900	0.0148997
927.978	0.0149097
928.057	0.0147790
928.135	0.0148906
928.213	0.0148784
928.291	0.0149747
928.369	0.0150057
928.447	0.0150488
928.525	0.0150131
928.603	0.0149316
928.682	0.0150949
928.760	0.0150272
928.838	0.0150024
928.916	0.0150471
928.994	0.0150365
929.072	0.0150236
929.150	0.0149749
929.228	0.0149677
929.307	0.0150095
929.385	0.0149518
929.463	0.0149211
929.541	0.0149294
929.619	0.0149126
929.697	0.0149841
929.775	0.0147427
929.853	0.0149036
929.932	0.0147357
930.010	0.0148161
930.088	0.0148208
930.166	0.0148126
930.244	0.0148589
930.322	0.0148205
930.400	0.0148509
930.478	0.0147857
930.557	0.0148742
930.635	0.0148679
930.713	0.0148566
930.791	0.0147537
930.869	0.0148302
930.947	0.0148173
931.025	0.0149976
931.103	0.0148403
931.182	0.0148624
931.260	0.0148752
931.338	0.0148605
931.416	0.0150161
931.494	0.0150651
931.572	0.0149201
931.650	0.0148248
931.728	0.0149670
931.807	0.0149400
931.885	0.0148248
931.963	0.0147600
932.041	0.0147913
932.119	0.0149326
932.197	0.0148855
932.275	0.0147555
932.353	0.0148449
932.432	0.0147253
932.510	0.0148511
932.588	0.0147794
932.666	0.0147147
932.744	0.0145932
932.822	0.0147303
932.900	0.0146015
932.978	0.0147286
933.057	0.0147554
933.135	0.0146583
933.213	0.0146599
933.291	0.0147293
933.369	0.0147183
933.447	0.0148649
933.525	0.0148977
933.603	0.0147949
933.682	0.0148394
933.760	0.0148898
933.838	0.0150400
933.916	0.0149583
933.994	0.0150609
934.072	0.0150282
934.150	0.0149203
934.228	0.0150820
934.307	0.0149770
934.385	0.0149509
934.463	0.0150405
934.541	0.0150724
934.619	0.0149263
934.697	0.0149216
934.775	0.0147577
934.853	0.0148749
934.932	0.0148272
935.010	0.0149217
935.088	0.0148376
935.166	0.0148770
935.244	0.0148560
935.322	0.0146914
935.400	0.0148181
935.478	0.0148792
935.557	0.0148285
935.635	0.0147929
935.713	0.0148445
935.791	0.0148381
935.869	0.0148786
935.947	0.0146695
936.025	0.0147572
936.103	0.0147101
936.182	0.0147089
936.260	0.0147199
936.338	0.0146793
936.416	0.0146440
936.494	0.0147321
936.572	0.0145182
936.650	0.0144552
936.728	0.0146653
936.807	0.0146139
936.885	0.0146853
936.963	0.0145871
937.041	0.0146188
937.119	0.0146517
937.197	0.0148730
937.275	0.0146580
937.353	0.0147710
937.432	0.0147382
937.510	0.0146798
937.588	0.0147342
937.666	0.0147201
937.744	0.0148311
937.822	0.0147168
937.900	0.0148391
937.978	0.0147803
938.057	0.0147002
938.135	0.0146091
938.213	0.0148170
938.291	0.0147279
938.369	0.0146680
938.447	0.0145973
938.525	0.0146439
938.603	0.0146842
938.682	0.0146068
938.760	0.0148107
938.838	0.0148415
938.916	0.0146738
938.994	0.0146965
939.072	0.0146472
939.150	0.0147626
939.228	0.0146446
939.307	0.0145782
939.385	0.0146532
939.463	0.0146549
939.541	0.0146354
939.619	0.0144984
939.697	0.0146901
939.775	0.0146121
939.853	0.0144660
939.932	0.0145928
940.010	0.0147014
940.088	0.0146249
940.166	0.0147746
940.244	0.0146627
940.322	0.0147114
940.400	0.0147847
940.478	0.0146876
940.557	0.0147213
940.635	0.0148028
940.713	0.0147721
940.791	0.0147489
940.869	0.0146770
940.947	0.0147424
941.025	0.0146870
941.103	0.0146781
941.182	0.0150130
941.260	0.0148643
941.338	0.0148411
941.416	0.0147478
941.494	0.0148244
941.572	0.0148283
941.650	0.0148318
941.728	0.0147555
941.807	0.0147580
941.885	0.0147290
941.963	0.0147049
942.041	0.0147491
942.119	0.0146640
942.197	0.0145783
942.275	0.0144937
942.353	0.0146262
942.432	0.0145783
942.510	0.0145838
942.588	0.0146690
942.666	0.0144751
942.744	0.0145094
942.822	0.0145834
942.900	0.0143879
942.978	0.0146391
943.057	0.0146605
943.135	0.0145992
943.213	0.0145564
943.291	0.0145755
943.369	0.0146644
943.447	0.0147055
943.525	0.0146851
943.603	0.0148456
943.682	0.0147379
943.760	0.0146547
943.838	0.0148085
943.916	0.0148646
943.994	0.0147667
944.072	0.0146941
944.150	0.0147779
944.228	0.0147585
944.307	0.0146609
944.385	0.0147261
944.463	0.0148087
944.541	0.0147917
944.619	0.0147298
944.697	0.0147758
944.775	0.0146998
944.853	0.0147279
944.932	0.0146751
945.010	0.0146446
945.088	0.0145523
945.166	0.0144089
945.244	0.0146706
945.322	0.0146291
945.400	0.0145660
945.478	0.0143961
945.557	0.0145354
945.635	0.0144987
945.713	0.0144164
945.791	0.0143873
945.869	0.0144714
945.947	0.0144744
946.025	0.0143888
946.103	0.0144240
946.182	0.0144691
946.260	0.0144628
946.338	0.0145213
946.416	0.0144038
946.494	0.0145190
946.572	0.0145439
946.650	0.0144891
946.728	0.0146217
946.807	0.0147023
946.885	0.0146935
946.963	0.0145640
947.041	0.0145976
947.119	0.0147854
947.197	0.0146248
947.275	0.0147860
947.353	0.0146888
947.432	0.0146470
947.510	0.0148170
947.588	0.0148223
947.666	0.0148069
947.744	0.0147625
947.822	0.0148220
947.900	0.0148569
947.978	0.0147264
948.057	0.0148637
948.135	0.0148354
948.213	0.0147382
948.291	0.0148653
948.369	0.0148512
948.447	0.0148230
948.525	0.0148508
948.603	0.0149136
948.682	0.0148872
948.760	0.0150149
948.838	0.0148962
948.916	0.0148338
948.994	0.0150233
949.072	0.0149506
949.150	0.0149632
949.228	0.0149184
949.307	0.0149460
949.385	0.0149743
949.463	0.0149318
949.541	0.0149420
949.619	0.0149553
949.697	0.0149706
949.775	0.0149741
949.853	0.0149844
949.932	0.0150317
950.010	0.0149722
950.088	0.0149009
950.166	0.0147887
950.244	0.0148922
950.322	0.0148194
950.400	0.0147786
950.478	0.0149200
950.557	0.0147203
950.635	0.0148265
950.713	0.0148160
950.791	0.0148816
950.869	0.0147887
950.947	0.0147842
951.025	0.0147883
951.103	0.0147231
951.182	0.0146452
951.260	0.0146971
951.338	0.0145743
951.416	0.0147422
951.494	0.0146188
951.572	0.0145065
951.650	0.0145660
951.728	0.0146250
951.807	0.0146017
951.885	0.0145563
951.963	0.0147278
952.041	0.0147284
952.119	0.0145666
952.197	0.0145448
952.275	0.0146992
952.353	0.0146582
952.432	0.0147339
952.510	0.0145759
952.588	0.0147272
952.666	0.0147491
952.744	0.0146138
952.822	0.0147328
952.900	0.0147739
952.978	0.0147633
953.057	0.0147975
953.135	0.0147878
953.213	0.0147142
953.291	0.0147542
953.369	0.0148013
953.447	0.0148609
953.525	0.0147499
953.603	0.0147555
953.682	0.0149061
953.760	0.0149589
953.838	0.0149967
953.916	0.0150242
953.994	0.0149432
954.072	0.0150422
954.150	0.0151237
954.228	0.0149876
954.307	0.0150746
954.385	0.0151144
954.463	0.0152412
954.541	0.0152468
954.619	0.0149895
954.697	0.0150663
954.775	0.0151682
954.853	0.0151054
954.932	0.0152812
955.010	0.0151291
955.088	0.0150460
955.166	0.0150017
955.244	0.0149574
955.322	0.0151217
955.400	0.0150864
955.478	0.0150695
955.557	0.0149397
955.635	0.0148318
955.713	0.0150001
955.791	0.0150613
955.869	0.0149397
955.947	0.0149434
956.025	0.0148025
956.103	0.0149281
956.182	0.0148751
956.260	0.0147849
956.338	0.0149996
956.416	0.0147346
956.494	0.0148000
956.572	0.0148901
956.650	0.0147511
956.728	0.0147475
956.807	0.0149536
956.885	0.0147722
956.963	0.0147256
957.041	0.0146816
957.119	0.0147158
957.197	0.0148037
957.275	0.0148222
957.353	0.0147893
957.432	0.0148753
957.510	0.0148357
957.588	0.0148459
957.666	0.0147977
957.744	0.0147774
957.822	0.0147425
957.900	0.0148779
957.978	0.0148309
958.057	0.0147263
958.135	0.0147924
958.213	0.0147491
958.291	0.0147392
958.369	0.0148362
958.447	0.0146021
958.525	0.0146287
958.603	0.0148890
958.682	0.0146535
958.760	0.0146517
958.838	0.0147019
958.916	0.0148177
958.994	0.0148467
959.072	0.0148416
959.150	0.0147551
959.228	0.0146668
959.307	0.0147397
959.385	0.0148692
959.463	0.0148076
959.541	0.0147398
959.619	0.0147967
959.697	0.0147928
959.775	0.0147832
959.853	0.0145722
959.932	0.0147852
960.010	0.0147341
960.088	0.0147556
960.166	0.0146171
960.244	0.0145918
960.322	0.0146453
960.400	0.0147491
960.478	0.0147137
960.557	0.0147040
960.635	0.0147574
960.713	0.0148489
960.791	0.0148056
960.869	0.0148389
960.947	0.0147436
961.025	0.0146046
961.103	0.0148021
961.182	0.0148167
961.260	0.0148872
961.338	0.0148458
961.416	0.0147482
961.494	0.0147387
961.572	0.0148478
961.650	0.0147657
961.728	0.0149506
961.807	0.0148047
961.885	0.0149651
961.963	0.0148277
962.041	0.0147949
962.119	0.0147138
962.197	0.0148180
962.275	0.0149061
962.353	0.0148108
962.432	0.0149002
962.510	0.0147900
962.588	0.0147930
962.666	0.0148568
962.744	0.0147416
962.822	0.0148647
962.900	0.0148526
962.978	0.0148266
963.057	0.0147972
963.135	0.0146900
963.213	0.0148142
963.291	0.0148161
963.369	0.0146669
963.447	0.0148198
963.525	0.0147335
963.603	0.0146662
963.682	0.0147930
963.760	0.0147929
963.838	0.0147425
963.916	0.0148052
963.994	0.0146682
964.072	0.0148296
964.150	0.0147466
964.228	0.0147655
964.307	0.0148160
964.385	0.0147944
964.463	0.0147991
964.541	0.0146824
964.619	0.0146349
964.697	0.0147041
964.775	0.0148243
964.853	0.0147892
964.932	0.0145698
965.010	0.0146461
965.088	0.0147472
965.166	0.0145905
965.244	0.0145844
965.322	0.0145917
965.400	0.0145866
965.478	0.0145675
965.557	0.0144662
965.635	0.0145367
965.713	0.0147779
965.791	0.0145786
965.869	0.0146343
965.947	0.0146464
966.025	0.0145837
966.103	0.0146171
966.182	0.0147320
966.260	0.0146278
966.338	0.0146053
966.416	0.0145946
966.494	0.0145572
966.572	0.0145928
966.650	0.0146509
966.728	0.0145584
966.807	0.0147472
966.885	0.0144752
966.963	0.0146310
967.041	0.0147189
967.119	0.0145747
967.197	0.0146914
967.275	0.0146351
967.353	0.0146071
967.432	0.0146452
967.510	0.0146201
967.588	0.0144316
967.666	0.0146672
967.744	0.0146888
967.822	0.0146371
967.900	0.0147033
967.978	0.0147444
968.057	0.0146740
968.135	0.0146565
968.213	0.0145837
968.291	0.0146378
968.369	0.0149568
968.447	0.0148018
968.525	0.0147370
968.603	0.0149352
968.682	0.0149046
968.760	0.0148263
968.838	0.0148843
968.916	0.0150588
968.994	0.0149858
969.072	0.0150188
969.150	0.0148921
969.228	0.0150617
969.307	0.0151176
969.385	0.0150945
969.463	0.0150281
969.541	0.0150831
969.619	0.0150896
969.697	0.0151422
969.775	0.0150869
969.853	0.0149485
969.932	0.0151074
