05/14/2022	19:25:00	Ver.	4.1	UNKNOWN
Optical Delay	650.009681	Delta X		0.078125	Sweeps	1	Scan Rate	0/0
Coordinates	Axis 1	NaN	Axis 2	NaN	Axis 3	NaN	Axis 4	NaN	Axis 5	NaN	Axis 6	0.000000
TX Power	0.000000	RX Power	0.000000

650.010	0.0148360
650.088	0.0148394
650.166	0.0147272
650.244	0.0147832
650.322	0.0148009
650.400	0.0147107
650.478	0.0148929
650.557	0.0148331
650.635	0.0148457
650.713	0.0147620
650.791	0.0147270
650.869	0.0146713
650.947	0.0148809
651.025	0.0147775
651.103	0.0147722
651.182	0.0147607
651.260	0.0147091
651.338	0.0147185
651.416	0.0147176
651.494	0.0146873
651.572	0.0148959
651.650	0.0146953
651.728	0.0147429
651.807	0.0147504
651.885	0.0147588
651.963	0.0147735
652.041	0.0148071
652.119	0.0147405
652.197	0.0147401
652.275	0.0148640
652.353	0.0147996
652.432	0.0147451
652.510	0.0147769
652.588	0.0147782
652.666	0.0148267
652.744	0.0147574
652.822	0.0147481
652.900	0.0148296
652.978	0.0146738
653.057	0.0147300
653.135	0.0147116
653.213	0.0149056
653.291	0.0148328
653.369	0.0148586
653.447	0.0148838
653.525	0.0147749
653.603	0.0147466
653.682	0.0147860
653.760	0.0147088
653.838	0.0147421
653.916	0.0148315
653.994	0.0149612
654.072	0.0148652
654.150	0.0147425
654.228	0.0148802
654.307	0.0147733
654.385	0.0149252
654.463	0.0148852
654.541	0.0148593
654.619	0.0148190
654.697	0.0148151
654.775	0.0147538
654.853	0.0148286
654.932	0.0149501
655.010	0.0149064
655.088	0.0147225
655.166	0.0148114
655.244	0.0148891
655.322	0.0148482
655.400	0.0147734
655.478	0.0147314
655.557	0.0148051
655.635	0.0149039
655.713	0.0147713
655.791	0.0149062
655.869	0.0147843
655.947	0.0149041
656.025	0.0149173
656.103	0.0147163
656.182	0.0147836
656.260	0.0148497
656.338	0.0148183
656.416	0.0148604
656.494	0.0148662
656.572	0.0148237
656.650	0.0148657
656.728	0.0149406
656.807	0.0148975
656.885	0.0149146
656.963	0.0148238
657.041	0.0150427
657.119	0.0148547
657.197	0.0148295
657.275	0.0148003
657.353	0.0147318
657.432	0.0148328
657.510	0.0147968
657.588	0.0148129
657.666	0.0149339
657.744	0.0149863
657.822	0.0149518
657.900	0.0149172
657.978	0.0148694
658.057	0.0148842
658.135	0.0148005
658.213	0.0149393
658.291	0.0149218
658.369	0.0149091
658.447	0.0148650
658.525	0.0148339
658.603	0.0148462
658.682	0.0149036
658.760	0.0148310
658.838	0.0148442
658.916	0.0150990
658.994	0.0148335
659.072	0.0148495
659.150	0.0149276
659.228	0.0149426
659.307	0.0149570
659.385	0.0150001
659.463	0.0149297
659.541	0.0149131
659.619	0.0148585
659.697	0.0149527
659.775	0.0149250
659.853	0.0147990
659.932	0.0149764
660.010	0.0149137
660.088	0.0148045
660.166	0.0148010
660.244	0.0148109
660.322	0.0148550
660.400	0.0149320
660.478	0.0149435
660.557	0.0149809
660.635	0.0147952
660.713	0.0148306
660.791	0.0148580
660.869	0.0147386
660.947	0.0148335
661.025	0.0149255
661.103	0.0148766
661.182	0.0149075
661.260	0.0147768
661.338	0.0147598
661.416	0.0147908
661.494	0.0148273
661.572	0.0148017
661.650	0.0147697
661.728	0.0147736
661.807	0.0148808
661.885	0.0147758
661.963	0.0147572
662.041	0.0149125
662.119	0.0148296
662.197	0.0148167
662.275	0.0148938
662.353	0.0148637
662.432	0.0147150
662.510	0.0148045
662.588	0.0148013
662.666	0.0148911
662.744	0.0148256
662.822	0.0148660
662.900	0.0148119
662.978	0.0147937
663.057	0.0147897
663.135	0.0146104
663.213	0.0148260
663.291	0.0147997
663.369	0.0149394
663.447	0.0149279
663.525	0.0149071
663.603	0.0148679
663.682	0.0147986
663.760	0.0148322
663.838	0.0149231
663.916	0.0148213
663.994	0.0147994
664.072	0.0148373
664.150	0.0148950
664.228	0.0149070
664.307	0.0148846
664.385	0.0148168
664.463	0.0148262
664.541	0.0148873
664.619	0.0148088
664.697	0.0147472
664.775	0.0148212
664.853	0.0149004
664.932	0.0148772
665.010	0.0148500
665.088	0.0148621
665.166	0.0147215
665.244	0.0148620
665.322	0.0149184
665.400	0.0147974
665.478	0.0148196
665.557	0.0148685
665.635	0.0147822
665.713	0.0146931
665.791	0.0148729
665.869	0.0148170
665.947	0.0146976
666.025	0.0148373
666.103	0.0148037
666.182	0.0147804
666.260	0.0147856
666.338	0.0148354
666.416	0.0147260
666.494	0.0149274
666.572	0.0148956
666.650	0.0147485
666.728	0.0149081
666.807	0.0149754
666.885	0.0148734
666.963	0.0149085
667.041	0.0149596
667.119	0.0147938
667.197	0.0148517
667.275	0.0148390
667.353	0.0148003
667.432	0.0147816
667.510	0.0148000
667.588	0.0149215
667.666	0.0148032
667.744	0.0148081
667.822	0.0147195
667.900	0.0148443
667.978	0.0147857
668.057	0.0147620
668.135	0.0147623
668.213	0.0147943
668.291	0.0147321
668.369	0.0148651
668.447	0.0146780
668.525	0.0147440
668.603	0.0149318
668.682	0.0148666
668.760	0.0148035
668.838	0.0148109
668.916	0.0147953
668.994	0.0147319
669.072	0.0150199
669.150	0.0150631
669.228	0.0149762
669.307	0.0149103
669.385	0.0148360
669.463	0.0149917
669.541	0.0149440
669.619	0.0147366
669.697	0.0148233
669.775	0.0148306
669.853	0.0147131
669.932	0.0146503
670.010	0.0145850
670.088	0.0146745
670.166	0.0145548
670.244	0.0143623
670.322	0.0145345
670.400	0.0145092
670.478	0.0144589
670.557	0.0146383
670.635	0.0146239
670.713	0.0147015
670.791	0.0147370
670.869	0.0148320
670.947	0.0149984
671.025	0.0150243
671.103	0.0151132
671.182	0.0150439
671.260	0.0150894
671.338	0.0150515
671.416	0.0150761
671.494	0.0150246
671.572	0.0148381
671.650	0.0147403
671.728	0.0146018
671.807	0.0143713
671.885	0.0143368
671.963	0.0141903
672.041	0.0139519
672.119	0.0139255
672.197	0.0137472
672.275	0.0137740
672.353	0.0138736
672.432	0.0138484
672.510	0.0140469
672.588	0.0141744
672.666	0.0144276
672.744	0.0146291
672.822	0.0146883
672.900	0.0151803
672.978	0.0153375
673.057	0.0156158
673.135	0.0158694
673.213	0.0160465
673.291	0.0159269
673.369	0.0160055
673.447	0.0160642
673.525	0.0159844
673.603	0.0158630
673.682	0.0158442
673.760	0.0156254
673.838	0.0154321
673.916	0.0151105
673.994	0.0149319
674.072	0.0146379
674.150	0.0143095
674.228	0.0142104
674.307	0.0139404
674.385	0.0137638
674.463	0.0136409
674.541	0.0135507
674.619	0.0135101
674.697	0.0135086
674.775	0.0134962
674.853	0.0135866
674.932	0.0136966
675.010	0.0137492
675.088	0.0138028
675.166	0.0141154
675.244	0.0143870
675.322	0.0146958
675.400	0.0148443
675.478	0.0150639
675.557	0.0153796
675.635	0.0154958
675.713	0.0156062
675.791	0.0159090
675.869	0.0160632
675.947	0.0162748
676.025	0.0164034
676.103	0.0165279
676.182	0.0164249
676.260	0.0166180
676.338	0.0165416
676.416	0.0163118
676.494	0.0159767
676.572	0.0158488
676.650	0.0155795
676.728	0.0152459
676.807	0.0149722
676.885	0.0147141
676.963	0.0145897
677.041	0.0141377
677.119	0.0139342
677.197	0.0139954
677.275	0.0138009
677.353	0.0136992
677.432	0.0138197
677.510	0.0137582
677.588	0.0139130
677.666	0.0139046
677.744	0.0140978
677.822	0.0142757
677.900	0.0143661
677.978	0.0145701
678.057	0.0147739
678.135	0.0148621
678.213	0.0150880
678.291	0.0149593
678.369	0.0149728
678.447	0.0151331
678.525	0.0150505
678.603	0.0148431
678.682	0.0149857
678.760	0.0149895
678.838	0.0147529
678.916	0.0148229
678.994	0.0147498
679.072	0.0147909
679.150	0.0146304
679.228	0.0144971
679.307	0.0144390
679.385	0.0145703
679.463	0.0145191
679.541	0.0144908
679.619	0.0145274
679.697	0.0146407
679.775	0.0147680
679.853	0.0148154
679.932	0.0151116
680.010	0.0152387
680.088	0.0156493
680.166	0.0158154
680.244	0.0159583
680.322	0.0162069
680.400	0.0161639
680.478	0.0163111
680.557	0.0164557
680.635	0.0166599
680.713	0.0164791
680.791	0.0165162
680.869	0.0163113
680.947	0.0162752
681.025	0.0162486
681.103	0.0160912
681.182	0.0158207
681.260	0.0156834
681.338	0.0156348
681.416	0.0151923
681.494	0.0149632
681.572	0.0147881
681.650	0.0145412
681.728	0.0141754
681.807	0.0138157
681.885	0.0136089
681.963	0.0129853
682.041	0.0125589
682.119	0.0122944
682.197	0.0119233
682.275	0.0115680
682.353	0.0112872
682.432	0.0109228
682.510	0.0108393
682.588	0.0110352
682.666	0.0112120
682.744	0.0114701
682.822	0.0120027
682.900	0.0126360
682.978	0.0132363
683.057	0.0139047
683.135	0.0148095
683.213	0.0153982
683.291	0.0162165
683.369	0.0169973
683.447	0.0174584
683.525	0.0181340
683.603	0.0185479
683.682	0.0186944
683.760	0.0190154
683.838	0.0191374
683.916	0.0190104
683.994	0.0189783
684.072	0.0189104
684.150	0.0186760
684.228	0.0183876
684.307	0.0181647
684.385	0.0178987
684.463	0.0176435
684.541	0.0173329
684.619	0.0167173
684.697	0.0162449
684.775	0.0156798
684.853	0.0151550
684.932	0.0143886
685.010	0.0137935
685.088	0.0131743
685.166	0.0125281
685.244	0.0119874
685.322	0.0117020
685.400	0.0114675
685.478	0.0110930
685.557	0.0111018
685.635	0.0110759
685.713	0.0111037
685.791	0.0111414
685.869	0.0113203
685.947	0.0116455
686.025	0.0120255
686.103	0.0121579
686.182	0.0123339
686.260	0.0128443
686.338	0.0133733
686.416	0.0136506
686.494	0.0140118
686.572	0.0143232
686.650	0.0146230
686.728	0.0149796
686.807	0.0154110
686.885	0.0155251
686.963	0.0158128
687.041	0.0160720
687.119	0.0163801
687.197	0.0163921
687.275	0.0164153
687.353	0.0164869
687.432	0.0163094
687.510	0.0162936
687.588	0.0160964
687.666	0.0160761
687.744	0.0160139
687.822	0.0159467
687.900	0.0158334
687.978	0.0158549
688.057	0.0160316
688.135	0.0160343
688.213	0.0162265
688.291	0.0164574
688.369	0.0165514
688.447	0.0167977
688.525	0.0171146
688.603	0.0172491
688.682	0.0173170
688.760	0.0171947
688.838	0.0170974
688.916	0.0170179
688.994	0.0164630
689.072	0.0164430
689.150	0.0159822
689.228	0.0153760
689.307	0.0147758
689.385	0.0140926
689.463	0.0134592
689.541	0.0128527
689.619	0.0123309
689.697	0.0117701
689.775	0.0113857
689.853	0.0109689
689.932	0.0108784
690.010	0.0107165
690.088	0.0108952
690.166	0.0110531
690.244	0.0111922
690.322	0.0115271
690.400	0.0119830
690.478	0.0124316
690.557	0.0128474
690.635	0.0132329
690.713	0.0136028
690.791	0.0142097
690.869	0.0145995
690.947	0.0150422
691.025	0.0154253
691.103	0.0160648
691.182	0.0162160
691.260	0.0166531
691.338	0.0169649
691.416	0.0171847
691.494	0.0172923
691.572	0.0174819
691.650	0.0176230
691.728	0.0175577
691.807	0.0174412
691.885	0.0172163
691.963	0.0168936
692.041	0.0165896
692.119	0.0162650
692.197	0.0159756
692.275	0.0155090
692.353	0.0150974
692.432	0.0147128
692.510	0.0142921
692.588	0.0139248
692.666	0.0137717
692.744	0.0133994
692.822	0.0132445
692.900	0.0132816
692.978	0.0128992
693.057	0.0130655
693.135	0.0130624
693.213	0.0132554
693.291	0.0134201
693.369	0.0135768
693.447	0.0138065
693.525	0.0140551
693.603	0.0144367
693.682	0.0145997
693.760	0.0148373
693.838	0.0151248
693.916	0.0153305
693.994	0.0155869
694.072	0.0158307
694.150	0.0158708
694.228	0.0159499
694.307	0.0159153
694.385	0.0159361
694.463	0.0158707
694.541	0.0159258
694.619	0.0158425
694.697	0.0157227
694.775	0.0156220
694.853	0.0154160
694.932	0.0153430
695.010	0.0154131
695.088	0.0150985
695.166	0.0149493
695.244	0.0149393
695.322	0.0147288
695.400	0.0146514
695.478	0.0146619
695.557	0.0143316
695.635	0.0142918
695.713	0.0141574
695.791	0.0141772
695.869	0.0140273
695.947	0.0139362
696.025	0.0140092
696.103	0.0140420
696.182	0.0139105
696.260	0.0140813
696.338	0.0142056
696.416	0.0141994
696.494	0.0142266
696.572	0.0142607
696.650	0.0142214
696.728	0.0141016
696.807	0.0140315
696.885	0.0140258
696.963	0.0138997
697.041	0.0138601
697.119	0.0136233
697.197	0.0135321
697.275	0.0133810
697.353	0.0133260
697.432	0.0131455
697.510	0.0132196
697.588	0.0132055
697.666	0.0131538
697.744	0.0134020
697.822	0.0135386
697.900	0.0139651
697.978	0.0143922
698.057	0.0147502
698.135	0.0152265
698.213	0.0156921
698.291	0.0160945
698.369	0.0164575
698.447	0.0169354
698.525	0.0173682
698.603	0.0177570
698.682	0.0178445
698.760	0.0179778
698.838	0.0180952
698.916	0.0182117
698.994	0.0181963
699.072	0.0181519
699.150	0.0181335
699.228	0.0178671
699.307	0.0177863
699.385	0.0175211
699.463	0.0172579
699.541	0.0168508
699.619	0.0166715
699.697	0.0160780
699.775	0.0155204
699.853	0.0150919
699.932	0.0145496
700.010	0.0142131
700.088	0.0136602
700.166	0.0133109
700.244	0.0129742
700.322	0.0125627
700.400	0.0123543
700.478	0.0121265
700.557	0.0120530
700.635	0.0119501
700.713	0.0119244
700.791	0.0120419
700.869	0.0123314
700.947	0.0124027
701.025	0.0126015
701.103	0.0127216
701.182	0.0129255
701.260	0.0130968
701.338	0.0132765
701.416	0.0135572
701.494	0.0136159
701.572	0.0137666
701.650	0.0138921
701.728	0.0140881
701.807	0.0142577
701.885	0.0143930
701.963	0.0144991
702.041	0.0147051
702.119	0.0149651
702.197	0.0150360
702.275	0.0150000
702.353	0.0150976
702.432	0.0153611
702.510	0.0154429
702.588	0.0156187
702.666	0.0155215
702.744	0.0155227
702.822	0.0156323
702.900	0.0157123
702.978	0.0157960
703.057	0.0157307
703.135	0.0156680
703.213	0.0156348
703.291	0.0155847
703.369	0.0157241
703.447	0.0156549
703.525	0.0159315
703.603	0.0158289
703.682	0.0160007
703.760	0.0161359
703.838	0.0163239
703.916	0.0164458
703.994	0.0164977
704.072	0.0165426
704.150	0.0166581
704.228	0.0165348
704.307	0.0164384
704.385	0.0164556
704.463	0.0163284
704.541	0.0160895
704.619	0.0159700
704.697	0.0158376
704.775	0.0157573
704.853	0.0155212
704.932	0.0153720
705.010	0.0152876
705.088	0.0152190
705.166	0.0151883
705.244	0.0150417
705.322	0.0150452
705.400	0.0150529
705.478	0.0149467
705.557	0.0149053
705.635	0.0146095
705.713	0.0146695
705.791	0.0143964
705.869	0.0140510
705.947	0.0138792
706.025	0.0137157
706.103	0.0133913
706.182	0.0131026
706.260	0.0128207
706.338	0.0126220
706.416	0.0125084
706.494	0.0124422
706.572	0.0121601
706.650	0.0120678
706.728	0.0121854
706.807	0.0122745
706.885	0.0124903
706.963	0.0126074
707.041	0.0127953
707.119	0.0130941
707.197	0.0135465
707.275	0.0138361
707.353	0.0141210
707.432	0.0143670
707.510	0.0146959
707.588	0.0150626
707.666	0.0152743
707.744	0.0155847
707.822	0.0157959
707.900	0.0159268
707.978	0.0161164
708.057	0.0164381
708.135	0.0163052
708.213	0.0165068
708.291	0.0164363
708.369	0.0165033
708.447	0.0166755
708.525	0.0166344
708.603	0.0165389
708.682	0.0166165
708.760	0.0166237
708.838	0.0165579
708.916	0.0165031
708.994	0.0165359
709.072	0.0163869
709.150	0.0163123
709.228	0.0161034
709.307	0.0159293
709.385	0.0156879
709.463	0.0157418
709.541	0.0154467
709.619	0.0150128
709.697	0.0149971
709.775	0.0148096
709.853	0.0147463
709.932	0.0146850
710.010	0.0146020
710.088	0.0145423
710.166	0.0146358
710.244	0.0148421
710.322	0.0148735
710.400	0.0150112
710.478	0.0151913
710.557	0.0152689
710.635	0.0152701
710.713	0.0152818
710.791	0.0152046
710.869	0.0151739
710.947	0.0151864
711.025	0.0150497
711.103	0.0146428
711.182	0.0144270
711.260	0.0144919
711.338	0.0141398
711.416	0.0140905
711.494	0.0139780
711.572	0.0137894
711.650	0.0137526
711.728	0.0135851
711.807	0.0134848
711.885	0.0134870
711.963	0.0135429
712.041	0.0134621
712.119	0.0133692
712.197	0.0133668
712.275	0.0134442
712.353	0.0134844
712.432	0.0135598
712.510	0.0135606
712.588	0.0135938
712.666	0.0136893
712.744	0.0138552
712.822	0.0138644
712.900	0.0140705
712.978	0.0140582
713.057	0.0142332
713.135	0.0144326
713.213	0.0146353
713.291	0.0146950
713.369	0.0145733
713.447	0.0147378
713.525	0.0147842
713.603	0.0148132
713.682	0.0147765
713.760	0.0147894
713.838	0.0148141
713.916	0.0148163
713.994	0.0149156
714.072	0.0150250
714.150	0.0151669
714.228	0.0153037
714.307	0.0154657
714.385	0.0156947
714.463	0.0157096
714.541	0.0159485
714.619	0.0163574
714.697	0.0162282
714.775	0.0164338
714.853	0.0162719
714.932	0.0163541
715.010	0.0161192
715.088	0.0161009
715.166	0.0159288
715.244	0.0156152
715.322	0.0153267
715.400	0.0153729
715.478	0.0153322
715.557	0.0153316
715.635	0.0151583
715.713	0.0151684
715.791	0.0151282
715.869	0.0152133
715.947	0.0153018
716.025	0.0154205
716.103	0.0152755
716.182	0.0153277
716.260	0.0154190
716.338	0.0152917
716.416	0.0151460
716.494	0.0149751
716.572	0.0148450
716.650	0.0147221
716.728	0.0144768
716.807	0.0144014
716.885	0.0141310
716.963	0.0140733
717.041	0.0139337
717.119	0.0137878
717.197	0.0136259
717.275	0.0136996
717.353	0.0135796
717.432	0.0136849
717.510	0.0136305
717.588	0.0136611
717.666	0.0136102
717.744	0.0136454
717.822	0.0137011
717.900	0.0137903
717.978	0.0138054
718.057	0.0138016
718.135	0.0138934
718.213	0.0141846
718.291	0.0140610
718.369	0.0143127
718.447	0.0144472
718.525	0.0144603
718.603	0.0144204
718.682	0.0146205
718.760	0.0147131
718.838	0.0148630
718.916	0.0149587
718.994	0.0150122
719.072	0.0151290
719.150	0.0150131
719.228	0.0151088
719.307	0.0150900
719.385	0.0152230
719.463	0.0152596
719.541	0.0153056
719.619	0.0153133
719.697	0.0154413
719.775	0.0155301
719.853	0.0155393
719.932	0.0154657
720.010	0.0154790
720.088	0.0155271
720.166	0.0155788
720.244	0.0156554
720.322	0.0155383
720.400	0.0154454
720.478	0.0154058
720.557	0.0154139
720.635	0.0152717
720.713	0.0152065
720.791	0.0150406
720.869	0.0149192
720.947	0.0148753
721.025	0.0146630
721.103	0.0145441
721.182	0.0145144
721.260	0.0146732
721.338	0.0146539
721.416	0.0145241
721.494	0.0146658
721.572	0.0147070
721.650	0.0147326
721.728	0.0148047
721.807	0.0147193
721.885	0.0149900
721.963	0.0150242
722.041	0.0150003
722.119	0.0150994
722.197	0.0151897
722.275	0.0151824
722.353	0.0153979
722.432	0.0153277
722.510	0.0152718
722.588	0.0153353
722.666	0.0152946
722.744	0.0152930
722.822	0.0152054
722.900	0.0152928
722.978	0.0149379
723.057	0.0148721
723.135	0.0149235
723.213	0.0148190
723.291	0.0146809
723.369	0.0146058
723.447	0.0145696
723.525	0.0146227
723.603	0.0145776
723.682	0.0145435
723.760	0.0145961
723.838	0.0146382
723.916	0.0146304
723.994	0.0146757
724.072	0.0147998
724.150	0.0151184
724.228	0.0148814
724.307	0.0150287
724.385	0.0150209
724.463	0.0149753
724.541	0.0149947
724.619	0.0148825
724.697	0.0148716
724.775	0.0146762
724.853	0.0147701
724.932	0.0145557
725.010	0.0144195
725.088	0.0145727
725.166	0.0143157
725.244	0.0143409
725.322	0.0143687
725.400	0.0142508
725.478	0.0143705
725.557	0.0142889
725.635	0.0143939
725.713	0.0146449
725.791	0.0145235
725.869	0.0146420
725.947	0.0147446
726.025	0.0148157
726.103	0.0150302
726.182	0.0150204
726.260	0.0150974
726.338	0.0153000
726.416	0.0154301
726.494	0.0155317
726.572	0.0153796
726.650	0.0153207
726.728	0.0153571
726.807	0.0154455
726.885	0.0154305
726.963	0.0152749
727.041	0.0150327
727.119	0.0150262
727.197	0.0149697
727.275	0.0147166
727.353	0.0147086
727.432	0.0145678
727.510	0.0142950
727.588	0.0143610
727.666	0.0144390
727.744	0.0142556
727.822	0.0143631
727.900	0.0144104
727.978	0.0145254
728.057	0.0145778
728.135	0.0146058
728.213	0.0145895
728.291	0.0148196
728.369	0.0146410
728.447	0.0148156
728.525	0.0148259
728.603	0.0149977
728.682	0.0148003
728.760	0.0150136
728.838	0.0148409
728.916	0.0149053
728.994	0.0148737
729.072	0.0150240
729.150	0.0149886
729.228	0.0151653
729.307	0.0152803
729.385	0.0153091
729.463	0.0156077
729.541	0.0156723
729.619	0.0155739
729.697	0.0157365
729.775	0.0157272
729.853	0.0158346
729.932	0.0160596
730.010	0.0160313
730.088	0.0158836
730.166	0.0158400
730.244	0.0157442
730.322	0.0157641
730.400	0.0157748
730.478	0.0156061
730.557	0.0155222
730.635	0.0154651
730.713	0.0153170
730.791	0.0151443
730.869	0.0147978
730.947	0.0149599
731.025	0.0148973
731.103	0.0145841
731.182	0.0145676
731.260	0.0142930
731.338	0.0143137
731.416	0.0141514
731.494	0.0139088
731.572	0.0138923
731.650	0.0134822
731.728	0.0134866
731.807	0.0133673
731.885	0.0133936
731.963	0.0132721
732.041	0.0132046
732.119	0.0133029
732.197	0.0133410
732.275	0.0134135
732.353	0.0133419
732.432	0.0135255
732.510	0.0135748
732.588	0.0139366
732.666	0.0141324
732.744	0.0141927
732.822	0.0145703
732.900	0.0145206
732.978	0.0147337
733.057	0.0149024
733.135	0.0149705
733.213	0.0151301
733.291	0.0152180
733.369	0.0151700
733.447	0.0153513
733.525	0.0152712
733.603	0.0152265
733.682	0.0151799
733.760	0.0151309
733.838	0.0151579
733.916	0.0152670
733.994	0.0152380
734.072	0.0151286
734.150	0.0151748
734.228	0.0152685
734.307	0.0151861
734.385	0.0153411
734.463	0.0154194
734.541	0.0152791
734.619	0.0154243
734.697	0.0155775
734.775	0.0156010
734.853	0.0157477
734.932	0.0156903
735.010	0.0155072
735.088	0.0155740
735.166	0.0155950
735.244	0.0155224
735.322	0.0154471
735.400	0.0153313
735.478	0.0153236
735.557	0.0153459
735.635	0.0152254
735.713	0.0152398
735.791	0.0151195
735.869	0.0150115
735.947	0.0149818
736.025	0.0150532
736.103	0.0150819
736.182	0.0151052
736.260	0.0152330
736.338	0.0154096
736.416	0.0154631
736.494	0.0154061
736.572	0.0155093
736.650	0.0155781
736.728	0.0157002
736.807	0.0156155
736.885	0.0155550
736.963	0.0153711
737.041	0.0152360
737.119	0.0152252
737.197	0.0149239
737.275	0.0146677
737.353	0.0147226
737.432	0.0144860
737.510	0.0143602
737.588	0.0141383
737.666	0.0139953
737.744	0.0137076
737.822	0.0137764
737.900	0.0136710
737.978	0.0135959
738.057	0.0134530
738.135	0.0134066
738.213	0.0135635
738.291	0.0133459
738.369	0.0135419
738.447	0.0135322
738.525	0.0137160
738.603	0.0137232
738.682	0.0138429
738.760	0.0139317
738.838	0.0141779
738.916	0.0143404
738.994	0.0144352
739.072	0.0145776
739.150	0.0146958
739.228	0.0148254
739.307	0.0150098
739.385	0.0151474
739.463	0.0150433
739.541	0.0152706
739.619	0.0154162
739.697	0.0152383
739.775	0.0153542
739.853	0.0153728
739.932	0.0154652
740.010	0.0154882
740.088	0.0153509
740.166	0.0151755
740.244	0.0151871
740.322	0.0153424
740.400	0.0153732
740.478	0.0152173
740.557	0.0151632
740.635	0.0153199
740.713	0.0153014
740.791	0.0154182
740.869	0.0154259
740.947	0.0153521
741.025	0.0155100
741.103	0.0154657
741.182	0.0156733
741.260	0.0155668
741.338	0.0154968
741.416	0.0155362
741.494	0.0156059
741.572	0.0155345
741.650	0.0155105
741.728	0.0153957
741.807	0.0153078
741.885	0.0152837
741.963	0.0151723
742.041	0.0153553
742.119	0.0150626
742.197	0.0150411
742.275	0.0150386
742.353	0.0150572
742.432	0.0149847
742.510	0.0150648
742.588	0.0150180
742.666	0.0149639
742.744	0.0151127
742.822	0.0151417
742.900	0.0151405
742.978	0.0152424
743.057	0.0153688
743.135	0.0155021
743.213	0.0155714
743.291	0.0156751
743.369	0.0157533
743.447	0.0157993
743.525	0.0156315
743.603	0.0153684
743.682	0.0154045
743.760	0.0152032
743.838	0.0150356
743.916	0.0149411
743.994	0.0146553
744.072	0.0144100
744.150	0.0143426
744.228	0.0141680
744.307	0.0139218
744.385	0.0138011
744.463	0.0137053
744.541	0.0136837
744.619	0.0136730
744.697	0.0135178
744.775	0.0135898
744.853	0.0137540
744.932	0.0137341
745.010	0.0136957
745.088	0.0138731
745.166	0.0139825
745.244	0.0140769
745.322	0.0142572
745.400	0.0143257
745.478	0.0143430
745.557	0.0145553
745.635	0.0147395
745.713	0.0147192
745.791	0.0147424
745.869	0.0147888
745.947	0.0149187
746.025	0.0149348
746.103	0.0149185
746.182	0.0148637
746.260	0.0148942
746.338	0.0148906
746.416	0.0148258
746.494	0.0147973
746.572	0.0146885
746.650	0.0147970
746.728	0.0146685
746.807	0.0148613
746.885	0.0148725
746.963	0.0148740
747.041	0.0148568
747.119	0.0147784
747.197	0.0150014
747.275	0.0149899
747.353	0.0150810
747.432	0.0152887
747.510	0.0151775
747.588	0.0151538
747.666	0.0154422
747.744	0.0154728
747.822	0.0155166
747.900	0.0154355
747.978	0.0154074
748.057	0.0153481
748.135	0.0154112
748.213	0.0153837
748.291	0.0154033
748.369	0.0153275
748.447	0.0153328
748.525	0.0152902
748.603	0.0151604
748.682	0.0152032
748.760	0.0151980
748.838	0.0151385
748.916	0.0152740
748.994	0.0152382
749.072	0.0152972
749.150	0.0152515
749.228	0.0152892
749.307	0.0153545
749.385	0.0153309
749.463	0.0154915
749.541	0.0154849
749.619	0.0154709
749.697	0.0155621
749.775	0.0155270
749.853	0.0154486
749.932	0.0153224
750.010	0.0154427
750.088	0.0153271
750.166	0.0151514
750.244	0.0148945
750.322	0.0148865
750.400	0.0147577
750.478	0.0146306
750.557	0.0143543
750.635	0.0142360
750.713	0.0139758
750.791	0.0138316
750.869	0.0137321
750.947	0.0137531
751.025	0.0136109
751.103	0.0133707
751.182	0.0134713
751.260	0.0134588
751.338	0.0133817
751.416	0.0133659
751.494	0.0134307
751.572	0.0136294
751.650	0.0136547
751.728	0.0137296
751.807	0.0138506
751.885	0.0138089
751.963	0.0140165
752.041	0.0140199
752.119	0.0141945
752.197	0.0143451
752.275	0.0144264
752.353	0.0142850
752.432	0.0146821
752.510	0.0147013
752.588	0.0148015
752.666	0.0146861
752.744	0.0147256
752.822	0.0148098
752.900	0.0148946
752.978	0.0148173
753.057	0.0151759
753.135	0.0149033
753.213	0.0148179
753.291	0.0149683
753.369	0.0150751
753.447	0.0149180
753.525	0.0148302
753.603	0.0148834
753.682	0.0149877
753.760	0.0151022
753.838	0.0150997
753.916	0.0148918
753.994	0.0151819
754.072	0.0153612
754.150	0.0154736
754.228	0.0154286
754.307	0.0155149
754.385	0.0155160
754.463	0.0154715
754.541	0.0155849
754.619	0.0156154
754.697	0.0158347
754.775	0.0156930
754.853	0.0156525
754.932	0.0156018
755.010	0.0155653
755.088	0.0154453
755.166	0.0152761
755.244	0.0153576
755.322	0.0153018
755.400	0.0151102
755.478	0.0151894
755.557	0.0150684
755.635	0.0149375
755.713	0.0150917
755.791	0.0150332
755.869	0.0149268
755.947	0.0149879
756.025	0.0150076
756.103	0.0149168
756.182	0.0151577
756.260	0.0151091
756.338	0.0151256
756.416	0.0150317
756.494	0.0150629
756.572	0.0149969
756.650	0.0151145
756.728	0.0151498
756.807	0.0150140
756.885	0.0149223
756.963	0.0149021
757.041	0.0146304
757.119	0.0145544
757.197	0.0145152
757.275	0.0142747
757.353	0.0142612
757.432	0.0140770
757.510	0.0140907
757.588	0.0139953
757.666	0.0138722
757.744	0.0137347
757.822	0.0137642
757.900	0.0138209
757.978	0.0137269
758.057	0.0137215
758.135	0.0139947
758.213	0.0139012
758.291	0.0140388
758.369	0.0142316
758.447	0.0139909
758.525	0.0141475
758.603	0.0142869
758.682	0.0144403
758.760	0.0145557
758.838	0.0145203
758.916	0.0145850
758.994	0.0147488
759.072	0.0146309
759.150	0.0148514
759.228	0.0146433
759.307	0.0148688
759.385	0.0149010
759.463	0.0148485
759.541	0.0150037
759.619	0.0150648
759.697	0.0149993
759.775	0.0150295
759.853	0.0150071
759.932	0.0148843
760.010	0.0149542
760.088	0.0151015
760.166	0.0149947
760.244	0.0150556
760.322	0.0153059
760.400	0.0151012
760.478	0.0150926
760.557	0.0152811
760.635	0.0152571
760.713	0.0153081
760.791	0.0153990
760.869	0.0153932
760.947	0.0154212
761.025	0.0153711
761.103	0.0153933
761.182	0.0154126
761.260	0.0154655
761.338	0.0154044
761.416	0.0152720
761.494	0.0153886
761.572	0.0151855
761.650	0.0150552
761.728	0.0151939
761.807	0.0151933
761.885	0.0151540
761.963	0.0151785
762.041	0.0151626
762.119	0.0152203
762.197	0.0151098
762.275	0.0152020
762.353	0.0153081
762.432	0.0153854
762.510	0.0153327
762.588	0.0152305
762.666	0.0152504
762.744	0.0152231
762.822	0.0153522
762.900	0.0154976
762.978	0.0154374
763.057	0.0155573
763.135	0.0153624
763.213	0.0153642
763.291	0.0154220
763.369	0.0151571
763.447	0.0152099
763.525	0.0151676
763.603	0.0150118
763.682	0.0149697
763.760	0.0147346
763.838	0.0146559
763.916	0.0146115
763.994	0.0143747
764.072	0.0142158
764.150	0.0141756
764.228	0.0141131
764.307	0.0140463
764.385	0.0139619
764.463	0.0138139
764.541	0.0138972
764.619	0.0138690
764.697	0.0140001
764.775	0.0139487
764.853	0.0140111
764.932	0.0142117
765.010	0.0141404
765.088	0.0143041
765.166	0.0144266
765.244	0.0144104
765.322	0.0144720
765.400	0.0145404
765.478	0.0145806
765.557	0.0145780
765.635	0.0145795
765.713	0.0146215
765.791	0.0146816
765.869	0.0145913
765.947	0.0146756
766.025	0.0147592
766.103	0.0147315
766.182	0.0147878
766.260	0.0146993
766.338	0.0147680
766.416	0.0146902
766.494	0.0146928
766.572	0.0147914
766.650	0.0149171
766.728	0.0150468
766.807	0.0149748
766.885	0.0149173
766.963	0.0151058
767.041	0.0153123
767.119	0.0153079
767.197	0.0152377
767.275	0.0151495
767.353	0.0152782
767.432	0.0152725
767.510	0.0154436
767.588	0.0153635
767.666	0.0153558
767.744	0.0153897
767.822	0.0153582
767.900	0.0154099
767.978	0.0151993
768.057	0.0153458
768.135	0.0152515
768.213	0.0153323
768.291	0.0151969
768.369	0.0152116
768.447	0.0151340
768.525	0.0151674
768.603	0.0152622
768.682	0.0151018
768.760	0.0151914
768.838	0.0150604
768.916	0.0152428
768.994	0.0152544
769.072	0.0150392
769.150	0.0150476
769.228	0.0151370
769.307	0.0150831
769.385	0.0150940
769.463	0.0151099
769.541	0.0150134
769.619	0.0150288
769.697	0.0152241
769.775	0.0151621
769.853	0.0150307
769.932	0.0149995
770.010	0.0150239
770.088	0.0151434
770.166	0.0148914
770.244	0.0148425
770.322	0.0149088
770.400	0.0147552
770.478	0.0146909
770.557	0.0144932
770.635	0.0144733
770.713	0.0143671
770.791	0.0143075
770.869	0.0143320
770.947	0.0142616
771.025	0.0140638
771.103	0.0140707
771.182	0.0139211
771.260	0.0141428
771.338	0.0140721
771.416	0.0141410
771.494	0.0141191
771.572	0.0140794
771.650	0.0140885
771.728	0.0141385
771.807	0.0142205
771.885	0.0143682
771.963	0.0143876
772.041	0.0143443
772.119	0.0143806
772.197	0.0143981
772.275	0.0144788
772.353	0.0145850
772.432	0.0145562
772.510	0.0144616
772.588	0.0144924
772.666	0.0145631
772.744	0.0145464
772.822	0.0145415
772.900	0.0145532
772.978	0.0147298
773.057	0.0146014
773.135	0.0146221
773.213	0.0145695
773.291	0.0148028
773.369	0.0147650
773.447	0.0147135
773.525	0.0147764
773.603	0.0149115
773.682	0.0150620
773.760	0.0149686
773.838	0.0149155
773.916	0.0151537
773.994	0.0149680
774.072	0.0149364
774.150	0.0149070
774.228	0.0151299
774.307	0.0151687
774.385	0.0151579
774.463	0.0151376
774.541	0.0150372
774.619	0.0150839
774.697	0.0152384
774.775	0.0152228
774.853	0.0152581
774.932	0.0152190
775.010	0.0152055
775.088	0.0153017
775.166	0.0151268
775.244	0.0153016
775.322	0.0151770
775.400	0.0152843
775.478	0.0152266
775.557	0.0152168
775.635	0.0151871
775.713	0.0150697
775.791	0.0151697
775.869	0.0150898
775.947	0.0151113
776.025	0.0151908
776.103	0.0153040
776.182	0.0152043
776.260	0.0150944
776.338	0.0151283
776.416	0.0152150
776.494	0.0152117
776.572	0.0151879
776.650	0.0153159
776.728	0.0151196
776.807	0.0150843
776.885	0.0152405
776.963	0.0151322
777.041	0.0151007
777.119	0.0149497
777.197	0.0151276
777.275	0.0149851
777.353	0.0148522
777.432	0.0149366
777.510	0.0149930
777.588	0.0148801
777.666	0.0148660
777.744	0.0148045
777.822	0.0146982
777.900	0.0146322
777.978	0.0146069
778.057	0.0145686
778.135	0.0143047
778.213	0.0143250
778.291	0.0143318
778.369	0.0141470
778.447	0.0142410
778.525	0.0142612
778.603	0.0143048
778.682	0.0140546
778.760	0.0142379
778.838	0.0140629
778.916	0.0140689
778.994	0.0141686
779.072	0.0140424
779.150	0.0140581
779.228	0.0141299
779.307	0.0140630
779.385	0.0140403
779.463	0.0141260
779.541	0.0141893
779.619	0.0142357
779.697	0.0144242
779.775	0.0145757
779.853	0.0144675
779.932	0.0146626
780.010	0.0146315
780.088	0.0148428
780.166	0.0149921
780.244	0.0147836
780.322	0.0150564
780.400	0.0150977
780.478	0.0150514
780.557	0.0151115
780.635	0.0152364
780.713	0.0152533
780.791	0.0152094
780.869	0.0153330
780.947	0.0152760
781.025	0.0151748
781.103	0.0152258
781.182	0.0153495
781.260	0.0150895
781.338	0.0151096
781.416	0.0150492
781.494	0.0151142
781.572	0.0150896
781.650	0.0149830
781.728	0.0149682
781.807	0.0148502
781.885	0.0148360
781.963	0.0148951
782.041	0.0148404
782.119	0.0148436
782.197	0.0149348
782.275	0.0147021
782.353	0.0147390
782.432	0.0147433
782.510	0.0147069
782.588	0.0146070
782.666	0.0146342
782.744	0.0147462
782.822	0.0146988
782.900	0.0146827
782.978	0.0146855
783.057	0.0148349
783.135	0.0148087
783.213	0.0148416
783.291	0.0148717
783.369	0.0149982
783.447	0.0151944
783.525	0.0150279
783.603	0.0150534
783.682	0.0151029
783.760	0.0151245
783.838	0.0151806
783.916	0.0150669
783.994	0.0151412
784.072	0.0151278
784.150	0.0150871
784.228	0.0150367
784.307	0.0150800
784.385	0.0151017
784.463	0.0151495
784.541	0.0152021
784.619	0.0151189
784.697	0.0152090
784.775	0.0150253
784.853	0.0149999
784.932	0.0150665
785.010	0.0150010
785.088	0.0149390
785.166	0.0149231
785.244	0.0148770
785.322	0.0148299
785.400	0.0148807
785.478	0.0146951
785.557	0.0147009
785.635	0.0145526
785.713	0.0147060
785.791	0.0144680
785.869	0.0143696
785.947	0.0142633
786.025	0.0141996
786.103	0.0142613
786.182	0.0142523
786.260	0.0142212
786.338	0.0141909
786.416	0.0139455
786.494	0.0139685
786.572	0.0140480
786.650	0.0140736
786.728	0.0142501
786.807	0.0141322
786.885	0.0141614
786.963	0.0141951
787.041	0.0142545
787.119	0.0143540
787.197	0.0144830
787.275	0.0145634
787.353	0.0147466
787.432	0.0146248
787.510	0.0147880
787.588	0.0148682
787.666	0.0148135
787.744	0.0151492
787.822	0.0151138
787.900	0.0149753
787.978	0.0151244
788.057	0.0151814
788.135	0.0152574
788.213	0.0153558
788.291	0.0153811
788.369	0.0153024
788.447	0.0153555
788.525	0.0154826
788.603	0.0153790
788.682	0.0153901
788.760	0.0153426
788.838	0.0153787
788.916	0.0152763
788.994	0.0152975
789.072	0.0152705
789.150	0.0153825
789.228	0.0152098
789.307	0.0151604
789.385	0.0149941
789.463	0.0150861
789.541	0.0150417
789.619	0.0149735
789.697	0.0151396
789.775	0.0149754
789.853	0.0149165
789.932	0.0149581
790.010	0.0149604
790.088	0.0150165
790.166	0.0148738
790.244	0.0149517
790.322	0.0148689
790.400	0.0150146
790.478	0.0148866
790.557	0.0148869
790.635	0.0149476
790.713	0.0147715
790.791	0.0148705
790.869	0.0148081
790.947	0.0148569
791.025	0.0148731
791.103	0.0148269
791.182	0.0148430
791.260	0.0148864
791.338	0.0148121
791.416	0.0149606
791.494	0.0148777
791.572	0.0149768
791.650	0.0149112
791.728	0.0150054
791.807	0.0148889
791.885	0.0148431
791.963	0.0148820
792.041	0.0147282
792.119	0.0146838
792.197	0.0147361
792.275	0.0147061
792.353	0.0146815
792.432	0.0145573
792.510	0.0144402
792.588	0.0145596
792.666	0.0143795
792.744	0.0144655
792.822	0.0145563
792.900	0.0144411
792.978	0.0144167
793.057	0.0142973
793.135	0.0144354
793.213	0.0141949
793.291	0.0142675
793.369	0.0142660
793.447	0.0143005
793.525	0.0143803
793.603	0.0142535
793.682	0.0143594
793.760	0.0144654
793.838	0.0144031
793.916	0.0145090
793.994	0.0146775
794.072	0.0146185
794.150	0.0146938
794.228	0.0147178
794.307	0.0149572
794.385	0.0149906
794.463	0.0150362
794.541	0.0150156
794.619	0.0151142
794.697	0.0150750
794.775	0.0152820
794.853	0.0151691
794.932	0.0151009
795.010	0.0150985
795.088	0.0152438
795.166	0.0152772
795.244	0.0150970
795.322	0.0152795
795.400	0.0153352
795.478	0.0152986
795.557	0.0151486
795.635	0.0152297
795.713	0.0154161
795.791	0.0153254
795.869	0.0152496
795.947	0.0152172
796.025	0.0152013
796.103	0.0151341
796.182	0.0153091
796.260	0.0151232
796.338	0.0150985
796.416	0.0150985
796.494	0.0150031
796.572	0.0149888
796.650	0.0151632
796.728	0.0151129
796.807	0.0149197
796.885	0.0151385
796.963	0.0149897
797.041	0.0149738
797.119	0.0150455
797.197	0.0150411
797.275	0.0149406
797.353	0.0150846
797.432	0.0149493
797.510	0.0149897
797.588	0.0148760
797.666	0.0149021
797.744	0.0148648
797.822	0.0146951
797.900	0.0147921
797.978	0.0148444
798.057	0.0147440
798.135	0.0146914
798.213	0.0146788
798.291	0.0147580
798.369	0.0147453
798.447	0.0147087
798.525	0.0145926
798.603	0.0146709
798.682	0.0147159
798.760	0.0146484
798.838	0.0146629
798.916	0.0145779
798.994	0.0146530
799.072	0.0145748
799.150	0.0146374
799.228	0.0145718
799.307	0.0146561
799.385	0.0147845
799.463	0.0147511
799.541	0.0145496
799.619	0.0145683
799.697	0.0146947
799.775	0.0145219
799.853	0.0147691
799.932	0.0146698
800.010	0.0145970
800.088	0.0146927
800.166	0.0146748
800.244	0.0147530
800.322	0.0149339
800.400	0.0148909
800.478	0.0150005
800.557	0.0149360
800.635	0.0151915
800.713	0.0150944
800.791	0.0152041
800.869	0.0150529
800.947	0.0151280
801.025	0.0152119
801.103	0.0151937
801.182	0.0151667
801.260	0.0152029
801.338	0.0149903
801.416	0.0150825
801.494	0.0150907
801.572	0.0148919
801.650	0.0150025
801.728	0.0149342
801.807	0.0148479
801.885	0.0148064
801.963	0.0147972
802.041	0.0148219
802.119	0.0147717
802.197	0.0146609
802.275	0.0146294
802.353	0.0148399
802.432	0.0146817
802.510	0.0147128
802.588	0.0147395
802.666	0.0147684
802.744	0.0148208
802.822	0.0149827
802.900	0.0149252
802.978	0.0148734
803.057	0.0149119
803.135	0.0149973
803.213	0.0148258
803.291	0.0148578
803.369	0.0148973
803.447	0.0149270
803.525	0.0147968
803.603	0.0147502
803.682	0.0147898
803.760	0.0148460
803.838	0.0148560
803.916	0.0148175
803.994	0.0148449
804.072	0.0148739
804.150	0.0148751
804.228	0.0148706
804.307	0.0149579
804.385	0.0150015
804.463	0.0150566
804.541	0.0150334
804.619	0.0151328
804.697	0.0151710
804.775	0.0151695
804.853	0.0151318
804.932	0.0151827
805.010	0.0151608
805.088	0.0150853
805.166	0.0151680
805.244	0.0151259
805.322	0.0151272
805.400	0.0149839
805.478	0.0150596
805.557	0.0150397
805.635	0.0149033
805.713	0.0148582
805.791	0.0149177
805.869	0.0147917
805.947	0.0148100
806.025	0.0148460
806.103	0.0147961
806.182	0.0147336
806.260	0.0147358
806.338	0.0145816
806.416	0.0145252
806.494	0.0145097
806.572	0.0145631
806.650	0.0144908
806.728	0.0145000
806.807	0.0144646
806.885	0.0144604
806.963	0.0145093
807.041	0.0144851
807.119	0.0145937
807.197	0.0146069
807.275	0.0144908
807.353	0.0146883
807.432	0.0145985
807.510	0.0145387
807.588	0.0147279
807.666	0.0147080
807.744	0.0145996
807.822	0.0148171
807.900	0.0147630
807.978	0.0145921
808.057	0.0145573
808.135	0.0146534
808.213	0.0147157
808.291	0.0147089
808.369	0.0146914
808.447	0.0145871
808.525	0.0147224
808.603	0.0144844
808.682	0.0145654
808.760	0.0145512
808.838	0.0145581
808.916	0.0145350
808.994	0.0145493
809.072	0.0145230
809.150	0.0147038
809.228	0.0145766
809.307	0.0145710
809.385	0.0147257
809.463	0.0148207
809.541	0.0148357
809.619	0.0148357
809.697	0.0149323
809.775	0.0149417
809.853	0.0149961
809.932	0.0149873
810.010	0.0149635
810.088	0.0150605
810.166	0.0150925
810.244	0.0149964
810.322	0.0150248
810.400	0.0149847
810.478	0.0149278
810.557	0.0149829
810.635	0.0150491
810.713	0.0150894
810.791	0.0150167
810.869	0.0151990
810.947	0.0150574
811.025	0.0149154
811.103	0.0151750
811.182	0.0151013
811.260	0.0150123
811.338	0.0150574
811.416	0.0152048
811.494	0.0151937
811.572	0.0151262
811.650	0.0152435
811.728	0.0150319
811.807	0.0151301
811.885	0.0152592
811.963	0.0150985
812.041	0.0151237
812.119	0.0150755
812.197	0.0151110
812.275	0.0150607
812.353	0.0151598
812.432	0.0149293
812.510	0.0149075
812.588	0.0148764
812.666	0.0148922
812.744	0.0149182
812.822	0.0146643
812.900	0.0147043
812.978	0.0145459
813.057	0.0145670
813.135	0.0143822
813.213	0.0144363
813.291	0.0142657
813.369	0.0143888
813.447	0.0142254
813.525	0.0142460
813.603	0.0140870
813.682	0.0141159
813.760	0.0141119
813.838	0.0141186
813.916	0.0141298
813.994	0.0140874
814.072	0.0142153
814.150	0.0142310
814.228	0.0143464
814.307	0.0143385
814.385	0.0145055
814.463	0.0144885
814.541	0.0145397
814.619	0.0147335
814.697	0.0146317
814.775	0.0147068
814.853	0.0146054
814.932	0.0147951
815.010	0.0148777
815.088	0.0148663
815.166	0.0149080
815.244	0.0148300
815.322	0.0147056
815.400	0.0148994
815.478	0.0149344
815.557	0.0148161
815.635	0.0147414
815.713	0.0146889
815.791	0.0148473
815.869	0.0148525
815.947	0.0149006
816.025	0.0147845
816.103	0.0147836
816.182	0.0148272
816.260	0.0147709
816.338	0.0149397
816.416	0.0149242
816.494	0.0149482
816.572	0.0150128
816.650	0.0149815
816.728	0.0150519
816.807	0.0150545
816.885	0.0152189
816.963	0.0151646
817.041	0.0152349
817.119	0.0151099
817.197	0.0153706
817.275	0.0153128
817.353	0.0151328
817.432	0.0152636
817.510	0.0153774
817.588	0.0153714
817.666	0.0152200
817.744	0.0151631
817.822	0.0151572
817.900	0.0149854
817.978	0.0151278
818.057	0.0150727
818.135	0.0149110
818.213	0.0149919
818.291	0.0149447
818.369	0.0148545
818.447	0.0148845
818.525	0.0148615
818.603	0.0149282
818.682	0.0148050
818.760	0.0148607
818.838	0.0148946
818.916	0.0148709
818.994	0.0149642
819.072	0.0149722
819.150	0.0148323
819.228	0.0150147
819.307	0.0149491
819.385	0.0150659
819.463	0.0151883
819.541	0.0151684
819.619	0.0150898
819.697	0.0150418
819.775	0.0152396
819.853	0.0152497
819.932	0.0152207
820.010	0.0150392
820.088	0.0151156
820.166	0.0152125
820.244	0.0150758
820.322	0.0150925
820.400	0.0149235
820.478	0.0149301
820.557	0.0147831
820.635	0.0149245
820.713	0.0148726
820.791	0.0147147
820.869	0.0147440
820.947	0.0148413
821.025	0.0148287
821.103	0.0147621
821.182	0.0148542
821.260	0.0148335
821.338	0.0148477
821.416	0.0146629
821.494	0.0147955
821.572	0.0148707
821.650	0.0147925
821.728	0.0146761
821.807	0.0147686
821.885	0.0147977
821.963	0.0146954
822.041	0.0148456
822.119	0.0147291
822.197	0.0146886
822.275	0.0147172
822.353	0.0146957
822.432	0.0147660
822.510	0.0147630
822.588	0.0146888
822.666	0.0147340
822.744	0.0146673
822.822	0.0146770
822.900	0.0147132
822.978	0.0146944
823.057	0.0146907
823.135	0.0147544
823.213	0.0147470
823.291	0.0146239
823.369	0.0145486
823.447	0.0146526
823.525	0.0147021
823.603	0.0146340
823.682	0.0146752
823.760	0.0147262
823.838	0.0147457
823.916	0.0147693
823.994	0.0147562
824.072	0.0147729
824.150	0.0147355
824.228	0.0145969
824.307	0.0147845
824.385	0.0149211
824.463	0.0147386
824.541	0.0148492
824.619	0.0149726
824.697	0.0149946
824.775	0.0150182
824.853	0.0150555
824.932	0.0152074
825.010	0.0152116
825.088	0.0151946
825.166	0.0152883
825.244	0.0152149
825.322	0.0153049
825.400	0.0155258
825.478	0.0152083
825.557	0.0153436
825.635	0.0153736
825.713	0.0152490
825.791	0.0152996
825.869	0.0153736
825.947	0.0153128
826.025	0.0151177
826.103	0.0151620
826.182	0.0150112
826.260	0.0148647
826.338	0.0150278
826.416	0.0149471
826.494	0.0149087
826.572	0.0147608
826.650	0.0147768
826.728	0.0147017
826.807	0.0146851
826.885	0.0146594
826.963	0.0145459
827.041	0.0145688
827.119	0.0145277
827.197	0.0144491
827.275	0.0145879
827.353	0.0144401
827.432	0.0144772
827.510	0.0145008
827.588	0.0144215
827.666	0.0144971
827.744	0.0143639
827.822	0.0144583
827.900	0.0144170
827.978	0.0145502
828.057	0.0145377
828.135	0.0144988
828.213	0.0143953
828.291	0.0145305
828.369	0.0145605
828.447	0.0145463
828.525	0.0144167
828.603	0.0144672
828.682	0.0146352
828.760	0.0144545
828.838	0.0145322
828.916	0.0145258
828.994	0.0143826
829.072	0.0144847
829.150	0.0145530
829.228	0.0145332
829.307	0.0146576
829.385	0.0146194
829.463	0.0146492
829.541	0.0147765
829.619	0.0145728
829.697	0.0147195
829.775	0.0147136
829.853	0.0147115
829.932	0.0147823
830.010	0.0146983
830.088	0.0146767
830.166	0.0146982
830.244	0.0147227
830.322	0.0146296
830.400	0.0147665
830.478	0.0148242
830.557	0.0147407
830.635	0.0147565
830.713	0.0147324
830.791	0.0147662
830.869	0.0147336
830.947	0.0147867
831.025	0.0147834
831.103	0.0148524
831.182	0.0149035
831.260	0.0149648
831.338	0.0149564
831.416	0.0150828
831.494	0.0151350
831.572	0.0151794
831.650	0.0152682
831.728	0.0152684
831.807	0.0154391
831.885	0.0155915
831.963	0.0154317
832.041	0.0156077
832.119	0.0156093
832.197	0.0155196
832.275	0.0155602
832.353	0.0155642
832.432	0.0156022
832.510	0.0155457
832.588	0.0155295
832.666	0.0154467
832.744	0.0153799
832.822	0.0152448
832.900	0.0153409
832.978	0.0151225
833.057	0.0150760
833.135	0.0150603
833.213	0.0148552
833.291	0.0148128
833.369	0.0147779
833.447	0.0147017
833.525	0.0146577
833.603	0.0145264
833.682	0.0145002
833.760	0.0143150
833.838	0.0144315
833.916	0.0143171
833.994	0.0143890
834.072	0.0143770
834.150	0.0143834
834.228	0.0143374
834.307	0.0144346
834.385	0.0145062
834.463	0.0143478
834.541	0.0143353
834.619	0.0143639
834.697	0.0143529
834.775	0.0143822
834.853	0.0142780
834.932	0.0143415
835.010	0.0144009
835.088	0.0143275
835.166	0.0144220
835.244	0.0144267
835.322	0.0144021
835.400	0.0142444
835.478	0.0144070
835.557	0.0144865
835.635	0.0145461
835.713	0.0146421
835.791	0.0146990
835.869	0.0146404
835.947	0.0145774
836.025	0.0148232
836.103	0.0149715
836.182	0.0149568
836.260	0.0148930
836.338	0.0147663
836.416	0.0150183
836.494	0.0149937
836.572	0.0149725
836.650	0.0150881
836.728	0.0150272
836.807	0.0150744
836.885	0.0151283
836.963	0.0151128
837.041	0.0150117
837.119	0.0149973
837.197	0.0151000
837.275	0.0150764
837.353	0.0150652
837.432	0.0150838
837.510	0.0152386
837.588	0.0150702
837.666	0.0150775
837.744	0.0150293
837.822	0.0150240
837.900	0.0149371
837.978	0.0150988
838.057	0.0149893
838.135	0.0149788
838.213	0.0148196
838.291	0.0149088
838.369	0.0149512
838.447	0.0149339
838.525	0.0148991
838.603	0.0148449
838.682	0.0149840
838.760	0.0149319
838.838	0.0149232
838.916	0.0150279
838.994	0.0149638
839.072	0.0149509
839.150	0.0150201
839.228	0.0149879
839.307	0.0150065
839.385	0.0150130
839.463	0.0150009
839.541	0.0150653
839.619	0.0150089
839.697	0.0150539
839.775	0.0150034
839.853	0.0151253
839.932	0.0150555
840.010	0.0149917
840.088	0.0151221
840.166	0.0150169
840.244	0.0151125
840.322	0.0150879
840.400	0.0150046
840.478	0.0152489
840.557	0.0151875
840.635	0.0150283
840.713	0.0150989
840.791	0.0150555
840.869	0.0149889
840.947	0.0150734
841.025	0.0148682
841.103	0.0148529
841.182	0.0148243
841.260	0.0146689
841.338	0.0145956
841.416	0.0146523
841.494	0.0146232
841.572	0.0145281
841.650	0.0143983
841.728	0.0142854
841.807	0.0143484
841.885	0.0143002
841.963	0.0141425
842.041	0.0142066
842.119	0.0142192
842.197	0.0141126
842.275	0.0140826
842.353	0.0142822
842.432	0.0141891
842.510	0.0141519
842.588	0.0143054
842.666	0.0144100
842.744	0.0144782
842.822	0.0143867
842.900	0.0146434
842.978	0.0146770
843.057	0.0146946
843.135	0.0147285
843.213	0.0148984
843.291	0.0149020
843.369	0.0149573
843.447	0.0149892
843.525	0.0151133
843.603	0.0152670
843.682	0.0152059
843.760	0.0153551
843.838	0.0151678
843.916	0.0150617
843.994	0.0151997
844.072	0.0152959
844.150	0.0152386
844.228	0.0152003
844.307	0.0151299
844.385	0.0151717
844.463	0.0151710
844.541	0.0151896
844.619	0.0151603
844.697	0.0150626
844.775	0.0151542
844.853	0.0151526
844.932	0.0149216
845.010	0.0149908
845.088	0.0147840
845.166	0.0148623
845.244	0.0149112
845.322	0.0148196
845.400	0.0147349
845.478	0.0148395
845.557	0.0146341
845.635	0.0147710
845.713	0.0148015
845.791	0.0146482
845.869	0.0147839
845.947	0.0148507
846.025	0.0146817
846.103	0.0147436
846.182	0.0147595
846.260	0.0149107
846.338	0.0150079
846.416	0.0149812
846.494	0.0150295
846.572	0.0147789
846.650	0.0150220
846.728	0.0149503
846.807	0.0150589
846.885	0.0150289
846.963	0.0150148
847.041	0.0150291
847.119	0.0149092
847.197	0.0149149
847.275	0.0149606
847.353	0.0150379
847.432	0.0148384
847.510	0.0147830
847.588	0.0147491
847.666	0.0147885
847.744	0.0149404
847.822	0.0146583
847.900	0.0145616
847.978	0.0146221
848.057	0.0144964
848.135	0.0145737
848.213	0.0144595
848.291	0.0146408
848.369	0.0146610
848.447	0.0145995
848.525	0.0145113
848.603	0.0145383
848.682	0.0145599
848.760	0.0145493
848.838	0.0145445
848.916	0.0144915
848.994	0.0144769
849.072	0.0145488
849.150	0.0144798
849.228	0.0145061
849.307	0.0143257
849.385	0.0144063
849.463	0.0143559
849.541	0.0142514
849.619	0.0143612
849.697	0.0145849
849.775	0.0144565
849.853	0.0146071
849.932	0.0145377
850.010	0.0146381
850.088	0.0146663
850.166	0.0148023
850.244	0.0148762
850.322	0.0148862
850.400	0.0148466
850.478	0.0150339
850.557	0.0150958
850.635	0.0150804
850.713	0.0148867
850.791	0.0149773
850.869	0.0151271
850.947	0.0150652
851.025	0.0150889
851.103	0.0150756
851.182	0.0150835
851.260	0.0151401
851.338	0.0151649
851.416	0.0150819
851.494	0.0151345
851.572	0.0149383
851.650	0.0151060
851.728	0.0150137
851.807	0.0149364
851.885	0.0149988
851.963	0.0150065
852.041	0.0148202
852.119	0.0147233
852.197	0.0148919
852.275	0.0146993
852.353	0.0147698
852.432	0.0147021
852.510	0.0146603
852.588	0.0147009
852.666	0.0146725
852.744	0.0147025
852.822	0.0147220
852.900	0.0146224
852.978	0.0146391
853.057	0.0147160
853.135	0.0147549
853.213	0.0148533
853.291	0.0148392
853.369	0.0148696
853.447	0.0147800
853.525	0.0148594
853.603	0.0148327
853.682	0.0149380
853.760	0.0148484
853.838	0.0147071
853.916	0.0149332
853.994	0.0147817
854.072	0.0148764
854.150	0.0147423
854.228	0.0147656
854.307	0.0148116
854.385	0.0148354
854.463	0.0149060
854.541	0.0149641
854.619	0.0149343
854.697	0.0149638
854.775	0.0148773
854.853	0.0148106
854.932	0.0149184
855.010	0.0150094
855.088	0.0147861
855.166	0.0147537
855.244	0.0148553
855.322	0.0147913
855.400	0.0146556
855.478	0.0147324
855.557	0.0145947
855.635	0.0147540
855.713	0.0145358
855.791	0.0147544
855.869	0.0145322
855.947	0.0146352
856.025	0.0145441
856.103	0.0146442
856.182	0.0144492
856.260	0.0145368
856.338	0.0144997
856.416	0.0144143
856.494	0.0144604
856.572	0.0144962
856.650	0.0145975
856.728	0.0144983
856.807	0.0145784
856.885	0.0146794
856.963	0.0145536
857.041	0.0146409
857.119	0.0146139
857.197	0.0146259
857.275	0.0147916
857.353	0.0147580
857.432	0.0147999
857.510	0.0147954
857.588	0.0147784
857.666	0.0149702
857.744	0.0148299
857.822	0.0149473
857.900	0.0147593
857.978	0.0149262
858.057	0.0149775
858.135	0.0149287
858.213	0.0149509
858.291	0.0149905
858.369	0.0148683
858.447	0.0149741
858.525	0.0149535
858.603	0.0150787
858.682	0.0149841
858.760	0.0149451
858.838	0.0149361
858.916	0.0150923
858.994	0.0150494
859.072	0.0149786
859.150	0.0149850
859.228	0.0150929
859.307	0.0151122
859.385	0.0149992
859.463	0.0150205
859.541	0.0149535
859.619	0.0149638
859.697	0.0150171
859.775	0.0150051
859.853	0.0147922
859.932	0.0148274
860.010	0.0148387
860.088	0.0148019
860.166	0.0147079
860.244	0.0148171
860.322	0.0147401
860.400	0.0147727
860.478	0.0148015
860.557	0.0147402
860.635	0.0146637
860.713	0.0145969
860.791	0.0146020
860.869	0.0146492
860.947	0.0148856
861.025	0.0148811
861.103	0.0148082
861.182	0.0146947
861.260	0.0147532
861.338	0.0148174
861.416	0.0147417
861.494	0.0148896
861.572	0.0150121
861.650	0.0148896
861.728	0.0148161
861.807	0.0149745
861.885	0.0151622
861.963	0.0149809
862.041	0.0150349
862.119	0.0151154
862.197	0.0149935
862.275	0.0151638
862.353	0.0150185
862.432	0.0150459
862.510	0.0149227
862.588	0.0149383
862.666	0.0149523
862.744	0.0148811
862.822	0.0147364
862.900	0.0149405
862.978	0.0148721
863.057	0.0148157
863.135	0.0147976
863.213	0.0149488
863.291	0.0148277
863.369	0.0148510
863.447	0.0148145
863.525	0.0148257
863.603	0.0148495
863.682	0.0148846
863.760	0.0148788
863.838	0.0148150
863.916	0.0148241
863.994	0.0149638
864.072	0.0149668
864.150	0.0149680
864.228	0.0149501
864.307	0.0149763
864.385	0.0150389
864.463	0.0150268
864.541	0.0151294
864.619	0.0150681
864.697	0.0152402
864.775	0.0151572
864.853	0.0152670
864.932	0.0151960
865.010	0.0150886
865.088	0.0151457
865.166	0.0150097
865.244	0.0150864
865.322	0.0151207
865.400	0.0150156
865.478	0.0149162
865.557	0.0149110
865.635	0.0149171
865.713	0.0149921
865.791	0.0147929
865.869	0.0147660
865.947	0.0147899
866.025	0.0147289
866.103	0.0148723
866.182	0.0148757
866.260	0.0148804
866.338	0.0148933
866.416	0.0149464
866.494	0.0149650
866.572	0.0150466
866.650	0.0150679
866.728	0.0150570
866.807	0.0150389
866.885	0.0150567
866.963	0.0150790
867.041	0.0150179
867.119	0.0149321
867.197	0.0148585
867.275	0.0149773
867.353	0.0150117
867.432	0.0149338
867.510	0.0148655
867.588	0.0148937
867.666	0.0146837
867.744	0.0148650
867.822	0.0148793
867.900	0.0148714
867.978	0.0147305
868.057	0.0147659
868.135	0.0147831
868.213	0.0148692
868.291	0.0148665
868.369	0.0147219
868.447	0.0147947
868.525	0.0148555
868.603	0.0149174
868.682	0.0150133
868.760	0.0148404
868.838	0.0147453
868.916	0.0148985
868.994	0.0149489
869.072	0.0148819
869.150	0.0148791
869.228	0.0149994
869.307	0.0151105
869.385	0.0150343
869.463	0.0150122
869.541	0.0150360
869.619	0.0151138
869.697	0.0149815
869.775	0.0148588
869.853	0.0147778
869.932	0.0148219
870.010	0.0148042
870.088	0.0148708
870.166	0.0147208
870.244	0.0145922
870.322	0.0145449
870.400	0.0145760
870.478	0.0144834
870.557	0.0144727
870.635	0.0145047
870.713	0.0144440
870.791	0.0144158
870.869	0.0144277
870.947	0.0144489
871.025	0.0144624
871.103	0.0144352
871.182	0.0144434
871.260	0.0144201
871.338	0.0143875
871.416	0.0145174
871.494	0.0145074
871.572	0.0145506
871.650	0.0145364
871.728	0.0146686
871.807	0.0147904
871.885	0.0146663
871.963	0.0145905
872.041	0.0147688
872.119	0.0147372
872.197	0.0147948
872.275	0.0148514
872.353	0.0148540
872.432	0.0148346
872.510	0.0148195
872.588	0.0148444
872.666	0.0149229
872.744	0.0149153
872.822	0.0148586
872.900	0.0149808
872.978	0.0149593
873.057	0.0149192
873.135	0.0148980
873.213	0.0148824
873.291	0.0149254
873.369	0.0148427
873.447	0.0150348
873.525	0.0148674
873.603	0.0147326
873.682	0.0147649
873.760	0.0147696
873.838	0.0146767
873.916	0.0147122
873.994	0.0145574
874.072	0.0147057
874.150	0.0147964
874.228	0.0145720
874.307	0.0145374
874.385	0.0146378
874.463	0.0147489
874.541	0.0146842
874.619	0.0146624
874.697	0.0147605
874.775	0.0148755
874.853	0.0149835
874.932	0.0149014
875.010	0.0149437
875.088	0.0150439
875.166	0.0150758
875.244	0.0150703
875.322	0.0150733
875.400	0.0151051
875.478	0.0149314
875.557	0.0150012
875.635	0.0149472
875.713	0.0150376
875.791	0.0149211
875.869	0.0149377
875.947	0.0149079
876.025	0.0147588
876.103	0.0148435
876.182	0.0147913
876.260	0.0146484
876.338	0.0146307
876.416	0.0146333
876.494	0.0145807
876.572	0.0145747
876.650	0.0146153
876.728	0.0143803
876.807	0.0144036
876.885	0.0144265
876.963	0.0144933
877.041	0.0144231
877.119	0.0143791
877.197	0.0144830
877.275	0.0144850
877.353	0.0144603
877.432	0.0146607
877.510	0.0146137
877.588	0.0146544
877.666	0.0147724
877.744	0.0147408
877.822	0.0148247
877.900	0.0148286
877.978	0.0147052
878.057	0.0148404
878.135	0.0148006
878.213	0.0148312
878.291	0.0147905
878.369	0.0148434
878.447	0.0148527
878.525	0.0148781
878.603	0.0149586
878.682	0.0148962
878.760	0.0150072
878.838	0.0149139
878.916	0.0149776
878.994	0.0148741
879.072	0.0148920
879.150	0.0149615
879.228	0.0149350
879.307	0.0148778
879.385	0.0149934
879.463	0.0149983
879.541	0.0148072
879.619	0.0149380
879.697	0.0148843
879.775	0.0149123
879.853	0.0149959
879.932	0.0147758
880.010	0.0149693
880.088	0.0150394
880.166	0.0150321
880.244	0.0150316
880.322	0.0152090
880.400	0.0151910
880.478	0.0150129
880.557	0.0150336
880.635	0.0150978
880.713	0.0150723
880.791	0.0149990
880.869	0.0149332
880.947	0.0148503
881.025	0.0147224
881.103	0.0146339
881.182	0.0145975
881.260	0.0145878
881.338	0.0143557
881.416	0.0144720
881.494	0.0144444
881.572	0.0142358
881.650	0.0144832
881.728	0.0144161
881.807	0.0145538
881.885	0.0146331
881.963	0.0146139
882.041	0.0147301
882.119	0.0147925
882.197	0.0147909
882.275	0.0148507
882.353	0.0148640
882.432	0.0148980
882.510	0.0151567
882.588	0.0151616
882.666	0.0150858
882.744	0.0151530
882.822	0.0152138
882.900	0.0151067
882.978	0.0149984
883.057	0.0152365
883.135	0.0152232
883.213	0.0152058
883.291	0.0151810
883.369	0.0150800
883.447	0.0149741
883.525	0.0149087
883.603	0.0149968
883.682	0.0148986
883.760	0.0148066
883.838	0.0148196
883.916	0.0148592
883.994	0.0146490
884.072	0.0145882
884.150	0.0146256
884.228	0.0147115
884.307	0.0146322
884.385	0.0146062
884.463	0.0145837
884.541	0.0146735
884.619	0.0146766
884.697	0.0145763
884.775	0.0147108
884.853	0.0148680
884.932	0.0148927
885.010	0.0148321
885.088	0.0148447
885.166	0.0149368
885.244	0.0150622
885.322	0.0150229
885.400	0.0150282
885.478	0.0151997
885.557	0.0151673
885.635	0.0151060
885.713	0.0151905
885.791	0.0151910
885.869	0.0151842
885.947	0.0151432
886.025	0.0151657
886.103	0.0150284
886.182	0.0150696
886.260	0.0150784
886.338	0.0149370
886.416	0.0150037
886.494	0.0149036
886.572	0.0148966
886.650	0.0147679
886.728	0.0148885
886.807	0.0150790
886.885	0.0147501
886.963	0.0149006
887.041	0.0149950
887.119	0.0147894
887.197	0.0148741
887.275	0.0148026
887.353	0.0148132
887.432	0.0148479
887.510	0.0147959
887.588	0.0147482
887.666	0.0149748
887.744	0.0148380
887.822	0.0148404
887.900	0.0148752
887.978	0.0150434
888.057	0.0148743
888.135	0.0147927
888.213	0.0148190
888.291	0.0148488
888.369	0.0148753
888.447	0.0147684
888.525	0.0148050
888.603	0.0147135
888.682	0.0145777
888.760	0.0146265
888.838	0.0147004
888.916	0.0147292
888.994	0.0145528
889.072	0.0146903
889.150	0.0146104
889.228	0.0146346
889.307	0.0145766
889.385	0.0144885
889.463	0.0147169
889.541	0.0145314
889.619	0.0147103
889.697	0.0147688
889.775	0.0148439
889.853	0.0147775
889.932	0.0151083
890.010	0.0150282
890.088	0.0151582
890.166	0.0152303
890.244	0.0151618
890.322	0.0152137
890.400	0.0151980
890.478	0.0153365
890.557	0.0153004
890.635	0.0152464
890.713	0.0153056
890.791	0.0151549
890.869	0.0152644
890.947	0.0150622
891.025	0.0151351
891.103	0.0151518
891.182	0.0150164
891.260	0.0148646
891.338	0.0147886
891.416	0.0148656
891.494	0.0148428
891.572	0.0147003
891.650	0.0146527
891.728	0.0145645
891.807	0.0145821
891.885	0.0144064
891.963	0.0146159
892.041	0.0146819
892.119	0.0144776
892.197	0.0145670
892.275	0.0146291
892.353	0.0146282
892.432	0.0146402
892.510	0.0146532
892.588	0.0146279
892.666	0.0148323
892.744	0.0148781
892.822	0.0148579
892.900	0.0148419
892.978	0.0148234
893.057	0.0150210
893.135	0.0149023
893.213	0.0149366
893.291	0.0149947
893.369	0.0149780
893.447	0.0149776
893.525	0.0147556
893.603	0.0147737
893.682	0.0149375
893.760	0.0147813
893.838	0.0147086
893.916	0.0147423
893.994	0.0149065
894.072	0.0147002
894.150	0.0147944
894.228	0.0146468
894.307	0.0147484
894.385	0.0146718
894.463	0.0147273
894.541	0.0146593
894.619	0.0145170
894.697	0.0147419
894.775	0.0147137
894.853	0.0145713
894.932	0.0145248
895.010	0.0147665
895.088	0.0146032
895.166	0.0146986
895.244	0.0147134
895.322	0.0146584
895.400	0.0148668
895.478	0.0149259
895.557	0.0147548
895.635	0.0147786
895.713	0.0150679
895.791	0.0150501
895.869	0.0150143
895.947	0.0149493
896.025	0.0150082
896.103	0.0151266
896.182	0.0150443
896.260	0.0151022
896.338	0.0149659
896.416	0.0149798
896.494	0.0149913
896.572	0.0149697
896.650	0.0150411
896.728	0.0151273
896.807	0.0149238
896.885	0.0149674
896.963	0.0149876
897.041	0.0149605
897.119	0.0150334
897.197	0.0151948
897.275	0.0151069
897.353	0.0150928
897.432	0.0149796
897.510	0.0149601
897.588	0.0150597
897.666	0.0149464
897.744	0.0148746
897.822	0.0149113
897.900	0.0147558
897.978	0.0148943
898.057	0.0149131
898.135	0.0147247
898.213	0.0148283
898.291	0.0148257
898.369	0.0148911
898.447	0.0148051
898.525	0.0148392
898.603	0.0149406
898.682	0.0148740
898.760	0.0148766
898.838	0.0150671
898.916	0.0151099
898.994	0.0149742
899.072	0.0151263
899.150	0.0150717
899.228	0.0149826
899.307	0.0150367
899.385	0.0150221
899.463	0.0151322
899.541	0.0149670
899.619	0.0151112
899.697	0.0149976
899.775	0.0150681
899.853	0.0149987
899.932	0.0149290
900.010	0.0147665
900.088	0.0147355
900.166	0.0148429
900.244	0.0148056
900.322	0.0146861
900.400	0.0147443
900.478	0.0148449
900.557	0.0147941
900.635	0.0146857
900.713	0.0145652
900.791	0.0147722
900.869	0.0148475
900.947	0.0147370
901.025	0.0146987
901.103	0.0148450
901.182	0.0148573
901.260	0.0148535
901.338	0.0147910
901.416	0.0148196
901.494	0.0149022
901.572	0.0148753
901.650	0.0149317
901.728	0.0149403
901.807	0.0149165
901.885	0.0150082
901.963	0.0149551
902.041	0.0150805
902.119	0.0149679
902.197	0.0150296
902.275	0.0148936
902.353	0.0150619
902.432	0.0150037
902.510	0.0149763
902.588	0.0150072
902.666	0.0148932
902.744	0.0149097
902.822	0.0147801
902.900	0.0148349
902.978	0.0148409
903.057	0.0148296
903.135	0.0146513
903.213	0.0146880
903.291	0.0147136
903.369	0.0145065
903.447	0.0146552
903.525	0.0146423
903.603	0.0145737
903.682	0.0146846
903.760	0.0146728
903.838	0.0146338
903.916	0.0145963
903.994	0.0147202
904.072	0.0148315
904.150	0.0148314
904.228	0.0149438
904.307	0.0147392
904.385	0.0149075
904.463	0.0148192
904.541	0.0149737
904.619	0.0150327
904.697	0.0149252
904.775	0.0149612
904.853	0.0149963
904.932	0.0149307
905.010	0.0147843
905.088	0.0149351
905.166	0.0149286
905.244	0.0149385
905.322	0.0147693
905.400	0.0147901
905.478	0.0147858
905.557	0.0148455
905.635	0.0147566
905.713	0.0147569
905.791	0.0148962
905.869	0.0149466
905.947	0.0148827
906.025	0.0149932
906.103	0.0149966
906.182	0.0150990
906.260	0.0151038
906.338	0.0150464
906.416	0.0151091
906.494	0.0150145
906.572	0.0150733
906.650	0.0150568
906.728	0.0149292
906.807	0.0149957
906.885	0.0148584
906.963	0.0147950
907.041	0.0147760
907.119	0.0148246
907.197	0.0147322
907.275	0.0147074
907.353	0.0147630
907.432	0.0148224
907.510	0.0146269
907.588	0.0145203
907.666	0.0147616
907.744	0.0145072
907.822	0.0145641
907.900	0.0145745
907.978	0.0144578
908.057	0.0143300
908.135	0.0144349
908.213	0.0144772
908.291	0.0144964
908.369	0.0144190
908.447	0.0144745
908.525	0.0145209
908.603	0.0145632
908.682	0.0146846
908.760	0.0145145
908.838	0.0144675
908.916	0.0145551
908.994	0.0145576
909.072	0.0145345
909.150	0.0145994
909.228	0.0148180
909.307	0.0147215
909.385	0.0147062
909.463	0.0146466
909.541	0.0147754
909.619	0.0146883
909.697	0.0147050
909.775	0.0146267
909.853	0.0149211
909.932	0.0147271
910.010	0.0147472
910.088	0.0146429
910.166	0.0148321
910.244	0.0145924
910.322	0.0146998
910.400	0.0148203
910.478	0.0147379
910.557	0.0148756
910.635	0.0147699
910.713	0.0148257
910.791	0.0148847
910.869	0.0150198
910.947	0.0148158
911.025	0.0148164
911.103	0.0148251
911.182	0.0147907
911.260	0.0148454
911.338	0.0149583
911.416	0.0148506
911.494	0.0150307
911.572	0.0150268
911.650	0.0149905
911.728	0.0149664
911.807	0.0150342
911.885	0.0150438
911.963	0.0150199
912.041	0.0150124
912.119	0.0150700
912.197	0.0149339
912.275	0.0150871
912.353	0.0149919
912.432	0.0148696
912.510	0.0148675
912.588	0.0148809
912.666	0.0148210
912.744	0.0146972
912.822	0.0146417
912.900	0.0147989
912.978	0.0147806
913.057	0.0147810
913.135	0.0147861
913.213	0.0146823
913.291	0.0147361
913.369	0.0147944
913.447	0.0148174
913.525	0.0148210
913.603	0.0147225
913.682	0.0146838
913.760	0.0147106
913.838	0.0147752
913.916	0.0146717
913.994	0.0148071
914.072	0.0147591
914.150	0.0148539
914.228	0.0148922
914.307	0.0148048
914.385	0.0148080
914.463	0.0148494
914.541	0.0148892
914.619	0.0147887
914.697	0.0147317
914.775	0.0148139
914.853	0.0147647
914.932	0.0147404
915.010	0.0148020
915.088	0.0147550
915.166	0.0147698
915.244	0.0147630
915.322	0.0147878
915.400	0.0147748
915.478	0.0146104
915.557	0.0146468
915.635	0.0149291
915.713	0.0148799
915.791	0.0147947
915.869	0.0147861
915.947	0.0148129
916.025	0.0146922
916.103	0.0147964
916.182	0.0148009
916.260	0.0147487
916.338	0.0147743
916.416	0.0148119
916.494	0.0147898
916.572	0.0148112
916.650	0.0147922
916.728	0.0147800
916.807	0.0148974
916.885	0.0148734
916.963	0.0147231
917.041	0.0149916
917.119	0.0150345
917.197	0.0149506
917.275	0.0149519
917.353	0.0148385
917.432	0.0149760
917.510	0.0150004
917.588	0.0150130
917.666	0.0149858
917.744	0.0149606
917.822	0.0148689
917.900	0.0150100
917.978	0.0150591
918.057	0.0149675
918.135	0.0150540
918.213	0.0149270
918.291	0.0149585
918.369	0.0149381
918.447	0.0150843
918.525	0.0150710
918.603	0.0149849
918.682	0.0149673
918.760	0.0147972
918.838	0.0149178
918.916	0.0149632
918.994	0.0149507
919.072	0.0148554
919.150	0.0148461
919.228	0.0149045
919.307	0.0149350
919.385	0.0148291
919.463	0.0148396
919.541	0.0149209
919.619	0.0149413
919.697	0.0149400
919.775	0.0149340
919.853	0.0148917
919.932	0.0148572
920.010	0.0148598
920.088	0.0149058
920.166	0.0148832
920.244	0.0148861
920.322	0.0149199
920.400	0.0148148
920.478	0.0148956
920.557	0.0148889
920.635	0.0148985
920.713	0.0149223
920.791	0.0150425
920.869	0.0148280
920.947	0.0148799
921.025	0.0147883
921.103	0.0148783
921.182	0.0148081
921.260	0.0147198
921.338	0.0148549
921.416	0.0149680
921.494	0.0147900
921.572	0.0149571
921.650	0.0149022
921.728	0.0148875
921.807	0.0150507
921.885	0.0150391
921.963	0.0148344
922.041	0.0149712
922.119	0.0149876
922.197	0.0148308
922.275	0.0149091
922.353	0.0148788
922.432	0.0150068
922.510	0.0149693
922.588	0.0149793
922.666	0.0149519
922.744	0.0150355
922.822	0.0150426
922.900	0.0151893
922.978	0.0149557
923.057	0.0150768
923.135	0.0149396
923.213	0.0149640
923.291	0.0148497
923.369	0.0150636
923.447	0.0150310
923.525	0.0149223
923.603	0.0147475
923.682	0.0148784
923.760	0.0149133
923.838	0.0147385
923.916	0.0148138
923.994	0.0149083
924.072	0.0149467
924.150	0.0147772
924.228	0.0149358
924.307	0.0147895
924.385	0.0146997
924.463	0.0148801
924.541	0.0148323
924.619	0.0148157
924.697	0.0147902
924.775	0.0150282
924.853	0.0149261
924.932	0.0148900
925.010	0.0148785
925.088	0.0147893
925.166	0.0149113
925.244	0.0148983
925.322	0.0148587
925.400	0.0148534
925.478	0.0149389
925.557	0.0149431
925.635	0.0147321
925.713	0.0148930
925.791	0.0149806
925.869	0.0148976
925.947	0.0148743
926.025	0.0147904
926.103	0.0149145
926.182	0.0148222
926.260	0.0148464
926.338	0.0148522
926.416	0.0148315
926.494	0.0147498
926.572	0.0147265
926.650	0.0147401
926.728	0.0148463
926.807	0.0148466
926.885	0.0147853
926.963	0.0147959
927.041	0.0147501
927.119	0.0148219
927.197	0.0147400
927.275	0.0148904
927.353	0.0147875
927.432	0.0147717
927.510	0.0148754
927.588	0.0148798
927.666	0.0149992
927.744	0.0147926
927.822	0.0147935
927.900	0.0148499
927.978	0.0149594
928.057	0.0147758
928.135	0.0148438
928.213	0.0150263
928.291	0.0150832
928.369	0.0150529
928.447	0.0149471
928.525	0.0148998
928.603	0.0149369
928.682	0.0150851
928.760	0.0148661
928.838	0.0149249
928.916	0.0149835
928.994	0.0149167
929.072	0.0147528
929.150	0.0148746
929.228	0.0149204
929.307	0.0149934
929.385	0.0149284
929.463	0.0148573
929.541	0.0147767
929.619	0.0148698
929.697	0.0147691
929.775	0.0149270
929.853	0.0147081
929.932	0.0148706
930.010	0.0148483
930.088	0.0147705
930.166	0.0147820
930.244	0.0148003
930.322	0.0148763
930.400	0.0148592
930.478	0.0148966
930.557	0.0147206
930.635	0.0147933
930.713	0.0147056
930.791	0.0149031
930.869	0.0148037
930.947	0.0147742
931.025	0.0146397
931.103	0.0147916
931.182	0.0148550
931.260	0.0147547
931.338	0.0146401
931.416	0.0148462
931.494	0.0148045
931.572	0.0146466
931.650	0.0145756
931.728	0.0146225
931.807	0.0145306
931.885	0.0145219
931.963	0.0145142
932.041	0.0143999
932.119	0.0143295
932.197	0.0143639
932.275	0.0144997
932.353	0.0144680
932.432	0.0142825
932.510	0.0146345
932.588	0.0145836
932.666	0.0145438
932.744	0.0146202
932.822	0.0146891
932.900	0.0146724
932.978	0.0146344
933.057	0.0146394
933.135	0.0147897
933.213	0.0147857
933.291	0.0147115
933.369	0.0149178
933.447	0.0148978
933.525	0.0148180
933.603	0.0148589
933.682	0.0148866
933.760	0.0148864
933.838	0.0147837
933.916	0.0148353
933.994	0.0148801
934.072	0.0147958
934.150	0.0147179
934.228	0.0147418
934.307	0.0147454
934.385	0.0147498
934.463	0.0147073
934.541	0.0146754
934.619	0.0146716
934.697	0.0146953
934.775	0.0146455
934.853	0.0146049
934.932	0.0147460
935.010	0.0146701
935.088	0.0147701
935.166	0.0146905
935.244	0.0146501
935.322	0.0146487
935.400	0.0146390
935.478	0.0146284
935.557	0.0145874
935.635	0.0145654
935.713	0.0147109
935.791	0.0145845
935.869	0.0146194
935.947	0.0146928
936.025	0.0145597
936.103	0.0146241
936.182	0.0147333
936.260	0.0146322
936.338	0.0145688
936.416	0.0145494
936.494	0.0147173
936.572	0.0146343
936.650	0.0145515
936.728	0.0147638
936.807	0.0146509
936.885	0.0147603
936.963	0.0146390
937.041	0.0145890
937.119	0.0145782
937.197	0.0147231
937.275	0.0147359
937.353	0.0147543
937.432	0.0146501
937.510	0.0148605
937.588	0.0147657
937.666	0.0147924
937.744	0.0147636
937.822	0.0146777
937.900	0.0147958
937.978	0.0147476
938.057	0.0146625
938.135	0.0148585
938.213	0.0148316
938.291	0.0147496
938.369	0.0147385
938.447	0.0147549
938.525	0.0148115
938.603	0.0146922
938.682	0.0146752
938.760	0.0147042
938.838	0.0146706
938.916	0.0146174
938.994	0.0146127
939.072	0.0144859
939.150	0.0145847
939.228	0.0146640
939.307	0.0145110
939.385	0.0144990
939.463	0.0146565
939.541	0.0145774
939.619	0.0145229
939.697	0.0146215
939.775	0.0146200
939.853	0.0147924
939.932	0.0146811
940.010	0.0148028
940.088	0.0147161
940.166	0.0146928
940.244	0.0147814
940.322	0.0147002
940.400	0.0148534
940.478	0.0148072
940.557	0.0148903
940.635	0.0149113
940.713	0.0148495
940.791	0.0148631
940.869	0.0149038
940.947	0.0150502
941.025	0.0149130
941.103	0.0148431
941.182	0.0150094
941.260	0.0149481
941.338	0.0147848
941.416	0.0148350
941.494	0.0149384
941.572	0.0148115
941.650	0.0147950
941.728	0.0148834
941.807	0.0148282
941.885	0.0147926
941.963	0.0146696
942.041	0.0148524
942.119	0.0148224
942.197	0.0147646
942.275	0.0149066
942.353	0.0148122
942.432	0.0148045
942.510	0.0148586
942.588	0.0149548
942.666	0.0148684
942.744	0.0148973
942.822	0.0147173
942.900	0.0148691
942.978	0.0150416
943.057	0.0150281
943.135	0.0150555
943.213	0.0149387
943.291	0.0149718
943.369	0.0150854
943.447	0.0151700
943.525	0.0151888
943.603	0.0151160
943.682	0.0151338
943.760	0.0151362
943.838	0.0151679
943.916	0.0150419
943.994	0.0150925
944.072	0.0150708
944.150	0.0149763
944.228	0.0148862
944.307	0.0148200
944.385	0.0149128
944.463	0.0149542
944.541	0.0148203
944.619	0.0148569
944.697	0.0148483
944.775	0.0147276
944.853	0.0147421
944.932	0.0145470
945.010	0.0146361
945.088	0.0146240
945.166	0.0146093
945.244	0.0145509
945.322	0.0145838
945.400	0.0146111
945.478	0.0146846
945.557	0.0146187
945.635	0.0147083
945.713	0.0144817
945.791	0.0146541
945.869	0.0146703
945.947	0.0147296
946.025	0.0148115
946.103	0.0147836
946.182	0.0148061
946.260	0.0148209
946.338	0.0148113
946.416	0.0149324
946.494	0.0148575
946.572	0.0149144
946.650	0.0150130
946.728	0.0149426
946.807	0.0151642
946.885	0.0150748
946.963	0.0149975
947.041	0.0148942
947.119	0.0151682
947.197	0.0151041
947.275	0.0150990
947.353	0.0150990
947.432	0.0150912
947.510	0.0149467
947.588	0.0151444
947.666	0.0152377
947.744	0.0150697
947.822	0.0150803
947.900	0.0150457
947.978	0.0150284
948.057	0.0150534
948.135	0.0150156
948.213	0.0149723
948.291	0.0151358
948.369	0.0151826
948.447	0.0152429
948.525	0.0152235
948.603	0.0150438
948.682	0.0151932
948.760	0.0152669
948.838	0.0153278
948.916	0.0152103
948.994	0.0151425
949.072	0.0150311
949.150	0.0151123
949.228	0.0150766
949.307	0.0150356
949.385	0.0150032
949.463	0.0149488
949.541	0.0150392
949.619	0.0150992
949.697	0.0151168
949.775	0.0149339
949.853	0.0149461
949.932	0.0149759
950.010	0.0149057
950.088	0.0147790
950.166	0.0148529
950.244	0.0149429
950.322	0.0149010
950.400	0.0148233
950.478	0.0148116
950.557	0.0147822
950.635	0.0147210
950.713	0.0147980
950.791	0.0145657
950.869	0.0146986
950.947	0.0147267
951.025	0.0145422
951.103	0.0146223
951.182	0.0147684
951.260	0.0145775
951.338	0.0145480
951.416	0.0147003
951.494	0.0146052
951.572	0.0146024
951.650	0.0145580
951.728	0.0145757
951.807	0.0145700
951.885	0.0145813
951.963	0.0146188
952.041	0.0146034
952.119	0.0145142
952.197	0.0145760
952.275	0.0145978
952.353	0.0146926
952.432	0.0145876
952.510	0.0145224
952.588	0.0144138
952.666	0.0145271
952.744	0.0146033
952.822	0.0145383
952.900	0.0146992
952.978	0.0146159
953.057	0.0145679
953.135	0.0146057
953.213	0.0146903
953.291	0.0146889
953.369	0.0147675
953.447	0.0149239
953.525	0.0148258
953.603	0.0147845
953.682	0.0149970
953.760	0.0150510
953.838	0.0150001
953.916	0.0149238
953.994	0.0149268
954.072	0.0150471
954.150	0.0150179
954.228	0.0149685
954.307	0.0150710
954.385	0.0151624
954.463	0.0151384
954.541	0.0149666
954.619	0.0149797
954.697	0.0150499
954.775	0.0149496
954.853	0.0149783
954.932	0.0149651
955.010	0.0149554
955.088	0.0148615
955.166	0.0148612
955.244	0.0148432
955.322	0.0148100
955.400	0.0146275
955.478	0.0148126
955.557	0.0147940
955.635	0.0147174
955.713	0.0147831
955.791	0.0146933
955.869	0.0146951
955.947	0.0146619
956.025	0.0144949
956.103	0.0147160
956.182	0.0147409
956.260	0.0147468
956.338	0.0146503
956.416	0.0147120
956.494	0.0145892
956.572	0.0147482
956.650	0.0148018
956.728	0.0146778
956.807	0.0146996
956.885	0.0149278
956.963	0.0147121
957.041	0.0147150
957.119	0.0147684
957.197	0.0146624
957.275	0.0147516
957.353	0.0148132
957.432	0.0148726
957.510	0.0145914
957.588	0.0146429
957.666	0.0146026
957.744	0.0146922
957.822	0.0146757
957.900	0.0146822
957.978	0.0146132
958.057	0.0147987
958.135	0.0146880
958.213	0.0147331
958.291	0.0147916
958.369	0.0146926
958.447	0.0145882
958.525	0.0145695
958.603	0.0146329
958.682	0.0147308
958.760	0.0145449
958.838	0.0146691
958.916	0.0148299
958.994	0.0145873
959.072	0.0146424
959.150	0.0146346
959.228	0.0147171
959.307	0.0147984
959.385	0.0147133
959.463	0.0146201
959.541	0.0147034
959.619	0.0146519
959.697	0.0146493
959.775	0.0146243
959.853	0.0146553
959.932	0.0146821
960.010	0.0146436
960.088	0.0145722
960.166	0.0146202
960.244	0.0148066
960.322	0.0147849
960.400	0.0147701
960.478	0.0146773
960.557	0.0147343
960.635	0.0148914
960.713	0.0148330
960.791	0.0147713
960.869	0.0148673
960.947	0.0150359
961.025	0.0150320
961.103	0.0148299
961.182	0.0147667
961.260	0.0148570
961.338	0.0148863
961.416	0.0148102
961.494	0.0147217
961.572	0.0149448
961.650	0.0149609
961.728	0.0149179
961.807	0.0148885
961.885	0.0148522
961.963	0.0149920
962.041	0.0147520
962.119	0.0148943
962.197	0.0148241
962.275	0.0147773
962.353	0.0151411
962.432	0.0148229
962.510	0.0148679
962.588	0.0148490
962.666	0.0147308
962.744	0.0147896
962.822	0.0147967
962.900	0.0148297
962.978	0.0149148
963.057	0.0148360
963.135	0.0147981
963.213	0.0148421
963.291	0.0148685
963.369	0.0147316
963.447	0.0148382
963.525	0.0148828
963.603	0.0148846
963.682	0.0148011
963.760	0.0149163
963.838	0.0149197
963.916	0.0148618
963.994	0.0148722
964.072	0.0149870
964.150	0.0147749
964.228	0.0148881
964.307	0.0148002
964.385	0.0147604
964.463	0.0147071
964.541	0.0147794
964.619	0.0147660
964.697	0.0147675
964.775	0.0147917
964.853	0.0148606
964.932	0.0148347
965.010	0.0147154
965.088	0.0147513
965.166	0.0146914
965.244	0.0146848
965.322	0.0146915
965.400	0.0146672
965.478	0.0147973
965.557	0.0147550
965.635	0.0147282
965.713	0.0148429
965.791	0.0147760
965.869	0.0147673
965.947	0.0146340
966.025	0.0147296
966.103	0.0148282
966.182	0.0148454
966.260	0.0146445
966.338	0.0149225
966.416	0.0146568
966.494	0.0147353
966.572	0.0147983
966.650	0.0147789
966.728	0.0148589
966.807	0.0147924
966.885	0.0147707
966.963	0.0148095
967.041	0.0147561
967.119	0.0147478
967.197	0.0149313
967.275	0.0148191
967.353	0.0148515
967.432	0.0148849
967.510	0.0148611
967.588	0.0148664
967.666	0.0149189
967.744	0.0150070
967.822	0.0149562
967.900	0.0148940
967.978	0.0149284
968.057	0.0148458
968.135	0.0149600
968.213	0.0150691
968.291	0.0150162
968.369	0.0151705
968.447	0.0150945
968.525	0.0148874
968.603	0.0151798
968.682	0.0149749
968.760	0.0150844
968.838	0.0150878
968.916	0.0150451
968.994	0.0153107
969.072	0.0150148
969.150	0.0152004
969.228	0.0151525
969.307	0.0151570
969.385	0.0150189
969.463	0.0149624
969.541	0.0152010
969.619	0.0151268
969.697	0.0149580
969.775	0.0149155
969.853	0.0150661
969.932	0.0152477
