05/14/2022	19:25:15	Ver.	4.1	UNKNOWN
Optical Delay	650.009681	Delta X		0.078125	Sweeps	1	Scan Rate	0/0
Coordinates	Axis 1	NaN	Axis 2	NaN	Axis 3	NaN	Axis 4	NaN	Axis 5	NaN	Axis 6	0.000000
TX Power	0.000000	RX Power	0.000000

650.010	0.0144228
650.088	0.0142315
650.166	0.0144134
650.244	0.0146140
650.322	0.0144086
650.400	0.0144857
650.478	0.0144869
650.557	0.0144118
650.635	0.0143186
650.713	0.0145392
650.791	0.0144071
650.869	0.0144317
650.947	0.0143510
651.025	0.0143543
651.103	0.0144016
651.182	0.0145167
651.260	0.0144991
651.338	0.0145316
651.416	0.0144652
651.494	0.0144329
651.572	0.0142867
651.650	0.0144309
651.728	0.0143636
651.807	0.0144222
651.885	0.0144461
651.963	0.0144518
652.041	0.0143684
652.119	0.0145244
652.197	0.0144611
652.275	0.0144426
652.353	0.0144534
652.432	0.0143348
652.510	0.0143809
652.588	0.0143942
652.666	0.0144842
652.744	0.0143758
652.822	0.0143755
652.900	0.0142818
652.978	0.0143967
653.057	0.0143646
653.135	0.0144818
653.213	0.0145856
653.291	0.0144946
653.369	0.0143836
653.447	0.0145590
653.525	0.0145242
653.603	0.0145100
653.682	0.0145296
653.760	0.0145605
653.838	0.0144347
653.916	0.0144221
653.994	0.0144885
654.072	0.0145416
654.150	0.0146317
654.228	0.0145340
654.307	0.0144511
654.385	0.0145663
654.463	0.0144172
654.541	0.0144032
654.619	0.0144420
654.697	0.0145597
654.775	0.0143324
654.853	0.0144672
654.932	0.0145412
655.010	0.0144542
655.088	0.0145454
655.166	0.0144650
655.244	0.0144417
655.322	0.0146091
655.400	0.0144727
655.478	0.0145569
655.557	0.0144920
655.635	0.0145026
655.713	0.0145142
655.791	0.0144205
655.869	0.0145412
655.947	0.0144757
656.025	0.0144366
656.103	0.0143948
656.182	0.0144736
656.260	0.0144083
656.338	0.0145149
656.416	0.0143737
656.494	0.0146036
656.572	0.0144423
656.650	0.0144917
656.728	0.0144507
656.807	0.0145001
656.885	0.0144997
656.963	0.0143407
657.041	0.0145268
657.119	0.0144410
657.197	0.0144240
657.275	0.0145175
657.353	0.0145679
657.432	0.0144577
657.510	0.0143822
657.588	0.0144405
657.666	0.0145200
657.744	0.0143784
657.822	0.0145280
657.900	0.0145449
657.978	0.0146056
658.057	0.0145286
658.135	0.0144408
658.213	0.0144109
658.291	0.0146918
658.369	0.0145276
658.447	0.0145313
658.525	0.0145277
658.603	0.0146921
658.682	0.0146485
658.760	0.0144716
658.838	0.0144573
658.916	0.0145749
658.994	0.0146511
659.072	0.0143651
659.150	0.0144034
659.228	0.0145281
659.307	0.0144051
659.385	0.0144642
659.463	0.0146075
659.541	0.0145308
659.619	0.0143503
659.697	0.0144113
659.775	0.0145302
659.853	0.0145630
659.932	0.0144358
660.010	0.0145174
660.088	0.0144585
660.166	0.0142960
660.244	0.0144103
660.322	0.0143882
660.400	0.0146548
660.478	0.0145787
660.557	0.0143948
660.635	0.0144478
660.713	0.0145292
660.791	0.0144597
660.869	0.0144750
660.947	0.0145313
661.025	0.0144746
661.103	0.0144984
661.182	0.0144888
661.260	0.0144759
661.338	0.0145689
661.416	0.0145242
661.494	0.0144331
661.572	0.0145039
661.650	0.0145308
661.728	0.0145104
661.807	0.0146420
661.885	0.0145631
661.963	0.0144994
662.041	0.0145770
662.119	0.0144561
662.197	0.0144453
662.275	0.0143383
662.353	0.0145587
662.432	0.0145017
662.510	0.0145370
662.588	0.0146332
662.666	0.0144376
662.744	0.0144547
662.822	0.0145811
662.900	0.0146684
662.978	0.0144987
663.057	0.0144956
663.135	0.0144112
663.213	0.0144444
663.291	0.0145881
663.369	0.0144765
663.447	0.0145073
663.525	0.0145934
663.603	0.0145129
663.682	0.0144366
663.760	0.0144419
663.838	0.0144537
663.916	0.0144797
663.994	0.0145148
664.072	0.0144379
664.150	0.0144276
664.228	0.0144122
664.307	0.0144302
664.385	0.0145258
664.463	0.0144447
664.541	0.0144921
664.619	0.0144748
664.697	0.0143468
664.775	0.0144652
664.853	0.0143931
664.932	0.0144249
665.010	0.0144217
665.088	0.0144235
665.166	0.0144392
665.244	0.0144544
665.322	0.0144803
665.400	0.0143642
665.478	0.0143245
665.557	0.0142757
665.635	0.0143295
665.713	0.0144030
665.791	0.0144012
665.869	0.0143858
665.947	0.0143253
666.025	0.0144219
666.103	0.0143515
666.182	0.0143744
666.260	0.0143822
666.338	0.0143009
666.416	0.0143616
666.494	0.0144041
666.572	0.0142166
666.650	0.0142960
666.728	0.0143568
666.807	0.0143063
666.885	0.0143069
666.963	0.0143605
667.041	0.0142925
667.119	0.0142700
667.197	0.0142536
667.275	0.0141740
667.353	0.0141863
667.432	0.0143877
667.510	0.0142056
667.588	0.0143030
667.666	0.0141715
667.744	0.0142609
667.822	0.0142672
667.900	0.0142180
667.978	0.0143736
668.057	0.0142489
668.135	0.0142213
668.213	0.0142175
668.291	0.0143183
668.369	0.0142308
668.447	0.0144797
668.525	0.0145572
668.603	0.0146587
668.682	0.0145174
668.760	0.0145145
668.838	0.0144302
668.916	0.0146062
668.994	0.0145966
669.072	0.0144869
669.150	0.0146149
669.228	0.0145030
669.307	0.0144729
669.385	0.0144449
669.463	0.0142786
669.541	0.0142462
669.619	0.0141429
669.697	0.0141110
669.775	0.0141693
669.853	0.0141656
669.932	0.0140648
670.010	0.0141958
670.088	0.0142221
670.166	0.0142421
670.244	0.0142918
670.322	0.0144234
670.400	0.0146154
670.478	0.0147012
670.557	0.0147379
670.635	0.0150138
670.713	0.0149421
670.791	0.0149992
670.869	0.0149381
670.947	0.0149962
671.025	0.0150566
671.103	0.0148262
671.182	0.0148203
671.260	0.0145731
671.338	0.0144573
671.416	0.0143196
671.494	0.0140559
671.572	0.0138329
671.650	0.0137265
671.728	0.0135666
671.807	0.0135113
671.885	0.0135041
671.963	0.0135622
672.041	0.0135996
672.119	0.0137859
672.197	0.0139085
672.275	0.0140923
672.353	0.0141634
672.432	0.0146806
672.510	0.0149542
672.588	0.0154082
672.666	0.0155090
672.744	0.0157028
672.822	0.0159621
672.900	0.0161465
672.978	0.0161929
673.057	0.0160047
673.135	0.0159779
673.213	0.0158950
673.291	0.0156553
673.369	0.0153799
673.447	0.0151530
673.525	0.0147719
673.603	0.0145884
673.682	0.0142323
673.760	0.0138216
673.838	0.0137040
673.916	0.0132254
673.994	0.0131182
674.072	0.0130474
674.150	0.0130063
674.228	0.0127112
674.307	0.0128597
674.385	0.0131255
674.463	0.0131362
674.541	0.0132494
674.619	0.0133560
674.697	0.0135282
674.775	0.0138074
674.853	0.0140158
674.932	0.0142821
675.010	0.0144639
675.088	0.0147532
675.166	0.0150363
675.244	0.0154756
675.322	0.0155965
675.400	0.0157897
675.478	0.0160787
675.557	0.0163508
675.635	0.0164287
675.713	0.0164847
675.791	0.0165849
675.869	0.0164488
675.947	0.0163704
676.025	0.0161684
676.103	0.0158347
676.182	0.0155531
676.260	0.0153913
676.338	0.0150680
676.416	0.0145385
676.494	0.0140887
676.572	0.0137592
676.650	0.0135480
676.728	0.0131216
676.807	0.0130224
676.885	0.0128448
676.963	0.0127486
677.041	0.0128915
677.119	0.0128585
677.197	0.0130820
677.275	0.0133214
677.353	0.0136179
677.432	0.0137686
677.510	0.0140353
677.588	0.0144059
677.666	0.0144557
677.744	0.0146422
677.822	0.0147966
677.900	0.0150240
677.978	0.0150383
678.057	0.0149551
678.135	0.0149899
678.213	0.0149095
678.291	0.0148647
678.369	0.0148795
678.447	0.0148730
678.525	0.0147504
678.603	0.0146683
678.682	0.0145644
678.760	0.0145509
678.838	0.0143547
678.916	0.0141992
678.994	0.0140992
679.072	0.0139742
679.150	0.0141816
679.228	0.0139687
679.307	0.0139095
679.385	0.0139445
679.463	0.0141582
679.541	0.0141924
679.619	0.0143766
679.697	0.0147393
679.775	0.0149124
679.853	0.0151566
679.932	0.0154832
680.010	0.0156562
680.088	0.0157063
680.166	0.0160132
680.244	0.0160149
680.322	0.0158780
680.400	0.0159910
680.478	0.0159595
680.557	0.0157813
680.635	0.0157849
680.713	0.0157008
680.791	0.0156241
680.869	0.0153933
680.947	0.0152508
681.025	0.0151376
681.103	0.0148899
681.182	0.0146609
681.260	0.0143205
681.338	0.0140176
681.416	0.0136195
681.494	0.0134167
681.572	0.0130274
681.650	0.0127204
681.728	0.0120883
681.807	0.0118864
681.885	0.0113877
681.963	0.0110435
682.041	0.0107784
682.119	0.0106122
682.197	0.0106382
682.275	0.0105463
682.353	0.0106725
682.432	0.0109469
682.510	0.0113705
682.588	0.0119851
682.666	0.0126685
682.744	0.0133057
682.822	0.0140345
682.900	0.0147601
682.978	0.0156233
683.057	0.0162736
683.135	0.0170785
683.213	0.0175848
683.291	0.0180499
683.369	0.0184085
683.447	0.0188152
683.525	0.0190715
683.603	0.0190069
683.682	0.0191181
683.760	0.0188864
683.838	0.0187805
683.916	0.0185422
683.994	0.0182055
684.072	0.0177029
684.150	0.0175615
684.228	0.0168299
684.307	0.0161432
684.385	0.0156613
684.463	0.0150105
684.541	0.0142865
684.619	0.0137464
684.697	0.0131708
684.775	0.0125334
684.853	0.0119473
684.932	0.0113223
685.010	0.0110722
685.088	0.0106290
685.166	0.0105013
685.244	0.0103790
685.322	0.0103075
685.400	0.0104742
685.478	0.0104838
685.557	0.0107573
685.635	0.0108067
685.713	0.0111105
685.791	0.0113324
685.869	0.0117171
685.947	0.0119668
686.025	0.0120860
686.103	0.0125643
686.182	0.0128735
686.260	0.0134142
686.338	0.0140952
686.416	0.0144395
686.494	0.0150305
686.572	0.0156127
686.650	0.0159640
686.728	0.0164211
686.807	0.0166466
686.885	0.0169924
686.963	0.0171584
687.041	0.0171050
687.119	0.0170409
687.197	0.0169851
687.275	0.0167278
687.353	0.0165379
687.432	0.0162246
687.510	0.0159248
687.588	0.0155651
687.666	0.0155505
687.744	0.0153222
687.822	0.0152581
687.900	0.0152323
687.978	0.0153687
688.057	0.0154260
688.135	0.0157355
688.213	0.0158212
688.291	0.0160442
688.369	0.0162121
688.447	0.0163171
688.525	0.0164124
688.603	0.0162731
688.682	0.0161214
688.760	0.0159625
688.838	0.0156306
688.916	0.0151543
688.994	0.0147983
689.072	0.0140564
689.150	0.0134847
689.228	0.0128635
689.307	0.0122705
689.385	0.0118098
689.463	0.0113527
689.541	0.0108200
689.619	0.0105389
689.697	0.0102981
689.775	0.0100371
689.853	0.0101845
689.932	0.0102755
690.010	0.0102233
690.088	0.0105409
690.166	0.0108101
690.244	0.0110832
690.322	0.0114019
690.400	0.0119286
690.478	0.0123950
690.557	0.0128396
690.635	0.0135829
690.713	0.0140826
690.791	0.0145313
690.869	0.0152956
690.947	0.0158224
691.025	0.0163609
691.103	0.0170500
691.182	0.0175427
691.260	0.0179809
691.338	0.0183452
691.416	0.0184302
691.494	0.0184924
691.572	0.0185355
691.650	0.0182279
691.728	0.0179762
691.807	0.0176039
691.885	0.0172168
691.963	0.0166164
692.041	0.0162958
692.119	0.0156340
692.197	0.0149872
692.275	0.0143805
692.353	0.0139497
692.432	0.0133892
692.510	0.0131762
692.588	0.0128761
692.666	0.0124655
692.744	0.0123386
692.822	0.0123595
692.900	0.0124215
692.978	0.0123039
693.057	0.0124971
693.135	0.0126351
693.213	0.0128180
693.291	0.0132968
693.369	0.0135580
693.447	0.0137791
693.525	0.0141251
693.603	0.0144288
693.682	0.0146825
693.760	0.0150388
693.838	0.0150511
693.916	0.0152690
693.994	0.0154040
694.072	0.0153067
694.150	0.0154896
694.228	0.0154913
694.307	0.0153420
694.385	0.0153738
694.463	0.0154488
694.541	0.0152596
694.619	0.0151501
694.697	0.0151261
694.775	0.0151389
694.853	0.0149584
694.932	0.0150252
695.010	0.0149048
695.088	0.0146872
695.166	0.0145060
695.244	0.0144212
695.322	0.0142778
695.400	0.0141477
695.478	0.0139011
695.557	0.0137408
695.635	0.0135944
695.713	0.0135176
695.791	0.0133893
695.869	0.0134547
695.947	0.0135496
696.025	0.0136166
696.103	0.0137508
696.182	0.0138775
696.260	0.0140205
696.338	0.0142452
696.416	0.0142143
696.494	0.0142645
696.572	0.0145145
696.650	0.0145940
696.728	0.0146294
696.807	0.0144260
696.885	0.0143014
696.963	0.0141177
697.041	0.0139443
697.119	0.0136565
697.197	0.0131689
697.275	0.0130512
697.353	0.0129942
697.432	0.0126627
697.510	0.0128253
697.588	0.0128147
697.666	0.0128642
697.744	0.0133768
697.822	0.0135200
697.900	0.0140594
697.978	0.0146405
698.057	0.0148231
698.135	0.0153246
698.213	0.0157493
698.291	0.0163029
698.369	0.0167722
698.447	0.0169917
698.525	0.0173032
698.603	0.0174201
698.682	0.0177243
698.760	0.0178427
698.838	0.0176660
698.916	0.0179366
698.994	0.0178922
699.072	0.0179477
699.150	0.0175221
699.228	0.0174648
699.307	0.0171319
699.385	0.0166484
699.463	0.0161565
699.541	0.0157430
699.619	0.0151374
699.697	0.0143618
699.775	0.0138421
699.853	0.0131554
699.932	0.0125971
700.010	0.0121362
700.088	0.0117830
700.166	0.0114510
700.244	0.0113174
700.322	0.0112311
700.400	0.0112093
700.478	0.0114021
700.557	0.0115289
700.635	0.0116414
700.713	0.0119091
700.791	0.0121925
700.869	0.0125473
700.947	0.0127051
701.025	0.0128095
701.103	0.0129239
701.182	0.0131921
701.260	0.0134174
701.338	0.0136343
701.416	0.0136727
701.494	0.0137651
701.572	0.0139349
701.650	0.0139368
701.728	0.0142915
701.807	0.0143627
701.885	0.0143715
701.963	0.0146946
702.041	0.0148086
702.119	0.0150776
702.197	0.0154010
702.275	0.0153078
702.353	0.0155056
702.432	0.0155488
702.510	0.0155688
702.588	0.0156679
702.666	0.0157845
702.744	0.0156883
702.822	0.0157230
702.900	0.0157647
702.978	0.0156406
703.057	0.0157337
703.135	0.0156297
703.213	0.0157832
703.291	0.0158747
703.369	0.0157915
703.447	0.0160587
703.525	0.0160682
703.603	0.0161260
703.682	0.0161396
703.760	0.0163330
703.838	0.0161228
703.916	0.0161901
703.994	0.0163522
704.072	0.0161897
704.150	0.0160947
704.228	0.0160572
704.307	0.0159615
704.385	0.0158776
704.463	0.0156302
704.541	0.0154094
704.619	0.0152220
704.697	0.0151912
704.775	0.0149859
704.853	0.0147359
704.932	0.0145721
705.010	0.0143685
705.088	0.0141586
705.166	0.0140141
705.244	0.0138848
705.322	0.0135452
705.400	0.0133267
705.478	0.0130594
705.557	0.0128947
705.635	0.0126723
705.713	0.0126981
705.791	0.0124255
705.869	0.0121935
705.947	0.0119901
706.025	0.0118152
706.103	0.0117509
706.182	0.0117273
706.260	0.0115656
706.338	0.0117889
706.416	0.0118230
706.494	0.0118246
706.572	0.0120209
706.650	0.0122034
706.728	0.0123259
706.807	0.0127745
706.885	0.0129807
706.963	0.0132262
707.041	0.0135570
707.119	0.0139859
707.197	0.0142455
707.275	0.0146741
707.353	0.0149213
707.432	0.0150770
707.510	0.0151448
707.588	0.0153310
707.666	0.0155070
707.744	0.0156851
707.822	0.0156882
707.900	0.0157377
707.978	0.0157316
708.057	0.0157712
708.135	0.0158020
708.213	0.0158209
708.291	0.0159059
708.369	0.0161586
708.447	0.0161108
708.525	0.0162226
708.603	0.0163665
708.682	0.0164789
708.760	0.0165815
708.838	0.0165919
708.916	0.0164583
708.994	0.0163625
709.072	0.0162444
709.150	0.0161423
709.228	0.0158941
709.307	0.0157052
709.385	0.0154422
709.463	0.0151376
709.541	0.0148718
709.619	0.0145985
709.697	0.0143295
709.775	0.0142302
709.853	0.0137263
709.932	0.0136536
710.010	0.0136169
710.088	0.0135727
710.166	0.0135493
710.244	0.0133830
710.322	0.0135281
710.400	0.0136566
710.478	0.0136536
710.557	0.0136344
710.635	0.0136482
710.713	0.0138255
710.791	0.0137240
710.869	0.0136700
710.947	0.0135966
711.025	0.0135021
711.103	0.0132839
711.182	0.0132135
711.260	0.0129958
711.338	0.0129080
711.416	0.0128299
711.494	0.0129156
711.572	0.0128281
711.650	0.0130349
711.728	0.0130762
711.807	0.0133235
711.885	0.0134919
711.963	0.0136896
712.041	0.0138727
712.119	0.0140448
712.197	0.0141837
712.275	0.0143008
712.353	0.0143031
712.432	0.0142248
712.510	0.0144915
712.588	0.0145070
712.666	0.0144779
712.744	0.0145634
712.822	0.0144456
712.900	0.0143768
712.978	0.0144067
713.057	0.0142874
713.135	0.0142355
713.213	0.0143085
713.291	0.0142613
713.369	0.0142489
713.447	0.0140671
713.525	0.0142122
713.603	0.0144754
713.682	0.0144514
713.760	0.0146350
713.838	0.0146876
713.916	0.0146761
713.994	0.0148724
714.072	0.0150052
714.150	0.0150713
714.228	0.0154044
714.307	0.0155848
714.385	0.0155602
714.463	0.0156157
714.541	0.0156741
714.619	0.0159354
714.697	0.0157484
714.775	0.0158073
714.853	0.0156641
714.932	0.0155727
715.010	0.0154220
715.088	0.0154088
715.166	0.0153537
715.244	0.0153294
715.322	0.0150814
715.400	0.0151077
715.478	0.0151842
715.557	0.0150778
715.635	0.0150317
715.713	0.0150191
715.791	0.0150269
715.869	0.0150331
715.947	0.0149640
716.025	0.0150057
716.103	0.0149165
716.182	0.0148304
716.260	0.0147698
716.338	0.0145912
716.416	0.0144157
716.494	0.0143277
716.572	0.0142042
716.650	0.0139893
716.728	0.0137222
716.807	0.0136277
716.885	0.0135388
716.963	0.0134980
717.041	0.0134068
717.119	0.0132304
717.197	0.0132255
717.275	0.0132604
717.353	0.0132825
717.432	0.0131464
717.510	0.0132716
717.588	0.0132861
717.666	0.0132338
717.744	0.0133819
717.822	0.0134969
717.900	0.0135789
717.978	0.0135047
718.057	0.0137106
718.135	0.0137305
718.213	0.0139131
718.291	0.0138580
718.369	0.0138847
718.447	0.0140801
718.525	0.0142215
718.603	0.0142593
718.682	0.0143116
718.760	0.0144098
718.838	0.0146106
718.916	0.0145763
718.994	0.0146606
719.072	0.0148167
719.150	0.0149834
719.228	0.0150898
719.307	0.0153307
719.385	0.0155220
719.463	0.0156211
719.541	0.0157238
719.619	0.0158637
719.697	0.0160702
719.775	0.0157624
719.853	0.0159602
719.932	0.0158344
720.010	0.0156799
720.088	0.0156150
720.166	0.0155065
720.244	0.0154893
720.322	0.0150695
720.400	0.0149416
720.478	0.0148097
720.557	0.0146083
720.635	0.0144402
720.713	0.0142894
720.791	0.0141350
720.869	0.0140474
720.947	0.0139433
721.025	0.0141087
721.103	0.0140527
721.182	0.0137762
721.260	0.0138873
721.338	0.0140747
721.416	0.0139490
721.494	0.0140031
721.572	0.0140677
721.650	0.0142787
721.728	0.0142605
721.807	0.0142622
721.885	0.0144865
721.963	0.0145305
722.041	0.0147198
722.119	0.0147601
722.197	0.0145582
722.275	0.0147238
722.353	0.0148743
722.432	0.0148104
722.510	0.0147783
722.588	0.0148258
722.666	0.0147765
722.744	0.0146900
722.822	0.0146514
722.900	0.0146807
722.978	0.0145743
723.057	0.0146350
723.135	0.0145414
723.213	0.0146436
723.291	0.0146168
723.369	0.0144893
723.447	0.0144382
723.525	0.0143530
723.603	0.0145190
723.682	0.0143018
723.760	0.0142709
723.838	0.0143658
723.916	0.0142743
723.994	0.0142836
724.072	0.0141845
724.150	0.0141304
724.228	0.0140376
724.307	0.0140371
724.385	0.0140102
724.463	0.0139551
724.541	0.0139096
724.619	0.0138760
724.697	0.0138727
724.775	0.0138773
724.853	0.0138351
724.932	0.0139043
725.010	0.0139156
725.088	0.0138223
725.166	0.0137951
725.244	0.0137962
725.322	0.0138819
725.400	0.0139619
725.478	0.0141473
725.557	0.0143989
725.635	0.0145264
725.713	0.0145814
725.791	0.0147266
725.869	0.0147109
725.947	0.0148766
726.025	0.0150365
726.103	0.0149992
726.182	0.0151802
726.260	0.0151424
726.338	0.0152364
726.416	0.0151647
726.494	0.0151597
726.572	0.0149979
726.650	0.0149111
726.728	0.0148302
726.807	0.0148622
726.885	0.0147617
726.963	0.0148387
727.041	0.0147430
727.119	0.0146161
727.197	0.0144840
727.275	0.0144426
727.353	0.0145785
727.432	0.0144712
727.510	0.0143598
727.588	0.0143069
727.666	0.0142386
727.744	0.0143919
727.822	0.0144688
727.900	0.0142207
727.978	0.0142227
728.057	0.0142168
728.135	0.0142230
728.213	0.0141138
728.291	0.0141326
728.369	0.0141402
728.447	0.0141750
728.525	0.0140432
728.603	0.0139516
728.682	0.0140453
728.760	0.0140072
728.838	0.0139989
728.916	0.0140585
728.994	0.0141737
729.072	0.0141277
729.150	0.0141753
729.228	0.0143583
729.307	0.0144492
729.385	0.0146301
729.463	0.0147295
729.541	0.0147836
729.619	0.0148152
729.697	0.0151241
729.775	0.0151646
729.853	0.0151560
729.932	0.0152409
730.010	0.0151450
730.088	0.0151867
730.166	0.0151008
730.244	0.0151150
730.322	0.0150159
730.400	0.0149126
730.478	0.0149892
730.557	0.0149006
730.635	0.0146765
730.713	0.0147751
730.791	0.0144852
730.869	0.0143859
730.947	0.0143126
731.025	0.0142344
731.103	0.0141557
731.182	0.0141467
731.260	0.0140583
731.338	0.0139468
731.416	0.0139373
731.494	0.0137755
731.572	0.0138446
731.650	0.0137313
731.728	0.0136222
731.807	0.0136208
731.885	0.0136140
731.963	0.0135198
732.041	0.0135610
732.119	0.0137072
732.197	0.0136102
732.275	0.0136980
732.353	0.0139676
732.432	0.0138788
732.510	0.0139368
732.588	0.0140176
732.666	0.0141376
732.744	0.0142921
732.822	0.0143924
732.900	0.0144154
732.978	0.0142111
733.057	0.0144247
733.135	0.0144823
733.213	0.0143601
733.291	0.0144542
733.369	0.0145680
733.447	0.0143491
733.525	0.0143356
733.603	0.0145020
733.682	0.0146955
733.760	0.0146031
733.838	0.0147792
733.916	0.0148470
733.994	0.0148417
734.072	0.0149480
734.150	0.0149961
734.228	0.0151765
734.307	0.0151394
734.385	0.0150287
734.463	0.0150958
734.541	0.0152374
734.619	0.0152972
734.697	0.0152469
734.775	0.0151196
734.853	0.0151069
734.932	0.0150900
735.010	0.0151068
735.088	0.0151580
735.166	0.0150039
735.244	0.0149621
735.322	0.0149464
735.400	0.0147938
735.478	0.0150128
735.557	0.0149634
735.635	0.0150096
735.713	0.0150175
735.791	0.0151465
735.869	0.0153313
735.947	0.0153523
736.025	0.0152850
736.103	0.0154519
736.182	0.0154464
736.260	0.0154101
736.338	0.0154921
736.416	0.0154697
736.494	0.0152344
736.572	0.0151487
736.650	0.0150726
736.728	0.0149485
736.807	0.0146864
736.885	0.0145670
736.963	0.0144806
737.041	0.0142972
737.119	0.0140139
737.197	0.0138401
737.275	0.0137267
737.353	0.0137346
737.432	0.0135786
737.510	0.0132527
737.588	0.0132563
737.666	0.0133810
737.744	0.0132289
737.822	0.0132523
737.900	0.0132426
737.978	0.0132932
738.057	0.0131197
738.135	0.0131580
738.213	0.0133470
738.291	0.0134299
738.369	0.0135460
738.447	0.0134815
738.525	0.0138299
738.603	0.0138197
738.682	0.0139921
738.760	0.0141354
738.838	0.0143726
738.916	0.0144051
738.994	0.0145081
739.072	0.0145771
739.150	0.0147699
739.228	0.0148609
739.307	0.0149168
739.385	0.0148383
739.463	0.0147805
739.541	0.0148492
739.619	0.0148008
739.697	0.0147750
739.775	0.0149681
739.853	0.0149030
739.932	0.0149171
740.010	0.0150105
740.088	0.0148839
740.166	0.0149532
740.244	0.0148822
740.322	0.0150353
740.400	0.0150967
740.478	0.0149606
740.557	0.0150250
740.635	0.0151400
740.713	0.0150430
740.791	0.0149719
740.869	0.0149477
740.947	0.0151239
741.025	0.0150585
741.103	0.0148457
741.182	0.0148001
741.260	0.0146947
741.338	0.0147036
741.416	0.0146072
741.494	0.0147153
741.572	0.0145331
741.650	0.0145400
741.728	0.0144868
741.807	0.0146272
741.885	0.0145892
741.963	0.0146402
742.041	0.0145243
742.119	0.0144385
742.197	0.0144827
742.275	0.0146644
742.353	0.0147026
742.432	0.0147242
742.510	0.0149786
742.588	0.0146519
742.666	0.0148013
742.744	0.0149068
742.822	0.0150092
742.900	0.0150519
742.978	0.0150173
743.057	0.0149801
743.135	0.0149278
743.213	0.0149556
743.291	0.0148396
743.369	0.0149007
743.447	0.0146749
743.525	0.0144720
743.603	0.0144474
743.682	0.0142316
743.760	0.0141721
743.838	0.0138404
743.916	0.0137796
743.994	0.0136321
744.072	0.0135963
744.150	0.0132524
744.228	0.0130460
744.307	0.0131310
744.385	0.0129744
744.463	0.0128423
744.541	0.0129553
744.619	0.0130022
744.697	0.0130806
744.775	0.0131837
744.853	0.0133337
744.932	0.0133783
745.010	0.0136963
745.088	0.0139428
745.166	0.0139759
745.244	0.0141000
745.322	0.0141298
745.400	0.0142699
745.478	0.0143802
745.557	0.0145663
745.635	0.0144127
745.713	0.0144237
745.791	0.0144546
745.869	0.0144380
745.947	0.0144218
746.025	0.0143198
746.103	0.0142089
746.182	0.0143362
746.260	0.0142028
746.338	0.0142381
746.416	0.0143065
746.494	0.0144160
746.572	0.0143814
746.650	0.0143823
746.728	0.0146592
746.807	0.0145677
746.885	0.0148155
746.963	0.0149458
747.041	0.0148418
747.119	0.0149767
747.197	0.0151022
747.275	0.0149433
747.353	0.0152463
747.432	0.0150299
747.510	0.0149853
747.588	0.0149138
747.666	0.0148801
747.744	0.0148477
747.822	0.0148125
747.900	0.0146033
747.978	0.0146227
748.057	0.0145172
748.135	0.0147124
748.213	0.0144494
748.291	0.0144244
748.369	0.0144974
748.447	0.0145346
748.525	0.0145580
748.603	0.0146349
748.682	0.0146725
748.760	0.0146726
748.838	0.0148131
748.916	0.0148572
748.994	0.0149792
749.072	0.0150650
749.150	0.0151410
749.228	0.0151241
749.307	0.0151492
749.385	0.0152995
749.463	0.0153495
749.541	0.0151472
749.619	0.0152519
749.697	0.0150862
749.775	0.0148833
749.853	0.0147930
749.932	0.0147477
750.010	0.0145955
750.088	0.0145027
750.166	0.0144230
750.244	0.0141026
750.322	0.0139272
750.400	0.0138482
750.478	0.0135957
750.557	0.0133991
750.635	0.0133626
750.713	0.0132317
750.791	0.0132127
750.869	0.0131222
750.947	0.0132034
751.025	0.0132991
751.103	0.0132041
751.182	0.0132379
751.260	0.0132707
751.338	0.0136037
751.416	0.0136904
751.494	0.0136230
751.572	0.0136569
751.650	0.0138481
751.728	0.0139128
751.807	0.0139735
751.885	0.0140862
751.963	0.0139948
752.041	0.0143616
752.119	0.0142943
752.197	0.0143168
752.275	0.0142653
752.353	0.0144041
752.432	0.0143476
752.510	0.0143742
752.588	0.0144604
752.666	0.0142747
752.744	0.0143951
752.822	0.0143242
752.900	0.0144549
752.978	0.0145773
753.057	0.0145159
753.135	0.0144261
753.213	0.0145000
753.291	0.0144404
753.369	0.0145868
753.447	0.0147394
753.525	0.0147671
753.603	0.0149619
753.682	0.0149252
753.760	0.0149216
753.838	0.0149629
753.916	0.0151598
753.994	0.0151373
754.072	0.0152835
754.150	0.0153979
754.228	0.0152106
754.307	0.0152470
754.385	0.0153196
754.463	0.0151721
754.541	0.0150851
754.619	0.0151391
754.697	0.0151950
754.775	0.0149673
754.853	0.0150220
754.932	0.0150562
755.010	0.0149734
755.088	0.0147662
755.166	0.0149770
755.244	0.0148662
755.322	0.0147328
755.400	0.0148076
755.478	0.0147746
755.557	0.0148231
755.635	0.0148023
755.713	0.0147842
755.791	0.0148724
755.869	0.0148412
755.947	0.0149673
756.025	0.0149434
756.103	0.0148354
756.182	0.0149786
756.260	0.0149236
756.338	0.0148844
756.416	0.0149409
756.494	0.0149757
756.572	0.0148093
756.650	0.0147414
756.728	0.0146140
756.807	0.0145280
756.885	0.0144008
756.963	0.0142789
757.041	0.0142442
757.119	0.0139204
757.197	0.0137573
757.275	0.0137021
757.353	0.0135316
757.432	0.0137047
757.510	0.0135103
757.588	0.0135335
757.666	0.0135545
757.744	0.0135513
757.822	0.0134972
757.900	0.0137057
757.978	0.0137984
758.057	0.0137150
758.135	0.0139250
758.213	0.0141040
758.291	0.0139792
758.369	0.0141718
758.447	0.0141932
758.525	0.0143564
758.603	0.0143621
758.682	0.0144176
758.760	0.0145240
758.838	0.0145064
758.916	0.0144804
758.994	0.0145803
759.072	0.0145193
759.150	0.0145744
759.228	0.0145957
759.307	0.0147830
759.385	0.0145659
759.463	0.0145877
759.541	0.0146720
759.619	0.0145355
759.697	0.0146680
759.775	0.0144423
759.853	0.0145810
759.932	0.0146050
760.010	0.0146334
760.088	0.0145788
760.166	0.0145437
760.244	0.0147008
760.322	0.0148543
760.400	0.0146832
760.478	0.0148005
760.557	0.0147762
760.635	0.0148811
760.713	0.0148056
760.791	0.0148730
760.869	0.0148815
760.947	0.0150056
761.025	0.0149930
761.103	0.0149760
761.182	0.0149669
761.260	0.0150087
761.338	0.0148962
761.416	0.0149399
761.494	0.0150981
761.572	0.0148971
761.650	0.0148440
761.728	0.0147604
761.807	0.0148283
761.885	0.0148183
761.963	0.0147797
762.041	0.0146851
762.119	0.0147151
762.197	0.0146799
762.275	0.0146780
762.353	0.0147945
762.432	0.0149662
762.510	0.0148921
762.588	0.0149071
762.666	0.0149770
762.744	0.0150739
762.822	0.0151483
762.900	0.0151147
762.978	0.0149734
763.057	0.0150495
763.135	0.0151011
763.213	0.0150694
763.291	0.0150996
763.369	0.0149041
763.447	0.0146590
763.525	0.0146393
763.603	0.0145009
763.682	0.0143291
763.760	0.0142745
763.838	0.0139659
763.916	0.0139059
763.994	0.0136774
764.072	0.0136274
764.150	0.0134377
764.228	0.0134461
764.307	0.0134619
764.385	0.0134057
764.463	0.0135695
764.541	0.0135410
764.619	0.0134713
764.697	0.0136317
764.775	0.0137696
764.853	0.0137318
764.932	0.0139980
765.010	0.0140189
765.088	0.0140473
765.166	0.0141416
765.244	0.0141612
765.322	0.0141293
765.400	0.0143095
765.478	0.0144141
765.557	0.0142809
765.635	0.0145168
765.713	0.0145390
765.791	0.0144003
765.869	0.0143529
765.947	0.0143860
766.025	0.0142713
766.103	0.0143322
766.182	0.0143753
766.260	0.0143149
766.338	0.0141903
766.416	0.0143124
766.494	0.0144767
766.572	0.0145132
766.650	0.0145112
766.728	0.0145289
766.807	0.0145734
766.885	0.0145948
766.963	0.0147841
767.041	0.0147070
767.119	0.0147404
767.197	0.0148172
767.275	0.0149052
767.353	0.0149330
767.432	0.0148537
767.510	0.0148366
767.588	0.0149651
767.666	0.0149877
767.744	0.0148036
767.822	0.0149096
767.900	0.0148081
767.978	0.0149660
768.057	0.0148554
768.135	0.0146534
768.213	0.0147226
768.291	0.0147722
768.369	0.0147483
768.447	0.0146320
768.525	0.0146468
768.603	0.0145998
768.682	0.0146348
768.760	0.0146661
768.838	0.0145576
768.916	0.0146758
768.994	0.0145615
769.072	0.0146013
769.150	0.0146268
769.228	0.0147375
769.307	0.0147064
769.385	0.0146124
769.463	0.0145029
769.541	0.0145351
769.619	0.0147163
769.697	0.0145549
769.775	0.0146210
769.853	0.0145885
769.932	0.0143869
770.010	0.0143523
770.088	0.0144118
770.166	0.0142838
770.244	0.0142194
770.322	0.0143168
770.400	0.0141824
770.478	0.0141205
770.557	0.0140556
770.635	0.0140942
770.713	0.0139935
770.791	0.0138935
770.869	0.0138443
770.947	0.0138800
771.025	0.0138325
771.103	0.0139685
771.182	0.0139990
771.260	0.0139130
771.338	0.0139994
771.416	0.0141327
771.494	0.0141986
771.572	0.0142078
771.650	0.0142244
771.728	0.0143756
771.807	0.0144431
771.885	0.0144589
771.963	0.0144662
772.041	0.0144243
772.119	0.0145096
772.197	0.0145155
772.275	0.0145036
772.353	0.0145749
772.432	0.0145116
772.510	0.0145058
772.588	0.0145244
772.666	0.0146239
772.744	0.0145276
772.822	0.0144753
772.900	0.0144678
772.978	0.0145484
773.057	0.0144610
773.135	0.0144995
773.213	0.0145158
773.291	0.0145810
773.369	0.0144253
773.447	0.0144809
773.525	0.0146255
773.603	0.0146165
773.682	0.0147128
773.760	0.0147042
773.838	0.0145596
773.916	0.0145350
773.994	0.0146614
774.072	0.0148865
774.150	0.0148737
774.228	0.0147601
774.307	0.0147535
774.385	0.0148859
774.463	0.0148338
774.541	0.0147736
774.619	0.0149357
774.697	0.0148965
774.775	0.0147952
774.853	0.0146911
774.932	0.0146437
775.010	0.0147607
775.088	0.0147579
775.166	0.0145827
775.244	0.0146698
775.322	0.0147411
775.400	0.0147573
775.478	0.0146657
775.557	0.0145649
775.635	0.0145995
775.713	0.0145793
775.791	0.0147845
775.869	0.0147166
775.947	0.0145505
776.025	0.0145673
776.103	0.0145680
776.182	0.0144661
776.260	0.0144420
776.338	0.0144278
776.416	0.0144167
776.494	0.0143707
776.572	0.0143719
776.650	0.0144316
776.728	0.0143821
776.807	0.0144249
776.885	0.0143446
776.963	0.0144218
777.041	0.0142778
777.119	0.0143674
777.197	0.0143027
777.275	0.0142229
777.353	0.0141576
777.432	0.0142357
777.510	0.0142557
777.588	0.0141298
777.666	0.0140945
777.744	0.0140526
777.822	0.0139690
777.900	0.0138933
777.978	0.0139457
778.057	0.0139176
778.135	0.0139348
778.213	0.0139573
778.291	0.0139913
778.369	0.0139123
778.447	0.0140754
778.525	0.0139671
778.603	0.0140466
778.682	0.0139739
778.760	0.0139480
778.838	0.0139838
778.916	0.0140289
778.994	0.0140072
779.072	0.0142348
779.150	0.0141689
779.228	0.0140448
779.307	0.0142101
779.385	0.0142596
779.463	0.0144792
779.541	0.0145071
779.619	0.0145792
779.697	0.0145898
779.775	0.0145672
779.853	0.0146419
779.932	0.0147453
780.010	0.0148045
780.088	0.0149425
780.166	0.0149510
780.244	0.0148455
780.322	0.0149267
780.400	0.0150906
780.478	0.0150085
780.557	0.0148770
780.635	0.0150417
780.713	0.0150558
780.791	0.0149710
780.869	0.0149017
780.947	0.0148208
781.025	0.0147729
781.103	0.0147393
781.182	0.0146397
781.260	0.0146188
781.338	0.0146986
781.416	0.0145652
781.494	0.0144716
781.572	0.0144938
781.650	0.0143517
781.728	0.0145763
781.807	0.0145703
781.885	0.0145125
781.963	0.0144308
782.041	0.0143929
782.119	0.0142869
782.197	0.0143362
782.275	0.0143672
782.353	0.0143319
782.432	0.0142285
782.510	0.0144025
782.588	0.0144051
782.666	0.0143280
782.744	0.0144299
782.822	0.0144566
782.900	0.0145856
782.978	0.0146847
783.057	0.0145880
783.135	0.0147123
783.213	0.0147632
783.291	0.0148038
783.369	0.0148257
783.447	0.0148582
783.525	0.0148080
783.603	0.0147205
783.682	0.0147447
783.760	0.0147250
783.838	0.0147250
783.916	0.0146006
783.994	0.0146597
784.072	0.0146655
784.150	0.0145691
784.228	0.0144986
784.307	0.0144482
784.385	0.0144771
784.463	0.0143958
784.541	0.0143436
784.619	0.0142873
784.697	0.0142361
784.775	0.0142467
784.853	0.0141908
784.932	0.0143588
785.010	0.0143859
785.088	0.0143163
785.166	0.0142553
785.244	0.0142000
785.322	0.0143707
785.400	0.0144237
785.478	0.0142755
785.557	0.0143793
785.635	0.0141632
785.713	0.0142219
785.791	0.0139338
785.869	0.0139842
785.947	0.0139326
786.025	0.0139154
786.103	0.0139278
786.182	0.0138766
786.260	0.0138235
786.338	0.0136840
786.416	0.0136585
786.494	0.0138636
786.572	0.0139136
786.650	0.0139874
786.728	0.0137748
786.807	0.0139591
786.885	0.0140856
786.963	0.0141836
787.041	0.0142606
787.119	0.0142211
787.197	0.0143652
787.275	0.0145026
787.353	0.0144729
787.432	0.0146982
787.510	0.0146789
787.588	0.0147639
787.666	0.0147373
787.744	0.0148234
787.822	0.0149976
787.900	0.0150149
787.978	0.0151401
788.057	0.0150587
788.135	0.0151320
788.213	0.0151693
788.291	0.0150407
788.369	0.0150320
788.447	0.0149595
788.525	0.0151253
788.603	0.0150674
788.682	0.0150168
788.760	0.0151056
788.838	0.0150729
788.916	0.0149329
788.994	0.0148752
789.072	0.0148645
789.150	0.0147948
789.228	0.0146616
789.307	0.0145921
789.385	0.0146821
789.463	0.0145341
789.541	0.0144335
789.619	0.0143934
789.697	0.0145906
789.775	0.0145551
789.853	0.0144594
789.932	0.0146140
790.010	0.0145227
790.088	0.0144884
790.166	0.0145679
790.244	0.0145103
790.322	0.0146286
790.400	0.0143544
790.478	0.0143169
790.557	0.0143765
790.635	0.0144526
790.713	0.0142364
790.791	0.0142900
790.869	0.0143162
790.947	0.0143941
791.025	0.0143332
791.103	0.0143322
791.182	0.0143559
791.260	0.0144360
791.338	0.0144149
791.416	0.0144214
791.494	0.0144193
791.572	0.0145022
791.650	0.0145078
791.728	0.0145500
791.807	0.0145023
791.885	0.0142617
791.963	0.0143150
792.041	0.0145112
792.119	0.0142233
792.197	0.0143939
792.275	0.0143655
792.353	0.0143579
792.432	0.0143374
792.510	0.0143055
792.588	0.0142879
792.666	0.0144039
792.744	0.0143338
792.822	0.0143272
792.900	0.0142259
792.978	0.0140473
793.057	0.0141817
793.135	0.0143321
793.213	0.0141791
793.291	0.0140379
793.369	0.0141151
793.447	0.0140270
793.525	0.0141545
793.603	0.0140640
793.682	0.0140034
793.760	0.0141090
793.838	0.0141148
793.916	0.0140573
793.994	0.0142925
794.072	0.0142979
794.150	0.0142525
794.228	0.0142861
794.307	0.0145128
794.385	0.0146425
794.463	0.0146893
794.541	0.0146366
794.619	0.0146944
794.697	0.0148145
794.775	0.0150072
794.853	0.0148829
794.932	0.0150478
795.010	0.0150477
795.088	0.0150927
795.166	0.0151209
795.244	0.0151546
795.322	0.0152023
795.400	0.0151457
795.478	0.0151898
795.557	0.0152224
795.635	0.0151143
795.713	0.0150476
795.791	0.0150410
795.869	0.0149507
795.947	0.0149194
796.025	0.0145816
796.103	0.0147528
796.182	0.0146461
796.260	0.0145303
796.338	0.0144173
796.416	0.0144916
796.494	0.0144593
796.572	0.0143944
796.650	0.0144162
796.728	0.0143761
796.807	0.0142544
796.885	0.0144253
796.963	0.0144849
797.041	0.0143795
797.119	0.0143521
797.197	0.0144971
797.275	0.0145031
797.353	0.0144754
797.432	0.0144935
797.510	0.0143987
797.588	0.0144252
797.666	0.0143924
797.744	0.0144987
797.822	0.0144501
797.900	0.0144588
797.978	0.0143702
798.057	0.0145006
798.135	0.0144859
798.213	0.0144554
798.291	0.0143672
798.369	0.0144090
798.447	0.0143224
798.525	0.0143393
798.603	0.0141885
798.682	0.0143227
798.760	0.0142719
798.838	0.0141992
798.916	0.0142861
798.994	0.0142271
799.072	0.0140651
799.150	0.0141876
799.228	0.0142584
799.307	0.0141932
799.385	0.0142834
799.463	0.0143478
799.541	0.0143068
799.619	0.0143327
799.697	0.0144679
799.775	0.0142986
799.853	0.0141717
799.932	0.0145189
800.010	0.0144585
800.088	0.0144068
800.166	0.0144785
800.244	0.0146058
800.322	0.0146835
800.400	0.0145595
800.478	0.0148313
800.557	0.0147739
800.635	0.0148338
800.713	0.0147813
800.791	0.0149162
800.869	0.0147718
800.947	0.0149249
801.025	0.0147928
801.103	0.0148179
801.182	0.0148956
801.260	0.0147936
801.338	0.0146333
801.416	0.0147496
801.494	0.0146378
801.572	0.0145311
801.650	0.0145257
801.728	0.0143793
801.807	0.0141619
801.885	0.0141341
801.963	0.0141538
802.041	0.0140989
802.119	0.0140482
802.197	0.0138396
802.275	0.0139507
802.353	0.0140472
802.432	0.0140826
802.510	0.0140157
802.588	0.0140927
802.666	0.0141479
802.744	0.0140909
802.822	0.0141550
802.900	0.0141758
802.978	0.0142060
803.057	0.0141980
803.135	0.0143257
803.213	0.0143867
803.291	0.0143871
803.369	0.0141919
803.447	0.0143000
803.525	0.0143469
803.603	0.0144289
803.682	0.0143245
803.760	0.0143484
803.838	0.0145857
803.916	0.0145290
803.994	0.0145005
804.072	0.0146632
804.150	0.0146558
804.228	0.0146180
804.307	0.0146608
804.385	0.0148209
804.463	0.0146874
804.541	0.0146809
804.619	0.0147562
804.697	0.0148193
804.775	0.0149125
804.853	0.0147907
804.932	0.0148666
805.010	0.0149407
805.088	0.0148808
805.166	0.0147958
805.244	0.0149630
805.322	0.0148962
805.400	0.0148930
805.478	0.0147633
805.557	0.0147942
805.635	0.0147815
805.713	0.0147265
805.791	0.0145949
805.869	0.0145393
805.947	0.0145493
806.025	0.0144778
806.103	0.0143507
806.182	0.0143059
806.260	0.0141859
806.338	0.0140812
806.416	0.0140998
806.494	0.0140058
806.572	0.0139716
806.650	0.0138915
806.728	0.0138062
806.807	0.0139741
806.885	0.0139677
806.963	0.0139931
807.041	0.0138297
807.119	0.0140377
807.197	0.0140560
807.275	0.0141199
807.353	0.0142323
807.432	0.0140405
807.510	0.0141734
807.588	0.0142604
807.666	0.0143084
807.744	0.0143894
807.822	0.0143015
807.900	0.0142921
807.978	0.0142626
808.057	0.0142142
808.135	0.0142860
808.213	0.0144059
808.291	0.0142059
808.369	0.0142725
808.447	0.0143358
808.525	0.0142917
808.603	0.0143645
808.682	0.0143441
808.760	0.0142815
808.838	0.0144637
808.916	0.0145031
808.994	0.0144376
809.072	0.0145162
809.150	0.0144615
809.228	0.0144513
809.307	0.0144382
809.385	0.0147671
809.463	0.0146243
809.541	0.0146534
809.619	0.0146493
809.697	0.0146245
809.775	0.0147761
809.853	0.0147736
809.932	0.0147292
810.010	0.0145784
810.088	0.0147672
810.166	0.0147726
810.244	0.0145922
810.322	0.0146121
810.400	0.0148334
810.478	0.0145599
810.557	0.0146800
810.635	0.0147449
810.713	0.0146043
810.791	0.0145428
810.869	0.0145658
810.947	0.0145721
811.025	0.0146772
811.103	0.0146864
811.182	0.0145090
811.260	0.0146824
811.338	0.0146010
811.416	0.0146572
811.494	0.0146596
811.572	0.0147864
811.650	0.0146576
811.728	0.0146312
811.807	0.0145744
811.885	0.0146008
811.963	0.0145603
812.041	0.0145213
812.119	0.0147243
812.197	0.0147511
812.275	0.0146355
812.353	0.0144332
812.432	0.0146510
812.510	0.0146844
812.588	0.0143993
812.666	0.0144552
812.744	0.0143365
812.822	0.0142719
812.900	0.0143005
812.978	0.0141691
813.057	0.0141510
813.135	0.0140174
813.213	0.0140162
813.291	0.0141287
813.369	0.0138715
813.447	0.0140317
813.525	0.0138896
813.603	0.0138544
813.682	0.0140002
813.760	0.0138619
813.838	0.0139317
813.916	0.0139585
813.994	0.0141367
814.072	0.0140976
814.150	0.0141563
814.228	0.0142701
814.307	0.0143533
814.385	0.0142922
814.463	0.0144122
814.541	0.0143177
814.619	0.0145707
814.697	0.0146049
814.775	0.0146535
814.853	0.0147960
814.932	0.0147987
815.010	0.0148473
815.088	0.0149399
815.166	0.0149034
815.244	0.0149482
815.322	0.0149722
815.400	0.0149998
815.478	0.0148734
815.557	0.0147424
815.635	0.0148181
815.713	0.0147928
815.791	0.0148399
815.869	0.0147454
815.947	0.0147154
816.025	0.0148042
816.103	0.0145964
816.182	0.0146990
816.260	0.0147967
816.338	0.0147243
816.416	0.0146539
816.494	0.0146974
816.572	0.0147554
816.650	0.0146066
816.728	0.0148826
816.807	0.0147898
816.885	0.0148763
816.963	0.0148373
817.041	0.0147021
817.119	0.0148399
817.197	0.0148999
817.275	0.0147797
817.353	0.0147935
817.432	0.0148733
817.510	0.0148570
817.588	0.0147937
817.666	0.0148254
817.744	0.0148132
817.822	0.0146320
817.900	0.0146174
817.978	0.0145935
818.057	0.0144110
818.135	0.0145315
818.213	0.0145431
818.291	0.0143704
818.369	0.0142892
818.447	0.0143492
818.525	0.0142062
818.603	0.0142193
818.682	0.0143670
818.760	0.0143714
818.838	0.0143000
818.916	0.0143137
818.994	0.0144592
819.072	0.0144118
819.150	0.0145218
819.228	0.0144639
819.307	0.0145331
819.385	0.0144101
819.463	0.0145708
819.541	0.0145076
819.619	0.0144882
819.697	0.0146426
819.775	0.0145752
819.853	0.0145564
819.932	0.0146284
820.010	0.0144279
820.088	0.0144640
820.166	0.0144813
820.244	0.0142685
820.322	0.0143053
820.400	0.0142479
820.478	0.0141885
820.557	0.0141754
820.635	0.0142384
820.713	0.0141608
820.791	0.0142016
820.869	0.0141750
820.947	0.0141774
821.025	0.0142938
821.103	0.0143044
821.182	0.0142585
821.260	0.0143799
821.338	0.0144231
821.416	0.0144942
821.494	0.0144696
821.572	0.0144681
821.650	0.0145297
821.728	0.0144988
821.807	0.0143993
821.885	0.0144801
821.963	0.0145406
822.041	0.0145522
822.119	0.0145801
822.197	0.0145570
822.275	0.0144039
822.353	0.0144073
822.432	0.0144632
822.510	0.0144171
822.588	0.0143207
822.666	0.0143375
822.744	0.0144153
822.822	0.0145491
822.900	0.0144978
822.978	0.0142743
823.057	0.0143320
823.135	0.0143701
823.213	0.0144172
823.291	0.0143063
823.369	0.0141699
823.447	0.0143085
823.525	0.0143681
823.603	0.0141390
823.682	0.0141026
823.760	0.0143303
823.838	0.0143102
823.916	0.0142747
823.994	0.0141602
824.072	0.0141406
824.150	0.0142763
824.228	0.0142352
824.307	0.0142024
824.385	0.0143468
824.463	0.0143578
824.541	0.0143204
824.619	0.0144385
824.697	0.0145572
824.775	0.0145854
824.853	0.0147263
824.932	0.0147367
825.010	0.0147575
825.088	0.0148906
825.166	0.0149722
825.244	0.0148611
825.322	0.0150648
825.400	0.0150582
825.478	0.0148988
825.557	0.0150547
825.635	0.0149974
825.713	0.0149768
825.791	0.0148080
825.869	0.0148901
825.947	0.0149207
826.025	0.0148211
826.103	0.0148219
826.182	0.0147820
826.260	0.0145000
826.338	0.0147458
826.416	0.0146887
826.494	0.0144897
826.572	0.0141716
826.650	0.0143280
826.728	0.0142704
826.807	0.0142462
826.885	0.0142789
826.963	0.0140406
827.041	0.0141947
827.119	0.0142161
827.197	0.0141605
827.275	0.0140273
827.353	0.0140745
827.432	0.0140448
827.510	0.0141582
827.588	0.0140611
827.666	0.0141527
827.744	0.0141673
827.822	0.0141268
827.900	0.0141460
827.978	0.0141483
828.057	0.0142112
828.135	0.0143340
828.213	0.0143234
828.291	0.0142422
828.369	0.0143640
828.447	0.0143994
828.525	0.0143453
828.603	0.0141690
828.682	0.0144301
828.760	0.0143346
828.838	0.0143919
828.916	0.0143481
828.994	0.0144057
829.072	0.0143199
829.150	0.0144668
829.228	0.0145728
829.307	0.0144786
829.385	0.0145680
829.463	0.0143730
829.541	0.0143551
829.619	0.0144363
829.697	0.0144555
829.775	0.0144823
829.853	0.0144899
829.932	0.0143659
830.010	0.0143464
830.088	0.0143649
830.166	0.0143422
830.244	0.0144583
830.322	0.0142281
830.400	0.0142798
830.478	0.0142786
830.557	0.0141602
830.635	0.0142867
830.713	0.0142794
830.791	0.0143111
830.869	0.0142725
830.947	0.0141703
831.025	0.0142513
831.103	0.0144398
831.182	0.0146429
831.260	0.0146745
831.338	0.0145991
831.416	0.0146229
831.494	0.0147227
831.572	0.0148383
831.650	0.0148194
831.728	0.0148598
831.807	0.0150978
831.885	0.0151530
831.963	0.0152818
832.041	0.0151139
832.119	0.0150626
832.197	0.0149815
832.275	0.0151211
832.353	0.0151742
832.432	0.0149966
832.510	0.0151243
832.588	0.0150046
832.666	0.0150539
832.744	0.0149203
832.822	0.0148820
832.900	0.0147913
832.978	0.0146715
833.057	0.0146528
833.135	0.0147099
833.213	0.0145850
833.291	0.0145223
833.369	0.0143943
833.447	0.0145049
833.525	0.0142941
833.603	0.0143047
833.682	0.0143769
833.760	0.0142590
833.838	0.0142808
833.916	0.0144273
833.994	0.0141956
834.072	0.0142339
834.150	0.0143352
834.228	0.0143242
834.307	0.0142960
834.385	0.0142942
834.463	0.0141370
834.541	0.0142381
834.619	0.0141325
834.697	0.0140874
834.775	0.0141939
834.853	0.0139793
834.932	0.0140183
835.010	0.0140608
835.088	0.0140487
835.166	0.0139762
835.244	0.0140042
835.322	0.0140951
835.400	0.0142058
835.478	0.0142670
835.557	0.0142307
835.635	0.0143995
835.713	0.0143386
835.791	0.0142951
835.869	0.0143561
835.947	0.0144153
836.025	0.0144523
836.103	0.0144335
836.182	0.0144106
836.260	0.0145692
836.338	0.0145441
836.416	0.0145116
836.494	0.0145605
836.572	0.0146334
836.650	0.0145342
836.728	0.0145155
836.807	0.0147135
836.885	0.0146702
836.963	0.0145215
837.041	0.0145756
837.119	0.0146602
837.197	0.0148741
837.275	0.0148273
837.353	0.0148553
837.432	0.0145782
837.510	0.0146738
837.588	0.0145622
837.666	0.0147311
837.744	0.0144445
837.822	0.0146124
837.900	0.0145017
837.978	0.0144408
838.057	0.0144730
838.135	0.0146267
838.213	0.0143994
838.291	0.0145190
838.369	0.0144331
838.447	0.0144624
838.525	0.0144415
838.603	0.0143243
838.682	0.0144257
838.760	0.0145077
838.838	0.0145000
838.916	0.0143843
838.994	0.0144820
839.072	0.0145168
839.150	0.0142276
839.228	0.0145292
839.307	0.0145026
839.385	0.0143148
839.463	0.0146209
839.541	0.0144876
839.619	0.0145069
839.697	0.0147105
839.775	0.0147234
839.853	0.0146940
839.932	0.0147698
840.010	0.0146971
840.088	0.0148389
840.166	0.0149029
840.244	0.0150539
840.322	0.0149259
840.400	0.0149992
840.478	0.0148637
840.557	0.0149266
840.635	0.0149139
840.713	0.0148383
840.791	0.0147522
840.869	0.0147949
840.947	0.0146231
841.025	0.0145790
841.103	0.0144976
841.182	0.0143900
841.260	0.0142054
841.338	0.0142266
841.416	0.0140141
841.494	0.0142355
841.572	0.0141330
841.650	0.0138828
841.728	0.0138274
841.807	0.0139229
841.885	0.0138552
841.963	0.0138024
842.041	0.0138316
842.119	0.0137318
842.197	0.0138463
842.275	0.0137841
842.353	0.0138744
842.432	0.0139645
842.510	0.0139102
842.588	0.0138921
842.666	0.0140182
842.744	0.0140691
842.822	0.0140642
842.900	0.0141649
842.978	0.0141757
843.057	0.0142931
843.135	0.0141678
843.213	0.0143848
843.291	0.0142724
843.369	0.0143341
843.447	0.0145300
843.525	0.0146387
843.603	0.0145656
843.682	0.0145718
843.760	0.0145548
843.838	0.0146761
843.916	0.0146716
843.994	0.0145258
844.072	0.0146945
844.150	0.0146973
844.228	0.0146325
844.307	0.0145756
844.385	0.0147749
844.463	0.0146544
844.541	0.0147327
844.619	0.0145505
844.697	0.0146275
844.775	0.0145612
844.853	0.0144245
844.932	0.0146860
845.010	0.0146409
845.088	0.0144329
845.166	0.0146445
845.244	0.0145219
845.322	0.0144273
845.400	0.0144003
845.478	0.0143665
845.557	0.0144893
845.635	0.0145673
845.713	0.0144706
845.791	0.0145910
845.869	0.0145118
845.947	0.0144510
846.025	0.0144123
846.103	0.0146648
846.182	0.0147260
846.260	0.0145653
846.338	0.0147800
846.416	0.0147693
846.494	0.0146716
846.572	0.0146869
846.650	0.0147076
846.728	0.0146004
846.807	0.0146819
846.885	0.0146737
846.963	0.0144689
847.041	0.0144546
847.119	0.0145203
847.197	0.0145219
847.275	0.0144461
847.353	0.0144780
847.432	0.0143331
847.510	0.0143324
847.588	0.0143027
847.666	0.0143218
847.744	0.0143996
847.822	0.0142994
847.900	0.0142236
847.978	0.0141581
848.057	0.0143890
848.135	0.0141798
848.213	0.0140958
848.291	0.0141943
848.369	0.0142365
848.447	0.0142548
848.525	0.0142647
848.603	0.0141692
848.682	0.0141297
848.760	0.0141457
848.838	0.0141265
848.916	0.0140052
848.994	0.0140759
849.072	0.0141161
849.150	0.0139172
849.228	0.0139167
849.307	0.0140255
849.385	0.0141346
849.463	0.0140832
849.541	0.0139670
849.619	0.0141001
849.697	0.0142249
849.775	0.0141222
849.853	0.0141332
849.932	0.0142311
850.010	0.0142142
850.088	0.0142096
850.166	0.0144667
850.244	0.0146432
850.322	0.0145808
850.400	0.0144600
850.478	0.0143993
850.557	0.0145066
850.635	0.0147405
850.713	0.0147314
850.791	0.0146356
850.869	0.0147465
850.947	0.0146199
851.025	0.0145814
851.103	0.0146990
851.182	0.0148884
851.260	0.0146862
851.338	0.0146098
851.416	0.0145395
851.494	0.0146815
851.572	0.0145012
851.650	0.0144066
851.728	0.0145785
851.807	0.0143565
851.885	0.0143154
851.963	0.0143592
852.041	0.0143892
852.119	0.0144063
852.197	0.0141389
852.275	0.0142683
852.353	0.0143604
852.432	0.0141723
852.510	0.0142173
852.588	0.0143035
852.666	0.0144901
852.744	0.0143678
852.822	0.0141354
852.900	0.0142938
852.978	0.0142782
853.057	0.0142756
853.135	0.0142569
853.213	0.0143528
853.291	0.0144830
853.369	0.0143696
853.447	0.0144265
853.525	0.0144939
853.603	0.0144825
853.682	0.0145369
853.760	0.0143795
853.838	0.0144115
853.916	0.0144839
853.994	0.0145374
854.072	0.0143156
854.150	0.0145476
854.228	0.0145396
854.307	0.0146072
854.385	0.0146272
854.463	0.0143604
854.541	0.0145827
854.619	0.0145268
854.697	0.0145705
854.775	0.0143951
854.853	0.0145253
854.932	0.0145028
855.010	0.0143476
855.088	0.0144337
855.166	0.0145223
855.244	0.0145037
855.322	0.0145156
855.400	0.0145090
855.478	0.0144376
855.557	0.0143472
855.635	0.0144772
855.713	0.0143291
855.791	0.0142356
855.869	0.0142741
855.947	0.0144256
856.025	0.0143278
856.103	0.0142933
856.182	0.0142941
856.260	0.0141601
856.338	0.0142525
856.416	0.0143408
856.494	0.0142873
856.572	0.0142036
856.650	0.0142986
856.728	0.0144136
856.807	0.0143681
856.885	0.0142580
856.963	0.0144559
857.041	0.0143714
857.119	0.0144290
857.197	0.0144695
857.275	0.0144601
857.353	0.0144804
857.432	0.0145432
857.510	0.0145897
857.588	0.0145754
857.666	0.0146150
857.744	0.0146111
857.822	0.0147431
857.900	0.0146207
857.978	0.0145905
858.057	0.0146969
858.135	0.0147964
858.213	0.0147826
858.291	0.0148349
858.369	0.0146989
858.447	0.0148370
858.525	0.0146629
858.603	0.0147168
858.682	0.0147414
858.760	0.0147263
858.838	0.0147392
858.916	0.0148447
858.994	0.0147252
859.072	0.0148032
859.150	0.0146368
859.228	0.0148299
859.307	0.0147240
859.385	0.0145614
859.463	0.0146873
859.541	0.0147233
859.619	0.0147527
859.697	0.0146166
859.775	0.0146352
859.853	0.0146185
859.932	0.0146809
860.010	0.0146014
860.088	0.0145108
860.166	0.0146403
860.244	0.0144446
860.322	0.0144486
860.400	0.0145055
860.478	0.0144035
860.557	0.0146208
860.635	0.0144637
860.713	0.0145187
860.791	0.0146141
860.869	0.0145897
860.947	0.0144828
861.025	0.0144640
861.103	0.0147087
861.182	0.0146381
861.260	0.0146024
861.338	0.0145648
861.416	0.0146689
861.494	0.0146748
861.572	0.0146610
861.650	0.0145959
861.728	0.0146540
861.807	0.0147471
861.885	0.0148434
861.963	0.0146847
862.041	0.0148281
862.119	0.0146610
862.197	0.0146960
862.275	0.0147852
862.353	0.0147454
862.432	0.0148237
862.510	0.0147721
862.588	0.0146729
862.666	0.0146085
862.744	0.0143970
862.822	0.0144263
862.900	0.0146018
862.978	0.0144791
863.057	0.0143651
863.135	0.0143282
863.213	0.0145007
863.291	0.0143461
863.369	0.0143407
863.447	0.0142819
863.525	0.0144648
863.603	0.0143930
863.682	0.0144444
863.760	0.0143740
863.838	0.0144641
863.916	0.0143699
863.994	0.0145292
864.072	0.0145899
864.150	0.0145916
864.228	0.0145497
864.307	0.0146232
864.385	0.0146841
864.463	0.0146138
864.541	0.0145320
864.619	0.0146009
864.697	0.0145155
864.775	0.0145118
864.853	0.0143754
864.932	0.0143675
865.010	0.0143281
865.088	0.0142310
865.166	0.0141434
865.244	0.0141800
865.322	0.0142053
865.400	0.0141715
865.478	0.0140292
865.557	0.0141315
865.635	0.0141461
865.713	0.0141682
865.791	0.0141729
865.869	0.0141456
865.947	0.0142459
866.025	0.0142908
866.103	0.0142772
866.182	0.0141542
866.260	0.0141930
866.338	0.0142819
866.416	0.0142825
866.494	0.0143902
866.572	0.0143916
866.650	0.0142421
866.728	0.0143513
866.807	0.0142710
866.885	0.0141978
866.963	0.0143230
867.041	0.0142626
867.119	0.0142200
867.197	0.0143337
867.275	0.0143147
867.353	0.0143509
867.432	0.0142297
867.510	0.0143120
867.588	0.0143148
867.666	0.0142229
867.744	0.0143977
867.822	0.0144251
867.900	0.0143346
867.978	0.0142613
868.057	0.0143393
868.135	0.0144560
868.213	0.0142244
868.291	0.0142996
868.369	0.0143880
868.447	0.0143901
868.525	0.0144555
868.603	0.0144158
868.682	0.0144754
868.760	0.0144279
868.838	0.0145732
868.916	0.0145589
868.994	0.0146455
869.072	0.0145963
869.150	0.0145557
869.228	0.0145626
869.307	0.0145837
869.385	0.0145646
869.463	0.0145062
869.541	0.0144946
869.619	0.0145270
869.697	0.0145333
869.775	0.0144878
869.853	0.0143768
869.932	0.0143249
870.010	0.0143707
870.088	0.0144147
870.166	0.0142268
870.244	0.0140997
870.322	0.0143271
870.400	0.0143009
870.478	0.0143214
870.557	0.0141617
870.635	0.0142371
870.713	0.0143035
870.791	0.0141750
870.869	0.0141344
870.947	0.0142044
871.025	0.0140807
871.103	0.0142288
871.182	0.0142797
871.260	0.0141829
871.338	0.0141850
871.416	0.0142347
871.494	0.0142400
871.572	0.0142625
871.650	0.0143253
871.728	0.0144221
871.807	0.0144763
871.885	0.0145154
871.963	0.0144334
872.041	0.0143350
872.119	0.0146191
872.197	0.0146597
872.275	0.0145380
872.353	0.0145638
872.432	0.0146401
872.510	0.0145750
872.588	0.0145291
872.666	0.0144013
872.744	0.0144810
872.822	0.0144812
872.900	0.0144957
872.978	0.0145284
873.057	0.0144468
873.135	0.0143356
873.213	0.0143465
873.291	0.0142249
873.369	0.0142328
873.447	0.0142912
873.525	0.0143200
873.603	0.0142989
873.682	0.0141737
873.760	0.0142336
873.838	0.0141222
873.916	0.0141718
873.994	0.0142390
874.072	0.0143904
874.150	0.0142280
874.228	0.0145019
874.307	0.0143863
874.385	0.0145422
874.463	0.0146267
874.541	0.0145753
874.619	0.0146654
874.697	0.0148180
874.775	0.0146777
874.853	0.0147424
874.932	0.0146908
875.010	0.0148562
875.088	0.0147881
875.166	0.0148714
875.244	0.0148595
875.322	0.0147279
875.400	0.0147308
875.478	0.0146825
875.557	0.0146689
875.635	0.0146286
875.713	0.0145538
875.791	0.0145956
875.869	0.0144445
875.947	0.0144725
876.025	0.0143085
876.103	0.0142741
876.182	0.0142640
876.260	0.0141454
876.338	0.0140351
876.416	0.0140279
876.494	0.0140860
876.572	0.0139815
876.650	0.0139948
876.728	0.0140772
876.807	0.0141061
876.885	0.0142301
876.963	0.0140108
877.041	0.0141834
877.119	0.0142375
877.197	0.0143436
877.275	0.0142081
877.353	0.0141445
877.432	0.0142686
877.510	0.0141821
877.588	0.0142947
877.666	0.0142933
877.744	0.0142871
877.822	0.0143562
877.900	0.0143105
877.978	0.0143499
878.057	0.0143606
878.135	0.0144776
878.213	0.0146272
878.291	0.0145090
878.369	0.0145432
878.447	0.0147729
878.525	0.0148048
878.603	0.0146450
878.682	0.0147164
878.760	0.0147594
878.838	0.0148662
878.916	0.0147353
878.994	0.0147706
879.072	0.0148067
879.150	0.0146030
879.228	0.0146683
879.307	0.0145450
879.385	0.0146702
879.463	0.0145193
879.541	0.0144997
879.619	0.0145633
879.697	0.0146536
879.775	0.0145949
879.853	0.0146554
879.932	0.0146288
880.010	0.0146970
880.088	0.0147846
880.166	0.0146552
880.244	0.0145028
880.322	0.0147784
880.400	0.0146423
880.478	0.0146532
880.557	0.0145354
880.635	0.0145343
880.713	0.0144975
880.791	0.0144284
880.869	0.0143815
880.947	0.0141982
881.025	0.0142489
881.103	0.0141785
881.182	0.0141397
881.260	0.0140676
881.338	0.0140778
881.416	0.0140102
881.494	0.0141406
881.572	0.0141753
881.650	0.0142343
881.728	0.0142152
881.807	0.0143353
881.885	0.0143105
881.963	0.0144390
882.041	0.0144450
882.119	0.0145948
882.197	0.0146464
882.275	0.0146903
882.353	0.0146223
882.432	0.0148767
882.510	0.0147982
882.588	0.0147891
882.666	0.0149013
882.744	0.0150230
882.822	0.0149625
882.900	0.0149786
882.978	0.0148429
883.057	0.0149284
883.135	0.0149405
883.213	0.0148590
883.291	0.0148019
883.369	0.0145892
883.447	0.0146900
883.525	0.0146401
883.603	0.0144307
883.682	0.0143270
883.760	0.0143597
883.838	0.0142117
883.916	0.0140833
883.994	0.0140311
884.072	0.0141704
884.150	0.0142481
884.228	0.0142125
884.307	0.0139547
884.385	0.0141305
884.463	0.0143961
884.541	0.0142281
884.619	0.0143291
884.697	0.0145055
884.775	0.0144523
884.853	0.0146369
884.932	0.0145815
885.010	0.0146098
885.088	0.0147070
885.166	0.0148281
885.244	0.0148444
885.322	0.0149364
885.400	0.0149854
885.478	0.0147958
885.557	0.0148734
885.635	0.0149039
885.713	0.0149736
885.791	0.0149348
885.869	0.0147928
885.947	0.0147478
886.025	0.0145915
886.103	0.0146880
886.182	0.0147810
886.260	0.0145702
886.338	0.0146041
886.416	0.0146754
886.494	0.0145287
886.572	0.0144115
886.650	0.0143572
886.728	0.0143312
886.807	0.0143580
886.885	0.0142685
886.963	0.0143237
887.041	0.0142610
887.119	0.0142422
887.197	0.0143444
887.275	0.0143637
887.353	0.0143851
887.432	0.0142661
887.510	0.0143329
887.588	0.0144702
887.666	0.0144119
887.744	0.0143474
887.822	0.0143949
887.900	0.0144894
887.978	0.0145009
888.057	0.0144872
888.135	0.0144624
888.213	0.0144526
888.291	0.0143828
888.369	0.0143607
888.447	0.0142604
888.525	0.0142358
888.603	0.0142848
888.682	0.0141483
888.760	0.0141502
888.838	0.0141624
888.916	0.0141509
888.994	0.0139503
889.072	0.0139876
889.150	0.0139477
889.228	0.0139441
889.307	0.0140924
889.385	0.0141738
889.463	0.0141515
889.541	0.0143130
889.619	0.0144088
889.697	0.0144041
889.775	0.0145805
889.853	0.0146308
889.932	0.0148901
890.010	0.0149290
890.088	0.0148376
890.166	0.0148807
890.244	0.0151034
890.322	0.0149603
890.400	0.0149922
890.478	0.0147328
890.557	0.0149511
890.635	0.0149976
890.713	0.0148282
890.791	0.0149458
890.869	0.0146638
890.947	0.0146349
891.025	0.0146152
891.103	0.0145193
891.182	0.0145732
891.260	0.0145435
891.338	0.0143351
891.416	0.0142002
891.494	0.0141487
891.572	0.0141963
891.650	0.0139880
891.728	0.0140274
891.807	0.0141585
891.885	0.0142278
891.963	0.0141872
892.041	0.0142438
892.119	0.0142677
892.197	0.0143311
892.275	0.0144700
892.353	0.0144178
892.432	0.0145461
892.510	0.0146545
892.588	0.0147140
892.666	0.0146668
892.744	0.0146119
892.822	0.0147002
892.900	0.0146699
892.978	0.0147459
893.057	0.0146938
893.135	0.0148252
893.213	0.0146864
893.291	0.0147787
893.369	0.0147498
893.447	0.0145589
893.525	0.0146986
893.603	0.0145422
893.682	0.0146794
893.760	0.0145482
893.838	0.0144921
893.916	0.0145953
893.994	0.0145533
894.072	0.0144793
894.150	0.0145078
894.228	0.0145043
894.307	0.0143025
894.385	0.0143568
894.463	0.0144386
894.541	0.0144662
894.619	0.0143069
894.697	0.0143324
894.775	0.0141734
894.853	0.0145138
894.932	0.0145024
895.010	0.0144908
895.088	0.0144086
895.166	0.0144792
895.244	0.0146018
895.322	0.0147636
895.400	0.0146029
895.478	0.0145898
895.557	0.0147425
895.635	0.0147055
895.713	0.0146864
895.791	0.0148279
895.869	0.0147722
895.947	0.0147620
896.025	0.0146049
896.103	0.0145470
896.182	0.0145142
896.260	0.0145564
896.338	0.0145535
896.416	0.0143337
896.494	0.0145102
896.572	0.0143624
896.650	0.0145179
896.728	0.0142332
896.807	0.0142311
896.885	0.0142996
896.963	0.0143948
897.041	0.0143671
897.119	0.0145188
897.197	0.0143397
897.275	0.0143479
897.353	0.0144336
897.432	0.0144801
897.510	0.0144675
897.588	0.0143873
897.666	0.0144559
897.744	0.0145047
897.822	0.0143915
897.900	0.0143793
897.978	0.0143615
898.057	0.0143784
898.135	0.0143476
898.213	0.0144146
898.291	0.0145127
898.369	0.0144415
898.447	0.0144562
898.525	0.0144953
898.603	0.0145696
898.682	0.0145094
898.760	0.0144335
898.838	0.0144695
898.916	0.0144856
898.994	0.0145631
899.072	0.0145355
899.150	0.0145110
899.228	0.0146777
899.307	0.0145773
899.385	0.0144913
899.463	0.0144041
899.541	0.0147155
899.619	0.0145613
899.697	0.0144760
899.775	0.0145200
899.853	0.0144857
899.932	0.0145412
900.010	0.0143196
900.088	0.0144115
900.166	0.0145664
900.244	0.0144444
900.322	0.0145386
900.400	0.0145316
900.478	0.0145454
900.557	0.0142191
900.635	0.0144431
900.713	0.0145566
900.791	0.0144736
900.869	0.0144743
900.947	0.0145164
901.025	0.0145047
901.103	0.0144700
901.182	0.0145785
901.260	0.0144922
901.338	0.0144543
901.416	0.0144842
901.494	0.0145504
901.572	0.0145807
901.650	0.0145180
901.728	0.0144405
901.807	0.0144537
901.885	0.0145304
901.963	0.0145390
902.041	0.0145253
902.119	0.0145190
902.197	0.0145059
902.275	0.0143822
902.353	0.0145586
902.432	0.0143916
902.510	0.0144051
902.588	0.0142432
902.666	0.0143497
902.744	0.0141472
902.822	0.0141335
902.900	0.0140913
902.978	0.0140640
903.057	0.0141309
903.135	0.0140951
903.213	0.0140002
903.291	0.0139690
903.369	0.0140103
903.447	0.0140729
903.525	0.0141228
903.603	0.0140852
903.682	0.0140723
903.760	0.0141432
903.838	0.0143060
903.916	0.0143249
903.994	0.0142085
904.072	0.0142381
904.150	0.0144733
904.228	0.0143420
904.307	0.0145026
904.385	0.0144254
904.463	0.0144977
904.541	0.0145184
904.619	0.0145212
904.697	0.0145075
904.775	0.0143475
904.853	0.0145606
904.932	0.0143987
905.010	0.0146273
905.088	0.0144687
905.166	0.0144579
905.244	0.0145150
905.322	0.0145163
905.400	0.0144273
905.478	0.0144427
905.557	0.0144784
905.635	0.0146389
905.713	0.0146911
905.791	0.0145940
905.869	0.0145271
905.947	0.0144155
906.025	0.0145657
906.103	0.0147340
906.182	0.0146700
906.260	0.0146919
906.338	0.0145999
906.416	0.0147096
906.494	0.0147250
906.572	0.0146924
906.650	0.0146886
906.728	0.0144740
906.807	0.0145064
906.885	0.0145545
906.963	0.0144994
907.041	0.0145756
907.119	0.0145552
907.197	0.0145090
907.275	0.0145132
907.353	0.0144138
907.432	0.0143776
907.510	0.0142851
907.588	0.0143616
907.666	0.0144308
907.744	0.0144965
907.822	0.0142113
907.900	0.0144164
907.978	0.0143797
908.057	0.0143189
908.135	0.0142908
908.213	0.0142996
908.291	0.0143470
908.369	0.0143642
908.447	0.0143933
908.525	0.0143728
908.603	0.0143415
908.682	0.0144096
908.760	0.0144379
908.838	0.0144555
908.916	0.0143277
908.994	0.0143703
909.072	0.0143708
909.150	0.0144176
909.228	0.0142551
909.307	0.0144408
909.385	0.0143735
909.463	0.0143834
909.541	0.0143769
909.619	0.0143666
909.697	0.0144872
909.775	0.0143983
909.853	0.0143808
909.932	0.0144696
910.010	0.0144666
910.088	0.0144189
910.166	0.0145027
910.244	0.0144882
910.322	0.0145010
910.400	0.0145464
910.478	0.0146225
910.557	0.0144961
910.635	0.0146008
910.713	0.0146257
910.791	0.0145246
910.869	0.0145856
910.947	0.0145419
911.025	0.0146796
911.103	0.0148216
911.182	0.0147411
911.260	0.0146030
911.338	0.0147766
911.416	0.0147695
911.494	0.0146377
911.572	0.0148398
911.650	0.0147562
911.728	0.0149173
911.807	0.0146511
911.885	0.0147221
911.963	0.0146352
912.041	0.0147221
912.119	0.0146725
912.197	0.0145451
912.275	0.0145178
912.353	0.0145329
912.432	0.0144726
912.510	0.0143847
912.588	0.0144290
912.666	0.0144472
912.744	0.0145197
912.822	0.0144858
912.900	0.0145074
912.978	0.0145368
913.057	0.0146297
913.135	0.0145882
913.213	0.0145401
913.291	0.0144256
913.369	0.0144553
913.447	0.0144572
913.525	0.0145727
913.603	0.0145588
913.682	0.0143873
913.760	0.0145190
913.838	0.0145755
913.916	0.0144405
913.994	0.0144496
914.072	0.0145289
914.150	0.0142496
914.228	0.0145325
914.307	0.0144317
914.385	0.0142828
914.463	0.0144072
914.541	0.0143399
914.619	0.0141750
914.697	0.0144902
914.775	0.0145015
914.853	0.0143474
914.932	0.0143977
915.010	0.0144734
915.088	0.0144086
915.166	0.0144318
915.244	0.0144458
915.322	0.0145033
915.400	0.0144965
915.478	0.0142992
915.557	0.0142642
915.635	0.0144664
915.713	0.0144817
915.791	0.0145357
915.869	0.0144464
915.947	0.0145390
916.025	0.0146633
916.103	0.0146375
916.182	0.0145968
916.260	0.0146937
916.338	0.0148226
916.416	0.0146925
916.494	0.0146856
916.572	0.0146886
916.650	0.0147888
916.728	0.0146954
916.807	0.0147884
916.885	0.0148135
916.963	0.0147070
917.041	0.0147141
917.119	0.0145109
917.197	0.0145975
917.275	0.0146183
917.353	0.0146620
917.432	0.0147076
917.510	0.0146573
917.588	0.0148055
917.666	0.0146294
917.744	0.0146484
917.822	0.0146040
917.900	0.0145531
917.978	0.0145470
918.057	0.0146432
918.135	0.0147243
918.213	0.0146407
918.291	0.0145953
918.369	0.0145771
918.447	0.0145347
918.525	0.0145999
918.603	0.0145924
918.682	0.0147039
918.760	0.0147308
918.838	0.0146880
918.916	0.0147050
918.994	0.0146401
919.072	0.0146260
919.150	0.0145491
919.228	0.0146276
919.307	0.0145502
919.385	0.0145896
919.463	0.0145322
919.541	0.0145222
919.619	0.0147316
919.697	0.0147687
919.775	0.0145535
919.853	0.0145693
919.932	0.0144169
920.010	0.0144199
920.088	0.0144722
920.166	0.0145447
920.244	0.0144299
920.322	0.0143708
920.400	0.0144522
920.478	0.0144675
920.557	0.0143720
920.635	0.0143407
920.713	0.0143832
920.791	0.0144601
920.869	0.0143748
920.947	0.0144231
921.025	0.0144965
921.103	0.0143224
921.182	0.0143883
921.260	0.0144149
921.338	0.0145193
921.416	0.0144656
921.494	0.0145635
921.572	0.0145266
921.650	0.0144717
921.728	0.0144777
921.807	0.0144196
921.885	0.0143796
921.963	0.0145659
922.041	0.0145303
922.119	0.0144068
922.197	0.0144263
922.275	0.0144648
922.353	0.0144260
922.432	0.0144039
922.510	0.0146248
922.588	0.0144839
922.666	0.0145259
922.744	0.0145202
922.822	0.0144585
922.900	0.0145466
922.978	0.0145945
923.057	0.0146216
923.135	0.0144701
923.213	0.0144460
923.291	0.0144565
923.369	0.0144382
923.447	0.0144688
923.525	0.0143725
923.603	0.0142860
923.682	0.0144290
923.760	0.0143938
923.838	0.0143118
923.916	0.0143930
923.994	0.0144978
924.072	0.0143195
924.150	0.0144128
924.228	0.0144718
924.307	0.0144398
924.385	0.0144323
924.463	0.0144469
924.541	0.0144754
924.619	0.0145203
924.697	0.0144453
924.775	0.0145348
924.853	0.0144896
924.932	0.0145139
925.010	0.0145196
925.088	0.0145769
925.166	0.0145435
925.244	0.0144930
925.322	0.0144369
925.400	0.0144093
925.478	0.0145309
925.557	0.0145436
925.635	0.0145819
925.713	0.0145024
925.791	0.0144492
925.869	0.0144764
925.947	0.0145568
926.025	0.0145578
926.103	0.0144370
926.182	0.0144785
926.260	0.0145390
926.338	0.0144963
926.416	0.0144798
926.494	0.0145407
926.572	0.0144996
926.650	0.0143510
926.728	0.0145296
926.807	0.0144753
926.885	0.0142760
926.963	0.0143926
927.041	0.0144727
927.119	0.0145683
927.197	0.0144416
927.275	0.0144741
927.353	0.0144006
927.432	0.0144396
927.510	0.0145420
927.588	0.0144074
927.666	0.0143466
927.744	0.0143546
927.822	0.0144225
927.900	0.0143844
927.978	0.0142707
928.057	0.0142575
928.135	0.0144798
928.213	0.0142960
928.291	0.0143639
928.369	0.0143406
928.447	0.0142536
928.525	0.0142926
928.603	0.0144269
928.682	0.0144064
928.760	0.0142362
928.838	0.0142515
928.916	0.0144199
928.994	0.0144360
929.072	0.0142455
929.150	0.0143588
929.228	0.0142902
929.307	0.0143382
929.385	0.0142748
929.463	0.0144736
929.541	0.0144325
929.619	0.0143332
929.697	0.0143630
929.775	0.0141143
929.853	0.0142326
929.932	0.0141551
930.010	0.0142928
930.088	0.0144331
930.166	0.0143798
930.244	0.0143574
930.322	0.0142606
930.400	0.0143277
930.478	0.0141673
930.557	0.0143280
930.635	0.0142391
930.713	0.0142809
930.791	0.0143066
930.869	0.0142148
930.947	0.0142592
931.025	0.0143228
931.103	0.0141541
931.182	0.0143307
931.260	0.0143122
931.338	0.0141767
931.416	0.0141367
931.494	0.0140310
931.572	0.0140491
931.650	0.0139772
931.728	0.0140744
931.807	0.0139357
931.885	0.0139146
931.963	0.0140894
932.041	0.0140678
932.119	0.0139252
932.197	0.0140364
932.275	0.0140725
932.353	0.0141399
932.432	0.0140776
932.510	0.0141922
932.588	0.0143152
932.666	0.0141627
932.744	0.0144154
932.822	0.0146081
932.900	0.0143961
932.978	0.0145741
933.057	0.0147069
933.135	0.0145466
933.213	0.0145421
933.291	0.0144678
933.369	0.0146298
933.447	0.0145465
933.525	0.0145207
933.603	0.0146575
933.682	0.0148075
933.760	0.0145000
933.838	0.0144874
933.916	0.0145727
933.994	0.0145528
934.072	0.0145275
934.150	0.0146387
934.228	0.0146655
934.307	0.0145510
934.385	0.0145703
934.463	0.0143954
934.541	0.0145035
934.619	0.0145347
934.697	0.0144221
934.775	0.0144959
934.853	0.0144551
934.932	0.0143616
935.010	0.0143626
935.088	0.0143494
935.166	0.0143709
935.244	0.0144846
935.322	0.0142288
935.400	0.0142209
935.478	0.0143885
935.557	0.0143011
935.635	0.0143724
935.713	0.0143050
935.791	0.0142602
935.869	0.0142218
935.947	0.0143286
936.025	0.0143877
936.103	0.0143637
936.182	0.0143701
936.260	0.0142559
936.338	0.0144515
936.416	0.0143863
936.494	0.0143124
936.572	0.0144589
936.650	0.0143879
936.728	0.0142204
936.807	0.0142999
936.885	0.0144911
936.963	0.0144567
937.041	0.0145090
937.119	0.0144453
937.197	0.0145313
937.275	0.0145768
937.353	0.0143761
937.432	0.0145188
937.510	0.0145464
937.588	0.0144216
937.666	0.0145382
937.744	0.0145985
937.822	0.0145999
937.900	0.0146420
937.978	0.0144951
938.057	0.0144948
938.135	0.0145914
938.213	0.0147030
938.291	0.0146334
938.369	0.0144888
938.447	0.0145885
938.525	0.0145821
938.603	0.0143987
938.682	0.0144385
938.760	0.0144317
938.838	0.0144653
938.916	0.0145304
938.994	0.0142801
939.072	0.0142367
939.150	0.0144147
939.228	0.0143584
939.307	0.0143783
939.385	0.0143736
939.463	0.0142854
939.541	0.0143009
939.619	0.0145118
939.697	0.0144264
939.775	0.0142735
939.853	0.0142475
939.932	0.0143766
940.010	0.0143949
940.088	0.0146244
940.166	0.0144459
940.244	0.0144260
940.322	0.0146532
940.400	0.0144670
940.478	0.0145628
940.557	0.0144828
940.635	0.0146793
940.713	0.0146414
940.791	0.0145732
940.869	0.0146188
940.947	0.0146281
941.025	0.0145264
941.103	0.0146330
941.182	0.0145547
941.260	0.0145914
941.338	0.0145295
941.416	0.0146700
941.494	0.0146530
941.572	0.0146531
941.650	0.0146023
941.728	0.0144415
941.807	0.0146407
941.885	0.0146799
941.963	0.0146233
942.041	0.0145914
942.119	0.0146643
942.197	0.0146044
942.275	0.0146466
942.353	0.0147011
942.432	0.0146149
942.510	0.0146742
942.588	0.0146933
942.666	0.0147969
942.744	0.0148029
942.822	0.0147458
942.900	0.0147295
942.978	0.0147226
943.057	0.0148519
943.135	0.0148277
943.213	0.0147153
943.291	0.0147537
943.369	0.0148014
943.447	0.0146062
943.525	0.0146157
943.603	0.0147994
943.682	0.0146378
943.760	0.0147952
943.838	0.0145407
943.916	0.0146519
943.994	0.0146237
944.072	0.0145872
944.150	0.0146695
944.228	0.0145456
944.307	0.0145458
944.385	0.0145013
944.463	0.0145219
944.541	0.0145452
944.619	0.0142558
944.697	0.0142635
944.775	0.0142327
944.853	0.0142753
944.932	0.0143095
945.010	0.0141927
945.088	0.0142331
945.166	0.0142114
945.244	0.0141290
945.322	0.0143085
945.400	0.0142055
945.478	0.0141655
945.557	0.0142751
945.635	0.0141626
945.713	0.0142779
945.791	0.0142793
945.869	0.0143344
945.947	0.0143225
946.025	0.0144488
946.103	0.0144424
946.182	0.0143171
946.260	0.0145456
946.338	0.0144991
946.416	0.0145186
946.494	0.0143779
946.572	0.0143941
946.650	0.0145299
946.728	0.0146432
946.807	0.0146259
946.885	0.0145197
946.963	0.0145347
947.041	0.0146277
947.119	0.0145528
947.197	0.0146711
947.275	0.0145229
947.353	0.0145016
947.432	0.0144772
947.510	0.0144453
947.588	0.0145801
947.666	0.0145413
947.744	0.0145551
947.822	0.0145886
947.900	0.0144684
947.978	0.0144813
948.057	0.0146012
948.135	0.0146038
948.213	0.0146775
948.291	0.0146320
948.369	0.0147134
948.447	0.0145621
948.525	0.0146272
948.603	0.0147054
948.682	0.0147098
948.760	0.0145924
948.838	0.0145679
948.916	0.0145103
948.994	0.0145670
949.072	0.0147013
949.150	0.0145023
949.228	0.0146191
949.307	0.0145728
949.385	0.0145493
949.463	0.0144915
949.541	0.0143744
949.619	0.0143618
949.697	0.0145570
949.775	0.0144723
949.853	0.0145016
949.932	0.0146974
950.010	0.0146343
950.088	0.0143475
950.166	0.0144445
950.244	0.0144816
950.322	0.0143188
950.400	0.0142502
950.478	0.0143049
950.557	0.0143201
950.635	0.0140211
950.713	0.0140812
950.791	0.0141297
950.869	0.0141782
950.947	0.0141384
951.025	0.0140502
951.103	0.0140920
951.182	0.0141575
951.260	0.0143598
951.338	0.0142193
951.416	0.0141098
951.494	0.0140474
951.572	0.0141586
951.650	0.0141071
951.728	0.0140580
951.807	0.0140362
951.885	0.0141991
951.963	0.0142255
952.041	0.0141380
952.119	0.0142438
952.197	0.0141988
952.275	0.0143386
952.353	0.0143293
952.432	0.0142397
952.510	0.0141708
952.588	0.0143852
952.666	0.0142837
952.744	0.0145051
952.822	0.0143232
952.900	0.0143959
952.978	0.0144816
953.057	0.0144623
953.135	0.0145104
953.213	0.0144572
953.291	0.0145261
953.369	0.0146378
953.447	0.0145904
953.525	0.0145138
953.603	0.0145081
953.682	0.0146071
953.760	0.0146817
953.838	0.0147514
953.916	0.0147063
953.994	0.0147459
954.072	0.0145624
954.150	0.0146789
954.228	0.0145375
954.307	0.0145163
954.385	0.0146900
954.463	0.0145825
954.541	0.0145396
954.619	0.0144485
954.697	0.0146392
954.775	0.0145507
954.853	0.0145916
954.932	0.0144711
955.010	0.0144539
955.088	0.0145559
955.166	0.0145020
955.244	0.0144520
955.322	0.0145213
955.400	0.0144408
955.478	0.0143541
955.557	0.0144955
955.635	0.0141475
955.713	0.0144373
955.791	0.0143928
955.869	0.0144593
955.947	0.0144691
956.025	0.0143301
956.103	0.0143084
956.182	0.0144059
956.260	0.0143961
956.338	0.0143927
956.416	0.0144180
956.494	0.0143891
956.572	0.0145251
956.650	0.0143336
956.728	0.0143755
956.807	0.0143135
956.885	0.0143747
956.963	0.0142971
957.041	0.0144491
957.119	0.0144038
957.197	0.0143929
957.275	0.0143490
957.353	0.0143866
957.432	0.0144175
957.510	0.0145073
957.588	0.0144128
957.666	0.0143366
957.744	0.0144012
957.822	0.0144116
957.900	0.0143112
957.978	0.0144430
958.057	0.0145431
958.135	0.0143318
958.213	0.0143813
958.291	0.0143920
958.369	0.0143208
958.447	0.0142528
958.525	0.0142761
958.603	0.0144634
958.682	0.0143597
958.760	0.0143845
958.838	0.0143109
958.916	0.0143453
958.994	0.0143288
959.072	0.0144617
959.150	0.0142576
959.228	0.0142619
959.307	0.0142946
959.385	0.0142707
959.463	0.0143311
959.541	0.0142937
959.619	0.0143922
959.697	0.0142395
959.775	0.0142490
959.853	0.0142883
959.932	0.0144388
960.010	0.0143880
960.088	0.0145753
960.166	0.0145392
960.244	0.0145457
960.322	0.0144643
960.400	0.0145169
960.478	0.0146912
960.557	0.0145281
960.635	0.0145309
960.713	0.0145776
960.791	0.0146024
960.869	0.0145003
960.947	0.0144933
961.025	0.0146503
961.103	0.0145398
961.182	0.0146442
961.260	0.0144694
961.338	0.0145153
961.416	0.0146191
961.494	0.0146614
961.572	0.0145579
961.650	0.0145634
961.728	0.0146265
961.807	0.0145599
961.885	0.0145998
961.963	0.0145161
962.041	0.0145474
962.119	0.0146863
962.197	0.0146255
962.275	0.0144759
962.353	0.0146243
962.432	0.0145389
962.510	0.0144846
962.588	0.0145235
962.666	0.0144883
962.744	0.0145119
962.822	0.0146146
962.900	0.0146561
962.978	0.0145422
963.057	0.0146225
963.135	0.0145406
963.213	0.0146042
963.291	0.0145527
963.369	0.0145437
963.447	0.0145067
963.525	0.0145390
963.603	0.0146186
963.682	0.0145377
963.760	0.0144702
963.838	0.0146635
963.916	0.0147639
963.994	0.0145374
964.072	0.0144130
964.150	0.0143194
964.228	0.0145020
964.307	0.0145438
964.385	0.0144666
964.463	0.0146081
964.541	0.0144807
964.619	0.0145673
964.697	0.0144940
964.775	0.0145544
964.853	0.0146569
964.932	0.0145780
965.010	0.0145059
965.088	0.0146259
965.166	0.0144990
965.244	0.0143852
965.322	0.0144993
965.400	0.0146015
965.478	0.0145509
965.557	0.0144112
965.635	0.0144638
965.713	0.0145054
965.791	0.0145536
965.869	0.0145163
965.947	0.0142887
966.025	0.0144072
966.103	0.0143246
966.182	0.0143184
966.260	0.0144673
966.338	0.0144657
966.416	0.0143772
966.494	0.0143252
966.572	0.0143641
966.650	0.0144293
966.728	0.0145673
966.807	0.0144310
966.885	0.0143671
966.963	0.0145170
967.041	0.0145103
967.119	0.0145489
967.197	0.0146074
967.275	0.0146432
967.353	0.0146209
967.432	0.0146327
967.510	0.0146044
967.588	0.0147758
967.666	0.0146954
967.744	0.0146833
967.822	0.0147585
967.900	0.0147834
967.978	0.0148202
968.057	0.0148819
968.135	0.0148967
968.213	0.0147739
968.291	0.0148592
968.369	0.0148973
968.447	0.0149187
968.525	0.0149012
968.603	0.0146608
968.682	0.0148630
968.760	0.0148035
968.838	0.0147131
968.916	0.0148273
968.994	0.0145905
969.072	0.0146502
969.150	0.0146823
969.228	0.0145811
969.307	0.0146465
969.385	0.0146391
969.463	0.0145609
969.541	0.0144704
969.619	0.0145149
969.697	0.0145279
969.775	0.0143664
969.853	0.0144987
969.932	0.0144841
